SpectraSuite Data File
++++++++++++++++++++++++++++++++++++
Date: Fri Oct 18 13:54:26 GMT-05:00 2013
User: bianchi
Dark Spectrum Present: No
Reference Spectrum Present: No
Number of Sampled Component Spectra: 1
Spectrometers: USB2+H05261
Integration Time (usec): 100000 (USB2+H05261)
Spectra Averaged: 1 (USB2+H05261)
Boxcar Smoothing: 0 (USB2+H05261)
Correct for Electrical Dark: No (USB2+H05261)
Strobe/Lamp Enabled: No (USB2+H05261)
Correct for Detector Non-linearity: No (USB2+H05261)
Correct for Stray Light: No (USB2+H05261)
Number of Pixels in Processed Spectrum: 2048
>>>>>Begin Processed Spectral Data<<<<<
365.73	0.00
365.92	0.00
366.12	0.00
366.32	0.00
366.52	0.00
366.72	0.00
366.91	0.00
367.11	0.00
367.31	0.00
367.51	0.00
367.70	0.00
367.90	0.00
368.10	0.00
368.30	0.00
368.49	0.00
368.69	0.00
368.89	0.00
369.09	0.00
369.28	0.00
369.48	0.00
369.68	0.00
369.87	0.00
370.07	0.00
370.27	0.00
370.47	37.45
370.66	168.52
370.86	283.20
371.06	337.04
371.25	341.72
371.45	407.25
371.65	421.30
371.84	301.93
372.04	402.57
372.24	344.06
372.44	351.08
372.63	404.91
372.83	470.45
373.03	456.40
373.22	388.53
373.42	458.74
373.62	397.89
373.81	397.89
374.01	479.81
374.21	463.43
374.40	428.32
374.60	493.85
374.79	554.71
374.99	564.07
375.19	489.17
375.38	557.05
375.58	503.22
375.78	545.34
375.97	472.79
376.17	514.92
376.37	524.28
376.56	472.79
376.76	559.39
376.95	512.58
377.15	582.79
377.35	517.26
377.54	596.84
377.74	631.94
377.93	521.94
378.13	585.13
378.33	571.09
378.52	571.09
378.72	554.71
378.91	620.24
379.11	571.09
379.31	610.88
379.50	578.11
379.70	634.29
379.89	645.99
380.09	681.10
380.28	669.39
380.48	629.60
380.68	627.26
380.87	599.18
381.07	608.54
381.26	688.12
381.46	692.80
381.65	648.33
381.85	763.01
382.04	660.03
382.24	720.88
382.43	732.59
382.63	664.71
382.83	748.97
383.02	746.63
383.22	676.41
383.41	746.63
383.61	695.14
383.80	758.33
384.00	784.08
384.19	748.97
384.39	748.97
384.58	819.19
384.78	770.04
384.97	835.57
385.17	713.86
385.36	723.23
385.56	793.44
385.75	739.61
385.95	755.99
386.14	814.51
386.34	755.99
386.53	760.67
386.72	828.55
386.92	844.93
387.11	863.66
387.31	861.32
387.50	847.27
387.70	894.08
387.89	957.28
388.09	840.25
388.28	908.13
388.48	884.72
388.67	889.40
388.86	924.51
389.06	1041.54
389.25	968.98
389.45	1020.47
389.64	1011.11
389.84	1020.47
390.03	966.64
390.22	985.37
390.42	917.49
390.61	919.83
390.81	985.37
391.00	964.30
391.19	1064.94
391.39	990.05
391.58	1074.31
391.78	1116.44
391.97	1086.01
392.16	1008.77
392.36	1088.35
392.55	1123.46
392.75	1170.27
392.94	1179.63
393.13	1109.41
393.33	1137.50
393.52	1121.12
393.71	1107.07
393.91	1181.97
394.10	1111.75
394.29	1238.14
394.49	1193.67
394.68	1181.97
394.88	1247.51
395.07	1324.74
395.26	1284.95
395.46	1310.70
395.65	1296.66
395.84	1350.49
396.04	1446.45
396.23	1366.87
396.42	1277.93
396.62	1352.83
396.81	1364.53
397.00	1357.51
397.19	1387.94
397.39	1385.60
397.58	1467.52
397.77	1469.86
397.97	1413.68
398.16	1483.90
398.35	1551.78
398.55	1458.15
398.74	1467.52
398.93	1533.05
399.12	1486.24
399.32	1483.90
399.51	1523.69
399.70	1579.86
399.90	1647.74
400.09	1631.35
400.28	1535.39
400.47	1509.65
400.67	1732.00
400.86	1591.56
401.05	1526.03
401.24	1774.13
401.44	1629.01
401.63	1657.10
401.82	1699.23
402.01	1652.42
402.21	1624.33
402.40	1720.29
402.59	1879.45
402.78	1678.16
402.97	1935.62
403.17	1895.83
403.36	1853.70
403.55	1788.17
403.74	1844.34
403.93	1870.09
404.13	2026.90
404.32	1865.41
404.51	1856.04
404.70	1921.58
404.89	1923.92
405.09	1980.09
405.28	1937.96
405.47	1980.09
405.66	2108.82
405.85	2122.87
406.05	2047.97
406.24	2127.55
406.43	2167.34
406.62	2136.91
406.81	2143.93
407.00	2094.78
407.20	2085.42
407.39	2200.10
407.58	2232.87
407.77	2279.68
407.96	2237.55
408.15	2249.25
408.34	2260.96
408.54	2258.62
408.73	2431.82
408.92	2373.30
409.11	2328.83
409.30	2373.30
409.49	2513.74
409.68	2487.99
409.87	2567.57
410.07	2605.02
410.26	2455.22
410.45	2537.14
410.64	2464.58
410.83	2661.19
411.02	2551.18
411.21	2579.27
411.40	2794.60
411.59	2743.11
411.78	2785.24
411.98	2689.28
412.17	2761.83
412.36	2885.88
412.55	2869.50
412.74	2951.42
412.93	3016.95
413.12	2860.13
413.31	2974.82
413.50	2998.23
413.69	2995.89
413.88	3047.38
414.07	3098.87
414.26	3152.70
414.45	3136.32
414.64	3096.53
414.83	3424.20
415.02	3302.50
415.22	3365.69
415.41	3529.53
415.60	3283.77
415.79	3419.52
415.98	3595.06
416.17	3438.25
416.36	3489.74
416.55	3566.98
416.74	3574.00
416.93	3616.13
417.12	3803.37
417.31	3590.38
417.50	3637.19
417.69	3957.85
417.88	3681.66
418.07	3712.09
418.26	3772.94
418.45	4009.34
418.64	4014.02
418.83	3974.23
419.02	4098.28
419.21	3950.82
419.39	4133.39
419.58	3852.52
419.77	4042.11
419.96	4102.96
420.15	4145.09
420.34	4152.11
420.53	4229.35
420.72	4400.21
420.91	4241.05
421.10	4351.06
421.29	4348.72
421.48	4259.78
421.67	4372.12
421.86	4285.52
422.05	4365.10
422.24	4341.69
422.43	4418.93
422.61	4386.16
422.80	4451.70
422.99	4451.70
423.18	4514.89
423.37	4472.76
423.56	4550.00
423.75	4465.74
423.94	4374.46
424.13	4147.43
424.32	4294.88
424.50	4550.00
424.69	4732.56
424.88	4760.65
425.07	4451.70
425.26	4402.55
425.45	4629.58
425.64	4650.64
425.83	4603.83
426.01	4676.39
426.20	4360.42
426.39	4606.17
426.58	4568.73
426.77	4542.98
426.96	4610.86
427.15	4638.94
427.33	4662.35
427.52	4781.71
427.71	4812.14
427.90	4774.69
428.09	4922.15
428.28	4779.37
428.46	5018.11
428.65	4943.21
428.84	4898.74
429.03	4978.32
429.22	4865.97
429.40	4985.34
429.59	5001.72
429.78	4774.69
429.97	4655.33
430.16	4774.69
430.34	4973.64
430.53	5186.63
430.72	5254.50
430.91	5118.75
431.10	5062.58
431.28	5212.37
431.47	5214.71
431.66	5416.00
431.85	5387.91
432.03	5413.66
432.22	5343.44
432.41	5425.36
432.60	5518.98
432.79	5366.85
432.97	5551.75
433.16	5511.96
433.35	5483.88
433.54	5540.05
433.72	5652.39
433.91	5521.32
434.10	5575.16
434.28	5722.61
434.47	5631.33
434.66	5769.42
434.85	5806.87
435.03	5884.11
435.22	5668.78
435.41	6073.69
435.59	5790.49
435.78	5820.91
435.97	5937.94
436.16	5827.93
436.34	5748.36
436.53	5977.73
436.72	6108.80
436.90	5839.64
437.09	6129.86
437.28	5914.53
437.46	6097.10
437.65	6120.50
437.84	6253.91
438.02	6174.33
438.21	6223.48
438.40	6118.16
438.58	6406.05
438.77	6539.46
438.96	6511.37
439.14	6478.60
439.33	6387.32
439.52	6612.01
439.70	6675.21
439.89	6764.15
440.08	6651.80
440.26	6736.06
440.45	6614.35
440.63	6782.87
440.82	7005.22
441.01	6825.00
441.19	7042.67
441.38	7014.59
441.57	7070.76
441.75	7180.76
441.94	7267.36
442.12	7466.31
442.31	7564.61
442.50	7513.12
442.68	7272.04
442.87	7492.05
443.05	7400.77
443.24	7681.64
443.43	7625.47
443.61	7527.16
443.80	7749.51
443.98	7508.44
444.17	7143.32
444.35	7644.19
444.54	7691.00
444.73	7810.37
444.91	7789.30
445.10	7576.31
445.28	7463.97
445.47	7796.32
445.65	7501.42
445.84	7796.32
446.02	7885.26
446.21	7665.25
446.39	7695.68
446.58	7602.06
446.77	7578.65
446.95	7674.62
447.14	7723.77
447.32	7918.03
447.51	7847.82
447.69	7880.58
447.88	7843.14
448.06	7805.69
448.25	7843.14
448.43	8250.39
448.62	7969.52
448.80	7866.54
448.99	8079.53
449.17	7859.52
449.36	7927.39
449.54	8168.47
449.73	8194.22
449.91	8283.16
450.10	8376.78
450.28	8336.99
450.46	8304.22
450.65	8290.18
450.83	8313.58
451.02	8498.49
451.20	8430.61
451.39	8475.08
451.57	8528.91
451.76	8400.18
451.94	8709.13
452.13	8510.19
452.31	8482.10
452.49	8283.16
452.68	8676.37
452.86	8716.16
453.05	8559.34
453.23	8751.26
453.42	8664.66
453.60	8547.64
453.78	8788.71
453.97	8879.99
454.15	8844.88
454.34	8777.01
454.52	8875.31
454.70	8762.97
454.89	9053.19
455.07	9039.15
455.26	9015.74
455.44	9153.84
455.62	9195.96
455.81	9261.50
455.99	9092.98
456.17	9348.10
456.36	9238.09
456.54	9406.61
456.73	9415.98
456.91	9692.16
457.09	9521.30
457.28	9469.81
457.46	9483.85
457.64	9603.22
457.83	9685.14
458.01	9509.60
458.19	9914.51
458.38	9668.75
458.56	9886.42
458.74	9738.97
458.93	9706.20
459.11	9996.43
459.29	9799.82
459.48	10012.81
459.66	9909.83
459.84	10040.90
460.03	10104.09
460.21	10139.20
460.39	10190.69
460.57	10031.54
460.76	10270.27
460.94	10511.35
461.12	10317.08
461.31	10132.18
461.49	10260.91
461.67	10186.01
461.85	10457.51
462.04	10438.79
462.22	11049.67
462.40	10633.05
462.59	10539.43
462.77	10363.89
462.95	10679.86
463.13	10654.12
463.32	10504.32
463.50	10736.04
463.68	10792.21
463.86	10764.12
464.05	10729.02
464.23	10698.59
464.41	11014.56
464.59	10600.29
464.78	11321.17
464.96	10925.62
465.14	11009.88
465.32	11063.71
465.50	11077.76
465.69	10986.47
465.87	11229.89
466.05	11316.49
466.23	11197.12
466.41	11194.78
466.60	11541.18
466.78	11009.88
466.96	11279.04
467.14	11346.92
467.32	11606.72
467.51	11405.43
467.69	11084.78
467.87	11337.56
468.05	11517.78
468.23	11407.77
468.41	11707.36
468.60	11382.03
468.78	11534.16
468.96	11477.99
469.14	11667.57
469.32	11833.75
469.50	11480.33
469.69	11665.23
469.87	12191.85
470.05	11899.28
470.23	12084.19
470.41	11990.56
470.59	12140.36
470.77	11805.66
470.95	12105.25
471.14	12262.07
471.32	12119.29
471.50	12332.28
471.68	12461.01
471.86	12351.01
472.04	12512.50
472.22	12655.28
472.40	12453.99
472.58	12547.61
472.77	12500.80
472.95	12769.96
473.13	13240.41
473.31	12858.90
473.49	12872.95
473.67	12996.99
473.85	13123.38
474.03	13195.94
474.21	13315.31
474.39	13385.52
474.57	13338.71
474.75	13738.94
474.93	13865.33
475.12	13720.22
475.30	13860.65
475.48	13568.09
475.66	13956.61
475.84	14047.90
476.02	14148.54
476.20	14188.33
476.38	14328.76
476.56	14764.10
476.74	14637.71
476.92	14525.36
477.10	14520.68
477.28	14663.46
477.46	14537.07
477.64	14782.82
477.82	15360.94
478.00	15232.21
478.18	15382.00
478.36	15616.05
478.54	15662.86
478.72	15805.64
478.90	15756.49
479.08	15868.83
479.26	16004.58
479.44	16180.12
479.62	16432.90
479.80	16290.13
479.98	16690.36
480.16	16877.60
480.34	16615.46
480.52	17167.83
480.70	16940.80
480.88	16952.50
481.06	17135.06
481.24	16882.28
481.41	17495.50
481.59	17696.79
481.77	17977.65
481.95	17980.00
482.13	17982.34
482.31	18293.63
482.49	18192.98
482.67	18326.39
482.85	18593.22
483.03	18801.52
483.21	19112.81
483.39	19030.90
483.57	18834.29
483.74	19276.65
483.92	19531.77
484.10	19351.55
484.28	19896.89
484.46	20105.20
484.64	20554.58
484.82	20070.09
485.00	20100.52
485.18	20851.83
485.35	20875.24
485.53	20994.61
485.71	21088.23
485.89	21598.46
486.07	21366.75
486.25	21532.93
486.43	21394.84
486.61	21671.02
486.78	22143.81
486.96	22017.42
487.14	22675.11
487.32	22677.45
487.50	22698.52
487.68	22984.06
487.85	23178.33
488.03	23206.41
488.21	23424.08
488.39	23761.12
488.57	23833.68
488.75	23538.77
488.92	24208.16
489.10	24460.94
489.28	24720.74
489.46	24669.25
489.64	24936.07
489.81	25179.48
489.99	25146.72
490.17	25247.36
490.35	25659.29
490.53	25689.72
490.70	25919.09
490.88	26005.69
491.06	26302.94
491.24	26403.58
491.41	26221.02
491.59	26618.91
491.77	26897.44
491.95	26977.01
492.13	27557.47
492.30	27316.39
492.48	27232.13
492.66	27419.38
492.84	27889.82
493.01	27915.57
493.19	27988.13
493.37	28388.36
493.54	28435.17
493.72	28608.37
493.90	28477.30
494.08	29111.58
494.25	29364.36
494.43	29259.04
494.61	29177.12
494.79	29743.53
494.96	29593.73
495.14	30015.03
495.32	30026.73
495.49	30338.02
495.67	30429.30
495.85	30764.00
496.02	31061.25
496.20	30824.86
496.38	30639.95
496.55	31079.97
496.73	31924.91
496.91	31957.67
497.09	31985.76
497.26	31964.70
497.44	31655.75
497.62	31896.82
497.79	32542.81
497.97	32285.35
498.14	32783.88
498.32	32797.93
498.50	32793.25
498.67	33275.40
498.85	32877.51
499.03	33479.02
499.20	33516.47
499.38	33310.50
499.56	33497.75
499.73	33897.98
499.91	34075.86
500.08	34227.99
500.26	33663.93
500.44	34206.93
500.61	34066.50
500.79	34457.37
500.97	34735.89
501.14	35409.96
501.32	35321.02
501.49	35016.75
501.67	35093.99
501.84	35093.99
502.02	35330.39
502.20	35512.95
502.37	35438.05
502.55	35889.77
502.72	35842.96
502.90	35934.24
503.07	35842.96
503.25	36039.57
503.43	36299.37
503.60	36678.54
503.78	36456.18
503.95	36891.52
504.13	36287.67
504.30	36610.66
504.48	36816.63
504.65	36999.19
504.83	37464.96
505.01	37816.04
505.18	37745.82
505.36	38204.56
505.53	37717.73
505.71	37729.44
505.88	37949.45
506.06	37794.97
506.23	37900.29
506.41	38162.43
506.58	38742.89
506.76	38209.25
506.93	38415.21
507.11	38436.28
507.28	38848.21
507.46	38972.26
507.63	38955.88
507.81	39222.70
507.98	38803.74
508.16	39555.05
508.33	39421.64
508.50	39571.44
508.68	39887.41
508.85	39796.13
509.03	39934.22
509.20	40198.70
509.38	40549.78
509.55	40367.22
509.73	40243.17
509.90	40528.72
510.08	40479.57
510.25	40292.32
510.42	40566.16
510.60	41158.32
510.77	41214.49
510.95	41567.91
511.12	40629.36
511.30	41170.02
511.47	41251.94
511.64	41663.88
511.82	42174.11
511.99	41656.85
512.17	42279.44
512.34	41851.12
512.51	42274.76
512.69	42157.73
512.86	42176.45
513.04	42181.13
513.21	42543.92
513.38	42808.40
513.56	42649.24
513.73	43145.44
513.90	42424.55
514.08	42588.39
514.25	43014.37
514.43	43250.76
514.60	43180.54
514.77	43456.73
514.95	43749.29
515.12	43522.26
515.29	43316.29
515.47	44105.06
515.64	44004.41
515.81	43782.06
515.99	44083.99
516.16	44392.94
516.33	44243.15
516.51	44538.05
516.68	44395.28
516.85	44292.30
517.03	44856.37
517.20	44474.86
517.37	44697.21
517.54	44605.93
517.72	44570.82
517.89	44907.86
518.06	45017.86
518.24	44460.82
518.41	45155.96
518.58	44942.97
518.75	45607.68
518.93	45659.17
519.10	45673.21
519.27	46017.27
519.45	45436.82
519.62	45839.39
519.79	45558.53
519.96	45944.72
520.14	45986.85
520.31	45844.07
520.48	46281.75
520.65	46141.32
520.83	46028.98
521.00	46335.59
521.17	46256.01
521.34	46642.20
521.52	46347.29
521.69	46934.76
521.86	46410.48
522.03	46913.70
522.20	46974.55
522.38	47075.19
522.55	47077.54
522.72	47267.12
522.89	47351.38
523.07	47337.33
523.24	47178.18
523.41	47744.59
523.58	47215.63
523.75	47583.09
523.92	47346.70
524.10	47681.39
524.27	48151.84
524.44	48212.70
524.61	48200.99
524.78	48453.77
524.96	48247.80
525.13	48484.20
525.30	48371.85
525.47	48711.23
525.64	48437.39
525.81	48467.81
525.98	48514.62
526.16	48863.36
526.33	48547.39
526.50	49008.48
526.67	48477.18
526.84	48636.33
527.01	48652.72
527.18	48641.01
527.36	49511.69
527.53	49069.33
527.70	49525.74
527.87	49443.82
528.04	49233.17
528.21	49439.14
528.38	49336.15
528.55	49497.65
528.72	49092.74
528.89	49546.80
529.07	49427.43
529.24	49640.42
529.41	49975.12
529.58	49605.31
529.75	49694.25
529.92	50110.87
530.09	50085.12
530.26	49504.67
530.43	50248.96
530.60	50000.86
530.77	50059.38
530.94	50281.73
531.11	50080.44
531.28	50241.94
531.46	49883.84
531.63	50817.71
531.80	50546.21
531.97	50623.45
532.14	50911.33
532.31	50684.30
532.48	50506.42
532.65	50649.19
532.82	50417.48
532.99	50515.78
533.16	50539.19
533.33	50726.43
533.50	51250.71
533.67	51250.71
533.84	50930.06
534.01	50703.03
534.18	51063.47
534.35	51313.90
534.52	51194.54
534.69	51217.94
534.86	51468.38
535.03	51224.96
535.20	51360.72
535.37	51475.40
535.54	51468.38
535.71	51042.40
535.88	51751.59
536.05	51398.16
536.22	51728.18
536.38	51962.23
536.55	51641.58
536.72	51880.31
536.89	51716.48
537.06	51934.15
537.23	51987.98
537.40	51672.01
537.57	51728.18
537.74	52147.14
537.91	52149.48
538.08	52027.77
538.25	51810.10
538.42	51997.34
538.59	52238.42
538.75	51899.04
538.92	52273.52
539.09	52481.83
539.26	52313.31
539.43	52362.46
539.60	52477.15
539.77	52418.64
539.94	52505.24
540.11	52779.08
540.28	52596.52
540.44	52430.34
540.61	52743.97
540.78	52659.71
540.95	52804.83
541.12	52889.09
541.29	52884.40
541.46	52865.68
541.62	52680.78
541.79	52853.98
541.96	52568.43
542.13	52811.85
542.30	53256.55
542.47	53202.72
542.63	52992.07
542.80	53188.67
542.97	53347.83
543.14	53455.50
543.31	53450.81
543.48	53462.52
543.64	53736.36
543.81	53441.45
543.98	53846.36
544.15	53598.27
544.32	53577.20
544.48	53886.15
544.65	53382.94
544.82	53490.60
544.99	53333.79
545.16	53668.48
545.32	53638.06
545.49	54021.90
545.66	54342.56
545.83	54174.04
546.00	54225.53
546.16	54113.19
546.33	53701.25
546.50	53642.74
546.67	53916.58
546.83	53715.29
547.00	54017.22
547.17	53979.78
547.34	54241.92
547.50	54031.27
547.67	54499.37
547.84	54258.30
548.00	54066.38
548.17	54150.63
548.34	54127.23
548.51	54494.69
548.67	54337.88
548.84	54576.61
549.01	54391.71
549.18	54391.71
549.34	54574.27
549.51	54394.05
549.68	54354.26
549.84	54372.99
550.01	54508.74
550.18	54529.80
550.34	54761.51
550.51	54777.90
550.68	54756.83
550.84	54436.18
551.01	54726.41
551.18	54450.22
551.34	54328.52
551.51	54539.16
551.68	55117.28
551.84	54913.65
552.01	54941.74
552.18	55128.98
552.34	54583.63
552.51	55021.31
552.68	54609.38
552.84	54845.77
553.01	55058.76
553.18	54969.82
553.34	55150.04
553.51	54749.81
553.67	55098.55
553.84	55496.44
554.01	55208.56
554.17	55016.63
554.34	55056.42
554.51	55215.58
554.67	55061.10
554.84	55089.19
555.00	55084.51
555.17	55168.77
555.33	55281.11
555.50	55238.98
555.67	55047.06
555.83	55255.37
556.00	55381.76
556.16	55433.25
556.33	55189.83
556.50	55292.82
556.66	55571.34
556.83	55416.86
556.99	55676.66
557.16	55899.01
557.32	55620.49
557.49	55833.48
557.65	55236.64
557.82	55655.60
557.98	55398.14
558.15	55627.51
558.32	55674.32
558.48	55473.04
558.65	55620.49
558.81	55428.57
558.98	55875.61
559.14	55758.58
559.31	55657.94
559.47	55781.99
559.64	55711.77
559.80	55962.21
559.97	55821.78
560.13	55709.43
560.30	55793.69
560.46	55760.92
560.63	55831.14
560.79	55679.00
560.96	56009.02
561.12	55639.22
561.29	55819.44
561.45	55683.69
561.61	55929.44
561.78	55938.80
561.94	56336.69
562.11	56341.38
562.27	55735.18
562.44	55845.18
562.60	55877.95
562.77	55908.38
562.93	55833.48
563.10	56095.62
563.26	56072.21
563.42	56149.45
563.59	56074.55
563.75	56170.52
563.92	56044.13
564.08	56011.36
564.24	56030.08
564.41	56088.60
564.57	56074.55
564.74	55763.26
564.90	56282.86
565.07	56172.86
565.23	56336.69
565.39	56067.53
565.56	56219.67
565.72	55983.27
565.88	56069.87
566.05	56116.68
566.21	56133.07
566.38	56095.62
566.54	56214.99
566.70	56313.29
566.87	56591.81
567.03	56348.40
567.19	56385.85
567.36	56273.50
567.52	56133.07
567.68	56453.72
567.85	55800.71
568.01	56493.51
568.17	56310.95
568.34	56121.37
568.50	56217.33
568.66	56306.27
568.83	56413.93
568.99	56172.86
569.15	56238.39
569.32	56301.59
569.48	56294.56
569.64	56374.14
569.81	56224.35
569.97	56364.78
570.13	56383.51
570.30	56282.86
570.46	56589.47
570.62	56371.80
570.78	56233.71
570.95	56360.10
571.11	56460.74
571.27	56168.18
571.43	56144.77
571.60	56460.74
571.76	56367.12
571.92	56629.26
572.09	56685.43
572.25	56718.20
572.41	56687.78
572.57	56673.73
572.74	56697.14
572.90	56238.39
573.06	56456.06
573.22	56451.38
573.38	56750.97
573.55	56526.28
573.71	56853.95
573.87	56493.51
574.03	56444.36
574.20	56662.03
574.36	56397.55
574.52	56388.19
574.68	56219.67
574.84	56500.53
575.01	56877.36
575.17	56851.61
575.33	56411.59
575.49	56477.13
575.65	56617.56
575.82	56647.99
575.98	56535.64
576.14	56530.96
576.30	56470.11
576.46	56027.74
576.62	56336.69
576.79	56545.00
576.95	56214.99
577.11	56650.33
577.27	56346.06
577.43	56631.60
577.59	56442.02
577.75	56367.12
577.92	56521.60
578.08	56348.40
578.24	56362.44
578.40	56484.15
578.56	56484.15
578.72	56706.50
578.88	56626.92
579.04	56676.07
579.21	56491.17
579.37	56699.48
579.53	56748.63
579.69	56577.77
579.85	56495.85
580.01	56591.81
580.17	56453.72
580.33	56374.14
580.49	56512.23
580.65	56774.37
580.82	56706.50
580.98	56755.65
581.14	56545.00
581.30	56678.41
581.46	56423.29
581.62	56608.20
581.78	56446.70
581.94	56690.12
582.10	56526.28
582.26	56460.74
582.42	56633.94
582.58	56807.14
582.74	56530.96
582.90	56589.47
583.06	56828.21
583.22	56554.36
583.38	56559.05
583.54	56523.94
583.70	56580.11
583.86	56329.67
584.02	56435.00
584.18	56727.56
584.34	56811.82
584.50	56879.70
584.66	56757.99
584.82	56655.01
584.98	56570.75
585.14	56589.47
585.30	56549.68
585.46	56533.30
585.62	56360.10
585.78	56652.67
585.94	56435.00
586.10	56694.80
586.26	56699.48
586.42	56757.99
586.58	57008.43
586.74	56760.33
586.90	56498.19
587.06	56655.01
587.22	56629.26
587.38	56537.98
587.54	56647.99
587.70	56882.04
587.86	56793.10
588.02	56685.43
588.18	56994.39
588.34	56779.06
588.49	56587.13
588.65	56807.14
588.81	56655.01
588.97	56704.16
589.13	56905.44
589.29	56860.97
589.45	57050.56
589.61	56849.27
