SpectraSuite Data File
++++++++++++++++++++++++++++++++++++
Date: Fri Oct 18 13:54:34 GMT-05:00 2013
User: bianchi
Dark Spectrum Present: No
Reference Spectrum Present: No
Number of Sampled Component Spectra: 1
Spectrometers: USB2+H05261
Integration Time (usec): 100000 (USB2+H05261)
Spectra Averaged: 1 (USB2+H05261)
Boxcar Smoothing: 0 (USB2+H05261)
Correct for Electrical Dark: No (USB2+H05261)
Strobe/Lamp Enabled: No (USB2+H05261)
Correct for Detector Non-linearity: No (USB2+H05261)
Correct for Stray Light: No (USB2+H05261)
Number of Pixels in Processed Spectrum: 2048
>>>>>Begin Processed Spectral Data<<<<<
365.73	0.00
365.92	0.00
366.12	0.00
366.32	0.00
366.52	0.00
366.72	0.00
366.91	0.00
367.11	0.00
367.31	0.00
367.51	0.00
367.70	0.00
367.90	0.00
368.10	0.00
368.30	0.00
368.49	0.00
368.69	0.00
368.89	0.00
369.09	0.00
369.28	0.00
369.48	0.00
369.68	0.00
369.87	0.00
370.07	0.00
370.27	23.41
370.47	21.06
370.66	243.42
370.86	301.93
371.06	346.40
371.25	322.99
371.45	248.10
371.65	404.91
371.84	386.19
372.04	400.23
372.24	355.76
372.44	334.70
372.63	418.96
372.83	395.55
373.03	400.23
373.22	287.89
373.42	423.64
373.62	372.15
373.81	418.96
374.01	463.43
374.21	491.51
374.40	519.60
374.60	524.28
374.79	486.83
374.99	390.87
375.19	531.30
375.38	482.15
375.58	454.06
375.78	505.56
375.97	503.22
376.17	479.81
376.37	486.83
376.56	528.96
376.76	454.06
376.95	482.15
377.15	526.62
377.35	531.30
377.54	554.71
377.74	557.05
377.93	538.32
378.13	564.07
378.33	667.05
378.52	557.05
378.72	641.31
378.91	601.52
379.11	585.13
379.31	695.14
379.50	594.50
379.70	660.03
379.89	514.92
380.09	606.20
380.28	676.41
380.48	552.37
380.68	624.92
380.87	610.88
381.07	725.57
381.26	664.71
381.46	678.76
381.65	671.73
381.85	702.16
382.04	702.16
382.24	713.86
382.43	688.12
382.63	697.48
382.83	720.88
383.02	709.18
383.22	709.18
383.41	685.78
383.61	791.10
383.80	807.48
384.00	685.78
384.19	711.52
384.39	751.31
384.58	678.76
384.78	711.52
384.97	814.51
385.17	748.97
385.36	798.12
385.56	898.77
385.75	788.76
385.95	851.96
386.14	814.51
386.34	788.76
386.53	915.15
386.72	851.96
386.92	837.91
387.11	854.30
387.31	926.85
387.50	999.41
387.70	866.00
387.89	973.66
388.09	861.32
388.28	854.30
388.48	887.06
388.67	940.90
388.86	992.39
389.06	950.26
389.25	1081.33
389.45	964.30
389.64	922.17
389.84	1048.56
390.03	1020.47
390.22	992.39
390.42	968.98
390.61	926.85
390.81	936.21
391.00	976.00
391.19	1050.90
391.39	1018.13
391.58	1139.84
391.78	1111.75
391.97	1156.22
392.16	1088.35
392.36	1217.08
392.55	1111.75
392.75	1156.22
392.94	1043.88
393.13	1132.82
393.33	1174.95
393.52	1041.54
393.71	1149.20
393.91	1137.50
394.10	1158.57
394.29	1214.74
394.49	1212.40
394.68	1207.72
394.88	1172.61
395.07	1310.70
395.26	1217.08
395.46	1217.08
395.65	1252.19
395.84	1301.34
396.04	1411.34
396.23	1460.49
396.42	1387.94
396.62	1320.06
396.81	1273.25
397.00	1390.28
397.19	1416.02
397.39	1376.24
397.58	1446.45
397.77	1423.05
397.97	1434.75
398.16	1455.81
398.35	1451.13
398.55	1479.22
398.74	1565.82
398.93	1551.78
399.12	1593.90
399.32	1441.77
399.51	1465.18
399.70	1600.93
399.90	1572.84
400.09	1633.69
400.28	1614.97
400.47	1561.14
400.67	1645.40
400.86	1596.25
401.05	1792.85
401.24	1750.72
401.44	1739.02
401.63	1720.29
401.82	1769.44
402.01	1666.46
402.21	1715.61
402.40	1748.38
402.59	1827.96
402.78	1757.74
402.97	1710.93
403.17	1834.98
403.36	1877.11
403.55	1851.36
403.74	1771.79
403.93	1893.49
404.13	1914.56
404.32	1886.47
404.51	1937.96
404.70	1991.80
404.89	1998.82
405.09	2047.97
405.28	1998.82
405.47	2073.71
405.66	2099.46
405.85	1996.48
406.05	2092.44
406.24	2169.68
406.43	2113.50
406.62	2176.70
406.81	2307.77
407.00	2111.16
407.20	2157.97
407.39	2165.00
407.58	2319.47
407.77	2242.23
407.96	2342.88
408.15	2303.09
408.34	2195.42
408.54	2305.43
408.73	2377.98
408.92	2413.09
409.11	2410.75
409.30	2492.67
409.49	2511.39
409.68	2476.29
409.87	2600.34
410.07	2534.80
410.26	2520.76
410.45	2502.03
410.64	2541.82
410.83	2647.15
411.02	2661.19
411.21	2635.44
411.40	2689.28
411.59	2736.09
411.78	2757.15
411.98	2679.91
412.17	2829.71
412.36	2977.16
412.55	2942.05
412.74	3075.46
412.93	2984.18
413.12	2906.95
413.31	3183.13
413.50	2956.10
413.69	3007.59
413.88	3096.53
414.07	3204.19
414.26	3126.96
414.45	3218.24
414.64	3213.56
414.83	3349.31
415.02	3442.93
415.22	3393.78
415.41	3417.18
415.60	3346.97
415.79	3538.89
415.98	3634.85
416.17	3709.75
416.36	3648.90
416.55	3559.95
416.74	3705.07
416.93	3665.28
417.12	3681.66
417.31	3815.07
417.50	3836.14
417.69	4011.68
417.88	3765.92
418.07	3784.65
418.26	3824.44
418.45	3936.78
418.64	3913.38
418.83	4025.72
419.02	3836.14
419.21	4095.94
419.39	4149.77
419.58	3983.59
419.77	4028.06
419.96	4189.56
420.15	4234.03
420.34	4149.77
420.53	4292.54
420.72	4285.52
420.91	4126.36
421.10	4252.75
421.29	4568.73
421.48	4168.49
421.67	4341.69
421.86	4376.80
422.05	4381.48
422.24	4388.50
422.43	4463.40
422.61	4496.17
422.80	4503.19
422.99	4559.36
423.18	4535.96
423.37	4631.92
423.56	4615.54
423.75	4566.39
423.94	4491.49
424.13	4297.22
424.32	4369.78
424.50	4643.62
424.69	4837.89
424.88	4578.09
425.07	4613.20
425.26	4475.10
425.45	4622.56
425.64	4624.90
425.83	4641.28
426.01	4706.82
426.20	4617.88
426.39	4770.01
426.58	4645.96
426.77	4643.62
426.96	4716.18
427.15	4779.37
427.33	4692.77
427.52	4762.99
427.71	4650.64
427.90	4753.63
428.09	4770.01
428.28	4805.12
428.46	4905.76
428.65	4898.74
428.84	4968.96
429.03	5128.11
429.22	4994.70
429.40	5064.92
429.59	4971.30
429.78	4919.81
429.97	4791.08
430.16	4805.12
430.34	5095.35
430.53	5291.95
430.72	5270.89
430.91	5039.17
431.10	5001.72
431.28	5308.34
431.47	5418.34
431.66	5404.30
431.85	5219.39
432.03	5378.55
432.22	5399.62
432.41	5411.32
432.60	5486.22
432.79	5448.77
432.97	5453.45
433.16	5521.32
433.35	5540.05
433.54	5486.22
433.72	5668.78
433.91	5575.16
434.10	5661.76
434.28	5631.33
434.47	5790.49
434.66	5865.38
434.85	5764.74
435.03	5769.42
435.22	5844.32
435.41	5870.06
435.59	5844.32
435.78	5851.34
435.97	5921.56
436.16	5987.09
436.34	5940.28
436.53	6059.65
436.72	6052.63
436.90	6017.52
437.09	6148.59
437.28	5970.71
437.46	6186.04
437.65	6092.41
437.84	6207.10
438.02	6347.53
438.21	6354.55
438.40	6246.89
438.58	6509.03
438.77	6406.05
438.96	6370.94
439.14	6586.27
439.33	6389.66
439.52	6647.12
439.70	6642.44
439.89	6789.89
440.08	6862.45
440.26	6930.33
440.45	6981.82
440.63	6862.45
440.82	7035.65
441.01	7112.89
441.19	7035.65
441.38	7262.68
441.57	7164.38
441.75	7222.89
441.94	7398.43
442.12	7470.99
442.31	7730.79
442.50	7440.56
442.68	7478.01
442.87	7501.42
443.05	7581.00
443.24	7578.65
443.43	7667.60
443.61	7503.76
443.80	7808.03
443.98	7485.03
444.17	7435.88
444.35	7763.56
444.54	7782.28
444.73	7824.41
444.91	7625.47
445.10	7915.69
445.28	7882.92
445.47	7751.85
445.65	7908.67
445.84	7744.83
446.02	7843.14
446.21	7950.80
446.39	7887.61
446.58	7925.05
446.77	7871.22
446.95	7779.94
447.14	7859.52
447.32	7941.44
447.51	7894.63
447.69	7756.54
447.88	7791.64
448.06	8051.44
448.25	7887.61
448.43	8002.29
448.62	7920.37
448.80	7709.72
448.99	8086.55
449.17	8002.29
449.36	8049.10
449.54	8140.38
449.73	8416.57
449.91	8198.90
450.10	8439.97
450.28	8386.14
450.46	8313.58
450.65	8430.61
450.83	8542.96
451.02	8547.64
451.20	8283.16
451.39	8519.55
451.57	8463.38
451.76	8505.51
451.94	8575.72
452.13	8645.94
452.31	8648.28
452.49	8622.53
452.68	8793.39
452.86	8545.30
453.05	8671.68
453.23	8973.61
453.42	8802.75
453.60	8777.01
453.78	8891.70
453.97	8882.33
454.15	8898.72
454.34	8997.02
454.52	8929.14
454.70	9020.42
454.89	9067.24
455.07	8966.59
455.26	9125.75
455.44	9146.81
455.62	9076.60
455.81	9015.74
455.99	9324.69
456.17	9380.87
456.36	9423.00
456.54	9270.86
456.73	9378.53
456.91	9717.90
457.09	9652.37
457.28	9666.41
457.46	9614.92
457.64	9572.79
457.83	9699.18
458.01	9666.41
458.19	9839.61
458.38	9745.99
458.56	9783.44
458.74	9930.89
458.93	9781.10
459.11	10076.01
459.29	9912.17
459.48	9848.97
459.66	10029.20
459.84	10289.00
460.03	10246.87
460.21	10118.14
460.39	10300.70
460.57	9977.70
460.76	10445.81
460.94	10298.36
461.12	10452.83
461.31	10340.49
461.49	10431.77
461.67	10415.38
461.85	10768.80
462.04	10448.15
462.22	11227.55
462.40	10520.71
462.59	10394.32
462.77	10537.09
462.95	10586.24
463.13	10813.28
463.32	10829.66
463.50	10902.22
463.68	10864.77
463.86	10981.79
464.05	10621.35
464.23	10857.75
464.41	11300.11
464.59	10832.00
464.78	11281.38
464.96	11068.39
465.14	10963.07
465.32	11183.08
465.50	11440.54
465.69	11171.38
465.87	11080.10
466.05	11379.68
466.23	11059.03
466.41	11234.57
466.60	11405.43
466.78	11290.74
466.96	11321.17
467.14	11330.53
467.32	11576.29
467.51	11485.01
467.69	11405.43
467.87	11557.57
468.05	11421.81
468.23	11658.21
468.41	11428.84
468.60	11587.99
468.78	11850.13
468.96	11639.48
469.14	11817.36
469.32	11939.07
469.50	11679.27
469.69	12025.67
469.87	11892.26
470.05	12250.36
470.23	12156.74
470.41	12093.55
470.59	12287.81
470.77	12035.03
470.95	12109.93
471.14	12472.71
471.32	12217.60
471.50	12650.60
471.68	12585.06
471.86	12545.27
472.04	12732.51
472.22	13118.70
472.40	12468.03
472.58	12898.69
472.77	12975.93
472.95	13057.85
473.13	13277.86
473.31	12819.11
473.49	13163.17
473.67	13186.58
473.85	13177.22
474.03	13584.47
474.21	13448.72
474.39	13575.11
474.57	13682.77
474.75	13551.70
474.93	13788.10
475.12	14008.11
475.30	13748.31
475.48	13661.71
475.66	13832.57
475.84	13987.04
476.02	14188.33
476.20	14057.26
476.38	14508.98
476.56	14764.10
476.74	14813.25
476.92	14572.18
477.10	14499.62
477.28	15044.96
477.46	14892.83
477.64	15126.88
477.82	15215.82
478.00	15712.02
478.18	15611.37
478.36	15634.78
478.54	16002.24
478.72	15751.81
478.90	15854.79
479.08	15793.94
479.26	16451.63
479.44	16428.22
479.62	16297.15
479.80	16620.14
479.98	16758.24
480.16	16697.38
480.34	16943.14
480.52	17144.42
480.70	17022.72
480.88	16903.35
481.06	17355.07
481.24	17598.49
481.41	17631.26
481.59	17820.84
481.77	17804.46
481.95	18211.71
482.13	18284.26
482.31	17980.00
482.49	18518.32
482.67	18515.98
482.85	18693.86
483.03	19372.61
483.21	19176.01
483.39	19222.82
483.57	19405.38
483.74	19459.21
483.92	19379.64
484.10	19669.86
484.28	20013.92
484.46	20250.32
484.64	20563.95
484.82	20224.57
485.00	20594.37
485.18	21139.72
485.35	21385.47
485.53	21336.32
485.71	21329.30
485.89	21319.94
486.07	21401.86
486.25	21589.10
486.43	21774.00
486.61	22015.08
486.78	22309.99
486.96	22235.09
487.14	22682.13
487.32	22677.45
487.50	22871.72
487.68	23267.27
487.85	23353.87
488.03	23536.43
488.21	23786.86
488.39	24135.60
488.57	24018.58
488.75	24364.98
488.92	24486.68
489.10	24613.07
489.28	24709.04
489.46	25010.96
489.64	25401.83
489.81	25266.08
489.99	25647.59
490.17	25902.71
490.35	25837.17
490.53	25907.39
490.70	26335.71
490.88	25895.69
491.06	26560.40
491.24	26349.75
491.41	26719.56
491.59	27197.02
491.77	27108.08
491.95	27438.10
492.13	27482.57
492.30	27875.78
492.48	27440.44
492.66	27793.86
492.84	27683.86
493.01	28187.07
493.19	28383.68
493.37	28795.61
493.54	28741.78
493.72	29223.93
493.90	28802.63
494.08	29570.33
494.25	29383.09
494.43	29717.78
494.61	30026.73
494.79	30015.03
494.96	30143.76
495.14	29881.62
495.32	30298.23
495.49	30408.24
495.67	30902.09
495.85	31241.47
496.02	30984.01
496.20	31477.86
496.38	31414.67
496.55	31456.80
496.73	31819.58
496.91	32037.25
497.09	32098.11
497.26	32580.26
497.44	32121.51
497.62	31924.91
497.79	32547.49
497.97	32603.66
498.14	33247.31
498.32	33443.91
498.50	33153.69
498.67	33469.66
498.85	33488.38
499.03	33806.70
499.20	33462.64
499.38	33883.94
499.56	33673.29
499.73	34717.17
499.91	34316.93
500.08	34443.32
500.26	34211.61
500.44	34609.50
500.61	35058.88
500.79	34705.46
500.97	35154.85
501.14	35739.98
501.32	35702.53
501.49	35232.08
501.67	35555.08
501.84	35637.00
502.02	35470.82
502.20	35910.84
502.37	35782.11
502.55	36095.74
502.72	36397.67
502.90	36247.88
503.07	36032.55
503.25	36460.87
503.43	36503.00
503.60	36723.01
503.78	37076.43
503.95	36638.75
504.13	36795.56
504.30	37120.90
504.48	37364.31
504.65	37336.23
504.83	38108.60
505.01	37963.49
505.18	37799.65
505.36	38012.64
505.53	37689.65
505.71	38157.75
505.88	38211.59
506.06	37916.68
506.23	38651.61
506.41	38927.79
506.58	38789.70
506.76	38677.35
506.93	38639.90
507.11	38932.47
507.28	39009.71
507.46	39440.37
507.63	39658.04
507.81	39990.39
507.98	39463.77
508.16	39428.66
508.33	39690.80
508.50	39814.85
508.68	39758.68
508.85	40479.57
509.03	40442.12
509.20	40135.51
509.38	40694.89
509.55	40851.71
509.73	40837.67
509.90	41001.50
510.08	40954.69
510.25	40989.80
510.42	40807.24
510.60	41083.42
510.77	41186.41
510.95	41926.02
511.12	40964.06
511.30	41516.42
511.47	41942.40
511.64	41961.12
511.82	41911.97
511.99	41900.27
512.17	42337.95
512.34	42007.94
512.51	42562.64
512.69	42749.88
512.86	42497.11
513.04	42967.55
513.21	42836.48
513.38	43578.43
513.56	43098.62
513.73	42813.08
513.90	43164.16
514.08	43189.91
514.25	43227.35
514.43	43323.32
514.60	43735.25
514.77	43756.32
514.95	43779.72
515.12	43819.51
515.29	43936.54
515.47	44289.96
515.64	43854.62
515.81	44065.27
515.99	44339.11
516.16	44858.71
516.33	44940.63
516.51	44933.60
516.68	44687.85
516.85	44753.38
517.03	44725.30
517.20	44772.11
517.37	44865.73
517.54	45546.82
517.72	45294.05
517.89	45202.77
518.06	45315.11
518.24	45586.61
518.41	45287.03
518.58	45626.40
518.75	45921.31
518.93	46337.93
519.10	46078.13
519.27	45743.43
519.45	45736.41
519.62	46281.75
519.79	46263.03
519.96	45895.56
520.14	46490.06
520.31	46471.34
520.48	46312.18
520.65	46298.14
520.83	46955.83
521.00	46433.89
521.17	46625.81
521.34	46625.81
521.52	47187.54
521.69	46911.36
521.86	47068.17
522.03	47058.81
522.20	47428.62
522.38	47112.64
522.55	47129.03
522.72	47547.98
522.89	47608.84
523.07	48016.09
523.24	47976.30
523.41	47903.74
523.58	47599.47
523.75	47941.19
523.92	47885.02
524.10	47978.64
524.27	47875.66
524.44	48385.89
524.61	48435.05
524.78	48598.88
524.96	48624.63
525.13	48706.55
525.30	48657.40
525.47	48718.25
525.64	48727.61
525.81	48870.39
525.98	49036.56
526.16	49052.95
526.33	48926.56
526.50	49525.74
526.67	49045.93
526.84	49446.16
527.01	49081.03
527.18	49291.68
527.36	49130.19
527.53	49621.70
527.70	49546.80
527.87	49827.66
528.04	49684.89
528.21	50010.23
528.38	49682.55
528.55	49865.11
528.72	49727.02
528.89	50012.57
529.07	50045.33
529.24	49628.72
529.41	49965.76
529.58	50050.02
529.75	50260.66
529.92	50277.05
530.09	50185.77
530.26	50291.09
530.43	50639.83
530.60	50270.03
530.77	50363.65
530.94	50464.29
531.11	50527.48
531.28	50466.63
531.46	50796.65
531.63	50908.99
531.80	50728.77
531.97	51199.22
532.14	51019.00
532.31	50749.84
532.48	50953.46
532.65	51341.99
532.82	50927.72
532.99	51042.40
533.16	50904.31
533.33	51327.95
533.50	51667.33
533.67	51416.89
533.84	51260.07
534.01	51564.34
534.18	51430.93
534.35	51484.76
534.52	51473.06
534.69	51704.77
534.86	51807.76
535.03	51880.31
535.20	51798.40
535.37	51835.84
535.54	51856.91
535.71	51421.57
535.88	52013.73
536.05	51482.42
536.22	52097.98
536.38	52317.99
536.55	52083.94
536.72	52294.59
536.89	52126.07
537.06	52069.90
537.23	52547.37
537.40	52044.15
537.57	52041.81
537.74	52350.76
537.91	52772.06
538.08	52648.01
538.25	52177.56
538.42	52278.21
538.59	52851.64
538.75	52521.62
538.92	52720.57
539.09	53092.71
539.26	52500.56
539.43	52861.00
539.60	52561.41
539.77	52596.52
539.94	52907.81
540.11	52973.34
540.28	52849.30
540.44	53015.47
540.61	52694.82
540.78	52788.44
540.95	52942.92
541.12	52863.34
541.29	53153.57
541.46	53010.79
541.62	53284.64
541.79	53242.51
541.96	52804.83
542.13	52884.40
542.30	53235.48
542.47	53514.01
542.63	53694.23
542.80	53385.28
542.97	53652.10
543.14	53539.75
543.31	53682.53
543.48	53909.56
543.64	53822.96
543.81	54078.08
543.98	54080.42
544.15	53963.39
544.32	54321.49
544.48	54127.23
544.65	53961.05
544.82	53989.14
544.99	53600.61
545.16	54054.67
545.32	54136.59
545.49	54192.76
545.66	54497.03
545.83	54499.37
546.00	54405.75
546.16	54337.88
546.33	54026.59
546.50	54003.18
546.67	54049.99
546.83	54012.54
547.00	54227.87
547.17	54518.10
547.34	54543.84
547.50	54473.63
547.67	54445.54
547.84	54672.57
548.00	54607.04
548.17	54585.97
548.34	54419.80
548.51	54763.85
548.67	54850.45
548.84	54571.93
549.01	54836.41
549.18	54848.11
549.34	54644.49
549.51	54616.40
549.68	54873.86
549.84	54497.03
550.01	54810.67
550.18	54808.32
550.34	54820.03
550.51	55063.44
550.68	54899.61
550.84	54845.77
551.01	55107.91
551.18	54805.98
551.34	54672.57
551.51	55079.83
551.68	55011.95
551.84	55274.09
552.01	55138.34
552.18	55454.31
552.34	55140.68
552.51	55353.67
552.68	55231.96
552.84	55042.38
553.01	55206.22
553.18	55274.09
553.34	55330.26
553.51	55440.27
553.67	55416.86
553.84	55531.55
554.01	55498.78
554.17	55412.18
554.34	55561.98
554.51	55339.63
554.67	55519.85
554.84	55704.75
555.00	55517.51
555.17	55409.84
555.33	55648.58
555.50	55545.59
555.67	55264.73
555.83	55676.66
556.00	55674.32
556.16	55611.13
556.33	55536.23
556.50	55522.19
556.66	55873.27
556.83	55629.85
556.99	56112.00
557.16	55791.35
557.32	55725.81
557.49	56025.40
557.65	55641.56
557.82	55688.37
557.98	55634.53
558.15	55559.64
558.32	56140.09
558.48	55884.97
558.65	56123.71
558.81	56123.71
558.98	56065.19
559.14	56006.68
559.31	55943.48
559.47	56083.92
559.64	56133.07
559.80	56233.71
559.97	56212.65
560.13	56076.90
560.30	56100.30
560.46	56093.28
560.63	55997.32
560.79	56175.20
560.96	56058.17
561.12	55922.42
561.29	56006.68
561.45	56107.32
561.61	56247.75
561.78	56142.43
561.94	56362.44
562.11	56395.21
562.27	56402.23
562.44	56107.32
562.60	56355.42
562.77	56470.11
562.93	56086.26
563.10	56411.59
563.26	56149.45
563.42	56615.22
563.59	56322.65
563.75	56446.70
563.92	56294.56
564.08	56083.92
564.24	56350.74
564.41	56128.39
564.57	56292.22
564.74	56390.53
564.90	56280.52
565.07	56383.51
565.23	56680.75
565.39	56521.60
565.56	56537.98
565.72	56334.35
565.88	56474.79
566.05	56367.12
566.21	56310.95
566.38	56315.63
566.54	56423.29
566.70	56734.59
566.87	56786.08
567.03	56392.87
567.19	56678.41
567.36	56591.81
567.52	56418.61
567.68	56750.97
567.85	56432.66
568.01	56652.67
568.17	56561.39
568.34	56545.00
568.50	56706.50
568.66	56528.62
568.83	56711.18
568.99	56500.53
569.15	56601.18
569.32	56568.41
569.48	56460.74
569.64	56732.25
569.81	56809.48
569.97	56601.18
570.13	56882.04
570.30	56413.93
570.46	56591.81
570.62	56748.63
570.78	56559.05
570.95	56683.09
571.11	56598.83
571.27	56507.55
571.43	56587.13
571.60	56713.52
571.76	56748.63
571.92	56825.87
572.09	56793.10
572.25	56879.70
572.41	56666.71
572.57	56617.56
572.74	56605.86
572.90	56687.78
573.06	56683.09
573.22	56720.54
573.38	56727.56
573.55	56610.54
573.71	56968.64
573.87	56954.60
574.03	56793.10
574.20	56898.42
574.36	56732.25
574.52	56484.15
574.68	56690.12
574.84	56790.76
575.01	56921.83
575.17	56769.69
575.33	56800.12
575.49	56910.13
575.65	56891.40
575.82	57029.49
575.98	56741.61
576.14	56849.27
576.30	56875.02
576.46	56687.78
576.62	56706.50
576.79	56699.48
576.95	56502.87
577.11	56924.17
577.27	57141.84
577.43	56793.10
577.59	56692.46
577.75	56580.11
577.92	56727.56
578.08	56631.60
578.24	56741.61
578.40	56814.16
578.56	56755.65
578.72	56931.19
578.88	56985.02
579.04	56821.19
579.21	56868.00
579.37	56968.64
579.53	56999.07
579.69	56619.90
579.85	56868.00
580.01	56779.06
580.17	56891.40
580.33	56882.04
580.49	56732.25
580.65	56935.87
580.82	57230.78
580.98	56823.53
581.14	56774.37
581.30	57176.95
581.46	56739.27
581.62	56690.12
581.78	56633.94
581.94	56844.59
582.10	56767.35
582.26	57052.90
582.42	56954.60
582.58	56935.87
582.74	56900.76
582.90	57155.88
583.06	56795.44
583.22	56741.61
583.38	56715.86
583.54	56807.14
583.70	56961.62
583.86	56886.72
584.02	56701.82
584.18	56875.02
584.34	57195.67
584.50	57228.44
584.66	56989.70
584.82	56975.66
584.98	57034.17
585.14	56715.86
585.30	56605.86
585.46	57076.30
585.62	56633.94
585.78	56776.72
585.94	56664.37
586.10	57064.60
586.26	56931.19
586.42	57401.64
586.58	57090.35
586.74	56963.96
586.90	56914.81
587.06	56781.40
587.22	56933.53
587.38	56793.10
587.54	56952.26
587.70	57219.08
587.86	57013.11
588.02	57013.11
588.18	57343.12
588.34	56781.40
588.49	57099.71
588.65	56779.06
588.81	57153.54
588.97	57265.89
589.13	56996.73
589.29	56973.32
589.45	57228.44
589.61	57104.39
