SpectraSuite Data File
++++++++++++++++++++++++++++++++++++
Date: Fri Oct 18 13:54:13 GMT-05:00 2013
User: bianchi
Dark Spectrum Present: No
Reference Spectrum Present: No
Number of Sampled Component Spectra: 1
Spectrometers: USB2+H05261
Integration Time (usec): 100000 (USB2+H05261)
Spectra Averaged: 1 (USB2+H05261)
Boxcar Smoothing: 0 (USB2+H05261)
Correct for Electrical Dark: No (USB2+H05261)
Strobe/Lamp Enabled: No (USB2+H05261)
Correct for Detector Non-linearity: No (USB2+H05261)
Correct for Stray Light: No (USB2+H05261)
Number of Pixels in Processed Spectrum: 2048
>>>>>Begin Processed Spectral Data<<<<<
365.73	0.00
365.92	0.00
366.12	0.00
366.32	0.00
366.52	0.00
366.72	0.00
366.91	0.00
367.11	0.00
367.31	0.00
367.51	0.00
367.70	0.00
367.90	0.00
368.10	0.00
368.30	0.00
368.49	0.00
368.69	0.00
368.89	0.00
369.09	0.00
369.28	0.00
369.48	0.00
369.68	0.00
369.87	0.00
370.07	0.00
370.27	0.00
370.47	16.38
370.66	215.33
370.86	304.27
371.06	341.72
371.25	386.19
371.45	325.33
371.65	442.36
371.84	330.02
372.04	327.68
372.24	376.83
372.44	416.62
372.63	393.21
372.83	454.06
373.03	430.66
373.22	397.89
373.42	442.36
373.62	388.53
373.81	475.13
374.01	451.72
374.21	407.25
374.40	409.59
374.60	573.43
374.79	475.13
374.99	550.03
375.19	428.32
375.38	500.87
375.58	437.68
375.78	599.18
375.97	503.22
376.17	564.07
376.37	582.79
376.56	533.64
376.76	535.98
376.95	468.11
377.15	559.39
377.35	545.34
377.54	566.41
377.74	510.24
377.93	554.71
378.13	596.84
378.33	660.03
378.52	465.77
378.72	674.07
378.91	543.00
379.11	613.22
379.31	571.09
379.50	606.20
379.70	617.90
379.89	592.16
380.09	702.16
380.28	653.01
380.48	617.90
380.68	606.20
380.87	711.52
381.07	561.73
381.26	683.44
381.46	681.10
381.65	713.86
381.85	667.05
382.04	636.63
382.24	664.71
382.43	777.06
382.63	690.46
382.83	671.73
383.02	692.80
383.22	763.01
383.41	713.86
383.61	711.52
383.80	802.80
384.00	755.99
384.19	706.84
384.39	784.08
384.58	774.72
384.78	791.10
384.97	802.80
385.17	805.14
385.36	847.27
385.56	861.32
385.75	763.01
385.95	774.72
386.14	791.10
386.34	870.68
386.53	851.96
386.72	786.42
386.92	877.70
387.11	807.48
387.31	940.90
387.50	858.98
387.70	835.57
387.89	786.42
388.09	891.74
388.28	884.72
388.48	898.77
388.67	947.92
388.86	887.06
389.06	961.96
389.25	1053.24
389.45	1034.52
389.64	999.41
389.84	1004.09
390.03	990.05
390.22	954.94
390.42	997.07
390.61	1006.43
390.81	976.00
391.00	1097.71
391.19	1074.31
391.39	1074.31
391.58	1025.15
391.78	1083.67
391.97	1071.97
392.16	1008.77
392.36	1160.91
392.55	1069.62
392.75	1097.71
392.94	1170.27
393.13	1132.82
393.33	1214.74
393.52	1165.59
393.71	1186.65
393.91	1214.74
394.10	1156.22
394.29	1200.69
394.49	1224.10
394.68	1238.14
394.88	1174.95
395.07	1256.87
395.26	1158.57
395.46	1273.25
395.65	1397.30
395.84	1334.11
396.04	1453.47
396.23	1291.98
396.42	1352.83
396.62	1331.76
396.81	1390.28
397.00	1350.49
397.19	1380.92
397.39	1366.87
397.58	1423.05
397.77	1504.96
397.97	1413.68
398.16	1420.71
398.35	1523.69
398.55	1486.24
398.74	1544.75
398.93	1469.86
399.12	1378.58
399.32	1493.26
399.51	1519.01
399.70	1537.73
399.90	1504.96
400.09	1629.01
400.28	1598.59
400.47	1661.78
400.67	1577.52
400.86	1727.32
401.05	1647.74
401.24	1710.93
401.44	1659.44
401.63	1792.85
401.82	1762.42
402.01	1708.59
402.21	1664.12
402.40	1743.70
402.59	1804.55
402.78	1849.02
402.97	1774.13
403.17	1884.13
403.36	1877.11
403.55	1727.32
403.74	1844.34
403.93	1863.07
404.13	2012.86
404.32	1959.03
404.51	1818.60
404.70	2052.65
404.89	1973.07
405.09	2031.58
405.28	1914.56
405.47	2047.97
405.66	2064.35
405.85	2162.66
406.05	2076.06
406.24	2183.72
406.43	2080.74
406.62	2223.51
406.81	2328.83
407.00	2228.19
407.20	2230.53
407.39	2186.06
407.58	2314.79
407.77	2314.79
407.96	2415.43
408.15	2370.96
408.34	2246.91
408.54	2354.58
408.73	2359.26
408.92	2427.14
409.11	2406.07
409.30	2478.63
409.49	2464.58
409.68	2429.48
409.87	2399.05
410.07	2576.93
410.26	2537.14
410.45	2593.31
410.64	2602.68
410.83	2670.55
411.02	2597.99
411.21	2757.15
411.40	2780.56
411.59	2679.91
411.78	2883.54
411.98	2712.68
412.17	2860.13
412.36	2698.64
412.55	3014.61
412.74	2974.82
412.93	3026.31
413.12	2829.71
413.31	3166.74
413.50	3000.57
413.69	3030.99
413.88	3033.33
414.07	3141.00
414.26	3124.62
414.45	3096.53
414.64	3253.34
414.83	3307.18
415.02	3325.90
415.22	3449.95
415.41	3459.31
415.60	3396.12
415.79	3475.70
415.98	3517.83
416.17	3545.91
416.36	3618.47
416.55	3592.72
416.74	3566.98
416.93	3669.96
417.12	3714.43
417.31	3658.26
417.50	3744.86
417.69	3859.54
417.88	3911.04
418.07	3754.22
418.26	3878.27
418.45	3969.55
418.64	4011.68
418.83	4056.15
419.02	4007.00
419.21	4093.60
419.39	4030.40
419.58	3934.44
419.77	3925.08
419.96	4023.38
420.15	4194.24
420.34	4203.60
420.53	4215.30
420.72	4215.30
420.91	4259.78
421.10	4362.76
421.29	4400.21
421.48	4299.56
421.67	4372.12
421.86	4369.78
422.05	4404.89
422.24	4472.76
422.43	4521.92
422.61	4400.21
422.80	4512.55
422.99	4458.72
423.18	4507.87
423.37	4566.39
423.56	4444.68
423.75	4496.17
423.94	4526.60
424.13	4215.30
424.32	4404.89
424.50	4596.81
424.69	4629.58
424.88	4762.99
425.07	4519.57
425.26	4437.66
425.45	4472.76
425.64	4634.26
425.83	4664.69
426.01	4636.60
426.20	4510.21
426.39	4688.09
426.58	4585.11
426.77	4636.60
426.96	4767.67
427.15	4739.58
427.33	4725.54
427.52	4889.38
427.71	4807.46
427.90	4882.36
428.09	4901.08
428.28	4912.78
428.46	4901.08
428.65	4931.51
428.84	4992.36
429.03	5160.88
429.22	4891.72
429.40	4987.68
429.59	5177.26
429.78	4968.96
429.97	4882.36
430.16	4999.38
430.34	5116.41
430.53	5165.56
430.72	5296.63
430.91	5273.23
431.10	5177.26
431.28	5284.93
431.47	5401.96
431.66	5462.81
431.85	5226.42
432.03	5451.11
432.22	5483.88
432.41	5399.62
432.60	5329.40
432.79	5600.90
432.97	5504.94
433.16	5507.28
433.35	5483.88
433.54	5778.78
433.72	5834.96
433.91	5575.16
434.10	5671.12
434.28	5561.11
434.47	5802.19
434.66	5776.44
434.85	5832.62
435.03	5841.98
435.22	5853.68
435.41	6008.16
435.59	5975.39
435.78	5928.58
435.97	5963.68
436.16	5858.36
436.34	5982.41
436.53	6104.12
436.72	6260.93
436.90	6008.16
437.09	6129.86
437.28	5937.94
437.46	6118.16
437.65	6244.55
437.84	6403.71
438.02	6155.61
438.21	6146.25
438.40	6218.80
438.58	6480.94
438.77	6525.41
438.96	6700.95
439.14	6642.44
439.33	6722.02
439.52	6696.27
439.70	6878.83
439.89	6862.45
440.08	6878.83
440.26	6803.94
440.45	6890.54
440.63	6998.20
440.82	7077.78
441.01	7096.50
441.19	7213.53
441.38	7068.42
441.57	7082.46
441.75	7293.11
441.94	7119.91
442.12	7339.92
442.31	7475.67
442.50	7323.54
442.68	7269.70
442.87	7658.23
443.05	7590.36
443.24	7728.45
443.43	7543.55
443.61	7557.59
443.80	7878.24
443.98	7541.21
444.17	7166.72
444.35	7538.87
444.54	7946.12
444.73	7588.02
444.91	7714.41
445.10	7861.86
445.28	7705.04
445.47	7667.60
445.65	7784.62
445.84	7854.84
446.02	7833.77
446.21	8016.33
446.39	7740.15
446.58	7801.01
446.77	7932.08
446.95	7679.30
447.14	8002.29
447.32	8121.66
447.51	7887.61
447.69	7857.18
447.88	8051.44
448.06	7978.89
448.25	8013.99
448.43	8070.17
448.62	7997.61
448.80	7953.14
448.99	8119.32
449.17	8250.39
449.36	8124.00
449.54	8292.52
449.73	8348.69
449.91	8187.19
450.10	8318.26
450.28	8285.50
450.46	8374.44
450.65	8454.02
450.83	8482.10
451.02	8344.01
451.20	8458.70
451.39	8606.15
451.57	8535.93
451.76	8500.83
451.94	8587.43
452.13	8863.61
452.31	8547.64
452.49	8416.57
452.68	8793.39
452.86	8486.78
453.05	8889.35
453.23	8622.53
453.42	8610.83
453.60	8793.39
453.78	8624.87
453.97	8723.18
454.15	8945.53
454.34	8863.61
454.52	8999.36
454.70	8872.97
454.89	9067.24
455.07	9123.41
455.26	9018.08
455.44	9282.56
455.62	9385.55
455.81	9172.56
455.99	9092.98
456.17	9146.81
456.36	9460.45
456.54	9390.23
456.73	9556.41
456.91	9802.16
457.09	9661.73
457.28	9809.19
457.46	9561.09
457.64	9851.31
457.83	9703.86
458.01	9689.82
458.19	9949.62
458.38	9778.76
458.56	9776.42
458.74	9951.96
458.93	9923.87
459.11	9968.34
459.29	9832.59
459.48	10052.60
459.66	10118.14
459.84	10225.80
460.03	10178.99
460.21	10239.84
460.39	10347.51
460.57	10310.06
460.76	10321.76
460.94	10480.92
461.12	10487.94
461.31	10445.81
461.49	10546.45
461.67	10380.28
461.85	10775.83
462.04	10595.61
462.22	11192.44
462.40	10726.68
462.59	10808.59
462.77	10738.38
462.95	10731.36
463.13	10546.45
463.32	10841.36
463.50	10885.83
463.68	11054.35
463.86	10888.17
464.05	10878.81
464.23	10691.57
464.41	10913.92
464.59	10721.99
464.78	11269.68
464.96	11110.52
465.14	10944.34
465.32	11206.48
465.50	11342.24
465.69	11370.32
465.87	11176.06
466.05	11248.61
466.23	11262.66
466.41	11487.35
466.60	11660.55
466.78	11435.86
466.96	11304.79
467.14	11323.51
467.32	11377.34
467.51	11613.74
467.69	11562.25
467.87	11393.73
468.05	11672.25
468.23	11332.87
468.41	11447.56
468.60	11531.82
468.78	12023.33
468.96	11705.02
469.14	12128.66
469.32	12028.01
469.50	11674.59
469.69	11939.07
469.87	12154.40
470.05	12060.78
470.23	11978.86
470.41	11955.46
470.59	12313.56
470.77	12105.25
470.95	12135.68
471.14	12423.56
471.32	12353.35
471.50	12531.23
471.68	12386.12
471.86	12631.87
472.04	12622.51
472.22	12912.74
472.40	12479.74
472.58	12961.89
472.77	12950.18
472.95	13095.30
473.13	13532.98
473.31	13078.91
473.49	13029.76
473.67	13277.86
473.85	13193.60
474.03	13568.09
474.21	13434.68
474.39	13315.31
474.57	13872.36
474.75	13661.71
474.93	14052.58
475.12	13748.31
475.30	13724.90
475.48	13701.50
475.66	13984.70
475.84	14193.01
476.02	14200.03
476.20	14312.38
476.38	14792.19
476.56	14686.86
476.74	14642.39
476.92	14651.75
477.10	14494.94
477.28	14710.27
477.46	14799.21
477.64	15068.37
477.82	15241.57
478.00	15470.94
478.18	15578.61
478.36	15852.45
478.54	15800.96
478.72	16123.95
478.90	15971.82
479.08	16297.15
479.26	16341.62
479.44	16358.00
479.62	16376.73
479.80	16908.03
479.98	16648.23
480.16	16802.71
480.34	16996.97
480.52	17039.10
480.70	17191.23
480.88	17128.04
481.06	17242.73
481.24	17474.44
481.41	17687.43
481.59	18040.85
481.77	17991.70
481.95	18150.85
482.13	18211.71
482.31	18141.49
482.49	18523.00
482.67	18600.24
482.85	18974.72
483.03	19066.00
483.21	19466.24
483.39	19356.23
483.57	19384.32
483.74	19482.62
483.92	19658.16
484.10	19634.75
484.28	20163.72
484.46	20435.22
484.64	20776.94
484.82	20095.84
485.00	20685.65
485.18	20589.69
485.35	21317.60
485.53	20980.56
485.71	21507.18
485.89	21490.80
486.07	21570.38
486.25	21738.90
486.43	22202.32
486.61	21785.71
486.78	22352.12
486.96	22391.91
487.14	22860.01
487.32	22714.90
487.50	23250.88
487.68	22867.03
487.85	23515.36
488.03	23440.47
488.21	23704.95
488.39	23800.91
488.57	24100.50
488.75	24107.52
488.92	24453.92
489.10	24603.71
489.28	24816.70
489.46	24996.92
489.64	25156.08
489.81	25443.96
489.99	25383.11
490.17	25411.20
490.35	25731.85
490.53	26045.48
490.70	26223.36
490.88	26377.84
491.06	26377.84
491.24	26658.70
491.41	26796.79
491.59	26632.96
491.77	27000.42
491.95	27520.02
492.13	27580.87
492.30	27428.74
492.48	27878.12
492.66	27756.41
492.84	27941.32
493.01	28524.11
493.19	28095.79
493.37	28545.17
493.54	28767.52
493.72	28765.18
493.90	29303.51
494.08	29324.57
494.25	29757.57
494.43	29682.67
494.61	29701.40
494.79	30045.46
494.96	30082.91
495.14	30181.21
495.32	30347.39
495.49	30501.86
495.67	30579.10
495.85	30946.56
496.02	31339.77
496.20	31119.76
496.38	31264.88
496.55	31304.67
496.73	31952.99
496.91	31887.46
497.09	32353.23
497.26	32481.95
497.44	32140.24
497.62	32257.26
497.79	32898.57
497.97	32690.26
498.14	32945.38
498.32	33312.84
498.50	33205.18
498.67	33532.86
498.85	33287.10
499.03	33696.69
499.20	33837.12
499.38	33813.72
499.56	34270.12
499.73	34455.03
499.91	34277.15
500.08	34742.91
500.26	34314.59
500.44	34976.97
500.61	34792.06
500.79	34958.24
500.97	35372.52
501.14	35559.76
501.32	35686.15
501.49	35510.61
501.67	35709.55
501.84	35950.63
502.02	35765.73
502.20	35676.79
502.37	35917.86
502.55	36229.15
502.72	36177.66
502.90	36486.61
503.07	36161.28
503.25	36657.47
503.43	36605.98
503.60	36935.99
503.78	37050.68
503.95	37036.64
504.13	37338.57
504.30	37233.24
504.48	37088.13
504.65	37923.70
504.83	37792.63
505.01	37895.61
505.18	37813.70
505.36	38653.95
505.53	38387.13
505.71	38405.85
505.88	38361.38
506.06	37937.74
506.23	38845.87
506.41	38611.82
506.58	38878.64
506.76	38883.32
506.93	38892.68
507.11	38913.75
507.28	39255.46
507.46	39108.01
507.63	39587.82
507.81	39611.23
507.98	39201.63
508.16	39662.72
508.33	39887.41
508.50	39892.09
508.68	39653.36
508.85	40538.08
509.03	40421.05
509.20	40219.77
509.38	40502.97
509.55	40465.52
509.73	40807.24
509.90	40879.80
510.08	40676.17
510.25	40905.54
510.42	40786.18
510.60	41310.46
510.77	41603.02
510.95	41680.26
511.12	41177.04
511.30	41464.93
511.47	41820.69
511.64	42141.35
511.82	42492.43
511.99	42082.83
512.17	42176.45
512.34	41883.89
512.51	42347.31
512.69	42913.72
512.86	42864.57
513.04	42976.92
513.21	42803.72
513.38	42990.96
513.56	43304.59
513.73	43028.41
513.90	43086.92
514.08	43119.69
514.25	43660.35
514.43	43697.80
514.60	43966.96
514.77	44168.25
514.95	44215.06
515.12	43686.10
515.29	43576.09
515.47	44336.77
515.64	44247.83
515.81	44470.18
515.99	44521.67
516.16	44949.99
516.33	44671.46
516.51	44832.96
516.68	44509.97
516.85	44926.58
517.03	44942.97
517.20	45457.88
517.37	44996.80
517.54	45467.25
517.72	45287.03
517.89	45230.85
518.06	45614.70
518.24	45436.82
518.41	45570.23
518.58	45551.51
518.75	45904.93
518.93	45977.48
519.10	45715.34
519.27	46195.15
519.45	46045.36
519.62	46010.25
519.79	46211.54
519.96	46550.91
520.14	46777.95
520.31	46429.21
520.48	46330.90
520.65	46635.17
520.83	46560.28
521.00	46724.11
521.17	47119.66
521.34	46806.03
521.52	46960.51
521.69	47203.92
521.86	47660.33
522.03	47611.18
522.20	47278.82
522.38	47643.94
522.55	47613.52
522.72	47466.06
522.89	47882.68
523.07	48282.91
523.24	47662.67
523.41	47917.79
523.58	48030.13
523.75	48453.77
523.92	48177.59
524.10	48098.01
524.27	48514.62
524.44	48741.66
524.61	48531.01
524.78	48868.05
524.96	48741.66
525.13	48397.60
525.30	48774.42
525.47	48961.67
525.64	48919.54
525.81	49188.70
525.98	49317.43
526.16	49397.01
526.33	49059.97
526.50	49443.82
526.67	49226.15
526.84	49111.46
527.01	49113.80
527.18	49682.55
527.36	49488.29
527.53	49727.02
527.70	49586.59
527.87	50010.23
528.04	49677.87
528.21	49727.02
528.38	49804.26
528.55	49918.95
528.72	49621.70
528.89	50202.15
529.07	49951.71
529.24	49954.05
529.41	50225.56
529.58	50239.60
529.75	50391.73
529.92	50197.47
530.09	50480.67
530.26	50450.25
530.43	50569.61
530.60	50396.42
530.77	50635.15
530.94	50850.48
531.11	51002.61
531.28	50747.50
531.46	50707.71
531.63	50918.35
531.80	50986.23
531.97	50871.54
532.14	51222.62
532.31	50993.25
532.48	51231.99
532.65	50871.54
532.82	51119.64
532.99	50754.52
533.16	51292.84
533.33	51269.43
533.50	51622.86
533.67	51505.83
533.84	51470.72
534.01	51210.92
534.18	51386.46
534.35	51863.93
534.52	51426.25
534.69	51945.85
534.86	51976.28
535.03	51770.31
535.20	51973.94
535.37	52072.24
535.54	51950.53
535.71	51828.82
535.88	51672.01
536.05	51910.74
536.22	52261.82
536.38	52151.82
536.55	52310.97
536.72	52308.63
536.89	52055.85
537.06	52130.75
537.23	52488.85
537.40	52406.94
537.57	52268.84
537.74	52474.81
537.91	52683.12
538.08	52861.00
538.25	52591.84
538.42	52488.85
538.59	52659.71
538.75	52095.64
538.92	52636.31
539.09	52582.48
539.26	52816.53
539.43	52914.83
539.60	53045.90
539.77	52861.00
539.94	53066.97
540.11	53057.60
540.28	53240.17
540.44	53015.47
540.61	52865.68
540.78	52935.90
540.95	53235.48
541.12	53301.02
541.29	53354.85
541.46	53155.91
541.62	53212.08
541.79	53312.72
541.96	53031.86
542.13	53301.02
542.30	53511.67
542.47	53689.55
542.63	53738.70
542.80	53502.31
542.97	53902.54
543.14	54012.54
543.31	53628.69
543.48	53586.57
543.64	54021.90
543.81	53909.56
543.98	53874.45
544.15	53757.42
544.32	53996.16
544.48	54209.15
544.65	53832.32
544.82	53963.39
544.99	53600.61
545.16	54080.42
545.32	53869.77
545.49	54576.61
545.66	54485.33
545.83	54527.46
546.00	54564.91
546.16	54372.99
546.33	54019.56
546.50	53916.58
546.67	54096.80
546.83	54330.86
547.00	54356.60
547.17	54258.30
547.34	54532.14
547.50	54574.27
547.67	54773.22
547.84	54639.81
548.00	54752.15
548.17	54543.84
548.34	54380.01
548.51	54836.41
548.67	54808.32
548.84	54862.16
549.01	54770.88
549.18	54719.38
549.34	54915.99
549.51	54787.26
549.68	54827.05
549.84	54637.47
550.01	54864.50
550.18	54834.07
550.34	54897.27
550.51	55388.78
550.68	55285.79
550.84	54993.23
551.01	55164.09
551.18	55025.99
551.34	55023.65
551.51	54838.75
551.68	55201.53
551.84	55351.33
552.01	55213.24
552.18	55236.64
552.34	55262.39
552.51	55393.46
552.68	55164.09
552.84	55231.96
553.01	55365.37
553.18	55363.03
553.34	55512.83
553.51	55643.90
553.67	55461.33
553.84	55613.47
554.01	55803.05
554.17	55552.62
554.34	55484.74
554.51	55398.14
554.67	55800.71
554.84	55611.13
555.00	55646.24
555.17	55810.07
555.33	55763.26
555.50	55613.47
555.67	55751.56
555.83	55547.93
556.00	55667.30
556.16	55842.84
556.33	55763.26
556.50	55667.30
556.66	55964.55
556.83	55519.85
556.99	55840.50
557.16	56016.04
557.32	56039.45
557.49	55959.87
557.65	55767.94
557.82	55791.35
557.98	55915.40
558.15	55922.42
558.32	56023.06
558.48	56116.68
558.65	56039.45
558.81	55959.87
558.98	56236.05
559.14	56112.00
559.31	55866.25
559.47	56114.34
559.64	56374.14
559.80	56207.97
559.97	56203.28
560.13	56030.08
560.30	56055.83
560.46	56074.55
560.63	56378.82
560.79	56203.28
560.96	56238.39
561.12	56009.02
561.29	56287.54
561.45	56388.19
561.61	56456.06
561.78	56631.60
561.94	56275.84
562.11	56203.28
562.27	56236.05
562.44	56371.80
562.60	56088.60
562.77	56224.35
562.93	56362.44
563.10	56243.07
563.26	56301.59
563.42	56608.20
563.59	56657.35
563.75	56399.89
563.92	56594.15
564.08	56406.91
564.24	56519.26
564.41	56453.72
564.57	56254.78
564.74	56432.66
564.90	56566.07
565.07	56535.64
565.23	56720.54
565.39	56493.51
565.56	56350.74
565.72	56437.34
565.88	56584.79
566.05	56561.39
566.21	56467.76
566.38	56498.19
566.54	56409.25
566.70	56549.68
566.87	56926.51
567.03	56498.19
567.19	56676.07
567.36	56521.60
567.52	56556.70
567.68	56622.24
567.85	56633.94
568.01	56793.10
568.17	56741.61
568.34	56935.87
568.50	56732.25
568.66	56594.15
568.83	56818.84
568.99	56690.12
569.15	56622.24
569.32	56638.62
569.48	56587.13
569.64	56432.66
569.81	56584.79
569.97	56746.29
570.13	56928.85
570.30	56783.74
570.46	56772.03
570.62	56715.86
570.78	56741.61
570.95	56797.78
571.11	56652.67
571.27	56631.60
571.43	56582.45
571.60	56952.26
571.76	56903.10
571.92	56844.59
572.09	56769.69
572.25	56772.03
572.41	56664.37
572.57	56903.10
572.74	56917.15
572.90	56718.20
573.06	56664.37
573.22	56640.96
573.38	56933.53
573.55	56858.63
573.71	57069.28
573.87	57017.79
574.03	56809.48
574.20	56996.73
574.36	56907.79
574.52	56858.63
574.68	56839.91
574.84	56750.97
575.01	57022.47
575.17	57071.62
575.33	56774.37
575.49	57006.09
575.65	57464.83
575.82	57284.61
575.98	56797.78
576.14	57071.62
576.30	56870.34
576.46	56807.14
576.62	56662.03
576.79	56734.59
576.95	56907.79
577.11	56868.00
577.27	56882.04
577.43	56947.57
577.59	56830.55
577.75	56856.29
577.92	56687.78
578.08	56872.68
578.24	57073.96
578.40	56898.42
578.56	57041.20
578.72	56896.08
578.88	57153.54
579.04	56989.70
579.21	56942.89
579.37	57125.46
579.53	57088.01
579.69	56949.92
579.85	56886.72
580.01	56804.80
580.17	56739.27
580.33	56856.29
580.49	56994.39
580.65	57153.54
580.82	57003.75
580.98	56877.36
581.14	56903.10
581.30	57235.46
581.46	56961.62
581.62	56968.64
581.78	56783.74
581.94	56987.36
582.10	56825.87
582.26	57113.75
582.42	56959.28
582.58	56966.30
582.74	57008.43
582.90	56905.44
583.06	57165.24
583.22	57113.75
583.38	56982.68
583.54	56910.13
583.70	57146.52
583.86	57041.20
584.02	56760.33
584.18	57099.71
584.34	56992.04
584.50	57382.91
584.66	57029.49
584.82	56921.83
584.98	57034.17
585.14	56905.44
585.30	56800.12
585.46	57043.54
585.62	56898.42
585.78	57188.65
585.94	56851.61
586.10	57146.52
586.26	57188.65
586.42	57080.98
586.58	57223.76
586.74	56999.07
586.90	57099.71
587.06	57076.30
587.22	57155.88
587.38	56966.30
587.54	57319.72
587.70	57193.33
587.86	57137.16
588.02	56992.04
588.18	57167.58
588.34	57006.09
588.49	57179.29
588.65	57080.98
588.81	56959.28
588.97	57160.56
589.13	56940.55
589.29	57104.39
589.45	57113.75
589.61	57090.35
