SpectraSuite Data File
++++++++++++++++++++++++++++++++++++
Date: Fri Oct 18 13:54:54 GMT-05:00 2013
User: bianchi
Dark Spectrum Present: No
Reference Spectrum Present: No
Number of Sampled Component Spectra: 1
Spectrometers: USB2+H05261
Integration Time (usec): 100000 (USB2+H05261)
Spectra Averaged: 1 (USB2+H05261)
Boxcar Smoothing: 0 (USB2+H05261)
Correct for Electrical Dark: No (USB2+H05261)
Strobe/Lamp Enabled: No (USB2+H05261)
Correct for Detector Non-linearity: No (USB2+H05261)
Correct for Stray Light: No (USB2+H05261)
Number of Pixels in Processed Spectrum: 2048
>>>>>Begin Processed Spectral Data<<<<<
365.73	0.00
365.92	0.00
366.12	0.00
366.32	0.00
366.52	0.00
366.72	0.00
366.91	0.00
367.11	0.00
367.31	0.00
367.51	0.00
367.70	0.00
367.90	0.00
368.10	0.00
368.30	0.00
368.49	0.00
368.69	0.00
368.89	0.00
369.09	0.00
369.28	0.00
369.48	0.00
369.68	0.00
369.87	0.00
370.07	0.00
370.27	0.00
370.47	42.13
370.66	308.95
370.86	346.40
371.06	400.23
371.25	365.12
371.45	304.27
371.65	379.17
371.84	362.78
372.04	301.93
372.24	381.51
372.44	287.89
372.63	409.59
372.83	482.15
373.03	458.74
373.22	472.79
373.42	447.04
373.62	369.80
373.81	491.51
374.01	519.60
374.21	557.05
374.40	519.60
374.60	521.94
374.79	472.79
374.99	606.20
375.19	533.64
375.38	500.87
375.58	514.92
375.78	557.05
375.97	559.39
376.17	664.71
376.37	589.82
376.56	559.39
376.76	512.58
376.95	622.58
377.15	653.01
377.35	535.98
377.54	543.00
377.74	547.69
377.93	505.56
378.13	638.97
378.33	575.77
378.52	608.54
378.72	713.86
378.91	624.92
379.11	535.98
379.31	601.52
379.50	655.35
379.70	596.84
379.89	606.20
380.09	718.54
380.28	622.58
380.48	711.52
380.68	622.58
380.87	641.31
381.07	636.63
381.26	725.57
381.46	741.95
381.65	723.23
381.85	645.99
382.04	746.63
382.24	744.29
382.43	819.19
382.63	690.46
382.83	800.46
383.02	809.83
383.22	779.40
383.41	765.36
383.61	723.23
383.80	807.48
384.00	737.27
384.19	807.48
384.39	786.42
384.58	828.55
384.78	777.06
384.97	809.83
385.17	795.78
385.36	830.89
385.56	784.08
385.75	851.96
385.95	812.17
386.14	858.98
386.34	894.08
386.53	891.74
386.72	887.06
386.92	938.55
387.11	933.87
387.31	940.90
387.50	826.21
387.70	915.15
387.89	943.24
388.09	959.62
388.28	933.87
388.48	908.13
388.67	952.60
388.86	926.85
389.06	940.90
389.25	1006.43
389.45	997.07
389.64	976.00
389.84	1088.35
390.03	1090.69
390.22	950.26
390.42	1036.86
390.61	978.34
390.81	999.41
391.00	1074.31
391.19	992.39
391.39	1043.88
391.58	1034.52
391.78	1093.03
391.97	1069.62
392.16	1088.35
392.36	1198.35
392.55	1214.74
392.75	1160.91
392.94	1181.97
393.13	1172.61
393.33	1193.67
393.52	1247.51
393.71	1165.59
393.91	1238.14
394.10	1224.10
394.29	1261.55
394.49	1313.04
394.68	1259.21
394.88	1268.57
395.07	1352.83
395.26	1359.85
395.46	1416.02
395.65	1320.06
395.84	1359.85
396.04	1437.09
396.23	1322.40
396.42	1313.04
396.62	1423.05
396.81	1411.34
397.00	1371.55
397.19	1355.17
397.39	1397.30
397.58	1425.39
397.77	1469.86
397.97	1420.71
398.16	1493.26
398.35	1519.01
398.55	1455.81
398.74	1511.99
398.93	1652.42
399.12	1549.43
399.32	1474.54
399.51	1600.93
399.70	1666.46
399.90	1593.90
400.09	1568.16
400.28	1706.25
400.47	1619.65
400.67	1575.18
400.86	1645.40
401.05	1748.38
401.24	1734.34
401.44	1825.62
401.63	1696.89
401.82	1722.63
402.01	1783.49
402.21	1809.23
402.40	1818.60
402.59	1713.27
402.78	1804.55
402.97	1888.81
403.17	1914.56
403.36	1895.83
403.55	1914.56
403.74	1877.11
403.93	1877.11
404.13	1863.07
404.32	1893.49
404.51	1959.03
404.70	2036.27
404.89	2080.74
405.09	2101.80
405.28	2104.14
405.47	2172.02
405.66	2160.31
405.85	2143.93
406.05	2090.10
406.24	2122.87
406.43	2108.82
406.62	2218.83
406.81	2277.34
407.00	2134.57
407.20	2062.01
407.39	2265.64
407.58	2333.51
407.77	2298.41
407.96	2352.24
408.15	2296.07
408.34	2406.07
408.54	2464.58
408.73	2434.16
408.92	2462.24
409.11	2544.16
409.30	2438.84
409.49	2513.74
409.68	2539.48
409.87	2579.27
410.07	2476.29
410.26	2572.25
410.45	2609.70
410.64	2700.98
410.83	2712.68
411.02	2761.83
411.21	2855.45
411.40	2829.71
411.59	2846.09
411.78	2813.32
411.98	2757.15
412.17	2787.58
412.36	2834.39
412.55	3112.91
412.74	3038.02
412.93	2956.10
413.12	2956.10
413.31	3215.90
413.50	3187.81
413.69	3178.45
413.88	3213.56
414.07	3171.43
414.26	3318.88
414.45	3314.20
414.64	3297.81
414.83	3379.73
415.02	3318.88
415.22	3405.48
415.41	3459.31
415.60	3602.08
415.79	3522.51
415.98	3557.61
416.17	3681.66
416.36	3686.34
416.55	3588.04
416.74	3770.60
416.93	3618.47
417.12	3761.24
417.31	3932.10
417.50	3857.20
417.69	3889.97
417.88	3866.56
418.07	3861.88
418.26	3934.44
418.45	4091.26
418.64	4152.11
418.83	3948.48
419.02	4063.17
419.21	4285.52
419.39	4154.45
419.58	4119.34
419.77	4140.41
419.96	4196.58
420.15	4297.22
420.34	4241.05
420.53	4245.73
420.72	4348.72
420.91	4278.50
421.10	4416.59
421.29	4507.87
421.48	4306.59
421.67	4454.04
421.86	4332.33
422.05	4496.17
422.24	4535.96
422.43	4652.98
422.61	4517.23
422.80	4634.26
422.99	4470.42
423.18	4688.09
423.37	4699.80
423.56	4571.07
423.75	4601.49
423.94	4484.47
424.13	4196.58
424.32	4407.23
424.50	4734.90
424.69	4809.80
424.88	4795.76
425.07	4608.51
425.26	4580.43
425.45	4674.05
425.64	4697.46
425.83	4681.07
426.01	4767.67
426.20	4805.12
426.39	4758.31
426.58	4676.39
426.77	4758.31
426.96	4755.97
427.15	4629.58
427.33	4828.53
427.52	4720.86
427.71	4922.15
427.90	4751.29
428.09	4915.12
428.28	4975.98
428.46	5022.79
428.65	4957.25
428.84	5116.41
429.03	5121.09
429.22	5032.15
429.40	5151.52
429.59	5195.99
429.78	4954.91
429.97	5043.85
430.16	5104.71
430.34	5212.37
430.53	5427.70
430.72	5369.19
430.91	5167.90
431.10	5317.70
431.28	5425.36
431.47	5418.34
431.66	5455.79
431.85	5270.89
432.03	5556.43
432.22	5542.39
432.41	5526.00
432.60	5362.17
432.79	5355.15
432.97	5575.16
433.16	5626.65
433.35	5577.50
433.54	5584.52
433.72	5853.68
433.91	5769.42
434.10	5666.44
434.28	5790.49
434.47	5830.27
434.66	5809.21
434.85	5930.92
435.03	6019.86
435.22	6043.26
435.41	6195.40
435.59	5928.58
435.78	6069.01
435.97	6111.14
436.16	6005.81
436.34	5998.79
436.53	6076.03
436.72	6438.81
436.90	6059.65
437.09	6260.93
437.28	6010.50
437.46	6221.14
437.65	6143.91
437.84	6356.90
438.02	6289.02
438.21	6450.52
438.40	6394.34
438.58	6504.35
438.77	6768.83
438.96	6579.25
439.14	6518.39
439.33	6672.87
439.52	6853.09
439.70	6834.36
439.89	6878.83
440.08	7030.97
440.26	7150.34
440.45	7089.48
440.63	7002.88
440.82	7028.63
441.01	7150.34
441.19	7283.75
441.38	7297.79
441.57	7283.75
441.75	7379.71
441.94	7454.61
442.12	7391.41
442.31	7602.06
442.50	7625.47
442.68	7536.52
442.87	7679.30
443.05	7590.36
443.24	7763.56
443.43	7674.62
443.61	7758.88
443.80	8072.51
443.98	7517.80
444.17	7716.75
444.35	7758.88
444.54	7880.58
444.73	7971.86
444.91	7918.03
445.10	7819.73
445.28	7922.71
445.47	7948.46
445.65	7765.90
445.84	7925.05
446.02	8226.98
446.21	7950.80
446.39	8011.65
446.58	8032.72
446.77	7978.89
446.95	7861.86
447.14	7990.59
447.32	8180.17
447.51	7906.33
447.69	8058.46
447.88	8102.93
448.06	7939.10
448.25	7997.61
448.43	8091.23
448.62	8067.83
448.80	7964.84
448.99	8208.26
449.17	8126.34
449.36	8102.93
449.54	8348.69
449.73	8400.18
449.91	8456.36
450.10	8308.90
450.28	8601.47
450.46	8524.23
450.65	8510.19
450.83	8505.51
451.02	8629.56
451.20	8727.86
451.39	8709.13
451.57	8557.00
451.76	8479.76
451.94	8561.68
452.13	8671.68
452.31	8744.24
452.49	8835.52
452.68	8889.35
452.86	8762.97
453.05	8931.48
453.23	8950.21
453.42	8814.46
453.60	8879.99
453.78	8812.12
453.97	8779.35
454.15	8901.06
454.34	8788.71
454.52	9224.05
454.70	8901.06
454.89	9036.81
455.07	9210.01
455.26	9210.01
455.44	9221.71
455.62	9226.39
455.81	9170.22
455.99	9495.55
456.17	9383.21
456.36	9490.87
456.54	9724.93
456.73	9682.80
456.91	9933.23
457.09	9741.31
457.28	10045.58
457.46	9516.62
457.64	9832.59
457.83	9900.47
458.01	9774.08
458.19	10015.15
458.38	9958.98
458.56	10164.95
458.74	10235.16
458.93	10274.95
459.11	10040.90
459.29	10148.56
459.48	10157.92
459.66	10396.66
459.84	10413.04
460.03	10363.89
460.21	10321.76
460.39	10424.75
460.57	10300.70
460.76	10382.62
460.94	10473.90
461.12	10298.36
461.31	10628.37
461.49	10747.74
461.67	10438.79
461.85	10832.00
462.04	10808.59
462.22	10864.77
462.40	10707.95
462.59	10633.05
462.77	10951.37
462.95	10759.44
463.13	11012.22
463.32	10911.58
463.50	11080.10
463.68	11026.26
463.86	10963.07
464.05	10855.40
464.23	10775.83
464.41	11304.79
464.59	11138.61
464.78	11309.47
464.96	11124.57
465.14	11192.44
465.32	11265.00
465.50	11358.62
465.69	11257.98
465.87	11047.33
466.05	11145.63
466.23	11468.62
466.41	11250.96
466.60	11962.48
466.78	11187.76
466.96	11662.89
467.14	11342.24
467.32	11632.46
467.51	11765.87
467.69	11431.18
467.87	11695.66
468.05	11927.37
468.23	11859.49
468.41	11604.38
468.60	11838.43
468.78	11962.48
468.96	11910.99
469.14	12006.95
469.32	12077.16
469.50	11782.26
469.69	12074.82
469.87	12107.59
470.05	12407.18
470.23	12336.96
470.41	12243.34
470.59	12435.27
470.77	12388.46
470.95	12320.58
471.14	12645.91
471.32	12479.74
471.50	12910.40
471.68	12798.05
471.86	12575.70
472.04	12786.35
472.22	13111.68
472.40	12919.76
472.58	13067.21
472.77	13060.19
472.95	13128.06
473.13	13741.29
473.31	13139.77
473.49	13291.90
473.67	13193.60
473.85	13504.89
474.03	13853.63
474.21	13528.30
474.39	13750.65
474.57	13844.27
474.75	14312.38
474.93	14090.02
475.12	14064.28
475.30	14118.11
475.48	14043.21
475.66	14361.53
475.84	13996.40
476.02	14324.08
476.20	14450.47
476.38	14616.65
476.56	15150.29
476.74	15040.28
476.92	14719.63
477.10	14874.10
477.28	14941.98
477.46	15145.61
477.64	15286.04
477.82	15843.09
478.00	15873.51
478.18	15658.18
478.36	15850.11
478.54	15880.53
478.72	16119.27
478.90	16421.20
479.08	16578.01
479.26	16886.97
479.44	16549.93
479.62	16748.87
479.80	17104.64
479.98	16863.56
480.16	17198.26
480.34	17219.32
480.52	17404.22
480.70	17069.53
480.88	17528.27
481.06	17500.19
481.24	17575.08
481.41	17696.79
481.59	18150.85
481.77	18214.05
481.95	18471.51
482.13	18541.72
482.31	18527.68
482.49	19019.19
482.67	18822.59
482.85	18850.67
483.03	19194.73
483.21	19651.14
483.39	19508.37
483.57	19599.65
483.74	19852.42
483.92	20032.65
484.10	19648.80
484.28	20320.53
484.46	20673.95
484.64	21170.15
484.82	20657.57
485.00	20908.01
485.18	21348.03
485.35	21298.88
485.53	21390.16
485.71	21399.52
485.89	22080.61
486.07	21743.58
486.25	22253.81
486.43	22057.21
486.61	22171.89
486.78	22546.38
486.96	22810.86
487.14	23110.45
487.32	23012.15
487.50	23119.81
487.68	23913.25
487.85	23754.10
488.03	23999.85
488.21	24037.30
488.39	24175.39
488.57	24528.81
488.75	24072.41
488.92	25153.74
489.10	24790.95
489.28	24781.59
489.46	25261.40
489.64	25198.21
489.81	26305.28
489.99	26279.54
490.17	26026.76
490.35	26167.19
490.53	26286.56
490.70	26850.63
490.88	26553.38
491.06	26953.61
491.24	26888.07
491.41	26953.61
491.59	27725.99
491.77	27119.79
491.95	27775.14
492.13	28051.32
492.30	27906.21
492.48	28369.63
492.66	28168.35
492.84	28182.39
493.01	28514.75
493.19	28858.81
493.37	28933.70
493.54	28954.77
493.72	29546.92
493.90	29345.64
494.08	29670.97
494.25	29935.45
494.43	30146.10
494.61	29986.94
494.79	30190.57
494.96	30579.10
495.14	30099.29
495.32	30637.61
495.49	30888.05
495.67	31079.97
495.85	31791.50
496.02	31683.83
496.20	31770.43
496.38	32067.68
496.55	32067.68
496.73	32435.14
496.91	32098.11
497.09	32542.81
497.26	32627.07
497.44	32465.57
497.62	33029.64
497.79	33149.01
497.97	32769.84
498.14	33495.41
498.32	33893.30
498.50	33738.82
498.67	34122.67
498.85	33734.14
499.03	34195.23
499.20	34581.42
499.38	34370.77
499.56	34625.89
499.73	34696.10
499.91	35047.18
500.08	35166.55
500.26	34923.13
500.44	34913.77
500.61	34946.54
500.79	35285.92
500.97	35763.39
501.14	36055.95
501.32	36067.66
501.49	35873.39
501.67	35983.40
501.84	36046.59
502.02	36079.36
502.20	36297.03
502.37	36861.10
502.55	36517.04
502.72	36947.70
502.90	36753.43
503.07	36744.07
503.25	36772.16
503.43	36687.90
503.60	37413.46
503.78	37483.68
503.95	37266.01
504.13	37432.19
504.30	37783.27
504.48	37675.60
504.65	37944.76
504.83	38387.13
505.01	38267.76
505.18	38611.82
505.36	38679.69
505.53	38939.49
505.71	39009.71
505.88	38728.84
506.06	38817.78
506.23	39077.58
506.41	39276.53
506.58	39622.93
506.76	39393.56
506.93	39421.64
507.11	39655.70
507.28	39725.91
507.46	39555.05
507.63	39847.62
507.81	40020.82
507.98	40381.26
508.16	39761.02
508.33	40734.68
508.50	40453.82
508.68	40526.38
508.85	41022.57
509.03	41027.25
509.20	41165.34
509.38	41359.61
509.55	41511.74
509.73	41294.07
509.90	41387.69
510.08	41425.14
510.25	41743.45
510.42	41897.93
510.60	41787.92
510.77	42375.40
510.95	41989.21
511.12	42190.50
511.30	41996.23
511.47	42082.83
511.64	42370.72
511.82	42703.07
511.99	42705.41
512.17	43033.09
512.34	42684.35
512.51	42817.76
512.69	42873.93
512.86	43335.02
513.04	43442.68
513.21	43543.33
513.38	43927.17
513.56	44065.27
513.73	43856.96
513.90	43798.44
514.08	43948.24
514.25	44470.18
514.43	44023.14
514.60	44374.22
514.77	44406.98
514.95	44552.10
515.12	43910.79
515.29	44074.63
515.47	44882.11
515.64	44718.28
515.81	44488.90
515.99	45125.53
516.16	45034.25
516.33	45614.70
516.51	45504.70
516.68	45476.61
516.85	45165.32
517.03	45287.03
517.20	45762.15
517.37	45408.73
517.54	46003.23
517.72	45954.08
517.89	45818.33
518.06	46087.49
518.24	45827.69
518.41	45968.12
518.58	46358.99
518.75	46738.16
518.93	46380.06
519.10	46438.57
519.27	46412.82
519.45	46382.40
519.62	46806.03
519.79	46653.90
519.96	46562.62
520.14	47168.82
520.31	47077.54
520.48	47489.47
520.65	47157.11
520.83	47339.68
521.00	47241.37
521.17	47105.62
521.34	47381.80
521.52	47400.53
521.69	47739.91
521.86	47824.17
522.03	48025.45
522.20	48004.39
522.38	47924.81
522.55	48217.38
522.72	48233.76
522.89	48175.25
523.07	48601.22
523.24	48086.31
523.41	48708.89
523.58	48177.59
523.75	48788.47
523.92	48741.66
524.10	48713.57
524.27	48905.49
524.44	49230.83
524.61	49521.05
524.78	49537.44
524.96	49347.86
525.13	49144.23
525.30	48921.88
525.47	49294.02
525.64	49184.02
525.81	49738.72
525.98	49703.62
526.16	49631.06
526.33	49879.16
526.50	49862.77
526.67	49797.24
526.84	49617.02
527.01	49659.15
527.18	49918.95
527.36	50258.32
527.53	50241.94
527.70	50557.91
527.87	50134.28
528.04	50162.36
528.21	50274.71
528.38	50314.50
528.55	50733.45
528.72	50398.76
528.89	50607.06
529.07	50370.67
529.24	50810.69
529.41	50775.58
529.58	50513.44
529.75	50766.22
529.92	50930.06
530.09	50911.33
530.26	50911.33
530.43	50939.42
530.60	51002.61
530.77	51224.96
530.94	50916.01
531.11	50939.42
531.28	51084.53
531.46	51107.94
531.63	51054.11
531.80	51440.29
531.97	51749.24
532.14	51480.08
532.31	51391.14
532.48	51786.69
532.65	51536.26
532.82	51466.04
532.99	51866.27
533.16	51227.31
533.33	51627.54
533.50	51882.66
533.67	51915.42
533.84	51824.14
534.01	51957.55
534.18	51714.14
534.35	52231.40
534.52	52273.52
534.69	52299.27
534.86	52439.70
535.03	52137.77
535.20	52336.72
535.37	52123.73
535.54	52191.61
535.71	52240.76
535.88	52287.57
536.05	52552.05
536.22	52584.82
536.38	52846.96
536.55	52832.91
536.72	52629.29
536.89	52516.94
537.06	52514.60
537.23	52945.26
537.40	52626.95
537.57	52774.40
537.74	53029.52
537.91	53221.44
538.08	53312.72
538.25	52952.28
538.42	52926.53
538.59	53219.10
538.75	53167.61
538.92	53097.39
539.09	53179.31
539.26	53048.24
539.43	53532.73
539.60	53485.92
539.77	53373.58
539.94	53516.35
540.11	53539.75
540.28	53251.87
540.44	53352.51
540.61	53134.84
540.78	53312.72
540.95	53509.33
541.12	53415.71
541.29	53588.91
541.46	53638.06
541.62	53556.14
541.79	53661.46
541.96	53563.16
542.13	53422.73
542.30	53738.70
542.47	53989.14
542.63	54181.06
542.80	53970.41
542.97	54183.40
543.14	54281.70
543.31	54185.74
543.48	54085.10
543.64	54422.14
543.81	54197.44
543.98	54443.20
544.15	54740.45
544.32	54665.55
544.48	54845.77
544.65	54270.00
544.82	54625.76
544.99	54270.00
545.16	54270.00
545.32	54431.50
545.49	54724.07
545.66	54923.01
545.83	54859.82
546.00	54869.18
546.16	54997.91
546.33	54646.83
546.50	54382.35
546.67	54908.97
546.83	54403.41
547.00	54651.51
547.17	54986.21
547.34	54642.15
547.50	55133.66
547.67	55037.70
547.84	54674.91
548.00	54932.37
548.17	55105.57
548.34	54962.80
548.51	55168.77
548.67	55229.62
548.84	55278.77
549.01	55164.09
549.18	55000.25
549.34	55049.40
549.51	55262.39
549.68	55276.43
549.84	55089.19
550.01	55346.65
550.18	55206.22
550.34	55327.92
550.51	55473.04
550.68	55470.70
550.84	54890.24
551.01	55526.87
551.18	55515.17
551.34	55320.90
551.51	55501.12
551.68	55470.70
551.84	55831.14
552.01	55480.06
552.18	55697.73
552.34	55646.24
552.51	55688.37
552.68	55501.12
552.84	55608.79
553.01	55664.96
553.18	55639.22
553.34	55777.31
553.51	55693.05
553.67	55987.95
553.84	56030.08
554.01	55777.31
554.17	55880.29
554.34	56016.04
554.51	55819.44
554.67	56104.98
554.84	55824.12
555.00	56128.39
555.17	56076.90
555.33	56317.97
555.50	56177.54
555.67	55739.86
555.83	56341.38
556.00	55889.65
556.16	56083.92
556.33	55941.14
556.50	56137.75
556.66	56191.58
556.83	55927.10
556.99	56432.66
557.16	56427.98
557.32	56259.46
557.49	56488.83
557.65	56231.37
557.82	56128.39
557.98	56336.69
558.15	56409.25
558.32	56685.43
558.48	56554.36
558.65	56652.67
558.81	56498.19
558.98	56388.19
559.14	56589.47
559.31	56200.94
559.47	56743.95
559.64	56507.55
559.80	56559.05
559.97	56577.77
560.13	56364.78
560.30	56509.89
560.46	56708.84
560.63	56465.42
560.79	56697.14
560.96	56711.18
561.12	56591.81
561.29	56765.01
561.45	56788.42
561.61	56615.22
561.78	56603.52
561.94	56809.48
562.11	56746.29
562.27	56711.18
562.44	56542.66
562.60	56736.93
562.77	56774.37
562.93	56657.35
563.10	57052.90
563.26	56807.14
563.42	56903.10
563.59	56821.19
563.75	56736.93
563.92	56996.73
564.08	56921.83
564.24	56685.43
564.41	56793.10
564.57	56767.35
564.74	56797.78
564.90	56900.76
565.07	56921.83
565.23	56816.50
565.39	56938.21
565.56	56872.68
565.72	56910.13
565.88	57130.14
566.05	56907.79
566.21	56839.91
566.38	57109.07
566.54	56907.79
566.70	56877.36
566.87	57183.97
567.03	57052.90
567.19	57268.23
567.36	56938.21
567.52	56900.76
567.68	57174.61
567.85	56821.19
568.01	57022.47
568.17	56860.97
568.34	57155.88
568.50	57254.18
568.66	57195.67
568.83	57352.49
568.99	56987.36
569.15	57123.11
569.32	56905.44
569.48	57062.26
569.64	57174.61
569.81	57179.29
569.97	56905.44
570.13	57244.82
570.30	57139.50
570.46	57401.64
570.62	57240.14
570.78	57247.16
570.95	57064.60
571.11	57057.58
571.27	57139.50
571.43	56858.63
571.60	57043.54
571.76	56917.15
571.92	57083.33
572.09	57352.49
572.25	57242.48
572.41	57396.96
572.57	57354.83
572.74	57317.38
572.90	57057.58
573.06	57347.81
573.22	57069.28
573.38	57284.61
573.55	57258.87
573.71	57521.01
573.87	57485.90
574.03	57441.43
574.20	57460.15
574.36	57113.75
574.52	57219.08
574.68	57233.12
574.84	57205.03
575.01	57258.87
575.17	57174.61
575.33	57324.40
575.49	57284.61
575.65	57324.40
575.82	57464.83
575.98	57303.34
576.14	57394.62
576.30	57235.46
576.46	57106.73
576.62	57226.10
576.79	57265.89
576.95	57237.80
577.11	57286.95
577.27	57457.81
577.43	57502.28
577.59	57324.40
577.75	57525.69
577.92	57230.78
578.08	57169.93
578.24	57216.74
578.40	57352.49
578.56	57329.08
578.72	57422.70
578.88	57401.64
579.04	57570.16
579.21	57401.64
579.37	57179.29
579.53	57464.83
579.69	57209.71
579.85	57134.82
580.01	57289.29
580.17	57258.87
580.33	57228.44
580.49	57371.21
580.65	57359.51
580.82	57556.11
580.98	57413.34
581.14	57198.01
581.30	57474.20
581.46	57226.10
581.62	57286.95
581.78	57160.56
581.94	57485.90
582.10	57254.18
582.26	57635.69
582.42	57474.20
582.58	57380.57
582.74	57216.74
582.90	57317.38
583.06	57469.51
583.22	57389.94
583.38	57418.02
583.54	57301.00
583.70	57186.31
583.86	57305.68
584.02	57141.84
584.18	57525.69
584.34	57551.43
584.50	57710.59
584.66	57502.28
584.82	57382.91
584.98	57588.88
585.14	57293.97
585.30	57158.22
585.46	57399.30
585.62	57565.48
585.78	57598.24
585.94	57270.57
586.10	57733.99
586.26	57666.12
586.42	57691.86
586.58	57436.75
586.74	57530.37
586.90	57242.48
587.06	57076.30
587.22	57361.85
587.38	57350.15
587.54	57619.31
587.70	57722.29
587.86	57593.56
588.02	57846.34
588.18	57731.65
588.34	57715.27
588.49	57567.82
588.65	57525.69
588.81	57528.03
588.97	57378.23
589.13	57579.52
589.29	57492.92
589.45	57682.50
