SpectraSuite Data File
++++++++++++++++++++++++++++++++++++
Date: Fri Oct 18 13:54:43 GMT-05:00 2013
User: bianchi
Dark Spectrum Present: No
Reference Spectrum Present: No
Number of Sampled Component Spectra: 1
Spectrometers: USB2+H05261
Integration Time (usec): 100000 (USB2+H05261)
Spectra Averaged: 1 (USB2+H05261)
Boxcar Smoothing: 0 (USB2+H05261)
Correct for Electrical Dark: No (USB2+H05261)
Strobe/Lamp Enabled: No (USB2+H05261)
Correct for Detector Non-linearity: No (USB2+H05261)
Correct for Stray Light: No (USB2+H05261)
Number of Pixels in Processed Spectrum: 2048
>>>>>Begin Processed Spectral Data<<<<<
365.73	0.00
365.92	0.00
366.12	0.00
366.32	0.00
366.52	0.00
366.72	0.00
366.91	0.00
367.11	0.00
367.31	0.00
367.51	0.00
367.70	0.00
367.90	0.00
368.10	0.00
368.30	0.00
368.49	0.00
368.69	0.00
368.89	0.00
369.09	0.00
369.28	0.00
369.48	0.00
369.68	0.00
369.87	0.00
370.07	0.00
370.27	0.00
370.47	25.75
370.66	269.16
370.86	308.95
371.06	278.52
371.25	430.66
371.45	353.42
371.65	372.15
371.84	411.93
372.04	447.04
372.24	346.40
372.44	330.02
372.63	425.98
372.83	423.64
373.03	482.15
373.22	379.17
373.42	444.70
373.62	381.51
373.81	510.24
374.01	582.79
374.21	451.72
374.40	500.87
374.60	458.74
374.79	470.45
374.99	468.11
375.19	465.77
375.38	543.00
375.58	447.04
375.78	566.41
375.97	552.37
376.17	580.45
376.37	514.92
376.56	531.30
376.76	498.53
376.95	552.37
377.15	606.20
377.35	566.41
377.54	601.52
377.74	528.96
377.93	554.71
378.13	566.41
378.33	582.79
378.52	641.31
378.72	753.65
378.91	603.86
379.11	594.50
379.31	657.69
379.50	582.79
379.70	594.50
379.89	582.79
380.09	631.94
380.28	671.73
380.48	716.20
380.68	622.58
380.87	629.60
381.07	655.35
381.26	681.10
381.46	692.80
381.65	629.60
381.85	653.01
382.04	727.91
382.24	690.46
382.43	620.24
382.63	723.23
382.83	692.80
383.02	720.88
383.22	695.14
383.41	723.23
383.61	744.29
383.80	758.33
384.00	723.23
384.19	674.07
384.39	819.19
384.58	723.23
384.78	767.70
384.97	784.08
385.17	718.54
385.36	842.59
385.56	744.29
385.75	760.67
385.95	784.08
386.14	763.01
386.34	791.10
386.53	840.25
386.72	784.08
386.92	898.77
387.11	861.32
387.31	992.39
387.50	849.61
387.70	788.76
387.89	936.21
388.09	957.28
388.28	919.83
388.48	835.57
388.67	947.92
388.86	999.41
389.06	910.47
389.25	947.92
389.45	964.30
389.64	938.55
389.84	1004.09
390.03	968.98
390.22	1076.65
390.42	973.66
390.61	1011.11
390.81	896.43
391.00	1050.90
391.19	1083.67
391.39	1048.56
391.58	1064.94
391.78	1041.54
391.97	1095.37
392.16	1095.37
392.36	1177.29
392.55	1104.73
392.75	1111.75
392.94	1088.35
393.13	1184.31
393.33	1228.78
393.52	1167.93
393.71	1240.48
393.91	1196.01
394.10	1163.25
394.29	1238.14
394.49	1165.59
394.68	1280.27
394.88	1275.59
395.07	1317.72
395.26	1214.74
395.46	1242.82
395.65	1406.66
395.84	1315.38
396.04	1439.43
396.23	1418.36
396.42	1399.64
396.62	1378.58
396.81	1472.20
397.00	1476.88
397.19	1345.81
397.39	1441.77
397.58	1507.30
397.77	1348.15
397.97	1383.26
398.16	1483.90
398.35	1519.01
398.55	1469.86
398.74	1465.18
398.93	1577.52
399.12	1497.94
399.32	1540.07
399.51	1481.56
399.70	1624.33
399.90	1659.44
400.09	1647.74
400.28	1621.99
400.47	1659.44
400.67	1657.10
400.86	1614.97
401.05	1687.53
401.24	1659.44
401.44	1692.21
401.63	1783.49
401.82	1724.97
402.01	1678.16
402.21	1820.94
402.40	1764.76
402.59	1788.17
402.78	1900.52
402.97	1797.53
403.17	1891.15
403.36	1870.09
403.55	1853.70
403.74	1856.04
403.93	1944.99
404.13	1914.56
404.32	1902.86
404.51	1914.56
404.70	2043.29
404.89	2024.56
405.09	2104.14
405.28	1975.41
405.47	2033.93
405.66	2047.97
405.85	2031.58
406.05	2087.76
406.24	2101.80
406.43	2207.13
406.62	2326.49
406.81	2284.36
407.00	2167.34
407.20	2113.50
407.39	2172.02
407.58	2249.25
407.77	2307.77
407.96	2289.04
408.15	2363.94
408.34	2260.96
408.54	2225.85
408.73	2459.90
408.92	2338.20
409.11	2417.77
409.30	2455.22
409.49	2443.52
409.68	2394.37
409.87	2600.34
410.07	2546.50
410.26	2574.59
410.45	2539.48
410.64	2485.65
410.83	2560.55
411.02	2541.82
411.21	2850.77
411.40	2778.22
411.59	2733.75
411.78	2864.82
411.98	2881.20
412.17	2846.09
412.36	2794.60
412.55	2869.50
412.74	2902.26
412.93	3028.65
413.12	2949.08
413.31	3122.27
413.50	3047.38
413.69	3150.36
413.88	3187.81
414.07	3117.59
414.26	3197.17
414.45	3220.58
414.64	3239.30
414.83	3405.48
415.02	3370.37
415.22	3445.27
415.41	3501.44
415.60	3365.69
415.79	3499.10
415.98	3548.25
416.17	3557.61
416.36	3466.33
416.55	3585.70
416.74	3698.05
416.93	3625.49
417.12	3824.44
417.31	3777.62
417.50	3918.06
417.69	3892.31
417.88	3882.95
418.07	3854.86
418.26	3904.01
418.45	3978.91
418.64	4049.13
418.83	4065.51
419.02	3957.85
419.21	4152.11
419.39	4135.73
419.58	4086.58
419.77	4028.06
419.96	4222.33
420.15	4182.54
420.34	4182.54
420.53	4311.27
420.72	4285.52
420.91	4273.82
421.10	4304.25
421.29	4503.19
421.48	4376.80
421.67	4400.21
421.86	4435.32
422.05	4503.19
422.24	4393.19
422.43	4437.66
422.61	4451.70
422.80	4519.57
422.99	4720.86
423.18	4540.64
423.37	4645.96
423.56	4442.34
423.75	4367.44
423.94	4423.61
424.13	4332.33
424.32	4475.10
424.50	4585.11
424.69	4636.60
424.88	4704.48
425.07	4629.58
425.26	4503.19
425.45	4606.17
425.64	4486.81
425.83	4526.60
426.01	4587.45
426.20	4505.53
426.39	4706.82
426.58	4627.24
426.77	4610.86
426.96	4535.96
427.15	4777.03
427.33	4851.93
427.52	4863.63
427.71	4844.91
427.90	4870.65
428.09	4933.85
428.28	4940.87
428.46	4952.57
428.65	4997.04
428.84	5151.52
429.03	5146.84
429.22	4924.49
429.40	5177.26
429.59	5177.26
429.78	4882.36
429.97	4896.40
430.16	4968.96
430.34	5172.58
430.53	5142.16
430.72	5135.14
430.91	5132.79
431.10	5226.42
431.28	5331.74
431.47	5420.68
431.66	5554.09
431.85	5320.04
432.03	5706.23
432.22	5673.46
432.41	5490.90
432.60	5526.00
432.79	5600.90
432.97	5500.26
433.16	5593.88
433.35	5554.09
433.54	5701.54
433.72	5809.21
433.91	5617.29
434.10	5664.10
434.28	5678.14
434.47	5781.12
434.66	5813.89
434.85	5776.44
435.03	5827.93
435.22	5809.21
435.41	6207.10
435.59	6024.54
435.78	6083.05
435.97	5966.03
436.16	5977.73
436.34	5933.26
436.53	6094.76
436.72	6417.75
436.90	5905.17
437.09	6143.91
437.28	6017.52
437.46	6101.78
437.65	6272.64
437.84	6349.87
438.02	6406.05
438.21	6345.19
438.40	6174.33
438.58	6392.00
438.77	6621.38
438.96	6593.29
439.14	6647.12
439.33	6616.69
439.52	6705.63
439.70	6640.10
439.89	6850.75
440.08	6871.81
440.26	6623.72
440.45	6904.58
440.63	7052.03
440.82	7180.76
441.01	6916.28
441.19	7094.16
441.38	7248.64
441.57	7279.07
441.75	7325.88
441.94	7375.03
442.12	7435.88
442.31	7461.63
442.50	7414.82
442.68	7597.38
442.87	7564.61
443.05	7529.50
443.24	7824.41
443.43	7522.48
443.61	7599.72
443.80	7939.10
443.98	7515.46
444.17	7283.75
444.35	7805.69
444.54	7826.75
444.73	7698.02
444.91	7810.37
445.10	7744.83
445.28	7782.28
445.47	7698.02
445.65	7798.66
445.84	7730.79
446.02	7967.18
446.21	7885.26
446.39	7714.41
446.58	7901.65
446.77	8088.89
446.95	7672.28
447.14	7793.98
447.32	8086.55
447.51	7964.84
447.69	7880.58
447.88	8116.98
448.06	8004.63
448.25	7871.22
448.43	8067.83
448.62	7983.57
448.80	8205.92
448.99	7981.23
449.17	8196.56
449.36	8102.93
449.54	8334.65
449.73	8334.65
449.91	8266.77
450.10	8201.24
450.28	8634.24
450.46	8500.83
450.65	8463.38
450.83	8690.41
451.02	8566.36
451.20	8587.43
451.39	8709.13
451.57	8390.82
451.76	8390.82
451.94	8606.15
452.13	8620.19
452.31	8610.83
452.49	8542.96
452.68	8793.39
452.86	8678.71
453.05	8793.39
453.23	8943.19
453.42	8809.78
453.60	8917.44
453.78	8863.61
453.97	8847.22
454.15	8966.59
454.34	8847.22
454.52	9078.94
454.70	9263.84
454.89	9097.66
455.07	9275.54
455.26	9142.13
455.44	9123.41
455.62	9301.29
455.81	9376.19
455.99	9181.92
456.17	9282.56
456.36	9432.36
456.54	9511.94
456.73	9514.28
456.91	9788.12
457.09	9769.40
457.28	9940.26
457.46	9743.65
457.64	9692.16
457.83	10003.45
458.01	9966.00
458.19	10019.83
458.38	9820.89
458.56	10237.50
458.74	9860.68
458.93	9874.72
459.11	9970.68
459.29	10085.37
459.48	10286.65
459.66	10064.30
459.84	10274.95
460.03	10274.95
460.21	10200.05
460.39	10204.74
460.57	10097.07
460.76	10321.76
460.94	10691.57
461.12	10431.77
461.31	10478.58
461.49	10576.88
461.67	10518.37
461.85	10595.61
462.04	10579.22
462.22	11194.78
462.40	10696.25
462.59	10544.11
462.77	10726.68
462.95	10611.99
463.13	10731.36
463.32	10780.51
463.50	10895.19
463.68	10846.04
463.86	10960.73
464.05	10672.84
464.23	10899.87
464.41	11037.97
464.59	10937.32
464.78	11318.83
464.96	11201.80
465.14	10846.04
465.32	11052.01
465.50	11253.30
465.69	11382.03
465.87	11059.03
466.05	11330.53
466.23	11290.74
466.41	11297.77
466.60	11679.27
466.78	11534.16
466.96	11276.70
467.14	11176.06
467.32	11655.87
467.51	11789.28
467.69	11185.42
467.87	11695.66
468.05	11550.54
468.23	11234.57
468.41	11686.29
468.60	11712.04
468.78	12023.33
468.96	11712.04
469.14	11997.59
469.32	11910.99
469.50	11779.92
469.69	12126.32
469.87	12170.79
470.05	12404.84
470.23	12339.30
470.41	12322.92
470.59	12140.36
470.77	12332.28
470.95	12217.60
471.14	12762.94
471.32	12358.03
471.50	12671.66
471.68	12556.97
471.86	12641.23
472.04	12671.66
472.22	12966.57
472.40	12748.90
472.58	13004.02
472.77	13198.28
472.95	13099.98
473.13	13530.64
473.31	13331.69
473.49	13184.24
473.67	13001.68
473.85	13315.31
474.03	13621.92
474.21	13582.13
474.39	13600.85
474.57	13682.77
474.75	13701.50
474.93	13912.14
475.12	13839.59
475.30	13951.93
475.48	13846.61
475.66	14160.24
475.84	14160.24
476.02	14553.45
476.20	14218.75
476.38	14469.19
476.56	14904.53
476.74	14661.12
476.92	14714.95
477.10	14745.38
477.28	15068.37
477.46	15129.22
477.64	15108.16
477.82	15419.45
478.00	15513.07
478.18	15494.35
478.36	15613.71
478.54	16039.69
478.72	15962.45
478.90	16049.05
479.08	16444.60
479.26	16400.13
479.44	16294.81
479.62	16540.57
479.80	16709.08
479.98	16929.09
480.16	17280.18
480.34	16870.58
480.52	17392.52
480.70	17465.08
480.88	17165.49
481.06	17245.07
481.24	17586.79
481.41	17694.45
481.59	18068.94
481.77	18225.75
481.95	18026.81
482.13	18455.12
482.31	18445.76
482.49	18778.12
482.67	18654.07
482.85	19042.60
483.03	19225.16
483.21	19311.76
483.39	19428.79
483.57	19655.82
483.74	19480.28
483.92	19658.16
484.10	19777.53
484.28	20320.53
484.46	20201.16
484.64	21036.74
484.82	20430.54
485.00	20734.81
485.18	21256.75
485.35	21200.57
485.53	21399.52
485.71	21207.59
485.89	21596.12
486.07	21788.05
486.25	21743.58
486.43	22178.92
486.61	22101.68
486.78	22551.06
486.96	22485.53
487.14	22841.29
487.32	22970.02
487.50	23166.62
487.68	23028.53
487.85	23723.67
488.03	23901.55
488.21	24051.34
488.39	23852.40
488.57	24063.05
488.75	24706.70
488.92	24751.17
489.10	24989.90
489.28	24812.02
489.46	25369.07
489.64	24865.85
489.81	25703.76
489.99	25621.84
490.17	25802.07
490.35	25996.33
490.53	26291.24
490.70	26326.35
490.88	26195.28
491.06	26991.06
491.24	26455.08
491.41	27087.02
491.59	27166.60
491.77	27087.02
491.95	27505.98
492.13	27702.58
492.30	28016.21
492.48	27648.75
492.66	27847.69
492.84	28254.95
493.01	28128.56
493.19	28416.44
493.37	28996.90
493.54	28790.93
493.72	29134.99
493.90	29144.35
494.08	29741.19
494.25	29771.61
494.43	29766.93
494.61	29790.34
494.79	30525.27
494.96	29666.29
495.14	30658.68
495.32	30827.20
495.49	30347.39
495.67	31143.17
495.85	31014.44
496.02	31578.51
496.20	31278.92
496.38	31531.70
496.55	31683.83
496.73	32105.13
496.91	31817.24
497.09	32514.72
497.26	32631.75
497.44	32587.28
497.62	32353.23
497.79	33092.83
497.97	32795.59
498.14	33078.79
498.32	33577.33
498.50	33446.26
498.67	33813.72
498.85	33577.33
499.03	33996.28
499.20	33773.93
499.38	34188.21
499.56	34497.16
499.73	34300.55
499.91	34653.97
500.08	34824.83
500.26	34258.42
500.44	34714.83
500.61	34831.85
500.79	35147.82
500.97	35042.50
501.14	35793.81
501.32	35718.92
501.49	35505.93
501.67	35512.95
501.84	35545.72
502.02	36016.16
502.20	36282.98
502.37	36547.47
502.55	36673.85
502.72	36685.56
502.90	36421.08
503.07	36217.45
503.25	36910.25
503.43	36407.03
503.60	37195.79
503.78	36900.89
503.95	36957.06
504.13	37310.48
504.30	37628.79
504.48	37535.17
504.65	37706.03
504.83	38223.29
505.01	38450.32
505.18	38043.07
505.36	37923.70
505.53	38134.35
505.71	38314.57
505.88	38345.00
506.06	37883.91
506.23	38862.26
506.41	38670.33
506.58	39145.46
506.76	39161.84
506.93	39655.70
507.11	39276.53
507.28	39173.55
507.46	39426.32
507.63	39351.43
507.81	40055.93
507.98	39700.17
508.16	40250.19
508.33	39845.28
508.50	40062.95
508.68	40507.65
508.85	40547.44
509.03	40294.66
509.20	40734.68
509.38	40914.90
509.55	40919.59
509.73	41155.98
509.90	40800.22
510.08	40980.44
510.25	41600.68
510.42	41317.48
510.60	41911.97
510.77	41900.27
510.95	41785.58
511.12	41457.91
511.30	41518.76
511.47	42071.13
511.64	42759.25
511.82	42520.51
511.99	42197.52
512.17	42602.43
512.34	42206.88
512.51	42918.40
512.69	42703.07
512.86	43133.73
513.04	43358.42
513.21	43491.83
513.38	43569.07
513.56	43278.85
513.73	43335.02
513.90	43505.88
514.08	43096.28
514.25	43791.42
514.43	43702.48
514.60	43779.72
514.77	44025.48
514.95	44229.10
515.12	44018.46
515.29	43978.67
515.47	44348.47
515.64	44477.20
515.81	44341.45
515.99	44985.10
516.16	45565.55
516.33	45116.17
516.51	45177.02
516.68	45076.38
516.85	44690.19
517.03	45214.47
517.20	45691.94
517.37	45544.48
517.54	45638.11
517.72	45310.43
517.89	45553.85
518.06	45188.72
518.24	45727.05
518.41	46059.40
518.58	45876.84
518.75	45961.10
518.93	45776.20
519.10	46293.46
519.27	45954.08
519.45	46389.42
519.62	46532.19
519.79	46157.70
519.96	46061.74
520.14	46527.51
520.31	46607.09
520.48	46487.72
520.65	47065.83
520.83	47037.75
521.00	46820.08
521.17	47189.88
521.34	46990.94
521.52	47461.38
521.69	47344.36
521.86	47599.47
522.03	47627.56
522.20	47686.07
522.38	47955.24
522.55	47660.33
522.72	48004.39
522.89	48147.16
523.07	48168.22
523.24	47765.65
523.41	48079.28
523.58	47849.91
523.75	48671.44
523.92	48292.27
524.10	48456.11
524.27	48341.42
524.44	48568.46
524.61	48917.20
524.78	48531.01
524.96	48989.75
525.13	49137.21
525.30	48856.34
525.47	48650.38
525.64	48839.96
525.81	49509.35
525.98	49659.15
526.16	48879.75
526.33	49324.45
526.50	49738.72
526.67	49097.42
526.84	49308.07
527.01	49429.77
527.18	49621.70
527.36	49834.69
527.53	50078.10
527.70	50387.05
527.87	49916.61
528.04	49844.05
528.21	50122.57
528.38	50094.49
528.55	50244.28
528.72	50255.98
528.89	50337.90
529.07	50382.37
529.24	49972.78
529.41	50501.74
529.58	50382.37
529.75	50230.24
529.92	50450.25
530.09	50384.71
530.26	50796.65
530.43	50766.22
530.60	50363.65
530.77	50782.60
530.94	50916.01
531.11	50632.81
531.28	50784.94
531.46	50719.41
531.63	50871.54
531.80	51206.24
531.97	51201.56
532.14	51524.55
532.31	50948.78
532.48	51365.40
532.65	51466.04
532.82	51147.73
532.99	51386.46
533.16	51386.46
533.33	51475.40
533.50	52041.81
533.67	51657.96
533.84	51681.37
534.01	51543.28
534.18	51461.36
534.35	51943.51
534.52	52116.71
534.69	52203.31
534.86	52610.56
535.03	52088.62
535.20	52079.26
535.37	52142.45
535.54	51735.20
535.71	51756.27
535.88	52016.07
536.05	51962.23
536.22	52156.50
536.38	52456.09
536.55	52362.46
536.72	52491.19
536.89	52154.16
537.06	52219.69
537.23	52243.10
537.40	52507.58
537.57	52282.89
537.74	52788.44
537.91	53015.47
538.08	52767.38
538.25	52736.95
538.42	52617.58
538.59	52896.11
538.75	52655.03
538.92	52732.27
539.09	53134.84
539.26	53071.65
539.43	53055.26
539.60	53050.58
539.77	52828.23
539.94	53331.45
540.11	53350.17
540.28	53139.52
540.44	53284.64
540.61	53022.50
540.78	53003.77
540.95	53343.15
541.12	53284.64
541.29	53263.57
541.46	53481.24
541.62	53319.74
541.79	53532.73
541.96	53127.82
542.13	53574.86
542.30	53411.02
542.47	53640.40
542.63	53825.30
542.80	53867.43
542.97	53876.79
543.14	53787.85
543.31	53865.09
543.48	53588.91
543.64	54000.84
543.81	54190.42
543.98	54372.99
544.15	54291.07
544.32	54375.33
544.48	54333.20
544.65	53998.50
544.82	53951.69
544.99	53785.51
545.16	54024.25
545.32	54326.17
545.49	54644.49
545.66	54808.32
545.83	54569.59
546.00	54885.56
546.16	54557.89
546.33	54129.57
546.50	54258.30
546.67	54850.45
546.83	54270.00
547.00	54410.43
547.17	54784.92
547.34	54485.33
547.50	54780.24
547.67	55018.97
547.84	54646.83
548.00	54773.22
548.17	54920.67
548.34	54784.92
548.51	54939.39
548.67	54997.91
548.84	54941.74
549.01	55011.95
549.18	54925.35
549.34	54927.69
549.51	55201.53
549.68	54946.42
549.84	54855.14
550.01	55103.23
550.18	54958.12
550.34	55143.02
550.51	55255.37
550.68	55154.72
550.84	55000.25
551.01	55196.85
551.18	55114.94
551.34	54913.65
551.51	55119.62
551.68	55477.72
551.84	55248.35
552.01	55302.18
552.18	55533.89
552.34	55339.63
552.51	55358.35
552.68	55295.16
552.84	55489.42
553.01	55386.44
553.18	55606.45
553.34	55606.45
553.51	55552.62
553.67	55671.98
553.84	55966.89
554.01	55735.18
554.17	55863.91
554.34	55592.40
554.51	55374.73
554.67	55828.80
554.84	55627.51
555.00	55831.14
555.17	55753.90
555.33	55882.63
555.50	55854.54
555.67	55695.39
555.83	55861.57
556.00	55910.72
556.16	56147.11
556.33	55866.25
556.50	55700.07
556.66	55831.14
556.83	55903.70
556.99	56114.34
557.16	56219.67
557.32	56170.52
557.49	56189.24
557.65	55966.89
557.82	55990.30
557.98	56135.41
558.15	56168.18
558.32	56121.37
558.48	56367.12
558.65	56573.09
558.81	56198.60
558.98	56376.48
559.14	56339.04
559.31	56165.84
559.47	56212.65
559.64	56212.65
559.80	56264.14
559.97	56470.11
560.13	56413.93
560.30	56296.91
560.46	56203.28
560.63	56336.69
560.79	56467.76
560.96	56381.16
561.12	56535.64
561.29	56102.64
561.45	56390.53
561.61	56467.76
561.78	56662.03
561.94	56559.05
562.11	56556.70
562.27	56498.19
562.44	56378.82
562.60	56353.08
562.77	56458.40
562.93	56310.95
563.10	56662.03
563.26	56364.78
563.42	56818.84
563.59	56573.09
563.75	56587.13
563.92	56800.12
564.08	56498.19
564.24	56535.64
564.41	56399.89
564.57	56399.89
564.74	56392.87
564.90	56694.80
565.07	56655.01
565.23	56786.08
565.39	56746.29
565.56	56563.73
565.72	56729.90
565.88	56772.03
566.05	56783.74
566.21	56718.20
566.38	56530.96
566.54	56596.49
566.70	57137.16
566.87	57062.26
567.03	56797.78
567.19	56999.07
567.36	56926.51
567.52	56596.49
567.68	56940.55
567.85	56678.41
568.01	57036.51
568.17	56718.20
568.34	56905.44
568.50	56896.08
568.66	56788.42
568.83	56900.76
568.99	56711.18
569.15	56896.08
569.32	56917.15
569.48	56640.96
569.64	56821.19
569.81	56769.69
569.97	56949.92
570.13	56926.51
570.30	56795.44
570.46	56786.08
570.62	56802.46
570.78	56987.36
570.95	56713.52
571.11	56818.84
571.27	56793.10
571.43	56860.97
571.60	56882.04
571.76	56776.72
571.92	56884.38
572.09	57160.56
572.25	57144.18
572.41	57045.88
572.57	56970.98
572.74	56966.30
572.90	56975.66
573.06	56872.68
573.22	56999.07
573.38	57270.57
573.55	56652.67
573.71	57389.94
573.87	57195.67
574.03	56933.53
574.20	57326.74
574.36	57008.43
574.52	56942.89
574.68	57050.56
574.84	57099.71
575.01	57109.07
575.17	57382.91
575.33	57212.06
575.49	57123.11
575.65	57378.23
575.82	57179.29
575.98	57123.11
576.14	57174.61
576.30	57010.77
576.46	56928.85
576.62	56734.59
576.79	57090.35
576.95	56851.61
577.11	56966.30
577.27	57148.86
577.43	57127.80
577.59	56851.61
577.75	56985.02
577.92	57059.92
578.08	57008.43
578.24	56903.10
578.40	56835.23
578.56	57109.07
578.72	57188.65
578.88	57296.31
579.04	57242.48
579.21	57057.58
579.37	57118.43
579.53	57073.96
579.69	57137.16
579.85	57048.22
580.01	56858.63
580.17	56715.86
580.33	57064.60
580.49	57097.37
580.65	57088.01
580.82	57317.38
580.98	57155.88
581.14	56952.26
581.30	57279.93
581.46	57090.35
581.62	57045.88
581.78	56945.23
581.94	57031.83
582.10	57176.95
582.26	57041.20
582.42	57261.21
582.58	57134.82
582.74	57518.67
582.90	57144.18
583.06	57350.15
583.22	56987.36
583.38	57071.62
583.54	57181.63
583.70	57279.93
583.86	57020.13
584.02	56860.97
584.18	57029.49
584.34	57202.69
584.50	57244.82
584.66	57205.03
584.82	57024.81
584.98	57233.12
585.14	57144.18
585.30	57247.16
585.46	57235.46
585.62	57034.17
585.78	57228.44
585.94	57301.00
586.10	57214.40
586.26	57057.58
586.42	57331.42
586.58	57434.41
586.74	57104.39
586.90	57118.43
587.06	57160.56
587.22	56989.70
587.38	57092.69
587.54	57394.62
587.70	57256.53
587.86	57378.23
588.02	57169.93
588.18	57394.62
588.34	57092.69
588.49	57221.42
588.65	57088.01
588.81	57270.57
588.97	57399.30
589.13	57317.38
589.29	57261.21
589.45	57499.94
