SpectraSuite Data File
++++++++++++++++++++++++++++++++++++
Date: Fri Oct 18 13:54:53 GMT-05:00 2013
User: bianchi
Dark Spectrum Present: No
Reference Spectrum Present: No
Number of Sampled Component Spectra: 1
Spectrometers: USB2+H05261
Integration Time (usec): 100000 (USB2+H05261)
Spectra Averaged: 1 (USB2+H05261)
Boxcar Smoothing: 0 (USB2+H05261)
Correct for Electrical Dark: No (USB2+H05261)
Strobe/Lamp Enabled: No (USB2+H05261)
Correct for Detector Non-linearity: No (USB2+H05261)
Correct for Stray Light: No (USB2+H05261)
Number of Pixels in Processed Spectrum: 2048
>>>>>Begin Processed Spectral Data<<<<<
365.73	0.00
365.92	0.00
366.12	0.00
366.32	0.00
366.52	0.00
366.72	0.00
366.91	0.00
367.11	0.00
367.31	0.00
367.51	0.00
367.70	0.00
367.90	0.00
368.10	0.00
368.30	0.00
368.49	0.00
368.69	0.00
368.89	0.00
369.09	0.00
369.28	0.00
369.48	0.00
369.68	0.00
369.87	0.00
370.07	0.00
370.27	0.00
370.47	4.68
370.66	311.29
370.86	369.80
371.06	334.70
371.25	346.40
371.45	297.25
371.65	334.70
371.84	388.53
372.04	301.93
372.24	449.38
372.44	433.00
372.63	521.94
372.83	498.53
373.03	430.66
373.22	379.17
373.42	465.77
373.62	484.49
373.81	451.72
374.01	475.13
374.21	526.62
374.40	521.94
374.60	498.53
374.79	493.85
374.99	493.85
375.19	554.71
375.38	599.18
375.58	543.00
375.78	575.77
375.97	550.03
376.17	608.54
376.37	500.87
376.56	554.71
376.76	498.53
376.95	514.92
377.15	552.37
377.35	557.05
377.54	615.56
377.74	496.19
377.93	571.09
378.13	526.62
378.33	564.07
378.52	561.73
378.72	713.86
378.91	582.79
379.11	528.96
379.31	674.07
379.50	613.22
379.70	702.16
379.89	704.50
380.09	695.14
380.28	660.03
380.48	690.46
380.68	641.31
380.87	720.88
381.07	718.54
381.26	732.59
381.46	603.86
381.65	741.95
381.85	671.73
382.04	641.31
382.24	713.86
382.43	777.06
382.63	685.78
382.83	727.91
383.02	777.06
383.22	751.31
383.41	713.86
383.61	765.36
383.80	870.68
384.00	791.10
384.19	770.04
384.39	798.12
384.58	739.61
384.78	812.17
384.97	720.88
385.17	748.97
385.36	887.06
385.56	884.72
385.75	847.27
385.95	866.00
386.14	882.38
386.34	870.68
386.53	901.11
386.72	828.55
386.92	922.17
387.11	840.25
387.31	884.72
387.50	896.43
387.70	912.81
387.89	952.60
388.09	908.13
388.28	922.17
388.48	987.71
388.67	968.98
388.86	957.28
389.06	966.64
389.25	924.51
389.45	976.00
389.64	1011.11
389.84	945.58
390.03	1053.24
390.22	1071.97
390.42	957.28
390.61	1018.13
390.81	978.34
391.00	1043.88
391.19	1118.78
391.39	1090.69
391.58	1090.69
391.78	1104.73
391.97	1139.84
392.16	1025.15
392.36	1128.14
392.55	1179.63
392.75	1053.24
392.94	1181.97
393.13	1149.20
393.33	1149.20
393.52	1088.35
393.71	1268.57
393.91	1146.86
394.10	1160.91
394.29	1203.04
394.49	1205.38
394.68	1238.14
394.88	1172.61
395.07	1214.74
395.26	1322.40
395.46	1273.25
395.65	1387.94
395.84	1341.13
396.04	1366.87
396.23	1434.75
396.42	1401.98
396.62	1322.40
396.81	1444.11
397.00	1383.26
397.19	1418.36
397.39	1352.83
397.58	1366.87
397.77	1420.71
397.97	1465.18
398.16	1488.58
398.35	1455.81
398.55	1486.24
398.74	1551.78
398.93	1586.88
399.12	1509.65
399.32	1493.26
399.51	1479.22
399.70	1654.76
399.90	1547.09
400.09	1687.53
400.28	1741.36
400.47	1596.25
400.67	1666.46
400.86	1607.95
401.05	1638.38
401.24	1729.66
401.44	1706.25
401.63	1717.95
401.82	1741.36
402.01	1727.32
402.21	1757.74
402.40	1839.66
402.59	1909.88
402.78	1900.52
402.97	1895.83
403.17	1881.79
403.36	1877.11
403.55	1984.77
403.74	2015.20
403.93	1937.96
404.13	2022.22
404.32	1984.77
404.51	1973.07
404.70	2064.35
404.89	2038.61
405.09	2132.23
405.28	2179.04
405.47	2069.03
405.66	2160.31
405.85	2136.91
406.05	2143.93
406.24	2113.50
406.43	2167.34
406.62	2249.25
406.81	2431.82
407.00	2186.06
407.20	2179.04
407.39	2242.23
407.58	2204.78
407.77	2293.72
407.96	2382.67
408.15	2427.14
408.34	2307.77
408.54	2422.45
408.73	2361.60
408.92	2399.05
409.11	2445.86
409.30	2551.18
409.49	2490.33
409.68	2464.58
409.87	2558.21
410.07	2525.44
410.26	2541.82
410.45	2590.97
410.64	2691.62
410.83	2827.37
411.02	2766.51
411.21	2778.22
411.40	2717.36
411.59	2874.18
411.78	2904.60
411.98	2888.22
412.17	2988.86
412.36	2778.22
412.55	3038.02
412.74	2836.73
412.93	2991.20
413.12	3084.83
413.31	2972.48
413.50	3103.55
413.69	3229.94
413.88	3141.00
414.07	3082.49
414.26	3260.37
414.45	3288.45
414.64	3260.37
414.83	3419.52
415.02	3517.83
415.22	3595.06
415.41	3557.61
415.60	3449.95
415.79	3428.88
415.98	3599.74
416.17	3620.81
416.36	3655.92
416.55	3721.45
416.74	3679.32
416.93	3712.09
417.12	3906.35
417.31	3679.32
417.50	3758.90
417.69	3934.44
417.88	3918.06
418.07	3941.46
418.26	4065.51
418.45	3943.80
418.64	4032.74
418.83	4030.40
419.02	4035.08
419.21	4208.28
419.39	4044.45
419.58	4166.15
419.77	4044.45
419.96	4248.07
420.15	4301.90
420.34	4294.88
420.53	4189.56
420.72	4287.86
420.91	4355.74
421.10	4388.50
421.29	4423.61
421.48	4285.52
421.67	4463.40
421.86	4496.17
422.05	4423.61
422.24	4271.48
422.43	4540.64
422.61	4615.54
422.80	4468.08
422.99	4418.93
423.18	4674.05
423.37	4638.94
423.56	4550.00
423.75	4571.07
423.94	4393.19
424.13	4266.80
424.32	4374.46
424.50	4613.20
424.69	4664.69
424.88	4760.65
425.07	4599.15
425.26	4660.01
425.45	4802.78
425.64	4601.49
425.83	4779.37
426.01	4704.48
426.20	4615.54
426.39	4674.05
426.58	4732.56
426.77	4713.84
426.96	4652.98
427.15	4821.50
427.33	4819.16
427.52	4929.17
427.71	4894.06
427.90	4950.23
428.09	5085.98
428.28	4938.53
428.46	5116.41
428.65	4985.34
428.84	5142.16
429.03	5207.69
429.22	4940.87
429.40	5088.32
429.59	5228.76
429.78	5104.71
429.97	4823.84
430.16	5146.84
430.34	5193.65
430.53	5280.25
430.72	5261.52
430.91	5280.25
431.10	5263.86
431.28	5345.78
431.47	5394.93
431.66	5493.24
431.85	5423.02
432.03	5497.92
432.22	5722.61
432.41	5472.17
432.60	5586.86
432.79	5600.90
432.97	5607.92
433.16	5640.69
433.35	5603.24
433.54	5678.14
433.72	5652.39
433.91	5706.23
434.10	5643.03
434.28	5603.24
434.47	5870.06
434.66	5921.56
434.85	5741.33
435.03	5844.32
435.22	5839.64
435.41	6019.86
435.59	6066.67
435.78	5989.43
435.97	6092.41
436.16	6221.14
436.34	5865.38
436.53	6289.02
436.72	6225.82
436.90	5975.39
437.09	6197.74
437.28	6087.73
437.46	6164.97
437.65	6106.46
437.84	6267.95
438.02	6267.95
438.21	6441.15
438.40	6286.68
438.58	6590.95
438.77	6553.50
438.96	6677.55
439.14	6644.78
439.33	6820.32
439.52	6785.21
439.70	6722.02
439.89	6895.22
440.08	7091.82
440.26	6916.28
440.45	6920.96
440.63	7054.37
440.82	7159.70
441.01	6951.39
441.19	7297.79
441.38	7295.45
441.57	7424.18
441.75	7300.13
441.94	7527.16
442.12	7433.54
442.31	7571.63
442.50	7625.47
442.68	7576.31
442.87	7726.11
443.05	7737.81
443.24	7632.49
443.43	7691.00
443.61	7751.85
443.80	8175.49
443.98	7531.84
444.17	7396.09
444.35	7852.50
444.54	8051.44
444.73	7873.56
444.91	7777.60
445.10	7903.99
445.28	8016.33
445.47	7819.73
445.65	8013.99
445.84	7918.03
446.02	8084.21
446.21	7819.73
446.39	7934.42
446.58	8175.49
446.77	8032.72
446.95	7749.51
447.14	8035.06
447.32	8100.59
447.51	7941.44
447.69	8056.12
447.88	8039.74
448.06	8081.87
448.25	7878.24
448.43	8011.65
448.62	8131.02
448.80	8072.51
448.99	8135.70
449.17	8133.36
449.36	8273.79
449.54	8182.51
449.73	8168.47
449.91	8402.52
450.10	8409.54
450.28	8484.44
450.46	8505.51
450.65	8674.03
450.83	8631.90
451.02	8491.46
451.20	8798.07
451.39	8746.58
451.57	8545.30
451.76	8690.41
451.94	8760.63
452.13	8772.33
452.31	8713.81
452.49	8800.41
452.68	8734.88
452.86	8905.74
453.05	8994.68
453.23	9025.11
453.42	8741.90
453.60	8774.67
453.78	8926.80
453.97	8861.27
454.15	8802.75
454.34	9001.70
454.52	9291.93
454.70	9092.98
454.89	9369.16
455.07	9179.58
455.26	9256.82
455.44	9533.00
455.62	9142.13
455.81	9294.27
455.99	9383.21
456.17	9378.53
456.36	9380.87
456.54	9568.11
456.73	9521.30
456.91	10024.51
457.09	9781.10
457.28	10012.81
457.46	9738.97
457.64	10036.22
457.83	9851.31
458.01	9575.13
458.19	10068.98
458.38	9839.61
458.56	10090.05
458.74	10092.39
458.93	9830.25
459.11	10235.16
459.29	10125.16
459.48	10122.82
459.66	10249.21
459.84	10235.16
460.03	10504.32
460.21	10197.71
460.39	10434.11
460.57	10431.77
460.76	10429.43
460.94	10675.18
461.12	10569.86
461.31	10445.81
461.49	10457.51
461.67	10593.26
461.85	10801.57
462.04	10658.80
462.22	10977.11
462.40	10808.59
462.59	10965.41
462.77	10937.32
462.95	11073.07
463.13	10733.70
463.32	11243.93
463.50	11059.03
463.68	11009.88
463.86	11014.56
464.05	10956.05
464.23	11103.50
464.41	11000.52
464.59	10913.92
464.78	11201.80
464.96	11255.64
465.14	11131.59
465.32	11133.93
465.50	11524.80
465.69	11564.59
465.87	11255.64
466.05	11328.19
466.23	11501.39
466.41	11377.34
466.60	11843.11
466.78	11342.24
466.96	11466.28
467.14	11503.73
467.32	11730.76
467.51	11716.72
467.69	11587.99
467.87	11536.50
468.05	11852.47
468.23	11667.57
468.41	11499.05
468.60	11660.55
468.78	11822.05
468.96	11740.13
469.14	11971.84
469.32	12264.41
469.50	11693.32
469.69	12341.64
469.87	12222.28
470.05	12472.71
470.23	12311.22
470.41	12376.75
470.59	12390.80
470.77	12575.70
470.95	12217.60
471.14	12601.44
471.32	12580.38
471.50	12589.74
471.68	12517.18
471.86	12753.58
472.04	12924.44
472.22	13095.30
472.40	12709.11
472.58	12858.90
472.77	12992.31
472.95	13186.58
473.13	13923.85
473.31	13193.60
473.49	13179.56
473.67	13268.50
473.85	13184.24
474.03	13792.78
474.21	13479.15
474.39	13830.23
474.57	13755.33
474.75	14242.16
474.93	14066.62
475.12	14087.68
475.30	14286.63
475.48	14178.97
475.66	14410.68
475.84	14204.71
476.02	14581.54
476.20	14471.53
476.38	14785.16
476.56	15044.96
476.74	15019.22
476.92	14876.44
477.10	14815.59
477.28	15073.05
477.46	15138.58
477.64	15487.32
477.82	15466.26
478.00	15719.04
478.18	15758.83
478.36	15836.06
478.54	16376.73
478.72	16238.64
478.90	16334.60
479.08	16248.00
479.26	16468.01
479.44	16503.12
479.62	16908.03
479.80	16865.90
479.98	16973.56
480.16	17069.53
480.34	17106.98
480.52	17444.01
480.70	17458.06
480.88	17329.33
481.06	17284.86
481.24	17483.80
481.41	18214.05
481.59	18120.43
481.77	18420.02
481.95	18331.08
482.13	18523.00
482.31	18366.18
482.49	18981.74
482.67	19035.58
482.85	19129.20
483.03	19428.79
483.21	19517.73
483.39	19791.57
483.57	19508.37
483.74	19889.87
483.92	20016.26
484.10	19880.51
484.28	20343.94
484.46	20601.40
484.64	20954.82
484.82	20421.17
485.00	20933.75
485.18	21298.88
485.35	21448.67
485.53	21362.07
485.71	21493.14
485.89	22375.52
486.07	21839.54
486.25	22066.57
486.43	22015.08
486.61	22258.49
486.78	22661.07
486.96	22909.16
487.14	23065.98
487.32	22878.74
487.50	23293.01
487.68	23506.00
487.85	23541.11
488.03	23924.96
488.21	24233.91
488.39	23955.38
488.57	24840.11
488.75	24259.65
488.92	24622.44
489.10	25221.61
489.28	24912.66
489.46	25458.01
489.64	25406.52
489.81	25851.22
489.99	25741.21
490.17	26022.08
490.35	26738.28
490.53	26246.77
490.70	26443.37
490.88	26874.03
491.06	27175.96
491.24	26705.51
491.41	27264.90
491.59	27377.25
491.77	27353.84
491.95	27590.24
492.13	27988.13
492.30	28004.51
492.48	27667.47
492.66	28037.28
492.84	28460.91
493.01	28886.89
493.19	29221.59
493.37	29200.52
493.54	29244.99
493.72	29589.05
493.90	29979.92
494.08	29699.06
494.25	30050.14
494.43	29710.76
494.61	30422.28
494.79	30298.23
494.96	30485.48
495.14	30738.26
495.32	30740.60
495.49	30930.18
495.67	31171.25
495.85	31318.71
496.02	31758.73
496.20	31622.98
496.38	31908.52
496.55	31763.41
496.73	32568.55
496.91	32182.37
497.09	32629.41
497.26	32891.55
497.44	32781.54
497.62	32730.05
497.79	33249.65
497.97	32964.10
498.14	33408.81
498.32	33692.01
498.50	33479.02
498.67	34143.74
498.85	33684.99
499.03	34321.62
499.20	34073.52
499.38	34588.44
499.56	34604.82
499.73	35196.98
499.91	35049.52
500.08	34895.05
500.26	35056.54
500.44	35405.28
500.61	35744.66
500.79	35178.25
500.97	35337.41
501.14	35732.96
501.32	35981.06
501.49	36062.97
501.67	36013.82
501.84	36404.69
502.02	36196.38
502.20	36369.58
502.37	36755.77
502.55	36978.12
502.72	36540.44
502.90	36741.73
503.07	36840.03
503.25	37088.13
503.43	36790.88
503.60	37062.38
503.78	37408.78
503.95	37385.38
504.13	37432.19
504.30	37729.44
504.48	37862.85
504.65	38059.45
504.83	38274.78
505.01	38597.77
505.18	38485.43
505.36	38775.66
505.53	38272.44
505.71	38466.70
505.88	38859.91
506.06	38724.16
506.23	39234.40
506.41	39070.56
506.58	39594.84
506.76	39276.53
506.93	39419.30
507.11	39606.55
507.28	39379.51
507.46	39929.54
507.63	40184.66
507.81	40121.46
507.98	39999.76
508.16	40451.48
508.33	40505.31
508.50	40245.51
508.68	40760.43
508.85	40982.78
509.03	41060.02
509.20	40928.95
509.38	41404.08
509.55	41530.47
509.73	41373.65
509.90	41507.06
510.08	41450.89
510.25	41469.61
510.42	41741.11
510.60	41900.27
510.77	41727.07
510.95	41921.34
511.12	42139.00
511.30	42087.51
511.47	42440.93
511.64	42274.76
511.82	43009.68
511.99	42925.42
512.17	43562.05
512.34	42824.78
512.51	43012.02
512.69	43117.35
512.86	43365.45
513.04	43428.64
513.21	43470.77
513.38	43543.33
513.56	43758.66
513.73	43665.03
513.90	43831.21
514.08	43763.34
514.25	43824.19
514.43	43875.68
514.60	44374.22
514.77	44594.23
514.95	44481.88
515.12	44589.55
515.29	44311.02
515.47	45078.72
515.64	44842.32
515.81	44933.60
515.99	45408.73
516.16	45588.95
516.33	45329.16
516.51	45675.55
516.68	45223.83
516.85	45464.91
517.03	45603.00
517.20	45698.96
517.37	46293.46
517.54	46373.03
517.72	46129.62
517.89	45647.47
518.06	46110.89
518.24	46019.61
518.41	45778.54
518.58	46305.16
518.75	46012.59
518.93	46351.97
519.10	46401.12
519.27	46660.92
519.45	46705.39
519.62	46946.47
519.79	46553.26
519.96	46550.91
520.14	47075.19
520.31	47281.16
520.48	47377.12
520.65	47274.14
520.83	47632.24
521.00	47407.55
521.17	47178.18
521.34	47381.80
521.52	47690.76
521.69	47566.71
521.86	47749.27
522.03	47934.17
522.20	47997.37
522.38	48086.31
522.55	47980.98
522.72	48009.07
522.89	48023.11
523.07	48697.19
523.24	48481.86
523.41	48772.08
523.58	48697.19
523.75	48856.34
523.92	48313.34
524.10	48608.25
524.27	48612.93
524.44	48641.01
524.61	49118.48
524.78	49380.62
524.96	49223.81
525.13	49003.80
525.30	49076.35
525.47	49476.58
525.64	49134.87
525.81	49394.67
525.98	49729.36
526.16	49673.19
526.33	49712.98
526.50	49673.19
526.67	49422.75
526.84	49958.73
527.01	49485.95
527.18	49876.82
527.36	50232.58
527.53	50014.91
527.70	50623.45
527.87	50398.76
528.04	50216.19
528.21	50000.86
528.38	50314.50
528.55	50220.87
528.72	50513.44
528.89	50801.33
529.07	50321.52
529.24	50574.30
529.41	50791.97
529.58	50553.23
529.75	50586.00
529.92	50688.98
530.09	50899.63
530.26	51178.15
530.43	51136.02
530.60	51096.24
530.77	51054.11
530.94	51374.76
531.11	51016.66
531.28	51166.45
531.46	51517.53
531.63	51164.11
531.80	51463.70
531.97	51590.09
532.14	51672.01
532.31	51704.77
532.48	51515.19
532.65	51765.63
532.82	51386.46
532.99	51569.02
533.16	51435.61
533.33	51594.77
533.50	52474.81
533.67	51938.83
533.84	51875.63
534.01	52044.15
534.18	52060.54
534.35	52435.02
534.52	52069.90
534.69	52428.00
534.86	52360.12
535.03	52409.28
535.20	52521.62
535.37	52282.89
535.54	52425.66
535.71	52175.22
535.88	52406.94
536.05	52381.19
536.22	52413.96
536.38	52708.86
536.55	52697.16
536.72	52624.60
536.89	52587.16
537.06	52753.33
537.23	52643.33
537.40	52790.78
537.57	52729.93
537.74	52959.30
537.91	53298.68
538.08	52760.36
538.25	52933.56
538.42	53322.08
538.59	53289.32
538.75	52921.85
538.92	53003.77
539.09	53048.24
539.26	53595.93
539.43	53202.72
539.60	53279.96
539.77	53109.10
539.94	53523.37
540.11	53581.88
540.28	53205.06
540.44	53441.45
540.61	53291.66
540.78	53277.61
540.95	53586.57
541.12	53549.12
541.29	53741.04
541.46	53865.09
541.62	53635.72
541.79	53741.04
541.96	53485.92
542.13	53689.55
542.30	53762.11
542.47	53937.65
542.63	54127.23
542.80	54513.42
542.97	54422.14
543.14	54433.84
543.31	53890.83
543.48	54134.25
543.64	54377.67
543.81	54644.49
543.98	54321.49
544.15	54295.75
544.32	54539.16
544.48	54878.54
544.65	54356.60
544.82	54424.48
544.99	54298.09
545.16	54382.35
545.32	54485.33
545.49	54763.85
545.66	54731.09
545.83	54857.48
546.00	54932.37
546.16	54735.77
546.33	54630.44
546.50	54351.92
546.67	54583.63
546.83	54550.87
547.00	54866.84
547.17	55093.87
547.34	54887.90
547.50	55117.28
547.67	55096.21
547.84	54997.91
548.00	55072.81
548.17	55154.72
548.34	55157.06
548.51	55325.58
548.67	55498.78
548.84	55150.04
549.01	55332.60
549.18	55269.41
549.34	55114.94
549.51	55014.29
549.68	55299.84
549.84	55381.76
550.01	55557.30
550.18	55386.44
550.34	55285.79
550.51	55554.96
550.68	55576.02
550.84	55196.85
551.01	55501.12
551.18	55194.51
551.34	55154.72
551.51	55318.56
551.68	55512.83
551.84	55346.65
552.01	55437.93
552.18	55810.07
552.34	55458.99
552.51	55899.01
552.68	55559.64
552.84	55810.07
553.01	56147.11
553.18	55980.93
553.34	55938.80
553.51	55817.10
553.67	55924.76
553.84	56224.35
554.01	56097.96
554.17	55765.60
554.34	56088.60
554.51	55840.50
554.67	56058.17
554.84	56067.53
555.00	56156.47
555.17	55899.01
555.33	56254.78
555.50	55969.23
555.67	56266.48
555.83	56102.64
556.00	56161.15
556.16	56264.14
556.33	56205.62
556.50	56027.74
556.66	56397.55
556.83	56240.73
556.99	56458.40
557.16	56643.30
557.32	56640.96
557.49	56420.95
557.65	55934.12
557.82	56121.37
557.98	56303.93
558.15	56552.02
558.32	56484.15
558.48	56561.39
558.65	56596.49
558.81	56610.54
558.98	56275.84
559.14	56683.09
559.31	56343.72
559.47	56708.84
559.64	56526.28
559.80	56528.62
559.97	56837.57
560.13	56292.22
560.30	56502.87
560.46	56528.62
560.63	56500.53
560.79	56608.20
560.96	56552.02
561.12	56348.40
561.29	56687.78
561.45	56617.56
561.61	56664.37
561.78	56706.50
561.94	57013.11
562.11	56966.30
562.27	56891.40
562.44	56736.93
562.60	56863.32
562.77	56753.31
562.93	56453.72
563.10	56978.00
563.26	56793.10
563.42	56830.55
563.59	56975.66
563.75	56963.96
563.92	56931.19
564.08	56849.27
564.24	56748.63
564.41	56779.06
564.57	57020.13
564.74	57052.90
564.90	56921.83
565.07	56868.00
565.23	56926.51
565.39	57003.75
565.56	56860.97
565.72	56795.44
565.88	57130.14
566.05	56802.46
566.21	56832.89
566.38	56947.57
566.54	56823.53
566.70	57160.56
566.87	57169.93
567.03	57041.20
567.19	57038.86
567.36	57296.31
567.52	57024.81
567.68	57254.18
567.85	56928.85
568.01	57043.54
568.17	56903.10
568.34	57160.56
568.50	56907.79
568.66	57343.12
568.83	57132.48
568.99	56875.02
569.15	57029.49
569.32	57289.29
569.48	56870.34
569.64	57106.73
569.81	57181.63
569.97	57277.59
570.13	57247.16
570.30	57223.76
570.46	57158.22
570.62	57022.47
570.78	57291.63
570.95	57127.80
571.11	57284.61
571.27	57041.20
571.43	56982.68
571.60	57261.21
571.76	57200.35
571.92	57373.55
572.09	57317.38
572.25	57415.68
572.41	57303.34
572.57	57095.03
572.74	57422.70
572.90	57198.01
573.06	57151.20
573.22	57205.03
573.38	57354.83
573.55	57399.30
573.71	57467.17
573.87	57427.38
574.03	57319.72
574.20	57361.85
574.36	57310.36
574.52	57532.71
574.68	57174.61
574.84	57436.75
575.01	57455.47
575.17	57354.83
575.33	57277.59
575.49	57305.68
575.65	57556.11
575.82	57682.50
575.98	57141.84
576.14	57443.77
576.30	57308.02
576.46	57160.56
576.62	57080.98
576.79	57244.82
576.95	57289.29
577.11	57286.95
577.27	57425.04
577.43	57354.83
577.59	57375.89
577.75	57441.43
577.92	57284.61
578.08	57181.63
578.24	57301.00
578.40	57237.80
578.56	57205.03
578.72	57268.23
578.88	57556.11
579.04	57411.00
579.21	57544.41
579.37	57556.11
579.53	57340.78
579.69	57296.31
579.85	57146.52
580.01	57403.98
580.17	57329.08
580.33	57338.44
580.49	57212.06
580.65	57485.90
580.82	57523.35
580.98	57588.88
581.14	57242.48
581.30	57015.45
581.46	57481.22
581.62	57254.18
581.78	57279.93
581.94	57277.59
582.10	57347.81
582.26	57485.90
582.42	57436.75
582.58	57380.57
582.74	57436.75
582.90	57715.27
583.06	57645.05
583.22	57364.19
583.38	57263.55
583.54	57275.25
583.70	57322.06
583.86	57350.15
584.02	57291.63
584.18	57258.87
584.34	57492.92
584.50	57764.42
584.66	57511.64
584.82	57378.23
584.98	57432.07
585.14	57537.39
585.30	57228.44
585.46	57298.65
585.62	57371.21
585.78	57450.79
585.94	57286.95
586.10	57563.14
586.26	57497.60
586.42	57654.42
586.58	57689.52
586.74	57535.05
586.90	57392.28
587.06	57244.82
587.22	57375.89
587.38	57284.61
587.54	57797.19
587.70	57691.86
587.86	57745.70
588.02	57570.16
588.18	57544.41
588.34	57675.48
588.49	57661.44
588.65	57659.10
588.81	57525.69
588.97	57633.35
589.13	57504.62
589.29	57766.76
589.45	57427.38
