SpectraSuite Data File
++++++++++++++++++++++++++++++++++++
Date: Fri Oct 18 13:54:30 GMT-05:00 2013
User: bianchi
Dark Spectrum Present: No
Reference Spectrum Present: No
Number of Sampled Component Spectra: 1
Spectrometers: USB2+H05261
Integration Time (usec): 100000 (USB2+H05261)
Spectra Averaged: 1 (USB2+H05261)
Boxcar Smoothing: 0 (USB2+H05261)
Correct for Electrical Dark: No (USB2+H05261)
Strobe/Lamp Enabled: No (USB2+H05261)
Correct for Detector Non-linearity: No (USB2+H05261)
Correct for Stray Light: No (USB2+H05261)
Number of Pixels in Processed Spectrum: 2048
>>>>>Begin Processed Spectral Data<<<<<
365.73	0.00
365.92	0.00
366.12	0.00
366.32	0.00
366.52	0.00
366.72	0.00
366.91	0.00
367.11	0.00
367.31	0.00
367.51	0.00
367.70	0.00
367.90	0.00
368.10	0.00
368.30	0.00
368.49	0.00
368.69	0.00
368.89	0.00
369.09	0.00
369.28	0.00
369.48	0.00
369.68	0.00
369.87	0.00
370.07	0.00
370.27	0.00
370.47	0.00
370.66	306.61
370.86	339.38
371.06	358.10
371.25	346.40
371.45	311.29
371.65	397.89
371.84	315.97
372.04	327.68
372.24	409.59
372.44	365.12
372.63	407.25
372.83	423.64
373.03	365.12
373.22	423.64
373.42	409.59
373.62	442.36
373.81	397.89
374.01	573.43
374.21	521.94
374.40	402.57
374.60	498.53
374.79	491.51
374.99	521.94
375.19	491.51
375.38	566.41
375.58	601.52
375.78	561.73
375.97	449.38
376.17	615.56
376.37	571.09
376.56	552.37
376.76	500.87
376.95	517.26
377.15	547.69
377.35	521.94
377.54	550.03
377.74	477.47
377.93	543.00
378.13	559.39
378.33	660.03
378.52	578.11
378.72	538.32
378.91	543.00
379.11	617.90
379.31	512.58
379.50	589.82
379.70	606.20
379.89	706.84
380.09	587.47
380.28	622.58
380.48	592.16
380.68	697.48
380.87	610.88
381.07	657.69
381.26	692.80
381.46	664.71
381.65	697.48
381.85	650.67
382.04	601.52
382.24	664.71
382.43	720.88
382.63	746.63
382.83	702.16
383.02	699.82
383.22	653.01
383.41	737.27
383.61	678.76
383.80	695.14
384.00	802.80
384.19	739.61
384.39	732.59
384.58	786.42
384.78	812.17
384.97	744.29
385.17	851.96
385.36	807.48
385.56	882.38
385.75	770.04
385.95	833.23
386.14	807.48
386.34	866.00
386.53	858.98
386.72	840.25
386.92	880.04
387.11	774.72
387.31	823.87
387.50	861.32
387.70	877.70
387.89	929.19
388.09	917.49
388.28	912.81
388.48	896.43
388.67	952.60
388.86	990.05
389.06	1008.77
389.25	1013.45
389.45	997.07
389.64	898.77
389.84	997.07
390.03	898.77
390.22	968.98
390.42	999.41
390.61	959.62
390.81	938.55
391.00	1006.43
391.19	1067.28
391.39	980.68
391.58	1078.99
391.78	1053.24
391.97	990.05
392.16	1064.94
392.36	1088.35
392.55	1156.22
392.75	1034.52
392.94	1233.46
393.13	1025.15
393.33	997.07
393.52	1146.86
393.71	1170.27
393.91	1181.97
394.10	1083.67
394.29	1172.61
394.49	1139.84
394.68	1198.35
394.88	1240.48
395.07	1184.31
395.26	1210.06
395.46	1266.23
395.65	1303.68
395.84	1219.42
396.04	1392.62
396.23	1423.05
396.42	1336.45
396.62	1465.18
396.81	1406.66
397.00	1317.72
397.19	1303.68
397.39	1383.26
397.58	1331.76
397.77	1432.41
397.97	1404.32
398.16	1373.89
398.35	1500.28
398.55	1399.64
398.74	1434.75
398.93	1455.81
399.12	1568.16
399.32	1533.05
399.51	1523.69
399.70	1467.52
399.90	1607.95
400.09	1570.50
400.28	1500.28
400.47	1643.06
400.67	1652.42
400.86	1593.90
401.05	1570.50
401.24	1685.19
401.44	1788.17
401.63	1713.27
401.82	1610.29
402.01	1652.42
402.21	1654.76
402.40	1755.40
402.59	1732.00
402.78	1811.57
402.97	1769.44
403.17	1811.57
403.36	1717.95
403.55	1853.70
403.74	1914.56
403.93	1933.28
404.13	1895.83
404.32	1930.94
404.51	1919.24
404.70	2040.95
404.89	1902.86
405.09	1996.48
405.28	2085.42
405.47	1926.26
405.66	2064.35
405.85	2078.40
406.05	2113.50
406.24	2031.58
406.43	2122.87
406.62	2211.81
406.81	2275.00
407.00	2129.89
407.20	2115.84
407.39	2134.57
407.58	2263.30
407.77	2223.51
407.96	2298.41
408.15	2303.09
408.34	2293.72
408.54	2389.69
408.73	2445.86
408.92	2352.24
409.11	2492.67
409.30	2413.09
409.49	2530.12
409.68	2408.41
409.87	2420.11
410.07	2506.71
410.26	2612.04
410.45	2530.12
410.64	2621.40
410.83	2621.40
411.02	2649.49
411.21	2726.72
411.40	2588.63
411.59	2794.60
411.78	2787.58
411.98	2911.63
412.17	2885.88
412.36	2672.89
412.55	2904.60
412.74	3002.91
412.93	3045.04
413.12	2869.50
413.31	2972.48
413.50	3021.63
413.69	3101.21
413.88	3033.33
414.07	3087.17
414.26	3187.81
414.45	3279.09
414.64	3290.79
414.83	3382.07
415.02	3375.05
415.22	3438.25
415.41	3384.41
415.60	3473.36
415.79	3459.31
415.98	3555.27
416.17	3494.42
416.36	3435.91
416.55	3623.15
416.74	3506.12
416.93	3674.64
417.12	3620.81
417.31	3810.39
417.50	3625.49
417.69	4018.70
417.88	3939.12
418.07	3922.74
418.26	3904.01
418.45	3904.01
418.64	4025.72
418.83	4046.79
419.02	4067.85
419.21	4018.70
419.39	4147.43
419.58	3960.19
419.77	3927.42
419.96	3974.23
420.15	4264.46
420.34	4100.62
420.53	4091.26
420.72	4311.27
420.91	4264.46
421.10	4329.99
421.29	4372.12
421.48	4257.43
421.67	4475.10
421.86	4390.84
422.05	4458.72
422.24	4334.67
422.43	4461.06
422.61	4505.53
422.80	4702.14
422.99	4538.30
423.18	4582.77
423.37	4447.02
423.56	4458.72
423.75	4596.81
423.94	4533.62
424.13	4037.42
424.32	4138.07
424.50	4428.29
424.69	4552.34
424.88	4599.15
425.07	4554.68
425.26	4458.72
425.45	4496.17
425.64	4458.72
425.83	4521.92
426.01	4819.16
426.20	4601.49
426.39	4662.35
426.58	4638.94
426.77	4643.62
426.96	4704.48
427.15	4706.82
427.33	4784.06
427.52	4702.14
427.71	4760.65
427.90	5062.58
428.09	4858.95
428.28	4840.23
428.46	4985.34
428.65	4929.17
428.84	4999.38
429.03	5135.14
429.22	4992.36
429.40	5081.30
429.59	4992.36
429.78	4833.21
429.97	4924.49
430.16	4898.74
430.34	5149.18
430.53	5263.86
430.72	5266.21
430.91	5245.14
431.10	5107.05
431.28	5256.84
431.47	5406.64
431.66	5437.06
431.85	5226.42
432.03	5458.13
432.22	5523.66
432.41	5394.93
432.60	5511.96
432.79	5416.00
432.97	5619.63
433.16	5521.32
433.35	5317.70
433.54	5556.43
433.72	5631.33
433.91	5650.05
434.10	5558.77
434.28	5720.27
434.47	5769.42
434.66	5806.87
434.85	5820.91
435.03	5823.25
435.22	5816.23
435.41	5966.03
435.59	5930.92
435.78	5923.90
435.97	5912.19
436.16	6017.52
436.34	5982.41
436.53	5991.77
436.72	6176.67
436.90	5968.37
437.09	6174.33
437.28	5977.73
437.46	6064.33
437.65	6087.73
437.84	6352.21
438.02	6118.16
438.21	6120.50
438.40	6160.29
438.58	6436.47
438.77	6506.69
438.96	6232.85
439.14	6633.08
439.33	6619.04
439.52	6787.55
439.70	6675.21
439.89	6927.99
440.08	6787.55
440.26	6836.70
440.45	6780.53
440.63	6967.77
440.82	6979.48
441.01	7166.72
441.19	7204.17
441.38	6995.86
441.57	7227.57
441.75	7461.63
441.94	7368.01
442.12	7304.81
442.31	7515.46
442.50	7279.07
442.68	7279.07
442.87	7351.62
443.05	7302.47
443.24	7714.41
443.43	7494.40
443.61	7798.66
443.80	7906.33
443.98	7524.82
444.17	7506.10
444.35	7653.55
444.54	7763.56
444.73	7775.26
444.91	7693.34
445.10	7646.53
445.28	7658.23
445.47	7875.90
445.65	7847.82
445.84	7789.30
446.02	7770.58
446.21	7744.83
446.39	7801.01
446.58	7786.96
446.77	7957.82
446.95	7695.68
447.14	8030.38
447.32	7920.37
447.51	7733.13
447.69	7833.77
447.88	7817.39
448.06	7878.24
448.25	7852.50
448.43	7969.52
448.62	8088.89
448.80	7925.05
448.99	7964.84
449.17	8100.59
449.36	7971.86
449.54	8231.66
449.73	8124.00
449.91	8229.32
450.10	8334.65
450.28	8542.96
450.46	8334.65
450.65	8397.84
450.83	8344.01
451.02	8456.36
451.20	8535.93
451.39	8491.46
451.57	8594.45
451.76	8505.51
451.94	8720.84
452.13	8631.90
452.31	8533.59
452.49	8524.23
452.68	8631.90
452.86	8559.34
453.05	8784.03
453.23	8865.95
453.42	8643.60
453.60	8514.87
453.78	8835.52
453.97	8968.93
454.15	8734.88
454.34	8830.84
454.52	9085.96
454.70	8847.22
454.89	9137.45
455.07	8929.14
455.26	8990.00
455.44	9224.05
455.62	9160.86
455.81	8973.61
455.99	9261.50
456.17	9289.59
456.36	9345.76
456.54	9586.83
456.73	9455.76
456.91	9762.37
457.09	9598.54
457.28	9748.33
457.46	9577.47
457.64	9640.67
457.83	9767.06
458.01	9474.49
458.19	9907.49
458.38	9912.17
458.56	10017.49
458.74	9907.49
458.93	9741.31
459.11	9966.00
459.29	9907.49
459.48	10078.35
459.66	9853.66
459.84	9928.55
460.03	10431.77
460.21	10256.23
460.39	10068.98
460.57	10153.24
460.76	10354.53
460.94	10305.38
461.12	10279.63
461.31	10228.14
461.49	10361.55
461.67	10314.74
461.85	10389.64
462.04	10506.66
462.22	11201.80
462.40	10469.22
462.59	10637.73
462.77	10813.28
462.95	10689.23
463.13	10714.97
463.32	10869.45
463.50	10911.58
463.68	10913.92
463.86	10787.53
464.05	10764.12
464.23	10754.76
464.41	10836.68
464.59	10710.29
464.78	11145.63
464.96	11040.31
465.14	10892.85
465.32	11176.06
465.50	11112.86
465.69	11241.59
465.87	11276.70
466.05	11215.85
466.23	11281.38
466.41	11332.87
466.60	11688.64
466.78	11173.72
466.96	11084.78
467.14	11349.26
467.32	11487.35
467.51	11566.93
467.69	11241.59
467.87	11445.22
468.05	11524.80
468.23	11342.24
468.41	11393.73
468.60	11698.00
468.78	11555.22
468.96	11538.84
469.14	12163.76
469.32	11864.18
469.50	11548.20
469.69	11946.09
469.87	12063.12
470.05	12077.16
470.23	12283.13
470.41	12121.63
470.59	12201.21
470.77	12231.64
470.95	12217.60
471.14	12135.68
471.32	12051.42
471.50	12713.79
471.68	12624.85
471.86	12727.83
472.04	12414.20
472.22	12919.76
472.40	12437.61
472.58	12678.68
472.77	13130.41
472.95	12973.59
473.13	13399.57
473.31	12931.46
473.49	13104.66
473.67	13029.76
473.85	13315.31
474.03	13064.87
474.21	13221.69
474.39	13462.76
474.57	13551.70
474.75	13823.20
474.93	13661.71
475.12	13799.80
475.30	13996.40
475.48	14078.32
475.66	14068.96
475.84	13846.61
476.02	14244.50
476.20	14171.94
476.38	14281.95
476.56	14516.00
476.74	14291.31
476.92	14670.48
477.10	14656.43
477.28	14930.28
477.46	14679.84
477.64	15110.50
477.82	15272.00
478.00	15648.82
478.18	15419.45
478.36	15667.55
478.54	15941.39
478.72	15946.07
478.90	16088.84
479.08	16060.76
479.26	16575.67
479.44	16322.90
479.62	16563.97
479.80	16732.49
479.98	16716.11
480.16	16870.58
480.34	16772.28
480.52	17027.40
480.70	17355.07
480.88	16793.34
481.06	17268.47
481.24	17392.52
481.41	17544.66
481.59	17839.56
481.77	17940.21
481.95	18150.85
482.13	18347.46
482.31	18115.75
482.49	18637.69
482.67	18640.03
482.85	18724.29
483.03	18787.48
483.21	19250.91
483.39	19019.19
483.57	19278.99
483.74	19573.90
483.92	19587.94
484.10	19552.84
484.28	19861.79
484.46	20437.56
484.64	20634.16
484.82	20357.98
485.00	20542.88
485.18	20919.71
485.35	20922.05
485.53	21074.18
485.71	21137.38
485.89	21642.93
486.07	21294.19
486.25	21404.20
486.43	21788.05
486.61	21991.67
486.78	22033.80
486.96	22263.18
487.14	22412.97
487.32	22551.06
487.50	22960.66
487.68	22693.83
487.85	23166.62
488.03	23440.47
488.21	23763.46
488.39	23735.37
488.57	24271.36
488.75	23791.55
488.92	24372.00
489.10	24357.96
489.28	24699.67
489.46	24959.47
489.64	24828.40
489.81	25453.33
489.99	25411.20
490.17	25345.66
490.35	25914.41
490.53	26059.52
490.70	26169.53
490.88	25886.32
491.06	26476.14
491.24	26455.08
491.41	26260.81
491.59	26848.29
491.77	27314.05
491.95	27353.84
492.13	27328.10
492.30	27466.19
492.48	27344.48
492.66	27882.80
492.84	27885.14
493.01	28079.41
493.19	28144.94
493.37	28563.90
493.54	28606.03
493.72	28870.51
493.90	28720.71
494.08	29113.92
494.25	29542.24
494.43	29390.11
494.61	29642.88
494.79	29551.60
494.96	29640.54
495.14	30125.04
495.32	30405.90
495.49	30281.85
495.67	30321.64
495.85	30934.86
496.02	30511.22
496.20	31512.97
496.38	31051.89
496.55	31026.14
496.73	31651.06
496.91	31630.00
497.09	32397.70
497.26	32271.31
497.44	32353.23
497.62	31922.57
497.79	32629.41
497.97	32811.97
498.14	32940.70
498.32	33228.59
498.50	33076.45
498.67	33528.17
498.85	33207.52
499.03	33289.44
499.20	33535.20
499.38	33537.54
499.56	34293.53
499.73	34235.02
499.91	34553.33
500.08	34167.14
500.26	34099.26
500.44	34422.26
500.61	34539.29
500.79	34574.39
500.97	34862.28
501.14	35269.53
501.32	35646.36
501.49	35424.01
501.67	35470.82
501.84	35571.46
502.02	35637.00
502.20	35496.56
502.37	36004.46
502.55	36053.61
502.72	36156.60
502.90	35952.97
503.07	36027.87
503.25	36149.57
503.43	36266.60
503.60	36596.62
503.78	36711.30
503.95	36833.01
504.13	36732.37
504.30	36947.70
504.48	36804.92
504.65	37226.22
504.83	38068.81
505.01	37862.85
505.18	37476.66
505.36	37677.94
505.53	37867.53
505.71	37689.65
505.88	38078.18
506.06	37750.50
506.23	38431.60
506.41	38424.57
506.58	38630.54
506.76	38672.67
506.93	38899.70
507.11	38850.55
507.28	39028.43
507.46	38876.30
507.63	39271.85
507.81	39339.72
507.98	39306.96
508.16	39751.66
508.33	39203.97
508.50	39557.39
508.68	39966.99
508.85	40261.90
509.03	40107.42
509.20	40512.33
509.38	40612.98
509.55	40575.53
509.73	40250.19
509.90	40238.49
510.08	40381.26
510.25	40446.80
510.42	40612.98
510.60	41041.29
510.77	41263.64
510.95	41724.73
511.12	41123.21
511.30	41230.88
511.47	41745.80
511.64	41940.06
511.82	42010.28
511.99	41839.42
512.17	41888.57
512.34	41748.14
512.51	42316.89
512.69	42534.56
512.86	42492.43
513.04	42911.38
513.21	42981.60
513.38	42941.81
513.56	43058.84
513.73	42986.28
513.90	42646.90
514.08	43157.14
514.25	43253.10
514.43	43484.81
514.60	43594.82
514.77	43550.35
514.95	43917.81
515.12	43611.20
515.29	43583.12
515.47	44222.08
515.64	44423.37
515.81	44102.71
515.99	44334.43
516.16	44694.87
516.33	44559.12
516.51	44931.26
516.68	45022.54
516.85	44275.91
517.03	44996.80
517.20	45308.09
517.37	44699.55
517.54	45338.52
517.72	45312.77
517.89	45029.57
518.06	45036.59
518.24	45509.38
518.41	45102.12
518.58	45429.80
518.75	45263.62
518.93	45895.56
519.10	45656.83
519.27	46260.69
519.45	45715.34
519.62	45799.60
519.79	46064.08
519.96	45930.67
520.14	45970.46
520.31	45963.44
520.48	46539.21
520.65	46071.10
520.83	46768.58
521.00	47016.68
521.17	46270.05
521.34	46342.61
521.52	46925.40
521.69	46658.58
521.86	47086.90
522.03	47239.03
522.20	47452.02
522.38	47398.19
522.55	47206.26
522.72	47292.86
522.89	47192.22
523.07	47988.00
523.24	47159.45
523.41	47889.70
523.58	47842.89
523.75	48151.84
523.92	47597.13
524.10	47484.79
524.27	48175.25
524.44	48114.39
524.61	48320.36
524.78	48596.54
524.96	48603.56
525.13	48350.79
525.30	48671.44
525.47	48395.26
525.64	48519.31
525.81	48964.01
525.98	49055.29
526.16	49074.01
526.33	49415.73
526.50	49029.54
526.67	48673.78
526.84	49050.61
527.01	49118.48
527.18	49284.66
527.36	49237.85
527.53	49525.74
527.70	49455.52
527.87	49539.78
528.04	49748.09
528.21	49507.01
528.38	49368.92
528.55	49811.28
528.72	49617.02
528.89	49771.49
529.07	49762.13
529.24	49595.95
529.41	50085.12
529.58	50024.27
529.75	49937.67
529.92	50031.29
530.09	50113.21
530.26	50138.96
530.43	50396.42
530.60	49947.03
530.77	50085.12
530.94	50794.31
531.11	50181.09
531.28	50452.59
531.46	50550.89
531.63	50808.35
531.80	50403.44
531.97	50857.50
532.14	50876.22
532.31	50628.13
532.48	50798.99
532.65	50834.10
532.82	50651.53
532.99	50899.63
533.16	51058.79
533.33	50960.48
533.50	51576.04
533.67	51480.08
533.84	51253.05
534.01	51360.72
534.18	50908.99
534.35	51452.00
534.52	51201.56
534.69	51714.14
534.86	51725.84
535.03	51681.37
535.20	51660.30
535.37	52168.20
535.54	51695.41
535.71	51154.75
535.88	51901.38
536.05	51627.54
536.22	52133.09
536.38	51833.50
536.55	52196.29
536.72	52196.29
536.89	51798.40
537.06	51910.74
537.23	52119.05
537.40	51941.17
537.57	52011.38
537.74	52203.31
537.91	52294.59
538.08	52526.30
538.25	51803.08
538.42	52397.57
538.59	52554.39
538.75	52088.62
538.92	52458.43
539.09	52636.31
539.26	52849.30
539.43	52411.62
539.60	52680.78
539.77	52802.49
539.94	52746.31
540.11	52626.95
540.28	52732.27
540.44	52561.41
540.61	52896.11
540.78	52919.51
540.95	53111.44
541.12	53003.77
541.29	53336.13
541.46	52655.03
541.62	52868.02
541.79	52989.73
541.96	52453.75
542.13	53062.29
542.30	53429.75
542.47	53155.91
542.63	53406.34
542.80	53357.19
542.97	53666.14
543.14	53558.48
543.31	53460.18
543.48	53432.09
543.64	53979.78
543.81	53792.53
543.98	53588.91
544.15	53904.88
544.32	54047.65
544.48	54073.40
544.65	53708.27
544.82	53708.27
544.99	53621.67
545.16	53776.15
545.32	53804.24
545.49	54183.40
545.66	54361.28
545.83	54138.93
546.00	54447.88
546.16	54113.19
546.33	54174.04
546.50	54012.54
546.67	54138.93
546.83	53853.39
547.00	54064.03
547.17	54298.09
547.34	54291.07
547.50	54401.07
547.67	54831.73
547.84	54417.46
548.00	54574.27
548.17	54527.46
548.34	54377.67
548.51	54644.49
548.67	54719.38
548.84	54663.21
549.01	54632.78
549.18	54475.97
549.34	54452.56
549.51	54490.01
549.68	54588.31
549.84	54328.52
550.01	54707.68
550.18	54656.19
550.34	55128.98
550.51	54995.57
550.68	55033.02
550.84	54408.09
551.01	54876.20
551.18	54791.94
551.34	54703.00
551.51	54923.01
551.68	55098.55
551.84	55103.23
552.01	54803.64
552.18	55084.51
552.34	54857.48
552.51	55257.71
552.68	54752.15
552.84	55103.23
553.01	55318.56
553.18	55194.51
553.34	55398.14
553.51	55229.62
553.67	55576.02
553.84	55526.87
554.01	55524.53
554.17	55302.18
554.34	55437.93
554.51	55391.12
554.67	55274.09
554.84	55363.03
555.00	55196.85
555.17	55091.53
555.33	55447.29
555.50	55217.92
555.67	55697.73
555.83	55447.29
556.00	55576.02
556.16	55749.22
556.33	55248.35
556.50	55267.07
556.66	55625.17
556.83	55416.86
556.99	55861.57
557.16	56002.00
557.32	55894.33
557.49	55877.95
557.65	55313.88
557.82	55700.07
557.98	55625.17
558.15	55852.20
558.32	55924.76
558.48	55859.23
558.65	55793.69
558.81	56107.32
558.98	56013.70
559.14	55955.19
559.31	55732.84
559.47	55793.69
559.64	55810.07
559.80	55891.99
559.97	56074.55
560.13	55915.40
560.30	55994.98
560.46	56039.45
560.63	55927.10
560.79	55990.30
560.96	56301.59
561.12	55908.38
561.29	55978.59
561.45	56090.94
561.61	56147.11
561.78	56224.35
561.94	56044.13
562.11	56479.47
562.27	56175.20
562.44	56081.58
562.60	55908.38
562.77	56219.67
562.93	55969.23
563.10	56355.42
563.26	56165.84
563.42	56687.78
563.59	56158.81
563.75	56184.56
563.92	56425.64
564.08	56413.93
564.24	56327.33
564.41	56062.85
564.57	56285.20
564.74	56168.18
564.90	56233.71
565.07	56203.28
565.23	56615.22
565.39	56332.01
565.56	56341.38
565.72	56332.01
565.88	56329.67
566.05	56097.96
566.21	56140.09
566.38	56203.28
566.54	56444.36
566.70	56636.28
566.87	56432.66
567.03	56303.93
567.19	56442.02
567.36	56198.60
567.52	56177.54
567.68	56537.98
567.85	56446.70
568.01	56385.85
568.17	56425.64
568.34	56598.83
568.50	56385.85
568.66	56467.76
568.83	56596.49
568.99	56622.24
569.15	56589.47
569.32	56376.48
569.48	56116.68
569.64	56376.48
569.81	56655.01
569.97	56334.35
570.13	56692.46
570.30	56413.93
570.46	56587.13
570.62	56556.70
570.78	56430.32
570.95	56404.57
571.11	56509.89
571.27	56425.64
571.43	56296.91
571.60	56629.26
571.76	56720.54
571.92	56521.60
572.09	56924.17
572.25	56687.78
572.41	56762.67
572.57	56662.03
572.74	56781.40
572.90	56580.11
573.06	56573.09
573.22	56860.97
573.38	56809.48
573.55	56860.97
573.71	57017.79
573.87	56830.55
574.03	56605.86
574.20	56748.63
574.36	56530.96
574.52	56559.05
574.68	56481.81
574.84	56638.62
575.01	56603.52
575.17	56835.23
575.33	56722.88
575.49	56626.92
575.65	57055.24
575.82	56914.81
575.98	56774.37
576.14	56856.29
576.30	56849.27
576.46	56640.96
576.62	56463.08
576.79	56500.53
576.95	56563.73
577.11	56612.88
577.27	56992.04
577.43	56797.78
577.59	56692.46
577.75	56811.82
577.92	56512.23
578.08	56708.84
578.24	56339.04
578.40	56666.71
578.56	56743.95
578.72	56666.71
578.88	56893.74
579.04	56760.33
579.21	56823.53
579.37	57090.35
579.53	56898.42
579.69	56640.96
579.85	56715.86
580.01	56762.67
580.17	56676.07
580.33	56633.94
580.49	56825.87
580.65	56673.73
580.82	56907.79
580.98	56699.48
581.14	56783.74
581.30	56725.22
581.46	56697.14
581.62	56545.00
581.78	56622.24
581.94	56860.97
582.10	56687.78
582.26	56762.67
582.42	56860.97
582.58	56830.55
582.74	56844.59
582.90	56856.29
583.06	56954.60
583.22	56886.72
583.38	56636.28
583.54	56671.39
583.70	56629.26
583.86	56528.62
584.02	56472.45
584.18	56732.25
584.34	56935.87
584.50	57141.84
584.66	56858.63
584.82	56713.52
584.98	56690.12
585.14	56739.27
585.30	56718.20
585.46	56683.09
585.62	56832.89
585.78	56926.51
585.94	56821.19
586.10	56746.29
586.26	56912.47
586.42	56970.98
586.58	56996.73
586.74	56662.03
586.90	56673.73
587.06	56860.97
587.22	56608.20
587.38	56603.52
587.54	56858.63
587.70	56999.07
587.86	57083.33
588.02	57062.26
588.18	57008.43
588.34	56856.29
588.49	56956.94
588.65	56659.69
588.81	56863.32
588.97	57015.45
589.13	56666.71
589.29	56928.85
589.45	57008.43
589.61	56989.70
