SpectraSuite Data File
++++++++++++++++++++++++++++++++++++
Date: Fri Oct 18 13:55:54 GMT-05:00 2013
User: bianchi
Dark Spectrum Present: No
Reference Spectrum Present: No
Number of Sampled Component Spectra: 1
Spectrometers: USB2+H05261
Integration Time (usec): 100000 (USB2+H05261)
Spectra Averaged: 1 (USB2+H05261)
Boxcar Smoothing: 0 (USB2+H05261)
Correct for Electrical Dark: No (USB2+H05261)
Strobe/Lamp Enabled: No (USB2+H05261)
Correct for Detector Non-linearity: No (USB2+H05261)
Correct for Stray Light: No (USB2+H05261)
Number of Pixels in Processed Spectrum: 2048
>>>>>Begin Processed Spectral Data<<<<<
365.73	0.00
365.92	0.00
366.12	0.00
366.32	0.00
366.52	0.00
366.72	0.00
366.91	0.00
367.11	0.00
367.31	0.00
367.51	0.00
367.70	0.00
367.90	0.00
368.10	0.00
368.30	0.00
368.49	0.00
368.69	0.00
368.89	0.00
369.09	0.00
369.28	0.00
369.48	0.00
369.68	0.00
369.87	0.00
370.07	0.00
370.27	0.00
370.47	0.00
370.66	266.82
370.86	294.91
371.06	358.10
371.25	337.04
371.45	220.01
371.65	322.99
371.84	243.42
372.04	259.80
372.24	301.93
372.44	308.95
372.63	334.70
372.83	386.19
373.03	365.12
373.22	379.17
373.42	411.93
373.62	409.59
373.81	428.32
374.01	388.53
374.21	430.66
374.40	362.78
374.60	475.13
374.79	376.83
374.99	362.78
375.19	390.87
375.38	547.69
375.58	524.28
375.78	496.19
375.97	479.81
376.17	498.53
376.37	468.11
376.56	500.87
376.76	393.21
376.95	454.06
377.15	496.19
377.35	578.11
377.54	423.64
377.74	458.74
377.93	484.49
378.13	552.37
378.33	519.60
378.52	519.60
378.72	512.58
378.91	514.92
379.11	507.90
379.31	500.87
379.50	547.69
379.70	582.79
379.89	585.13
380.09	479.81
380.28	526.62
380.48	507.90
380.68	580.45
380.87	524.28
381.07	545.34
381.26	599.18
381.46	599.18
381.65	540.66
381.85	514.92
382.04	545.34
382.24	580.45
382.43	638.97
382.63	580.45
382.83	575.77
383.02	585.13
383.22	676.41
383.41	610.88
383.61	683.44
383.80	683.44
384.00	763.01
384.19	653.01
384.39	594.50
384.58	589.82
384.78	641.31
384.97	678.76
385.17	634.29
385.36	617.90
385.56	755.99
385.75	671.73
385.95	718.54
386.14	671.73
386.34	753.65
386.53	685.78
386.72	753.65
386.92	755.99
387.11	758.33
387.31	746.63
387.50	716.20
387.70	716.20
387.89	812.17
388.09	753.65
388.28	788.76
388.48	741.95
388.67	758.33
388.86	884.72
389.06	819.19
389.25	805.14
389.45	800.46
389.64	727.91
389.84	858.98
390.03	814.51
390.22	858.98
390.42	873.02
390.61	873.02
390.81	903.45
391.00	793.44
391.19	851.96
391.39	940.90
391.58	898.77
391.78	940.90
391.97	980.68
392.16	957.28
392.36	961.96
392.55	1039.20
392.75	973.66
392.94	936.21
393.13	971.32
393.33	952.60
393.52	1053.24
393.71	976.00
393.91	971.32
394.10	1053.24
394.29	1001.75
394.49	985.37
394.68	1039.20
394.88	1043.88
395.07	1088.35
395.26	959.62
395.46	1177.29
395.65	1198.35
395.84	1179.63
396.04	1144.52
396.23	1111.75
396.42	1135.16
396.62	1181.97
396.81	1181.97
397.00	1217.08
397.19	1174.95
397.39	1238.14
397.58	1200.69
397.77	1198.35
397.97	1210.06
398.16	1214.74
398.35	1184.31
398.55	1217.08
398.74	1299.00
398.93	1359.85
399.12	1301.34
399.32	1385.60
399.51	1301.34
399.70	1418.36
399.90	1376.24
400.09	1348.15
400.28	1458.15
400.47	1432.41
400.67	1406.66
400.86	1411.34
401.05	1514.33
401.24	1526.03
401.44	1460.49
401.63	1504.96
401.82	1519.01
402.01	1420.71
402.21	1502.62
402.40	1554.12
402.59	1481.56
402.78	1561.14
402.97	1537.73
403.17	1645.40
403.36	1671.14
403.55	1596.25
403.74	1612.63
403.93	1713.27
404.13	1706.25
404.32	1624.33
404.51	1598.59
404.70	1739.02
404.89	1689.87
405.09	1816.26
405.28	1799.87
405.47	1729.66
405.66	1823.28
405.85	1886.47
406.05	1795.19
406.24	1818.60
406.43	1900.52
406.62	1888.81
406.81	1989.46
407.00	1863.07
407.20	2029.24
407.39	1921.58
407.58	2010.52
407.77	2017.54
407.96	2015.20
408.15	2019.88
408.34	1989.46
408.54	2076.06
408.73	2092.44
408.92	2155.63
409.11	2165.00
409.30	2085.42
409.49	2134.57
409.68	2181.38
409.87	2186.06
410.07	2204.78
410.26	2265.64
410.45	2272.66
410.64	2370.96
410.83	2506.71
411.02	2356.92
411.21	2368.62
411.40	2417.77
411.59	2457.56
411.78	2523.10
411.98	2483.31
412.17	2609.70
412.36	2417.77
412.55	2457.56
412.74	2530.12
412.93	2733.75
413.12	2670.55
413.31	2743.11
413.50	2766.51
413.69	2715.02
413.88	2736.09
414.07	2792.26
414.26	2782.90
414.45	2897.58
414.64	3045.04
414.83	2909.29
415.02	3000.57
415.22	3016.95
415.41	3063.76
415.60	3042.70
415.79	3033.33
415.98	3126.96
416.17	3288.45
416.36	3155.04
416.55	3281.43
416.74	3325.90
416.93	3251.00
417.12	3384.41
417.31	3307.18
417.50	3361.01
417.69	3473.36
417.88	3487.40
418.07	3487.40
418.26	3536.55
418.45	3592.72
418.64	3604.42
418.83	3620.81
419.02	3585.70
419.21	3803.37
419.39	3723.79
419.58	3641.87
419.77	3726.13
419.96	3693.37
420.15	3765.92
420.34	3698.05
420.53	3871.25
420.72	3946.14
420.91	3737.84
421.10	3803.37
421.29	4053.81
421.48	3801.03
421.67	3775.28
421.86	3948.48
422.05	4067.85
422.24	3950.82
422.43	4039.76
422.61	4063.17
422.80	4004.66
422.99	3971.89
423.18	4023.38
423.37	4009.34
423.56	4124.02
423.75	4065.51
423.94	3861.88
424.13	3836.14
424.32	3826.78
424.50	4074.87
424.69	4121.68
424.88	4180.20
425.07	3997.64
425.26	4046.79
425.45	4194.24
425.64	4056.15
425.83	4060.83
426.01	4227.01
426.20	4196.58
426.39	4219.99
426.58	4142.75
426.77	4201.26
426.96	4173.18
427.15	4308.93
427.33	4348.72
427.52	4276.16
427.71	4456.38
427.90	4376.80
428.09	4381.48
428.28	4344.03
428.46	4456.38
428.65	4418.93
428.84	4578.09
429.03	4519.57
429.22	4358.08
429.40	4641.28
429.59	4540.64
429.78	4365.10
429.97	4411.91
430.16	4470.42
430.34	4538.30
430.53	4854.27
430.72	4681.07
430.91	4613.20
431.10	4739.58
431.28	4781.71
431.47	4807.46
431.66	4882.36
431.85	4767.67
432.03	4830.87
432.22	5074.28
432.41	4961.94
432.60	4931.51
432.79	4791.08
432.97	5071.94
433.16	5130.45
433.35	5015.77
433.54	4961.94
433.72	4933.85
433.91	5029.81
434.10	5004.07
434.28	5118.75
434.47	5015.77
434.66	5142.16
434.85	5170.24
435.03	5205.35
435.22	5270.89
435.41	5366.85
435.59	5385.57
435.78	5191.31
435.97	5406.64
436.16	5394.93
436.34	5423.02
436.53	5282.59
436.72	5451.11
436.90	5369.19
437.09	5458.13
437.28	5336.42
437.46	5352.81
437.65	5483.88
437.84	5493.24
438.02	5593.88
438.21	5668.78
438.40	5619.63
438.58	5701.54
438.77	5951.98
438.96	5696.86
439.14	5912.19
439.33	5954.32
439.52	5895.81
439.70	6059.65
439.89	6132.20
440.08	6094.76
440.26	6186.04
440.45	6282.00
440.63	6375.62
440.82	6321.79
441.01	6324.13
441.19	6319.45
441.38	6459.88
441.57	6370.94
441.75	6513.71
441.94	6696.27
442.12	6705.63
442.31	6794.58
442.50	6686.91
442.68	6670.53
442.87	6937.35
443.05	6803.94
443.24	6715.00
443.43	6932.67
443.61	6768.83
443.80	7178.42
443.98	6761.81
444.17	6544.14
444.35	6998.20
444.54	6846.07
444.73	6967.77
444.91	6981.82
445.10	6839.05
445.28	6967.77
445.47	6951.39
445.65	6839.05
445.84	7042.67
446.02	7129.27
446.21	6998.20
446.39	7073.10
446.58	7126.93
446.77	7133.95
446.95	7002.88
447.14	7021.61
447.32	6981.82
447.51	7030.97
447.69	7108.21
447.88	7110.55
448.06	7087.14
448.25	6972.46
448.43	7192.47
448.62	7155.02
448.80	7243.96
448.99	7243.96
449.17	7358.64
449.36	7155.02
449.54	7363.33
449.73	7332.90
449.91	7485.03
450.10	7281.41
450.28	7573.97
450.46	7473.33
450.65	7541.21
450.83	7735.47
451.02	7616.10
451.20	7735.47
451.39	7669.94
451.57	7730.79
451.76	7501.42
451.94	7756.54
452.13	7927.39
452.31	7936.76
452.49	7719.09
452.68	7899.31
452.86	7833.77
453.05	7700.36
453.23	8018.68
453.42	7674.62
453.60	7789.30
453.78	7990.59
453.97	7740.15
454.15	7948.46
454.34	8030.38
454.52	7896.97
454.70	7927.39
454.89	8149.75
455.07	8056.12
455.26	8152.09
455.44	8283.16
455.62	8177.83
455.81	8032.72
455.99	8318.26
456.17	8332.31
456.36	8304.22
456.54	8472.74
456.73	8486.78
456.91	8734.88
457.09	8557.00
457.28	8753.60
457.46	8594.45
457.64	8748.92
457.83	8657.64
458.01	8585.08
458.19	8840.20
458.38	8683.39
458.56	8936.17
458.74	9174.90
458.93	8748.92
459.11	8821.48
459.29	8791.05
459.48	8980.64
459.66	8957.23
459.84	8980.64
460.03	8945.53
460.21	8879.99
460.39	9060.21
460.57	8896.38
460.76	9186.60
460.94	9437.04
461.12	9217.03
461.31	9341.08
461.49	9118.73
461.67	9504.92
461.85	9533.00
462.04	9425.34
462.22	9977.70
462.40	9727.27
462.59	9483.85
462.77	9626.62
462.95	9753.01
463.13	9439.38
463.32	9841.95
463.50	9542.36
463.68	9776.42
463.86	9757.69
464.05	9734.29
464.23	9671.09
464.41	9832.59
464.59	9664.07
464.78	10125.16
464.96	9774.08
465.14	9795.14
465.32	10064.30
465.50	10038.56
465.69	10258.57
465.87	10022.17
466.05	9884.08
466.23	9839.61
466.41	10054.94
466.60	10478.58
466.78	10085.37
466.96	9916.85
467.14	10054.94
467.32	10071.33
467.51	10221.12
467.69	9844.29
467.87	10162.61
468.05	10384.96
468.23	10286.65
468.41	10193.03
468.60	10506.66
468.78	10525.39
468.96	10410.70
469.14	10457.51
469.32	10832.00
469.50	10310.06
469.69	10651.78
469.87	10768.80
470.05	10700.93
470.23	10920.94
470.41	10782.85
470.59	10890.51
470.77	10850.72
470.95	10911.58
471.14	11026.26
471.32	11049.67
471.50	11283.72
471.68	11234.57
471.86	11129.25
472.04	11339.90
472.22	11480.33
472.40	11393.73
472.58	11672.25
472.77	11496.71
472.95	11627.78
473.13	11882.90
473.31	11393.73
473.49	11293.08
473.67	11534.16
473.85	11517.78
474.03	11983.54
474.21	11962.48
474.39	12088.87
474.57	12039.72
474.75	12229.30
474.93	12283.13
475.12	12287.81
475.30	12336.96
475.48	12163.76
475.66	12592.08
475.84	12369.73
476.02	12833.16
476.20	12585.06
476.38	13034.44
476.56	13013.38
476.74	13034.44
476.92	12884.65
477.10	13011.04
477.28	13404.25
477.46	13291.90
477.64	13214.66
477.82	13736.60
478.00	13989.38
478.18	14005.77
478.36	14092.37
478.54	14160.24
478.72	13944.91
478.90	14164.92
479.08	14497.28
479.26	14567.49
479.44	14462.17
479.62	14478.55
479.80	14836.66
479.98	14965.39
480.16	15140.93
480.34	14949.00
480.52	15096.46
480.70	15403.07
480.88	15199.44
481.06	15396.04
481.24	15403.07
481.41	15953.09
481.59	15770.53
481.77	16156.72
481.95	16198.85
482.13	15960.11
482.31	16114.59
482.49	16650.57
482.67	16449.28
482.85	16732.49
483.03	17032.08
483.21	17219.32
483.39	17216.98
483.57	17144.42
483.74	17144.42
483.92	17551.68
484.10	17219.32
484.28	17568.06
484.46	17926.16
484.64	18637.69
484.82	17874.67
485.00	18291.29
485.18	18483.21
485.35	18644.71
485.53	18686.84
485.71	18953.66
485.89	19557.52
486.07	19126.86
486.25	19178.35
486.43	19346.87
486.61	19454.53
486.78	19686.25
486.96	20032.65
487.14	20231.59
487.32	20046.69
487.50	20269.04
487.68	20400.11
487.85	20716.08
488.03	20910.35
488.21	21296.53
488.39	21214.62
488.57	21558.67
488.75	21528.25
488.92	21493.14
489.10	22012.74
489.28	22232.75
489.46	21984.65
489.64	21942.52
489.81	22623.62
489.99	22635.32
490.17	22625.96
490.35	23087.04
490.53	22937.25
490.70	23096.41
490.88	23082.36
491.06	23403.02
491.24	23653.45
491.41	23632.39
491.59	23672.18
491.77	24285.40
491.95	24034.96
492.13	24126.24
492.30	24479.66
492.48	24561.58
492.66	24809.68
492.84	24645.84
493.01	25034.37
493.19	25074.16
493.37	25275.45
493.54	25443.96
493.72	25565.67
493.90	25652.27
494.08	25902.71
494.25	25853.56
494.43	26171.87
494.61	26047.82
494.79	26733.60
494.96	26284.22
495.14	26735.94
495.32	26731.26
495.49	27056.59
495.67	26785.09
495.85	27412.35
496.02	27538.74
496.20	27438.10
496.38	27660.45
496.55	27606.62
496.73	28725.39
496.91	28135.58
497.09	28360.27
497.26	28409.42
497.44	28416.44
497.62	28891.57
497.79	29221.59
497.97	29303.51
498.14	29132.65
498.32	29516.50
498.50	29376.06
498.67	29844.17
498.85	29202.86
499.03	29699.06
499.20	29895.66
499.38	29951.84
499.56	30094.61
499.73	30560.37
499.91	30522.93
500.08	30654.00
500.26	30108.65
500.44	30707.83
500.61	30778.04
500.79	30838.90
500.97	31087.00
501.14	31651.06
501.32	31447.44
501.49	31257.85
501.67	31386.58
501.84	31395.95
502.02	31824.26
502.20	31704.90
502.37	32077.04
502.55	32002.14
502.72	32575.58
502.90	32275.99
503.07	31622.98
503.25	32371.95
503.43	32432.80
503.60	32629.41
503.78	32694.94
503.95	32872.82
504.13	32926.66
504.30	32919.63
504.48	32631.75
504.65	33347.95
504.83	33127.94
505.01	33546.90
505.18	33722.44
505.36	34150.76
505.53	33619.46
505.71	33589.03
505.88	34061.82
506.06	33638.18
506.23	34473.75
506.41	34162.46
506.58	34213.95
506.76	34368.43
506.93	34780.36
507.11	34623.54
507.28	34637.59
507.46	34969.94
507.63	35271.87
507.81	35543.38
507.98	34939.52
508.16	35189.95
508.33	35189.95
508.50	35412.31
508.68	35491.88
508.85	35793.81
509.03	35519.97
509.20	35978.72
509.38	36348.52
509.55	36046.59
509.73	35887.43
509.90	36266.60
510.08	36191.70
510.25	36320.43
510.42	36533.42
510.60	36849.39
510.77	36833.01
510.95	37266.01
511.12	36910.25
511.30	36797.90
511.47	36800.24
511.64	36779.18
511.82	37420.48
511.99	37624.11
512.17	37354.95
512.34	37266.01
512.51	37745.82
512.69	38139.03
512.86	37734.12
513.04	38171.80
513.21	38389.47
513.38	37944.76
513.56	38527.56
513.73	38431.60
513.90	38618.84
514.08	38169.46
514.25	38672.67
514.43	39068.22
514.60	38965.24
514.77	39218.02
514.95	39005.03
515.12	38728.84
515.29	38738.21
515.47	39363.13
515.64	39674.42
515.81	39124.40
515.99	39407.60
516.16	39819.53
516.33	39784.43
516.51	39969.33
516.68	40076.99
516.85	39934.22
517.03	39805.49
517.20	40198.70
517.37	40189.34
517.54	40154.23
517.72	40161.25
517.89	40495.95
518.06	40212.74
518.24	40409.35
518.41	40409.35
518.58	40297.00
518.75	40486.59
518.93	40973.42
519.10	40964.06
519.27	41333.86
519.45	40767.45
519.62	40964.06
519.79	41179.39
519.96	41593.66
520.14	41635.79
520.31	41434.50
520.48	41497.70
520.65	41340.88
520.83	41879.21
521.00	41986.87
521.17	41724.73
521.34	41935.38
521.52	42277.10
521.69	42043.04
521.86	42429.23
522.03	42614.13
522.20	42466.68
522.38	42394.12
522.55	42445.62
522.72	42820.10
522.89	42735.84
523.07	42817.76
523.24	42691.37
523.41	43040.11
523.58	42997.98
523.75	43325.66
523.92	43058.84
524.10	43210.97
524.27	43337.36
524.44	43332.68
524.61	43571.41
524.78	43636.95
524.96	43194.59
525.13	43386.51
525.30	43679.08
525.47	43533.96
525.64	43473.11
525.81	43786.74
525.98	44027.82
526.16	43929.51
526.33	44252.51
526.50	44306.34
526.67	44179.95
526.84	44222.08
527.01	44053.56
527.18	44397.62
527.36	44879.77
527.53	44643.38
527.70	45137.23
527.87	44994.46
528.04	44776.79
528.21	44781.47
528.38	44790.83
528.55	44786.15
528.72	44608.27
528.89	44811.90
529.07	44765.09
529.24	44994.46
529.41	45329.16
529.58	45336.18
529.75	44865.73
529.92	45572.57
530.09	45535.12
530.26	45844.07
530.43	45642.79
530.60	45530.44
530.77	45495.33
530.94	45752.79
531.11	45846.41
531.28	46045.36
531.46	45722.37
531.63	46085.15
531.80	46293.46
531.97	46520.49
532.14	46129.62
532.31	46131.96
532.48	46363.67
532.65	46176.43
532.82	45951.74
532.99	46469.00
533.16	46241.96
533.33	46623.47
533.50	47096.26
533.67	46660.92
533.84	46487.72
534.01	46581.34
534.18	46452.61
534.35	47119.66
534.52	46948.81
534.69	47323.29
534.86	47257.76
535.03	46855.18
535.20	47358.40
535.37	47040.09
535.54	47414.57
535.71	46745.18
535.88	47313.93
536.05	47138.39
536.22	47576.07
536.38	47620.54
536.55	47566.71
536.72	47924.81
536.89	47306.91
537.06	47454.36
537.23	47814.80
537.40	47601.82
537.57	47831.19
537.74	47730.54
537.91	48079.28
538.08	48133.12
538.25	47693.10
538.42	48165.88
538.59	47894.38
538.75	47859.27
538.92	48002.05
539.09	48294.61
539.26	48198.65
539.43	48168.22
539.60	48130.78
539.77	48205.67
539.94	48498.24
540.11	48315.68
540.28	48451.43
540.44	48650.38
540.61	48432.71
540.78	48294.61
540.95	48444.41
541.12	48725.27
541.29	48821.23
541.46	48526.33
541.62	48788.47
541.79	49315.09
541.96	48439.73
542.13	48760.38
542.30	48968.69
542.47	49172.31
542.63	49205.08
542.80	49495.31
542.97	49535.10
543.14	49911.92
543.31	49291.68
543.48	49401.69
543.64	49462.54
543.81	49296.36
543.98	49792.56
544.15	49621.70
544.32	49359.56
544.48	50145.98
544.65	49532.76
544.82	49586.59
544.99	49097.42
545.16	49911.92
545.32	49432.11
545.49	50059.38
545.66	50553.23
545.83	50047.68
546.00	50246.62
546.16	50099.17
546.33	49717.66
546.50	49455.52
546.67	50019.59
546.83	49745.75
547.00	50319.18
547.17	50127.25
547.34	50155.34
547.50	50033.63
547.67	50464.29
547.84	50277.05
548.00	50131.93
548.17	50656.21
548.34	50232.58
548.51	50567.27
548.67	50796.65
548.84	50494.72
549.01	50396.42
549.18	50600.04
549.34	50328.54
549.51	50674.94
549.68	50384.71
549.84	50382.37
550.01	50700.68
550.18	50782.60
550.34	51203.90
550.51	51044.74
550.68	50803.67
550.84	50483.01
551.01	50993.25
551.18	50768.56
551.34	51103.26
551.51	50497.06
551.68	50944.10
551.84	51154.75
552.01	50684.30
552.18	51040.06
552.34	51000.27
552.51	50969.85
552.68	50953.46
552.84	51011.98
553.01	51503.49
553.18	51269.43
553.34	51154.75
553.51	51187.52
553.67	51414.55
553.84	51686.05
554.01	51210.92
554.17	51576.04
554.34	51477.74
554.51	51302.20
554.67	51318.59
554.84	51625.20
555.00	51524.55
555.17	51519.87
555.33	51437.95
555.50	51571.36
555.67	51552.64
555.83	51737.54
556.00	51662.64
556.16	51920.10
556.33	51262.41
556.50	51613.49
556.66	51964.57
556.83	51454.34
556.99	51896.70
557.16	51784.35
557.32	51856.91
557.49	52231.40
557.65	51760.95
557.82	51796.06
557.98	51814.78
558.15	51723.50
558.32	52236.08
558.48	52004.36
558.65	52013.73
558.81	52172.88
558.98	52079.26
559.14	51789.03
559.31	51641.58
559.47	51744.56
559.64	52390.55
559.80	52154.16
559.97	52009.04
560.13	51793.71
560.30	52182.24
560.46	52210.33
560.63	51903.72
560.79	51983.30
560.96	51959.89
561.12	52065.22
561.29	52088.62
561.45	52140.11
561.61	51957.55
561.78	52177.56
561.94	52416.30
562.11	52418.64
562.27	52350.76
562.44	52126.07
562.60	52322.68
562.77	52292.25
562.93	51805.42
563.10	52556.73
563.26	52406.94
563.42	52650.35
563.59	52397.57
563.75	52339.06
563.92	52474.81
564.08	52472.47
564.24	52280.55
564.41	52346.08
564.57	52336.72
564.74	52282.89
564.90	52350.76
565.07	52397.57
565.23	52603.54
565.39	52477.15
565.56	52402.25
565.72	52388.21
565.88	52367.15
566.05	52268.84
566.21	52212.67
566.38	52516.94
566.54	52261.82
566.70	52362.46
566.87	52987.39
567.03	52420.98
567.19	52786.10
567.36	52336.72
567.52	52423.32
567.68	52814.19
567.85	52570.77
568.01	52629.29
568.17	52346.08
568.34	52692.48
568.50	52755.68
568.66	52694.82
568.83	52823.55
568.99	52360.12
569.15	52769.72
569.32	52683.12
569.48	52413.96
569.64	52528.64
569.81	52566.09
569.97	52287.57
570.13	52640.99
570.30	52533.32
570.46	52718.23
570.62	52622.26
570.78	52769.72
570.95	52645.67
571.11	52697.16
571.27	52535.66
571.43	52519.28
571.60	52868.02
571.76	52406.94
571.92	52718.23
572.09	52921.85
572.25	52863.34
572.41	52678.44
572.57	52577.79
572.74	52739.29
572.90	52652.69
573.06	52896.11
573.22	52591.84
573.38	52790.78
573.55	52631.63
573.71	53090.37
573.87	53172.29
574.03	52617.58
574.20	52722.91
574.36	52825.89
574.52	52849.30
574.68	52858.66
574.84	52765.04
575.01	52818.87
575.17	52662.05
575.33	52320.34
575.49	52989.73
575.65	52987.39
575.82	52790.78
575.98	52594.18
576.14	52987.39
576.30	52889.09
576.46	53027.18
576.62	52437.36
576.79	52879.72
576.95	52556.73
577.11	52809.51
577.27	52699.50
577.43	52846.96
577.59	52926.53
577.75	52615.24
577.92	52828.23
578.08	52608.22
578.24	52643.33
578.40	52622.26
578.56	53041.22
578.72	52741.63
578.88	53258.89
579.04	52903.13
579.21	52905.47
579.37	52889.09
579.53	53120.80
579.69	52540.35
579.85	52968.66
580.01	52928.87
580.17	52856.32
580.33	52889.09
580.49	52865.68
580.65	53223.78
580.82	52809.51
580.98	52755.68
581.14	52966.32
581.30	53013.13
581.46	52626.95
581.62	52935.90
581.78	52308.63
581.94	52879.72
582.10	52973.34
582.26	52694.82
582.42	53247.19
582.58	53230.80
582.74	52617.58
582.90	53043.56
583.06	53169.95
583.22	52760.36
583.38	52790.78
583.54	52708.86
583.70	52863.34
583.86	52755.68
584.02	52657.37
584.18	53081.01
584.34	53134.84
584.50	53132.50
584.66	53235.48
584.82	52835.25
584.98	52924.19
585.14	52875.04
585.30	52652.69
585.46	52722.91
585.62	52640.99
585.78	52956.96
585.94	52917.17
586.10	52942.92
586.26	53045.90
586.42	53277.61
586.58	52912.49
586.74	52879.72
586.90	52748.65
587.06	52926.53
587.22	53059.94
587.38	52828.23
587.54	53013.13
587.70	53038.88
587.86	53235.48
588.02	53221.44
588.18	53088.03
588.34	53022.50
588.49	53116.12
588.65	53006.11
588.81	52842.27
588.97	52931.22
589.13	52687.80
589.29	53010.79
589.45	52949.94
589.61	53097.39
589.77	53212.08
589.93	53301.02
590.08	53265.91
