SpectraSuite Data File
++++++++++++++++++++++++++++++++++++
Date: Fri Oct 18 13:55:34 GMT-05:00 2013
User: bianchi
Dark Spectrum Present: No
Reference Spectrum Present: No
Number of Sampled Component Spectra: 1
Spectrometers: USB2+H05261
Integration Time (usec): 100000 (USB2+H05261)
Spectra Averaged: 1 (USB2+H05261)
Boxcar Smoothing: 0 (USB2+H05261)
Correct for Electrical Dark: No (USB2+H05261)
Strobe/Lamp Enabled: No (USB2+H05261)
Correct for Detector Non-linearity: No (USB2+H05261)
Correct for Stray Light: No (USB2+H05261)
Number of Pixels in Processed Spectrum: 2048
>>>>>Begin Processed Spectral Data<<<<<
365.73	0.00
365.92	0.00
366.12	0.00
366.32	0.00
366.52	0.00
366.72	0.00
366.91	0.00
367.11	0.00
367.31	0.00
367.51	0.00
367.70	0.00
367.90	0.00
368.10	0.00
368.30	0.00
368.49	0.00
368.69	0.00
368.89	0.00
369.09	0.00
369.28	0.00
369.48	0.00
369.68	0.00
369.87	0.00
370.07	0.00
370.27	0.00
370.47	30.43
370.66	278.52
370.86	320.65
371.06	330.02
371.25	386.19
371.45	222.35
371.65	393.21
371.84	369.80
372.04	315.97
372.24	425.98
372.44	395.55
372.63	465.77
372.83	479.81
373.03	379.17
373.22	507.90
373.42	372.15
373.62	409.59
373.81	449.38
374.01	489.17
374.21	528.96
374.40	433.00
374.60	571.09
374.79	486.83
374.99	442.36
375.19	500.87
375.38	585.13
375.58	444.70
375.78	582.79
375.97	568.75
376.17	592.16
376.37	524.28
376.56	538.32
376.76	465.77
376.95	482.15
377.15	514.92
377.35	585.13
377.54	608.54
377.74	512.58
377.93	582.79
378.13	559.39
378.33	599.18
378.52	552.37
378.72	638.97
378.91	657.69
379.11	589.82
379.31	622.58
379.50	585.13
379.70	552.37
379.89	631.94
380.09	660.03
380.28	585.13
380.48	561.73
380.68	594.50
380.87	620.24
381.07	599.18
381.26	688.12
381.46	629.60
381.65	669.39
381.85	720.88
382.04	676.41
382.24	683.44
382.43	655.35
382.63	727.91
382.83	744.29
383.02	751.31
383.22	830.89
383.41	734.93
383.61	723.23
383.80	802.80
384.00	765.36
384.19	765.36
384.39	814.51
384.58	758.33
384.78	807.48
384.97	758.33
385.17	732.59
385.36	777.06
385.56	819.19
385.75	823.87
385.95	858.98
386.14	758.33
386.34	861.32
386.53	943.24
386.72	720.88
386.92	805.14
387.11	863.66
387.31	936.21
387.50	898.77
387.70	973.66
387.89	908.13
388.09	880.04
388.28	983.02
388.48	926.85
388.67	875.36
388.86	873.02
389.06	936.21
389.25	980.68
389.45	1046.22
389.64	908.13
389.84	985.37
390.03	973.66
390.22	1050.90
390.42	929.19
390.61	999.41
390.81	1006.43
391.00	1043.88
391.19	1128.14
391.39	1053.24
391.58	1078.99
391.78	1041.54
391.97	1057.92
392.16	1132.82
392.36	1111.75
392.55	1090.69
392.75	1111.75
392.94	1186.65
393.13	1186.65
393.33	1100.05
393.52	1135.16
393.71	1268.57
393.91	1137.50
394.10	1088.35
394.29	1151.54
394.49	1210.06
394.68	1289.64
394.88	1200.69
395.07	1299.00
395.26	1231.12
395.46	1268.57
395.65	1266.23
395.84	1357.51
396.04	1252.19
396.23	1224.10
396.42	1331.76
396.62	1336.45
396.81	1357.51
397.00	1404.32
397.19	1441.77
397.39	1371.55
397.58	1390.28
397.77	1378.58
397.97	1385.60
398.16	1465.18
398.35	1420.71
398.55	1563.48
398.74	1394.96
398.93	1511.99
399.12	1521.35
399.32	1523.69
399.51	1558.80
399.70	1596.25
399.90	1561.14
400.09	1591.56
400.28	1551.78
400.47	1561.14
400.67	1629.01
400.86	1579.86
401.05	1666.46
401.24	1636.03
401.44	1629.01
401.63	1586.88
401.82	1664.12
402.01	1778.81
402.21	1727.32
402.40	1825.62
402.59	1708.59
402.78	1799.87
402.97	1764.76
403.17	1942.64
403.36	1933.28
403.55	1860.73
403.74	1905.20
403.93	1956.69
404.13	1921.58
404.32	1849.02
404.51	1912.22
404.70	2001.16
404.89	2001.16
405.09	2012.86
405.28	1977.75
405.47	1973.07
405.66	2197.76
405.85	2026.90
406.05	2073.71
406.24	2026.90
406.43	2125.21
406.62	2174.36
406.81	2333.51
407.00	2188.40
407.20	2172.02
407.39	2193.08
407.58	2277.34
407.77	2265.64
407.96	2361.60
408.15	2382.67
408.34	2385.01
408.54	2448.20
408.73	2450.54
408.92	2326.49
409.11	2363.94
409.30	2497.35
409.49	2443.52
409.68	2478.63
409.87	2476.29
410.07	2464.58
410.26	2553.52
410.45	2619.06
410.64	2551.18
410.83	2647.15
411.02	2605.02
411.21	2722.04
411.40	2848.43
411.59	2818.00
411.78	2832.05
411.98	2747.79
412.17	2796.94
412.36	2860.13
412.55	2977.16
412.74	2965.46
412.93	2850.77
413.12	2888.22
413.31	3119.93
413.50	3077.80
413.69	3063.76
413.88	3141.00
414.07	3218.24
414.26	3171.43
414.45	3155.04
414.64	3286.11
414.83	3185.47
415.02	3393.78
415.22	3325.90
415.41	3492.08
415.60	3442.93
415.79	3517.83
415.98	3581.02
416.17	3569.32
416.36	3503.78
416.55	3499.10
416.74	3557.61
416.93	3618.47
417.12	3620.81
417.31	3684.00
417.50	3735.50
417.69	3808.05
417.88	3831.46
418.07	3819.75
418.26	3843.16
418.45	3866.56
418.64	4014.02
418.83	4046.79
419.02	3941.46
419.21	4056.15
419.39	4018.70
419.58	4053.81
419.77	3887.63
419.96	4184.88
420.15	4049.13
420.34	4238.71
420.53	4212.96
420.72	4198.92
420.91	4308.93
421.10	4287.86
421.29	4351.06
421.48	4182.54
421.67	4437.66
421.86	4236.37
422.05	4411.91
422.24	4278.50
422.43	4362.76
422.61	4491.49
422.80	4437.66
422.99	4458.72
423.18	4568.73
423.37	4610.86
423.56	4503.19
423.75	4454.04
423.94	4416.59
424.13	4175.52
424.32	4428.29
424.50	4489.15
424.69	4507.87
424.88	4629.58
425.07	4442.34
425.26	4409.57
425.45	4402.55
425.64	4662.35
425.83	4578.09
426.01	4528.94
426.20	4533.62
426.39	4631.92
426.58	4512.55
426.77	4727.88
426.96	4662.35
427.15	4564.04
427.33	4685.75
427.52	4856.61
427.71	4657.67
427.90	4739.58
428.09	4786.40
428.28	4667.03
428.46	4901.08
428.65	4947.89
428.84	4863.63
429.03	5057.90
429.22	4842.57
429.40	5146.84
429.59	5018.11
429.78	4767.67
429.97	4887.04
430.16	4901.08
430.34	5008.75
430.53	5268.55
430.72	5219.39
430.91	5228.76
431.10	4896.40
431.28	5296.63
431.47	5275.57
431.66	5317.70
431.85	5214.71
432.03	5526.00
432.22	5509.62
432.41	5430.04
432.60	5537.71
432.79	5284.93
432.97	5511.96
433.16	5507.28
433.35	5547.07
433.54	5451.11
433.72	5561.11
433.91	5556.43
434.10	5575.16
434.28	5479.19
434.47	5818.57
434.66	5673.46
434.85	5685.16
435.03	5799.85
435.22	5762.40
435.41	6045.60
435.59	5935.60
435.78	5853.68
435.97	5884.11
436.16	5865.38
436.34	5912.19
436.53	6036.24
436.72	6183.70
436.90	5872.40
437.09	6064.33
437.28	5942.62
437.46	6143.91
437.65	6141.57
437.84	6253.91
438.02	6118.16
438.21	6080.71
438.40	6195.40
438.58	6354.55
438.77	6483.28
438.96	6452.86
439.14	6539.46
439.33	6621.38
439.52	6534.78
439.70	6738.40
439.89	6719.68
440.08	6789.89
440.26	6773.51
440.45	6715.00
440.63	6759.47
440.82	6902.24
441.01	6810.96
441.19	6902.24
441.38	7138.63
441.57	7344.60
441.75	7096.50
441.94	7433.54
442.12	7300.13
442.31	7475.67
442.50	7412.48
442.68	7241.62
442.87	7555.25
443.05	7473.33
443.24	7578.65
443.43	7503.76
443.61	7623.12
443.80	7616.10
443.98	7386.73
444.17	7169.06
444.35	7770.58
444.54	7620.78
444.73	7604.40
444.91	7723.77
445.10	7702.70
445.28	7716.75
445.47	7623.12
445.65	7751.85
445.84	7639.51
446.02	7826.75
446.21	7529.50
446.39	7662.91
446.58	7971.86
446.77	7758.88
446.95	7639.51
447.14	7838.45
447.32	7967.18
447.51	7763.56
447.69	7817.39
447.88	7805.69
448.06	7829.09
448.25	7960.16
448.43	7885.26
448.62	7985.91
448.80	7838.45
448.99	8051.44
449.17	7964.84
449.36	7908.67
449.54	8259.75
449.73	8327.63
449.91	8332.31
450.10	8271.45
450.28	8414.23
450.46	8285.50
450.65	8215.28
450.83	8355.71
451.02	8318.26
451.20	8285.50
451.39	8545.30
451.57	8313.58
451.76	8528.91
451.94	8416.57
452.13	8690.41
452.31	8725.52
452.49	8503.17
452.68	8620.19
452.86	8669.34
453.05	8645.94
453.23	8805.10
453.42	8786.37
453.60	8709.13
453.78	8915.10
453.97	8636.58
454.15	8636.58
454.34	8711.47
454.52	8954.89
454.70	8910.42
454.89	8997.02
455.07	8987.66
455.26	9069.58
455.44	9097.66
455.62	9015.74
455.81	9128.09
455.99	9027.45
456.17	9139.79
456.36	9207.67
456.54	9125.75
456.73	9465.13
456.91	9631.30
457.09	9720.24
457.28	9577.47
457.46	9394.91
457.64	9582.15
457.83	9715.56
458.01	9558.75
458.19	9596.20
458.38	9736.63
458.56	10008.13
458.74	9631.30
458.93	9755.35
459.11	9872.38
459.29	9621.94
459.48	10012.81
459.66	10022.17
459.84	10153.24
460.03	10085.37
460.21	10087.71
460.39	10235.16
460.57	10094.73
460.76	10249.21
460.94	10246.87
461.12	10200.05
461.31	10174.31
461.49	10101.75
461.67	10260.91
461.85	10532.41
462.04	10399.00
462.22	10944.34
462.40	10607.31
462.59	10626.03
462.77	10511.35
462.95	10628.37
463.13	10609.65
463.32	10637.73
463.50	10773.49
463.68	10726.68
463.86	10864.77
464.05	10565.18
464.23	10691.57
464.41	11098.82
464.59	10714.97
464.78	11094.14
464.96	10714.97
465.14	10946.69
465.32	11126.91
465.50	11133.93
465.69	11084.78
465.87	10890.51
466.05	10895.19
466.23	11218.19
466.41	11089.46
466.60	11286.06
466.78	11077.76
466.96	11241.59
467.14	11215.85
467.32	11241.59
467.51	11522.46
467.69	11023.92
467.87	11424.15
468.05	11367.98
468.23	11602.04
468.41	11344.58
468.60	11550.54
468.78	11625.44
468.96	11641.82
469.14	11679.27
469.32	11850.13
469.50	11375.00
469.69	11644.17
469.87	12013.97
470.05	12123.98
470.23	12308.88
470.41	11950.78
470.59	12133.34
470.77	12023.33
470.95	12133.34
471.14	12451.65
471.32	12088.87
471.50	12453.99
471.68	12320.58
471.86	12194.19
472.04	12559.31
472.22	12814.43
472.40	12545.27
472.58	12624.85
472.77	12730.17
472.95	12894.01
473.13	13228.71
473.31	12669.32
473.49	12781.67
473.67	13001.68
473.85	13029.76
474.03	13303.60
474.21	13378.50
474.39	13537.66
474.57	13511.91
474.75	13628.94
474.93	13671.07
475.12	13607.87
475.30	13774.05
475.48	13680.43
475.66	13748.31
475.84	13933.21
476.02	14272.59
476.20	14001.08
476.38	14288.97
476.56	14274.93
476.74	14459.83
476.92	14614.30
477.10	14408.34
477.28	14817.93
477.46	14649.41
477.64	14836.66
477.82	15108.16
478.00	15295.40
478.18	15646.48
478.36	15573.92
478.54	15587.97
478.72	15545.84
478.90	15854.79
479.08	15660.52
479.26	16283.11
479.44	16112.25
479.62	16369.71
479.80	16580.36
479.98	16318.22
480.16	16568.65
480.34	16760.58
480.52	17331.67
480.70	17167.83
480.88	16886.97
481.06	17146.76
481.24	17135.06
481.41	17242.73
481.59	17881.69
481.77	17720.20
481.95	17832.54
482.13	17869.99
482.31	17884.03
482.49	18403.63
482.67	18230.43
482.85	18361.50
483.03	18700.88
483.21	18860.04
483.39	19084.73
483.57	18838.97
483.74	19307.08
483.92	19372.61
484.10	19389.00
484.28	19779.87
484.46	20245.63
484.64	20222.23
484.82	19920.30
485.00	20247.97
485.18	20650.55
485.35	21022.69
485.53	20819.07
485.71	20702.04
485.89	21458.03
486.07	21280.15
486.25	21673.36
486.43	21458.03
486.61	21907.41
486.78	22136.79
486.96	22024.44
487.14	22602.55
487.32	22530.00
487.50	22419.99
487.68	22731.28
487.85	22862.35
488.03	23063.64
488.21	23737.71
488.39	23527.06
488.57	23381.95
488.75	23819.63
488.92	24451.58
489.10	24545.20
489.28	24760.53
489.46	24496.05
489.64	24793.29
489.81	25064.80
489.99	25104.59
490.17	25474.39
490.35	25886.32
490.53	25612.48
490.70	26073.57
490.88	25984.63
491.06	26305.28
491.24	25982.29
491.41	26274.85
491.59	26637.64
491.77	26843.60
491.95	27033.19
492.13	27119.79
492.30	27234.47
492.48	27257.88
492.66	27697.90
492.84	27702.58
493.01	27655.77
493.19	27761.09
493.37	28512.41
493.54	28498.36
493.72	28638.80
493.90	28510.07
494.08	28701.99
494.25	29294.14
494.43	29357.34
494.61	29364.36
494.79	29567.99
494.96	29476.71
495.14	29771.61
495.32	29731.83
495.49	29961.20
495.67	30349.73
495.85	30352.07
496.02	31035.50
496.20	30700.81
496.38	31033.16
496.55	30698.47
496.73	31414.67
496.91	31496.59
497.09	31988.10
497.26	31892.14
497.44	32252.58
497.62	31924.91
497.79	32526.42
497.97	32362.59
498.14	32964.10
498.32	33273.06
498.50	32762.82
498.67	33326.89
498.85	33376.04
499.03	33333.91
499.20	33600.73
499.38	33607.75
499.56	33797.34
499.73	34115.65
499.91	33813.72
500.08	34223.31
500.26	34089.90
500.44	34225.65
500.61	33935.43
500.79	34480.77
500.97	34569.71
501.14	35236.77
501.32	35344.43
501.49	34972.28
501.67	34981.65
501.84	35187.61
502.02	35583.16
502.20	35709.55
502.37	35915.52
502.55	35758.70
502.72	35761.05
502.90	35641.68
503.07	35969.35
503.25	36238.51
503.43	36027.87
503.60	36217.45
503.78	36814.29
503.95	36304.05
504.13	36851.73
504.30	37074.09
504.48	36933.65
504.65	37027.28
504.83	37659.22
505.01	37460.27
505.18	37425.17
505.36	37823.06
505.53	37198.13
505.71	37914.34
505.88	37490.70
506.06	37659.22
506.23	38515.86
506.41	38265.42
506.58	38492.45
506.76	38265.42
506.93	38258.40
507.11	38431.60
507.28	38543.94
507.46	39014.39
507.63	38843.53
507.81	39227.38
507.98	39033.11
508.16	39180.57
508.33	39260.15
508.50	39131.42
508.68	39587.82
508.85	39882.73
509.03	40112.10
509.20	39660.38
509.38	40250.19
509.55	40362.54
509.73	40556.80
509.90	40411.69
510.08	40142.53
510.25	40472.54
510.42	40479.57
510.60	40598.93
510.77	40870.43
510.95	41198.11
511.12	40861.07
511.30	41331.52
511.47	40924.27
511.64	41766.86
511.82	41497.70
511.99	41617.07
512.17	41921.34
512.34	41860.48
512.51	41949.42
512.69	42038.36
512.86	42258.37
513.04	43019.05
513.21	42698.39
513.38	42852.87
513.56	42841.17
513.73	42459.66
513.90	42618.81
514.08	42611.79
514.25	42941.81
514.43	42897.34
514.60	43175.86
514.77	43070.54
514.95	43459.07
515.12	43009.68
515.29	43337.36
515.47	43915.47
515.64	43779.72
515.81	43505.88
515.99	44428.05
516.16	44198.68
516.33	43845.26
516.51	44495.92
516.68	43863.98
516.85	44350.81
517.03	44535.71
517.20	45008.50
517.37	44694.87
517.54	44734.66
517.72	44811.90
517.89	44811.90
518.06	44821.26
518.24	45020.20
518.41	44690.19
518.58	45415.76
518.75	45146.59
518.93	45067.02
519.10	45478.95
519.27	45265.96
519.45	45773.86
519.62	45455.54
519.79	45455.54
519.96	45886.20
520.14	46017.27
520.31	45979.82
520.48	46361.33
520.65	46553.26
520.83	46651.56
521.00	46305.16
521.17	46487.72
521.34	46253.67
521.52	46476.02
521.69	46719.43
521.86	46480.70
522.03	47250.74
522.20	46761.56
522.38	47297.55
522.55	47035.41
522.72	47224.99
522.89	47199.24
523.07	47515.22
523.24	47189.88
523.41	47384.15
523.58	46969.87
523.75	47873.32
523.92	47412.23
524.10	47510.53
524.27	47739.91
524.44	47650.97
524.61	48355.47
524.78	48463.13
524.96	48205.67
525.13	48259.51
525.30	48219.72
525.47	48561.44
525.64	48734.63
525.81	48519.31
525.98	48882.09
526.16	48711.23
526.33	49015.50
526.50	48919.54
526.67	48657.40
526.84	49003.80
527.01	48828.26
527.18	49202.74
527.36	49188.70
527.53	49200.40
527.70	49626.38
527.87	49275.30
528.04	49392.33
528.21	49340.83
528.38	49109.12
528.55	49584.25
528.72	49389.98
528.89	49558.50
529.07	49558.50
529.24	49378.28
529.41	50028.95
529.58	49574.89
529.75	49563.18
529.92	49600.63
530.09	49794.90
530.26	50223.22
530.43	50258.32
530.60	49825.32
530.77	49963.42
530.94	50057.04
531.11	49647.44
531.28	49972.78
531.46	50326.20
531.63	50227.90
531.80	50253.64
531.97	50721.75
532.14	50733.45
532.31	50876.22
532.48	50614.08
532.65	50904.31
532.82	50639.83
532.99	50962.82
533.16	50890.27
533.33	51063.47
533.50	51262.41
533.67	51152.41
533.84	51004.95
534.01	50527.48
534.18	51075.17
534.35	51145.39
534.52	51166.45
534.69	51159.43
534.86	51480.08
535.03	51386.46
535.20	51538.60
535.37	51260.07
535.54	51634.56
535.71	51416.89
535.88	51360.72
536.05	51377.10
536.22	51901.38
536.38	51700.09
536.55	51913.08
536.72	52044.15
536.89	51674.35
537.06	51856.91
537.23	52072.24
537.40	51585.41
537.57	51540.94
537.74	51760.95
537.91	52252.46
538.08	52313.31
538.25	51882.66
538.42	52177.56
538.59	52189.27
538.75	51744.56
538.92	52310.97
539.09	52360.12
539.26	52140.11
539.43	52081.60
539.60	52301.61
539.77	52418.64
539.94	52409.28
540.11	52444.38
540.28	52659.71
540.44	52467.79
540.61	52432.68
540.78	52673.76
540.95	52542.69
541.12	52563.75
541.29	52594.18
541.46	52736.95
541.62	52526.30
541.79	52851.64
541.96	52257.14
542.13	52662.05
542.30	52992.07
542.47	52832.91
542.63	53315.06
542.80	52821.21
542.97	53347.83
543.14	53488.26
543.31	53198.04
543.48	53350.17
543.64	53537.41
543.81	53514.01
543.98	53645.08
544.15	53516.35
544.32	53565.50
544.48	53876.79
544.65	53528.05
544.82	53425.07
544.99	53684.87
545.16	53659.12
545.32	53497.62
545.49	54148.29
545.66	53944.67
545.83	54057.01
546.00	54160.00
546.16	53965.73
546.33	53734.02
546.50	53483.58
546.67	53738.70
546.83	53710.61
547.00	54129.57
547.17	54246.60
547.34	54033.61
547.50	54115.53
547.67	54258.30
547.84	54082.76
548.00	54220.85
548.17	54216.17
548.34	54124.89
548.51	54539.16
548.67	54433.84
548.84	54335.54
549.01	54267.66
549.18	54265.32
549.34	54312.13
549.51	54557.89
549.68	54375.33
549.84	54450.22
550.01	54340.22
550.18	54405.75
550.34	54511.08
550.51	54869.18
550.68	54724.07
550.84	54468.95
551.01	54897.27
551.18	54480.65
551.34	54344.90
551.51	54454.90
551.68	54684.28
551.84	54932.37
552.01	54583.63
552.18	55210.90
552.34	54845.77
552.51	54836.41
552.68	54700.66
552.84	54976.84
553.01	55011.95
553.18	54920.67
553.34	55082.17
553.51	54965.14
553.67	55152.38
553.84	55260.05
554.01	55372.39
554.17	55222.60
554.34	55278.77
554.51	55049.40
554.67	54983.86
554.84	55384.10
555.00	55192.17
555.17	55180.47
555.33	55105.57
555.50	55271.75
555.67	55334.95
555.83	55370.05
556.00	55320.90
556.16	55629.85
556.33	55358.35
556.50	55175.79
556.66	55299.84
556.83	55363.03
556.99	55772.63
557.16	55700.07
557.32	55573.68
557.49	55657.94
557.65	55412.18
557.82	55583.04
557.98	55498.78
558.15	55393.46
558.32	55592.40
558.48	55473.04
558.65	55765.60
558.81	55664.96
558.98	55938.80
559.14	55770.28
559.31	55522.19
559.47	55613.47
559.64	55920.08
559.80	55571.34
559.97	55789.01
560.13	55639.22
560.30	55884.97
560.46	55784.33
560.63	55718.79
560.79	55903.70
560.96	55866.25
561.12	55901.36
561.29	56069.87
561.45	55704.75
561.61	55966.89
561.78	56168.18
561.94	55910.72
562.11	55994.98
562.27	56086.26
562.44	55964.55
562.60	55887.31
562.77	55875.61
562.93	55817.10
563.10	56062.85
563.26	55936.46
563.42	56212.65
563.59	56184.56
563.75	55994.98
563.92	56032.42
564.08	55875.61
564.24	56100.30
564.41	55884.97
564.57	55770.28
564.74	56055.83
564.90	56086.26
565.07	56079.24
565.23	56191.58
565.39	56121.37
565.56	56250.09
565.72	55894.33
565.88	55950.51
566.05	56217.33
566.21	56102.64
566.38	55866.25
566.54	56355.42
566.70	56264.14
566.87	56360.10
567.03	56149.45
567.19	56488.83
567.36	56086.26
567.52	55955.19
567.68	56308.61
567.85	56126.05
568.01	56409.25
568.17	56362.44
568.34	56287.54
568.50	56306.27
568.66	56266.48
568.83	56561.39
568.99	56456.06
569.15	56219.67
569.32	56278.18
569.48	56069.87
569.64	56247.75
569.81	56191.58
569.97	56507.55
570.13	56177.54
570.30	56289.88
570.46	56657.35
570.62	56381.16
570.78	56303.93
570.95	56093.28
571.11	56193.92
571.27	56090.94
571.43	56217.33
571.60	56339.04
571.76	56306.27
571.92	56397.55
572.09	56493.51
572.25	56697.14
572.41	56392.87
572.57	56425.64
572.74	56491.17
572.90	56144.77
573.06	56425.64
573.22	56411.59
573.38	56549.68
573.55	56317.97
573.71	56760.33
573.87	56502.87
574.03	56324.99
574.20	56622.24
574.36	56535.64
574.52	56601.18
574.68	56275.84
574.84	56479.47
575.01	56666.71
575.17	56516.92
575.33	56406.91
575.49	56399.89
575.65	56509.89
575.82	56645.65
575.98	56584.79
576.14	56626.92
576.30	56435.00
576.46	56514.58
576.62	56430.32
576.79	56257.12
576.95	56406.91
577.11	56573.09
577.27	56589.47
577.43	56292.22
577.59	56409.25
577.75	56472.45
577.92	56481.81
578.08	56397.55
578.24	56507.55
578.40	56622.24
578.56	56603.52
578.72	56547.34
578.88	56795.44
579.04	56601.18
579.21	56662.03
579.37	56610.54
579.53	56877.36
579.69	56605.86
579.85	56633.94
580.01	56397.55
580.17	56374.14
580.33	56430.32
580.49	56502.87
580.65	56860.97
580.82	56491.17
580.98	56683.09
581.14	56530.96
581.30	56774.37
581.46	56303.93
581.62	56521.60
581.78	56289.88
581.94	56413.93
582.10	56446.70
582.26	56755.65
582.42	56645.65
582.58	56626.92
582.74	56617.56
582.90	56708.84
583.06	56535.64
583.22	56470.11
583.38	56533.30
583.54	56432.66
583.70	56617.56
583.86	56671.39
584.02	56458.40
584.18	56598.83
584.34	56765.01
584.50	56858.63
584.66	56619.90
584.82	56523.94
584.98	56535.64
585.14	56577.77
585.30	56397.55
585.46	56589.47
585.62	56535.64
585.78	56678.41
585.94	56650.33
586.10	56664.37
586.26	56882.04
586.42	56676.07
586.58	56757.99
586.74	56582.45
586.90	56399.89
587.06	56357.76
587.22	56783.74
587.38	56437.34
587.54	56858.63
587.70	56912.47
587.86	56898.42
588.02	56919.49
588.18	57095.03
588.34	56774.37
588.49	56809.48
588.65	56793.10
588.81	56807.14
588.97	56837.57
589.13	57029.49
589.29	56601.18
589.45	56858.63
589.61	56849.27
