SpectraSuite Data File
++++++++++++++++++++++++++++++++++++
Date: Fri Oct 18 13:55:06 GMT-05:00 2013
User: bianchi
Dark Spectrum Present: No
Reference Spectrum Present: No
Number of Sampled Component Spectra: 1
Spectrometers: USB2+H05261
Integration Time (usec): 100000 (USB2+H05261)
Spectra Averaged: 1 (USB2+H05261)
Boxcar Smoothing: 0 (USB2+H05261)
Correct for Electrical Dark: No (USB2+H05261)
Strobe/Lamp Enabled: No (USB2+H05261)
Correct for Detector Non-linearity: No (USB2+H05261)
Correct for Stray Light: No (USB2+H05261)
Number of Pixels in Processed Spectrum: 2048
>>>>>Begin Processed Spectral Data<<<<<
365.73	0.00
365.92	0.00
366.12	0.00
366.32	0.00
366.52	0.00
366.72	0.00
366.91	0.00
367.11	0.00
367.31	0.00
367.51	0.00
367.70	0.00
367.90	0.00
368.10	0.00
368.30	0.00
368.49	0.00
368.69	0.00
368.89	0.00
369.09	0.00
369.28	0.00
369.48	0.00
369.68	0.00
369.87	0.00
370.07	0.00
370.27	0.00
370.47	0.00
370.66	215.33
370.86	273.84
371.06	301.93
371.25	308.95
371.45	360.44
371.65	379.17
371.84	379.17
372.04	374.49
372.24	353.42
372.44	440.02
372.63	388.53
372.83	540.66
373.03	362.78
373.22	430.66
373.42	369.80
373.62	418.96
373.81	369.80
374.01	463.43
374.21	489.17
374.40	465.77
374.60	521.94
374.79	458.74
374.99	421.30
375.19	475.13
375.38	587.47
375.58	568.75
375.78	610.88
375.97	491.51
376.17	540.66
376.37	550.03
376.56	561.73
376.76	491.51
376.95	561.73
377.15	592.16
377.35	517.26
377.54	533.64
377.74	517.26
377.93	603.86
378.13	617.90
378.33	554.71
378.52	692.80
378.72	538.32
378.91	557.05
379.11	503.22
379.31	711.52
379.50	613.22
379.70	655.35
379.89	641.31
380.09	573.43
380.28	557.05
380.48	578.11
380.68	650.67
380.87	695.14
381.07	706.84
381.26	720.88
381.46	608.54
381.65	610.88
381.85	648.33
382.04	662.37
382.24	727.91
382.43	830.89
382.63	725.57
382.83	791.10
383.02	718.54
383.22	863.66
383.41	737.27
383.61	760.67
383.80	880.04
384.00	781.74
384.19	765.36
384.39	704.50
384.58	816.85
384.78	734.93
384.97	786.42
385.17	777.06
385.36	777.06
385.56	786.42
385.75	751.31
385.95	816.85
386.14	905.79
386.34	866.00
386.53	866.00
386.72	784.08
386.92	931.53
387.11	763.01
387.31	880.04
387.50	940.90
387.70	910.47
387.89	894.08
388.09	889.40
388.28	887.06
388.48	823.87
388.67	894.08
388.86	992.39
389.06	819.19
389.25	987.71
389.45	968.98
389.64	950.26
389.84	1039.20
390.03	1062.60
390.22	1034.52
390.42	1001.75
390.61	1034.52
390.81	1036.86
391.00	985.37
391.19	1078.99
391.39	968.98
391.58	1067.28
391.78	1097.71
391.97	1137.50
392.16	1029.84
392.36	1144.52
392.55	1125.80
392.75	1102.39
392.94	1226.44
393.13	1163.25
393.33	1114.10
393.52	1060.26
393.71	1078.99
393.91	1200.69
394.10	1100.05
394.29	1139.84
394.49	1149.20
394.68	1252.19
394.88	1280.27
395.07	1273.25
395.26	1224.10
395.46	1266.23
395.65	1270.91
395.84	1263.89
396.04	1437.09
396.23	1341.13
396.42	1383.26
396.62	1331.76
396.81	1301.34
397.00	1359.85
397.19	1362.19
397.39	1385.60
397.58	1469.86
397.77	1497.94
397.97	1455.81
398.16	1331.76
398.35	1399.64
398.55	1451.13
398.74	1535.39
398.93	1657.10
399.12	1582.20
399.32	1460.49
399.51	1535.39
399.70	1621.99
399.90	1633.69
400.09	1479.22
400.28	1661.78
400.47	1584.54
400.67	1687.53
400.86	1661.78
401.05	1633.69
401.24	1603.27
401.44	1636.03
401.63	1790.51
401.82	1703.91
402.01	1671.14
402.21	1783.49
402.40	1788.17
402.59	1743.70
402.78	1715.61
402.97	1799.87
403.17	1881.79
403.36	1816.26
403.55	1886.47
403.74	1891.15
403.93	1827.96
404.13	1886.47
404.32	1827.96
404.51	1853.70
404.70	1942.64
404.89	1973.07
405.09	2057.33
405.28	2064.35
405.47	2036.27
405.66	2022.22
405.85	2050.31
406.05	2047.97
406.24	2115.84
406.43	2127.55
406.62	2228.19
406.81	2239.89
407.00	2129.89
407.20	1980.09
407.39	2129.89
407.58	2251.60
407.77	2228.19
407.96	2333.51
408.15	2345.22
408.34	2448.20
408.54	2267.98
408.73	2497.35
408.92	2392.03
409.11	2516.08
409.30	2403.73
409.49	2438.84
409.68	2438.84
409.87	2492.67
410.07	2499.69
410.26	2532.46
410.45	2553.52
410.64	2623.74
410.83	2722.04
411.02	2633.10
411.21	2696.30
411.40	2607.36
411.59	2686.94
411.78	2768.85
411.98	2738.43
412.17	2869.50
412.36	2841.41
412.55	2944.39
412.74	2970.14
412.93	3063.76
413.12	2949.08
413.31	3070.78
413.50	3045.04
413.69	3112.91
413.88	3091.85
414.07	3141.00
414.26	3227.60
414.45	3304.84
414.64	3272.07
414.83	3393.78
415.02	3173.77
415.22	3276.75
415.41	3447.61
415.60	3309.52
415.79	3318.88
415.98	3459.31
416.17	3391.44
416.36	3590.38
416.55	3506.12
416.74	3555.27
416.93	3578.68
417.12	3754.22
417.31	3714.43
417.50	3845.50
417.69	3873.59
417.88	3777.62
418.07	3779.97
418.26	3761.24
418.45	3969.55
418.64	4049.13
418.83	3960.19
419.02	3990.61
419.21	4058.49
419.39	4021.04
419.58	4079.55
419.77	3997.64
419.96	3999.98
420.15	4131.05
420.34	4149.77
420.53	4222.33
420.72	4182.54
420.91	4278.50
421.10	4418.93
421.29	4344.03
421.48	4166.15
421.67	4437.66
421.86	4351.06
422.05	4191.90
422.24	4269.14
422.43	4311.27
422.61	4456.38
422.80	4519.57
422.99	4451.70
423.18	4468.08
423.37	4505.53
423.56	4601.49
423.75	4526.60
423.94	4241.05
424.13	4341.69
424.32	4447.02
424.50	4561.70
424.69	4592.13
424.88	4664.69
425.07	4512.55
425.26	4627.24
425.45	4540.64
425.64	4643.62
425.83	4528.94
426.01	4599.15
426.20	4447.02
426.39	4580.43
426.58	4608.51
426.77	4526.60
426.96	4695.11
427.15	4608.51
427.33	4819.16
427.52	4629.58
427.71	4793.42
427.90	4594.47
428.09	4744.27
428.28	4880.02
428.46	4861.29
428.65	4880.02
428.84	5008.75
429.03	5064.92
429.22	4894.06
429.40	4975.98
429.59	4985.34
429.78	4786.40
429.97	4688.09
430.16	4898.74
430.34	5015.77
430.53	5121.09
430.72	5280.25
430.91	5142.16
431.10	5114.07
431.28	5193.65
431.47	5317.70
431.66	5514.30
431.85	5228.76
432.03	5273.23
432.22	5495.58
432.41	5425.36
432.60	5509.62
432.79	5282.59
432.97	5439.40
433.16	5523.66
433.35	5542.39
433.54	5598.56
433.72	5645.37
433.91	5516.64
434.10	5617.29
434.28	5661.76
434.47	5717.93
434.66	5659.42
434.85	5736.65
435.03	5837.30
435.22	5720.27
435.41	6001.13
435.59	5755.38
435.78	5984.75
435.97	5900.49
436.16	5956.66
436.34	5863.04
436.53	6143.91
436.72	6265.61
436.90	5963.68
437.09	5991.77
437.28	5994.11
437.46	6099.44
437.65	6300.72
437.84	6326.47
438.02	6160.29
438.21	6181.35
438.40	6071.35
438.58	6441.15
438.77	6623.72
438.96	6296.04
439.14	6551.16
439.33	6516.05
439.52	6609.67
439.70	6722.02
439.89	6827.34
440.08	6729.04
440.26	6850.75
440.45	6867.13
440.63	7000.54
440.82	6871.81
441.01	6895.22
441.19	7052.03
441.38	7192.47
441.57	7129.27
441.75	7241.62
441.94	7208.85
442.12	7276.73
442.31	7368.01
442.50	7400.77
442.68	7541.21
442.87	7384.39
443.05	7499.08
443.24	7719.09
443.43	7709.72
443.61	7559.93
443.80	7943.78
443.98	7489.71
444.17	7342.26
444.35	7700.36
444.54	8042.08
444.73	7812.71
444.91	7618.44
445.10	7695.68
445.28	7845.48
445.47	7761.22
445.65	7620.78
445.84	7679.30
446.02	7978.89
446.21	7618.44
446.39	7815.05
446.58	7983.57
446.77	7908.67
446.95	7581.00
447.14	7786.96
447.32	7751.85
447.51	7824.41
447.69	7932.08
447.88	7683.98
448.06	7864.20
448.25	7875.90
448.43	7758.88
448.62	7786.96
448.80	7833.77
448.99	7995.27
449.17	8102.93
449.36	7791.64
449.54	7957.82
449.73	8238.69
449.91	8255.07
450.10	8269.11
450.28	8266.77
450.46	8496.14
450.65	8243.37
450.83	8397.84
451.02	8454.02
451.20	8461.04
451.39	8379.12
451.57	8203.58
451.76	8461.04
451.94	8444.65
452.13	8889.35
452.31	8505.51
452.49	8425.93
452.68	8706.79
452.86	8533.59
453.05	8856.59
453.23	8800.41
453.42	8610.83
453.60	8624.87
453.78	8659.98
453.97	8706.79
454.15	8608.49
454.34	8648.28
454.52	9048.51
454.70	9041.49
454.89	9114.05
455.07	9029.79
455.26	9015.74
455.44	9144.47
455.62	9135.11
455.81	9149.15
455.99	9149.15
456.17	9116.39
456.36	9312.99
456.54	9167.88
456.73	9408.95
456.91	9767.06
457.09	9694.50
457.28	9722.59
457.46	9320.01
457.64	9617.26
457.83	9788.12
458.01	9640.67
458.19	9863.02
458.38	9757.69
458.56	9926.21
458.74	9792.80
458.93	9902.81
459.11	9982.38
459.29	10038.56
459.48	9984.73
459.66	10186.01
459.84	9975.36
460.03	10380.28
460.21	9982.38
460.39	10066.64
460.57	10104.09
460.76	10267.93
460.94	10326.44
461.12	10310.06
461.31	10345.17
461.49	10340.49
461.67	10347.51
461.85	10527.73
462.04	10380.28
462.22	10527.73
462.40	10619.01
462.59	10630.71
462.77	10640.08
462.95	10637.73
463.13	10572.20
463.32	10738.38
463.50	10927.96
463.68	10726.68
463.86	10820.30
464.05	10869.45
464.23	10684.55
464.41	10731.36
464.59	10768.80
464.78	11145.63
464.96	11056.69
465.14	10766.46
465.32	11061.37
465.50	11461.60
465.69	10942.00
465.87	11035.63
466.05	11122.23
466.23	11089.46
466.41	11183.08
466.60	11573.95
466.78	11211.17
466.96	11255.64
467.14	11166.70
467.32	11367.98
467.51	11267.34
467.69	11218.19
467.87	11499.05
468.05	11503.73
468.23	11346.92
468.41	11506.07
468.60	11522.46
468.78	11716.72
468.96	11548.20
469.14	11761.19
469.32	11927.37
469.50	11548.20
469.69	12079.50
469.87	11985.88
470.05	12133.34
470.23	12004.61
470.41	11838.43
470.59	12189.51
470.77	11999.93
470.95	12030.35
471.14	12442.29
471.32	12224.62
471.50	12472.71
471.68	12472.71
471.86	12472.71
472.04	12449.31
472.22	12989.97
472.40	12624.85
472.58	12517.18
472.77	12484.42
472.95	12856.56
473.13	13163.17
473.31	12795.71
473.49	12924.44
473.67	13184.24
473.85	13357.44
474.03	13570.43
474.21	13530.64
474.39	13425.31
474.57	13572.77
474.75	13565.74
474.93	13757.67
475.12	13563.40
475.30	13748.31
475.48	13687.45
475.66	13942.57
475.84	13907.46
476.02	14221.10
476.20	14143.86
476.38	14181.31
476.56	14375.57
476.74	14464.51
476.92	14621.33
477.10	14618.99
477.28	14864.74
477.46	14848.36
477.64	14862.40
477.82	15136.24
478.00	15234.55
478.18	15662.86
478.36	15524.77
478.54	15845.43
478.72	15850.11
478.90	16004.58
479.08	16135.65
479.26	16161.40
479.44	16119.27
479.62	16402.47
479.80	16479.71
479.98	16397.79
480.16	16910.37
480.34	16666.95
480.52	16898.67
480.70	17064.85
480.88	16924.41
481.06	17345.71
481.24	17242.73
481.41	17544.66
481.59	17839.56
481.77	17816.16
481.95	18040.85
482.13	18061.91
482.31	17942.55
482.49	18462.15
482.67	18579.17
482.85	18562.79
483.03	18766.42
483.21	19103.45
483.39	19190.05
483.57	19318.78
483.74	19445.17
483.92	19538.79
484.10	19419.42
484.28	19826.68
484.46	20212.87
484.64	20561.61
484.82	20112.22
485.00	19978.81
485.18	20643.52
485.35	21137.38
485.53	21025.03
485.71	20854.17
485.89	21387.82
486.07	21432.29
486.25	21551.65
486.43	21996.35
486.61	21886.35
486.78	21972.95
486.96	22075.93
487.14	22658.73
487.32	22218.71
487.50	22684.47
487.68	22768.73
487.85	23239.18
488.03	23381.95
488.21	23618.35
488.39	23503.66
488.57	23730.69
488.75	24147.31
488.92	24306.46
489.10	24421.15
489.28	24484.34
489.46	25088.20
489.64	24599.03
489.81	25418.22
489.99	25472.05
490.17	25256.72
490.35	25797.38
490.53	25748.23
490.70	26155.49
490.88	25951.86
491.06	26223.36
491.24	25989.31
491.41	26176.55
491.59	26859.99
491.77	26944.25
491.95	27190.00
492.13	27197.02
492.30	27323.41
492.48	27367.88
492.66	27543.42
492.84	27688.54
493.01	27847.69
493.19	28072.39
493.37	28531.13
493.54	28472.62
493.72	28837.74
493.90	28549.85
494.08	29268.40
494.25	29378.40
494.43	29502.45
494.61	29708.42
494.79	29575.01
494.96	29495.43
495.14	29752.89
495.32	30078.22
495.49	30506.54
495.67	30185.89
495.85	30878.69
496.02	30925.50
496.20	30843.58
496.38	30925.50
496.55	31033.16
496.73	31913.20
496.91	31604.25
497.09	31772.77
497.26	31999.80
497.44	31735.32
497.62	32275.99
497.79	32180.03
497.97	32446.85
498.14	32510.04
498.32	32933.68
498.50	32954.74
498.67	33230.93
498.85	32790.91
499.03	33577.33
499.20	33247.31
499.38	33455.62
499.56	33202.84
499.73	34117.99
499.91	33797.34
500.08	34155.44
500.26	34015.01
500.44	34565.03
500.61	34302.89
500.79	34436.30
500.97	35007.39
501.14	35257.83
501.32	34658.65
501.49	35395.92
501.67	35129.10
501.84	35143.14
502.02	35526.99
502.20	35522.31
502.37	35718.92
502.55	36058.29
502.72	35896.80
502.90	35894.46
503.07	35651.04
503.25	36294.69
503.43	35730.62
503.60	36634.06
503.78	37034.30
503.95	36577.89
504.13	36797.90
504.30	37134.94
504.48	36996.85
504.65	37191.11
504.83	37514.11
505.01	37642.84
505.18	37883.91
505.36	38022.00
505.53	37467.30
505.71	37755.18
505.88	37956.47
506.06	37708.37
506.23	38506.49
506.41	38061.79
506.58	38129.67
506.76	38452.66
506.93	38845.87
507.11	38394.15
507.28	38553.30
507.46	38658.63
507.63	39154.82
507.81	39428.66
507.98	39002.69
508.16	39229.72
508.33	39068.22
508.50	39438.03
508.68	39541.01
508.85	40069.97
509.03	39868.69
509.20	40161.25
509.38	40268.92
509.55	40575.53
509.73	40374.24
509.90	40261.90
510.08	40058.27
510.25	40727.66
510.42	41076.40
510.60	40973.42
510.77	41249.60
510.95	41317.48
511.12	40856.39
511.30	40645.74
511.47	40966.40
511.64	41125.55
511.82	41806.65
511.99	41954.10
512.17	42349.65
512.34	42127.30
512.51	42162.41
512.69	42029.00
512.86	42328.59
513.04	42527.53
513.21	42539.24
513.38	42843.51
513.56	43098.62
513.73	42572.00
513.90	42789.67
514.08	42759.25
514.25	43084.58
514.43	42895.00
514.60	43133.73
514.77	43309.27
514.95	43700.14
515.12	43110.33
515.29	43278.85
515.47	43922.49
515.64	43732.91
515.81	43826.53
515.99	44198.68
516.16	44657.42
516.33	44006.75
516.51	44273.57
516.68	44315.70
516.85	44364.85
517.03	44687.85
517.20	44519.33
517.37	44701.89
517.54	44978.07
517.72	44683.17
517.89	44526.35
518.06	44823.60
518.24	44926.58
518.41	44701.89
518.58	45174.68
518.75	45329.16
518.93	45567.89
519.10	45656.83
519.27	45476.61
519.45	45455.54
519.62	45319.79
519.79	45411.07
519.96	45968.12
520.14	46066.42
520.31	45713.00
520.48	46204.52
520.65	46279.41
520.83	46447.93
521.00	46358.99
521.17	46096.85
521.34	46143.66
521.52	46211.54
521.69	46932.42
521.86	46883.27
522.03	46972.21
522.20	47110.30
522.38	47082.22
522.55	46934.76
522.72	47278.82
522.89	46979.23
523.07	47517.56
523.24	47466.06
523.41	47533.94
523.58	47707.14
523.75	47885.02
523.92	47573.73
524.10	47721.18
524.27	47538.62
524.44	48044.18
524.61	48299.30
524.78	48236.10
524.96	48360.15
525.13	48144.82
525.30	48720.59
525.47	48528.67
525.64	48240.78
525.81	48669.10
525.98	48912.52
526.16	48835.28
526.33	48912.52
526.50	49188.70
526.67	48889.11
526.84	48793.15
527.01	48966.35
527.18	48772.08
527.36	48942.94
527.53	48933.58
527.70	49401.69
527.87	49415.73
528.04	49169.97
528.21	49378.28
528.38	49120.82
528.55	49921.29
528.72	49474.24
528.89	49448.50
529.07	49736.38
529.24	49382.96
529.41	49813.62
529.58	49998.52
529.75	49638.08
529.92	49698.94
530.09	49516.37
530.26	50089.80
530.43	50209.17
530.60	49949.37
530.77	49783.19
530.94	50396.42
531.11	50356.63
531.28	50167.04
531.46	50096.83
531.63	50696.00
531.80	50670.26
531.97	50548.55
532.14	50843.46
532.31	50763.88
532.48	50834.10
532.65	50937.08
532.82	50611.74
532.99	50602.38
533.16	50656.21
533.33	51276.46
533.50	51583.07
533.67	51105.60
533.84	50974.53
534.01	51327.95
534.18	50803.67
534.35	51248.37
534.52	51014.32
534.69	51079.85
534.86	51569.02
535.03	51615.83
535.20	51262.41
535.37	51664.99
535.54	51482.42
535.71	51365.40
535.88	51547.96
536.05	51760.95
536.22	51723.50
536.38	51569.02
536.55	51491.79
536.72	52172.88
536.89	51856.91
537.06	51590.09
537.23	51941.17
537.40	51679.03
537.57	51882.66
537.74	52013.73
537.91	52294.59
538.08	52355.44
538.25	51868.61
538.42	52303.95
538.59	52451.41
538.75	51992.66
538.92	52313.31
539.09	52158.84
539.26	52306.29
539.43	52446.72
539.60	52741.63
539.77	52474.81
539.94	52584.82
540.11	52648.01
540.28	52577.79
540.44	52535.66
540.61	52601.20
540.78	52617.58
540.95	52853.98
541.12	52575.45
541.29	52704.18
541.46	52596.52
541.62	52725.25
541.79	52917.17
541.96	52378.85
542.13	52636.31
542.30	52968.66
542.47	53338.47
542.63	53263.57
542.80	53279.96
542.97	53469.54
543.14	53492.94
543.31	53258.89
543.48	53373.58
543.64	53659.12
543.81	53722.32
543.98	53748.06
544.15	53731.68
544.32	53471.88
544.48	54073.40
544.65	53558.48
544.82	53696.57
544.99	53429.75
545.16	53815.94
545.32	53478.90
545.49	54220.85
545.66	54248.94
545.83	54138.93
546.00	54038.29
546.16	53996.16
546.33	53773.81
546.50	53680.19
546.67	54225.53
546.83	53778.49
547.00	54117.87
547.17	54145.95
547.34	54335.54
547.50	54192.76
547.67	54342.56
547.84	54394.05
548.00	54401.07
548.17	54520.44
548.34	54361.28
548.51	54300.43
548.67	54506.40
548.84	54408.09
549.01	54312.13
549.18	54391.71
549.34	54375.33
549.51	54241.92
549.68	54639.81
549.84	54387.03
550.01	54719.38
550.18	54417.46
550.34	54857.48
550.51	54756.83
550.68	54775.56
550.84	54326.17
551.01	54796.62
551.18	54511.08
551.34	54602.36
551.51	54382.35
551.68	54841.09
551.84	54770.88
552.01	54738.11
552.18	54958.12
552.34	54630.44
552.51	54759.17
552.68	54672.57
552.84	54866.84
553.01	55089.19
553.18	54871.52
553.34	55199.19
553.51	55107.91
553.67	54958.12
553.84	55262.39
554.01	55171.11
554.17	55173.45
554.34	55131.32
554.51	55302.18
554.67	55140.68
554.84	55058.76
555.00	55264.73
555.17	55164.09
555.33	55201.53
555.50	55473.04
555.67	55264.73
555.83	55327.92
556.00	55283.45
556.16	55660.28
556.33	55175.79
556.50	55281.11
556.66	55508.14
556.83	55351.33
556.99	55487.08
557.16	55877.95
557.32	55557.30
557.49	55639.22
557.65	55416.86
557.82	55683.69
557.98	55601.77
558.15	55414.52
558.32	55714.11
558.48	55517.51
558.65	55929.44
558.81	55564.32
558.98	55632.19
559.14	55971.57
559.31	55807.73
559.47	55592.40
559.64	55772.63
559.80	55980.93
559.97	55847.52
560.13	55571.34
560.30	55765.60
560.46	55875.61
560.63	55863.91
560.79	55779.65
560.96	55901.36
561.12	55543.25
561.29	55856.88
561.45	55866.25
561.61	55777.31
561.78	56107.32
561.94	56093.28
562.11	56018.38
562.27	55833.48
562.44	55955.19
562.60	55941.14
562.77	56217.33
562.93	55983.27
563.10	56032.42
563.26	55927.10
563.42	56292.22
563.59	56074.55
563.75	56149.45
563.92	56257.12
564.08	56292.22
564.24	55985.61
564.41	55683.69
564.57	55922.42
564.74	56231.37
564.90	56016.04
565.07	56119.02
565.23	56186.90
565.39	56133.07
565.56	56250.09
565.72	56123.71
565.88	56097.96
566.05	56090.94
566.21	55805.39
566.38	56009.02
566.54	56236.05
566.70	56285.20
566.87	56505.21
567.03	56149.45
567.19	56493.51
567.36	56179.88
567.52	56016.04
567.68	56126.05
567.85	55943.48
568.01	56243.07
568.17	56409.25
568.34	56362.44
568.50	56191.58
568.66	56472.45
568.83	56140.09
568.99	56128.39
569.15	56236.05
569.32	56179.88
569.48	56135.41
569.64	56261.80
569.81	56332.01
569.97	56320.31
570.13	56383.51
570.30	56151.79
570.46	56626.92
570.62	56418.61
570.78	56498.19
570.95	56275.84
571.11	56364.78
571.27	55903.70
571.43	56236.05
571.60	56706.50
571.76	56509.89
571.92	56484.15
572.09	56839.91
572.25	56261.80
572.41	56268.82
572.57	56549.68
572.74	56528.62
572.90	56383.51
573.06	56591.81
573.22	56413.93
573.38	56346.06
573.55	56341.38
573.71	56757.99
573.87	56823.53
574.03	56329.67
574.20	56655.01
574.36	56456.06
574.52	56603.52
574.68	56343.72
574.84	56402.23
575.01	56376.48
575.17	56640.96
575.33	56329.67
575.49	56615.22
575.65	56814.16
575.82	56720.54
575.98	56416.27
576.14	56601.18
576.30	56385.85
576.46	56662.03
576.62	56392.87
576.79	56694.80
576.95	56226.69
577.11	56664.37
577.27	56697.14
577.43	56404.57
577.59	56516.92
577.75	56605.86
577.92	56280.52
578.08	56624.58
578.24	56376.48
578.40	56535.64
578.56	56561.39
578.72	56404.57
578.88	56807.14
579.04	56797.78
579.21	56556.70
579.37	56575.43
579.53	56868.00
579.69	56423.29
579.85	56603.52
580.01	56439.68
580.17	56601.18
580.33	56259.46
580.49	56563.73
580.65	56647.99
580.82	56886.72
580.98	56631.60
581.14	56736.93
581.30	56816.50
581.46	56568.41
581.62	56495.85
581.78	56310.95
581.94	56692.46
582.10	56566.07
582.26	56713.52
582.42	56491.17
582.58	56956.94
582.74	56992.04
582.90	56935.87
583.06	56793.10
583.22	56540.32
583.38	56566.07
583.54	56718.20
583.70	56825.87
583.86	56416.27
584.02	56467.76
584.18	56781.40
584.34	56804.80
584.50	56870.34
584.66	56640.96
584.82	56573.09
584.98	56629.26
585.14	56509.89
585.30	56507.55
585.46	56678.41
585.62	56619.90
585.78	56905.44
585.94	56484.15
586.10	56685.43
586.26	56727.56
586.42	56690.12
586.58	56701.82
586.74	56549.68
586.90	56507.55
587.06	56472.45
587.22	56875.02
587.38	56423.29
587.54	56825.87
587.70	56739.27
587.86	56879.70
588.02	56860.97
588.18	56828.21
588.34	56903.10
588.49	56832.89
588.65	56556.70
588.81	56568.41
588.97	56678.41
589.13	56868.00
589.29	56673.73
589.45	56673.73
589.61	56622.24
