SpectraSuite Data File
++++++++++++++++++++++++++++++++++++
Date: Fri Oct 18 13:55:22 GMT-05:00 2013
User: bianchi
Dark Spectrum Present: No
Reference Spectrum Present: No
Number of Sampled Component Spectra: 1
Spectrometers: USB2+H05261
Integration Time (usec): 100000 (USB2+H05261)
Spectra Averaged: 1 (USB2+H05261)
Boxcar Smoothing: 0 (USB2+H05261)
Correct for Electrical Dark: No (USB2+H05261)
Strobe/Lamp Enabled: No (USB2+H05261)
Correct for Detector Non-linearity: No (USB2+H05261)
Correct for Stray Light: No (USB2+H05261)
Number of Pixels in Processed Spectrum: 2048
>>>>>Begin Processed Spectral Data<<<<<
365.73	0.00
365.92	0.00
366.12	0.00
366.32	0.00
366.52	0.00
366.72	0.00
366.91	0.00
367.11	0.00
367.31	0.00
367.51	0.00
367.70	0.00
367.90	0.00
368.10	0.00
368.30	0.00
368.49	0.00
368.69	0.00
368.89	0.00
369.09	0.00
369.28	0.00
369.48	0.00
369.68	0.00
369.87	0.00
370.07	0.00
370.27	0.00
370.47	0.00
370.66	205.97
370.86	325.33
371.06	360.44
371.25	381.51
371.45	285.55
371.65	411.93
371.84	257.46
372.04	388.53
372.24	341.72
372.44	374.49
372.63	367.46
372.83	500.87
373.03	425.98
373.22	517.26
373.42	451.72
373.62	470.45
373.81	489.17
374.01	545.34
374.21	547.69
374.40	479.81
374.60	447.04
374.79	468.11
374.99	491.51
375.19	493.85
375.38	564.07
375.58	521.94
375.78	533.64
375.97	545.34
376.17	613.22
376.37	571.09
376.56	496.19
376.76	512.58
376.95	540.66
377.15	566.41
377.35	592.16
377.54	571.09
377.74	589.82
377.93	559.39
378.13	631.94
378.33	491.51
378.52	627.26
378.72	585.13
378.91	664.71
379.11	571.09
379.31	514.92
379.50	615.56
379.70	636.63
379.89	587.47
380.09	613.22
380.28	615.56
380.48	655.35
380.68	653.01
380.87	578.11
381.07	653.01
381.26	706.84
381.46	592.16
381.65	685.78
381.85	629.60
382.04	730.25
382.24	711.52
382.43	636.63
382.63	615.56
382.83	697.48
383.02	650.67
383.22	711.52
383.41	753.65
383.61	655.35
383.80	903.45
384.00	795.78
384.19	739.61
384.39	765.36
384.58	741.95
384.78	716.20
384.97	784.08
385.17	763.01
385.36	781.74
385.56	793.44
385.75	784.08
385.95	793.44
386.14	814.51
386.34	816.85
386.53	866.00
386.72	856.64
386.92	863.66
387.11	924.51
387.31	898.77
387.50	919.83
387.70	889.40
387.89	875.36
388.09	807.48
388.28	858.98
388.48	837.91
388.67	983.02
388.86	905.79
389.06	889.40
389.25	889.40
389.45	961.96
389.64	896.43
389.84	966.64
390.03	994.73
390.22	1015.79
390.42	1057.92
390.61	947.92
390.81	1046.22
391.00	1076.65
391.19	1057.92
391.39	1020.47
391.58	1001.75
391.78	1093.03
391.97	1083.67
392.16	1081.33
392.36	1076.65
392.55	1137.50
392.75	1188.99
392.94	1158.57
393.13	1081.33
393.33	1013.45
393.52	1114.10
393.71	1188.99
393.91	1151.54
394.10	1196.01
394.29	1212.40
394.49	1212.40
394.68	1219.42
394.88	1270.91
395.07	1270.91
395.26	1284.95
395.46	1313.04
395.65	1350.49
395.84	1228.78
396.04	1334.11
396.23	1256.87
396.42	1306.02
396.62	1394.96
396.81	1350.49
397.00	1373.89
397.19	1348.15
397.39	1371.55
397.58	1455.81
397.77	1334.11
397.97	1451.13
398.16	1486.24
398.35	1497.94
398.55	1504.96
398.74	1533.05
398.93	1490.92
399.12	1640.72
399.32	1441.77
399.51	1441.77
399.70	1626.67
399.90	1528.37
400.09	1533.05
400.28	1682.85
400.47	1514.33
400.67	1596.25
400.86	1535.39
401.05	1619.65
401.24	1696.89
401.44	1717.95
401.63	1682.85
401.82	1666.46
402.01	1708.59
402.21	1661.78
402.40	1732.00
402.59	1823.28
402.78	1816.26
402.97	1874.77
403.17	1816.26
403.36	1774.13
403.55	1865.41
403.74	1930.94
403.93	1895.83
404.13	1954.35
404.32	1982.43
404.51	1907.54
404.70	2008.18
404.89	1949.67
405.09	1987.11
405.28	1998.82
405.47	1930.94
405.66	2069.03
405.85	2092.44
406.05	2143.93
406.24	2078.40
406.43	2022.22
406.62	2122.87
406.81	2139.25
407.00	2160.31
407.20	2207.13
407.39	2312.45
407.58	2167.34
407.77	2289.04
407.96	2321.81
408.15	2359.26
408.34	2282.02
408.54	2256.28
408.73	2427.14
408.92	2326.49
409.11	2480.97
409.30	2466.92
409.49	2471.61
409.68	2480.97
409.87	2452.88
410.07	2579.27
410.26	2553.52
410.45	2544.16
410.64	2544.16
410.83	2642.46
411.02	2759.49
411.21	2700.98
411.40	2818.00
411.59	2818.00
411.78	2684.59
411.98	2661.19
412.17	2832.05
412.36	2920.99
412.55	2881.20
412.74	2869.50
412.93	2890.56
413.12	2923.33
413.31	3066.10
413.50	2892.90
413.69	3059.08
413.88	3265.05
414.07	3049.72
414.26	3094.19
414.45	3206.53
414.64	3141.00
414.83	3321.22
415.02	3351.65
415.22	3353.99
415.41	3471.01
415.60	3386.76
415.79	3449.95
415.98	3492.08
416.17	3559.95
416.36	3513.14
416.55	3581.02
416.74	3684.00
416.93	3702.73
417.12	3688.68
417.31	3861.88
417.50	3782.31
417.69	3812.73
417.88	3744.86
418.07	3803.37
418.26	3880.61
418.45	3908.69
418.64	4028.06
418.83	4014.02
419.02	3932.10
419.21	4081.89
419.39	4056.15
419.58	3957.85
419.77	4018.70
419.96	4187.22
420.15	4201.26
420.34	4119.34
420.53	4227.01
420.72	4269.14
420.91	4175.52
421.10	4231.69
421.29	4421.27
421.48	4269.14
421.67	4374.46
421.86	4210.62
422.05	4472.76
422.24	4416.59
422.43	4191.90
422.61	4416.59
422.80	4484.47
422.99	4318.29
423.18	4505.53
423.37	4447.02
423.56	4624.90
423.75	4269.14
423.94	4407.23
424.13	4065.51
424.32	4428.29
424.50	4557.02
424.69	4667.03
424.88	4580.43
425.07	4432.97
425.26	4442.34
425.45	4571.07
425.64	4493.83
425.83	4528.94
426.01	4641.28
426.20	4538.30
426.39	4608.51
426.58	4669.37
426.77	4657.67
426.96	4627.24
427.15	4582.77
427.33	4667.03
427.52	4681.07
427.71	4868.31
427.90	4819.16
428.09	4966.62
428.28	4849.59
428.46	4870.65
428.65	4903.42
428.84	5085.98
429.03	5013.43
429.22	4954.91
429.40	5020.45
429.59	5247.48
429.78	4917.47
429.97	4891.72
430.16	5032.15
430.34	5100.03
430.53	5277.91
430.72	5130.45
430.91	5296.63
431.10	5224.08
431.28	5329.40
431.47	5266.21
431.66	5434.72
431.85	5184.29
432.03	5430.04
432.22	5371.53
432.41	5411.32
432.60	5394.93
432.79	5338.76
432.97	5301.31
433.16	5671.12
433.35	5558.77
433.54	5568.13
433.72	5619.63
433.91	5593.88
434.10	5710.91
434.28	5591.54
434.47	5586.86
434.66	5633.67
434.85	5755.38
435.03	5846.66
435.22	5813.89
435.41	6090.07
435.59	5783.46
435.78	5696.86
435.97	5944.96
436.16	6040.92
436.34	5895.81
436.53	5858.36
436.72	6282.00
436.90	5928.58
437.09	6087.73
437.28	6076.03
437.46	6069.01
437.65	6059.65
437.84	6258.59
438.02	6111.14
438.21	6277.32
438.40	6209.44
438.58	6354.55
438.77	6373.28
438.96	6354.55
439.14	6609.67
439.33	6677.55
439.52	6546.48
439.70	6614.35
439.89	6808.62
440.08	6705.63
440.26	6825.00
440.45	6958.41
440.63	6960.75
440.82	6892.88
441.01	7183.10
441.19	7070.76
441.38	7199.49
441.57	7267.36
441.75	7241.62
441.94	7321.20
442.12	7272.04
442.31	7370.35
442.50	7279.07
442.68	7527.16
442.87	7297.79
443.05	7403.11
443.24	7510.78
443.43	7309.49
443.61	7524.82
443.80	7536.52
443.98	7365.67
444.17	7293.11
444.35	7459.29
444.54	7705.04
444.73	7737.81
444.91	7604.40
445.10	7894.63
445.28	7887.61
445.47	7644.19
445.65	7786.96
445.84	8051.44
446.02	7875.90
446.21	7819.73
446.39	7775.26
446.58	7817.39
446.77	7716.75
446.95	7728.45
447.14	7784.62
447.32	7934.42
447.51	7719.09
447.69	7854.84
447.88	7838.45
448.06	7747.17
448.25	7735.47
448.43	7805.69
448.62	7911.01
448.80	7995.27
448.99	7798.66
449.17	8025.70
449.36	7911.01
449.54	8262.09
449.73	8290.18
449.91	8374.44
450.10	8114.64
450.28	8491.46
450.46	8315.92
450.65	8173.15
450.83	8514.87
451.02	8491.46
451.20	8456.36
451.39	8250.39
451.57	8353.37
451.76	8381.46
451.94	8505.51
452.13	8559.34
452.31	8746.58
452.49	8395.50
452.68	8669.34
452.86	8734.88
453.05	8706.79
453.23	8681.05
453.42	8667.00
453.60	8706.79
453.78	8894.04
453.97	8695.09
454.15	8725.52
454.34	8737.22
454.52	8978.30
454.70	9067.24
454.89	8891.70
455.07	9062.55
455.26	8952.55
455.44	9303.63
455.62	9221.71
455.81	9226.39
455.99	9329.38
456.17	9369.16
456.36	9277.88
456.54	9518.96
456.73	9504.92
456.91	9523.64
457.09	9647.69
457.28	9741.31
457.46	9598.54
457.64	9703.86
457.83	9790.46
458.01	9565.77
458.19	9748.33
458.38	9734.29
458.56	9799.82
458.74	9940.26
458.93	9928.55
459.11	9951.96
459.29	9912.17
459.48	9811.53
459.66	9958.98
459.84	10071.33
460.03	10424.75
460.21	10155.58
460.39	10162.61
460.57	10008.13
460.76	10045.58
460.94	10317.08
461.12	10249.21
461.31	10366.23
461.49	10265.59
461.67	10509.01
461.85	10562.84
462.04	10237.50
462.22	10539.43
462.40	10485.60
462.59	10647.10
462.77	10696.25
462.95	10628.37
463.13	10640.08
463.32	10806.25
463.50	10471.56
463.68	10785.19
463.86	10822.64
464.05	10649.44
464.23	10782.85
464.41	10864.77
464.59	10651.78
464.78	11077.76
464.96	11021.58
465.14	10717.31
465.32	11187.76
465.50	11283.72
465.69	11257.98
465.87	10944.34
466.05	11087.12
466.23	11147.97
466.41	11255.64
466.60	11463.94
466.78	11243.93
466.96	11037.97
467.14	10993.50
467.32	11414.79
467.51	11454.58
467.69	11197.12
467.87	11398.41
468.05	11515.44
468.23	11398.41
468.41	11234.57
468.60	11527.14
468.78	11784.60
468.96	11538.84
469.14	12060.78
469.32	11871.20
469.50	11492.03
469.69	12035.03
469.87	11953.12
470.05	12081.85
470.23	11843.11
470.41	12243.34
470.59	11981.20
470.77	11981.20
470.95	11920.35
471.14	12367.39
471.32	12042.06
471.50	12561.66
471.68	12299.52
471.86	12425.90
472.04	12596.76
472.22	12896.35
472.40	12540.59
472.58	12601.44
472.77	12666.98
472.95	12863.58
473.13	13568.09
473.31	12922.10
473.49	12879.97
473.67	12966.57
473.85	12961.89
474.03	13198.28
474.21	13504.89
474.39	13422.97
474.57	13437.02
474.75	13516.59
474.93	13675.75
475.12	13624.26
475.30	13760.01
475.48	13935.55
475.66	13970.66
475.84	14127.47
476.02	14380.25
476.20	14083.00
476.38	14703.25
476.56	14506.64
476.74	14724.31
476.92	14553.45
477.10	14525.36
477.28	14712.61
477.46	14998.15
477.64	15171.35
477.82	15215.82
478.00	15389.02
478.18	15440.51
478.36	15431.15
478.54	15569.24
478.72	15690.95
478.90	16009.26
479.08	16063.10
479.26	16226.93
479.44	16240.98
479.62	16229.27
479.80	16552.27
479.98	16688.02
480.16	16931.44
480.34	16741.85
480.52	16966.54
480.70	17043.78
480.88	16676.32
481.06	17118.68
481.24	16910.37
481.41	17235.70
481.59	17649.98
481.77	17937.87
481.95	18141.49
482.13	17954.25
482.31	18017.44
482.49	18321.71
482.67	18377.89
482.85	18595.56
483.03	19117.50
483.21	19056.64
483.39	19077.71
483.57	19145.58
483.74	19517.73
483.92	19494.32
484.10	19632.41
484.28	20037.33
484.46	19988.18
484.64	20339.26
484.82	20304.15
485.00	20168.40
485.18	20858.85
485.35	20966.52
485.53	21116.31
485.71	21025.03
485.89	21809.11
486.07	21406.54
486.25	21188.87
486.43	21645.27
486.61	21745.92
486.78	22141.47
486.96	22134.45
487.14	22553.40
487.32	22394.25
487.50	22539.36
487.68	22923.21
487.85	22979.38
488.03	23569.19
488.21	23838.36
488.39	23660.48
488.57	23983.47
488.75	23852.40
488.92	23885.17
489.10	24346.25
489.28	24393.06
489.46	24833.08
489.64	25053.09
489.81	25046.07
489.99	24900.96
490.17	25263.74
490.35	25771.64
490.53	25362.04
490.70	26015.05
490.88	25848.88
491.06	26546.36
491.24	26143.78
491.41	26546.36
491.59	27122.13
491.77	26544.02
491.95	27295.33
492.13	27084.68
492.30	27080.00
492.48	27555.13
492.66	27360.86
492.84	27683.86
493.01	27784.50
493.19	28004.51
493.37	28332.18
493.54	28360.27
493.72	28842.42
493.90	28683.27
494.08	28833.06
494.25	29366.70
494.43	29163.08
494.61	29888.64
494.79	29713.10
494.96	29706.08
495.14	29731.83
495.32	30380.15
495.49	30373.13
495.67	30738.26
495.85	30920.82
496.02	30927.84
496.20	30892.73
496.38	30953.58
496.55	31009.76
496.73	31824.26
496.91	31737.66
497.09	31842.99
497.26	32240.88
497.44	32030.23
497.62	31765.75
497.79	32521.74
497.97	32409.40
498.14	33015.60
498.32	33041.34
498.50	33123.26
498.67	33153.69
498.85	32971.13
499.03	32863.46
499.20	33179.43
499.38	33724.78
499.56	33867.55
499.73	34085.22
499.91	34211.61
500.08	34153.10
500.26	33778.61
500.44	34188.21
500.61	34618.86
500.79	34167.14
500.97	34700.78
501.14	35524.65
501.32	34892.71
501.49	35023.78
501.67	35454.44
501.84	35409.96
502.02	35648.70
502.20	35995.10
502.37	35957.65
502.55	35388.90
502.72	35943.61
502.90	35770.41
503.07	35817.22
503.25	36158.94
503.43	36126.17
503.60	36430.44
503.78	36699.60
503.95	36591.94
504.13	36938.33
504.30	36910.25
504.48	36889.18
504.65	37074.09
504.83	37347.93
505.01	37940.08
505.18	37619.43
505.36	37991.58
505.53	37872.21
505.71	38153.07
505.88	37923.70
506.06	37471.98
506.23	38415.21
506.41	37778.59
506.58	38316.91
506.76	38525.22
506.93	38670.33
507.11	38295.85
507.28	39056.52
507.46	38464.36
507.63	39096.31
507.81	39498.88
507.98	39292.91
508.16	39138.44
508.33	39255.46
508.50	39782.09
508.68	39627.61
508.85	40041.88
509.03	39950.60
509.20	40163.59
509.38	40449.14
509.55	40781.49
509.73	40325.09
509.90	40311.05
510.08	40620.00
510.25	40474.88
510.42	40877.46
510.60	40989.80
510.77	41305.77
510.95	41193.43
511.12	40917.25
511.30	41076.40
511.47	41883.89
511.64	42057.09
511.82	41750.48
511.99	41666.22
512.17	41872.18
512.34	41933.04
512.51	41963.46
512.69	42101.56
512.86	42494.77
513.04	42471.36
513.21	42794.36
513.38	42937.13
513.56	42831.80
513.73	42658.60
513.90	43143.09
514.08	42796.70
514.25	43079.90
514.43	43391.19
514.60	43182.88
514.77	43316.29
514.95	43789.08
515.12	43206.29
515.29	43384.17
515.47	43840.57
515.64	44048.88
515.81	43732.91
515.99	44172.93
516.16	44144.84
516.33	44296.98
516.51	44575.50
516.68	44116.76
516.85	44683.17
517.03	44666.78
517.20	44390.60
517.37	44168.25
517.54	45191.06
517.72	44849.35
517.89	44985.10
518.06	44947.65
518.24	44678.49
518.41	44992.12
518.58	45160.64
518.75	45397.03
518.93	45684.92
519.10	45682.58
519.27	45909.61
519.45	45530.44
519.62	45696.62
519.79	45780.88
519.96	45581.93
520.14	45982.16
520.31	45916.63
520.48	46461.97
520.65	45626.40
520.83	46597.73
521.00	46387.08
521.17	46529.85
521.34	46153.02
521.52	46321.54
521.69	46705.39
521.86	46850.50
522.03	46857.52
522.20	46887.95
522.38	46997.96
522.55	47021.36
522.72	47147.75
522.89	47306.91
523.07	47391.17
523.24	47110.30
523.41	47639.26
523.58	47372.44
523.75	47445.00
523.92	47393.51
524.10	48058.22
524.27	47924.81
524.44	47756.29
524.61	48224.40
524.78	48311.00
524.96	48247.80
525.13	48107.37
525.30	48016.09
525.47	48133.12
525.64	48273.55
525.81	48947.62
525.98	48992.09
526.16	48762.72
526.33	48350.79
526.50	49130.19
526.67	48683.14
526.84	48933.58
527.01	48832.94
527.18	49029.54
527.36	48877.41
527.53	49364.24
527.70	49251.89
527.87	49261.26
528.04	49446.16
528.21	49397.01
528.38	49670.85
528.55	49382.96
528.72	49450.84
528.89	49675.53
529.07	49570.21
529.24	49469.56
529.41	49869.79
529.58	49851.07
529.75	49511.69
529.92	49680.21
530.09	49432.11
530.26	49979.80
530.43	50349.60
530.60	50010.23
530.77	50171.72
530.94	49865.11
531.11	50129.59
531.28	50234.92
531.46	50520.46
531.63	50305.13
531.80	50705.37
531.97	50782.60
532.14	50887.93
532.31	50597.70
532.48	50506.42
532.65	50728.77
532.82	50543.87
532.99	50618.77
533.16	50791.97
533.33	50965.17
533.50	51311.56
533.67	51217.94
533.84	51079.85
534.01	50871.54
534.18	51145.39
534.35	51323.27
534.52	51136.02
534.69	51323.27
534.86	51503.49
535.03	51196.88
535.20	51753.93
535.37	51349.01
535.54	51489.45
535.71	51241.35
535.88	51229.65
536.05	51622.86
536.22	51936.49
536.38	51789.03
536.55	51571.36
536.72	51800.74
536.89	51655.62
537.06	51606.47
537.23	51807.76
537.40	51423.91
537.57	52116.71
537.74	52069.90
537.91	52315.65
538.08	52196.29
538.25	52222.03
538.42	52144.80
538.59	51931.81
538.75	52280.55
538.92	52388.21
539.09	52322.68
539.26	52458.43
539.43	52425.66
539.60	52430.34
539.77	52694.82
539.94	52697.16
540.11	52622.26
540.28	52638.65
540.44	52650.35
540.61	52453.75
540.78	52535.66
540.95	52793.12
541.12	52741.63
541.29	52725.25
541.46	52708.86
541.62	52706.52
541.79	52989.73
541.96	52449.06
542.13	53123.14
542.30	53109.10
542.47	53265.91
542.63	53219.10
542.80	52947.60
542.97	53354.85
543.14	53598.27
543.31	53116.12
543.48	53354.85
543.64	53609.97
543.81	53776.15
543.98	53797.21
544.15	53642.74
544.32	53984.46
544.48	53581.88
544.65	53736.36
544.82	53485.92
544.99	53469.54
545.16	53455.50
545.32	53549.12
545.49	53972.75
545.66	54401.07
545.83	54089.78
546.00	54160.00
546.16	53944.67
546.33	53846.36
546.50	53647.42
546.67	53911.90
546.83	53631.04
547.00	53937.65
547.17	54052.33
547.34	54085.10
547.50	54064.03
547.67	54426.82
547.84	54314.47
548.00	54394.05
548.17	54267.66
548.34	54138.93
548.51	54429.16
548.67	54677.25
548.84	54681.94
549.01	54450.22
549.18	54494.69
549.34	54424.48
549.51	54492.35
549.68	54330.86
549.84	54382.35
550.01	54927.69
550.18	54478.31
550.34	54511.08
550.51	54782.58
550.68	54864.50
550.84	54504.06
551.01	54894.92
551.18	54593.00
551.34	54749.81
551.51	54539.16
551.68	54892.58
551.84	54831.73
552.01	54745.13
552.18	54923.01
552.34	54801.30
552.51	54967.48
552.68	54639.81
552.84	55028.34
553.01	55159.41
553.18	54815.35
553.34	55185.15
553.51	55023.65
553.67	55341.97
553.84	55292.82
554.01	55316.22
554.17	55201.53
554.34	55105.57
554.51	54934.71
554.67	54955.78
554.84	54927.69
555.00	55274.09
555.17	55140.68
555.33	55475.38
555.50	55379.42
555.67	55374.73
555.83	55377.08
556.00	55440.27
556.16	55458.99
556.33	55517.51
556.50	55180.47
556.66	55508.14
556.83	55182.81
556.99	55742.20
557.16	55702.41
557.32	55852.20
557.49	55454.31
557.65	55358.35
557.82	55370.05
557.98	55423.89
558.15	55325.58
558.32	55664.96
558.48	55814.76
558.65	55831.14
558.81	55978.59
558.98	55599.43
559.14	55615.81
559.31	55711.77
559.47	55812.41
559.64	55781.99
559.80	55732.84
559.97	55845.18
560.13	55894.33
560.30	55997.32
560.46	55833.48
560.63	55786.67
560.79	55819.44
560.96	56102.64
561.12	55693.05
561.29	55711.77
561.45	55929.44
561.61	55952.85
561.78	55899.01
561.94	56147.11
562.11	56200.94
562.27	55948.17
562.44	55777.31
562.60	55957.53
562.77	56027.74
562.93	55976.25
563.10	56086.26
563.26	55959.87
563.42	56322.65
563.59	56074.55
563.75	56133.07
563.92	56184.56
564.08	56009.02
564.24	56112.00
564.41	56041.79
564.57	56041.79
564.74	56025.40
564.90	56090.94
565.07	56233.71
565.23	56346.06
565.39	56261.80
565.56	56313.29
565.72	55870.93
565.88	56126.05
566.05	56011.36
566.21	56121.37
566.38	56097.96
566.54	56147.11
566.70	56324.99
566.87	56507.55
567.03	56200.94
567.19	56615.22
567.36	56341.38
567.52	56294.56
567.68	56324.99
567.85	56156.47
568.01	56280.52
568.17	56198.60
568.34	56320.31
568.50	56575.43
568.66	56320.31
568.83	56690.12
568.99	56172.86
569.15	56343.72
569.32	56409.25
569.48	56161.15
569.64	56336.69
569.81	56500.53
569.97	56509.89
570.13	56322.65
570.30	56416.27
570.46	56439.68
570.62	56250.09
570.78	56299.25
570.95	56435.00
571.11	56306.27
571.27	56154.13
571.43	56090.94
571.60	56390.53
571.76	56362.44
571.92	56420.95
572.09	56561.39
572.25	56439.68
572.41	56500.53
572.57	56399.89
572.74	56568.41
572.90	56584.79
573.06	56416.27
573.22	56523.94
573.38	56704.16
573.55	56554.36
573.71	57020.13
573.87	56390.53
574.03	56453.72
574.20	56502.87
574.36	56502.87
574.52	56514.58
574.68	56413.93
574.84	56306.27
575.01	56500.53
575.17	56615.22
575.33	56385.85
575.49	56706.50
575.65	56963.96
575.82	56776.72
575.98	56530.96
576.14	56985.02
576.30	56589.47
576.46	56332.01
576.62	56310.95
576.79	56425.64
576.95	56463.08
577.11	56694.80
577.27	56589.47
577.43	56432.66
577.59	56509.89
577.75	56699.48
577.92	56245.41
578.08	56378.82
578.24	56605.86
578.40	56271.16
578.56	56633.94
578.72	56437.34
578.88	56736.93
579.04	56734.59
579.21	56748.63
579.37	56554.36
579.53	56734.59
579.69	56680.75
579.85	56666.71
580.01	56683.09
580.17	56212.65
580.33	56376.48
580.49	56477.13
580.65	56797.78
580.82	56671.39
580.98	56685.43
581.14	56549.68
581.30	56884.38
581.46	56844.59
581.62	56491.17
581.78	56694.80
581.94	56788.42
582.10	56530.96
582.26	56500.53
582.42	56699.48
582.58	56947.57
582.74	56741.61
582.90	57095.03
583.06	56736.93
583.22	56673.73
583.38	56657.35
583.54	56587.13
583.70	56315.63
583.86	56547.34
584.02	56472.45
584.18	56554.36
584.34	57090.35
584.50	56942.89
584.66	56926.51
584.82	56687.78
584.98	56467.76
585.14	56694.80
585.30	56659.69
585.46	56699.48
585.62	56566.07
585.78	56753.31
585.94	56523.94
586.10	56725.22
586.26	56872.68
586.42	56734.59
586.58	56933.53
586.74	56851.61
586.90	56619.90
587.06	56568.41
587.22	56533.30
587.38	56720.54
587.54	56821.19
587.70	57029.49
587.86	56793.10
588.02	56825.87
588.18	57155.88
588.34	56769.69
588.49	56779.06
588.65	56765.01
588.81	56868.00
588.97	56701.82
589.13	56755.65
589.29	56968.64
589.45	56715.86
589.61	56821.19
