SpectraSuite Data File
++++++++++++++++++++++++++++++++++++
Date: Fri Oct 18 13:54:55 GMT-05:00 2013
User: bianchi
Dark Spectrum Present: No
Reference Spectrum Present: No
Number of Sampled Component Spectra: 1
Spectrometers: USB2+H05261
Integration Time (usec): 100000 (USB2+H05261)
Spectra Averaged: 1 (USB2+H05261)
Boxcar Smoothing: 0 (USB2+H05261)
Correct for Electrical Dark: No (USB2+H05261)
Strobe/Lamp Enabled: No (USB2+H05261)
Correct for Detector Non-linearity: No (USB2+H05261)
Correct for Stray Light: No (USB2+H05261)
Number of Pixels in Processed Spectrum: 2048
>>>>>Begin Processed Spectral Data<<<<<
365.73	0.00
365.92	0.00
366.12	0.00
366.32	0.00
366.52	0.00
366.72	0.00
366.91	0.00
367.11	0.00
367.31	0.00
367.51	0.00
367.70	0.00
367.90	0.00
368.10	0.00
368.30	0.00
368.49	0.00
368.69	0.00
368.89	0.00
369.09	0.00
369.28	0.00
369.48	0.00
369.68	0.00
369.87	0.00
370.07	0.00
370.27	0.00
370.47	23.41
370.66	299.59
370.86	327.68
371.06	283.20
371.25	400.23
371.45	339.38
371.65	351.08
371.84	414.27
372.04	374.49
372.24	341.72
372.44	442.36
372.63	465.77
372.83	470.45
373.03	458.74
373.22	463.43
373.42	528.96
373.62	444.70
373.81	550.03
374.01	559.39
374.21	580.45
374.40	447.04
374.60	552.37
374.79	538.32
374.99	505.56
375.19	568.75
375.38	517.26
375.58	533.64
375.78	585.13
375.97	517.26
376.17	538.32
376.37	543.00
376.56	589.82
376.76	500.87
376.95	589.82
377.15	660.03
377.35	571.09
377.54	538.32
377.74	582.79
377.93	571.09
378.13	566.41
378.33	580.45
378.52	681.10
378.72	582.79
378.91	674.07
379.11	561.73
379.31	636.63
379.50	627.26
379.70	669.39
379.89	662.37
380.09	699.82
380.28	603.86
380.48	662.37
380.68	671.73
380.87	540.66
381.07	624.92
381.26	664.71
381.46	709.18
381.65	624.92
381.85	657.69
382.04	716.20
382.24	727.91
382.43	793.44
382.63	763.01
382.83	734.93
383.02	812.17
383.22	793.44
383.41	805.14
383.61	791.10
383.80	816.85
384.00	851.96
384.19	739.61
384.39	725.57
384.58	795.78
384.78	798.12
384.97	812.17
385.17	826.21
385.36	805.14
385.56	816.85
385.75	858.98
385.95	772.38
386.14	917.49
386.34	812.17
386.53	828.55
386.72	847.27
386.92	870.68
387.11	835.57
387.31	959.62
387.50	866.00
387.70	931.53
387.89	882.38
388.09	929.19
388.28	961.96
388.48	983.02
388.67	968.98
388.86	983.02
389.06	940.90
389.25	1032.18
389.45	987.71
389.64	912.81
389.84	1032.18
390.03	1083.67
390.22	1076.65
390.42	1015.79
390.61	1036.86
390.81	1050.90
391.00	1022.81
391.19	1123.46
391.39	1107.07
391.58	1102.39
391.78	1139.84
391.97	1118.78
392.16	1172.61
392.36	1200.69
392.55	1219.42
392.75	1172.61
392.94	1203.04
393.13	1114.10
393.33	1093.03
393.52	1179.63
393.71	1179.63
393.91	1341.13
394.10	1163.25
394.29	1210.06
394.49	1226.44
394.68	1352.83
394.88	1334.11
395.07	1280.27
395.26	1313.04
395.46	1373.89
395.65	1345.81
395.84	1306.02
396.04	1313.04
396.23	1383.26
396.42	1401.98
396.62	1390.28
396.81	1376.24
397.00	1383.26
397.19	1397.30
397.39	1380.92
397.58	1394.96
397.77	1423.05
397.97	1528.37
398.16	1455.81
398.35	1486.24
398.55	1453.47
398.74	1589.22
398.93	1561.14
399.12	1535.39
399.32	1579.86
399.51	1605.61
399.70	1647.74
399.90	1577.52
400.09	1624.33
400.28	1568.16
400.47	1617.31
400.67	1727.32
400.86	1699.23
401.05	1757.74
401.24	1753.06
401.44	1806.89
401.63	1666.46
401.82	1729.66
402.01	1783.49
402.21	1792.85
402.40	1802.21
402.59	1736.68
402.78	1865.41
402.97	1898.17
403.17	1905.20
403.36	1935.62
403.55	1956.69
403.74	1895.83
403.93	1895.83
404.13	1991.80
404.32	1949.67
404.51	2005.84
404.70	2073.71
404.89	1968.39
405.09	2172.02
405.28	2097.12
405.47	2047.97
405.66	2232.87
405.85	2225.85
406.05	2071.37
406.24	2221.17
406.43	2214.15
406.62	2221.17
406.81	2424.80
407.00	2279.68
407.20	2223.51
407.39	2324.15
407.58	2305.43
407.77	2279.68
407.96	2359.26
408.15	2328.83
408.34	2331.17
408.54	2495.01
408.73	2452.88
408.92	2471.61
409.11	2471.61
409.30	2516.08
409.49	2565.23
409.68	2593.31
409.87	2560.55
410.07	2518.42
410.26	2534.80
410.45	2651.83
410.64	2710.34
410.83	2754.81
411.02	2750.13
411.21	2813.32
411.40	2815.66
411.59	2902.26
411.78	2794.60
411.98	2876.52
412.17	2888.22
412.36	2829.71
412.55	2960.78
412.74	2963.12
412.93	3030.99
413.12	3002.91
413.31	3117.59
413.50	3108.23
413.69	3087.17
413.88	3251.00
414.07	3103.55
414.26	3356.33
414.45	3300.16
414.64	3187.81
414.83	3346.97
415.02	3492.08
415.22	3410.16
415.41	3566.98
415.60	3581.02
415.79	3566.98
415.98	3625.49
416.17	3684.00
416.36	3655.92
416.55	3763.58
416.74	3691.02
416.93	3641.87
417.12	3911.04
417.31	3817.41
417.50	3756.56
417.69	3971.89
417.88	3885.29
418.07	3964.87
418.26	3948.48
418.45	3992.95
418.64	4049.13
418.83	4170.83
419.02	4077.21
419.21	4046.79
419.39	4205.94
419.58	4154.45
419.77	4161.47
419.96	4166.15
420.15	4411.91
420.34	4348.72
420.53	4229.35
420.72	4456.38
420.91	4400.21
421.10	4332.33
421.29	4447.02
421.48	4379.14
421.67	4339.35
421.86	4454.04
422.05	4402.55
422.24	4514.89
422.43	4442.34
422.61	4645.96
422.80	4702.14
422.99	4559.36
423.18	4631.92
423.37	4573.41
423.56	4610.86
423.75	4636.60
423.94	4552.34
424.13	4273.82
424.32	4344.03
424.50	4535.96
424.69	4676.39
424.88	4812.14
425.07	4643.62
425.26	4629.58
425.45	4615.54
425.64	4692.77
425.83	4643.62
426.01	4723.20
426.20	4592.13
426.39	4674.05
426.58	4739.58
426.77	4720.86
426.96	4725.54
427.15	4865.97
427.33	4753.63
427.52	4800.44
427.71	4908.10
427.90	4868.31
428.09	5060.24
428.28	5060.24
428.46	5158.54
428.65	5167.90
428.84	5050.88
429.03	5022.79
429.22	5011.09
429.40	5249.82
429.59	4957.25
429.78	4971.30
429.97	5001.72
430.16	5060.24
430.34	5317.70
430.53	5107.05
430.72	5385.57
430.91	5214.71
431.10	5224.08
431.28	5397.28
431.47	5401.96
431.66	5437.06
431.85	5486.22
432.03	5671.12
432.22	5778.78
432.41	5600.90
432.60	5591.54
432.79	5521.32
432.97	5675.80
433.16	5652.39
433.35	5523.66
433.54	5785.80
433.72	5757.72
433.91	5654.73
434.10	5696.86
434.28	5631.33
434.47	5954.32
434.66	5928.58
434.85	5893.47
435.03	5886.45
435.22	5959.00
435.41	6111.14
435.59	6094.76
435.78	6148.59
435.97	6125.18
436.16	6099.44
436.34	6146.25
436.53	6176.67
436.72	6361.58
436.90	6033.90
437.09	6218.80
437.28	6071.35
437.46	6134.54
437.65	6146.25
437.84	6382.64
438.02	6401.37
438.21	6558.18
438.40	6502.01
438.58	6546.48
438.77	6576.91
438.96	6707.98
439.14	6717.34
439.33	6787.55
439.52	6698.61
439.70	6780.53
439.89	6796.92
440.08	7066.08
440.26	6899.90
440.45	7087.14
440.63	7054.37
440.82	7330.56
441.01	6981.82
441.19	7279.07
441.38	7199.49
441.57	7370.35
441.75	7463.97
441.94	7576.31
442.12	7501.42
442.31	7744.83
442.50	7576.31
442.68	7531.84
442.87	7566.95
443.05	7634.83
443.24	7751.85
443.43	7662.91
443.61	7810.37
443.80	8084.21
443.98	7712.07
444.17	7269.70
444.35	7815.05
444.54	7992.93
444.73	7971.86
444.91	7805.69
445.10	7779.94
445.28	7857.18
445.47	8060.80
445.65	7845.48
445.84	8011.65
446.02	8013.99
446.21	7810.37
446.39	8065.49
446.58	8074.85
446.77	8098.25
446.95	7782.28
447.14	8030.38
447.32	7964.84
447.51	8023.36
447.69	7810.37
447.88	8138.04
448.06	8032.72
448.25	7948.46
448.43	8152.09
448.62	8161.45
448.80	8060.80
448.99	8177.83
449.17	8257.41
449.36	8285.50
449.54	8404.86
449.73	8379.12
449.91	8236.35
450.10	8531.25
450.28	8592.11
450.46	8582.74
450.65	8587.43
450.83	8552.32
451.02	8552.32
451.20	8753.60
451.39	8774.67
451.57	8765.31
451.76	8678.71
451.94	8664.66
452.13	8854.25
452.31	8793.39
452.49	8823.82
452.68	8784.03
452.86	8634.24
453.05	9008.72
453.23	8889.35
453.42	8973.61
453.60	8894.04
453.78	9144.47
453.97	8912.76
454.15	8959.57
454.34	8975.95
454.52	9387.89
454.70	9139.79
454.89	9298.95
455.07	9231.07
455.26	9226.39
455.44	9437.04
455.62	9268.52
455.81	9418.32
455.99	9577.47
456.17	9345.76
456.36	9458.10
456.54	9671.09
456.73	9565.77
456.91	9877.06
457.09	9935.57
457.28	9996.43
457.46	9495.55
457.64	10059.62
457.83	9891.10
458.01	9858.34
458.19	10120.48
458.38	9956.64
458.56	10160.27
458.74	10223.46
458.93	10054.94
459.11	10146.22
459.29	10216.44
459.48	10228.14
459.66	10260.91
459.84	10377.94
460.03	10579.22
460.21	10310.06
460.39	10565.18
460.57	10494.96
460.76	10525.39
460.94	10609.65
461.12	10314.74
461.31	10553.48
461.49	10682.20
461.67	10553.48
461.85	10860.09
462.04	10937.32
462.22	10878.81
462.40	10775.83
462.59	11033.29
462.77	10970.09
462.95	11005.20
463.13	11000.52
463.32	10970.09
463.50	11019.24
463.68	11075.42
463.86	10991.16
464.05	11028.60
464.23	11206.48
464.41	11384.37
464.59	11005.20
464.78	11286.06
464.96	11243.93
465.14	11026.26
465.32	11496.71
465.50	11349.26
465.69	11672.25
465.87	11157.33
466.05	11461.60
466.23	11274.36
466.41	11651.19
466.60	11927.37
466.78	11456.92
466.96	11744.81
467.14	11527.14
467.32	11709.70
467.51	11880.56
467.69	11475.65
467.87	11496.71
468.05	11616.08
468.23	11850.13
468.41	11683.95
468.60	11763.53
468.78	11943.75
468.96	11875.88
469.14	12119.29
469.32	12102.91
469.50	11829.07
469.69	12353.35
469.87	12308.88
470.05	12313.56
470.23	12390.80
470.41	12276.11
470.59	12418.88
470.77	12388.46
470.95	12753.58
471.14	12657.62
471.32	12573.36
471.50	12837.84
471.68	12779.32
471.86	12905.71
472.04	12919.76
472.22	13207.64
472.40	12844.86
472.58	13139.77
472.77	13123.38
472.95	13362.12
473.13	13788.10
473.31	13163.17
473.49	13532.98
473.67	13158.49
473.85	13518.93
474.03	13685.11
474.21	13507.23
474.39	13874.70
474.57	13923.85
474.75	13968.32
474.93	14389.61
475.12	14068.96
475.30	13886.40
475.48	14132.15
475.66	14530.05
475.84	14476.21
476.02	14406.00
476.20	14705.59
476.38	14918.57
476.56	14918.57
476.74	15033.26
476.92	14827.29
477.10	14719.63
477.28	15384.34
477.46	15325.83
477.64	15545.84
477.82	15513.07
478.00	15871.17
478.18	15971.82
478.36	16123.95
478.54	16381.41
478.72	16273.74
478.90	16446.94
479.08	16526.52
479.26	16774.62
479.44	16641.21
479.62	16844.84
479.80	17121.02
479.98	17158.47
480.16	17497.84
480.34	17378.48
480.52	17294.22
480.70	17465.08
480.88	17745.94
481.06	17834.88
481.24	17436.99
481.41	17874.67
481.59	18052.55
481.77	18277.24
481.95	18429.38
482.13	18593.22
482.31	18754.71
482.49	19176.01
482.67	18740.67
482.85	19309.42
483.03	19342.19
483.21	20023.28
483.39	19826.68
483.57	19812.63
483.74	19854.76
483.92	19997.54
484.10	20058.39
484.28	20240.95
484.46	20561.61
484.64	21088.23
484.82	20524.16
485.00	20947.79
485.18	21462.71
485.35	21673.36
485.53	21708.47
485.71	22146.15
485.89	22190.62
486.07	22312.33
486.25	22312.33
486.43	22223.39
486.61	22693.83
486.78	22827.24
486.96	22768.73
487.14	23683.88
487.32	23239.18
487.50	23122.15
487.68	23330.46
487.85	23779.84
488.03	23981.13
488.21	24231.57
488.39	24577.97
488.57	24573.28
488.75	24613.07
488.92	25064.80
489.10	25139.69
489.28	25221.61
489.46	25853.56
489.64	25537.59
489.81	26054.84
489.99	26073.57
490.17	26209.32
490.35	26312.30
490.53	26391.88
490.70	26864.67
490.88	26785.09
491.06	27105.74
491.24	26944.25
491.41	27065.96
491.59	27332.78
491.77	27541.08
491.95	27770.46
492.13	28048.98
492.30	28357.93
492.48	28175.37
492.66	28510.07
492.84	28259.63
493.01	28659.86
493.19	28978.17
493.37	29413.51
493.54	29516.50
493.72	29514.16
493.90	29427.56
494.08	29773.95
494.25	30132.06
494.43	29865.24
494.61	30328.66
494.79	30574.42
494.96	30396.54
495.14	30412.92
495.32	30813.15
495.49	31063.59
495.67	31257.85
495.85	31342.11
496.02	31967.04
496.20	31967.04
496.38	31789.16
496.55	31924.91
496.73	32648.13
496.91	32067.68
497.09	32233.86
497.26	32680.90
497.44	32662.18
497.62	32891.55
497.79	33401.79
497.97	33380.72
498.14	33958.83
498.32	33905.00
498.50	33766.91
498.67	34721.85
498.85	34417.58
499.03	34363.75
499.20	34354.38
499.38	34693.76
499.56	34773.34
499.73	34972.28
499.91	35454.44
500.08	35550.40
500.26	34782.70
500.44	35660.40
500.61	35805.52
500.79	35182.93
500.97	35782.11
501.14	36123.83
501.32	36306.39
501.49	36390.65
501.67	36208.09
501.84	36531.08
502.02	36437.46
502.20	36573.21
502.37	36701.94
502.55	37188.77
502.72	37244.94
502.90	36755.77
503.07	37179.41
503.25	37118.56
503.43	37317.50
503.60	37607.73
503.78	37883.91
503.95	37736.46
504.13	38230.31
504.30	37865.19
504.48	38115.62
504.65	38326.27
504.83	38103.92
505.01	38899.70
505.18	38354.36
505.36	39154.82
505.53	38843.53
505.71	39026.09
505.88	38796.72
506.06	38787.36
506.23	39295.25
506.41	39353.77
506.58	39243.76
506.76	39555.05
506.93	40048.91
507.11	39414.62
507.28	39749.32
507.46	40095.72
507.63	40327.43
507.81	40711.28
507.98	40240.83
508.16	40624.68
508.33	40175.30
508.50	40666.81
508.68	40692.55
508.85	41097.47
509.03	40952.35
509.20	41422.80
509.38	41823.03
509.55	41420.46
509.73	41839.42
509.90	41722.39
510.08	41565.57
510.25	41312.80
510.42	41972.83
510.60	41954.10
510.77	42588.39
510.95	42595.41
511.12	42167.09
511.30	42204.54
511.47	42476.04
511.64	42710.10
511.82	42866.91
511.99	42618.81
512.17	43016.71
512.34	42974.58
512.51	43335.02
512.69	43016.71
512.86	43388.85
513.04	43515.24
513.21	43929.51
513.38	43922.49
513.56	44133.14
513.73	43938.88
513.90	43981.01
514.08	44416.35
514.25	44161.23
514.43	44069.95
514.60	44378.90
514.77	44549.76
514.95	44921.90
515.12	44348.47
515.29	44521.67
515.47	44940.63
515.64	45177.02
515.81	45001.48
515.99	45324.47
516.16	45649.81
516.33	45544.48
516.51	45598.32
516.68	45844.07
516.85	45415.76
517.03	45731.73
517.20	46099.19
517.37	46508.79
517.54	46522.83
517.72	45888.54
517.89	46134.30
518.06	46213.88
518.24	46244.30
518.41	46218.56
518.58	46529.85
518.75	46611.77
518.93	46850.50
519.10	46534.53
519.27	46852.84
519.45	47044.77
519.62	47136.05
519.79	46990.94
519.96	47105.62
520.14	47615.86
520.31	47033.07
520.48	47569.05
520.65	47466.06
520.83	47597.13
521.00	47533.94
521.17	47627.56
521.34	47281.16
521.52	48126.10
521.69	48088.65
521.86	48339.08
522.03	48231.42
522.20	48224.40
522.38	48371.85
522.55	48250.14
522.72	48638.67
522.89	48186.95
523.07	48736.98
523.24	48678.46
523.41	48872.73
523.58	48666.76
523.75	49158.27
523.92	48617.61
524.10	49064.65
524.27	48926.56
524.44	49237.85
524.61	49162.95
524.78	49455.52
524.96	49471.90
525.13	49528.08
525.30	49399.35
525.47	49614.68
525.64	49090.40
525.81	49762.13
525.98	49890.86
526.16	49834.69
526.33	50202.15
526.50	50192.79
526.67	49984.48
526.84	49825.32
527.01	50045.33
527.18	50277.05
527.36	50429.18
527.53	50309.82
527.70	50478.33
527.87	50810.69
528.04	50869.20
528.21	50794.31
528.38	50527.48
528.55	51079.85
528.72	50696.00
528.89	50845.80
529.07	50923.04
529.24	50883.25
529.41	51107.94
529.58	50850.48
529.75	50838.78
529.92	51264.75
530.09	50838.78
530.26	51030.70
530.43	51412.21
530.60	51166.45
530.77	51253.05
530.94	51325.61
531.11	51519.87
531.28	51349.01
531.46	51646.26
531.63	51435.61
531.80	51466.04
531.97	52009.04
532.14	51924.78
532.31	51819.46
532.48	51959.89
532.65	51922.44
532.82	51592.43
532.99	51679.03
533.16	51807.76
533.33	52182.24
533.50	52264.16
533.67	52191.61
533.84	52177.56
534.01	51828.82
534.18	51896.70
534.35	52374.17
534.52	52072.24
534.69	52928.87
534.86	52729.93
535.03	52219.69
535.20	52395.23
535.37	52416.30
535.54	52706.52
535.71	52451.41
535.88	52629.29
536.05	52556.73
536.22	52971.00
536.38	52917.17
536.55	52966.32
536.72	53085.69
536.89	52823.55
537.06	52968.66
537.23	52797.80
537.40	52823.55
537.57	53034.20
537.74	52884.40
537.91	53457.84
538.08	53261.23
538.25	53331.45
538.42	53289.32
538.59	53425.07
538.75	52973.34
538.92	53315.06
539.09	53450.81
539.26	53371.24
539.43	53408.68
539.60	53696.57
539.77	53645.08
539.94	53439.11
540.11	53605.29
540.28	53876.79
540.44	53471.88
540.61	53808.92
540.78	53389.96
540.95	53539.75
541.12	53743.38
541.29	54113.19
541.46	53567.84
541.62	53715.29
541.79	53827.64
541.96	53738.70
542.13	53649.76
542.30	54134.25
542.47	54199.79
542.63	54174.04
542.80	54307.45
542.97	54277.02
543.14	54459.58
543.31	54293.41
543.48	54394.05
543.64	54665.55
543.81	54714.70
543.98	54726.41
544.15	54815.35
544.32	54653.85
544.48	54988.55
544.65	54534.48
544.82	54492.35
544.99	54511.08
545.16	54724.07
545.32	54663.21
545.49	54906.63
545.66	55098.55
545.83	54937.05
546.00	55025.99
546.16	55199.19
546.33	55009.61
546.50	54564.91
546.67	54990.89
546.83	54740.45
547.00	54967.48
547.17	55065.78
547.34	54923.01
547.50	54960.46
547.67	55295.16
547.84	55164.09
548.00	55561.98
548.17	55423.89
548.34	55253.03
548.51	55444.95
548.67	55473.04
548.84	55189.83
549.01	55426.23
549.18	55435.59
549.34	55451.97
549.51	55756.24
549.68	55571.34
549.84	55348.99
550.01	55676.66
550.18	55910.72
550.34	55697.73
550.51	55576.02
550.68	55597.09
550.84	55264.73
551.01	55728.16
551.18	55374.73
551.34	55400.48
551.51	55559.64
551.68	55798.37
551.84	55681.34
552.01	55765.60
552.18	55784.33
552.34	55824.12
552.51	55903.70
552.68	55716.45
552.84	55728.16
553.01	55896.67
553.18	55704.75
553.34	56163.50
553.51	55948.17
553.67	56119.02
553.84	56179.88
554.01	56193.92
554.17	56086.26
554.34	56222.01
554.51	55590.06
554.67	56037.11
554.84	56348.40
555.00	56086.26
555.17	56341.38
555.33	56250.09
555.50	56257.12
555.67	56444.36
555.83	56411.59
556.00	56207.97
556.16	56481.81
556.33	56278.18
556.50	56254.78
556.66	56514.58
556.83	56165.84
556.99	56750.97
557.16	56535.64
557.32	56512.23
557.49	56704.16
557.65	56465.42
557.82	56451.38
557.98	56488.83
558.15	56624.58
558.32	56769.69
558.48	56554.36
558.65	56954.60
558.81	56601.18
558.98	56809.48
559.14	56685.43
559.31	56629.26
559.47	56444.36
559.64	56966.30
559.80	56718.20
559.97	56708.84
560.13	56746.29
560.30	56783.74
560.46	56919.49
560.63	56608.20
560.79	56594.15
560.96	56931.19
561.12	56788.42
561.29	56779.06
561.45	57027.15
561.61	57017.79
561.78	56942.89
561.94	56985.02
562.11	56928.85
562.27	56769.69
562.44	56790.76
562.60	56879.70
562.77	57034.17
562.93	56612.88
563.10	57132.48
563.26	57155.88
563.42	57198.01
563.59	57024.81
563.75	57080.98
563.92	57275.25
564.08	56985.02
564.24	57031.83
564.41	57104.39
564.57	56996.73
564.74	57022.47
564.90	57183.97
565.07	57153.54
565.23	57139.50
565.39	57066.94
565.56	57151.20
565.72	56903.10
565.88	57057.58
566.05	56903.10
566.21	57214.40
566.38	57036.51
566.54	57020.13
566.70	57256.53
566.87	57345.47
567.03	57436.75
567.19	57436.75
567.36	57312.70
567.52	57193.33
567.68	57352.49
567.85	57169.93
568.01	57298.65
568.17	57308.02
568.34	57354.83
568.50	57308.02
568.66	57371.21
568.83	57469.51
568.99	57354.83
569.15	57495.26
569.32	57233.12
569.48	57179.29
569.64	57268.23
569.81	57251.84
569.97	57453.13
570.13	57460.15
570.30	57235.46
570.46	57490.58
570.62	57525.69
570.78	57270.57
570.95	57120.77
571.11	57165.24
571.27	57085.67
571.43	57364.19
571.60	57326.74
571.76	57436.75
571.92	57696.55
572.09	57633.35
572.25	57551.43
572.41	57560.79
572.57	57411.00
572.74	57642.71
572.90	57635.69
573.06	57485.90
573.22	57481.22
573.38	57607.61
573.55	57556.11
573.71	57804.21
573.87	57631.01
574.03	57401.64
574.20	57272.91
574.36	57811.23
574.52	57518.67
574.68	57277.59
574.84	57504.62
575.01	57635.69
575.17	57420.36
575.33	57638.03
575.49	57738.68
575.65	57670.80
575.82	57612.29
575.98	57633.35
576.14	57581.86
576.30	57460.15
576.46	57293.97
576.62	57329.08
576.79	57556.11
576.95	57441.43
577.11	57457.81
577.27	57645.05
577.43	57546.75
577.59	57588.88
577.75	57794.85
577.92	57565.48
578.08	57420.36
578.24	57518.67
578.40	57518.67
578.56	57848.68
578.72	57553.77
578.88	57682.50
579.04	57778.46
579.21	57432.07
579.37	57766.76
579.53	57539.73
579.69	57654.42
579.85	57523.35
580.01	57717.61
580.17	57406.32
580.33	57359.51
580.49	57701.23
580.65	57710.59
580.82	57635.69
580.98	57689.52
581.14	57483.56
581.30	57612.29
581.46	57535.05
581.62	57406.32
581.78	57298.65
581.94	57794.85
582.10	57574.84
582.26	57478.88
582.42	57638.03
582.58	57769.10
582.74	57829.96
582.90	57818.25
583.06	57844.00
583.22	57460.15
583.38	57556.11
583.54	57504.62
583.70	57408.66
583.86	57453.13
584.02	57476.54
584.18	57532.71
584.34	57743.36
584.50	57872.09
584.66	57797.19
584.82	57567.82
584.98	57633.35
585.14	57635.69
585.30	57478.88
585.46	57635.69
585.62	57448.45
585.78	57956.35
585.94	57759.74
586.10	57757.40
586.26	57738.68
586.42	58010.18
586.58	57785.49
586.74	57677.82
586.90	57411.00
587.06	57553.77
587.22	57645.05
587.38	57687.18
587.54	57773.78
587.70	58234.87
587.86	57792.51
588.02	57572.50
588.18	57785.49
588.34	57759.74
588.49	57733.99
588.65	57640.37
588.81	57771.44
588.97	57506.96
589.13	57769.10
589.29	57874.43
589.45	58012.52
