SpectraSuite Data File
++++++++++++++++++++++++++++++++++++
Date: Fri Oct 18 13:54:46 GMT-05:00 2013
User: bianchi
Dark Spectrum Present: No
Reference Spectrum Present: No
Number of Sampled Component Spectra: 1
Spectrometers: USB2+H05261
Integration Time (usec): 100000 (USB2+H05261)
Spectra Averaged: 1 (USB2+H05261)
Boxcar Smoothing: 0 (USB2+H05261)
Correct for Electrical Dark: No (USB2+H05261)
Strobe/Lamp Enabled: No (USB2+H05261)
Correct for Detector Non-linearity: No (USB2+H05261)
Correct for Stray Light: No (USB2+H05261)
Number of Pixels in Processed Spectrum: 2048
>>>>>Begin Processed Spectral Data<<<<<
365.73	0.00
365.92	0.00
366.12	0.00
366.32	0.00
366.52	0.00
366.72	0.00
366.91	0.00
367.11	0.00
367.31	0.00
367.51	0.00
367.70	0.00
367.90	0.00
368.10	0.00
368.30	0.00
368.49	0.00
368.69	0.00
368.89	0.00
369.09	0.00
369.28	0.00
369.48	0.00
369.68	0.00
369.87	0.00
370.07	0.00
370.27	0.00
370.47	35.11
370.66	220.01
370.86	311.29
371.06	334.70
371.25	362.78
371.45	372.15
371.65	407.25
371.84	346.40
372.04	440.02
372.24	339.38
372.44	390.87
372.63	465.77
372.83	491.51
373.03	402.57
373.22	440.02
373.42	484.49
373.62	402.57
373.81	512.58
374.01	470.45
374.21	517.26
374.40	447.04
374.60	545.34
374.79	587.47
374.99	568.75
375.19	463.43
375.38	447.04
375.58	416.62
375.78	552.37
375.97	503.22
376.17	683.44
376.37	561.73
376.56	608.54
376.76	538.32
376.95	512.58
377.15	638.97
377.35	594.50
377.54	535.98
377.74	587.47
377.93	531.30
378.13	601.52
378.33	613.22
378.52	606.20
378.72	601.52
378.91	559.39
379.11	606.20
379.31	578.11
379.50	601.52
379.70	678.76
379.89	627.26
380.09	629.60
380.28	678.76
380.48	653.01
380.68	620.24
380.87	676.41
381.07	727.91
381.26	697.48
381.46	681.10
381.65	636.63
381.85	634.29
382.04	671.73
382.24	716.20
382.43	784.08
382.63	678.76
382.83	667.05
383.02	770.04
383.22	753.65
383.41	657.69
383.61	765.36
383.80	884.72
384.00	739.61
384.19	765.36
384.39	828.55
384.58	772.38
384.78	765.36
384.97	812.17
385.17	814.51
385.36	767.70
385.56	882.38
385.75	800.46
385.95	807.48
386.14	926.85
386.34	875.36
386.53	819.19
386.72	823.87
386.92	898.77
387.11	854.30
387.31	1029.84
387.50	889.40
387.70	849.61
387.89	894.08
388.09	1064.94
388.28	938.55
388.48	875.36
388.67	959.62
388.86	901.11
389.06	943.24
389.25	931.53
389.45	1015.79
389.64	1013.45
389.84	1071.97
390.03	990.05
390.22	976.00
390.42	1008.77
390.61	957.28
390.81	1095.37
391.00	1067.28
391.19	1170.27
391.39	1107.07
391.58	1193.67
391.78	1132.82
391.97	1149.20
392.16	1069.62
392.36	1146.86
392.55	1090.69
392.75	1036.86
392.94	1156.22
393.13	1217.08
393.33	1224.10
393.52	1254.53
393.71	1282.61
393.91	1186.65
394.10	1149.20
394.29	1308.36
394.49	1188.99
394.68	1217.08
394.88	1207.72
395.07	1249.85
395.26	1308.36
395.46	1167.93
395.65	1275.59
395.84	1296.66
396.04	1413.68
396.23	1409.00
396.42	1369.21
396.62	1376.24
396.81	1423.05
397.00	1401.98
397.19	1409.00
397.39	1441.77
397.58	1507.30
397.77	1327.08
397.97	1519.01
398.16	1439.43
398.35	1640.72
398.55	1476.88
398.74	1474.54
398.93	1582.20
399.12	1493.26
399.32	1467.52
399.51	1579.86
399.70	1654.76
399.90	1638.38
400.09	1561.14
400.28	1666.46
400.47	1565.82
400.67	1689.87
400.86	1619.65
401.05	1682.85
401.24	1703.91
401.44	1746.04
401.63	1809.23
401.82	1748.38
402.01	1741.36
402.21	1846.68
402.40	1823.28
402.59	1816.26
402.78	1748.38
402.97	1867.75
403.17	1898.17
403.36	1881.79
403.55	1872.43
403.74	1942.64
403.93	1912.22
404.13	1921.58
404.32	1935.62
404.51	1987.11
404.70	2033.93
404.89	2108.82
405.09	2036.27
405.28	2157.97
405.47	2043.29
405.66	2059.67
405.85	2162.66
406.05	2120.53
406.24	2122.87
406.43	2162.66
406.62	2209.47
406.81	2417.77
407.00	2279.68
407.20	2125.21
407.39	2303.09
407.58	2356.92
407.77	2303.09
407.96	2459.90
408.15	2431.82
408.34	2310.11
408.54	2410.75
408.73	2370.96
408.92	2312.45
409.11	2438.84
409.30	2541.82
409.49	2511.39
409.68	2520.76
409.87	2555.86
410.07	2640.12
410.26	2705.66
410.45	2586.29
410.64	2600.34
410.83	2761.83
411.02	2593.31
411.21	2813.32
411.40	2682.25
411.59	2794.60
411.78	2801.62
411.98	2794.60
412.17	2939.71
412.36	2874.18
412.55	2806.30
412.74	2888.22
412.93	3052.06
413.12	2972.48
413.31	3007.59
413.50	2984.18
413.69	3094.19
413.88	3232.28
414.07	3300.16
414.26	3293.13
414.45	3330.58
414.64	3304.84
414.83	3405.48
415.02	3342.28
415.22	3353.99
415.41	3595.06
415.60	3595.06
415.79	3576.34
415.98	3557.61
416.17	3569.32
416.36	3515.48
416.55	3641.87
416.74	3468.67
416.93	3723.79
417.12	3733.15
417.31	3801.03
417.50	3976.57
417.69	3847.84
417.88	3859.54
418.07	3913.38
418.26	4037.42
418.45	3946.14
418.64	4168.49
418.83	4117.00
419.02	4056.15
419.21	3962.53
419.39	4145.09
419.58	4060.83
419.77	4067.85
419.96	4121.68
420.15	4222.33
420.34	4306.59
420.53	4456.38
420.72	4208.28
420.91	4231.69
421.10	4383.82
421.29	4465.74
421.48	4278.50
421.67	4557.02
421.86	4365.10
422.05	4454.04
422.24	4531.28
422.43	4477.44
422.61	4695.11
422.80	4557.02
422.99	4517.23
423.18	4624.90
423.37	4713.84
423.56	4690.43
423.75	4528.94
423.94	4496.17
424.13	4306.59
424.32	4517.23
424.50	4603.83
424.69	4678.73
424.88	4884.70
425.07	4664.69
425.26	4521.92
425.45	4683.41
425.64	4669.37
425.83	4559.36
426.01	5006.41
426.20	4575.75
426.39	4702.14
426.58	4730.22
426.77	4819.16
426.96	5022.79
427.15	4718.52
427.33	4837.89
427.52	4657.67
427.71	4851.93
427.90	4936.19
428.09	4905.76
428.28	4917.47
428.46	4889.38
428.65	4997.04
428.84	5245.14
429.03	5132.79
429.22	4997.04
429.40	5184.29
429.59	5121.09
429.78	4837.89
429.97	4819.16
430.16	4994.70
430.34	5296.63
430.53	5305.99
430.72	5345.78
430.91	5289.61
431.10	5242.80
431.28	5317.70
431.47	5359.83
431.66	5577.50
431.85	5451.11
432.03	5558.77
432.22	5668.78
432.41	5584.52
432.60	5614.95
432.79	5568.13
432.97	5516.64
433.16	5654.73
433.35	5729.63
433.54	5757.72
433.72	5746.02
433.91	5694.52
434.10	5708.57
434.28	5856.02
434.47	5853.68
434.66	5834.96
434.85	5860.70
435.03	5902.83
435.22	5919.21
435.41	6071.35
435.59	6099.44
435.78	5942.62
435.97	6136.88
436.16	6043.26
436.34	6104.12
436.53	6080.71
436.72	6218.80
436.90	6097.10
437.09	6108.80
437.28	6080.71
437.46	6097.10
437.65	6420.09
437.84	6382.64
438.02	6225.82
438.21	6347.53
438.40	6303.06
438.58	6340.51
438.77	6654.14
438.96	6466.90
439.14	6602.65
439.33	6679.89
439.52	6803.94
439.70	6689.25
439.89	6829.68
440.08	7052.03
440.26	6986.50
440.45	6871.81
440.63	6927.99
440.82	7075.44
441.01	7066.08
441.19	7234.60
441.38	7365.67
441.57	7232.26
441.75	7478.01
441.94	7564.61
442.12	7227.57
442.31	7777.60
442.50	7559.93
442.68	7342.26
442.87	7691.00
443.05	7644.19
443.24	7714.41
443.43	7588.02
443.61	7641.85
443.80	7901.65
443.98	7562.27
444.17	7454.61
444.35	7705.04
444.54	7824.41
444.73	7737.81
444.91	7826.75
445.10	7969.52
445.28	7756.54
445.47	7775.26
445.65	7939.10
445.84	8013.99
446.02	8013.99
446.21	7878.24
446.39	7908.67
446.58	8138.04
446.77	8107.62
446.95	7817.39
447.14	7962.50
447.32	7985.91
447.51	7786.96
447.69	7925.05
447.88	8219.96
448.06	8030.38
448.25	7901.65
448.43	8219.96
448.62	8044.42
448.80	7901.65
448.99	8077.19
449.17	8093.57
449.36	8365.07
449.54	8425.93
449.73	8418.91
449.91	8414.23
450.10	8503.17
450.28	8477.42
450.46	8465.72
450.65	8355.71
450.83	8458.70
451.02	8493.80
451.20	8889.35
451.39	8777.01
451.57	8652.96
451.76	8594.45
451.94	8580.40
452.13	8858.93
452.31	8746.58
452.49	8643.60
452.68	8809.78
452.86	8762.97
453.05	8997.02
453.23	8788.71
453.42	8835.52
453.60	8657.64
453.78	8875.31
453.97	8802.75
454.15	8945.53
454.34	8842.54
454.52	9214.69
454.70	9032.13
454.89	9214.69
455.07	9064.89
455.26	9109.36
455.44	9378.53
455.62	9207.67
455.81	9357.46
455.99	9343.42
456.17	9387.89
456.36	9455.76
456.54	9514.28
456.73	9565.77
456.91	9778.76
457.09	9797.48
457.28	9891.10
457.46	9535.34
457.64	9816.21
457.83	9980.04
458.01	9804.50
458.19	9968.34
458.38	9856.00
458.56	9949.62
458.74	10274.95
458.93	9736.63
459.11	10066.64
459.29	10143.88
459.48	10274.95
459.66	10064.30
459.84	10303.04
460.03	10340.49
460.21	10148.56
460.39	10188.35
460.57	10422.41
460.76	10516.03
460.94	10621.35
461.12	10387.30
461.31	10628.37
461.49	10312.40
461.67	10394.32
461.85	10892.85
462.04	10719.65
462.22	11384.37
462.40	10780.51
462.59	10782.85
462.77	10651.78
462.95	10953.71
463.13	10927.96
463.32	10965.41
463.50	11033.29
463.68	11087.12
463.86	10904.56
464.05	10633.05
464.23	11194.78
464.41	11241.59
464.59	10881.15
464.78	11218.19
464.96	11115.20
465.14	11056.69
465.32	11353.94
465.50	11393.73
465.69	11330.53
465.87	11178.40
466.05	11321.17
466.23	11379.68
466.41	11646.51
466.60	11548.20
466.78	11419.47
466.96	11389.05
467.14	11346.92
467.32	11625.44
467.51	11812.68
467.69	11634.80
467.87	11878.22
468.05	11892.26
468.23	11669.91
468.41	11669.91
468.60	11861.84
468.78	11967.16
468.96	11674.59
469.14	12163.76
469.32	12105.25
469.50	11983.54
469.69	12081.85
469.87	12334.62
470.05	12264.41
470.23	12203.55
470.41	12444.63
470.59	12437.61
470.77	12219.94
470.95	12446.97
471.14	12643.57
471.32	12278.45
471.50	12856.56
471.68	12554.63
471.86	12779.32
472.04	12858.90
472.22	13090.62
472.40	12755.92
472.58	13032.10
472.77	12938.48
472.95	13217.01
473.13	13554.04
473.31	13123.38
473.49	13125.72
473.67	13160.83
473.85	13708.52
474.03	13640.64
474.21	13528.30
474.39	13813.84
474.57	13685.11
474.75	14029.17
474.93	14090.02
475.12	13790.44
475.30	14061.94
475.48	13996.40
475.66	14167.26
475.84	14202.37
476.02	14504.30
476.20	14370.89
476.38	14717.29
476.56	14967.73
476.74	14682.18
476.92	14705.59
477.10	14895.17
477.28	15358.60
477.46	15136.24
477.64	15470.94
477.82	15054.33
478.00	15854.79
478.18	15763.51
478.36	15915.64
478.54	16224.59
478.72	16009.26
478.90	15927.35
479.08	16156.72
479.26	16601.42
479.44	16556.95
479.62	16514.82
479.80	17053.14
479.98	16875.26
480.16	16886.97
480.34	17135.06
480.52	17366.78
480.70	17624.23
480.88	17586.79
481.06	17605.51
481.24	17678.07
481.41	17980.00
481.59	18068.94
481.77	18038.51
481.95	18494.91
482.13	18515.98
482.31	18333.42
482.49	18876.42
482.67	18375.55
482.85	18810.89
483.03	19431.13
483.21	19611.35
483.39	19623.05
483.57	19515.39
483.74	19772.85
483.92	20119.24
484.10	19859.45
484.28	20346.28
484.46	20638.84
484.64	20706.72
484.82	20528.84
485.00	20695.02
485.18	21149.08
485.35	21575.06
485.53	21357.39
485.71	21530.59
485.89	21802.09
486.07	21872.31
486.25	21495.48
486.43	22005.72
486.61	22232.75
486.78	22843.63
486.96	22902.14
487.14	22838.95
487.32	23145.56
487.50	22925.55
487.68	23608.98
487.85	23473.23
488.03	23941.34
488.21	23939.00
488.39	23819.63
488.57	24278.38
488.75	24442.21
488.92	24924.36
489.10	25364.39
489.28	24980.54
489.46	25448.64
489.64	25294.17
489.81	25867.60
489.99	25949.52
490.17	25944.84
490.35	26108.68
490.53	26260.81
490.70	26354.43
490.88	26607.21
491.06	27250.86
491.24	26829.56
491.41	27040.21
491.59	27173.62
491.77	27292.99
491.95	27587.89
492.13	27810.25
492.30	28065.36
492.48	28250.27
492.66	28020.89
492.84	28077.07
493.01	28828.38
493.19	28680.92
493.37	29130.31
493.54	28697.31
493.72	28891.57
493.90	29123.29
494.08	29792.68
494.25	29986.94
494.43	29731.83
494.61	30213.98
494.79	30279.51
494.96	30518.25
495.14	30363.77
495.32	30586.12
495.49	31056.57
495.67	31342.11
495.85	31332.75
496.02	31484.89
496.20	31615.96
496.38	31765.75
496.55	31988.10
496.73	32472.59
496.91	32566.21
497.09	32397.70
497.26	32673.88
497.44	32856.44
497.62	32477.27
497.79	33202.84
497.97	33062.41
498.14	33305.82
498.32	33692.01
498.50	33844.15
498.67	33919.04
498.85	34148.42
499.03	33809.04
499.20	34019.69
499.38	34263.10
499.56	34733.55
499.73	34572.05
499.91	34806.11
500.08	34850.58
500.26	34546.31
500.44	34843.56
500.61	35484.86
500.79	35393.58
500.97	35503.59
501.14	35854.67
501.32	36184.68
501.49	35920.20
501.67	35807.86
501.84	36301.71
502.02	35882.75
502.20	36348.52
502.37	36999.19
502.55	36561.51
502.72	36914.93
502.90	36449.16
503.07	36786.20
503.25	37254.31
503.43	37001.53
503.60	37038.98
503.78	37816.04
503.95	37125.58
504.13	37596.03
504.30	37581.98
504.48	37497.72
504.65	37869.87
504.83	38197.54
505.01	38609.48
505.18	38316.91
505.36	38691.40
505.53	38616.50
505.71	38909.07
505.88	38815.44
506.06	38153.07
506.23	38920.77
506.41	39065.88
506.58	39206.31
506.76	39077.58
506.93	39157.16
507.11	39082.27
507.28	39646.33
507.46	39459.09
507.63	40100.40
507.81	40397.65
507.98	39597.18
508.16	40219.77
508.33	39821.87
508.50	40039.54
508.68	40198.70
508.85	40683.19
509.03	41118.53
509.20	40533.40
509.38	41486.00
509.55	41434.50
509.73	42000.91
509.90	41366.63
510.08	41237.90
510.25	41289.39
510.42	41907.29
510.60	42174.11
510.77	42272.42
510.95	42679.67
511.12	42040.70
511.30	42085.17
511.47	41848.78
511.64	42253.69
511.82	42366.04
511.99	42527.53
512.17	42719.46
512.34	42789.67
512.51	43494.18
512.69	42808.40
512.86	43194.59
513.04	43056.50
513.21	43435.66
513.38	43749.29
513.56	44034.84
513.73	43643.97
513.90	44093.35
514.08	43660.35
514.25	44179.95
514.43	44088.67
514.60	44046.54
514.77	44189.31
514.95	44673.81
515.12	44336.77
515.29	44224.42
515.47	44849.35
515.64	44498.26
515.81	44804.88
515.99	44877.43
516.16	45476.61
516.33	45167.66
516.51	45298.73
516.68	45111.49
516.85	45116.17
517.03	45724.71
517.20	45619.38
517.37	45797.26
517.54	45755.13
517.72	45720.02
517.89	45965.78
518.06	45701.30
518.24	46003.23
518.41	45827.69
518.58	46230.26
518.75	45832.37
518.93	46543.89
519.10	46326.22
519.27	46553.26
519.45	46527.51
519.62	46417.50
519.79	46590.70
519.96	46759.22
520.14	46946.47
520.31	46876.25
520.48	46813.05
520.65	47311.59
520.83	47531.60
521.00	46951.15
521.17	47325.63
521.34	47107.96
521.52	47613.52
521.69	47753.95
521.86	47805.44
522.03	47665.01
522.20	48193.97
522.38	48376.53
522.55	48140.14
522.72	48165.88
522.89	48158.86
523.07	48566.12
523.24	48435.05
523.41	48636.33
523.58	47985.66
523.75	48889.11
523.92	48350.79
524.10	48788.47
524.27	48765.06
524.44	49020.18
524.61	49333.81
524.78	49441.48
524.96	49155.93
525.13	49200.40
525.30	49158.27
525.47	49296.36
525.64	49361.90
525.81	49598.29
525.98	49764.47
526.16	49820.64
526.33	49865.11
526.50	49904.90
526.67	49757.45
526.84	49549.14
527.01	49750.43
527.18	49787.88
527.36	50279.39
527.53	49647.44
527.70	50412.80
527.87	50258.32
528.04	50281.73
528.21	50340.24
528.38	50085.12
528.55	50433.86
528.72	50389.39
528.89	50478.33
529.07	50588.34
529.24	50347.26
529.41	50710.05
529.58	50761.54
529.75	50321.52
529.92	50836.44
530.09	50808.35
530.26	50546.21
530.43	51019.00
530.60	50927.72
530.77	50578.98
530.94	51463.70
531.11	50471.31
531.28	51021.34
531.46	51213.26
531.63	51339.65
531.80	51580.73
531.97	51325.61
532.14	51412.21
532.31	51356.03
532.48	52102.67
532.65	51515.19
532.82	51129.00
532.99	51540.94
533.16	51419.23
533.33	51716.48
533.50	52142.45
533.67	51751.59
533.84	51697.75
534.01	51487.10
534.18	51779.67
534.35	52114.37
534.52	52018.41
534.69	52252.46
534.86	52067.56
535.03	52296.93
535.20	52369.49
535.37	52112.03
535.54	52425.66
535.71	51819.46
535.88	52310.97
536.05	52554.39
536.22	52458.43
536.38	52676.10
536.55	52697.16
536.72	52903.13
536.89	52442.04
537.06	52645.67
537.23	52549.71
537.40	52395.23
537.57	52542.69
537.74	52940.58
537.91	52978.03
538.08	52891.43
538.25	52835.25
538.42	53048.24
538.59	53144.20
538.75	52722.91
538.92	52942.92
539.09	53301.02
539.26	53043.56
539.43	53130.16
539.60	53230.80
539.77	53221.44
539.94	53202.72
540.11	53525.71
540.28	53207.40
540.44	53567.84
540.61	53254.21
540.78	53233.14
540.95	53656.78
541.12	53729.34
541.29	53574.86
541.46	53616.99
541.62	53813.60
541.79	53801.89
541.96	53263.57
542.13	53471.88
542.30	53773.81
542.47	53722.32
542.63	53970.41
542.80	54150.63
542.97	54101.48
543.14	54113.19
543.31	54148.29
543.48	54026.59
543.64	54487.67
543.81	54295.75
543.98	54260.64
544.15	54459.58
544.32	54260.64
544.48	54726.41
544.65	54328.52
544.82	54398.73
544.99	54218.51
545.16	54508.74
545.32	54445.54
545.49	54810.67
545.66	54930.03
545.83	54869.18
546.00	55049.40
546.16	54478.31
546.33	54532.14
546.50	54347.24
546.67	54688.96
546.83	54162.34
547.00	54571.93
547.17	54979.18
547.34	54901.95
547.50	54988.55
547.67	55171.11
547.84	54796.62
548.00	54855.14
548.17	55107.91
548.34	54911.31
548.51	55323.24
548.67	55112.59
548.84	55278.77
549.01	55475.38
549.18	55281.11
549.34	55243.66
549.51	55339.63
549.68	55128.98
549.84	55124.30
550.01	55334.95
550.18	55299.84
550.34	55337.29
550.51	55414.52
550.68	55391.12
550.84	55166.43
551.01	55578.36
551.18	55262.39
551.34	55199.19
551.51	55327.92
551.68	55468.36
551.84	55543.25
552.01	55454.31
552.18	55686.03
552.34	55676.66
552.51	55737.52
552.68	55395.80
552.84	55730.50
553.01	55899.01
553.18	55547.93
553.34	55751.56
553.51	55737.52
553.67	55908.38
553.84	56032.42
554.01	55884.97
554.17	55887.31
554.34	56135.41
554.51	55742.20
554.67	55962.21
554.84	56112.00
555.00	56023.06
555.17	55679.00
555.33	56121.37
555.50	55959.87
555.67	55842.84
555.83	56130.73
556.00	56184.56
556.16	56369.46
556.33	55924.76
556.50	56074.55
556.66	56250.09
556.83	56107.32
556.99	56203.28
557.16	56575.43
557.32	56360.10
557.49	56409.25
557.65	56055.83
557.82	56353.08
557.98	56236.05
558.15	56203.28
558.32	56540.32
558.48	56367.12
558.65	56406.91
558.81	56369.46
558.98	56645.65
559.14	56418.61
559.31	56435.00
559.47	56647.99
559.64	56385.85
559.80	56537.98
559.97	56523.94
560.13	56278.18
560.30	56547.34
560.46	56493.51
560.63	56537.98
560.79	56662.03
560.96	56566.07
561.12	56411.59
561.29	56521.60
561.45	56760.33
561.61	56804.80
561.78	56811.82
561.94	56779.06
562.11	56762.67
562.27	56643.30
562.44	56814.16
562.60	56549.68
562.77	56748.63
562.93	56374.14
563.10	56956.94
563.26	56584.79
563.42	57095.03
563.59	56774.37
563.75	56753.31
563.92	56699.48
564.08	56666.71
564.24	56704.16
564.41	56748.63
564.57	56853.95
564.74	56575.43
564.90	56982.68
565.07	56886.72
565.23	57055.24
565.39	57017.79
565.56	56814.16
565.72	56802.46
565.88	56776.72
566.05	56830.55
566.21	56900.76
566.38	56732.25
566.54	56963.96
566.70	56996.73
566.87	57130.14
567.03	57076.30
567.19	57219.08
567.36	57034.17
567.52	56849.27
567.68	56872.68
567.85	56851.61
568.01	56823.53
568.17	56970.98
568.34	57102.05
568.50	57088.01
568.66	57123.11
568.83	57141.84
568.99	56884.38
569.15	57008.43
569.32	57111.41
569.48	56996.73
569.64	57120.77
569.81	57059.92
569.97	57195.67
570.13	57116.09
570.30	57258.87
570.46	57375.89
570.62	57083.33
570.78	57015.45
570.95	57029.49
571.11	56968.64
571.27	57031.83
571.43	57148.86
571.60	57010.77
571.76	57099.71
571.92	57254.18
572.09	57331.42
572.25	57261.21
572.41	57240.14
572.57	57116.09
572.74	57345.47
572.90	57200.35
573.06	57186.31
573.22	57403.98
573.38	57352.49
573.55	57403.98
573.71	57439.09
573.87	57453.13
574.03	57078.64
574.20	57308.02
574.36	57123.11
574.52	57427.38
574.68	57123.11
574.84	57265.89
575.01	57289.29
575.17	57113.75
575.33	56900.76
575.49	57251.84
575.65	57429.72
575.82	57338.44
575.98	57127.80
576.14	57188.65
576.30	57127.80
576.46	56949.92
576.62	56945.23
576.79	57052.90
576.95	57069.28
577.11	57195.67
577.27	57303.34
577.43	57354.83
577.59	57326.74
577.75	57525.69
577.92	57174.61
578.08	57078.64
578.24	57109.07
578.40	57169.93
578.56	57406.32
578.72	57209.71
578.88	57446.11
579.04	57649.74
579.21	57336.10
579.37	57565.48
579.53	57244.82
579.69	57303.34
579.85	57254.18
580.01	57336.10
580.17	57214.40
580.33	57291.63
580.49	57286.95
580.65	57214.40
580.82	57528.03
580.98	57338.44
581.14	57127.80
581.30	57450.79
581.46	57272.91
581.62	57506.96
581.78	57277.59
581.94	57223.76
582.10	57104.39
582.26	57434.41
582.42	57233.12
582.58	57453.13
582.74	57591.22
582.90	57439.09
583.06	57588.88
583.22	57324.40
583.38	57502.28
583.54	57317.38
583.70	57272.91
583.86	57413.34
584.02	57003.75
584.18	57396.96
584.34	57567.82
584.50	57546.75
584.66	57389.94
584.82	57275.25
584.98	57598.24
585.14	57038.86
585.30	57268.23
585.46	57270.57
585.62	57209.71
585.78	57322.06
585.94	57132.48
586.10	57408.66
586.26	57403.98
586.42	57616.97
586.58	57499.94
586.74	57317.38
586.90	57022.47
587.06	57240.14
587.22	57385.25
587.38	57275.25
587.54	57558.45
587.70	57570.16
587.86	57642.71
588.02	57609.95
588.18	57710.59
588.34	57256.53
588.49	57411.00
588.65	57291.63
588.81	57352.49
588.97	57366.53
589.13	57581.86
589.29	57572.50
589.45	57710.59
