SpectraSuite Data File
++++++++++++++++++++++++++++++++++++
Date: Fri Oct 18 13:54:35 GMT-05:00 2013
User: bianchi
Dark Spectrum Present: No
Reference Spectrum Present: No
Number of Sampled Component Spectra: 1
Spectrometers: USB2+H05261
Integration Time (usec): 100000 (USB2+H05261)
Spectra Averaged: 1 (USB2+H05261)
Boxcar Smoothing: 0 (USB2+H05261)
Correct for Electrical Dark: No (USB2+H05261)
Strobe/Lamp Enabled: No (USB2+H05261)
Correct for Detector Non-linearity: No (USB2+H05261)
Correct for Stray Light: No (USB2+H05261)
Number of Pixels in Processed Spectrum: 2048
>>>>>Begin Processed Spectral Data<<<<<
365.73	0.00
365.92	0.00
366.12	0.00
366.32	0.00
366.52	0.00
366.72	0.00
366.91	0.00
367.11	0.00
367.31	0.00
367.51	0.00
367.70	0.00
367.90	0.00
368.10	0.00
368.30	0.00
368.49	0.00
368.69	0.00
368.89	0.00
369.09	0.00
369.28	0.00
369.48	0.00
369.68	0.00
369.87	0.00
370.07	0.00
370.27	0.00
370.47	58.51
370.66	271.50
370.86	262.14
371.06	227.03
371.25	416.62
371.45	297.25
371.65	404.91
371.84	287.89
372.04	390.87
372.24	383.85
372.44	308.95
372.63	449.38
372.83	442.36
373.03	395.55
373.22	423.64
373.42	430.66
373.62	411.93
373.81	444.70
374.01	475.13
374.21	521.94
374.40	496.19
374.60	489.17
374.79	517.26
374.99	493.85
375.19	463.43
375.38	566.41
375.58	514.92
375.78	519.60
375.97	472.79
376.17	554.71
376.37	519.60
376.56	561.73
376.76	550.03
376.95	582.79
377.15	589.82
377.35	606.20
377.54	573.43
377.74	624.92
377.93	582.79
378.13	526.62
378.33	685.78
378.52	514.92
378.72	552.37
378.91	472.79
379.11	568.75
379.31	585.13
379.50	535.98
379.70	601.52
379.89	615.56
380.09	631.94
380.28	641.31
380.48	615.56
380.68	617.90
380.87	610.88
381.07	723.23
381.26	692.80
381.46	622.58
381.65	725.57
381.85	674.07
382.04	676.41
382.24	716.20
382.43	690.46
382.63	720.88
382.83	725.57
383.02	777.06
383.22	688.12
383.41	681.10
383.61	755.99
383.80	830.89
384.00	683.44
384.19	751.31
384.39	770.04
384.58	763.01
384.78	770.04
384.97	781.74
385.17	884.72
385.36	781.74
385.56	814.51
385.75	784.08
385.95	835.57
386.14	823.87
386.34	793.44
386.53	805.14
386.72	788.76
386.92	908.13
387.11	837.91
387.31	858.98
387.50	851.96
387.70	781.74
387.89	861.32
388.09	823.87
388.28	875.36
388.48	973.66
388.67	898.77
388.86	943.24
389.06	1004.09
389.25	1011.11
389.45	1097.71
389.64	908.13
389.84	976.00
390.03	999.41
390.22	1057.92
390.42	926.85
390.61	954.94
390.81	990.05
391.00	1011.11
391.19	1062.60
391.39	1053.24
391.58	1064.94
391.78	1078.99
391.97	1158.57
392.16	1057.92
392.36	1205.38
392.55	1144.52
392.75	1088.35
392.94	1036.86
393.13	1205.38
393.33	1174.95
393.52	1160.91
393.71	1118.78
393.91	1172.61
394.10	1254.53
394.29	1043.88
394.49	1146.86
394.68	1263.89
394.88	1179.63
395.07	1212.40
395.26	1254.53
395.46	1324.74
395.65	1317.72
395.84	1362.19
396.04	1401.98
396.23	1362.19
396.42	1423.05
396.62	1329.42
396.81	1338.79
397.00	1357.51
397.19	1308.36
397.39	1364.53
397.58	1364.53
397.77	1387.94
397.97	1401.98
398.16	1366.87
398.35	1437.09
398.55	1371.55
398.74	1394.96
398.93	1561.14
399.12	1572.84
399.32	1533.05
399.51	1547.09
399.70	1373.89
399.90	1582.20
400.09	1607.95
400.28	1680.50
400.47	1631.35
400.67	1533.05
400.86	1619.65
401.05	1533.05
401.24	1631.35
401.44	1675.82
401.63	1643.06
401.82	1729.66
402.01	1699.23
402.21	1795.19
402.40	1732.00
402.59	1734.34
402.78	1795.19
402.97	1778.81
403.17	1851.36
403.36	1839.66
403.55	1886.47
403.74	2010.52
403.93	1898.17
404.13	1963.71
404.32	2015.20
404.51	1942.64
404.70	1895.83
404.89	2033.93
405.09	2026.90
405.28	1982.43
405.47	2141.59
405.66	2054.99
405.85	2064.35
406.05	2094.78
406.24	2012.86
406.43	2085.42
406.62	2225.85
406.81	2237.55
407.00	2186.06
407.20	2155.63
407.39	2267.98
407.58	2218.83
407.77	2326.49
407.96	2242.23
408.15	2382.67
408.34	2342.88
408.54	2387.35
408.73	2310.11
408.92	2282.02
409.11	2410.75
409.30	2415.43
409.49	2506.71
409.68	2509.05
409.87	2403.73
410.07	2527.78
410.26	2649.49
410.45	2569.91
410.64	2628.42
410.83	2651.83
411.02	2551.18
411.21	2757.15
411.40	2757.15
411.59	2796.94
411.78	2745.45
411.98	2700.98
412.17	2752.47
412.36	2813.32
412.55	2939.71
412.74	2956.10
412.93	3042.70
413.12	2923.33
413.31	3070.78
413.50	2986.52
413.69	3073.12
413.88	3255.69
414.07	3234.62
414.26	3201.85
414.45	3260.37
414.64	3227.60
414.83	3318.88
415.02	3328.24
415.22	3372.71
415.41	3421.86
415.60	3391.44
415.79	3496.76
415.98	3515.48
416.17	3534.21
416.36	3426.54
416.55	3438.25
416.74	3630.17
416.93	3684.00
417.12	3784.65
417.31	3679.32
417.50	3765.92
417.69	3894.65
417.88	3833.80
418.07	3896.99
418.26	3786.99
418.45	3988.27
418.64	4018.70
418.83	4067.85
419.02	4067.85
419.21	4021.04
419.39	4208.28
419.58	4028.06
419.77	4065.51
419.96	4180.20
420.15	4070.19
420.34	4212.96
420.53	4168.49
420.72	4318.29
420.91	4145.09
421.10	4383.82
421.29	4468.08
421.48	4234.03
421.67	4475.10
421.86	4255.09
422.05	4489.15
422.24	4388.50
422.43	4440.00
422.61	4482.13
422.80	4559.36
422.99	4421.27
423.18	4418.93
423.37	4674.05
423.56	4528.94
423.75	4454.04
423.94	4416.59
424.13	4114.66
424.32	4238.71
424.50	4552.34
424.69	4596.81
424.88	4657.67
425.07	4425.95
425.26	4449.36
425.45	4465.74
425.64	4596.81
425.83	4638.94
426.01	4643.62
426.20	4638.94
426.39	4587.45
426.58	4519.57
426.77	4706.82
426.96	4699.80
427.15	4629.58
427.33	4711.50
427.52	4624.90
427.71	4777.03
427.90	4894.06
428.09	4856.61
428.28	4779.37
428.46	4919.81
428.65	4947.89
428.84	5083.64
429.03	5034.49
429.22	4933.85
429.40	5069.60
429.59	5139.82
429.78	4807.46
429.97	4692.77
430.16	4912.78
430.34	5114.07
430.53	5128.11
430.72	5128.11
430.91	5093.01
431.10	5217.05
431.28	5132.79
431.47	5195.99
431.66	5387.91
431.85	5231.10
432.03	5430.04
432.22	5497.92
432.41	5537.71
432.60	5483.88
432.79	5327.06
432.97	5476.85
433.16	5626.65
433.35	5568.13
433.54	5729.63
433.72	5720.27
433.91	5659.42
434.10	5640.69
434.28	5678.14
434.47	5767.08
434.66	5757.72
434.85	5839.64
435.03	5764.74
435.22	5886.45
435.41	6005.81
435.59	5928.58
435.78	5849.00
435.97	5902.83
436.16	5944.96
436.34	5849.00
436.53	5973.05
436.72	6092.41
436.90	6076.03
437.09	6214.12
437.28	6008.16
437.46	6171.99
437.65	6387.32
437.84	6436.47
438.02	6202.42
438.21	6136.88
438.40	6190.72
438.58	6665.85
438.77	6298.38
438.96	6483.28
439.14	6633.08
439.33	6623.72
439.52	6675.21
439.70	6429.45
439.89	6850.75
440.08	6736.06
440.26	6970.12
440.45	6724.36
440.63	6799.26
440.82	6998.20
441.01	6923.30
441.19	7112.89
441.38	7152.68
441.57	7323.54
441.75	7353.96
441.94	7438.22
442.12	7248.64
442.31	7524.82
442.50	7337.58
442.68	7332.90
442.87	7522.48
443.05	7515.46
443.24	7602.06
443.43	7550.57
443.61	7620.78
443.80	7932.08
443.98	7510.78
444.17	7311.83
444.35	7639.51
444.54	7604.40
444.73	7765.90
444.91	7913.35
445.10	7714.41
445.28	7845.48
445.47	7634.83
445.65	7637.17
445.84	7777.60
446.02	7880.58
446.21	7763.56
446.39	7805.69
446.58	7796.32
446.77	7761.22
446.95	7705.04
447.14	7768.24
447.32	7866.54
447.51	7871.22
447.69	7929.74
447.88	7999.95
448.06	8021.02
448.25	7770.58
448.43	8002.29
448.62	7845.48
448.80	7878.24
448.99	7861.86
449.17	8042.08
449.36	8006.97
449.54	8201.24
449.73	8294.86
449.91	8196.56
450.10	8411.89
450.28	8489.12
450.46	8297.20
450.65	8287.84
450.83	8540.61
451.02	8360.39
451.20	8376.78
451.39	8561.68
451.57	8685.73
451.76	8496.14
451.94	8552.32
452.13	8739.56
452.31	8858.93
452.49	8458.70
452.68	8451.67
452.86	8748.92
453.05	8627.21
453.23	8814.46
453.42	8636.58
453.60	8549.98
453.78	8772.33
453.97	8559.34
454.15	8830.84
454.34	8641.26
454.52	8896.38
454.70	8872.97
454.89	9050.85
455.07	9036.81
455.26	8982.98
455.44	9217.03
455.62	9125.75
455.81	9165.54
455.99	9116.39
456.17	9100.00
456.36	9355.12
456.54	9376.19
456.73	9556.41
456.91	9823.23
457.09	9572.79
457.28	9905.15
457.46	9851.31
457.64	9734.29
457.83	9624.28
458.01	9521.30
458.19	9848.97
458.38	9748.33
458.56	10003.45
458.74	9921.53
458.93	9893.44
459.11	9867.70
459.29	9987.07
459.48	10090.05
459.66	10019.83
459.84	10031.54
460.03	9947.28
460.21	10195.37
460.39	9968.34
460.57	10274.95
460.76	10186.01
460.94	10209.42
461.12	10380.28
461.31	10155.58
461.49	10272.61
461.67	10239.84
461.85	10548.79
462.04	10401.34
462.22	10927.96
462.40	10780.51
462.59	10693.91
462.77	10464.54
462.95	10750.08
463.13	10532.41
463.32	10803.91
463.50	10644.76
463.68	10860.09
463.86	10824.98
464.05	10597.95
464.23	10820.30
464.41	10988.82
464.59	10714.97
464.78	11241.59
464.96	11089.46
465.14	10698.59
465.32	11049.67
465.50	11367.98
465.69	11351.60
465.87	11016.90
466.05	11281.38
466.23	11023.92
466.41	11183.08
466.60	11349.26
466.78	11101.16
466.96	11332.87
467.14	11073.07
467.32	11323.51
467.51	11438.20
467.69	11253.30
467.87	11494.37
468.05	11618.42
468.23	11346.92
468.41	11747.15
468.60	11583.31
468.78	11779.92
468.96	11569.27
469.14	11733.11
469.32	11873.54
469.50	11620.76
469.69	11737.79
469.87	12018.65
470.05	11894.60
470.23	12297.17
470.41	12154.40
470.59	12332.28
470.77	12189.51
470.95	12430.59
471.14	12297.17
471.32	12285.47
471.50	12540.59
471.68	12549.95
471.86	12840.18
472.04	12727.83
472.22	12809.75
472.40	12746.56
472.58	12896.35
472.77	12922.10
472.95	12655.28
473.13	13310.63
473.31	12929.12
473.49	12994.65
473.67	13116.36
473.85	13181.90
474.03	13298.92
474.21	13425.31
474.39	13497.87
474.57	13778.73
474.75	13886.40
474.93	13933.21
475.12	13596.17
475.30	13778.73
475.48	13750.65
475.66	13970.66
475.84	14310.04
476.02	14143.86
476.20	14307.69
476.38	14611.96
476.56	14810.91
476.74	14560.47
476.92	14794.53
477.10	14600.26
477.28	14785.16
477.46	14813.25
477.64	14979.43
477.82	15143.27
478.00	15510.73
478.18	15583.29
478.36	15714.36
478.54	15815.00
478.72	15906.28
478.90	16037.35
479.08	16163.74
479.26	16189.49
479.44	16168.42
479.62	16322.90
479.80	16313.53
479.98	16762.92
480.16	16760.58
480.34	16837.81
480.52	17085.91
480.70	16971.22
480.88	16870.58
481.06	17305.92
481.24	17621.89
481.41	17511.89
481.59	17891.06
481.77	18108.72
481.95	17923.82
482.13	18092.34
482.31	18125.11
482.49	18410.65
482.67	18506.62
482.85	18946.64
483.03	19115.16
483.21	19353.89
483.39	19269.63
483.57	19527.09
483.74	19641.78
483.92	19594.96
484.10	19709.65
484.28	20123.93
484.46	20255.00
484.64	20505.43
484.82	20074.77
485.00	20561.61
485.18	20570.97
485.35	21273.13
485.53	21048.44
485.71	21062.48
485.89	21879.33
486.07	21476.76
486.25	21535.27
486.43	21537.61
486.61	21893.37
486.78	22122.74
486.96	22600.21
487.14	22593.19
487.32	22293.60
487.50	22553.40
487.68	22740.64
487.85	23531.75
488.03	23601.96
488.21	23953.04
488.39	23742.39
488.57	24156.67
488.75	24030.28
488.92	24362.64
489.10	24334.55
489.28	24760.53
489.46	24929.05
489.64	24741.80
489.81	25439.28
489.99	25422.90
490.17	25350.34
490.35	26103.99
490.53	25750.57
490.70	26258.47
490.88	26485.50
491.06	26391.88
491.24	26167.19
491.41	26663.38
491.59	26628.27
491.77	27288.31
491.95	27473.21
492.13	27246.18
492.30	27215.75
492.48	27562.15
492.66	27953.02
492.84	27758.75
493.01	28369.63
493.19	28163.67
493.37	28772.21
493.54	28133.24
493.72	28701.99
493.90	28788.59
494.08	29078.82
494.25	29273.08
494.43	29481.39
494.61	29635.86
494.79	29766.93
494.96	29734.17
495.14	29701.40
495.32	30059.50
495.49	30466.75
495.67	30441.01
495.85	30892.73
496.02	30827.20
496.20	31089.34
496.38	31068.27
496.55	31192.32
496.73	32238.54
496.91	31730.64
497.09	32121.51
497.26	31992.78
497.44	32236.20
497.62	32411.74
497.79	32737.07
497.97	32521.74
498.14	33046.02
498.32	33240.29
498.50	33020.28
498.67	33823.08
498.85	33504.77
499.03	33310.50
499.20	33640.52
499.38	33614.77
499.56	33795.00
499.73	34125.01
499.91	34448.00
500.08	34670.36
500.26	34309.91
500.44	34492.47
500.61	34506.52
500.79	34555.67
500.97	34740.57
501.14	35178.25
501.32	35559.76
501.49	34906.75
501.67	35227.40
501.84	35098.67
502.02	35690.83
502.20	35461.46
502.37	36205.75
502.55	36093.40
502.72	36467.89
502.90	36266.60
503.07	36060.63
503.25	36222.13
503.43	36229.15
503.60	36776.84
503.78	37165.37
503.95	36917.27
504.13	37141.96
504.30	37074.09
504.48	37303.46
504.65	37591.34
504.83	37780.93
505.01	38227.97
505.18	37511.77
505.36	38237.33
505.53	37888.59
505.71	37752.84
505.88	38253.72
506.06	37413.46
506.23	38534.58
506.41	38806.08
506.58	38604.80
506.76	38923.11
506.93	39012.05
507.11	38085.20
507.28	38740.55
507.46	38932.47
507.63	39295.25
507.81	39737.62
507.98	39398.24
508.16	39704.85
508.33	39173.55
508.50	39526.97
508.68	39901.45
508.85	40231.47
509.03	39744.64
509.20	40584.89
509.38	40531.06
509.55	40725.32
509.73	40552.12
509.90	40865.75
510.08	40570.85
510.25	40830.65
510.42	41357.27
510.60	41120.87
510.77	41380.67
510.95	41621.75
511.12	41172.36
511.30	41317.48
511.47	41687.28
511.64	41731.75
511.82	42387.10
511.99	41858.14
512.17	42314.55
512.34	42014.96
512.51	42440.93
512.69	42171.77
512.86	42326.25
513.04	42637.54
513.21	42803.72
513.38	42995.64
513.56	42787.33
513.73	42609.45
513.90	43213.31
514.08	42930.11
514.25	43117.35
514.43	43330.34
514.60	43583.12
514.77	44027.82
514.95	43725.89
515.12	43405.23
515.29	43356.08
515.47	44018.46
515.64	43938.88
515.81	43758.66
515.99	44463.16
516.16	44563.80
516.33	45064.67
516.51	44690.19
516.68	44296.98
516.85	44512.31
517.03	44900.84
517.20	45155.96
517.37	44926.58
517.54	44772.11
517.72	45219.15
517.89	44921.90
518.06	45067.02
518.24	45111.49
518.41	45532.78
518.58	45497.67
518.75	45764.49
518.93	45497.67
519.10	45287.03
519.27	46024.29
519.45	45907.27
519.62	45427.46
519.79	45748.11
519.96	46122.60
520.14	46122.60
520.31	46150.68
520.48	46209.20
520.65	46454.95
520.83	46483.04
521.00	46777.95
521.17	46920.72
521.34	46663.26
521.52	46710.07
521.69	47007.32
521.86	47239.03
522.03	47206.26
522.20	47161.79
522.38	47728.20
522.55	47318.61
522.72	47700.12
522.89	47508.19
523.07	48039.50
523.24	47540.96
523.41	47861.61
523.58	47845.23
523.75	48287.59
523.92	47622.88
524.10	47880.34
524.27	48154.18
524.44	48275.89
524.61	48605.91
524.78	48563.78
524.96	48271.21
525.13	48362.49
525.30	48472.49
525.47	48832.94
525.64	48451.43
525.81	48903.15
525.98	49001.46
526.16	49074.01
526.33	48956.99
526.50	49617.02
526.67	48851.66
526.84	49034.22
527.01	48961.67
527.18	48978.05
527.36	49490.63
527.53	49549.14
527.70	49605.31
527.87	49900.22
528.04	49338.49
528.21	49682.55
528.38	49469.56
528.55	49717.66
528.72	49710.64
528.89	49797.24
529.07	49708.30
529.24	49745.75
529.41	50181.09
529.58	49853.41
529.75	49563.18
529.92	49921.29
530.09	50089.80
530.26	50103.85
530.43	50213.85
530.60	50099.17
530.77	50253.64
530.94	50660.90
531.11	50478.33
531.28	50415.14
531.46	50815.37
531.63	50550.89
531.80	51133.68
531.97	50948.78
532.14	50747.50
532.31	50883.25
532.48	51131.34
532.65	51133.68
532.82	50532.17
532.99	50855.16
533.16	50864.52
533.33	51164.11
533.50	51220.28
533.67	51753.93
533.84	50944.10
534.01	50693.66
534.18	51196.88
534.35	51452.00
534.52	51714.14
534.69	51721.16
534.86	51613.49
535.03	51290.50
535.20	51704.77
535.37	51695.41
535.54	51522.21
535.71	51531.57
535.88	51503.49
536.05	51828.82
536.22	51950.53
536.38	51899.04
536.55	52236.08
536.72	52168.20
536.89	51812.44
537.06	52112.03
537.23	52058.20
537.40	52072.24
537.57	52292.25
537.74	51997.34
537.91	52507.58
538.08	52102.67
538.25	52360.12
538.42	52320.34
538.59	52285.23
538.75	52573.11
538.92	52289.91
539.09	52315.65
539.26	52573.11
539.43	52762.70
539.60	52793.12
539.77	52790.78
539.94	53071.65
540.11	53024.84
540.28	52921.85
540.44	52781.42
540.61	52931.22
540.78	52818.87
540.95	53085.69
541.12	52746.31
541.29	53277.61
541.46	52624.60
541.62	53123.14
541.79	53066.97
541.96	52954.62
542.13	52971.00
542.30	53207.40
542.47	53481.24
542.63	53446.13
542.80	53331.45
542.97	53750.40
543.14	53717.64
543.31	53607.63
543.48	53345.49
543.64	53822.96
543.81	53825.30
543.98	54014.88
544.15	54005.52
544.32	53935.30
544.48	53928.28
544.65	53712.95
544.82	53851.05
544.99	53612.31
545.16	53902.54
545.32	53729.34
545.49	54295.75
545.66	54169.36
545.83	54394.05
546.00	54511.08
546.16	54452.56
546.33	53958.71
546.50	53876.79
546.67	54115.53
546.83	53827.64
547.00	54609.38
547.17	54169.36
547.34	54218.51
547.50	54621.08
547.67	54513.42
547.84	54344.90
548.00	54578.95
548.17	54724.07
548.34	54466.61
548.51	54490.01
548.67	54768.54
548.84	54665.55
549.01	54478.31
549.18	54583.63
549.34	54688.96
549.51	54576.61
549.68	54784.92
549.84	54468.95
550.01	54747.47
550.18	54754.49
550.34	54969.82
550.51	55016.63
550.68	54941.74
550.84	54827.05
551.01	54878.54
551.18	54649.17
551.34	54466.61
551.51	54972.16
551.68	55173.45
551.84	54941.74
552.01	55016.63
552.18	55175.79
552.34	55236.64
552.51	55103.23
552.68	55124.30
552.84	55056.42
553.01	55138.34
553.18	55257.71
553.34	55346.65
553.51	55311.54
553.67	55238.98
553.84	55648.58
554.01	55119.62
554.17	55290.48
554.34	55414.52
554.51	55344.31
554.67	55533.89
554.84	55370.05
555.00	55367.71
555.17	55653.26
555.33	55480.06
555.50	55573.68
555.67	55290.48
555.83	55484.74
556.00	55505.80
556.16	55592.40
556.33	55428.57
556.50	55580.70
556.66	55554.96
556.83	55599.43
556.99	56016.04
557.16	55838.16
557.32	56081.58
557.49	56074.55
557.65	55367.71
557.82	55842.84
557.98	55714.11
558.15	55910.72
558.32	55908.38
558.48	55758.58
558.65	56264.14
558.81	56140.09
558.98	55856.88
559.14	56093.28
559.31	55625.17
559.47	55655.60
559.64	55966.89
559.80	55938.80
559.97	56114.34
560.13	55870.93
560.30	56013.70
560.46	56055.83
560.63	56037.11
560.79	56259.46
560.96	56219.67
561.12	55994.98
561.29	56072.21
561.45	55913.06
561.61	56128.39
561.78	56151.79
561.94	56289.88
562.11	56285.20
562.27	56081.58
562.44	56044.13
562.60	56245.41
562.77	55966.89
562.93	56140.09
563.10	56268.82
563.26	56348.40
563.42	56516.92
563.59	56339.04
563.75	56385.85
563.92	56374.14
564.08	56163.50
564.24	56189.24
564.41	56076.90
564.57	56519.26
564.74	56205.62
564.90	56383.51
565.07	56470.11
565.23	56545.00
565.39	56196.26
565.56	56381.16
565.72	56151.79
565.88	56184.56
566.05	56254.78
566.21	55915.40
566.38	56341.38
566.54	56301.59
566.70	56722.88
566.87	56708.84
567.03	56243.07
567.19	56584.79
567.36	56568.41
567.52	56336.69
567.68	56189.24
567.85	56467.76
568.01	56451.38
568.17	56477.13
568.34	56823.53
568.50	56690.12
568.66	56439.68
568.83	56657.35
568.99	56580.11
569.15	56645.65
569.32	56472.45
569.48	56032.42
569.64	56479.47
569.81	56498.19
569.97	56636.28
570.13	56516.92
570.30	56530.96
570.46	56860.97
570.62	56594.15
570.78	56568.41
570.95	56444.36
571.11	56559.05
571.27	56334.35
571.43	56591.81
571.60	56633.94
571.76	56467.76
571.92	56935.87
572.09	56835.23
572.25	56697.14
572.41	56666.71
572.57	56666.71
572.74	56694.80
572.90	56603.52
573.06	56629.26
573.22	56713.52
573.38	56863.32
573.55	56891.40
573.71	57116.09
573.87	56891.40
574.03	56669.05
574.20	56708.84
574.36	56633.94
574.52	56683.09
574.68	56509.89
574.84	56640.96
575.01	56662.03
575.17	56704.16
575.33	56615.22
575.49	56907.79
575.65	56910.13
575.82	56968.64
575.98	56645.65
576.14	56912.47
576.30	56779.06
576.46	56647.99
576.62	56591.81
576.79	56509.89
576.95	56542.66
577.11	56851.61
577.27	56743.95
577.43	56914.81
577.59	56708.84
577.75	56830.55
577.92	56643.30
578.08	56596.49
578.24	56596.49
578.40	56804.80
578.56	56652.67
578.72	56914.81
578.88	57165.24
579.04	56940.55
579.21	56816.50
579.37	56830.55
579.53	57048.22
579.69	56610.54
579.85	56694.80
580.01	56776.72
580.17	56610.54
580.33	56594.15
580.49	56781.40
580.65	56956.94
580.82	57160.56
580.98	56594.15
581.14	56924.17
581.30	56762.67
581.46	56617.56
581.62	56839.91
581.78	56587.13
581.94	56839.91
582.10	56942.89
582.26	56762.67
582.42	56741.61
582.58	56818.84
582.74	56772.03
582.90	56783.74
583.06	56914.81
583.22	56739.27
583.38	56699.48
583.54	56739.27
583.70	56708.84
583.86	56851.61
584.02	56736.93
584.18	57118.43
584.34	56996.73
584.50	57050.56
584.66	56694.80
584.82	56563.73
584.98	56905.44
585.14	56917.15
585.30	56872.68
585.46	56818.84
585.62	56687.78
585.78	57076.30
585.94	56884.38
586.10	56868.00
586.26	56865.66
586.42	57141.84
586.58	56921.83
586.74	56811.82
586.90	56736.93
587.06	56809.48
587.22	56844.59
587.38	56647.99
587.54	56868.00
587.70	57251.84
587.86	56999.07
588.02	57090.35
588.18	57167.58
588.34	56992.04
588.49	57029.49
588.65	56811.82
588.81	56884.38
588.97	56736.93
589.13	56757.99
589.29	56886.72
589.45	56860.97
589.61	57457.81
