SpectraSuite Data File
++++++++++++++++++++++++++++++++++++
Date: Fri Oct 18 13:55:45 GMT-05:00 2013
User: bianchi
Dark Spectrum Present: No
Reference Spectrum Present: No
Number of Sampled Component Spectra: 1
Spectrometers: USB2+H05261
Integration Time (usec): 100000 (USB2+H05261)
Spectra Averaged: 1 (USB2+H05261)
Boxcar Smoothing: 0 (USB2+H05261)
Correct for Electrical Dark: No (USB2+H05261)
Strobe/Lamp Enabled: No (USB2+H05261)
Correct for Detector Non-linearity: No (USB2+H05261)
Correct for Stray Light: No (USB2+H05261)
Number of Pixels in Processed Spectrum: 2048
>>>>>Begin Processed Spectral Data<<<<<
365.73	0.00
365.92	0.00
366.12	0.00
366.32	0.00
366.52	0.00
366.72	0.00
366.91	0.00
367.11	0.00
367.31	0.00
367.51	0.00
367.70	0.00
367.90	0.00
368.10	0.00
368.30	0.00
368.49	0.00
368.69	0.00
368.89	0.00
369.09	0.00
369.28	0.00
369.48	0.00
369.68	0.00
369.87	0.00
370.07	0.00
370.27	0.00
370.47	49.15
370.66	182.56
370.86	227.03
371.06	234.05
371.25	353.42
371.45	320.65
371.65	322.99
371.84	287.89
372.04	194.26
372.24	315.97
372.44	330.02
372.63	344.06
372.83	428.32
373.03	351.08
373.22	262.14
373.42	376.83
373.62	372.15
373.81	454.06
374.01	423.64
374.21	447.04
374.40	404.91
374.60	449.38
374.79	388.53
374.99	383.85
375.19	510.24
375.38	498.53
375.58	475.13
375.78	461.09
375.97	390.87
376.17	533.64
376.37	437.68
376.56	547.69
376.76	454.06
376.95	482.15
377.15	484.49
377.35	552.37
377.54	404.91
377.74	418.96
377.93	456.40
378.13	496.19
378.33	489.17
378.52	528.96
378.72	545.34
378.91	430.66
379.11	477.47
379.31	465.77
379.50	493.85
379.70	557.05
379.89	540.66
380.09	456.40
380.28	486.83
380.48	592.16
380.68	498.53
380.87	550.03
381.07	585.13
381.26	540.66
381.46	545.34
381.65	566.41
381.85	559.39
382.04	587.47
382.24	573.43
382.43	601.52
382.63	573.43
382.83	671.73
383.02	627.26
383.22	617.90
383.41	685.78
383.61	650.67
383.80	711.52
384.00	650.67
384.19	699.82
384.39	704.50
384.58	662.37
384.78	685.78
384.97	617.90
385.17	615.56
385.36	674.07
385.56	645.99
385.75	699.82
385.95	671.73
386.14	716.20
386.34	627.26
386.53	758.33
386.72	767.70
386.92	802.80
387.11	744.29
387.31	730.25
387.50	779.40
387.70	741.95
387.89	669.39
388.09	732.59
388.28	798.12
388.48	746.63
388.67	772.38
388.86	741.95
389.06	844.93
389.25	760.67
389.45	849.61
389.64	816.85
389.84	786.42
390.03	889.40
390.22	917.49
390.42	791.10
390.61	891.74
390.81	901.11
391.00	894.08
391.19	866.00
391.39	842.59
391.58	931.53
391.78	819.19
391.97	901.11
392.16	917.49
392.36	961.96
392.55	863.66
392.75	940.90
392.94	940.90
393.13	940.90
393.33	926.85
393.52	1046.22
393.71	1057.92
393.91	1025.15
394.10	966.64
394.29	1086.01
394.49	1057.92
394.68	1011.11
394.88	1090.69
395.07	1102.39
395.26	1121.12
395.46	1036.86
395.65	1114.10
395.84	1163.25
396.04	1160.91
396.23	1102.39
396.42	1214.74
396.62	1135.16
396.81	1165.59
397.00	1200.69
397.19	1205.38
397.39	1273.25
397.58	1135.16
397.77	1116.44
397.97	1277.93
398.16	1163.25
398.35	1291.98
398.55	1268.57
398.74	1245.16
398.93	1322.40
399.12	1289.64
399.32	1275.59
399.51	1420.71
399.70	1341.13
399.90	1291.98
400.09	1362.19
400.28	1458.15
400.47	1371.55
400.67	1270.91
400.86	1373.89
401.05	1469.86
401.24	1420.71
401.44	1469.86
401.63	1462.83
401.82	1392.62
402.01	1444.11
402.21	1488.58
402.40	1497.94
402.59	1568.16
402.78	1437.09
402.97	1523.69
403.17	1579.86
403.36	1638.38
403.55	1523.69
403.74	1668.80
403.93	1617.31
404.13	1650.08
404.32	1666.46
404.51	1673.48
404.70	1771.79
404.89	1746.04
405.09	1722.63
405.28	1680.50
405.47	1809.23
405.66	1783.49
405.85	1944.99
406.05	1811.57
406.24	1834.98
406.43	1802.21
406.62	2026.90
406.81	1984.77
407.00	1839.66
407.20	1839.66
407.39	1928.60
407.58	1893.49
407.77	1937.96
407.96	2008.18
408.15	2059.67
408.34	1952.01
408.54	2066.69
408.73	2078.40
408.92	2122.87
409.11	2251.60
409.30	2207.13
409.49	2090.10
409.68	2143.93
409.87	2125.21
410.07	2265.64
410.26	2370.96
410.45	2197.76
410.64	2251.60
410.83	2207.13
411.02	2385.01
411.21	2459.90
411.40	2476.29
411.59	2511.39
411.78	2422.45
411.98	2473.95
412.17	2445.86
412.36	2520.76
412.55	2607.36
412.74	2462.24
412.93	2612.04
413.12	2565.23
413.31	2771.19
413.50	2623.74
413.69	2820.35
413.88	2925.67
414.07	2782.90
414.26	2913.97
414.45	2775.88
414.64	2965.46
414.83	2944.39
415.02	2984.18
415.22	2984.18
415.41	3061.42
415.60	2995.89
415.79	3159.72
415.98	3136.32
416.17	3208.87
416.36	3152.70
416.55	3206.53
416.74	3391.44
416.93	3185.47
417.12	3185.47
417.31	3335.26
417.50	3330.58
417.69	3325.90
417.88	3452.29
418.07	3574.00
418.26	3468.67
418.45	3468.67
418.64	3632.51
418.83	3744.86
419.02	3590.38
419.21	3742.52
419.39	3599.74
419.58	3538.89
419.77	3517.83
419.96	3693.37
420.15	3723.79
420.34	3758.90
420.53	3583.36
420.72	3796.35
420.91	3929.76
421.10	3871.25
421.29	4053.81
421.48	3852.52
421.67	4028.06
421.86	3981.25
422.05	3873.59
422.24	3988.27
422.43	3901.67
422.61	3957.85
422.80	3981.25
422.99	3929.76
423.18	3969.55
423.37	3974.23
423.56	3974.23
423.75	3990.61
423.94	4025.72
424.13	3817.41
424.32	3882.95
424.50	4070.19
424.69	4021.04
424.88	4283.18
425.07	4021.04
425.26	3981.25
425.45	3978.91
425.64	4276.16
425.83	4140.41
426.01	4212.96
426.20	4117.00
426.39	4297.22
426.58	4140.41
426.77	4100.62
426.96	4198.92
427.15	4124.02
427.33	4294.88
427.52	4234.03
427.71	4241.05
427.90	4348.72
428.09	4187.22
428.28	4393.19
428.46	4353.40
428.65	4299.56
428.84	4538.30
429.03	4578.09
429.22	4428.29
429.40	4535.96
429.59	4486.81
429.78	4222.33
429.97	4442.34
430.16	4421.27
430.34	4559.36
430.53	4585.11
430.72	4674.05
430.91	4617.88
431.10	4620.22
431.28	4554.68
431.47	4777.03
431.66	4880.02
431.85	4676.39
432.03	4781.71
432.22	4954.91
432.41	4767.67
432.60	4896.40
432.79	5013.43
432.97	5123.43
433.16	4868.31
433.35	4875.34
433.54	5104.71
433.72	5088.32
433.91	5121.09
434.10	5095.35
434.28	4992.36
434.47	5214.71
434.66	5195.99
434.85	5249.82
435.03	5263.86
435.22	5238.12
435.41	5385.57
435.59	5313.02
435.78	5294.29
435.97	5317.70
436.16	5294.29
436.34	5404.30
436.53	5526.00
436.72	5345.78
436.90	5310.68
437.09	5334.08
437.28	5380.89
437.46	5362.17
437.65	5448.77
437.84	5486.22
438.02	5540.05
438.21	5671.12
438.40	5640.69
438.58	5795.17
438.77	5809.21
438.96	5823.25
439.14	6033.90
439.33	5949.64
439.52	6115.82
439.70	5849.00
439.89	6169.65
440.08	6141.57
440.26	5937.94
440.45	6031.56
440.63	6146.25
440.82	6366.26
441.01	6218.80
441.19	6319.45
441.38	6324.13
441.57	6415.41
441.75	6494.99
441.94	6455.20
442.12	6560.52
442.31	6689.25
442.50	6724.36
442.68	6759.47
442.87	6476.26
443.05	6649.46
443.24	6661.16
443.43	6724.36
443.61	6799.26
443.80	6939.69
443.98	6663.51
444.17	6583.93
444.35	6764.15
444.54	6817.98
444.73	6904.58
444.91	6876.49
445.10	6878.83
445.28	6925.65
445.47	6846.07
445.65	6944.37
445.84	6920.96
446.02	7005.22
446.21	6939.69
446.39	6771.17
446.58	7002.88
446.77	7019.27
446.95	6839.05
447.14	6935.01
447.32	7091.82
447.51	6817.98
447.69	7033.31
447.88	7194.81
448.06	6949.05
448.25	6913.94
448.43	7037.99
448.62	7070.76
448.80	7052.03
448.99	7241.62
449.17	7157.36
449.36	7194.81
449.54	7112.89
449.73	7391.41
449.91	7382.05
450.10	7417.16
450.28	7276.73
450.46	7501.42
450.65	7431.20
450.83	7595.04
451.02	7337.58
451.20	7543.55
451.39	7583.34
451.57	7541.21
451.76	7377.37
451.94	7499.08
452.13	7850.16
452.31	7679.30
452.49	7459.29
452.68	7698.02
452.86	7520.14
453.05	7742.49
453.23	7826.75
453.42	7892.29
453.60	7723.77
453.78	7833.77
453.97	7868.88
454.15	7808.03
454.34	7812.71
454.52	8133.36
454.70	8016.33
454.89	8191.88
455.07	8128.68
455.26	7999.95
455.44	8351.03
455.62	8166.13
455.81	8222.30
455.99	8255.07
456.17	8224.64
456.36	8063.15
456.54	8500.83
456.73	8383.80
456.91	8784.03
457.09	8585.08
457.28	8723.18
457.46	8484.44
457.64	8812.12
457.83	8858.93
458.01	8643.60
458.19	8652.96
458.38	8549.98
458.56	8755.94
458.74	8781.69
458.93	8622.53
459.11	8889.35
459.29	8884.67
459.48	8800.41
459.66	8870.63
459.84	8917.44
460.03	9078.94
460.21	9174.90
460.39	9013.40
460.57	8903.40
460.76	9132.77
460.94	9345.76
461.12	9404.27
461.31	9104.68
461.49	9322.35
461.67	9235.75
461.85	9451.08
462.04	9343.42
462.22	9479.17
462.40	9563.43
462.59	9401.93
462.77	9465.13
462.95	9776.42
463.13	9582.15
463.32	9455.76
463.50	9654.71
463.68	9533.00
463.86	9612.58
464.05	9617.26
464.23	9521.30
464.41	9617.26
464.59	9713.22
464.78	10113.45
464.96	9823.23
465.14	9743.65
465.32	9916.85
465.50	9914.51
465.69	10085.37
465.87	9858.34
466.05	9741.31
466.23	9654.71
466.41	9984.73
466.60	10207.08
466.78	9998.77
466.96	9884.08
467.14	9795.14
467.32	10080.69
467.51	10354.53
467.69	9935.57
467.87	10286.65
468.05	10200.05
468.23	10090.05
468.41	10136.86
468.60	10333.47
468.78	10380.28
468.96	10157.92
469.14	10354.53
469.32	10651.78
469.50	10352.19
469.69	10361.55
469.87	10848.38
470.05	11115.20
470.23	10775.83
470.41	10759.44
470.59	10911.58
470.77	10740.72
470.95	10843.70
471.14	10810.93
471.32	10750.08
471.50	11082.44
471.68	11279.04
471.86	11197.12
472.04	11119.89
472.22	11250.96
472.40	11169.04
472.58	11314.15
472.77	11220.53
472.95	11473.31
473.13	11693.32
473.31	11449.90
473.49	11534.16
473.67	11564.59
473.85	11485.01
474.03	11850.13
474.21	11880.56
474.39	11988.22
474.57	12004.61
474.75	12273.77
474.93	12156.74
475.12	12325.26
475.30	12470.37
475.48	11999.93
475.66	12182.49
475.84	12435.27
476.02	12369.73
476.20	12439.95
476.38	12816.77
476.56	12863.58
476.74	12968.91
476.92	12957.21
477.10	12926.78
477.28	13107.00
477.46	13092.96
477.64	13149.13
477.82	13383.18
478.00	13502.55
478.18	13715.54
478.36	13853.63
478.54	13776.39
478.72	14054.92
478.90	13944.91
479.08	14104.07
479.26	14143.86
479.44	14281.95
479.62	14661.12
479.80	14581.54
479.98	14820.27
480.16	15077.73
480.34	14874.10
480.52	14984.11
480.70	15112.84
480.88	14956.02
481.06	15201.78
481.24	15030.92
481.41	15658.18
481.59	15805.64
481.77	15772.87
481.95	15707.34
482.13	16084.16
482.31	15969.48
482.49	16409.50
482.67	16215.23
482.85	16552.27
483.03	16683.34
483.21	17053.14
483.39	17029.74
483.57	16924.41
483.74	17329.33
483.92	17130.38
484.10	17163.15
484.28	17820.84
484.46	17722.54
484.64	17844.24
484.82	17731.90
485.00	18174.26
485.18	18178.94
485.35	18530.02
485.53	18450.44
485.71	18712.58
485.89	19009.83
486.07	18986.43
486.25	19300.06
486.43	19403.04
486.61	19103.45
486.78	19531.77
486.96	19475.60
487.14	19833.70
487.32	19950.73
487.50	20240.95
487.68	20128.61
487.85	20793.32
488.03	20563.95
488.21	21123.33
488.39	20762.89
488.57	21202.91
488.75	21209.93
488.92	21977.63
489.10	21579.74
489.28	21710.81
489.46	21916.78
489.64	21888.69
489.81	22483.19
489.99	22298.28
490.17	22398.93
490.35	22675.11
490.53	22934.91
490.70	23047.26
490.88	23239.18
491.06	22857.67
491.24	23424.08
491.41	23257.90
491.59	23573.88
491.77	23775.16
491.95	24112.20
492.13	24294.76
492.30	24350.93
492.48	24439.87
492.66	24416.47
492.84	24154.33
493.01	24975.86
493.19	24870.53
493.37	24978.20
493.54	25296.51
493.72	25355.02
493.90	25436.94
494.08	25893.35
494.25	25820.79
494.43	25762.28
494.61	26202.30
494.79	26249.11
494.96	26178.89
495.14	26368.48
495.32	26562.74
495.49	26944.25
495.67	26787.43
495.85	27101.06
496.02	27295.33
496.20	27484.91
496.38	27566.83
496.55	27857.06
496.73	28205.80
496.91	27971.74
497.09	28453.89
497.26	28584.96
497.44	28250.27
497.62	28259.63
497.79	28830.72
497.97	28713.69
498.14	28999.24
498.32	29116.26
498.50	29205.20
498.67	29462.66
498.85	29542.24
499.03	29790.34
499.20	29317.55
499.38	29579.69
499.56	30204.61
499.73	29900.34
499.91	30335.68
500.08	30295.89
500.26	30228.02
500.44	30302.92
500.61	30382.49
500.79	30473.78
500.97	31173.60
501.14	30749.96
501.32	31147.85
501.49	30890.39
501.67	30874.01
501.84	31428.71
502.02	31140.83
502.20	31550.42
502.37	31779.79
502.55	31669.79
502.72	31957.67
502.90	32020.87
503.07	31517.65
503.25	31964.70
503.43	32217.47
503.60	32657.49
503.78	32428.12
503.95	32481.95
504.13	32477.27
504.30	32662.18
504.48	32772.18
504.65	32905.59
504.83	33029.64
505.01	32975.81
505.18	33214.54
505.36	33340.93
505.53	33619.46
505.71	33319.87
505.88	33509.45
506.06	33322.21
506.23	33598.39
506.41	33989.26
506.58	33905.00
506.76	34068.84
506.93	34258.42
507.11	34293.53
507.28	33975.22
507.46	34382.47
507.63	34527.58
507.81	34993.35
507.98	34213.95
508.16	34558.01
508.33	34913.77
508.50	35042.50
508.68	35325.71
508.85	35646.36
509.03	35323.36
509.20	35253.15
509.38	35543.38
509.55	35763.39
509.73	35857.01
509.90	35833.60
510.08	35894.46
510.25	36292.35
510.42	35915.52
510.60	36325.11
510.77	36486.61
510.95	36961.74
511.12	36392.99
511.30	36598.96
511.47	36713.64
511.64	36957.06
511.82	37060.04
511.99	36879.82
512.17	36865.78
512.34	36971.10
512.51	37301.12
512.69	37322.18
512.86	37488.36
513.04	38059.45
513.21	37947.11
513.38	37502.40
513.56	38167.12
513.73	37958.81
513.90	38061.79
514.08	38071.15
514.25	38022.00
514.43	38302.87
514.60	38164.78
514.77	38162.43
514.95	38529.90
515.12	38735.87
515.29	38635.22
515.47	39321.00
515.64	38897.36
515.81	39622.93
515.99	39405.26
516.16	39634.63
516.33	39402.92
516.51	39232.06
516.68	39091.63
516.85	39679.10
517.03	39746.98
517.20	39742.30
517.37	39840.60
517.54	39845.28
517.72	40250.19
517.89	40041.88
518.06	40062.95
518.24	39772.72
518.41	39805.49
518.58	40130.83
518.75	40149.55
518.93	40327.43
519.10	40746.39
519.27	40542.76
519.45	40275.94
519.62	40676.17
519.79	40776.81
519.96	40802.56
520.14	41280.03
520.31	40793.20
520.48	41130.23
520.65	41486.00
520.83	41469.61
521.00	40964.06
521.17	41067.04
521.34	41593.66
521.52	41069.38
521.69	41738.77
521.86	41752.82
522.03	41647.49
522.20	41874.52
522.38	42258.37
522.55	42160.07
522.72	41855.80
522.89	42267.73
523.07	42628.18
523.24	42440.93
523.41	42604.77
523.58	42454.98
523.75	42787.33
523.92	42642.22
524.10	42609.45
524.27	43086.92
524.44	43320.98
524.61	43005.00
524.78	43007.34
524.96	43700.14
525.13	43653.33
525.30	43309.27
525.47	43274.16
525.64	43456.73
525.81	43800.79
525.98	43821.85
526.16	43789.08
526.33	43756.32
526.50	43707.16
526.67	43384.17
526.84	44020.80
527.01	43571.41
527.18	44332.09
527.36	43976.33
527.53	43978.67
527.70	44683.17
527.87	44741.68
528.04	44217.40
528.21	44212.72
528.38	44362.51
528.55	44748.70
528.72	44502.95
528.89	44296.98
529.07	44406.98
529.24	44746.36
529.41	45010.84
529.58	44589.55
529.75	44821.26
529.92	44629.34
530.09	44701.89
530.26	44933.60
530.43	45216.81
530.60	45132.55
530.77	45256.60
530.94	45518.74
531.11	45137.23
531.28	45034.25
531.46	45277.66
531.63	45481.29
531.80	45900.25
531.97	45701.30
532.14	45940.04
532.31	45581.93
532.48	46209.20
532.65	45832.37
532.82	45853.44
532.99	45954.08
533.16	45336.18
533.33	46218.56
533.50	46532.19
533.67	46590.70
533.84	46106.21
534.01	46174.09
534.18	45862.80
534.35	46532.19
534.52	46445.59
534.69	46611.77
534.86	46319.20
535.03	46607.09
535.20	46850.50
535.37	46845.82
535.54	46857.52
535.71	46471.34
535.88	47063.49
536.05	46354.31
536.22	47152.43
536.38	47295.21
536.55	47012.00
536.72	47669.69
536.89	46768.58
537.06	46981.57
537.23	46960.51
537.40	47281.16
537.57	47187.54
537.74	47262.44
537.91	48121.41
538.08	47711.82
538.25	47334.99
538.42	47360.74
538.59	47878.00
538.75	47473.09
538.92	47686.07
539.09	47920.13
539.26	47653.31
539.43	47889.70
539.60	48154.18
539.77	47824.17
539.94	48233.76
540.11	47786.72
540.28	47606.50
540.44	47627.56
540.61	47955.24
540.78	48191.63
540.95	47980.98
541.12	48208.01
541.29	48325.04
541.46	48208.01
541.62	47835.87
541.79	48212.70
541.96	48083.97
542.13	48098.01
542.30	48533.35
542.47	48460.79
542.63	48685.48
542.80	48989.75
542.97	49113.80
543.14	49151.25
543.31	49034.22
543.48	48966.35
543.64	49214.44
543.81	49462.54
543.98	49319.77
544.15	49155.93
544.32	49258.91
544.48	49703.62
544.65	48940.60
544.82	49083.37
544.99	48896.13
545.16	49532.76
545.32	49364.24
545.49	50075.76
545.66	50050.02
545.83	49474.24
546.00	49846.39
546.16	49787.88
546.33	49076.35
546.50	49031.88
546.67	49701.28
546.83	49432.11
547.00	49811.28
547.17	49631.06
547.34	49752.77
547.50	49940.01
547.67	50005.55
547.84	49942.35
548.00	49911.92
548.17	50452.59
548.34	49853.41
548.51	50309.82
548.67	50007.89
548.84	50529.83
549.01	50052.36
549.18	50279.39
549.34	50300.45
549.51	49743.41
549.68	50387.05
549.84	50237.26
550.01	50185.77
550.18	50174.06
550.34	50497.06
550.51	50546.21
550.68	50557.91
550.84	49965.76
551.01	50433.86
551.18	50344.92
551.34	50225.56
551.51	50307.47
551.68	50742.81
551.84	50808.35
552.01	50590.68
552.18	50808.35
552.34	50497.06
552.51	50630.47
552.68	50604.72
552.84	50843.46
553.01	50724.09
553.18	50768.56
553.34	50873.88
553.51	50981.55
553.67	50925.38
553.84	51100.92
554.01	50927.72
554.17	51227.31
554.34	51019.00
554.51	51086.87
554.67	50979.21
554.84	51056.45
555.00	51103.26
555.17	51126.66
555.33	51107.94
555.50	51049.42
555.67	51313.90
555.83	51026.02
556.00	51002.61
556.16	51690.73
556.33	51192.20
556.50	51121.98
556.66	51489.45
556.83	51414.55
556.99	51543.28
557.16	51636.90
557.32	51407.53
557.49	51650.94
557.65	51421.57
557.82	51112.62
557.98	51311.56
558.15	51475.40
558.32	51681.37
558.48	51524.55
558.65	51737.54
558.81	51695.41
558.98	51634.56
559.14	51475.40
559.31	51489.45
559.47	51634.56
559.64	51526.89
559.80	51742.22
559.97	51774.99
560.13	51585.41
560.30	51943.51
560.46	51634.56
560.63	51810.10
560.79	51641.58
560.96	51709.46
561.12	51828.82
561.29	51852.23
561.45	51714.14
561.61	51765.63
561.78	51969.26
561.94	52062.88
562.11	51650.94
562.27	51686.05
562.44	51906.06
562.60	51821.80
562.77	51646.26
562.93	51796.06
563.10	52030.11
563.26	51674.35
563.42	52420.98
563.59	52147.14
563.75	51929.47
563.92	51847.55
564.08	51660.30
564.24	51681.37
564.41	52011.38
564.57	51737.54
564.74	52142.45
564.90	52172.88
565.07	52067.56
565.23	52128.41
565.39	51683.71
565.56	52247.78
565.72	52238.42
565.88	51955.21
566.05	51908.40
566.21	51952.87
566.38	52013.73
566.54	52051.17
566.70	52107.35
566.87	52629.29
567.03	51934.15
567.19	52418.64
567.36	52119.05
567.52	51791.37
567.68	52322.68
567.85	51892.02
568.01	52114.37
568.17	52280.55
568.34	52528.64
568.50	52165.86
568.66	52135.43
568.83	52332.04
568.99	52264.16
569.15	52137.77
569.32	52219.69
569.48	51936.49
569.64	52039.47
569.81	52184.58
569.97	52322.68
570.13	52603.54
570.30	52299.27
570.46	52540.35
570.62	52161.18
570.78	52048.83
570.95	51941.17
571.11	52332.04
571.27	51959.89
571.43	52133.09
571.60	52545.03
571.76	52425.66
571.92	52484.17
572.09	52245.44
572.25	52594.18
572.41	52320.34
572.57	52299.27
572.74	52449.06
572.90	52271.18
573.06	52320.34
573.22	52341.40
573.38	52107.35
573.55	52521.62
573.71	52694.82
573.87	52701.84
574.03	52683.12
574.20	52416.30
574.36	52055.85
574.52	52364.81
574.68	52317.99
574.84	52488.85
575.01	52563.75
575.17	52343.74
575.33	52371.83
575.49	52275.87
575.65	52589.50
575.82	52697.16
575.98	52484.17
576.14	52388.21
576.30	52367.15
576.46	52275.87
576.62	52278.21
576.79	52278.21
576.95	52261.82
577.11	52360.12
577.27	52795.46
577.43	52322.68
577.59	52198.63
577.75	52449.06
577.92	52219.69
578.08	52317.99
578.24	52292.25
578.40	52411.62
578.56	52488.85
578.72	52528.64
578.88	52692.48
579.04	52865.68
579.21	52327.36
579.37	52465.45
579.53	52816.53
579.69	52418.64
579.85	52383.53
580.01	52360.12
580.17	52086.28
580.33	52556.73
580.49	52631.63
580.65	52388.21
580.82	52640.99
580.98	52505.24
581.14	52561.41
581.30	52329.70
581.46	52535.66
581.62	52329.70
581.78	52327.36
581.94	52549.71
582.10	52425.66
582.26	52552.05
582.42	52502.90
582.58	52556.73
582.74	52533.32
582.90	52547.37
583.06	52683.12
583.22	52523.96
583.38	52437.36
583.54	52163.52
583.70	52500.56
583.86	52514.60
584.02	52170.54
584.18	52603.54
584.34	52556.73
584.50	52849.30
584.66	52285.23
584.82	52435.02
584.98	52699.50
585.14	52477.15
585.30	52341.40
585.46	52669.08
585.62	52549.71
585.78	52835.25
585.94	52423.32
586.10	52523.96
586.26	52346.08
586.42	52507.58
586.58	52769.72
586.74	52596.52
586.90	52339.06
587.06	52090.96
587.22	52282.89
587.38	52299.27
587.54	52552.05
587.70	52739.29
587.86	52645.67
588.02	52428.00
588.18	52664.39
588.34	52633.97
588.49	52762.70
588.65	52626.95
588.81	52327.36
588.97	52491.19
589.13	52317.99
589.29	52322.68
589.45	52870.36
589.61	52720.57
589.77	52935.90
589.93	52797.80
590.08	52959.30
