SpectraSuite Data File
++++++++++++++++++++++++++++++++++++
Date: Fri Oct 18 13:54:08 GMT-05:00 2013
User: bianchi
Dark Spectrum Present: No
Reference Spectrum Present: No
Number of Sampled Component Spectra: 1
Spectrometers: USB2+H05261
Integration Time (usec): 100000 (USB2+H05261)
Spectra Averaged: 1 (USB2+H05261)
Boxcar Smoothing: 0 (USB2+H05261)
Correct for Electrical Dark: No (USB2+H05261)
Strobe/Lamp Enabled: No (USB2+H05261)
Correct for Detector Non-linearity: No (USB2+H05261)
Correct for Stray Light: No (USB2+H05261)
Number of Pixels in Processed Spectrum: 2048
>>>>>Begin Processed Spectral Data<<<<<
365.73	0.00
365.92	0.00
366.12	0.00
366.32	0.00
366.52	0.00
366.72	0.00
366.91	0.00
367.11	0.00
367.31	0.00
367.51	0.00
367.70	0.00
367.90	0.00
368.10	0.00
368.30	0.00
368.49	0.00
368.69	0.00
368.89	0.00
369.09	0.00
369.28	0.00
369.48	0.00
369.68	0.00
369.87	0.00
370.07	0.00
370.27	0.00
370.47	9.36
370.66	255.12
370.86	325.33
371.06	355.76
371.25	346.40
371.45	290.23
371.65	400.23
371.84	346.40
372.04	390.87
372.24	430.66
372.44	365.12
372.63	369.80
372.83	425.98
373.03	451.72
373.22	463.43
373.42	428.32
373.62	440.02
373.81	514.92
374.01	507.90
374.21	557.05
374.40	465.77
374.60	500.87
374.79	390.87
374.99	531.30
375.19	517.26
375.38	454.06
375.58	528.96
375.78	442.36
375.97	500.87
376.17	510.24
376.37	493.85
376.56	573.43
376.76	531.30
376.95	596.84
377.15	554.71
377.35	526.62
377.54	559.39
377.74	540.66
377.93	519.60
378.13	524.28
378.33	575.77
378.52	524.28
378.72	622.58
378.91	648.33
379.11	641.31
379.31	587.47
379.50	557.05
379.70	676.41
379.89	669.39
380.09	622.58
380.28	739.61
380.48	681.10
380.68	596.84
380.87	683.44
381.07	692.80
381.26	734.93
381.46	660.03
381.65	645.99
381.85	671.73
382.04	706.84
382.24	702.16
382.43	727.91
382.63	690.46
382.83	582.79
383.02	791.10
383.22	741.95
383.41	704.50
383.61	692.80
383.80	809.83
384.00	798.12
384.19	786.42
384.39	805.14
384.58	777.06
384.78	847.27
384.97	866.00
385.17	833.23
385.36	844.93
385.56	692.80
385.75	863.66
385.95	938.55
386.14	854.30
386.34	828.55
386.53	812.17
386.72	854.30
386.92	884.72
387.11	891.74
387.31	924.51
387.50	891.74
387.70	873.02
387.89	816.85
388.09	919.83
388.28	873.02
388.48	858.98
388.67	938.55
388.86	877.70
389.06	1034.52
389.25	964.30
389.45	933.87
389.64	936.21
389.84	1001.75
390.03	1008.77
390.22	1055.58
390.42	938.55
390.61	1048.56
390.81	1020.47
391.00	1043.88
391.19	1118.78
391.39	1146.86
391.58	1069.62
391.78	1071.97
391.97	1130.48
392.16	1067.28
392.36	1163.25
392.55	1118.78
392.75	1210.06
392.94	1184.31
393.13	1221.76
393.33	1177.29
393.52	1261.55
393.71	1259.21
393.91	1200.69
394.10	1198.35
394.29	1254.53
394.49	1151.54
394.68	1242.82
394.88	1256.87
395.07	1284.95
395.26	1235.80
395.46	1299.00
395.65	1341.13
395.84	1362.19
396.04	1404.32
396.23	1247.51
396.42	1329.42
396.62	1359.85
396.81	1383.26
397.00	1476.88
397.19	1401.98
397.39	1465.18
397.58	1476.88
397.77	1455.81
397.97	1462.83
398.16	1490.92
398.35	1448.79
398.55	1392.62
398.74	1507.30
398.93	1533.05
399.12	1493.26
399.32	1561.14
399.51	1472.20
399.70	1621.99
399.90	1497.94
400.09	1612.63
400.28	1577.52
400.47	1673.48
400.67	1668.80
400.86	1624.33
401.05	1671.14
401.24	1722.63
401.44	1636.03
401.63	1776.47
401.82	1692.21
402.01	1692.21
402.21	1739.02
402.40	1825.62
402.59	1799.87
402.78	1823.28
402.97	1802.21
403.17	1797.53
403.36	1872.43
403.55	1832.64
403.74	1942.64
403.93	1968.39
404.13	1954.35
404.32	1923.92
404.51	1961.37
404.70	2045.63
404.89	1980.09
405.09	2097.12
405.28	2078.40
405.47	2101.80
405.66	1980.09
405.85	2190.74
406.05	2167.34
406.24	2146.27
406.43	2087.76
406.62	2125.21
406.81	2324.15
407.00	2172.02
407.20	2106.48
407.39	2188.40
407.58	2249.25
407.77	2345.22
407.96	2380.32
408.15	2385.01
408.34	2340.54
408.54	2228.19
408.73	2466.92
408.92	2427.14
409.11	2525.44
409.30	2614.38
409.49	2450.54
409.68	2637.78
409.87	2527.78
410.07	2649.49
410.26	2600.34
410.45	2623.74
410.64	2597.99
410.83	2628.42
411.02	2651.83
411.21	2787.58
411.40	2761.83
411.59	2785.24
411.78	2846.09
411.98	2803.96
412.17	2911.63
412.36	2902.26
412.55	3030.99
412.74	2890.56
412.93	3000.57
413.12	3012.27
413.31	3180.79
413.50	3192.49
413.69	3162.06
413.88	3229.94
414.07	3211.22
414.26	3159.72
414.45	3211.22
414.64	3302.50
414.83	3365.69
415.02	3449.95
415.22	3456.97
415.41	3440.59
415.60	3440.59
415.79	3447.61
415.98	3639.53
416.17	3550.59
416.36	3674.64
416.55	3564.64
416.74	3716.77
416.93	3660.60
417.12	3728.47
417.31	3786.99
417.50	3672.30
417.69	3871.25
417.88	3880.61
418.07	3922.74
418.26	3967.21
418.45	3936.78
418.64	4147.43
418.83	4126.36
419.02	4079.55
419.21	4051.47
419.39	4119.34
419.58	4119.34
419.77	4093.60
419.96	4337.01
420.15	4147.43
420.34	4308.93
420.53	4383.82
420.72	4402.55
420.91	4411.91
421.10	4376.80
421.29	4344.03
421.48	4355.74
421.67	4451.70
421.86	4393.19
422.05	4362.76
422.24	4552.34
422.43	4491.49
422.61	4496.17
422.80	4564.04
422.99	4585.11
423.18	4521.92
423.37	4540.64
423.56	4683.41
423.75	4624.90
423.94	4524.26
424.13	4231.69
424.32	4381.48
424.50	4521.92
424.69	4720.86
424.88	4657.67
425.07	4688.09
425.26	4514.89
425.45	4655.33
425.64	4685.75
425.83	4620.22
426.01	4720.86
426.20	4608.51
426.39	4624.90
426.58	4676.39
426.77	4767.67
426.96	4669.37
427.15	4746.61
427.33	4751.29
427.52	4784.06
427.71	4807.46
427.90	4704.48
428.09	5004.07
428.28	5020.45
428.46	4898.74
428.65	5123.43
428.84	5156.20
429.03	5111.73
429.22	5137.48
429.40	5149.18
429.59	5114.07
429.78	4816.82
429.97	4744.27
430.16	5029.81
430.34	5334.08
430.53	5380.89
430.72	5345.78
430.91	5083.64
431.10	5149.18
431.28	5451.11
431.47	5294.29
431.66	5542.39
431.85	5610.26
432.03	5628.99
432.22	5673.46
432.41	5584.52
432.60	5671.12
432.79	5540.05
432.97	5523.66
433.16	5713.25
433.35	5628.99
433.54	5558.77
433.72	5863.04
433.91	5767.08
434.10	5645.37
434.28	5837.30
434.47	5820.91
434.66	5987.09
434.85	5804.53
435.03	6038.58
435.22	5930.92
435.41	6069.01
435.59	6043.26
435.78	5994.11
435.97	6076.03
436.16	5954.32
436.34	6204.76
436.53	6202.42
436.72	6211.78
436.90	6043.26
437.09	6200.08
437.28	5966.03
437.46	6190.72
437.65	6164.97
437.84	6340.51
438.02	6331.15
438.21	6382.64
438.40	6253.91
438.58	6574.56
438.77	6633.08
438.96	6569.88
439.14	6780.53
439.33	6637.76
439.52	6696.27
439.70	6904.58
439.89	6939.69
440.08	6974.80
440.26	6923.30
440.45	7059.06
440.63	7047.35
440.82	7047.35
441.01	6972.46
441.19	7096.50
441.38	7396.09
441.57	7412.48
441.75	7424.18
441.94	7449.93
442.12	7307.15
442.31	7559.93
442.50	7665.25
442.68	7508.44
442.87	7613.76
443.05	7452.27
443.24	7665.25
443.43	7756.54
443.61	7602.06
443.80	7852.50
443.98	7609.08
444.17	7325.88
444.35	7770.58
444.54	7845.48
444.73	7744.83
444.91	7864.20
445.10	7843.14
445.28	7772.92
445.47	7625.47
445.65	7864.20
445.84	8004.63
446.02	8018.68
446.21	7871.22
446.39	7822.07
446.58	8016.33
446.77	8006.97
446.95	7744.83
447.14	7934.42
447.32	8025.70
447.51	7995.27
447.69	8004.63
447.88	7981.23
448.06	7920.37
448.25	7901.65
448.43	8093.57
448.62	8088.89
448.80	8219.96
448.99	8105.28
449.17	8196.56
449.36	8152.09
449.54	8355.71
449.73	8224.64
449.91	8521.89
450.10	8463.38
450.28	8575.72
450.46	8327.63
450.65	8489.12
450.83	8662.32
451.02	8589.77
451.20	8603.81
451.39	8575.72
451.57	8617.85
451.76	8589.77
451.94	8589.77
452.13	8875.31
452.31	8716.16
452.49	8547.64
452.68	8884.67
452.86	8805.10
453.05	8779.35
453.23	8905.74
453.42	8884.67
453.60	8891.70
453.78	8891.70
453.97	8709.13
454.15	9020.42
454.34	8940.85
454.52	8931.48
454.70	9015.74
454.89	9100.00
455.07	9139.79
455.26	9390.23
455.44	9268.52
455.62	9362.14
455.81	9371.50
455.99	9392.57
456.17	9397.25
456.36	9324.69
456.54	9549.39
456.73	9745.99
456.91	9844.29
457.09	9797.48
457.28	9856.00
457.46	9654.71
457.64	9853.66
457.83	9778.76
458.01	9675.77
458.19	10064.30
458.38	9797.48
458.56	10052.60
458.74	10061.96
458.93	9820.89
459.11	10092.39
459.29	10029.20
459.48	10174.31
459.66	10113.45
459.84	10401.34
460.03	10384.96
460.21	10307.72
460.39	10204.74
460.57	10256.23
460.76	10347.51
460.94	10537.09
461.12	10342.83
461.31	10574.54
461.49	10427.09
461.67	10441.13
461.85	10757.10
462.04	10520.71
462.22	11218.19
462.40	10555.82
462.59	10839.02
462.77	10675.18
462.95	11044.99
463.13	10754.76
463.32	11068.39
463.50	11080.10
463.68	11002.86
463.86	11007.54
464.05	10810.93
464.23	11026.26
464.41	11037.97
464.59	10743.06
464.78	11171.38
464.96	11154.99
465.14	10824.98
465.32	11115.20
465.50	11194.78
465.69	11463.94
465.87	11379.68
466.05	11302.45
466.23	11183.08
466.41	11379.68
466.60	11744.81
466.78	11424.15
466.96	11531.82
467.14	11496.71
467.32	11501.39
467.51	11808.00
467.69	11267.34
467.87	11564.59
468.05	11728.42
468.23	11669.91
468.41	11782.26
468.60	11918.01
468.78	11815.02
468.96	11873.54
469.14	12060.78
469.32	12009.29
469.50	11744.81
469.69	12191.85
469.87	12159.08
470.05	12301.86
470.23	12376.75
470.41	12081.85
470.59	12355.69
470.77	12194.19
470.95	12542.93
471.14	12781.67
471.32	12428.24
471.50	12795.71
471.68	12533.57
471.86	12599.10
472.04	12697.41
472.22	13130.41
472.40	12854.22
472.58	12940.82
472.77	12994.65
472.95	13458.08
473.13	13532.98
473.31	13144.45
473.49	13205.30
473.67	13259.13
473.85	13561.06
474.03	13563.40
474.21	13528.30
474.39	13771.71
474.57	13778.73
474.75	13909.80
474.93	13930.87
475.12	13788.10
475.30	13998.74
475.48	14136.84
475.66	14064.28
475.84	14230.46
476.02	14721.97
476.20	14251.52
476.38	14490.26
476.56	14984.11
476.74	14745.38
476.92	14860.06
477.10	14717.29
477.28	15129.22
477.46	14827.29
477.64	15300.08
477.82	15482.64
478.00	15875.85
478.18	15690.95
478.36	15836.06
478.54	15894.58
478.72	15999.90
478.90	16056.08
479.08	16196.51
479.26	16730.15
479.44	16587.38
479.62	16720.79
479.80	16842.50
479.98	17006.33
480.16	17167.83
480.34	17057.82
480.52	17563.38
480.70	17345.71
480.88	17193.58
481.06	17305.92
481.24	17666.36
481.41	17848.93
481.59	18101.70
481.77	18288.95
481.95	18160.22
482.13	18693.86
482.31	18312.35
482.49	19040.26
482.67	18831.95
482.85	19080.05
483.03	19250.91
483.21	19241.54
483.39	19377.30
483.57	19372.61
483.74	19819.66
483.92	20091.16
484.10	19662.84
484.28	20477.35
484.46	20205.84
484.64	20688.00
484.82	20521.82
485.00	20781.62
485.18	21472.07
485.35	21439.31
485.53	21373.77
485.71	21577.40
485.89	21813.79
486.07	21874.65
486.25	22097.00
486.43	22017.42
486.61	22464.46
486.78	22548.72
486.96	23002.78
487.14	22888.10
487.32	22696.17
487.50	23047.26
487.68	23007.47
487.85	23559.83
488.03	23946.02
488.21	24177.73
488.39	24226.89
488.57	24430.51
488.75	24278.38
488.92	24957.13
489.10	24786.27
489.28	25076.50
489.46	25289.49
489.64	25593.76
489.81	25886.32
489.99	25858.24
490.17	25993.99
490.35	26511.25
490.53	26225.70
490.70	26637.64
490.88	26478.48
491.06	26944.25
491.24	27082.34
491.41	26909.14
491.59	26981.70
491.77	27295.33
491.95	27524.70
492.13	27803.22
492.30	27948.34
492.48	27871.10
492.66	28245.58
492.84	28261.97
493.01	28790.93
493.19	28575.60
493.37	29055.41
493.54	28811.99
493.72	29436.92
493.90	29174.78
494.08	29057.75
494.25	30075.88
494.43	29989.28
494.61	30410.58
494.79	30199.93
494.96	30286.53
495.14	30455.05
495.32	31154.87
495.49	30553.35
495.67	31175.94
495.85	31538.72
496.02	31613.62
496.20	31868.73
496.38	31807.88
496.55	31487.23
496.73	32149.60
496.91	31803.20
497.09	32334.50
497.26	32762.82
497.44	32238.54
497.62	33120.92
497.79	33170.07
497.97	32856.44
498.14	33172.41
498.32	33378.38
498.50	33518.81
498.67	34117.99
498.85	33773.93
499.03	34380.13
499.20	33855.85
499.38	34438.64
499.56	34426.94
499.73	34658.65
499.91	34918.45
500.08	34897.39
500.26	34756.96
500.44	35012.07
500.61	35070.59
500.79	34983.99
500.97	35285.92
501.14	36065.31
501.32	35629.98
501.49	35442.73
501.67	35924.88
501.84	36004.46
502.02	36030.21
502.20	36086.38
502.37	36889.18
502.55	36467.89
502.72	36664.49
502.90	36847.05
503.07	36409.37
503.25	36685.56
503.43	37024.93
503.60	37530.49
503.78	37340.91
503.95	37434.53
504.13	37413.46
504.30	37446.23
504.48	37759.86
504.65	37916.68
504.83	37954.13
505.01	38440.96
505.18	38349.68
505.36	38473.73
505.53	38714.80
505.71	38525.22
505.88	38707.78
506.06	38270.10
506.23	38880.98
506.41	39164.18
506.58	39278.87
506.76	39419.30
506.93	39435.69
507.11	39147.80
507.28	39772.72
507.46	39749.32
507.63	40133.17
507.81	39824.22
507.98	39510.58
508.16	40119.12
508.33	40254.87
508.50	40542.76
508.68	40224.45
508.85	40627.02
509.03	40629.36
509.20	40442.12
509.38	41371.31
509.55	41038.95
509.73	41209.81
509.90	41483.66
510.08	41200.45
510.25	41448.55
510.42	41331.52
510.60	41832.39
510.77	41631.11
510.95	42424.55
511.12	41975.17
511.30	41614.72
511.47	41968.15
511.64	42436.25
511.82	42869.25
511.99	42562.64
512.17	42595.41
512.34	42653.92
512.51	43054.15
512.69	42850.53
512.86	43278.85
513.04	43323.32
513.21	43650.99
513.38	43047.13
513.56	43407.58
513.73	43571.41
513.90	43686.10
514.08	43676.74
514.25	44051.22
514.43	43880.36
514.60	44208.04
514.77	44563.80
514.95	44257.19
515.12	44603.59
515.29	44065.27
515.47	44315.70
515.64	45071.70
515.81	44301.66
515.99	44449.11
516.16	45457.88
516.33	44910.20
516.51	45530.44
516.68	45083.40
516.85	45095.10
517.03	45439.16
517.20	45373.63
517.37	45649.81
517.54	45441.50
517.72	45715.34
517.89	45392.35
518.06	45841.73
518.24	45595.98
518.41	45710.66
518.58	46026.63
518.75	45872.16
518.93	46202.18
519.10	46295.80
519.27	46557.94
519.45	46426.87
519.62	46611.77
519.79	46494.74
519.96	46728.80
520.14	46855.18
520.31	46806.03
520.48	47131.37
520.65	47166.48
520.83	46997.96
521.00	47484.79
521.17	47508.19
521.34	47306.91
521.52	47124.35
521.69	47330.31
521.86	47704.80
522.03	47641.60
522.20	47775.02
522.38	47852.25
522.55	47629.90
522.72	47957.58
522.89	48004.39
523.07	48067.58
523.24	48236.10
523.41	48772.08
523.58	48217.38
523.75	48425.68
523.92	48512.28
524.10	48521.65
524.27	48577.82
524.44	48683.14
524.61	49109.12
524.78	49148.91
524.96	48949.96
525.13	48959.33
525.30	49219.13
525.47	49200.40
525.64	49251.89
525.81	49375.94
525.98	49544.46
526.16	49586.59
526.33	49366.58
526.50	49801.92
526.67	49858.09
526.84	49560.84
527.01	49837.03
527.18	49757.45
527.36	49886.18
527.53	49968.10
527.70	50291.09
527.87	50220.87
528.04	49808.94
528.21	50176.40
528.38	50164.70
528.55	50380.03
528.72	50064.06
528.89	50375.35
529.07	50382.37
529.24	50532.17
529.41	50368.33
529.58	50480.67
529.75	50623.45
529.92	50452.59
530.09	50791.97
530.26	50794.31
530.43	50700.68
530.60	50562.59
530.77	51133.68
530.94	51484.76
531.11	50787.28
531.28	50897.29
531.46	51037.72
531.63	51295.18
531.80	51313.90
531.97	51690.73
532.14	51299.86
532.31	51920.10
532.48	51454.34
532.65	51676.69
532.82	51234.33
532.99	51302.20
533.16	51220.28
533.33	51782.01
533.50	52245.44
533.67	51744.56
533.84	51613.49
534.01	51840.53
534.18	51531.57
534.35	51866.27
534.52	51751.59
534.69	52144.80
534.86	52435.02
535.03	52069.90
535.20	52479.49
535.37	52006.70
535.54	52273.52
535.71	51749.24
535.88	52107.35
536.05	52296.93
536.22	52505.24
536.38	52797.80
536.55	52596.52
536.72	52598.86
536.89	52404.59
537.06	52086.28
537.23	52842.27
537.40	52390.55
537.57	52797.80
537.74	52809.51
537.91	52982.71
538.08	52844.62
538.25	52921.85
538.42	52601.20
538.59	52879.72
538.75	52575.45
538.92	52884.40
539.09	53172.29
539.26	52865.68
539.43	53106.76
539.60	53364.21
539.77	53401.66
539.94	53153.57
540.11	53113.78
540.28	53371.24
540.44	53207.40
540.61	53095.05
540.78	53123.14
540.95	53464.86
541.12	53312.72
541.29	53298.68
541.46	53492.94
541.62	53284.64
541.79	53757.42
541.96	53244.85
542.13	53542.10
542.30	53570.18
542.47	53949.35
542.63	53780.83
542.80	53851.05
542.97	54206.81
543.14	54262.98
543.31	54131.91
543.48	53902.54
543.64	54120.21
543.81	54464.27
543.98	54115.53
544.15	54546.18
544.32	54506.40
544.48	54344.90
544.65	54354.26
544.82	54115.53
544.99	54082.76
545.16	54223.19
545.32	54468.95
545.49	54808.32
545.66	54780.24
545.83	54628.10
546.00	54644.49
546.16	54787.26
546.33	54326.17
546.50	54438.52
546.67	54578.95
546.83	54354.26
547.00	54815.35
547.17	54501.71
547.34	55009.61
547.50	55068.12
547.67	55002.59
547.84	54981.52
548.00	55030.68
548.17	55288.13
548.34	54768.54
548.51	55299.84
548.67	54934.71
548.84	55018.97
549.01	55007.27
549.18	55220.26
549.34	55224.94
549.51	54974.50
549.68	55004.93
549.84	54939.39
550.01	55208.56
550.18	55145.36
550.34	55384.10
550.51	55367.71
550.68	55407.50
550.84	55021.31
551.01	55386.44
551.18	55337.29
551.34	55243.66
551.51	55234.30
551.68	55454.31
551.84	55283.45
552.01	55552.62
552.18	55480.06
552.34	55608.79
552.51	55367.71
552.68	55302.18
552.84	55447.29
553.01	55831.14
553.18	55653.26
553.34	55819.44
553.51	55877.95
553.67	55824.12
553.84	55695.39
554.01	55934.12
554.17	55817.10
554.34	55976.25
554.51	55852.20
554.67	55798.37
554.84	55681.34
555.00	55896.67
555.17	55817.10
555.33	56119.02
555.50	56116.68
555.67	55962.21
555.83	56109.66
556.00	55847.52
556.16	56044.13
556.33	55931.78
556.50	55891.99
556.66	56109.66
556.83	55962.21
556.99	56250.09
557.16	56566.07
557.32	56376.48
557.49	56301.59
557.65	56067.53
557.82	56128.39
557.98	56233.71
558.15	56264.14
558.32	56390.53
558.48	56313.29
558.65	56467.76
558.81	56519.26
558.98	56287.54
559.14	56240.73
559.31	56320.31
559.47	56310.95
559.64	56346.06
559.80	56418.61
559.97	56678.41
560.13	56362.44
560.30	56257.12
560.46	56582.45
560.63	56322.65
560.79	56596.49
560.96	56631.60
561.12	56467.76
561.29	56610.54
561.45	56353.08
561.61	56676.07
561.78	56755.65
561.94	56694.80
562.11	56760.33
562.27	56645.65
562.44	56481.81
562.60	56570.75
562.77	56257.12
562.93	56521.60
563.10	56884.38
563.26	56374.14
563.42	56985.02
563.59	56746.29
563.75	56640.96
563.92	56739.27
564.08	56769.69
564.24	56800.12
564.41	56587.13
564.57	56547.34
564.74	56734.59
564.90	56802.46
565.07	56603.52
565.23	56739.27
565.39	56961.62
565.56	56748.63
565.72	56807.14
565.88	56772.03
566.05	56512.23
566.21	56629.26
566.38	56694.80
566.54	56638.62
566.70	57085.67
566.87	57080.98
567.03	56860.97
567.19	57165.24
567.36	56938.21
567.52	56865.66
567.68	56963.96
567.85	56837.57
568.01	57050.56
568.17	56914.81
568.34	56750.97
568.50	57116.09
568.66	56987.36
568.83	57069.28
568.99	57041.20
569.15	57022.47
569.32	56989.70
569.48	56772.03
569.64	56914.81
569.81	56896.08
569.97	56858.63
570.13	57027.15
570.30	56912.47
570.46	57181.63
570.62	56954.60
570.78	56959.28
570.95	56830.55
571.11	56914.81
571.27	57027.15
571.43	56919.49
571.60	57036.51
571.76	57207.37
571.92	57078.64
572.09	56956.94
572.25	57303.34
572.41	57052.90
572.57	57055.24
572.74	57432.07
572.90	56860.97
573.06	57127.80
573.22	56870.34
573.38	57027.15
573.55	57329.08
573.71	57350.15
573.87	57050.56
574.03	57097.37
574.20	57251.84
574.36	57066.94
574.52	57083.33
574.68	57109.07
574.84	57106.73
575.01	57261.21
575.17	57205.03
575.33	57088.01
575.49	56884.38
575.65	57090.35
575.82	57219.08
575.98	57242.48
576.14	57322.06
576.30	57298.65
576.46	57104.39
576.62	56954.60
576.79	56989.70
576.95	56952.26
577.11	57167.58
577.27	57113.75
577.43	57106.73
577.59	57104.39
577.75	57233.12
577.92	57099.71
578.08	57176.95
578.24	57059.92
578.40	57233.12
578.56	57216.74
578.72	57270.57
578.88	57195.67
579.04	57263.55
579.21	57286.95
579.37	57275.25
579.53	57338.44
579.69	57254.18
579.85	56961.62
580.01	57041.20
580.17	57099.71
580.33	57003.75
580.49	57235.46
580.65	57336.10
580.82	57265.89
580.98	57270.57
581.14	57162.90
581.30	57289.29
581.46	57008.43
581.62	56898.42
581.78	56942.89
581.94	57132.48
582.10	57151.20
582.26	57020.13
582.42	57296.31
582.58	57190.99
582.74	57134.82
582.90	57289.29
583.06	57347.81
583.22	57146.52
583.38	57413.34
583.54	57279.93
583.70	56903.10
583.86	56947.57
584.02	56889.06
584.18	57190.99
584.34	57380.57
584.50	57663.78
584.66	57478.88
584.82	57162.90
584.98	57268.23
585.14	57214.40
585.30	57123.11
585.46	57336.10
585.62	57158.22
585.78	57361.85
585.94	57242.48
586.10	57249.50
586.26	57361.85
586.42	57485.90
586.58	57364.19
586.74	57317.38
586.90	57078.64
587.06	57059.92
587.22	57443.77
587.38	57116.09
587.54	57392.28
587.70	57411.00
587.86	57448.45
588.02	57413.34
588.18	57726.97
588.34	57261.21
588.49	57584.20
588.65	57408.66
588.81	57418.02
588.97	57448.45
589.13	57628.67
589.29	57343.12
589.45	57462.49
