SpectraSuite Data File
++++++++++++++++++++++++++++++++++++
Date: Fri Oct 18 13:58:36 GMT-05:00 2013
User: bianchi
Dark Spectrum Present: No
Reference Spectrum Present: No
Number of Sampled Component Spectra: 1
Spectrometers: USB2+H05261
Integration Time (usec): 50000 (USB2+H05261)
Spectra Averaged: 1 (USB2+H05261)
Boxcar Smoothing: 0 (USB2+H05261)
Correct for Electrical Dark: No (USB2+H05261)
Strobe/Lamp Enabled: No (USB2+H05261)
Correct for Detector Non-linearity: No (USB2+H05261)
Correct for Stray Light: No (USB2+H05261)
Number of Pixels in Processed Spectrum: 2048
>>>>>Begin Processed Spectral Data<<<<<
365.73	0.00
365.92	0.00
366.12	0.00
366.32	0.00
366.52	0.00
366.72	0.00
366.91	0.00
367.11	0.00
367.31	0.00
367.51	0.00
367.70	0.00
367.90	0.00
368.10	0.00
368.30	0.00
368.49	0.00
368.69	0.00
368.89	0.00
369.09	0.00
369.28	0.00
369.48	0.00
369.68	0.00
369.87	0.00
370.07	0.00
370.27	0.00
370.47	0.00
370.66	63.19
370.86	42.13
371.06	84.26
371.25	119.37
371.45	74.90
371.65	177.88
371.84	173.20
372.04	243.42
372.24	102.98
372.44	234.05
372.63	187.24
372.83	252.78
373.03	196.60
373.22	229.37
373.42	227.03
373.62	215.33
373.81	227.03
374.01	266.82
374.21	161.50
374.40	248.10
374.60	262.14
374.79	156.82
374.99	222.35
375.19	238.73
375.38	236.39
375.58	292.57
375.78	318.31
375.97	224.69
376.17	269.16
376.37	227.03
376.56	201.29
376.76	187.24
376.95	257.46
377.15	245.76
377.35	224.69
377.54	280.86
377.74	250.44
377.93	262.14
378.13	224.69
378.33	250.44
378.52	220.01
378.72	341.72
378.91	201.29
379.11	203.63
379.31	339.38
379.50	273.84
379.70	229.37
379.89	299.59
380.09	243.42
380.28	381.51
380.48	318.31
380.68	320.65
380.87	351.08
381.07	337.04
381.26	292.57
381.46	409.59
381.65	423.64
381.85	308.95
382.04	360.44
382.24	285.55
382.43	351.08
382.63	315.97
382.83	362.78
383.02	341.72
383.22	348.74
383.41	269.16
383.61	423.64
383.80	416.62
384.00	299.59
384.19	383.85
384.39	360.44
384.58	346.40
384.78	388.53
384.97	311.29
385.17	367.46
385.36	390.87
385.56	348.74
385.75	360.44
385.95	362.78
386.14	395.55
386.34	411.93
386.53	479.81
386.72	386.19
386.92	386.19
387.11	423.64
387.31	468.11
387.50	416.62
387.70	400.23
387.89	425.98
388.09	484.49
388.28	416.62
388.48	421.30
388.67	423.64
388.86	409.59
389.06	395.55
389.25	444.70
389.45	507.90
389.64	477.47
389.84	444.70
390.03	381.51
390.22	479.81
390.42	465.77
390.61	416.62
390.81	547.69
391.00	547.69
391.19	545.34
391.39	500.87
391.58	505.56
391.78	496.19
391.97	512.58
392.16	496.19
392.36	531.30
392.55	587.47
392.75	451.72
392.94	482.15
393.13	535.98
393.33	636.63
393.52	547.69
393.71	594.50
393.91	533.64
394.10	531.30
394.29	561.73
394.49	564.07
394.68	674.07
394.88	578.11
395.07	573.43
395.26	617.90
395.46	559.39
395.65	634.29
395.84	538.32
396.04	678.76
396.23	538.32
396.42	667.05
396.62	653.01
396.81	624.92
397.00	653.01
397.19	662.37
397.39	627.26
397.58	676.41
397.77	648.33
397.97	688.12
398.16	734.93
398.35	674.07
398.55	685.78
398.74	746.63
398.93	580.45
399.12	655.35
399.32	613.22
399.51	774.72
399.70	755.99
399.90	674.07
400.09	732.59
400.28	819.19
400.47	770.04
400.67	763.01
400.86	741.95
401.05	805.14
401.24	718.54
401.44	748.97
401.63	800.46
401.82	819.19
402.01	798.12
402.21	800.46
402.40	870.68
402.59	856.64
402.78	851.96
402.97	858.98
403.17	830.89
403.36	779.40
403.55	858.98
403.74	905.79
403.93	940.90
404.13	884.72
404.32	856.64
404.51	877.70
404.70	889.40
404.89	931.53
405.09	952.60
405.28	905.79
405.47	940.90
405.66	931.53
405.85	1004.09
406.05	978.34
406.24	1074.31
406.43	945.58
406.62	1057.92
406.81	983.02
407.00	1011.11
407.20	999.41
407.39	1020.47
407.58	983.02
407.77	980.68
407.96	1055.58
408.15	1198.35
408.34	1069.62
408.54	1034.52
408.73	1090.69
408.92	1121.12
409.11	1107.07
409.30	1153.88
409.49	1057.92
409.68	1165.59
409.87	1116.44
410.07	1116.44
410.26	1184.31
410.45	1217.08
410.64	1156.22
410.83	1284.95
411.02	1203.04
411.21	1186.65
411.40	1364.53
411.59	1224.10
411.78	1212.40
411.98	1296.66
412.17	1306.02
412.36	1387.94
412.55	1320.06
412.74	1390.28
412.93	1320.06
413.12	1341.13
413.31	1418.36
413.50	1249.85
413.69	1294.32
413.88	1385.60
414.07	1364.53
414.26	1446.45
414.45	1343.47
414.64	1483.90
414.83	1472.20
415.02	1448.79
415.22	1495.60
415.41	1476.88
415.60	1519.01
415.79	1511.99
415.98	1563.48
416.17	1462.83
416.36	1526.03
416.55	1549.43
416.74	1561.14
416.93	1696.89
417.12	1544.75
417.31	1638.38
417.50	1755.40
417.69	1682.85
417.88	1678.16
418.07	1741.36
418.26	1764.76
418.45	1842.00
418.64	1734.34
418.83	1781.15
419.02	1736.68
419.21	1811.57
419.39	1849.02
419.58	1743.70
419.77	1895.83
419.96	1839.66
420.15	1827.96
420.34	1820.94
420.53	1895.83
420.72	1881.79
420.91	1891.15
421.10	1959.03
421.29	2050.31
421.48	1851.36
421.67	2022.22
421.86	1928.60
422.05	1870.09
422.24	1842.00
422.43	1954.35
422.61	2031.58
422.80	1886.47
422.99	2132.23
423.18	2036.27
423.37	1968.39
423.56	1916.90
423.75	1966.05
423.94	1984.77
424.13	1942.64
424.32	1956.69
424.50	2122.87
424.69	1933.28
424.88	2045.63
425.07	1984.77
425.26	1998.82
425.45	2078.40
425.64	2062.01
425.83	2040.95
426.01	2029.24
426.20	2057.33
426.39	2064.35
426.58	1966.05
426.77	2106.48
426.96	2087.76
427.15	2108.82
427.33	2064.35
427.52	2040.95
427.71	2179.04
427.90	2125.21
428.09	2148.61
428.28	2155.63
428.46	2169.68
428.65	2232.87
428.84	2179.04
429.03	2202.44
429.22	2174.36
429.40	2162.66
429.59	2167.34
429.78	2289.04
429.97	2113.50
430.16	2190.74
430.34	2314.79
430.53	2368.62
430.72	2258.62
430.91	2347.56
431.10	2333.51
431.28	2385.01
431.47	2359.26
431.66	2441.18
431.85	2366.28
432.03	2480.97
432.22	2464.58
432.41	2466.92
432.60	2473.95
432.79	2370.96
432.97	2380.32
433.16	2480.97
433.35	2361.60
433.54	2469.27
433.72	2532.46
433.91	2523.10
434.10	2466.92
434.28	2530.12
434.47	2516.08
434.66	2597.99
434.85	2471.61
435.03	2672.89
435.22	2518.42
435.41	2778.22
435.59	2560.55
435.78	2581.61
435.97	2637.78
436.16	2679.91
436.34	2729.06
436.53	2600.34
436.72	2794.60
436.90	2640.12
437.09	2710.34
437.28	2644.81
437.46	2789.92
437.65	2771.19
437.84	2796.94
438.02	2609.70
438.21	2785.24
438.40	2773.53
438.58	2773.53
438.77	2930.35
438.96	2806.30
439.14	2857.79
439.33	2822.69
439.52	3075.46
439.70	3014.61
439.89	2913.97
440.08	3038.02
440.26	3016.95
440.45	3063.76
440.63	2972.48
440.82	3087.17
441.01	3225.26
441.19	3049.72
441.38	3246.32
441.57	3049.72
441.75	3318.88
441.94	3176.11
442.12	3218.24
442.31	3253.34
442.50	3258.03
442.68	3243.98
442.87	3286.11
443.05	3272.07
443.24	3438.25
443.43	3321.22
443.61	3332.92
443.80	3492.08
443.98	3405.48
444.17	3288.45
444.35	3251.00
444.54	3529.53
444.73	3499.10
444.91	3506.12
445.10	3440.59
445.28	3398.46
445.47	3342.28
445.65	3555.27
445.84	3386.76
446.02	3522.51
446.21	3417.18
446.39	3480.38
446.58	3527.19
446.77	3456.97
446.95	3487.40
447.14	3527.19
447.32	3496.76
447.51	3459.31
447.69	3552.93
447.88	3541.23
448.06	3438.25
448.25	3492.08
448.43	3578.68
448.62	3538.89
448.80	3482.72
448.99	3569.32
449.17	3651.24
449.36	3541.23
449.54	3595.06
449.73	3719.11
449.91	3693.37
450.10	3688.68
450.28	3791.67
450.46	3686.34
450.65	3726.13
450.83	3850.18
451.02	3728.47
451.20	3721.45
451.39	3681.66
451.57	3756.56
451.76	3595.06
451.94	3749.54
452.13	3761.24
452.31	3723.79
452.49	3777.62
452.68	3913.38
452.86	3896.99
453.05	3684.00
453.23	3983.59
453.42	3946.14
453.60	3641.87
453.78	3948.48
453.97	3950.82
454.15	3866.56
454.34	3808.05
454.52	3934.44
454.70	4067.85
454.89	4035.08
455.07	3988.27
455.26	4227.01
455.44	4124.02
455.62	4133.39
455.81	3831.46
455.99	4177.86
456.17	3964.87
456.36	4081.89
456.54	4145.09
456.73	4245.73
456.91	4255.09
457.09	4236.37
457.28	4262.12
457.46	4215.30
457.64	4315.95
457.83	4250.41
458.01	4397.87
458.19	4437.66
458.38	4379.14
458.56	4423.61
458.74	4161.47
458.93	4386.16
459.11	4344.03
459.29	4526.60
459.48	4360.42
459.66	4498.51
459.84	4479.79
460.03	4491.49
460.21	4435.32
460.39	4617.88
460.57	4540.64
460.76	4465.74
460.94	4475.10
461.12	4437.66
461.31	4697.46
461.49	4542.98
461.67	4606.17
461.85	4748.95
462.04	4791.08
462.22	4748.95
462.40	4685.75
462.59	4671.71
462.77	4772.35
462.95	4835.55
463.13	4812.14
463.32	4643.62
463.50	4875.34
463.68	4711.50
463.86	4786.40
464.05	4887.04
464.23	4837.89
464.41	4837.89
464.59	4734.90
464.78	4978.32
464.96	4807.46
465.14	4889.38
465.32	4954.91
465.50	5036.83
465.69	5013.43
465.87	5011.09
466.05	4905.76
466.23	4992.36
466.41	4919.81
466.60	5139.82
466.78	5034.49
466.96	4964.28
467.14	5069.60
467.32	5184.29
467.51	5071.94
467.69	4896.40
467.87	5015.77
468.05	5298.97
468.23	4966.62
468.41	5135.14
468.60	5062.58
468.78	5249.82
468.96	5179.61
469.14	5020.45
469.32	5413.66
469.50	5165.56
469.69	5345.78
469.87	5453.45
470.05	5259.18
470.23	5472.17
470.41	5526.00
470.59	5432.38
470.77	5261.52
470.95	5535.37
471.14	5628.99
471.32	5397.28
471.50	5607.92
471.68	5579.84
471.86	5563.45
472.04	5565.79
472.22	5956.66
472.40	5673.46
472.58	5774.10
472.77	5687.50
472.95	5694.52
473.13	5865.38
473.31	5863.04
473.49	5863.04
473.67	5923.90
473.85	5916.87
474.03	5827.93
474.21	5956.66
474.39	6050.28
474.57	6073.69
474.75	6057.31
474.93	6085.39
475.12	6263.27
475.30	6115.82
475.48	6162.63
475.66	6230.51
475.84	6256.25
476.02	6408.39
476.20	6324.13
476.38	6239.87
476.56	6544.14
476.74	6555.84
476.92	6438.81
477.10	6527.75
477.28	6640.10
477.46	6544.14
477.64	6754.79
477.82	6796.92
478.00	6869.47
478.18	6832.02
478.36	7002.88
478.54	7026.29
478.72	6949.05
478.90	7084.80
479.08	7096.50
479.26	7089.48
479.44	7206.51
479.62	7344.60
479.80	7552.91
479.98	7431.20
480.16	7611.42
480.34	7573.97
480.52	7623.12
480.70	7625.47
480.88	7489.71
481.06	7672.28
481.24	7660.57
481.41	7737.81
481.59	8072.51
481.77	7871.22
481.95	8002.29
482.13	8135.70
482.31	8028.04
482.49	8205.92
482.67	8276.13
482.85	8297.20
483.03	8461.04
483.21	8351.03
483.39	8695.09
483.57	8603.81
483.74	8573.38
483.92	8695.09
484.10	8664.66
484.28	8821.48
484.46	8868.29
484.64	9130.43
484.82	9217.03
485.00	9011.06
485.18	9256.82
485.35	9350.44
485.53	9289.59
485.71	9432.36
485.89	9568.11
486.07	9577.47
486.25	9465.13
486.43	9535.34
486.61	9933.23
486.78	9743.65
486.96	10036.22
487.14	10064.30
487.32	9919.19
487.50	10289.00
487.68	10223.46
487.85	10300.70
488.03	10307.72
488.21	10471.56
488.39	10523.05
488.57	10485.60
488.75	10640.08
488.92	10799.23
489.10	10766.46
489.28	10874.13
489.46	11061.37
489.64	10745.40
489.81	11241.59
489.99	11307.13
490.17	11307.13
490.35	11253.30
490.53	11309.47
490.70	11421.81
490.88	11580.97
491.06	11716.72
491.24	11382.03
491.41	11932.05
491.59	11822.05
491.77	11784.60
491.95	12212.92
492.13	12105.25
492.30	12051.42
492.48	12231.64
492.66	12442.29
492.84	12315.90
493.01	12585.06
493.19	12559.31
493.37	12730.17
493.54	12507.82
493.72	13060.19
493.90	12643.57
494.08	12922.10
494.25	13013.38
494.43	12917.42
494.61	13118.70
494.79	13310.63
494.96	13195.94
495.14	13547.02
495.32	13413.61
495.49	13551.70
495.67	13657.03
495.85	13572.77
496.02	13888.74
496.20	13893.42
496.38	13858.31
496.55	13685.11
496.73	13832.57
496.91	14129.81
497.09	14230.46
497.26	14267.91
497.44	14310.04
497.62	14235.14
497.79	14518.34
497.97	14546.43
498.14	14448.13
498.32	15166.67
498.50	14686.86
498.67	15051.99
498.85	14668.14
499.03	14846.02
499.20	14902.19
499.38	14970.07
499.56	15353.91
499.73	15161.99
499.91	15342.21
500.08	15272.00
500.26	15279.02
500.44	15417.11
500.61	15459.24
500.79	15440.51
500.97	15749.46
501.14	15704.99
501.32	15920.32
501.49	15740.10
501.67	16060.76
501.84	15623.08
502.02	15850.11
502.20	16023.31
502.37	16166.08
502.55	15693.29
502.72	16133.31
502.90	16032.67
503.07	15943.73
503.25	16074.80
503.43	16428.22
503.60	16245.66
503.78	16386.09
503.95	16184.80
504.13	16444.60
504.30	16901.01
504.48	16449.28
504.65	16622.48
504.83	16922.07
505.01	17153.79
505.18	16875.26
505.36	17200.60
505.53	16870.58
505.71	16901.01
505.88	17060.16
506.06	16957.18
506.23	17287.20
506.41	17193.58
506.58	16877.60
506.76	17345.71
506.93	17420.61
507.11	17198.26
507.28	17415.93
507.46	17584.44
507.63	17406.56
507.81	17806.80
507.98	17596.15
508.16	17626.57
508.33	17483.80
508.50	17586.79
508.68	17879.35
508.85	17895.74
509.03	18005.74
509.20	17951.91
509.38	18380.23
509.55	18249.16
509.73	18169.58
509.90	18375.55
510.08	17987.02
510.25	18274.90
510.42	18389.59
510.60	18621.30
510.77	18518.32
510.95	18586.19
511.12	18590.88
511.30	18747.69
511.47	18698.54
511.64	18817.91
511.82	18913.87
511.99	18789.82
512.17	18991.11
512.34	18853.02
512.51	19122.18
512.69	19044.94
512.86	19150.26
513.04	19232.18
513.21	19314.10
513.38	19377.30
513.56	19370.27
513.73	19138.56
513.90	19468.58
514.08	19419.42
514.25	19484.96
514.43	19721.35
514.60	19580.92
514.77	19585.60
514.95	20177.76
515.12	19480.28
515.29	20027.96
515.47	20065.41
515.64	20198.82
515.81	19754.12
515.99	20334.57
516.16	20477.35
516.33	20184.78
516.51	20521.82
516.68	19932.00
516.85	20372.02
517.03	20407.13
517.20	20292.44
517.37	20098.18
517.54	20196.48
517.72	20657.57
517.89	20795.66
518.06	20517.14
518.24	20573.31
518.41	20400.11
518.58	20365.00
518.75	20657.57
518.93	20800.34
519.10	20826.09
519.27	21057.80
519.45	21008.65
519.62	20755.87
519.79	21027.37
519.96	20872.90
520.14	21275.47
520.31	21301.22
520.48	21453.35
520.65	21266.11
520.83	21544.63
521.00	21268.45
521.17	21516.54
521.34	21259.09
521.52	21539.95
521.69	21544.63
521.86	21525.91
522.03	21853.58
522.20	21429.94
522.38	21682.72
522.55	21830.18
522.72	21762.30
522.89	21593.78
523.07	22089.98
523.24	21951.88
523.41	22218.71
523.58	21722.51
523.75	21795.07
523.92	21795.07
524.10	22272.54
524.27	22263.18
524.44	22448.08
524.61	22410.63
524.78	22450.42
524.96	22305.31
525.13	22242.11
525.30	22548.72
525.47	22244.45
525.64	22258.49
525.81	22508.93
525.98	22647.02
526.16	22581.49
526.33	22445.74
526.50	22771.07
526.67	22700.86
526.84	22860.01
527.01	22630.64
527.18	23065.98
527.36	22679.79
527.53	22972.36
527.70	22951.29
527.87	23037.89
528.04	23222.80
528.21	23168.96
528.38	23122.15
528.55	23026.19
528.72	23372.59
528.89	23506.00
529.07	23545.79
529.24	22883.42
529.41	23498.98
529.58	23475.57
529.75	23321.10
529.92	23524.72
530.09	23285.99
530.26	23477.91
530.43	23653.45
530.60	23618.35
530.77	23569.19
530.94	23459.19
531.11	23805.59
531.28	23704.95
531.46	23641.75
531.63	23861.76
531.80	23969.43
531.97	24250.29
532.14	24133.26
532.31	23976.45
532.48	24147.31
532.65	24360.30
532.82	23939.00
532.99	24156.67
533.16	24091.13
533.33	24011.56
533.50	24573.28
533.67	24173.05
533.84	24084.11
534.01	24299.44
534.18	23784.52
534.35	24617.75
534.52	24269.01
534.69	24795.64
534.86	24453.92
535.03	24233.91
535.20	24503.07
535.37	24737.12
535.54	24709.04
535.71	24414.13
535.88	24587.33
536.05	24266.67
536.22	24886.92
536.38	25036.71
536.55	25001.60
536.72	24833.08
536.89	24617.75
537.06	24692.65
537.23	25310.55
537.40	25025.01
537.57	24774.57
537.74	25104.59
537.91	25146.72
538.08	24856.49
538.25	25060.12
538.42	25127.99
538.59	25249.70
538.75	24959.47
538.92	24961.81
539.09	25383.11
539.26	25530.56
539.43	25535.24
539.60	25270.76
539.77	24985.22
539.94	25095.22
540.11	25425.24
540.28	25233.32
540.44	25411.20
540.61	25514.18
540.78	25504.82
540.95	25348.00
541.12	25626.53
541.29	25605.46
541.46	25240.34
541.62	25542.27
541.79	25757.60
541.96	25336.30
542.13	25731.85
542.30	25724.83
542.47	26031.44
542.63	25769.30
542.80	25935.48
542.97	26340.39
543.14	25874.62
543.31	26211.66
543.48	25905.05
543.64	26588.49
543.81	26483.16
543.98	26190.59
544.15	26429.33
544.32	26253.79
544.48	26747.64
544.65	26768.71
544.82	26647.00
544.99	26195.28
545.16	26445.71
545.32	26354.43
545.49	26670.40
545.66	26595.51
545.83	26602.53
546.00	27042.55
546.16	26422.31
546.33	26333.37
546.50	26253.79
546.67	26721.90
546.83	26426.99
547.00	26682.11
547.17	26778.07
547.34	26806.16
547.50	26717.22
547.67	27213.41
547.84	26855.31
548.00	26897.44
548.17	27295.33
548.34	27152.55
548.51	27227.45
548.67	27342.14
548.84	27541.08
549.01	27098.72
549.18	27016.80
549.34	26939.57
549.51	27033.19
549.68	27227.45
549.84	27285.97
550.01	27229.79
550.18	27056.59
550.34	27316.39
550.51	27660.45
550.68	27597.26
550.84	27117.45
551.01	27374.91
551.18	27047.23
551.34	27618.32
551.51	27300.01
551.68	27379.59
551.84	27285.97
552.01	27618.32
552.18	27522.36
552.34	27325.75
552.51	27564.49
552.68	27094.04
552.84	27447.46
553.01	27843.01
553.18	27873.44
553.34	27737.69
553.51	27686.20
553.67	27931.95
553.84	27927.27
554.01	28037.28
554.17	27924.93
554.34	27821.95
554.51	27969.40
554.67	27929.61
554.84	28013.87
555.00	27784.50
555.17	27711.94
555.33	27882.80
555.50	27721.30
555.67	27901.53
555.83	27833.65
556.00	28093.45
556.16	28425.81
556.33	28060.68
556.50	27908.55
556.66	28098.13
556.83	28348.57
556.99	28634.11
557.16	28734.76
557.32	28287.71
557.49	28423.47
557.65	28091.11
557.82	27988.13
557.98	28264.31
558.15	28091.11
558.32	28463.25
558.48	28215.16
558.65	28271.33
558.81	28533.47
558.98	28301.76
559.14	28467.94
559.31	28161.33
559.47	28318.14
559.64	28718.37
559.80	28023.23
559.97	28819.02
560.13	28601.35
560.30	28680.92
560.46	28657.52
560.63	28891.57
560.79	28671.56
560.96	28570.92
561.12	28685.61
561.29	28636.45
561.45	28512.41
561.61	28868.17
561.78	29006.26
561.94	28713.69
562.11	28739.44
562.27	28877.53
562.44	28470.28
562.60	28671.56
562.77	28886.89
562.93	28821.36
563.10	28910.30
563.26	28924.34
563.42	29153.71
563.59	29083.50
563.75	29027.32
563.92	29001.58
564.08	28694.97
564.24	28861.15
564.41	29109.24
564.57	28957.11
564.74	28933.70
564.90	28807.31
565.07	29013.28
565.23	28907.96
565.39	29022.64
565.56	29338.62
565.72	29006.26
565.88	29181.80
566.05	28896.25
566.21	28774.55
566.38	28917.32
566.54	29144.35
566.70	29027.32
566.87	29427.56
567.03	29226.27
567.19	29443.94
567.36	28816.68
567.52	29364.36
567.68	29174.78
567.85	28809.65
568.01	28954.77
568.17	28968.81
568.34	29291.80
568.50	29326.91
568.66	29078.82
568.83	29312.87
568.99	29184.14
569.15	29081.16
569.32	29132.65
569.48	29462.66
569.64	29291.80
569.81	28919.66
569.97	29642.88
570.13	29188.82
570.30	29270.74
570.46	29509.47
570.62	29340.96
570.78	29343.30
570.95	29165.42
571.11	29436.92
571.27	29200.52
571.43	29439.26
571.60	28999.24
571.76	29205.20
571.92	29209.89
572.09	29247.33
572.25	29315.21
572.41	29432.24
572.57	29308.19
572.74	29362.02
572.90	29394.79
573.06	29509.47
573.22	29364.36
573.38	29268.40
573.55	29668.63
573.71	29951.84
573.87	29736.51
574.03	29465.00
574.20	29476.71
574.36	29336.27
574.52	29275.42
574.68	29085.84
574.84	29813.74
575.01	29476.71
575.17	29420.53
575.33	29411.17
575.49	29626.50
575.65	29570.33
575.82	29303.51
575.98	29720.12
576.14	29593.73
576.30	29359.68
576.46	29261.38
576.62	29656.93
576.79	29329.25
576.95	29530.54
577.11	29579.69
577.27	29352.66
577.43	29752.89
577.59	29322.23
577.75	29429.90
577.92	29134.99
578.08	29158.39
578.24	29074.13
578.40	29366.70
578.56	29392.45
578.72	30003.33
578.88	29776.30
579.04	30022.05
579.21	29790.34
579.37	29886.30
579.53	29530.54
579.69	29673.31
579.85	29455.64
580.01	29682.67
580.17	29654.59
580.33	29589.05
580.49	29298.83
580.65	29518.84
580.82	29816.08
580.98	29666.29
581.14	29448.62
581.30	29844.17
581.46	29462.66
581.62	29603.10
581.78	29802.04
581.94	29546.92
582.10	29598.41
582.26	29408.83
582.42	29668.63
582.58	30078.22
582.74	29563.31
582.90	30223.34
583.06	29699.06
583.22	29790.34
583.38	29785.66
583.54	29656.93
583.70	29532.88
583.86	29773.95
584.02	29680.33
584.18	29890.98
584.34	29881.62
584.50	29937.79
584.66	29596.07
584.82	29439.26
584.98	30183.55
585.14	30019.71
585.30	29259.04
585.46	29610.12
585.62	29406.49
585.78	29802.04
585.94	29729.48
586.10	29982.26
586.26	30057.16
586.42	29708.42
586.58	30118.01
586.74	29741.19
586.90	29394.79
587.06	29673.31
587.22	29537.56
587.38	29563.31
587.54	29923.75
587.70	30190.57
587.86	29720.12
588.02	30157.80
588.18	30405.90
588.34	30066.52
588.49	30174.19
588.65	29710.76
588.81	29745.87
588.97	29766.93
589.13	29677.99
589.29	30036.09
589.45	29886.30
589.61	30012.69
589.77	30274.83
589.93	30469.09
590.08	30277.17
590.24	30015.03
590.40	30211.64
590.56	30132.06
590.72	30029.07
590.88	30195.25
591.04	29706.08
591.20	30412.92
591.35	30586.12
591.51	30075.88
591.67	30572.08
591.83	30345.05
591.99	30043.12
