SpectraSuite Data File
++++++++++++++++++++++++++++++++++++
Date: Fri Oct 18 13:58:16 GMT-05:00 2013
User: bianchi
Dark Spectrum Present: No
Reference Spectrum Present: No
Number of Sampled Component Spectra: 1
Spectrometers: USB2+H05261
Integration Time (usec): 50000 (USB2+H05261)
Spectra Averaged: 1 (USB2+H05261)
Boxcar Smoothing: 0 (USB2+H05261)
Correct for Electrical Dark: No (USB2+H05261)
Strobe/Lamp Enabled: No (USB2+H05261)
Correct for Detector Non-linearity: No (USB2+H05261)
Correct for Stray Light: No (USB2+H05261)
Number of Pixels in Processed Spectrum: 2048
>>>>>Begin Processed Spectral Data<<<<<
365.73	0.00
365.92	0.00
366.12	0.00
366.32	0.00
366.52	0.00
366.72	0.00
366.91	0.00
367.11	0.00
367.31	0.00
367.51	0.00
367.70	0.00
367.90	0.00
368.10	0.00
368.30	0.00
368.49	0.00
368.69	0.00
368.89	0.00
369.09	0.00
369.28	0.00
369.48	0.00
369.68	0.00
369.87	0.00
370.07	0.00
370.27	0.00
370.47	0.00
370.66	105.32
370.86	117.03
371.06	100.64
371.25	159.16
371.45	135.75
371.65	220.01
371.84	135.75
372.04	208.31
372.24	156.82
372.44	147.45
372.63	280.86
372.83	215.33
373.03	220.01
373.22	173.20
373.42	245.76
373.62	222.35
373.81	189.58
374.01	217.67
374.21	243.42
374.40	243.42
374.60	287.89
374.79	119.37
374.99	184.90
375.19	269.16
375.38	205.97
375.58	227.03
375.78	238.73
375.97	208.31
376.17	285.55
376.37	285.55
376.56	255.12
376.76	262.14
376.95	285.55
377.15	337.04
377.35	259.80
377.54	177.88
377.74	280.86
377.93	325.33
378.13	294.91
378.33	311.29
378.52	290.23
378.72	231.71
378.91	297.25
379.11	332.36
379.31	290.23
379.50	283.20
379.70	395.55
379.89	280.86
380.09	280.86
380.28	262.14
380.48	421.30
380.68	313.63
380.87	271.50
381.07	278.52
381.26	301.93
381.46	294.91
381.65	290.23
381.85	308.95
382.04	341.72
382.24	327.68
382.43	285.55
382.63	311.29
382.83	285.55
383.02	407.25
383.22	395.55
383.41	304.27
383.61	344.06
383.80	433.00
384.00	320.65
384.19	362.78
384.39	365.12
384.58	287.89
384.78	365.12
384.97	376.83
385.17	322.99
385.36	374.49
385.56	430.66
385.75	339.38
385.95	348.74
386.14	477.47
386.34	451.72
386.53	369.80
386.72	407.25
386.92	351.08
387.11	409.59
387.31	355.76
387.50	337.04
387.70	454.06
387.89	416.62
388.09	449.38
388.28	376.83
388.48	444.70
388.67	505.56
388.86	491.51
389.06	505.56
389.25	402.57
389.45	470.45
389.64	503.22
389.84	454.06
390.03	456.40
390.22	479.81
390.42	458.74
390.61	407.25
390.81	379.17
391.00	500.87
391.19	559.39
391.39	507.90
391.58	524.28
391.78	414.27
391.97	517.26
392.16	573.43
392.36	547.69
392.55	482.15
392.75	465.77
392.94	524.28
393.13	489.17
393.33	566.41
393.52	451.72
393.71	624.92
393.91	620.24
394.10	594.50
394.29	573.43
394.49	578.11
394.68	552.37
394.88	547.69
395.07	594.50
395.26	603.86
395.46	482.15
395.65	678.76
395.84	662.37
396.04	601.52
396.23	641.31
396.42	634.29
396.62	720.88
396.81	645.99
397.00	667.05
397.19	685.78
397.39	681.10
397.58	732.59
397.77	631.94
397.97	744.29
398.16	711.52
398.35	676.41
398.55	704.50
398.74	685.78
398.93	739.61
399.12	739.61
399.32	688.12
399.51	718.54
399.70	704.50
399.90	739.61
400.09	702.16
400.28	802.80
400.47	706.84
400.67	744.29
400.86	725.57
401.05	767.70
401.24	763.01
401.44	844.93
401.63	819.19
401.82	765.36
402.01	741.95
402.21	854.30
402.40	807.48
402.59	840.25
402.78	812.17
402.97	851.96
403.17	856.64
403.36	898.77
403.55	882.38
403.74	901.11
403.93	830.89
404.13	870.68
404.32	884.72
404.51	985.37
404.70	933.87
404.89	929.19
405.09	912.81
405.28	917.49
405.47	875.36
405.66	1004.09
405.85	966.64
406.05	1039.20
406.24	1020.47
406.43	936.21
406.62	1078.99
406.81	1062.60
407.00	933.87
407.20	896.43
407.39	1039.20
407.58	1050.90
407.77	973.66
407.96	1036.86
408.15	1191.33
408.34	1074.31
408.54	1100.05
408.73	1039.20
408.92	1062.60
409.11	1181.97
409.30	1170.27
409.49	1156.22
409.68	1095.37
409.87	1057.92
410.07	1170.27
410.26	1128.14
410.45	1088.35
410.64	1231.12
410.83	1174.95
411.02	1266.23
411.21	1317.72
411.40	1254.53
411.59	1235.80
411.78	1282.61
411.98	1284.95
412.17	1362.19
412.36	1275.59
412.55	1280.27
412.74	1341.13
412.93	1409.00
413.12	1301.34
413.31	1430.07
413.50	1301.34
413.69	1441.77
413.88	1390.28
414.07	1462.83
414.26	1540.07
414.45	1458.15
414.64	1390.28
414.83	1495.60
415.02	1519.01
415.22	1479.22
415.41	1516.67
415.60	1577.52
415.79	1600.93
415.98	1565.82
416.17	1617.31
416.36	1582.20
416.55	1713.27
416.74	1666.46
416.93	1565.82
417.12	1671.14
417.31	1598.59
417.50	1732.00
417.69	1750.72
417.88	1689.87
418.07	1715.61
418.26	1682.85
418.45	1769.44
418.64	1776.47
418.83	1837.32
419.02	1881.79
419.21	1757.74
419.39	1743.70
419.58	1781.15
419.77	1790.51
419.96	1849.02
420.15	1930.94
420.34	1818.60
420.53	1966.05
420.72	1923.92
420.91	1930.94
421.10	1872.43
421.29	1877.11
421.48	1849.02
421.67	1839.66
421.86	1877.11
422.05	1921.58
422.24	1954.35
422.43	1905.20
422.61	2012.86
422.80	2017.54
422.99	1949.67
423.18	2139.25
423.37	2054.99
423.56	2022.22
423.75	2040.95
423.94	1921.58
424.13	1760.08
424.32	2019.88
424.50	2059.67
424.69	2064.35
424.88	2078.40
425.07	2038.61
425.26	1998.82
425.45	2047.97
425.64	1921.58
425.83	1991.80
426.01	2125.21
426.20	2043.29
426.39	2029.24
426.58	2052.65
426.77	1949.67
426.96	2115.84
427.15	2092.44
427.33	2115.84
427.52	2085.42
427.71	2026.90
427.90	2127.55
428.09	2073.71
428.28	2186.06
428.46	2202.44
428.65	2176.70
428.84	2129.89
429.03	2338.20
429.22	2230.53
429.40	2083.08
429.59	2284.36
429.78	2174.36
429.97	2134.57
430.16	2265.64
430.34	2230.53
430.53	2258.62
430.72	2242.23
430.91	2324.15
431.10	2211.81
431.28	2289.04
431.47	2317.13
431.66	2424.80
431.85	2399.05
432.03	2485.65
432.22	2389.69
432.41	2359.26
432.60	2438.84
432.79	2441.18
432.97	2581.61
433.16	2445.86
433.35	2448.20
433.54	2506.71
433.72	2614.38
433.91	2464.58
434.10	2469.27
434.28	2523.10
434.47	2551.18
434.66	2541.82
434.85	2539.48
435.03	2518.42
435.22	2551.18
435.41	2672.89
435.59	2485.65
435.78	2619.06
435.97	2759.49
436.16	2754.81
436.34	2520.76
436.53	2745.45
436.72	2668.21
436.90	2661.19
437.09	2700.98
437.28	2708.00
437.46	2640.12
437.65	2668.21
437.84	2829.71
438.02	2782.90
438.21	2956.10
438.40	2766.51
438.58	2930.35
438.77	3042.70
438.96	2874.18
439.14	2951.42
439.33	2918.65
439.52	2911.63
439.70	3047.38
439.89	2958.44
440.08	2967.80
440.26	2967.80
440.45	3052.06
440.63	3019.29
440.82	3080.14
441.01	3101.21
441.19	3145.68
441.38	3150.36
441.57	3087.17
441.75	3201.85
441.94	3173.77
442.12	3187.81
442.31	3328.24
442.50	3293.13
442.68	3283.77
442.87	3255.69
443.05	3213.56
443.24	3344.63
443.43	3300.16
443.61	3297.81
443.80	3370.37
443.98	3417.18
444.17	3166.74
444.35	3227.60
444.54	3478.04
444.73	3496.76
444.91	3295.47
445.10	3386.76
445.28	3337.60
445.47	3428.88
445.65	3316.54
445.84	3428.88
446.02	3543.57
446.21	3419.52
446.39	3297.81
446.58	3400.80
446.77	3424.20
446.95	3363.35
447.14	3531.87
447.32	3508.46
447.51	3571.66
447.69	3499.10
447.88	3515.48
448.06	3559.95
448.25	3471.01
448.43	3566.98
448.62	3475.70
448.80	3456.97
448.99	3510.80
449.17	3599.74
449.36	3463.99
449.54	3768.26
449.73	3737.84
449.91	3646.55
450.10	3569.32
450.28	3700.39
450.46	3934.44
450.65	3754.22
450.83	3674.64
451.02	3779.97
451.20	3728.47
451.39	3847.84
451.57	3648.90
451.76	3796.35
451.94	3693.37
452.13	3765.92
452.31	3768.26
452.49	3721.45
452.68	3812.73
452.86	3737.84
453.05	4011.68
453.23	4007.00
453.42	3868.91
453.60	3838.48
453.78	3960.19
453.97	3805.71
454.15	3854.86
454.34	3885.29
454.52	3957.85
454.70	3854.86
454.89	3964.87
455.07	3999.98
455.26	4135.73
455.44	4095.94
455.62	4098.28
455.81	4035.08
455.99	4037.42
456.17	4070.19
456.36	4095.94
456.54	4313.61
456.73	4021.04
456.91	4229.35
457.09	4351.06
457.28	4322.97
457.46	4264.46
457.64	4128.70
457.83	4365.10
458.01	4147.43
458.19	4322.97
458.38	4346.37
458.56	4367.44
458.74	4339.35
458.93	4362.76
459.11	4414.25
459.29	4414.25
459.48	4379.14
459.66	4517.23
459.84	4575.75
460.03	4662.35
460.21	4456.38
460.39	4404.89
460.57	4484.47
460.76	4500.85
460.94	4547.66
461.12	4603.83
461.31	4634.26
461.49	4643.62
461.67	4566.39
461.85	4784.06
462.04	4688.09
462.22	4945.55
462.40	4678.73
462.59	4688.09
462.77	4573.41
462.95	4784.06
463.13	4854.27
463.32	4704.48
463.50	4786.40
463.68	4800.44
463.86	4947.89
464.05	4847.25
464.23	4739.58
464.41	4915.12
464.59	4748.95
464.78	4889.38
464.96	4786.40
465.14	4849.59
465.32	4812.14
465.50	4915.12
465.69	5034.49
465.87	4847.25
466.05	4940.87
466.23	5018.11
466.41	4849.59
466.60	5167.90
466.78	5001.72
466.96	5004.07
467.14	5011.09
467.32	5186.63
467.51	5104.71
467.69	4917.47
467.87	5160.88
468.05	5139.82
468.23	5167.90
468.41	5097.69
468.60	5111.73
468.78	5212.37
468.96	5210.03
469.14	5207.69
469.32	5385.57
469.50	5254.50
469.69	5359.83
469.87	5345.78
470.05	5366.85
470.23	5336.42
470.41	5348.12
470.59	5373.87
470.77	5315.36
470.95	5408.98
471.14	5624.31
471.32	5350.46
471.50	5561.11
471.68	5563.45
471.86	5678.14
472.04	5430.04
472.22	5823.25
472.40	5720.27
472.58	5614.95
472.77	5743.67
472.95	5898.15
473.13	5877.09
473.31	5675.80
473.49	5970.71
473.67	5900.49
473.85	5687.50
474.03	6038.58
474.21	6071.35
474.39	6108.80
474.57	6106.46
474.75	6246.89
474.93	6207.10
475.12	6043.26
475.30	6064.33
475.48	6104.12
475.66	6338.17
475.84	6267.95
476.02	6218.80
476.20	6494.99
476.38	6333.49
476.56	6502.01
476.74	6668.19
476.92	6490.31
477.10	6506.69
477.28	6628.40
477.46	6567.54
477.64	6562.86
477.82	6630.74
478.00	6918.62
478.18	6773.51
478.36	6991.18
478.54	7115.23
478.72	6897.56
478.90	7023.95
479.08	7073.10
479.26	7267.36
479.44	7213.53
479.62	7136.29
479.80	7272.04
479.98	7363.33
480.16	7510.78
480.34	7538.87
480.52	7597.38
480.70	7758.88
480.88	7435.88
481.06	7672.28
481.24	7637.17
481.41	7772.92
481.59	8018.68
481.77	8011.65
481.95	7960.16
482.13	8037.40
482.31	8051.44
482.49	8191.88
482.67	8299.54
482.85	8271.45
483.03	8461.04
483.21	8376.78
483.39	8688.07
483.57	8542.96
483.74	8493.80
483.92	8746.58
484.10	8685.73
484.28	8957.23
484.46	8992.34
484.64	9172.56
484.82	8959.57
485.00	9172.56
485.18	9097.66
485.35	9465.13
485.53	9329.38
485.71	9458.10
485.89	9638.33
486.07	9635.99
486.25	9610.24
486.43	9554.07
486.61	9626.62
486.78	9895.78
486.96	9888.76
487.14	10305.38
487.32	9968.34
487.50	10087.71
487.68	10361.55
487.85	10162.61
488.03	10399.00
488.21	10668.16
488.39	10462.19
488.57	10541.77
488.75	10537.09
488.92	10834.34
489.10	11028.60
489.28	10925.62
489.46	11066.05
489.64	11084.78
489.81	11154.99
489.99	11143.29
490.17	10991.16
490.35	11564.59
490.53	11492.03
490.70	11730.76
490.88	11721.40
491.06	11808.00
491.24	11861.84
491.41	11520.12
491.59	11838.43
491.77	11873.54
491.95	12100.57
492.13	12273.77
492.30	12147.38
492.48	12360.37
492.66	12297.17
492.84	12231.64
493.01	12348.67
493.19	12512.50
493.37	12681.02
493.54	12601.44
493.72	12823.80
493.90	12547.61
494.08	12994.65
494.25	13172.54
494.43	12917.42
494.61	13144.45
494.79	13277.86
494.96	13214.66
495.14	13350.42
495.32	13266.16
495.49	13591.49
495.67	13767.03
495.85	13607.87
496.02	13743.63
496.20	13870.01
496.38	13736.60
496.55	14125.13
496.73	14171.94
496.91	14139.18
497.09	14193.01
497.26	14235.14
497.44	14104.07
497.62	14384.93
497.79	14497.28
497.97	14382.59
498.14	14712.61
498.32	14796.87
498.50	14820.27
498.67	14841.34
498.85	14995.81
499.03	14913.89
499.20	14764.10
499.38	14965.39
499.56	15161.99
499.73	15339.87
499.91	15199.44
500.08	15400.72
500.26	15197.10
500.44	15363.28
500.61	15419.45
500.79	15618.39
500.97	15838.41
501.14	15810.32
501.32	15669.89
501.49	15840.75
501.67	15953.09
501.84	15894.58
502.02	16159.06
502.20	16175.44
502.37	15957.77
502.55	15917.98
502.72	16147.36
502.90	16074.80
503.07	16049.05
503.25	16374.39
503.43	16238.64
503.60	16259.70
503.78	16402.47
503.95	16362.69
504.13	16475.03
504.30	16606.10
504.48	16437.58
504.65	16603.76
504.83	16870.58
505.01	16954.84
505.18	16982.93
505.36	16910.37
505.53	16861.22
505.71	16940.80
505.88	17198.26
506.06	16910.37
506.23	17144.42
506.41	17397.20
506.58	17357.41
506.76	17277.83
506.93	17324.65
507.11	17378.48
507.28	17341.03
507.46	17380.82
507.63	17401.88
507.81	17886.37
507.98	17834.88
508.16	17696.79
508.33	17888.71
508.50	17799.77
508.68	17886.37
508.85	18111.07
509.03	18157.88
509.20	18150.85
509.38	18370.86
509.55	18218.73
509.73	18155.54
509.90	18024.47
510.08	18214.05
510.25	18305.33
510.42	18424.70
510.60	18527.68
510.77	18703.22
510.95	18515.98
511.12	18768.76
511.30	18548.75
511.47	18705.56
511.64	18862.38
511.82	19026.21
511.99	18766.42
512.17	18850.67
512.34	18885.78
512.51	19051.96
512.69	19033.24
512.86	19349.21
513.04	19414.74
513.21	19180.69
513.38	19524.75
513.56	19534.11
513.73	19215.80
513.90	19611.35
514.08	19414.74
514.25	19470.92
514.43	19852.42
514.60	19833.70
514.77	19653.48
514.95	19740.08
515.12	19463.90
515.29	19763.48
515.47	19969.45
515.64	20252.66
515.81	19747.10
515.99	20180.10
516.16	20238.61
516.33	20262.02
516.51	20292.44
516.68	19915.62
516.85	20247.97
517.03	20240.95
517.20	20386.07
517.37	20257.34
517.54	20585.01
517.72	20599.05
517.89	20587.35
518.06	20575.65
518.24	20423.51
518.41	20861.19
518.58	20718.42
518.75	20528.84
518.93	20877.58
519.10	20519.48
519.27	20999.29
519.45	20617.78
519.62	20812.04
519.79	20819.07
519.96	20910.35
520.14	21039.08
520.31	20891.62
520.48	21205.25
520.65	21006.31
520.83	21343.35
521.00	21638.25
521.17	21331.64
521.34	21132.70
521.52	21570.38
521.69	21329.30
521.86	21715.49
522.03	21603.14
522.20	21804.43
522.38	22129.77
522.55	21965.93
522.72	21862.94
522.89	21977.63
523.07	22148.49
523.24	22155.51
523.41	22104.02
523.58	21825.50
523.75	21991.67
523.92	21996.35
524.10	22075.93
524.27	22169.55
524.44	22211.68
524.61	22490.21
524.78	22288.92
524.96	22544.04
525.13	22237.43
525.30	22340.41
525.47	22326.37
525.64	22134.45
525.81	23178.33
525.98	22829.59
526.16	22703.20
526.33	22654.05
526.50	23014.49
526.67	22850.65
526.84	23026.19
527.01	22939.59
527.18	22998.10
527.36	22899.80
527.53	22876.40
527.70	22970.02
527.87	22972.36
528.04	23131.51
528.21	22951.29
528.38	23145.56
528.55	23192.37
528.72	23037.89
528.89	23253.22
529.07	23278.97
529.24	23161.94
529.41	23697.92
529.58	23606.64
529.75	23339.82
529.92	23433.44
530.09	23260.24
530.26	23433.44
530.43	23758.78
530.60	23393.65
530.77	23428.76
530.94	23728.35
531.11	23770.48
531.28	23468.55
531.46	23924.96
531.63	23503.66
531.80	23889.85
531.97	24215.18
532.14	23756.44
532.31	23960.06
532.48	24025.60
532.65	24109.86
532.82	23985.81
532.99	23889.85
533.16	24142.63
533.33	24119.22
533.50	24512.43
533.67	24135.60
533.84	24067.73
534.01	24240.93
534.18	24222.20
534.35	24519.45
534.52	24236.25
534.69	24615.41
534.86	24746.48
535.03	24372.00
535.20	24638.82
535.37	24592.01
535.54	24491.37
535.71	24416.47
535.88	24360.30
536.05	24999.26
536.22	24453.92
536.38	24936.07
536.55	24828.40
536.72	25212.25
536.89	24713.72
537.06	24772.23
537.23	24676.27
537.40	24947.77
537.57	25207.57
537.74	24926.71
537.91	25055.43
538.08	25118.63
538.25	25118.63
538.42	25149.06
538.59	25223.95
538.75	25069.48
538.92	25120.97
539.09	25160.76
539.26	25514.18
539.43	25490.77
539.60	25577.37
539.77	25340.98
539.94	25647.59
540.11	25434.60
540.28	25813.77
540.44	25230.98
540.61	25521.20
540.78	25656.95
540.95	25900.37
541.12	25495.46
541.29	25617.16
541.46	25553.97
541.62	25736.53
541.79	25476.73
541.96	25539.93
542.13	25663.97
542.30	25685.04
542.47	25797.38
542.63	26008.03
542.80	26031.44
542.97	26469.12
543.14	26291.24
543.31	26176.55
543.48	26059.52
543.64	26607.21
543.81	26742.96
543.98	26541.68
544.15	26101.65
544.32	26574.44
544.48	26625.93
544.65	26520.61
544.82	26429.33
544.99	25860.58
545.16	26630.62
545.32	26288.90
545.49	26848.29
545.66	26969.99
545.83	26572.10
546.00	26974.67
546.16	26799.13
546.33	26331.03
546.50	26328.69
546.67	26462.10
546.83	26405.92
547.00	26836.58
547.17	26569.76
547.34	26391.88
547.50	26969.99
547.67	27143.19
547.84	27028.51
548.00	26944.25
548.17	26696.15
548.34	27143.19
548.51	27012.12
548.67	27489.59
548.84	27061.27
549.01	27122.13
549.18	27468.53
549.34	27360.86
549.51	27445.12
549.68	26981.70
549.84	27356.18
550.01	27477.89
550.18	27187.66
550.34	27346.82
550.51	27480.23
550.68	27421.72
550.84	27349.16
551.01	27283.62
551.18	27339.80
551.34	27182.98
551.51	27510.66
551.68	27573.85
551.84	27494.27
552.01	27285.97
552.18	27758.75
552.34	27559.81
552.51	27615.98
552.68	27615.98
552.84	27800.88
553.01	27740.03
553.18	27885.14
553.34	27817.27
553.51	27831.31
553.67	27828.97
553.84	28379.00
554.01	28056.00
554.17	27990.47
554.34	27772.80
554.51	27723.65
554.67	27681.52
554.84	28158.99
555.00	27700.24
555.17	28149.62
555.33	28044.30
555.50	28037.28
555.67	28067.70
555.83	27587.89
556.00	27845.35
556.16	28439.85
556.33	28058.34
556.50	28332.18
556.66	28285.37
556.83	28259.63
556.99	28697.31
557.16	28360.27
557.32	28313.46
557.49	28357.93
557.65	28622.41
557.82	28582.62
557.98	28425.81
558.15	28325.16
558.32	28486.66
558.48	28641.14
558.65	28496.02
558.81	28772.21
558.98	28189.41
559.14	28446.87
559.31	28112.17
559.47	28531.13
559.64	28514.75
559.80	28334.53
559.97	28767.52
560.13	28678.58
560.30	28666.88
560.46	28587.30
560.63	28629.43
560.79	28360.27
560.96	28491.34
561.12	28606.03
561.29	28456.23
561.45	28414.10
561.61	28807.31
561.78	28678.58
561.94	29223.93
562.11	28699.65
562.27	28804.97
562.44	28627.09
562.60	28835.40
562.77	28671.56
562.93	28435.17
563.10	28570.92
563.26	28833.06
563.42	29062.43
563.59	28907.96
563.75	29322.23
563.92	29097.54
564.08	28856.46
564.24	28987.53
564.41	28587.30
564.57	28751.14
564.74	28933.70
564.90	28781.57
565.07	29247.33
565.23	28917.32
565.39	29237.97
565.56	29233.29
565.72	28706.67
565.88	29001.58
566.05	28999.24
566.21	28790.93
566.38	29039.03
566.54	29226.27
566.70	29179.46
566.87	29242.65
567.03	29022.64
567.19	29228.61
567.36	29490.75
567.52	28823.70
567.68	29479.05
567.85	29106.90
568.01	29240.31
568.17	29193.50
568.34	29635.86
568.50	29502.45
568.66	29357.34
568.83	29738.85
568.99	29263.72
569.15	29090.52
569.32	29179.46
569.48	28964.13
569.64	29275.42
569.81	29591.39
569.97	29443.94
570.13	29530.54
570.30	29160.73
570.46	29666.29
570.62	29273.08
570.78	29273.08
570.95	29219.25
571.11	29404.15
571.27	29172.44
571.43	29160.73
571.60	29544.58
571.76	29624.16
571.92	29579.69
572.09	29425.22
572.25	29408.83
572.41	29474.37
572.57	29476.71
572.74	29619.48
572.90	29275.42
573.06	29172.44
573.22	29523.52
573.38	29242.65
573.55	29638.20
573.71	29532.88
573.87	30024.39
574.03	29312.87
574.20	29804.38
574.36	29146.69
574.52	29237.97
574.68	29474.37
574.84	29542.24
575.01	29315.21
575.17	29799.70
575.33	29343.30
575.49	29228.61
575.65	29338.62
575.82	29905.02
575.98	29523.52
576.14	29626.50
576.30	29809.06
576.46	29668.63
576.62	29254.36
576.79	29401.81
576.95	29596.07
577.11	29511.81
577.27	29647.57
577.43	29741.19
577.59	29694.38
577.75	29589.05
577.92	29352.66
578.08	29373.72
578.24	29436.92
578.40	29483.73
578.56	29717.78
578.72	29757.57
578.88	30106.31
579.04	29867.58
579.21	29514.16
579.37	29797.36
579.53	29713.10
579.69	29521.18
579.85	29509.47
580.01	29544.58
580.17	29589.05
580.33	29596.07
580.49	29862.90
580.65	29940.13
580.82	29855.87
580.98	29591.39
581.14	29675.65
581.30	29888.64
581.46	29453.30
581.62	29809.06
581.78	29600.76
581.94	29862.90
582.10	29666.29
582.26	29586.71
582.42	29734.17
582.58	30183.55
582.74	29404.15
582.90	29795.02
583.06	29663.95
583.22	29621.82
583.38	29916.73
583.54	29422.87
583.70	29607.78
583.86	29673.31
584.02	29567.99
584.18	29750.55
584.34	30068.86
584.50	29689.70
584.66	29954.18
584.82	29720.12
584.98	29715.44
585.14	29858.21
585.30	29362.02
585.46	29736.51
585.62	29476.71
585.78	30260.79
585.94	29345.64
586.10	29921.41
586.26	29762.25
586.42	30370.79
586.58	29699.06
586.74	29776.30
586.90	29567.99
587.06	29591.39
587.22	29804.38
587.38	29820.77
587.54	30022.05
587.70	30281.85
587.86	29921.41
588.02	30192.91
588.18	30141.42
588.34	30218.66
588.49	29954.18
588.65	29933.11
588.81	30071.20
588.97	30251.42
589.13	29799.70
589.29	29792.68
589.45	30050.14
589.61	30096.95
589.77	30134.40
589.93	30000.99
590.08	30253.76
590.24	30380.15
590.40	30312.28
590.56	30398.88
590.72	30499.52
590.88	29757.57
591.04	29750.55
591.20	30382.49
591.35	30389.52
591.51	29982.26
591.67	30431.65
591.83	30527.61
591.99	30316.96
