SpectraSuite Data File
++++++++++++++++++++++++++++++++++++
Date: Fri Oct 18 13:57:56 GMT-05:00 2013
User: bianchi
Dark Spectrum Present: No
Reference Spectrum Present: No
Number of Sampled Component Spectra: 1
Spectrometers: USB2+H05261
Integration Time (usec): 50000 (USB2+H05261)
Spectra Averaged: 1 (USB2+H05261)
Boxcar Smoothing: 0 (USB2+H05261)
Correct for Electrical Dark: No (USB2+H05261)
Strobe/Lamp Enabled: No (USB2+H05261)
Correct for Detector Non-linearity: No (USB2+H05261)
Correct for Stray Light: No (USB2+H05261)
Number of Pixels in Processed Spectrum: 2048
>>>>>Begin Processed Spectral Data<<<<<
365.73	0.00
365.92	0.00
366.12	0.00
366.32	0.00
366.52	0.00
366.72	0.00
366.91	0.00
367.11	0.00
367.31	0.00
367.51	0.00
367.70	0.00
367.90	0.00
368.10	0.00
368.30	0.00
368.49	0.00
368.69	0.00
368.89	0.00
369.09	0.00
369.28	0.00
369.48	0.00
369.68	0.00
369.87	0.00
370.07	0.00
370.27	0.00
370.47	0.00
370.66	91.28
370.86	147.45
371.06	117.03
371.25	133.41
371.45	100.64
371.65	177.88
371.84	173.20
372.04	117.03
372.24	173.20
372.44	241.08
372.63	173.20
372.83	187.24
373.03	215.33
373.22	177.88
373.42	191.92
373.62	266.82
373.81	299.59
374.01	245.76
374.21	283.20
374.40	266.82
374.60	271.50
374.79	159.16
374.99	182.56
375.19	273.84
375.38	236.39
375.58	311.29
375.78	285.55
375.97	234.05
376.17	243.42
376.37	224.69
376.56	269.16
376.76	262.14
376.95	227.03
377.15	313.63
377.35	259.80
377.54	248.10
377.74	262.14
377.93	245.76
378.13	264.48
378.33	369.80
378.52	264.48
378.72	222.35
378.91	304.27
379.11	248.10
379.31	320.65
379.50	311.29
379.70	264.48
379.89	278.52
380.09	257.46
380.28	322.99
380.48	393.21
380.68	365.12
380.87	257.46
381.07	301.93
381.26	348.74
381.46	278.52
381.65	315.97
381.85	306.61
382.04	351.08
382.24	355.76
382.43	334.70
382.63	395.55
382.83	365.12
383.02	421.30
383.22	318.31
383.41	362.78
383.61	407.25
383.80	489.17
384.00	337.04
384.19	367.46
384.39	454.06
384.58	346.40
384.78	388.53
384.97	299.59
385.17	360.44
385.36	456.40
385.56	395.55
385.75	362.78
385.95	437.68
386.14	372.15
386.34	425.98
386.53	421.30
386.72	456.40
386.92	463.43
387.11	322.99
387.31	433.00
387.50	482.15
387.70	442.36
387.89	472.79
388.09	491.51
388.28	416.62
388.48	437.68
388.67	440.02
388.86	409.59
389.06	367.46
389.25	430.66
389.45	514.92
389.64	477.47
389.84	463.43
390.03	463.43
390.22	458.74
390.42	486.83
390.61	433.00
390.81	484.49
391.00	512.58
391.19	489.17
391.39	470.45
391.58	484.49
391.78	538.32
391.97	531.30
392.16	510.24
392.36	491.51
392.55	531.30
392.75	519.60
392.94	582.79
393.13	578.11
393.33	512.58
393.52	486.83
393.71	543.00
393.91	622.58
394.10	538.32
394.29	561.73
394.49	566.41
394.68	678.76
394.88	613.22
395.07	657.69
395.26	615.56
395.46	601.52
395.65	655.35
395.84	580.45
396.04	599.18
396.23	594.50
396.42	688.12
396.62	599.18
396.81	667.05
397.00	603.86
397.19	650.67
397.39	667.05
397.58	629.60
397.77	746.63
397.97	706.84
398.16	624.92
398.35	629.60
398.55	695.14
398.74	791.10
398.93	664.71
399.12	636.63
399.32	674.07
399.51	814.51
399.70	760.67
399.90	697.48
400.09	788.76
400.28	793.44
400.47	840.25
400.67	828.55
400.86	842.59
401.05	716.20
401.24	697.48
401.44	777.06
401.63	774.72
401.82	894.08
402.01	842.59
402.21	964.30
402.40	840.25
402.59	856.64
402.78	875.36
402.97	922.17
403.17	873.02
403.36	943.24
403.55	952.60
403.74	788.76
403.93	887.06
404.13	891.74
404.32	880.04
404.51	919.83
404.70	887.06
404.89	870.68
405.09	947.92
405.28	994.73
405.47	990.05
405.66	1013.45
405.85	968.98
406.05	980.68
406.24	1053.24
406.43	1057.92
406.62	1151.54
406.81	1043.88
407.00	987.71
407.20	1008.77
407.39	1104.73
407.58	1006.43
407.77	1132.82
407.96	1121.12
408.15	1043.88
408.34	1128.14
408.54	1135.16
408.73	1097.71
408.92	1083.67
409.11	1132.82
409.30	1139.84
409.49	1135.16
409.68	1071.97
409.87	1151.54
410.07	1247.51
410.26	1245.16
410.45	1163.25
410.64	1160.91
410.83	1224.10
411.02	1266.23
411.21	1275.59
411.40	1156.22
411.59	1200.69
411.78	1268.57
411.98	1179.63
412.17	1263.89
412.36	1387.94
412.55	1380.92
412.74	1446.45
412.93	1401.98
413.12	1397.30
413.31	1385.60
413.50	1411.34
413.69	1448.79
413.88	1490.92
414.07	1413.68
414.26	1399.64
414.45	1483.90
414.64	1535.39
414.83	1528.37
415.02	1577.52
415.22	1572.84
415.41	1619.65
415.60	1638.38
415.79	1621.99
415.98	1696.89
416.17	1626.67
416.36	1614.97
416.55	1596.25
416.74	1652.42
416.93	1673.48
417.12	1678.16
417.31	1673.48
417.50	1654.76
417.69	1778.81
417.88	1860.73
418.07	1729.66
418.26	1823.28
418.45	1769.44
418.64	1895.83
418.83	1856.04
419.02	1802.21
419.21	1905.20
419.39	1839.66
419.58	1881.79
419.77	1846.68
419.96	1837.32
420.15	1825.62
420.34	1842.00
420.53	1970.73
420.72	1991.80
420.91	1842.00
421.10	1940.30
421.29	2026.90
421.48	1926.26
421.67	1909.88
421.86	1909.88
422.05	2029.24
422.24	1905.20
422.43	1991.80
422.61	2062.01
422.80	1994.14
422.99	1982.43
423.18	2008.18
423.37	1996.48
423.56	2038.61
423.75	2122.87
423.94	2059.67
424.13	1856.04
424.32	2010.52
424.50	1973.07
424.69	2057.33
424.88	2169.68
425.07	2052.65
425.26	2183.72
425.45	2040.95
425.64	2054.99
425.83	2214.15
426.01	2054.99
426.20	2204.78
426.39	2132.23
426.58	2071.37
426.77	2001.16
426.96	2073.71
427.15	2059.67
427.33	2172.02
427.52	2136.91
427.71	2125.21
427.90	2174.36
428.09	2242.23
428.28	2157.97
428.46	2328.83
428.65	2188.40
428.84	2326.49
429.03	2321.81
429.22	2251.60
429.40	2310.11
429.59	2335.85
429.78	2221.17
429.97	2094.78
430.16	2317.13
430.34	2389.69
430.53	2457.56
430.72	2312.45
430.91	2373.30
431.10	2333.51
431.28	2438.84
431.47	2466.92
431.66	2366.28
431.85	2532.46
432.03	2471.61
432.22	2483.31
432.41	2525.44
432.60	2565.23
432.79	2469.27
432.97	2480.97
433.16	2572.25
433.35	2410.75
433.54	2436.50
433.72	2525.44
433.91	2581.61
434.10	2485.65
434.28	2473.95
434.47	2527.78
434.66	2644.81
434.85	2504.37
435.03	2724.38
435.22	2487.99
435.41	2773.53
435.59	2689.28
435.78	2544.16
435.97	2658.85
436.16	2651.83
436.34	2712.68
436.53	2623.74
436.72	2712.68
436.90	2813.32
437.09	2761.83
437.28	2724.38
437.46	2754.81
437.65	2836.73
437.84	2803.96
438.02	2836.73
438.21	2810.98
438.40	2745.45
438.58	2909.29
438.77	2899.92
438.96	2878.86
439.14	2843.75
439.33	3056.74
439.52	2939.71
439.70	3133.98
439.89	3033.33
440.08	3056.74
440.26	2993.55
440.45	3098.87
440.63	3169.09
440.82	3293.13
441.01	3253.34
441.19	3241.64
441.38	3293.13
441.57	3304.84
441.75	3234.62
441.94	3433.57
442.12	3342.28
442.31	3468.67
442.50	3428.88
442.68	3328.24
442.87	3323.56
443.05	3449.95
443.24	3562.30
443.43	3449.95
443.61	3499.10
443.80	3609.11
443.98	3501.44
444.17	3286.11
444.35	3318.88
444.54	3494.42
444.73	3557.61
444.91	3384.41
445.10	3433.57
445.28	3456.97
445.47	3375.05
445.65	3513.14
445.84	3485.06
446.02	3424.20
446.21	3524.85
446.39	3487.40
446.58	3632.51
446.77	3597.40
446.95	3501.44
447.14	3630.17
447.32	3599.74
447.51	3538.89
447.69	3541.23
447.88	3578.68
448.06	3562.30
448.25	3527.19
448.43	3578.68
448.62	3524.85
448.80	3536.55
448.99	3583.36
449.17	3770.60
449.36	3695.71
449.54	3758.90
449.73	3854.86
449.91	3735.50
450.10	3789.33
450.28	3801.03
450.46	3861.88
450.65	3918.06
450.83	3854.86
451.02	3885.29
451.20	3967.21
451.39	3864.22
451.57	3904.01
451.76	3691.02
451.94	3913.38
452.13	3829.12
452.31	3854.86
452.49	3803.37
452.68	3929.76
452.86	3847.84
453.05	4002.32
453.23	3920.40
453.42	3934.44
453.60	4053.81
453.78	4007.00
453.97	4018.70
454.15	4007.00
454.34	4187.22
454.52	4056.15
454.70	4156.79
454.89	4182.54
455.07	3889.97
455.26	4182.54
455.44	4332.33
455.62	4250.41
455.81	4283.18
455.99	4191.90
456.17	4180.20
456.36	4294.88
456.54	4369.78
456.73	4381.48
456.91	4339.35
457.09	4395.53
457.28	4388.50
457.46	4402.55
457.64	4374.46
457.83	4407.23
458.01	4407.23
458.19	4475.10
458.38	4440.00
458.56	4416.59
458.74	4620.22
458.93	4498.51
459.11	4674.05
459.29	4594.47
459.48	4542.98
459.66	4540.64
459.84	4526.60
460.03	4667.03
460.21	4594.47
460.39	4713.84
460.57	4596.81
460.76	4568.73
460.94	4765.33
461.12	4774.69
461.31	4638.94
461.49	4786.40
461.67	4720.86
461.85	4915.12
462.04	4798.10
462.22	5055.56
462.40	4835.55
462.59	4854.27
462.77	4837.89
462.95	4954.91
463.13	4901.08
463.32	4903.42
463.50	5125.77
463.68	4978.32
463.86	4915.12
464.05	4908.10
464.23	4987.68
464.41	4926.83
464.59	4924.49
464.78	4992.36
464.96	4957.25
465.14	5029.81
465.32	5029.81
465.50	5081.30
465.69	5135.14
465.87	5111.73
466.05	5015.77
466.23	5170.24
466.41	5135.14
466.60	5153.86
466.78	5163.22
466.96	5186.63
467.14	5128.11
467.32	5102.37
467.51	5266.21
467.69	5022.79
467.87	5294.29
468.05	5301.31
468.23	5240.46
468.41	5242.80
468.60	5320.04
468.78	5378.55
468.96	5453.45
469.14	5476.85
469.32	5413.66
469.50	5301.31
469.69	5483.88
469.87	5387.91
470.05	5479.19
470.23	5610.26
470.41	5614.95
470.59	5324.72
470.77	5444.09
470.95	5596.22
471.14	5661.76
471.32	5579.84
471.50	5741.33
471.68	5640.69
471.86	5640.69
472.04	5813.89
472.22	5930.92
472.40	5680.48
472.58	5696.86
472.77	5764.74
472.95	5886.45
473.13	6209.44
473.31	5825.59
473.49	5923.90
473.67	5991.77
473.85	6064.33
474.03	6221.14
474.21	6019.86
474.39	6225.82
474.57	6157.95
474.75	6179.01
474.93	6305.40
475.12	6258.59
475.30	6270.30
475.48	6174.33
475.66	6450.52
475.84	6307.74
476.02	6485.62
476.20	6527.75
476.38	6668.19
476.56	6612.01
476.74	6738.40
476.92	6492.65
477.10	6555.84
477.28	6733.72
477.46	6541.80
477.64	6750.10
477.82	6909.26
478.00	7103.53
478.18	7070.76
478.36	7155.02
478.54	7183.10
478.72	7227.57
478.90	7412.48
479.08	7229.91
479.26	7482.69
479.44	7459.29
479.62	7569.29
479.80	7573.97
479.98	7545.89
480.16	7602.06
480.34	7602.06
480.52	7749.51
480.70	7672.28
480.88	7744.83
481.06	7927.39
481.24	7948.46
481.41	7829.09
481.59	8198.90
481.77	8184.85
481.95	8262.09
482.13	8140.38
482.31	8367.42
482.49	8439.97
482.67	8414.23
482.85	8517.21
483.03	8676.37
483.21	8631.90
483.39	8695.09
483.57	8655.30
483.74	8699.77
483.92	8784.03
484.10	8910.42
484.28	8990.00
484.46	9343.42
484.64	9504.92
484.82	8868.29
485.00	9357.46
485.18	9493.21
485.35	9392.57
485.53	9378.53
485.71	9633.64
485.89	9893.44
486.07	9717.90
486.25	9757.69
486.43	9813.87
486.61	10054.94
486.78	10310.06
486.96	10239.84
487.14	10253.89
487.32	10188.35
487.50	10300.70
487.68	10537.09
487.85	10602.63
488.03	10717.31
488.21	11059.03
488.39	10888.17
488.57	10860.09
488.75	10759.44
488.92	10977.11
489.10	11023.92
489.28	11194.78
489.46	11431.18
489.64	11250.96
489.81	11281.38
489.99	11541.18
490.17	11641.82
490.35	11630.12
490.53	11810.34
490.70	11805.66
490.88	11999.93
491.06	11798.64
491.24	11971.84
491.41	12224.62
491.59	12100.57
491.77	12243.34
491.95	12416.54
492.13	12395.48
492.30	12456.33
492.48	12294.83
492.66	12812.09
492.84	12624.85
493.01	12849.54
493.19	12905.71
493.37	12947.84
493.54	13317.65
493.72	13305.95
493.90	12954.87
494.08	13277.86
494.25	13462.76
494.43	13352.76
494.61	13561.06
494.79	13427.65
494.96	13598.51
495.14	13685.11
495.32	13912.14
495.49	13806.82
495.67	13799.80
495.85	14066.62
496.02	14150.88
496.20	14146.20
496.38	14258.54
496.55	14178.97
496.73	14431.74
496.91	14356.85
497.09	14518.34
497.26	14387.27
497.44	14654.09
497.62	14705.59
497.79	14934.96
497.97	14614.30
498.14	14993.47
498.32	15279.02
498.50	15002.83
498.67	15147.95
498.85	15260.29
499.03	15138.58
499.20	15206.46
499.38	15318.81
499.56	15817.34
499.73	15817.34
499.91	15190.08
500.08	15697.97
500.26	15637.12
500.44	15852.45
500.61	15545.84
500.79	15737.76
500.97	16072.46
501.14	16236.30
501.32	16166.08
501.49	16308.85
501.67	16226.93
501.84	16240.98
502.02	16208.21
502.20	16458.65
502.37	16493.76
502.55	16507.80
502.72	16524.18
502.90	16683.34
503.07	16636.53
503.25	16657.59
503.43	16950.16
503.60	16823.77
503.78	16922.07
503.95	16681.00
504.13	16739.51
504.30	17025.06
504.48	16851.86
504.65	16973.56
504.83	17268.47
505.01	17427.63
505.18	17350.39
505.36	17390.18
505.53	17399.54
505.71	17289.54
505.88	17575.08
506.06	17565.72
506.23	17741.26
506.41	17575.08
506.58	17720.20
506.76	17549.34
506.93	17577.42
507.11	17834.88
507.28	17902.76
507.46	18099.36
507.63	18111.07
507.81	18436.40
507.98	18181.28
508.16	18302.99
508.33	18221.07
508.50	18349.80
508.68	18153.20
508.85	18459.81
509.03	18396.61
509.20	18604.92
509.38	18761.73
509.55	18684.50
509.73	18965.36
509.90	18677.48
510.08	18740.67
510.25	19044.94
510.42	19009.83
510.60	19040.26
510.77	19260.27
510.95	18953.66
511.12	18707.90
511.30	19166.65
511.47	19077.71
511.64	19358.57
511.82	19356.23
511.99	19389.00
512.17	19819.66
512.34	19573.90
512.51	19665.18
512.69	19665.18
512.86	19545.81
513.04	19606.67
513.21	19782.21
513.38	19627.73
513.56	19864.13
513.73	19690.93
513.90	19882.85
514.08	20018.60
514.25	20056.05
514.43	20100.52
514.60	20098.18
514.77	20369.68
514.95	20439.90
515.12	20051.37
515.29	20226.91
515.47	20512.46
515.64	20706.72
515.81	20503.09
515.99	20615.44
516.16	20608.42
516.33	20732.47
516.51	20589.69
516.68	20643.52
516.85	20702.04
517.03	20989.92
517.20	20821.41
517.37	20989.92
517.54	20793.32
517.72	21137.38
517.89	20844.81
518.06	21109.29
518.24	21092.91
518.41	21399.52
518.58	21001.63
518.75	21036.74
518.93	21678.04
519.10	21350.37
519.27	21446.33
519.45	21245.04
519.62	21472.07
519.79	21546.97
519.96	21453.35
520.14	21621.87
520.31	21893.37
520.48	22043.17
520.65	21729.53
520.83	22101.68
521.00	21886.35
521.17	21830.18
521.34	21930.82
521.52	22293.60
521.69	21944.86
521.86	22501.91
522.03	22214.02
522.20	22024.44
522.38	22340.41
522.55	22036.14
522.72	22057.21
522.89	22553.40
523.07	22588.51
523.24	22506.59
523.41	22932.57
523.58	22373.18
523.75	22675.11
523.92	22457.44
524.10	22576.81
524.27	22771.07
524.44	22745.33
524.61	22733.62
524.78	22963.00
524.96	23005.13
525.13	22988.74
525.30	23126.83
525.47	23075.34
525.64	23332.80
525.81	23332.80
525.98	23180.67
526.16	23264.92
526.33	23241.52
526.50	23412.38
526.67	23414.72
526.84	23143.22
527.01	23349.18
527.18	23363.23
527.36	23630.05
527.53	23606.64
527.70	23995.17
527.87	23489.62
528.04	23578.56
528.21	23864.10
528.38	23784.52
528.55	23833.68
528.72	23728.35
528.89	23899.21
529.07	23882.83
529.24	24011.56
529.41	24034.96
529.58	24547.54
529.75	24034.96
529.92	24439.87
530.09	23997.51
530.26	24400.08
530.43	24079.43
530.60	24362.64
530.77	24360.30
530.94	24458.60
531.11	24229.23
531.28	24039.64
531.46	24657.54
531.63	24315.83
531.80	24500.73
531.97	24826.06
532.14	24748.82
532.31	24512.43
532.48	24814.36
532.65	24636.48
532.82	24603.71
532.99	24341.57
533.16	24636.48
533.33	24964.15
533.50	24919.68
533.67	25048.41
533.84	24980.54
534.01	24924.36
534.18	24552.22
534.35	24973.52
534.52	24687.97
534.69	25256.72
534.86	25249.70
535.03	25443.96
535.20	25359.70
535.37	25350.34
535.54	25399.49
535.71	25406.52
535.88	25287.15
536.05	25191.19
536.22	25298.85
536.38	25769.30
536.55	25741.21
536.72	25989.31
536.89	25490.77
537.06	25678.02
537.23	25528.22
537.40	25682.70
537.57	25497.80
537.74	25352.68
537.91	25991.65
538.08	26057.18
538.25	25720.15
538.42	26052.50
538.59	25841.85
538.75	25804.41
538.92	25853.56
539.09	25947.18
539.26	25996.33
539.43	26307.62
539.60	25837.17
539.77	26068.89
539.94	26338.05
540.11	26424.65
540.28	26071.23
540.44	26324.01
540.61	25984.63
540.78	26199.96
540.95	26384.86
541.12	26553.38
541.29	26314.64
541.46	26190.59
541.62	26225.70
541.79	26295.92
541.96	26143.78
542.13	26197.62
542.30	26452.73
542.47	26436.35
542.63	26948.93
542.80	27098.72
542.97	26670.40
543.14	26768.71
543.31	26565.08
543.48	26897.44
543.64	27527.04
543.81	27110.43
543.98	27358.52
544.15	27281.28
544.32	27194.68
544.48	27386.61
544.65	27166.60
544.82	27335.12
544.99	27236.81
545.16	27112.77
545.32	27321.07
545.49	27501.29
545.66	27229.79
545.83	27426.40
546.00	27304.69
546.16	27215.75
546.33	27358.52
546.50	26867.01
546.67	27718.96
546.83	27335.12
547.00	27674.49
547.17	27374.91
547.34	27594.92
547.50	27931.95
547.67	27950.68
547.84	27826.63
548.00	27398.31
548.17	27967.06
548.34	27681.52
548.51	28273.67
548.67	27838.33
548.84	27807.90
549.01	27873.44
549.18	27953.02
549.34	27840.67
549.51	28175.37
549.68	27969.40
549.84	27955.36
550.01	27763.43
550.18	27878.12
550.34	27896.85
550.51	28144.94
550.68	28514.75
550.84	27847.69
551.01	28329.84
551.18	28517.09
551.34	27931.95
551.51	28374.31
551.68	28376.66
551.84	28257.29
552.01	28048.98
552.18	28657.52
552.34	28196.43
552.51	28240.90
552.68	28381.34
552.84	28077.07
553.01	28460.91
553.18	28308.78
553.34	28554.54
553.51	28664.54
553.67	28774.55
553.84	28701.99
554.01	28510.07
554.17	28982.85
554.34	28959.45
554.51	28140.26
554.67	28596.67
554.84	28781.57
555.00	28851.78
555.17	28854.12
555.33	28800.29
555.50	28996.90
555.67	29127.97
555.83	28840.08
556.00	28467.94
556.16	29137.33
556.33	28847.10
556.50	29144.35
556.66	28819.02
556.83	28952.43
556.99	29469.69
557.16	29209.89
557.32	29209.89
557.49	29310.53
557.65	28793.27
557.82	28746.46
557.98	29060.09
558.15	28830.72
558.32	29149.03
558.48	29139.67
558.65	29362.02
558.81	29273.08
558.98	29509.47
559.14	29006.26
559.31	29273.08
559.47	29163.08
559.64	29263.72
559.80	29350.32
559.97	29647.57
560.13	29214.57
560.30	29579.69
560.46	29607.78
560.63	29497.77
560.79	29699.06
560.96	29479.05
561.12	29656.93
561.29	29167.76
561.45	29773.95
561.61	29450.96
561.78	29923.75
561.94	29839.49
562.11	29916.73
562.27	29514.16
562.44	29502.45
562.60	29603.10
562.77	29544.58
562.93	29675.65
563.10	29802.04
563.26	29610.12
563.42	29895.66
563.59	29855.87
563.75	29720.12
563.92	29876.94
564.08	29539.90
564.24	29699.06
564.41	29593.73
564.57	29607.78
564.74	29968.22
564.90	29685.01
565.07	29757.57
565.23	30225.68
565.39	29949.50
565.56	29942.47
565.72	29614.80
565.88	30157.80
566.05	29457.98
566.21	29907.37
566.38	29949.50
566.54	30190.57
566.70	30284.19
566.87	30054.82
567.03	30057.16
567.19	30129.72
567.36	30478.46
567.52	29497.77
567.68	30232.70
567.85	29907.37
568.01	30314.62
568.17	30125.04
568.34	30195.25
568.50	30099.29
568.66	30314.62
568.83	30541.65
568.99	30064.18
569.15	30490.16
569.32	30068.86
569.48	29907.37
569.64	30492.50
569.81	30464.41
569.97	30258.45
570.13	30202.27
570.30	29642.88
570.46	30015.03
570.62	30242.06
570.78	30190.57
570.95	29921.41
571.11	30396.54
571.27	29778.64
571.43	30031.41
571.60	30469.09
571.76	30483.14
571.92	30415.26
572.09	30616.55
572.25	30408.24
572.41	30333.34
572.57	30684.42
572.74	30483.14
572.90	30148.44
573.06	30441.01
573.22	30473.78
573.38	30438.67
573.55	30202.27
573.71	30745.28
573.87	30969.97
574.03	30305.26
574.20	30492.50
574.36	30553.35
574.52	30384.83
574.68	30380.15
574.84	30286.53
575.01	30438.67
575.17	30593.14
575.33	30260.79
575.49	30211.64
575.65	30672.72
575.82	30242.06
575.98	30218.66
576.14	30408.24
576.30	30462.07
576.46	30426.96
576.62	30265.47
576.79	30675.06
576.95	30309.94
577.11	30424.62
577.27	30686.76
577.43	30457.39
577.59	30728.89
577.75	30883.37
577.92	30473.78
578.08	30274.83
578.24	30661.02
578.40	30272.49
578.56	30497.18
578.72	30628.25
578.88	30937.20
579.04	31267.22
579.21	30796.77
579.37	30742.94
579.53	30438.67
579.69	30213.98
579.85	30562.72
580.01	30705.49
580.17	30401.22
580.33	30403.56
580.49	30328.66
580.65	30618.89
580.82	30586.12
580.98	30775.70
581.14	30841.24
581.30	30380.15
581.46	30747.62
581.62	30515.90
581.78	30305.26
581.94	30881.03
582.10	30480.80
582.26	30820.17
582.42	30969.97
582.58	30773.36
582.74	31077.63
582.90	30562.72
583.06	31016.78
583.22	30312.28
583.38	30920.82
583.54	30513.56
583.70	30749.96
583.86	30459.73
584.02	30616.55
584.18	30656.34
584.34	30536.97
584.50	30792.09
584.66	30590.80
584.82	30630.59
584.98	31119.76
585.14	30572.08
585.30	30600.16
585.46	30298.23
585.62	30597.82
585.78	30876.35
585.94	30176.53
586.10	30600.16
586.26	30918.48
586.42	30930.18
586.58	30682.08
586.74	30829.54
586.90	30309.94
587.06	30473.78
587.22	30696.13
587.38	30663.36
587.54	30953.58
587.70	30925.50
587.86	30916.14
588.02	30881.03
588.18	31122.10
588.34	31023.80
588.49	30897.41
588.65	30497.18
588.81	31005.08
588.97	31087.00
589.13	30714.85
589.29	30726.55
589.45	30890.39
589.61	31091.68
589.77	31253.17
589.93	31002.74
590.08	31637.02
590.24	31033.16
590.40	31030.82
590.56	30796.77
590.72	30930.18
590.88	30665.70
591.04	30916.14
591.20	30890.39
591.35	31473.18
591.51	31583.19
591.67	31470.84
591.83	31601.91
