SpectraSuite Data File
++++++++++++++++++++++++++++++++++++
Date: Fri Oct 18 13:57:57 GMT-05:00 2013
User: bianchi
Dark Spectrum Present: No
Reference Spectrum Present: No
Number of Sampled Component Spectra: 1
Spectrometers: USB2+H05261
Integration Time (usec): 50000 (USB2+H05261)
Spectra Averaged: 1 (USB2+H05261)
Boxcar Smoothing: 0 (USB2+H05261)
Correct for Electrical Dark: No (USB2+H05261)
Strobe/Lamp Enabled: No (USB2+H05261)
Correct for Detector Non-linearity: No (USB2+H05261)
Correct for Stray Light: No (USB2+H05261)
Number of Pixels in Processed Spectrum: 2048
>>>>>Begin Processed Spectral Data<<<<<
365.73	0.00
365.92	0.00
366.12	0.00
366.32	0.00
366.52	0.00
366.72	0.00
366.91	0.00
367.11	0.00
367.31	0.00
367.51	0.00
367.70	0.00
367.90	0.00
368.10	0.00
368.30	0.00
368.49	0.00
368.69	0.00
368.89	0.00
369.09	0.00
369.28	0.00
369.48	0.00
369.68	0.00
369.87	0.00
370.07	0.00
370.27	0.00
370.47	0.00
370.66	135.75
370.86	105.32
371.06	105.32
371.25	173.20
371.45	112.35
371.65	140.43
371.84	147.45
372.04	135.75
372.24	152.13
372.44	215.33
372.63	149.79
372.83	220.01
373.03	140.43
373.22	236.39
373.42	278.52
373.62	182.56
373.81	238.73
374.01	236.39
374.21	215.33
374.40	290.23
374.60	322.99
374.79	276.18
374.99	262.14
375.19	217.67
375.38	231.71
375.58	266.82
375.78	220.01
375.97	238.73
376.17	266.82
376.37	234.05
376.56	290.23
376.76	236.39
376.95	229.37
377.15	259.80
377.35	313.63
377.54	264.48
377.74	280.86
377.93	287.89
378.13	283.20
378.33	332.36
378.52	278.52
378.72	383.85
378.91	285.55
379.11	313.63
379.31	264.48
379.50	315.97
379.70	311.29
379.89	341.72
380.09	262.14
380.28	311.29
380.48	334.70
380.68	252.78
380.87	290.23
381.07	320.65
381.26	334.70
381.46	306.61
381.65	332.36
381.85	301.93
382.04	285.55
382.24	367.46
382.43	358.10
382.63	353.42
382.83	444.70
383.02	351.08
383.22	411.93
383.41	407.25
383.61	407.25
383.80	447.04
384.00	390.87
384.19	365.12
384.39	358.10
384.58	388.53
384.78	376.83
384.97	421.30
385.17	320.65
385.36	283.20
385.56	315.97
385.75	435.34
385.95	381.51
386.14	402.57
386.34	388.53
386.53	407.25
386.72	367.46
386.92	433.00
387.11	449.38
387.31	374.49
387.50	379.17
387.70	475.13
387.89	407.25
388.09	430.66
388.28	386.19
388.48	418.96
388.67	528.96
388.86	454.06
389.06	477.47
389.25	498.53
389.45	489.17
389.64	528.96
389.84	552.37
390.03	470.45
390.22	468.11
390.42	461.09
390.61	454.06
390.81	503.22
391.00	578.11
391.19	491.51
391.39	554.71
391.58	535.98
391.78	517.26
391.97	519.60
392.16	514.92
392.36	521.94
392.55	514.92
392.75	557.05
392.94	599.18
393.13	582.79
393.33	617.90
393.52	617.90
393.71	561.73
393.91	573.43
394.10	554.71
394.29	571.09
394.49	589.82
394.68	517.26
394.88	589.82
395.07	667.05
395.26	606.20
395.46	613.22
395.65	669.39
395.84	664.71
396.04	732.59
396.23	667.05
396.42	704.50
396.62	643.65
396.81	636.63
397.00	634.29
397.19	641.31
397.39	723.23
397.58	734.93
397.77	657.69
397.97	777.06
398.16	765.36
398.35	702.16
398.55	660.03
398.74	767.70
398.93	816.85
399.12	723.23
399.32	730.25
399.51	739.61
399.70	727.91
399.90	765.36
400.09	800.46
400.28	758.33
400.47	795.78
400.67	730.25
400.86	835.57
401.05	880.04
401.24	840.25
401.44	844.93
401.63	777.06
401.82	770.04
402.01	828.55
402.21	795.78
402.40	856.64
402.59	905.79
402.78	873.02
402.97	851.96
403.17	849.61
403.36	903.45
403.55	819.19
403.74	947.92
403.93	938.55
404.13	950.26
404.32	858.98
404.51	922.17
404.70	929.19
404.89	966.64
405.09	1008.77
405.28	1001.75
405.47	908.13
405.66	1006.43
405.85	1011.11
406.05	997.07
406.24	1008.77
406.43	1022.81
406.62	940.90
406.81	1170.27
407.00	978.34
407.20	1025.15
407.39	1020.47
407.58	1020.47
407.77	1088.35
407.96	1139.84
408.15	1104.73
408.34	1078.99
408.54	1011.11
408.73	1055.58
408.92	1135.16
409.11	1158.57
409.30	1149.20
409.49	1132.82
409.68	1200.69
409.87	1282.61
410.07	1221.76
410.26	1240.48
410.45	1184.31
410.64	1261.55
410.83	1156.22
411.02	1289.64
411.21	1277.93
411.40	1214.74
411.59	1256.87
411.78	1320.06
411.98	1373.89
412.17	1329.42
412.36	1343.47
412.55	1394.96
412.74	1364.53
412.93	1341.13
413.12	1284.95
413.31	1455.81
413.50	1331.76
413.69	1345.81
413.88	1432.41
414.07	1479.22
414.26	1481.56
414.45	1455.81
414.64	1488.58
414.83	1535.39
415.02	1675.82
415.22	1500.28
415.41	1558.80
415.60	1633.69
415.79	1605.61
415.98	1570.50
416.17	1652.42
416.36	1633.69
416.55	1584.54
416.74	1790.51
416.93	1654.76
417.12	1741.36
417.31	1804.55
417.50	1732.00
417.69	1851.36
417.88	1809.23
418.07	1760.08
418.26	1689.87
418.45	1811.57
418.64	1851.36
418.83	1797.53
419.02	1827.96
419.21	1891.15
419.39	1933.28
419.58	1778.81
419.77	1809.23
419.96	1804.55
420.15	1923.92
420.34	1989.46
420.53	1877.11
420.72	1846.68
420.91	1933.28
421.10	1940.30
421.29	2010.52
421.48	1926.26
421.67	1973.07
421.86	2036.27
422.05	1973.07
422.24	1977.75
422.43	1959.03
422.61	2097.12
422.80	2162.66
422.99	2066.69
423.18	2162.66
423.37	2115.84
423.56	2040.95
423.75	1952.01
423.94	1996.48
424.13	1834.98
424.32	1994.14
424.50	2026.90
424.69	2080.74
424.88	2127.55
425.07	2045.63
425.26	2066.69
425.45	2043.29
425.64	2120.53
425.83	2111.16
426.01	2200.10
426.20	2108.82
426.39	2218.83
426.58	2059.67
426.77	2202.44
426.96	2228.19
427.15	2174.36
427.33	2176.70
427.52	2216.49
427.71	2122.87
427.90	2146.27
428.09	2230.53
428.28	2211.81
428.46	2253.94
428.65	2214.15
428.84	2267.98
429.03	2321.81
429.22	2167.34
429.40	2272.66
429.59	2230.53
429.78	2300.75
429.97	2136.91
430.16	2319.47
430.34	2424.80
430.53	2377.98
430.72	2293.72
430.91	2258.62
431.10	2293.72
431.28	2459.90
431.47	2410.75
431.66	2420.11
431.85	2298.41
432.03	2520.76
432.22	2583.95
432.41	2530.12
432.60	2530.12
432.79	2424.80
432.97	2492.67
433.16	2520.76
433.35	2588.63
433.54	2544.16
433.72	2595.65
433.91	2672.89
434.10	2579.27
434.28	2609.70
434.47	2640.12
434.66	2670.55
434.85	2626.08
435.03	2731.41
435.22	2588.63
435.41	2649.49
435.59	2717.36
435.78	2729.06
435.97	2745.45
436.16	2799.28
436.34	2827.37
436.53	2651.83
436.72	2803.96
436.90	2731.41
437.09	2717.36
437.28	2708.00
437.46	2731.41
437.65	2724.38
437.84	2892.90
438.02	2705.66
438.21	2782.90
438.40	2813.32
438.58	2960.78
438.77	2970.14
438.96	2944.39
439.14	3112.91
439.33	2935.03
439.52	3000.57
439.70	3056.74
439.89	3133.98
440.08	3077.80
440.26	3068.44
440.45	3180.79
440.63	3185.47
440.82	3274.41
441.01	3164.40
441.19	3330.58
441.38	3258.03
441.57	3199.51
441.75	3290.79
441.94	3400.80
442.12	3398.46
442.31	3253.34
442.50	3316.54
442.68	3375.05
442.87	3531.87
443.05	3307.18
443.24	3475.70
443.43	3297.81
443.61	3510.80
443.80	3466.33
443.98	3391.44
444.17	3304.84
444.35	3342.28
444.54	3674.64
444.73	3466.33
444.91	3545.91
445.10	3545.91
445.28	3475.70
445.47	3407.82
445.65	3562.30
445.84	3489.74
446.02	3550.59
446.21	3508.46
446.39	3520.17
446.58	3667.62
446.77	3658.26
446.95	3632.51
447.14	3585.70
447.32	3520.17
447.51	3632.51
447.69	3602.08
447.88	3590.38
448.06	3597.40
448.25	3599.74
448.43	3632.51
448.62	3552.93
448.80	3585.70
448.99	3634.85
449.17	3740.18
449.36	3637.19
449.54	3747.20
449.73	3756.56
449.91	3758.90
450.10	3695.71
450.28	3831.46
450.46	3798.69
450.65	3768.26
450.83	3880.61
451.02	3985.93
451.20	3854.86
451.39	3950.82
451.57	3789.33
451.76	3859.54
451.94	3854.86
452.13	3810.39
452.31	3908.69
452.49	3808.05
452.68	3875.93
452.86	3829.12
453.05	4042.11
453.23	3913.38
453.42	3899.33
453.60	3995.29
453.78	4016.36
453.97	3922.74
454.15	4039.76
454.34	4093.60
454.52	4117.00
454.70	4067.85
454.89	4301.90
455.07	4121.68
455.26	4222.33
455.44	4198.92
455.62	4175.52
455.81	4238.71
455.99	4227.01
456.17	4348.72
456.36	4201.26
456.54	4126.36
456.73	4442.34
456.91	4484.47
457.09	4299.56
457.28	4622.56
457.46	4381.48
457.64	4554.68
457.83	4425.95
458.01	4346.37
458.19	4561.70
458.38	4400.21
458.56	4519.57
458.74	4465.74
458.93	4407.23
459.11	4491.49
459.29	4606.17
459.48	4571.07
459.66	4652.98
459.84	4554.68
460.03	4723.20
460.21	4545.32
460.39	4660.01
460.57	4713.84
460.76	4617.88
460.94	4599.15
461.12	4851.93
461.31	4699.80
461.49	4655.33
461.67	4655.33
461.85	4842.57
462.04	4809.80
462.22	4978.32
462.40	4968.96
462.59	4908.10
462.77	4898.74
462.95	4936.19
463.13	4964.28
463.32	4800.44
463.50	5060.24
463.68	5032.15
463.86	4922.15
464.05	5008.75
464.23	4947.89
464.41	5104.71
464.59	4973.64
464.78	5046.20
464.96	5071.94
465.14	5006.41
465.32	5130.45
465.50	5139.82
465.69	5130.45
465.87	5118.75
466.05	5158.54
466.23	5284.93
466.41	5284.93
466.60	5371.53
466.78	5142.16
466.96	5102.37
467.14	5186.63
467.32	5177.26
467.51	5305.99
467.69	5193.65
467.87	5420.68
468.05	5263.86
468.23	5195.99
468.41	5195.99
468.60	5380.89
468.78	5394.93
468.96	5331.74
469.14	5404.30
469.32	5558.77
469.50	5357.49
469.69	5331.74
469.87	5371.53
470.05	5537.71
470.23	5540.05
470.41	5584.52
470.59	5640.69
470.77	5549.41
470.95	5582.18
471.14	5638.35
471.32	5645.37
471.50	5736.65
471.68	5659.42
471.86	5614.95
472.04	5942.62
472.22	6029.22
472.40	5790.49
472.58	5816.23
472.77	5942.62
472.95	5963.68
473.13	6118.16
473.31	5874.74
473.49	5984.75
473.67	5867.72
473.85	5839.64
474.03	6207.10
474.21	5905.17
474.39	6111.14
474.57	6087.73
474.75	6373.28
474.93	6326.47
475.12	6190.72
475.30	6457.54
475.48	6263.27
475.66	6389.66
475.84	6473.92
476.02	6445.84
476.20	6429.45
476.38	6590.95
476.56	6670.53
476.74	6752.45
476.92	6738.40
477.10	6817.98
477.28	6867.13
477.46	6637.76
477.64	6942.03
477.82	6995.86
478.00	7037.99
478.18	7056.72
478.36	7152.68
478.54	7258.00
478.72	7358.64
478.90	7339.92
479.08	7227.57
479.26	7475.67
479.44	7475.67
479.62	7590.36
479.80	7817.39
479.98	7688.66
480.16	7625.47
480.34	7864.20
480.52	7782.28
480.70	7824.41
480.88	7695.68
481.06	8011.65
481.24	7803.35
481.41	8056.12
481.59	8032.72
481.77	8334.65
481.95	8077.19
482.13	8208.26
482.31	8095.91
482.49	8573.38
482.67	8409.54
482.85	8571.04
483.03	8683.39
483.21	8898.72
483.39	8727.86
483.57	8798.07
483.74	8816.80
483.92	8894.04
484.10	8863.61
484.28	9074.26
484.46	9298.95
484.64	9385.55
484.82	9116.39
485.00	9380.87
485.18	9783.44
485.35	9764.72
485.53	9521.30
485.71	9832.59
485.89	9895.78
486.07	9753.01
486.25	9689.82
486.43	9694.50
486.61	10150.90
486.78	10260.91
486.96	10132.18
487.14	10333.47
487.32	10415.38
487.50	10274.95
487.68	10429.43
487.85	10630.71
488.03	10733.70
488.21	10815.62
488.39	10881.15
488.57	10834.34
488.75	10871.79
488.92	10909.24
489.10	11225.21
489.28	11166.70
489.46	11379.68
489.64	11133.93
489.81	11365.64
489.99	11655.87
490.17	11566.93
490.35	11836.09
490.53	11922.69
490.70	11918.01
490.88	12025.67
491.06	12044.40
491.24	11974.18
491.41	12030.35
491.59	12315.90
491.77	12329.94
491.95	12219.94
492.13	12592.08
492.30	12547.61
492.48	12617.83
492.66	12711.45
492.84	12566.34
493.01	12713.79
493.19	13001.68
493.37	13174.88
493.54	12868.27
493.72	13123.38
493.90	13249.77
494.08	13523.62
494.25	13507.23
494.43	13387.86
494.61	13650.00
494.79	13708.52
494.96	13724.90
495.14	13596.17
495.32	13907.46
495.49	13717.88
495.67	13949.59
495.85	14349.82
496.02	14136.84
496.20	14066.62
496.38	14349.82
496.55	14310.04
496.73	14651.75
496.91	14478.55
497.09	14712.61
497.26	14607.28
497.44	14738.35
497.62	15103.48
497.79	14988.79
497.97	15019.22
498.14	15122.20
498.32	15103.48
498.50	15150.29
498.67	15264.97
498.85	15414.77
499.03	15290.72
499.20	15363.28
499.38	15489.67
499.56	15555.20
499.73	15618.39
499.91	15913.30
500.08	15957.77
500.26	15665.21
500.44	15840.75
500.61	15847.77
500.79	15889.90
500.97	15901.60
501.14	15962.45
501.32	16271.40
501.49	16442.26
501.67	16266.72
501.84	16423.54
502.02	16362.69
502.20	16676.32
502.37	16734.83
502.55	16758.24
502.72	16669.30
502.90	16453.97
503.07	16496.10
503.25	16746.53
503.43	16615.46
503.60	16889.31
503.78	17032.08
503.95	16922.07
504.13	17069.53
504.30	17186.55
504.48	17207.62
504.65	17104.64
504.83	17256.77
505.01	17350.39
505.18	17399.54
505.36	17509.55
505.53	17231.02
505.71	17460.40
505.88	17649.98
506.06	17287.20
506.23	17544.66
506.41	17783.39
506.58	17867.65
506.76	17689.77
506.93	17940.21
507.11	17661.68
507.28	18057.23
507.46	18075.96
507.63	18354.48
507.81	18466.83
507.98	17781.05
508.16	18101.70
508.33	18204.69
508.50	18590.88
508.68	18466.83
508.85	18892.80
509.03	18647.05
509.20	18396.61
509.38	18799.18
509.55	18726.63
509.73	19061.32
509.90	18719.60
510.08	19037.92
510.25	18698.54
510.42	19232.18
510.60	19087.07
510.77	19220.48
510.95	19232.18
511.12	19365.59
511.30	19143.24
511.47	19391.34
511.64	19185.37
511.82	19449.85
511.99	19384.32
512.17	19733.06
512.34	19590.28
512.51	19639.44
512.69	19513.05
512.86	20042.01
513.04	19878.17
513.21	19826.68
513.38	20182.44
513.56	20271.38
513.73	19887.53
513.90	20039.67
514.08	20072.43
514.25	20240.95
514.43	20444.58
514.60	20215.21
514.77	20252.66
514.95	20259.68
515.12	20252.66
515.29	20273.72
515.47	20177.76
515.64	20702.04
515.81	20645.87
515.99	20535.86
516.16	21032.05
516.33	20683.31
516.51	20680.97
516.68	20758.21
516.85	20961.84
517.03	20748.85
517.20	21106.95
517.37	20926.73
517.54	21109.29
517.72	20973.54
517.89	21242.70
518.06	21397.18
518.24	21209.93
518.41	21376.11
518.58	21579.74
518.75	21280.15
518.93	21509.52
519.10	21516.54
519.27	21481.44
519.45	21448.67
519.62	21823.16
519.79	21731.87
519.96	21811.45
520.14	21745.92
520.31	21804.43
520.48	21986.99
520.65	21954.22
520.83	21635.91
521.00	21977.63
521.17	21848.90
521.34	21893.37
521.52	22300.62
521.69	22293.60
521.86	22174.24
522.03	22295.94
522.20	22356.80
522.38	22642.34
522.55	22387.22
522.72	22047.85
522.89	22534.68
523.07	22478.50
523.24	22661.07
523.41	22735.96
523.58	22635.32
523.75	22977.04
523.92	22895.12
524.10	22855.33
524.27	22754.69
524.44	22857.67
524.61	22911.50
524.78	23293.01
524.96	23178.33
525.13	23117.47
525.30	22963.00
525.47	23098.75
525.64	22988.74
525.81	23428.76
525.98	23608.98
526.16	23709.63
526.33	23674.52
526.50	23604.30
526.67	23470.89
526.84	23356.21
527.01	23194.71
527.18	23419.40
527.36	23648.77
527.53	23840.70
527.70	23992.83
527.87	23913.25
528.04	23866.44
528.21	24074.75
528.38	23800.91
528.55	23922.62
528.72	23735.37
528.89	23948.36
529.07	23658.14
529.24	23833.68
529.41	24229.23
529.58	24091.13
529.75	24343.91
529.92	24135.60
530.09	24219.86
530.26	24458.60
530.43	24142.63
530.60	24002.19
530.77	24290.08
530.94	24372.00
531.11	24325.19
531.28	24357.96
531.46	24379.02
531.63	24374.34
531.80	24802.66
531.97	24388.38
532.14	24751.17
532.31	24879.89
532.48	24776.91
532.65	25116.29
532.82	24893.94
532.99	24915.00
533.16	24952.45
533.33	25113.95
533.50	24926.71
533.67	25109.27
533.84	24847.13
534.01	24954.79
534.18	24671.59
534.35	25362.04
534.52	25020.33
534.69	25177.14
534.86	25095.22
535.03	25151.40
535.20	25497.80
535.37	25455.67
535.54	25673.34
535.71	25039.05
535.88	25605.46
536.05	25443.96
536.22	25682.70
536.38	25371.41
536.55	25546.95
536.72	25462.69
536.89	25352.68
537.06	25476.73
537.23	25926.11
537.40	25551.63
537.57	25930.80
537.74	25872.28
537.91	25858.24
538.08	25954.20
538.25	25701.42
538.42	25853.56
538.59	26059.52
538.75	25886.32
538.92	26038.46
539.09	26136.76
539.26	25729.51
539.43	26291.24
539.60	26291.24
539.77	25923.77
539.94	26239.75
540.11	26326.35
540.28	26321.66
540.44	26106.34
540.61	26148.46
540.78	26398.90
540.95	26459.76
541.12	26555.72
541.29	26106.34
541.46	26583.80
541.62	26431.67
541.79	26424.65
541.96	26181.23
542.13	26717.22
542.30	26817.86
542.47	26607.21
542.63	27089.36
542.80	26977.01
542.97	26841.26
543.14	27271.92
543.31	27517.68
543.48	27040.21
543.64	27323.41
543.81	27431.08
543.98	27461.51
544.15	27136.17
544.32	27491.93
544.48	27630.02
544.65	27339.80
544.82	27379.59
544.99	26813.18
545.16	27571.51
545.32	27215.75
545.49	27531.72
545.66	27290.65
545.83	27393.63
546.00	27709.60
546.16	27594.92
546.33	27201.71
546.50	27311.71
546.67	27690.88
546.83	27391.29
547.00	27562.15
547.17	27637.05
547.34	27725.99
547.50	27615.98
547.67	27957.70
547.84	27559.81
548.00	27821.95
548.17	27906.21
548.34	27997.49
548.51	28060.68
548.67	27943.66
548.84	28173.03
549.01	27976.42
549.18	27611.30
549.34	28013.87
549.51	28032.60
549.68	27784.50
549.84	28126.22
550.01	28084.09
550.18	28060.68
550.34	28294.74
550.51	28215.16
550.68	28306.44
550.84	28287.71
551.01	28528.79
551.18	28020.89
551.34	27948.34
551.51	28123.88
551.68	28439.85
551.84	28613.05
552.01	28636.45
552.18	28484.32
552.34	28566.24
552.51	28568.58
552.68	28900.94
552.84	28346.23
553.01	28645.82
553.18	28442.19
553.34	28634.11
553.51	28486.66
553.67	28863.49
553.84	28886.89
554.01	28753.48
554.17	28697.31
554.34	28896.25
554.51	28460.91
554.67	28699.65
554.84	28617.73
555.00	28666.88
555.17	29015.62
555.33	29003.92
555.50	28652.84
555.67	29315.21
555.83	29081.16
556.00	28861.15
556.16	29514.16
556.33	29209.89
556.50	29254.36
556.66	29256.70
556.83	29261.38
556.99	29701.40
557.16	29504.79
557.32	29212.23
557.49	29209.89
557.65	29399.47
557.82	29186.48
557.98	29261.38
558.15	29446.28
558.32	29640.54
558.48	29144.35
558.65	29462.66
558.81	29687.36
558.98	29553.94
559.14	29172.44
559.31	29326.91
559.47	29493.09
559.64	29567.99
559.80	29708.42
559.97	29703.74
560.13	29214.57
560.30	29640.54
560.46	29809.06
560.63	29567.99
560.79	29287.12
560.96	29757.57
561.12	29624.16
561.29	29890.98
561.45	29748.21
561.61	29823.11
561.78	29596.07
561.94	29542.24
562.11	29972.90
562.27	30108.65
562.44	29958.86
562.60	29448.62
562.77	29635.86
562.93	29745.87
563.10	30033.75
563.26	29659.27
563.42	29675.65
563.59	29986.94
563.75	29991.62
563.92	29689.70
564.08	29537.56
564.24	30185.89
564.41	29956.52
564.57	29795.02
564.74	29912.05
564.90	30228.02
565.07	30178.87
565.23	30326.32
565.39	30260.79
565.56	30089.93
565.72	29626.50
565.88	29729.48
566.05	30099.29
566.21	30040.78
566.38	29666.29
566.54	30169.51
566.70	30373.13
566.87	30415.26
567.03	30024.39
567.19	30621.23
567.36	30295.89
567.52	30455.05
567.68	30309.94
567.85	30047.80
568.01	30682.08
568.17	30202.27
568.34	30321.64
568.50	30384.83
568.66	30398.88
568.83	30258.45
568.99	30335.68
569.15	30459.73
569.32	29993.97
569.48	29963.54
569.64	30008.01
569.81	30115.67
569.97	30457.39
570.13	30153.12
570.30	30174.19
570.46	30515.90
570.62	30153.12
570.78	30450.37
570.95	30291.21
571.11	30520.59
571.27	30078.22
571.43	29867.58
571.60	30396.54
571.76	30551.01
571.92	29785.66
572.09	30637.61
572.25	30335.68
572.41	30576.76
572.57	30433.99
572.74	30494.84
572.90	30508.88
573.06	30331.00
573.22	30466.75
573.38	30345.05
573.55	30569.74
573.71	30682.08
573.87	30733.57
574.03	30340.36
574.20	30464.41
574.36	30658.68
574.52	31061.25
574.68	30663.36
574.84	30724.21
575.01	30527.61
575.17	30632.93
575.33	30522.93
575.49	30590.80
575.65	30623.57
575.82	30782.73
575.98	30820.17
576.14	30768.68
576.30	30515.90
576.46	30286.53
576.62	31058.91
576.79	30611.87
576.95	30239.72
577.11	30569.74
577.27	30579.10
577.43	30204.61
577.59	30448.03
577.75	31016.78
577.92	30347.39
578.08	30394.20
578.24	30312.28
578.40	30536.97
578.56	30693.79
578.72	31063.59
578.88	31105.72
579.04	30579.10
579.21	30756.98
579.37	30518.25
579.53	31056.57
579.69	30717.19
579.85	30412.92
580.01	30628.25
580.17	30749.96
580.33	30937.20
580.49	30576.76
580.65	30866.98
580.82	30733.57
580.98	31276.58
581.14	30604.84
581.30	30735.92
581.46	30522.93
581.62	30824.86
581.78	30953.58
581.94	31026.14
582.10	30642.29
582.26	30616.55
582.42	30778.04
582.58	30719.53
582.74	30878.69
582.90	30637.61
583.06	30869.33
583.22	30773.36
583.38	30724.21
583.54	31180.62
583.70	30604.84
583.86	30969.97
584.02	30866.98
584.18	31028.48
584.34	31197.00
584.50	31054.23
584.66	31007.42
584.82	30857.62
584.98	30532.29
585.14	30969.97
585.30	30824.86
585.46	31126.78
585.62	30675.06
585.78	30565.06
585.94	30670.38
586.10	31035.50
586.26	31122.10
586.42	31229.77
586.58	30993.37
586.74	30876.35
586.90	30756.98
587.06	30731.23
587.22	30696.13
587.38	30607.19
587.54	30836.56
587.70	31278.92
587.86	31239.13
588.02	31222.75
588.18	31138.49
588.34	30895.07
588.49	31400.63
588.65	31194.66
588.81	30635.27
588.97	30719.53
589.13	31175.94
589.29	31311.69
589.45	31042.53
589.61	31150.19
589.77	31119.76
589.93	30946.56
590.08	30866.98
590.24	31391.26
590.40	31267.22
590.56	31442.76
590.72	31159.55
590.88	31028.48
591.04	30962.95
591.20	31068.27
591.35	31323.39
591.51	31548.08
591.67	31391.26
591.83	31325.73
