SpectraSuite Data File
++++++++++++++++++++++++++++++++++++
Date: Fri Oct 18 13:58:19 GMT-05:00 2013
User: bianchi
Dark Spectrum Present: No
Reference Spectrum Present: No
Number of Sampled Component Spectra: 1
Spectrometers: USB2+H05261
Integration Time (usec): 50000 (USB2+H05261)
Spectra Averaged: 1 (USB2+H05261)
Boxcar Smoothing: 0 (USB2+H05261)
Correct for Electrical Dark: No (USB2+H05261)
Strobe/Lamp Enabled: No (USB2+H05261)
Correct for Detector Non-linearity: No (USB2+H05261)
Correct for Stray Light: No (USB2+H05261)
Number of Pixels in Processed Spectrum: 2048
>>>>>Begin Processed Spectral Data<<<<<
365.73	0.00
365.92	0.00
366.12	0.00
366.32	0.00
366.52	0.00
366.72	0.00
366.91	0.00
367.11	0.00
367.31	0.00
367.51	0.00
367.70	0.00
367.90	0.00
368.10	0.00
368.30	0.00
368.49	0.00
368.69	0.00
368.89	0.00
369.09	0.00
369.28	0.00
369.48	0.00
369.68	0.00
369.87	0.00
370.07	0.00
370.27	0.00
370.47	0.00
370.66	77.24
370.86	126.39
371.06	133.41
371.25	124.05
371.45	74.90
371.65	102.98
371.84	173.20
372.04	180.22
372.24	222.35
372.44	147.45
372.63	152.13
372.83	198.95
373.03	217.67
373.22	212.99
373.42	215.33
373.62	196.60
373.81	227.03
374.01	250.44
374.21	201.29
374.40	215.33
374.60	259.80
374.79	161.50
374.99	330.02
375.19	304.27
375.38	330.02
375.58	220.01
375.78	264.48
375.97	334.70
376.17	269.16
376.37	229.37
376.56	264.48
376.76	245.76
376.95	243.42
377.15	311.29
377.35	306.61
377.54	320.65
377.74	280.86
377.93	234.05
378.13	210.65
378.33	313.63
378.52	243.42
378.72	301.93
378.91	276.18
379.11	308.95
379.31	304.27
379.50	229.37
379.70	351.08
379.89	365.12
380.09	290.23
380.28	259.80
380.48	287.89
380.68	299.59
380.87	330.02
381.07	264.48
381.26	269.16
381.46	271.50
381.65	266.82
381.85	353.42
382.04	315.97
382.24	365.12
382.43	339.38
382.63	311.29
382.83	425.98
383.02	341.72
383.22	269.16
383.41	376.83
383.61	381.51
383.80	397.89
384.00	355.76
384.19	376.83
384.39	433.00
384.58	489.17
384.78	381.51
384.97	383.85
385.17	444.70
385.36	449.38
385.56	437.68
385.75	327.68
385.95	423.64
386.14	379.17
386.34	285.55
386.53	362.78
386.72	458.74
386.92	358.10
387.11	442.36
387.31	423.64
387.50	402.57
387.70	456.40
387.89	463.43
388.09	423.64
388.28	472.79
388.48	468.11
388.67	444.70
388.86	416.62
389.06	425.98
389.25	440.02
389.45	461.09
389.64	425.98
389.84	521.94
390.03	447.04
390.22	400.23
390.42	486.83
390.61	510.24
390.81	498.53
391.00	533.64
391.19	526.62
391.39	578.11
391.58	531.30
391.78	526.62
391.97	535.98
392.16	517.26
392.36	538.32
392.55	578.11
392.75	557.05
392.94	535.98
393.13	545.34
393.33	510.24
393.52	545.34
393.71	627.26
393.91	653.01
394.10	510.24
394.29	526.62
394.49	554.71
394.68	582.79
394.88	575.77
395.07	585.13
395.26	596.84
395.46	601.52
395.65	667.05
395.84	638.97
396.04	653.01
396.23	638.97
396.42	610.88
396.62	709.18
396.81	690.46
397.00	692.80
397.19	657.69
397.39	615.56
397.58	671.73
397.77	692.80
397.97	629.60
398.16	685.78
398.35	781.74
398.55	662.37
398.74	678.76
398.93	641.31
399.12	662.37
399.32	744.29
399.51	748.97
399.70	718.54
399.90	702.16
400.09	765.36
400.28	774.72
400.47	716.20
400.67	788.76
400.86	809.83
401.05	826.21
401.24	835.57
401.44	816.85
401.63	816.85
401.82	833.23
402.01	856.64
402.21	851.96
402.40	835.57
402.59	861.32
402.78	861.32
402.97	791.10
403.17	856.64
403.36	800.46
403.55	894.08
403.74	828.55
403.93	898.77
404.13	896.43
404.32	880.04
404.51	812.17
404.70	912.81
404.89	863.66
405.09	961.96
405.28	1020.47
405.47	854.30
405.66	898.77
405.85	908.13
406.05	992.39
406.24	985.37
406.43	987.71
406.62	957.28
406.81	1055.58
407.00	1006.43
407.20	957.28
407.39	999.41
407.58	1041.54
407.77	983.02
407.96	1071.97
408.15	959.62
408.34	1107.07
408.54	1102.39
408.73	1067.28
408.92	1198.35
409.11	1053.24
409.30	1121.12
409.49	1109.41
409.68	1221.76
409.87	1174.95
410.07	1093.03
410.26	1170.27
410.45	1235.80
410.64	1172.61
410.83	1135.16
411.02	1207.72
411.21	1268.57
411.40	1226.44
411.59	1245.16
411.78	1254.53
411.98	1191.33
412.17	1263.89
412.36	1245.16
412.55	1313.04
412.74	1383.26
412.93	1242.82
413.12	1287.29
413.31	1336.45
413.50	1249.85
413.69	1460.49
413.88	1500.28
414.07	1448.79
414.26	1352.83
414.45	1504.96
414.64	1390.28
414.83	1439.43
415.02	1516.67
415.22	1502.62
415.41	1600.93
415.60	1572.84
415.79	1544.75
415.98	1474.54
416.17	1551.78
416.36	1579.86
416.55	1504.96
416.74	1572.84
416.93	1591.56
417.12	1708.59
417.31	1579.86
417.50	1600.93
417.69	1757.74
417.88	1795.19
418.07	1671.14
418.26	1715.61
418.45	1732.00
418.64	1872.43
418.83	1722.63
419.02	1820.94
419.21	1769.44
419.39	1722.63
419.58	1806.89
419.77	1783.49
419.96	1844.34
420.15	1891.15
420.34	1802.21
420.53	1942.64
420.72	1877.11
420.91	1935.62
421.10	1940.30
421.29	2054.99
421.48	1806.89
421.67	1973.07
421.86	2003.50
422.05	1849.02
422.24	2017.54
422.43	2043.29
422.61	2019.88
422.80	1975.41
422.99	2003.50
423.18	2008.18
423.37	2071.37
423.56	2036.27
423.75	1977.75
423.94	1980.09
424.13	1858.39
424.32	1858.39
424.50	2012.86
424.69	2132.23
424.88	1973.07
425.07	2059.67
425.26	1935.62
425.45	1980.09
425.64	1984.77
425.83	1991.80
426.01	2033.93
426.20	2038.61
426.39	2052.65
426.58	2031.58
426.77	2019.88
426.96	2230.53
427.15	2038.61
427.33	2155.63
427.52	2167.34
427.71	2052.65
427.90	2228.19
428.09	2097.12
428.28	2162.66
428.46	2172.02
428.65	2342.88
428.84	2188.40
429.03	2293.72
429.22	2230.53
429.40	2256.28
429.59	2260.96
429.78	2001.16
429.97	2129.89
430.16	2195.42
430.34	2176.70
430.53	2244.57
430.72	2270.32
430.91	2232.87
431.10	2284.36
431.28	2267.98
431.47	2394.37
431.66	2354.58
431.85	2340.54
432.03	2436.50
432.22	2574.59
432.41	2427.14
432.60	2464.58
432.79	2478.63
432.97	2513.74
433.16	2480.97
433.35	2450.54
433.54	2511.39
433.72	2490.33
433.91	2385.01
434.10	2471.61
434.28	2485.65
434.47	2527.78
434.66	2583.95
434.85	2560.55
435.03	2621.40
435.22	2560.55
435.41	2462.24
435.59	2651.83
435.78	2621.40
435.97	2621.40
436.16	2576.93
436.34	2616.72
436.53	2600.34
436.72	2897.58
436.90	2633.10
437.09	2700.98
437.28	2715.02
437.46	2633.10
437.65	2654.17
437.84	2825.03
438.02	2757.15
438.21	2843.75
438.40	2712.68
438.58	2890.56
438.77	2911.63
438.96	2857.79
439.14	3040.36
439.33	3016.95
439.52	2913.97
439.70	2885.88
439.89	2899.92
440.08	2979.50
440.26	3030.99
440.45	3105.89
440.63	3094.19
440.82	3159.72
441.01	3126.96
441.19	3185.47
441.38	3204.19
441.57	3103.55
441.75	3166.74
441.94	3370.37
442.12	3265.05
442.31	3307.18
442.50	3452.29
442.68	3225.26
442.87	3337.60
443.05	3323.56
443.24	3328.24
443.43	3473.36
443.61	3396.12
443.80	3552.93
443.98	3321.22
444.17	3255.69
444.35	3356.33
444.54	3435.91
444.73	3447.61
444.91	3421.86
445.10	3328.24
445.28	3393.78
445.47	3393.78
445.65	3538.89
445.84	3473.36
446.02	3485.06
446.21	3475.70
446.39	3412.50
446.58	3534.21
446.77	3557.61
446.95	3412.50
447.14	3541.23
447.32	3515.48
447.51	3562.30
447.69	3424.20
447.88	3559.95
448.06	3599.74
448.25	3454.63
448.43	3616.13
448.62	3447.61
448.80	3613.79
448.99	3536.55
449.17	3632.51
449.36	3538.89
449.54	3674.64
449.73	3578.68
449.91	3597.40
450.10	3721.45
450.28	3815.07
450.46	3721.45
450.65	3756.56
450.83	3700.39
451.02	3810.39
451.20	3695.71
451.39	3737.84
451.57	3726.13
451.76	3801.03
451.94	3651.24
452.13	3913.38
452.31	3861.88
452.49	3744.86
452.68	3873.59
452.86	3957.85
453.05	3798.69
453.23	3927.42
453.42	3882.95
453.60	3852.52
453.78	3941.46
453.97	3892.31
454.15	3868.91
454.34	3932.10
454.52	4070.19
454.70	3934.44
454.89	4166.15
455.07	4098.28
455.26	3969.55
455.44	4161.47
455.62	4152.11
455.81	4023.38
455.99	4079.55
456.17	4205.94
456.36	4142.75
456.54	4058.49
456.73	4180.20
456.91	4400.21
457.09	4269.14
457.28	4463.40
457.46	4147.43
457.64	4344.03
457.83	4290.20
458.01	4311.27
458.19	4374.46
458.38	4280.84
458.56	4421.27
458.74	4496.17
458.93	4376.80
459.11	4477.44
459.29	4407.23
459.48	4526.60
459.66	4573.41
459.84	4531.28
460.03	4610.86
460.21	4486.81
460.39	4606.17
460.57	4578.09
460.76	4507.87
460.94	4617.88
461.12	4564.04
461.31	4538.30
461.49	4613.20
461.67	4718.52
461.85	4652.98
462.04	4734.90
462.22	5004.07
462.40	4624.90
462.59	4624.90
462.77	4650.64
462.95	4791.08
463.13	4690.43
463.32	4826.18
463.50	4746.61
463.68	4903.42
463.86	4854.27
464.05	4643.62
464.23	4798.10
464.41	4861.29
464.59	4718.52
464.78	4987.68
464.96	4873.00
465.14	4847.25
465.32	4940.87
465.50	5095.35
465.69	5046.20
465.87	5078.96
466.05	4966.62
466.23	5036.83
466.41	5050.88
466.60	5109.39
466.78	5219.39
466.96	5004.07
467.14	4919.81
467.32	5118.75
467.51	5142.16
467.69	5057.90
467.87	5151.52
468.05	4978.32
468.23	5256.84
468.41	5128.11
468.60	5111.73
468.78	5259.18
468.96	5116.41
469.14	5252.16
469.32	5207.69
469.50	5062.58
469.69	5434.72
469.87	5376.21
470.05	5441.75
470.23	5357.49
470.41	5437.06
470.59	5401.96
470.77	5448.77
470.95	5554.09
471.14	5645.37
471.32	5476.85
471.50	5643.03
471.68	5699.20
471.86	5497.92
472.04	5544.73
472.22	5781.12
472.40	5673.46
472.58	5680.48
472.77	5769.42
472.95	5884.11
473.13	5980.07
473.31	5865.38
473.49	5776.44
473.67	5902.83
473.85	5881.77
474.03	5895.81
474.21	6054.97
474.39	6183.70
474.57	6169.65
474.75	6136.88
474.93	6066.67
475.12	6113.48
475.30	6129.86
475.48	6146.25
475.66	6270.30
475.84	6230.51
476.02	6310.08
476.20	6118.16
476.38	6429.45
476.56	6590.95
476.74	6544.14
476.92	6490.31
477.10	6553.50
477.28	6665.85
477.46	6546.48
477.64	6696.27
477.82	6808.62
478.00	6972.46
478.18	6920.96
478.36	6787.55
478.54	6995.86
478.72	6956.07
478.90	7176.08
479.08	7307.15
479.26	7265.02
479.44	7159.70
479.62	7428.86
479.80	7449.93
479.98	7527.16
480.16	7475.67
480.34	7480.35
480.52	7386.73
480.70	7751.85
480.88	7520.14
481.06	7815.05
481.24	7726.11
481.41	7885.26
481.59	8074.85
481.77	8088.89
481.95	7983.57
482.13	7906.33
482.31	7976.55
482.49	8131.02
482.67	8116.98
482.85	8332.31
483.03	8552.32
483.21	8372.10
483.39	8594.45
483.57	8627.21
483.74	8599.13
483.92	8807.44
484.10	8564.02
484.28	8823.82
484.46	8940.85
484.64	9153.84
484.82	9027.45
485.00	9036.81
485.18	9275.54
485.35	9305.97
485.53	9401.93
485.71	9570.45
485.89	9750.67
486.07	9558.75
486.25	9659.39
486.43	9537.68
486.61	9689.82
486.78	9973.02
486.96	9973.02
487.14	10101.75
487.32	10017.49
487.50	10120.48
487.68	10279.63
487.85	10380.28
488.03	10478.58
488.21	10661.14
488.39	10611.99
488.57	10394.32
488.75	10782.85
488.92	10782.85
489.10	11007.54
489.28	10729.02
489.46	11101.16
489.64	11133.93
489.81	11147.97
489.99	11243.93
490.17	11421.81
490.35	11332.87
490.53	11552.88
490.70	11667.57
490.88	11466.28
491.06	11843.11
491.24	11620.76
491.41	11934.39
491.59	12121.63
491.77	11948.43
491.95	12065.46
492.13	12313.56
492.30	12444.63
492.48	12386.12
492.66	12531.23
492.84	12243.34
493.01	12404.84
493.19	12505.48
493.37	12727.83
493.54	12723.15
493.72	12940.82
493.90	12767.62
494.08	13099.98
494.25	12926.78
494.43	12940.82
494.61	13212.32
494.79	13177.22
494.96	13121.04
495.14	13224.03
495.32	13523.62
495.49	13507.23
495.67	13383.18
495.85	13631.28
496.02	13823.20
496.20	14090.02
496.38	14026.83
496.55	14040.87
496.73	14038.53
496.91	14085.34
497.09	14003.43
497.26	14200.03
497.44	14038.53
497.62	14389.61
497.79	14586.22
497.97	14171.94
498.14	14736.01
498.32	14604.94
498.50	14829.63
498.67	14911.55
498.85	14801.55
499.03	15194.76
499.20	14944.32
499.38	14934.96
499.56	14930.28
499.73	15171.35
499.91	15293.06
500.08	15611.37
500.26	15159.65
500.44	15723.72
500.61	15440.51
500.79	15456.90
500.97	15669.89
501.14	15786.91
501.32	15763.51
501.49	15719.04
501.67	16063.10
501.84	15922.66
502.02	15955.43
502.20	15992.88
502.37	16145.02
502.55	16175.44
502.72	16081.82
502.90	16245.66
503.07	15917.98
503.25	16084.16
503.43	16388.43
503.60	16524.18
503.78	16482.05
503.95	16542.91
504.13	16383.75
504.30	16690.36
504.48	16514.82
504.65	16945.48
504.83	17008.67
505.01	16950.16
505.18	16826.11
505.36	17181.87
505.53	16961.86
505.71	16931.44
505.88	17373.80
506.06	17020.38
506.23	17399.54
506.41	17315.28
506.58	17191.23
506.76	17408.90
506.93	17256.77
507.11	17649.98
507.28	17336.35
507.46	17439.33
507.63	17507.21
507.81	17647.64
507.98	17577.42
508.16	17617.21
508.33	17429.97
508.50	17820.84
508.68	17853.61
508.85	18001.06
509.03	17912.12
509.20	18368.52
509.38	18190.64
509.55	18183.62
509.73	18249.16
509.90	18450.44
510.08	18099.36
510.25	18429.38
510.42	18747.69
510.60	18532.36
510.77	18478.53
510.95	18869.40
511.12	18586.19
511.30	18380.23
511.47	18731.31
511.64	18981.74
511.82	19075.37
511.99	18881.10
512.17	19012.17
512.34	18878.76
512.51	18913.87
512.69	19073.03
512.86	19089.41
513.04	19438.15
513.21	19328.14
513.38	19241.54
513.56	19613.69
513.73	19426.45
513.90	19180.69
514.08	19634.75
514.25	19693.27
514.43	19480.28
514.60	19974.13
514.77	19590.28
514.95	19880.51
515.12	19627.73
515.29	19707.31
515.47	19995.20
515.64	20081.80
515.81	19779.87
515.99	20477.35
516.16	20531.18
516.33	20212.87
516.51	20407.13
516.68	20205.84
516.85	19985.83
517.03	20388.41
517.20	20404.79
517.37	20386.07
517.54	20486.71
517.72	20533.52
517.89	20891.62
518.06	20386.07
518.24	20713.74
518.41	20470.33
518.58	20493.73
518.75	20767.57
518.93	21074.18
519.10	20744.17
519.27	20823.75
519.45	20790.98
519.62	21165.46
519.79	20898.64
519.96	20936.09
520.14	21411.22
520.31	21151.42
520.48	21301.22
520.65	21289.51
520.83	21202.91
521.00	21135.04
521.17	21516.54
521.34	21331.64
521.52	21418.24
521.69	21542.29
521.86	21701.45
522.03	21736.56
522.20	21715.49
522.38	21640.59
522.55	21757.62
522.72	21762.30
522.89	21696.77
523.07	22012.74
523.24	22251.47
523.41	22307.65
523.58	22099.34
523.75	22178.92
523.92	21998.70
524.10	21984.65
524.27	22434.03
524.44	22265.52
524.61	22317.01
524.78	22487.87
524.96	22717.24
525.13	22530.00
525.30	22389.56
525.47	22387.22
525.64	22707.88
525.81	22305.31
525.98	22778.09
526.16	22794.48
526.33	22785.12
526.50	22817.88
526.67	22590.85
526.84	22918.53
527.01	22670.43
527.18	22546.38
527.36	23091.73
527.53	23037.89
527.70	23175.98
527.87	23152.58
528.04	23124.49
528.21	22998.10
528.38	23412.38
528.55	23634.73
528.72	23307.05
528.89	23506.00
529.07	23108.11
529.24	23206.41
529.41	23222.80
529.58	23592.60
529.75	23529.41
529.92	23571.54
530.09	23393.65
530.26	23393.65
530.43	23681.54
530.60	23695.58
530.77	23637.07
530.94	23906.23
531.11	23704.95
531.28	23630.05
531.46	23655.79
531.63	23814.95
531.80	23969.43
531.97	24411.79
532.14	23983.47
532.31	24016.24
532.48	23885.17
532.65	24161.35
532.82	23868.78
532.99	24290.08
533.16	24039.64
533.33	24247.95
533.50	24346.25
533.67	24273.70
533.84	24386.04
534.01	24065.39
534.18	24156.67
534.35	24751.17
534.52	24514.77
534.69	24973.52
534.86	24774.57
535.03	24517.11
535.20	24666.91
535.37	24739.46
535.54	24482.00
535.71	24343.91
535.88	24809.68
536.05	24830.74
536.22	24819.04
536.38	24959.47
536.55	25252.04
536.72	24996.92
536.89	25064.80
537.06	25067.14
537.23	25006.28
537.40	24854.15
537.57	25088.20
537.74	24971.18
537.91	25167.78
538.08	25453.33
538.25	24716.06
538.42	25226.29
538.59	25362.04
538.75	25247.36
538.92	25429.92
539.09	25362.04
539.26	25493.12
539.43	25390.13
539.60	25546.95
539.77	25207.57
539.94	25530.56
540.11	25493.12
540.28	25432.26
540.44	25729.51
540.61	25223.95
540.78	25415.88
540.95	25310.55
541.12	25771.64
541.29	26087.61
541.46	25516.52
541.62	25343.32
541.79	25242.68
541.96	25153.74
542.13	25628.87
542.30	25862.92
542.47	25954.20
542.63	25914.41
542.80	25942.50
542.97	26363.79
543.14	26419.97
543.31	26286.56
543.48	26082.93
543.64	26614.23
543.81	26740.62
543.98	26548.70
544.15	26401.24
544.32	26782.75
544.48	26628.27
544.65	26352.09
544.82	26464.44
544.99	26174.21
545.16	26342.73
545.32	26349.75
545.49	26665.72
545.66	26630.62
545.83	26962.97
546.00	26686.79
546.16	26932.54
546.33	26441.03
546.50	26441.03
546.67	26733.60
546.83	26698.49
547.00	26602.53
547.17	26874.03
547.34	26637.64
547.50	27211.07
547.67	27058.93
547.84	27136.17
548.00	26958.29
548.17	27103.40
548.34	27157.24
548.51	27407.67
548.67	27449.80
548.84	27508.32
549.01	27426.40
549.18	27016.80
549.34	27157.24
549.51	27374.91
549.68	27248.52
549.84	27414.69
550.01	27417.04
550.18	27496.61
550.34	27573.85
550.51	27566.83
550.68	27402.99
550.84	27285.97
551.01	27438.10
551.18	27269.58
551.34	27267.24
551.51	27309.37
551.68	27784.50
551.84	27665.13
552.01	27314.05
552.18	27711.94
552.34	27623.00
552.51	28177.71
552.68	27747.05
552.84	27601.94
553.01	27608.96
553.18	27793.86
553.34	28072.39
553.51	27835.99
553.67	27864.08
553.84	27962.38
554.01	27864.08
554.17	27889.82
554.34	27934.29
554.51	27747.05
554.67	27964.72
554.84	28161.33
555.00	28037.28
555.17	27658.11
555.33	28222.18
555.50	28063.02
555.67	28285.37
555.83	27826.63
556.00	28283.03
556.16	28725.39
556.33	28311.12
556.50	28177.71
556.66	28470.28
556.83	28364.95
556.99	28584.96
557.16	28807.31
557.32	28430.49
557.49	28446.87
557.65	28194.09
557.82	28240.90
557.98	28460.91
558.15	28290.06
558.32	28540.49
558.48	28542.83
558.65	28727.74
558.81	28549.85
558.98	28535.81
559.14	28439.85
559.31	28535.81
559.47	28346.23
559.64	28863.49
559.80	28910.30
559.97	28814.34
560.13	28540.49
560.30	28819.02
560.46	28727.74
560.63	28835.40
560.79	29022.64
560.96	28968.81
561.12	28861.15
561.29	28694.97
561.45	28545.17
561.61	28709.01
561.78	28694.97
561.94	28826.04
562.11	29081.16
562.27	28945.41
562.44	28917.32
562.60	28570.92
562.77	28868.17
562.93	28868.17
563.10	29064.77
563.26	29010.94
563.42	29589.05
563.59	29081.16
563.75	28992.22
563.92	28940.72
564.08	28912.64
564.24	28786.25
564.41	28858.81
564.57	28840.08
564.74	29010.94
564.90	29483.73
565.07	29237.97
565.23	29415.85
565.39	28886.89
565.56	29132.65
565.72	29160.73
565.88	28943.06
566.05	29003.92
566.21	29347.98
566.38	29212.23
566.54	29366.70
566.70	29685.01
566.87	29905.02
567.03	29123.29
567.19	29902.68
567.36	29083.50
567.52	29418.19
567.68	29593.73
567.85	29427.56
568.01	29200.52
568.17	29209.89
568.34	29596.07
568.50	29359.68
568.66	29252.02
568.83	29589.05
568.99	29743.53
569.15	29553.94
569.32	29137.33
569.48	29062.43
569.64	29448.62
569.81	29439.26
569.97	29270.74
570.13	29682.67
570.30	29472.03
570.46	29624.16
570.62	29055.41
570.78	29289.46
570.95	29017.96
571.11	29418.19
571.27	29591.39
571.43	29291.80
571.60	29715.44
571.76	29385.43
571.92	29455.64
572.09	29766.93
572.25	29682.67
572.41	29497.77
572.57	29235.63
572.74	29647.57
572.90	29565.65
573.06	29621.82
573.22	29766.93
573.38	29509.47
573.55	29802.04
573.71	29483.73
573.87	29591.39
574.03	29685.01
574.20	29825.45
574.36	29729.48
574.52	29460.32
574.68	29872.26
574.84	29687.36
575.01	29890.98
575.17	29528.20
575.33	29755.23
575.49	29530.54
575.65	29935.45
575.82	29610.12
575.98	29551.60
576.14	29472.03
576.30	29699.06
576.46	29244.99
576.62	29736.51
576.79	29745.87
576.95	29752.89
577.11	29827.79
577.27	29642.88
577.43	29872.26
577.59	29614.80
577.75	29752.89
577.92	29593.73
578.08	29364.36
578.24	29656.93
578.40	29582.03
578.56	29685.01
578.72	29668.63
578.88	29928.43
579.04	29708.42
579.21	29869.92
579.37	29600.76
579.53	29869.92
579.69	29811.40
579.85	29886.30
580.01	29493.09
580.17	29563.31
580.33	29986.94
580.49	29839.49
580.65	30171.85
580.82	29549.26
580.98	29558.63
581.14	29935.45
581.30	29867.58
581.46	29642.88
581.62	29516.50
581.78	29546.92
581.94	29694.38
582.10	29584.37
582.26	29638.20
582.42	29802.04
582.58	29935.45
582.74	30043.12
582.90	29607.78
583.06	30113.33
583.22	29511.81
583.38	29986.94
583.54	30068.86
583.70	30071.20
583.86	29886.30
584.02	29977.58
584.18	30218.66
584.34	30293.55
584.50	30005.67
584.66	29942.47
584.82	29905.02
584.98	29937.79
585.14	30047.80
585.30	29694.38
585.46	30075.88
585.62	29598.41
585.78	30017.37
585.94	29685.01
586.10	29874.60
586.26	30396.54
586.42	30094.61
586.58	29905.02
586.74	29961.20
586.90	29624.16
587.06	29689.70
587.22	30094.61
587.38	29818.42
587.54	30108.65
587.70	30258.45
587.86	30043.12
588.02	30181.21
588.18	30202.27
588.34	29991.62
588.49	29898.00
588.65	29956.52
588.81	30078.22
588.97	30106.31
589.13	29689.70
589.29	29837.15
589.45	30118.01
589.61	30040.78
589.77	29991.62
589.93	30253.76
590.08	30181.21
590.24	30441.01
590.40	30335.68
590.56	30237.38
590.72	29965.88
590.88	30103.97
591.04	29869.92
591.20	30546.33
591.35	30141.42
591.51	30845.92
591.67	30188.23
591.83	30178.87
591.99	30272.49
