SpectraSuite Data File
++++++++++++++++++++++++++++++++++++
Date: Fri Oct 18 13:58:24 GMT-05:00 2013
User: bianchi
Dark Spectrum Present: No
Reference Spectrum Present: No
Number of Sampled Component Spectra: 1
Spectrometers: USB2+H05261
Integration Time (usec): 50000 (USB2+H05261)
Spectra Averaged: 1 (USB2+H05261)
Boxcar Smoothing: 0 (USB2+H05261)
Correct for Electrical Dark: No (USB2+H05261)
Strobe/Lamp Enabled: No (USB2+H05261)
Correct for Detector Non-linearity: No (USB2+H05261)
Correct for Stray Light: No (USB2+H05261)
Number of Pixels in Processed Spectrum: 2048
>>>>>Begin Processed Spectral Data<<<<<
365.73	0.00
365.92	0.00
366.12	0.00
366.32	0.00
366.52	0.00
366.72	0.00
366.91	0.00
367.11	0.00
367.31	0.00
367.51	0.00
367.70	0.00
367.90	0.00
368.10	0.00
368.30	0.00
368.49	0.00
368.69	0.00
368.89	0.00
369.09	0.00
369.28	0.00
369.48	0.00
369.68	0.00
369.87	0.00
370.07	0.00
370.27	0.00
370.47	0.00
370.66	67.88
370.86	147.45
371.06	187.24
371.25	133.41
371.45	194.26
371.65	161.50
371.84	98.30
372.04	133.41
372.24	182.56
372.44	138.09
372.63	175.54
372.83	250.44
373.03	184.90
373.22	182.56
373.42	198.95
373.62	243.42
373.81	229.37
374.01	201.29
374.21	205.97
374.40	285.55
374.60	262.14
374.79	294.91
374.99	245.76
375.19	248.10
375.38	210.65
375.58	220.01
375.78	280.86
375.97	231.71
376.17	306.61
376.37	320.65
376.56	259.80
376.76	212.99
376.95	161.50
377.15	248.10
377.35	243.42
377.54	243.42
377.74	224.69
377.93	264.48
378.13	308.95
378.33	231.71
378.52	250.44
378.72	259.80
378.91	278.52
379.11	271.50
379.31	280.86
379.50	287.89
379.70	327.68
379.89	367.46
380.09	327.68
380.28	348.74
380.48	285.55
380.68	308.95
380.87	325.33
381.07	344.06
381.26	308.95
381.46	290.23
381.65	381.51
381.85	294.91
382.04	376.83
382.24	348.74
382.43	369.80
382.63	379.17
382.83	325.33
383.02	386.19
383.22	334.70
383.41	297.25
383.61	358.10
383.80	313.63
384.00	397.89
384.19	428.32
384.39	390.87
384.58	430.66
384.78	327.68
384.97	367.46
385.17	379.17
385.36	379.17
385.56	388.53
385.75	327.68
385.95	332.36
386.14	337.04
386.34	358.10
386.53	425.98
386.72	514.92
386.92	428.32
387.11	372.15
387.31	344.06
387.50	400.23
387.70	416.62
387.89	416.62
388.09	545.34
388.28	404.91
388.48	353.42
388.67	425.98
388.86	442.36
389.06	489.17
389.25	440.02
389.45	505.56
389.64	477.47
389.84	510.24
390.03	526.62
390.22	390.87
390.42	470.45
390.61	475.13
390.81	444.70
391.00	524.28
391.19	489.17
391.39	592.16
391.58	587.47
391.78	514.92
391.97	540.66
392.16	463.43
392.36	491.51
392.55	580.45
392.75	470.45
392.94	615.56
393.13	512.58
393.33	667.05
393.52	479.81
393.71	561.73
393.91	653.01
394.10	587.47
394.29	564.07
394.49	641.31
394.68	615.56
394.88	580.45
395.07	585.13
395.26	638.97
395.46	622.58
395.65	650.67
395.84	578.11
396.04	704.50
396.23	629.60
396.42	613.22
396.62	592.16
396.81	688.12
397.00	664.71
397.19	669.39
397.39	695.14
397.58	645.99
397.77	716.20
397.97	660.03
398.16	739.61
398.35	667.05
398.55	685.78
398.74	758.33
398.93	669.39
399.12	674.07
399.32	667.05
399.51	699.82
399.70	800.46
399.90	760.67
400.09	842.59
400.28	837.91
400.47	840.25
400.67	732.59
400.86	725.57
401.05	798.12
401.24	751.31
401.44	758.33
401.63	784.08
401.82	861.32
402.01	863.66
402.21	713.86
402.40	767.70
402.59	875.36
402.78	889.40
402.97	795.78
403.17	936.21
403.36	877.70
403.55	835.57
403.74	905.79
403.93	943.24
404.13	868.34
404.32	936.21
404.51	943.24
404.70	938.55
404.89	894.08
405.09	894.08
405.28	990.05
405.47	945.58
405.66	917.49
405.85	1083.67
406.05	1022.81
406.24	992.39
406.43	1022.81
406.62	924.51
406.81	1027.50
407.00	933.87
407.20	1076.65
407.39	1029.84
407.58	1069.62
407.77	1125.80
407.96	1076.65
408.15	1135.16
408.34	1071.97
408.54	1055.58
408.73	1062.60
408.92	1111.75
409.11	1167.93
409.30	1146.86
409.49	1158.57
409.68	1205.38
409.87	1102.39
410.07	1212.40
410.26	1184.31
410.45	1280.27
410.64	1233.46
410.83	1254.53
411.02	1249.85
411.21	1172.61
411.40	1261.55
411.59	1355.17
411.78	1301.34
411.98	1289.64
412.17	1261.55
412.36	1196.01
412.55	1434.75
412.74	1296.66
412.93	1444.11
413.12	1404.32
413.31	1406.66
413.50	1451.13
413.69	1481.56
413.88	1488.58
414.07	1371.55
414.26	1416.02
414.45	1458.15
414.64	1439.43
414.83	1519.01
415.02	1441.77
415.22	1579.86
415.41	1596.25
415.60	1551.78
415.79	1458.15
415.98	1621.99
416.17	1701.57
416.36	1577.52
416.55	1708.59
416.74	1631.35
416.93	1671.14
417.12	1638.38
417.31	1710.93
417.50	1647.74
417.69	1682.85
417.88	1694.55
418.07	1741.36
418.26	1741.36
418.45	1771.79
418.64	1757.74
418.83	1748.38
419.02	1659.44
419.21	1900.52
419.39	1984.77
419.58	1785.83
419.77	1834.98
419.96	1832.64
420.15	1942.64
420.34	1792.85
420.53	1926.26
420.72	1823.28
420.91	1914.56
421.10	1947.33
421.29	1944.99
421.48	1886.47
421.67	1966.05
421.86	1994.14
422.05	2024.56
422.24	2003.50
422.43	2024.56
422.61	1987.11
422.80	2019.88
422.99	2017.54
423.18	1973.07
423.37	1912.22
423.56	2017.54
423.75	1998.82
423.94	1940.30
424.13	1891.15
424.32	1923.92
424.50	2078.40
424.69	2120.53
424.88	1998.82
425.07	1987.11
425.26	2015.20
425.45	2015.20
425.64	2101.80
425.83	1980.09
426.01	2080.74
426.20	2073.71
426.39	2040.95
426.58	2045.63
426.77	2008.18
426.96	2120.53
427.15	2204.78
427.33	2310.11
427.52	2232.87
427.71	2118.18
427.90	2267.98
428.09	2157.97
428.28	2097.12
428.46	2162.66
428.65	2157.97
428.84	2305.43
429.03	2277.34
429.22	2223.51
429.40	2326.49
429.59	2270.32
429.78	2218.83
429.97	2031.58
430.16	2141.59
430.34	2293.72
430.53	2335.85
430.72	2342.88
430.91	2244.57
431.10	2270.32
431.28	2429.48
431.47	2457.56
431.66	2485.65
431.85	2366.28
432.03	2483.31
432.22	2502.03
432.41	2445.86
432.60	2544.16
432.79	2469.27
432.97	2424.80
433.16	2434.16
433.35	2537.14
433.54	2413.09
433.72	2548.84
433.91	2485.65
434.10	2445.86
434.28	2497.35
434.47	2525.44
434.66	2633.10
434.85	2602.68
435.03	2693.96
435.22	2724.38
435.41	2658.85
435.59	2614.38
435.78	2647.15
435.97	2670.55
436.16	2555.86
436.34	2675.23
436.53	2644.81
436.72	2745.45
436.90	2672.89
437.09	2698.64
437.28	2663.53
437.46	2778.22
437.65	2796.94
437.84	2857.79
438.02	2780.56
438.21	2810.98
438.40	2658.85
438.58	2916.31
438.77	2801.62
438.96	2904.60
439.14	2949.08
439.33	2909.29
439.52	3038.02
439.70	3023.97
439.89	3159.72
440.08	3094.19
440.26	3155.04
440.45	3061.42
440.63	2988.86
440.82	3091.85
441.01	3115.25
441.19	3241.64
441.38	3243.98
441.57	3159.72
441.75	3119.93
441.94	3234.62
442.12	3267.39
442.31	3375.05
442.50	3302.50
442.68	3274.41
442.87	3316.54
443.05	3403.14
443.24	3468.67
443.43	3370.37
443.61	3368.03
443.80	3433.57
443.98	3363.35
444.17	3426.54
444.35	3503.78
444.54	3543.57
444.73	3398.46
444.91	3368.03
445.10	3424.20
445.28	3557.61
445.47	3485.06
445.65	3421.86
445.84	3606.77
446.02	3583.36
446.21	3431.23
446.39	3487.40
446.58	3562.30
446.77	3630.17
446.95	3417.18
447.14	3478.04
447.32	3485.06
447.51	3449.95
447.69	3506.12
447.88	3550.59
448.06	3503.78
448.25	3597.40
448.43	3574.00
448.62	3648.90
448.80	3440.59
448.99	3623.15
449.17	3557.61
449.36	3529.53
449.54	3712.09
449.73	3719.11
449.91	3660.60
450.10	3648.90
450.28	3810.39
450.46	3913.38
450.65	3765.92
450.83	3784.65
451.02	3798.69
451.20	3852.52
451.39	3742.52
451.57	3824.44
451.76	3812.73
451.94	3817.41
452.13	3955.51
452.31	3908.69
452.49	3864.22
452.68	3974.23
452.86	3857.20
453.05	3927.42
453.23	4145.09
453.42	3981.25
453.60	3875.93
453.78	3911.04
453.97	3864.22
454.15	4067.85
454.34	3885.29
454.52	4025.72
454.70	3967.21
454.89	4056.15
455.07	3946.14
455.26	4124.02
455.44	4095.94
455.62	4039.76
455.81	4063.17
455.99	4219.99
456.17	4234.03
456.36	4128.70
456.54	4262.12
456.73	4332.33
456.91	4374.46
457.09	4278.50
457.28	4468.08
457.46	4175.52
457.64	4325.31
457.83	4259.78
458.01	4451.70
458.19	4358.08
458.38	4418.93
458.56	4456.38
458.74	4346.37
458.93	4479.79
459.11	4514.89
459.29	4486.81
459.48	4596.81
459.66	4610.86
459.84	4524.26
460.03	4554.68
460.21	4505.53
460.39	4589.79
460.57	4596.81
460.76	4748.95
460.94	4606.17
461.12	4505.53
461.31	4711.50
461.49	4498.51
461.67	4601.49
461.85	4809.80
462.04	4578.09
462.22	4758.31
462.40	4730.22
462.59	4833.21
462.77	4798.10
462.95	4652.98
463.13	4840.23
463.32	4858.95
463.50	4875.34
463.68	4840.23
463.86	4863.63
464.05	4814.48
464.23	4840.23
464.41	4873.00
464.59	4718.52
464.78	5020.45
464.96	4957.25
465.14	4802.78
465.32	4992.36
465.50	5008.75
465.69	4952.57
465.87	5156.20
466.05	5128.11
466.23	5188.97
466.41	4952.57
466.60	5043.85
466.78	5050.88
466.96	5118.75
467.14	5032.15
467.32	5240.46
467.51	5217.05
467.69	5011.09
467.87	5167.90
468.05	5343.44
468.23	5179.61
468.41	5256.84
468.60	5245.14
468.78	5254.50
468.96	5282.59
469.14	5408.98
469.32	5320.04
469.50	5240.46
469.69	5507.28
469.87	5511.96
470.05	5458.13
470.23	5380.89
470.41	5467.49
470.59	5507.28
470.77	5364.51
470.95	5509.62
471.14	5479.19
471.32	5540.05
471.50	5699.20
471.68	5530.69
471.86	5685.16
472.04	5593.88
472.22	6022.20
472.40	5816.23
472.58	5652.39
472.77	5893.47
472.95	5844.32
473.13	6047.94
473.31	5774.10
473.49	5813.89
473.67	5841.98
473.85	5933.26
474.03	5956.66
474.21	6031.56
474.39	6005.81
474.57	6094.76
474.75	6157.95
474.93	6420.09
475.12	6249.23
475.30	6324.13
475.48	6326.47
475.66	6413.07
475.84	6352.21
476.02	6202.42
476.20	6401.37
476.38	6511.37
476.56	6494.99
476.74	6457.54
476.92	6478.60
477.10	6417.75
477.28	6693.93
477.46	6609.67
477.64	6750.10
477.82	6874.15
478.00	7080.12
478.18	7005.22
478.36	7066.08
478.54	6876.49
478.72	7061.40
478.90	7225.23
479.08	7265.02
479.26	7281.41
479.44	7281.41
479.62	7396.09
479.80	7435.88
479.98	7548.23
480.16	7396.09
480.34	7496.74
480.52	7459.29
480.70	7637.17
480.88	7712.07
481.06	7824.41
481.24	7978.89
481.41	7964.84
481.59	8004.63
481.77	7941.44
481.95	8074.85
482.13	8166.13
482.31	8194.22
482.49	8187.19
482.67	8257.41
482.85	8388.48
483.03	8482.10
483.21	8549.98
483.39	8706.79
483.57	8617.85
483.74	8629.56
483.92	8865.95
484.10	8741.90
484.28	9095.32
484.46	9296.61
484.64	9191.28
484.82	9235.75
485.00	9357.46
485.18	9287.25
485.35	9369.16
485.53	9472.15
485.71	9558.75
485.89	9610.24
486.07	9799.82
486.25	9650.03
486.43	9743.65
486.61	9654.71
486.78	9841.95
486.96	9966.00
487.14	10207.08
487.32	9977.70
487.50	10087.71
487.68	10356.87
487.85	10525.39
488.03	10663.48
488.21	10602.63
488.39	10752.42
488.57	10509.01
488.75	10689.23
488.92	10888.17
489.10	11052.01
489.28	11131.59
489.46	11112.86
489.64	11276.70
489.81	11686.29
489.99	11435.86
490.17	11487.35
490.35	11693.32
490.53	11564.59
490.70	11438.20
490.88	11611.40
491.06	11765.87
491.24	11782.26
491.41	11901.62
491.59	12051.42
491.77	12128.66
491.95	12250.36
492.13	12168.45
492.30	12224.62
492.48	12446.97
492.66	12437.61
492.84	12538.25
493.01	12638.89
493.19	12669.32
493.37	12772.30
493.54	12905.71
493.72	13027.42
493.90	13011.04
494.08	13179.56
494.25	13078.91
494.43	13336.37
494.61	13378.50
494.79	13593.83
494.96	13530.64
495.14	13556.38
495.32	13792.78
495.49	13668.73
495.67	13891.08
495.85	14008.11
496.02	14022.15
496.20	14008.11
496.38	14188.33
496.55	14120.45
496.73	14476.21
496.91	14099.39
497.09	14457.49
497.26	14359.19
497.44	14415.36
497.62	14473.87
497.79	14518.34
497.97	14696.22
498.14	14792.19
498.32	15002.83
498.50	15096.46
498.67	15222.84
498.85	15145.61
499.03	15159.65
499.20	14972.41
499.38	15309.44
499.56	15187.74
499.73	15433.49
499.91	15555.20
500.08	15590.31
500.26	15410.09
500.44	15597.33
500.61	15480.30
500.79	15594.99
500.97	15733.08
501.14	16107.57
501.32	15992.88
501.49	15878.19
501.67	15964.79
501.84	15999.90
502.02	15957.77
502.20	16304.17
502.37	16243.32
502.55	16037.35
502.72	16327.58
502.90	16594.40
503.07	16063.10
503.25	16343.96
503.43	16559.29
503.60	16521.84
503.78	16547.59
503.95	16566.31
504.13	16641.21
504.30	16908.03
504.48	16608.44
504.65	17195.92
504.83	17238.05
505.01	17034.42
505.18	17294.22
505.36	17380.82
505.53	17436.99
505.71	17067.19
505.88	17193.58
506.06	17525.93
506.23	17413.59
506.41	17434.65
506.58	17542.32
506.76	17305.92
506.93	17699.13
507.11	17516.57
507.28	17568.06
507.46	18010.42
507.63	17673.39
507.81	17968.29
507.98	17940.21
508.16	18120.43
508.33	17855.95
508.50	18045.53
508.68	18064.25
508.85	18295.97
509.03	18195.32
509.20	18349.80
509.38	18523.00
509.55	18375.55
509.73	18506.62
509.90	18579.17
510.08	18710.24
510.25	18815.57
510.42	18656.41
510.60	18799.18
510.77	18604.92
510.95	18817.91
511.12	18857.70
511.30	18934.93
511.47	18768.76
511.64	19145.58
511.82	19103.45
511.99	19339.85
512.17	19353.89
512.34	19330.48
512.51	19307.08
512.69	19176.01
512.86	19403.04
513.04	19293.04
513.21	19573.90
513.38	19400.70
513.56	19349.21
513.73	19531.77
513.90	19484.96
514.08	19536.45
514.25	19850.08
514.43	19878.17
514.60	20006.90
514.77	19824.34
514.95	20058.39
515.12	20191.80
515.29	19793.91
515.47	19948.39
515.64	20147.33
515.81	20198.82
515.99	20533.52
516.16	20486.71
516.33	20552.24
516.51	20531.18
516.68	20458.62
516.85	20645.87
517.03	20549.90
517.20	20849.49
517.37	20790.98
517.54	20568.63
517.72	20762.89
517.89	20657.57
518.06	20776.94
518.24	20854.17
518.41	21018.01
518.58	21006.31
518.75	21153.76
518.93	21195.89
519.10	21106.95
519.27	21252.06
519.45	20875.24
519.62	21383.13
519.79	21076.52
519.96	21343.35
520.14	21465.05
520.31	21324.62
520.48	21933.16
520.65	21439.31
520.83	21570.38
521.00	21462.71
521.17	21249.72
521.34	21788.05
521.52	21874.65
521.69	21876.99
521.86	21986.99
522.03	22038.48
522.20	21972.95
522.38	22281.90
522.55	21874.65
522.72	22305.31
522.89	22099.34
523.07	22298.28
523.24	22235.09
523.41	22499.57
523.58	22207.00
523.75	22551.06
523.92	22256.15
524.10	22434.03
524.27	22291.26
524.44	22691.49
524.61	22782.77
524.78	22574.47
524.96	22852.99
525.13	22319.35
525.30	22993.42
525.47	22478.50
525.64	22813.20
525.81	22876.40
525.98	22953.63
526.16	22768.73
526.33	22965.34
526.50	22883.42
526.67	22939.59
526.84	23330.46
527.01	22979.38
527.18	23241.52
527.36	23307.05
527.53	23253.22
527.70	23300.03
527.87	23466.21
528.04	23084.70
528.21	23283.65
528.38	23351.52
528.55	23784.52
528.72	23658.14
528.89	23433.44
529.07	23920.28
529.24	23821.97
529.41	23747.08
529.58	23751.76
529.75	23410.04
529.92	23833.68
530.09	23765.80
530.26	23782.18
530.43	23868.78
530.60	23637.07
530.77	24058.37
530.94	24507.75
531.11	24287.74
531.28	23899.21
531.46	24025.60
531.63	24173.05
531.80	24650.52
531.97	24453.92
532.14	24346.25
532.31	24212.84
532.48	24142.63
532.65	24217.52
532.82	24198.80
532.99	24751.17
533.16	23824.31
533.33	24388.38
533.50	24603.71
533.67	24889.26
533.84	24652.86
534.01	24437.53
534.18	24533.50
534.35	24982.88
534.52	24629.46
534.69	24582.65
534.86	24725.42
535.03	24858.83
535.20	24762.87
535.37	25097.56
535.54	24727.76
535.71	24622.44
535.88	25010.96
536.05	24889.26
536.22	25179.48
536.38	25387.79
536.55	25088.20
536.72	25364.39
536.89	24961.81
537.06	25137.35
537.23	24957.13
537.40	24999.26
537.57	25050.75
537.74	25535.24
537.91	25624.18
538.08	25586.74
538.25	25493.12
538.42	25261.40
538.59	25532.90
538.75	25369.07
538.92	25488.43
539.09	25493.12
539.26	25907.39
539.43	25659.29
539.60	25687.38
539.77	25914.41
539.94	25998.67
540.11	25633.55
540.28	26066.55
540.44	25958.88
540.61	25575.03
540.78	25731.85
540.95	25984.63
541.12	25748.23
541.29	26019.74
541.46	25816.11
541.62	25867.60
541.79	26202.30
541.96	25598.44
542.13	26073.57
542.30	25982.29
542.47	26321.66
542.63	26176.55
542.80	26431.67
542.97	26728.92
543.14	26499.55
543.31	26647.00
543.48	26426.99
543.64	26478.48
543.81	26464.44
543.98	26838.92
544.15	26333.37
544.32	26724.24
544.48	26918.50
544.65	26890.41
544.82	26450.39
544.99	26656.36
545.16	26677.43
545.32	26576.78
545.49	27182.98
545.66	26721.90
545.83	27278.94
546.00	27122.13
546.16	27227.45
546.33	26806.16
546.50	26864.67
546.67	27384.27
546.83	26532.31
547.00	27077.66
547.17	27225.11
547.34	27042.55
547.50	27115.11
547.67	27714.28
547.84	27126.81
548.00	27527.04
548.17	27578.53
548.34	27419.38
548.51	27264.90
548.67	27749.39
548.84	27695.56
549.01	27576.19
549.18	27524.70
549.34	27494.27
549.51	27234.47
549.68	27754.07
549.84	27470.87
550.01	27742.37
550.18	27604.28
550.34	27861.74
550.51	27765.78
550.68	27611.30
550.84	27255.54
551.01	28011.53
551.18	27779.82
551.34	27978.76
551.51	27936.63
551.68	27751.73
551.84	27988.13
552.01	28065.36
552.18	28170.69
552.34	27782.16
552.51	28156.64
552.68	27948.34
552.84	27999.83
553.01	27770.46
553.18	28205.80
553.34	28166.01
553.51	28191.75
553.67	28299.42
553.84	28521.77
554.01	28311.12
554.17	28313.46
554.34	28533.47
554.51	28568.58
554.67	28575.60
554.84	28315.80
555.00	28357.93
555.17	28243.24
555.33	27962.38
555.50	28814.34
555.67	28304.10
555.83	28687.95
556.00	28217.50
556.16	28570.92
556.33	28304.10
556.50	28472.62
556.66	28751.14
556.83	28687.95
556.99	28994.56
557.16	28788.59
557.32	28912.64
557.49	28905.62
557.65	28470.28
557.82	28280.69
557.98	28804.97
558.15	28807.31
558.32	28802.63
558.48	28776.89
558.65	28886.89
558.81	29322.23
558.98	28741.78
559.14	28620.07
559.31	28566.24
559.47	29034.35
559.64	28891.57
559.80	28910.30
559.97	28673.90
560.13	28933.70
560.30	29259.04
560.46	28964.13
560.63	28919.66
560.79	29029.66
560.96	29146.69
561.12	28912.64
561.29	28931.36
561.45	29167.76
561.61	29411.17
561.78	29532.88
561.94	29069.45
562.11	29060.09
562.27	29076.48
562.44	29214.57
562.60	28994.56
562.77	29020.30
562.93	28870.51
563.10	29593.73
563.26	29219.25
563.42	29280.10
563.59	29181.80
563.75	29340.96
563.92	29125.63
564.08	28975.83
564.24	29483.73
564.41	29001.58
564.57	29043.71
564.74	29343.30
564.90	29329.25
565.07	29708.42
565.23	29069.45
565.39	29165.42
565.56	29514.16
565.72	29151.37
565.88	29371.38
566.05	29399.47
566.21	29219.25
566.38	29326.91
566.54	29401.81
566.70	29577.35
566.87	29560.97
567.03	29830.13
567.19	29792.68
567.36	29652.25
567.52	29158.39
567.68	29532.88
567.85	29731.83
568.01	30068.86
568.17	29165.42
568.34	29720.12
568.50	29530.54
568.66	29455.64
568.83	29797.36
568.99	29553.94
569.15	29656.93
569.32	29422.87
569.48	29226.27
569.64	29685.01
569.81	29670.97
569.97	29759.91
570.13	29607.78
570.30	29860.55
570.46	29717.78
570.62	29401.81
570.78	29677.99
570.95	29350.32
571.11	29914.39
571.27	29408.83
571.43	29202.86
571.60	30061.84
571.76	29841.83
571.92	30087.59
572.09	29764.59
572.25	29631.18
572.41	29895.66
572.57	29912.05
572.74	29841.83
572.90	29640.54
573.06	30155.46
573.22	29593.73
573.38	29467.34
573.55	30040.78
573.71	30125.04
573.87	30024.39
574.03	29549.26
574.20	29792.68
574.36	29766.93
574.52	30118.01
574.68	29755.23
574.84	29598.41
575.01	29907.37
575.17	29647.57
575.33	29998.65
575.49	29846.51
575.65	30036.09
575.82	30153.12
575.98	29970.56
576.14	30129.72
576.30	30043.12
576.46	30000.99
576.62	30022.05
576.79	29855.87
576.95	29930.77
577.11	30146.10
577.27	29912.05
577.43	30466.75
577.59	30235.04
577.75	29867.58
577.92	29799.70
578.08	29724.80
578.24	29694.38
578.40	30192.91
578.56	30183.55
578.72	29797.36
578.88	30307.60
579.04	30375.47
579.21	29757.57
579.37	29972.90
579.53	29979.92
579.69	29813.74
579.85	30153.12
580.01	29883.96
580.17	29993.97
580.33	29762.25
580.49	30244.40
580.65	30183.55
580.82	30347.39
580.98	29977.58
581.14	29862.90
581.30	30321.64
581.46	29834.81
581.62	29783.32
581.78	29951.84
581.94	30295.89
582.10	30036.09
582.26	30382.49
582.42	30043.12
582.58	30031.41
582.74	29834.81
582.90	30600.16
583.06	30174.19
583.22	30099.29
583.38	30022.05
583.54	30054.82
583.70	30157.80
583.86	30122.69
584.02	30108.65
584.18	30359.09
584.34	30436.33
584.50	30586.12
584.66	29839.49
584.82	30305.26
584.98	30148.44
585.14	30132.06
585.30	29701.40
585.46	30235.04
585.62	30230.36
585.78	30022.05
585.94	30005.67
586.10	30534.63
586.26	30099.29
586.42	30431.65
586.58	30546.33
586.74	30335.68
586.90	30171.85
587.06	30125.04
587.22	30213.98
587.38	30443.35
587.54	30637.61
587.70	30178.87
587.86	30665.70
588.02	30625.91
588.18	30300.58
588.34	30611.87
588.49	30335.68
588.65	30504.20
588.81	30190.57
588.97	30403.56
589.13	30150.78
589.29	30541.65
589.45	30141.42
589.61	30609.53
589.77	30780.39
589.93	30426.96
590.08	30677.40
590.24	30639.95
590.40	30558.03
590.56	30579.10
590.72	30499.52
590.88	30438.67
591.04	30555.69
591.20	30677.40
591.35	30801.45
591.51	30829.54
591.67	30724.21
591.83	30707.83
591.99	30785.07
