SpectraSuite Data File
++++++++++++++++++++++++++++++++++++
Date: Fri Oct 18 13:58:43 GMT-05:00 2013
User: bianchi
Dark Spectrum Present: No
Reference Spectrum Present: No
Number of Sampled Component Spectra: 1
Spectrometers: USB2+H05261
Integration Time (usec): 50000 (USB2+H05261)
Spectra Averaged: 1 (USB2+H05261)
Boxcar Smoothing: 0 (USB2+H05261)
Correct for Electrical Dark: No (USB2+H05261)
Strobe/Lamp Enabled: No (USB2+H05261)
Correct for Detector Non-linearity: No (USB2+H05261)
Correct for Stray Light: No (USB2+H05261)
Number of Pixels in Processed Spectrum: 2048
>>>>>Begin Processed Spectral Data<<<<<
365.73	0.00
365.92	0.00
366.12	0.00
366.32	0.00
366.52	0.00
366.72	0.00
366.91	0.00
367.11	0.00
367.31	0.00
367.51	0.00
367.70	0.00
367.90	0.00
368.10	0.00
368.30	0.00
368.49	0.00
368.69	0.00
368.89	0.00
369.09	0.00
369.28	0.00
369.48	0.00
369.68	0.00
369.87	0.00
370.07	0.00
370.27	0.00
370.47	0.00
370.66	72.56
370.86	77.24
371.06	194.26
371.25	147.45
371.45	124.05
371.65	105.32
371.84	42.13
372.04	198.95
372.24	222.35
372.44	133.41
372.63	243.42
372.83	152.13
373.03	180.22
373.22	194.26
373.42	175.54
373.62	184.90
373.81	264.48
374.01	257.46
374.21	203.63
374.40	175.54
374.60	128.73
374.79	229.37
374.99	220.01
375.19	248.10
375.38	215.33
375.58	332.36
375.78	290.23
375.97	189.58
376.17	259.80
376.37	269.16
376.56	337.04
376.76	222.35
376.95	266.82
377.15	257.46
377.35	315.97
377.54	236.39
377.74	311.29
377.93	198.95
378.13	327.68
378.33	266.82
378.52	241.08
378.72	311.29
378.91	334.70
379.11	276.18
379.31	266.82
379.50	353.42
379.70	250.44
379.89	255.12
380.09	287.89
380.28	332.36
380.48	301.93
380.68	276.18
380.87	315.97
381.07	360.44
381.26	280.86
381.46	269.16
381.65	313.63
381.85	327.68
382.04	379.17
382.24	330.02
382.43	334.70
382.63	280.86
382.83	372.15
383.02	332.36
383.22	348.74
383.41	308.95
383.61	395.55
383.80	367.46
384.00	358.10
384.19	444.70
384.39	395.55
384.58	421.30
384.78	376.83
384.97	395.55
385.17	325.33
385.36	376.83
385.56	325.33
385.75	278.52
385.95	416.62
386.14	425.98
386.34	409.59
386.53	395.55
386.72	421.30
386.92	330.02
387.11	423.64
387.31	376.83
387.50	472.79
387.70	411.93
387.89	484.49
388.09	428.32
388.28	442.36
388.48	442.36
388.67	404.91
388.86	538.32
389.06	517.26
389.25	503.22
389.45	566.41
389.64	447.04
389.84	559.39
390.03	442.36
390.22	557.05
390.42	416.62
390.61	425.98
390.81	461.09
391.00	447.04
391.19	491.51
391.39	491.51
391.58	510.24
391.78	510.24
391.97	496.19
392.16	512.58
392.36	552.37
392.55	603.86
392.75	566.41
392.94	507.90
393.13	512.58
393.33	524.28
393.52	500.87
393.71	629.60
393.91	535.98
394.10	554.71
394.29	458.74
394.49	566.41
394.68	580.45
394.88	627.26
395.07	500.87
395.26	592.16
395.46	648.33
395.65	557.05
395.84	678.76
396.04	599.18
396.23	657.69
396.42	643.65
396.62	629.60
396.81	657.69
397.00	648.33
397.19	683.44
397.39	645.99
397.58	765.36
397.77	622.58
397.97	681.10
398.16	685.78
398.35	653.01
398.55	608.54
398.74	681.10
398.93	720.88
399.12	699.82
399.32	690.46
399.51	711.52
399.70	753.65
399.90	716.20
400.09	720.88
400.28	676.41
400.47	755.99
400.67	861.32
400.86	753.65
401.05	800.46
401.24	772.38
401.44	725.57
401.63	784.08
401.82	692.80
402.01	788.76
402.21	842.59
402.40	856.64
402.59	868.34
402.78	812.17
402.97	835.57
403.17	833.23
403.36	870.68
403.55	875.36
403.74	945.58
403.93	863.66
404.13	936.21
404.32	840.25
404.51	922.17
404.70	933.87
404.89	873.02
405.09	964.30
405.28	931.53
405.47	866.00
405.66	938.55
405.85	987.71
406.05	947.92
406.24	924.51
406.43	1001.75
406.62	1029.84
406.81	1034.52
407.00	983.02
407.20	1006.43
407.39	994.73
407.58	1001.75
407.77	1062.60
407.96	985.37
408.15	1067.28
408.34	1086.01
408.54	1071.97
408.73	1069.62
408.92	1043.88
409.11	1109.41
409.30	1210.06
409.49	1160.91
409.68	1174.95
409.87	1062.60
410.07	1088.35
410.26	1102.39
410.45	1270.91
410.64	1118.78
410.83	1177.29
411.02	1128.14
411.21	1268.57
411.40	1210.06
411.59	1329.42
411.78	1200.69
411.98	1277.93
412.17	1188.99
412.36	1186.65
412.55	1320.06
412.74	1322.40
412.93	1275.59
413.12	1282.61
413.31	1455.81
413.50	1338.79
413.69	1373.89
413.88	1427.73
414.07	1462.83
414.26	1439.43
414.45	1446.45
414.64	1385.60
414.83	1542.41
415.02	1458.15
415.22	1568.16
415.41	1600.93
415.60	1549.43
415.79	1617.31
415.98	1614.97
416.17	1605.61
416.36	1528.37
416.55	1621.99
416.74	1621.99
416.93	1586.88
417.12	1633.69
417.31	1694.55
417.50	1568.16
417.69	1717.95
417.88	1760.08
418.07	1703.91
418.26	1732.00
418.45	1753.06
418.64	1694.55
418.83	1795.19
419.02	1769.44
419.21	1795.19
419.39	1806.89
419.58	1664.12
419.77	1811.57
419.96	1867.75
420.15	1816.26
420.34	1811.57
420.53	1837.32
420.72	1900.52
420.91	1961.37
421.10	2066.69
421.29	1947.33
421.48	1914.56
421.67	1893.49
421.86	1928.60
422.05	1940.30
422.24	1874.77
422.43	1881.79
422.61	1909.88
422.80	1930.94
422.99	2003.50
423.18	1916.90
423.37	2097.12
423.56	2047.97
423.75	1977.75
423.94	2136.91
424.13	1839.66
424.32	1879.45
424.50	1933.28
424.69	2076.06
424.88	2071.37
425.07	1937.96
425.26	1940.30
425.45	1944.99
425.64	1984.77
425.83	2073.71
426.01	2029.24
426.20	2104.14
426.39	2005.84
426.58	1914.56
426.77	2155.63
426.96	2099.46
427.15	2038.61
427.33	2090.10
427.52	2059.67
427.71	2064.35
427.90	2062.01
428.09	2188.40
428.28	2181.38
428.46	2179.04
428.65	2125.21
428.84	2092.44
429.03	2223.51
429.22	2293.72
429.40	2272.66
429.59	2223.51
429.78	2157.97
429.97	2120.53
430.16	2097.12
430.34	2239.89
430.53	2298.41
430.72	2249.25
430.91	2209.47
431.10	2366.28
431.28	2321.81
431.47	2239.89
431.66	2399.05
431.85	2279.68
432.03	2410.75
432.22	2438.84
432.41	2413.09
432.60	2387.35
432.79	2338.20
432.97	2438.84
433.16	2396.71
433.35	2370.96
433.54	2324.15
433.72	2506.71
433.91	2452.88
434.10	2593.31
434.28	2476.29
434.47	2417.77
434.66	2511.39
434.85	2473.95
435.03	2490.33
435.22	2583.95
435.41	2607.36
435.59	2576.93
435.78	2546.50
435.97	2546.50
436.16	2647.15
436.34	2675.23
436.53	2607.36
436.72	2642.46
436.90	2612.04
437.09	2715.02
437.28	2562.89
437.46	2736.09
437.65	2750.13
437.84	2693.96
438.02	2759.49
438.21	2813.32
438.40	2684.59
438.58	2820.35
438.77	2773.53
438.96	2841.41
439.14	2890.56
439.33	2939.71
439.52	2881.20
439.70	2909.29
439.89	2946.73
440.08	3063.76
440.26	3080.14
440.45	2979.50
440.63	3047.38
440.82	3056.74
441.01	3094.19
441.19	3084.83
441.38	3049.72
441.57	3166.74
441.75	3126.96
441.94	3138.66
442.12	3243.98
442.31	3155.04
442.50	3272.07
442.68	3253.34
442.87	3290.79
443.05	3276.75
443.24	3332.92
443.43	3321.22
443.61	3419.52
443.80	3449.95
443.98	3236.96
444.17	3192.49
444.35	3274.41
444.54	3459.31
444.73	3346.97
444.91	3485.06
445.10	3269.73
445.28	3346.97
445.47	3316.54
445.65	3295.47
445.84	3431.23
446.02	3496.76
446.21	3349.31
446.39	3508.46
446.58	3538.89
446.77	3370.37
446.95	3405.48
447.14	3459.31
447.32	3555.27
447.51	3555.27
447.69	3524.85
447.88	3473.36
448.06	3552.93
448.25	3398.46
448.43	3499.10
448.62	3529.53
448.80	3515.48
448.99	3557.61
449.17	3517.83
449.36	3688.68
449.54	3557.61
449.73	3719.11
449.91	3651.24
450.10	3665.28
450.28	3796.35
450.46	3637.19
450.65	3826.78
450.83	3747.20
451.02	3545.91
451.20	3777.62
451.39	3777.62
451.57	3698.05
451.76	3705.07
451.94	3627.83
452.13	3861.88
452.31	3810.39
452.49	3789.33
452.68	3838.48
452.86	3927.42
453.05	3852.52
453.23	3946.14
453.42	3920.40
453.60	3716.77
453.78	4030.40
453.97	3875.93
454.15	3990.61
454.34	3908.69
454.52	3911.04
454.70	3918.06
454.89	4091.26
455.07	4114.66
455.26	3999.98
455.44	3913.38
455.62	4051.47
455.81	4189.56
455.99	4079.55
456.17	4203.60
456.36	4058.49
456.54	4037.42
456.73	4203.60
456.91	4201.26
457.09	4273.82
457.28	4238.71
457.46	4234.03
457.64	4315.95
457.83	4255.09
458.01	4271.48
458.19	4259.78
458.38	4170.83
458.56	4447.02
458.74	4320.63
458.93	4374.46
459.11	4327.65
459.29	4322.97
459.48	4470.42
459.66	4383.82
459.84	4498.51
460.03	4496.17
460.21	4447.02
460.39	4411.91
460.57	4503.19
460.76	4496.17
460.94	4493.83
461.12	4402.55
461.31	4559.36
461.49	4517.23
461.67	4435.32
461.85	4655.33
462.04	4554.68
462.22	4737.24
462.40	4652.98
462.59	4695.11
462.77	4730.22
462.95	4706.82
463.13	4868.31
463.32	4704.48
463.50	4865.97
463.68	4800.44
463.86	4908.10
464.05	4760.65
464.23	4720.86
464.41	4873.00
464.59	4779.37
464.78	4884.70
464.96	4870.65
465.14	4823.84
465.32	4812.14
465.50	4938.53
465.69	4875.34
465.87	4851.93
466.05	4894.06
466.23	4865.97
466.41	4943.21
466.60	5172.58
466.78	4868.31
466.96	4880.02
467.14	5067.26
467.32	4985.34
467.51	5083.64
467.69	5004.07
467.87	5144.50
468.05	5214.71
468.23	4973.64
468.41	5004.07
468.60	5055.56
468.78	5172.58
468.96	5093.01
469.14	5294.29
469.32	5198.33
469.50	5142.16
469.69	5327.06
469.87	5284.93
470.05	5378.55
470.23	5455.79
470.41	5350.46
470.59	5397.28
470.77	5371.53
470.95	5474.51
471.14	5526.00
471.32	5451.11
471.50	5554.09
471.68	5488.56
471.86	5462.81
472.04	5589.20
472.22	5790.49
472.40	5572.82
472.58	5664.10
472.77	5671.12
472.95	5731.97
473.13	5994.11
473.31	5668.78
473.49	5778.78
473.67	5879.43
473.85	5865.38
474.03	5944.96
474.21	5933.26
474.39	6033.90
474.57	6038.58
474.75	6122.84
474.93	6113.48
475.12	6143.91
475.30	6150.93
475.48	6164.97
475.66	6246.89
475.84	6106.46
476.02	6214.12
476.20	6190.72
476.38	6455.20
476.56	6569.88
476.74	6544.14
476.92	6307.74
477.10	6459.88
477.28	6590.95
477.46	6441.15
477.64	6574.56
477.82	6766.49
478.00	6883.52
478.18	6740.74
478.36	6885.86
478.54	6960.75
478.72	6892.88
478.90	7066.08
479.08	7068.42
479.26	7164.38
479.44	7204.17
479.62	7204.17
479.80	7281.41
479.98	7332.90
480.16	7454.61
480.34	7513.12
480.52	7878.24
480.70	7737.81
480.88	7431.20
481.06	7662.91
481.24	7564.61
481.41	7801.01
481.59	7887.61
481.77	7852.50
481.95	7758.88
482.13	8046.76
482.31	8131.02
482.49	8098.25
482.67	8292.52
482.85	8360.39
483.03	8468.06
483.21	8463.38
483.39	8519.55
483.57	8320.60
483.74	8652.96
483.92	8662.32
484.10	8517.21
484.28	8716.16
484.46	9132.77
484.64	8877.65
484.82	8716.16
485.00	9041.49
485.18	9020.42
485.35	9170.22
485.53	9188.94
485.71	9338.74
485.89	9540.02
486.07	9174.90
486.25	9327.03
486.43	9448.74
486.61	9603.22
486.78	9528.32
486.96	9888.76
487.14	9998.77
487.32	10068.98
487.50	9937.91
487.68	9984.73
487.85	10415.38
488.03	10335.81
488.21	10408.36
488.39	10576.88
488.57	10504.32
488.75	10752.42
488.92	10995.84
489.10	10647.10
489.28	10871.79
489.46	10869.45
489.64	10939.66
489.81	11152.65
489.99	11014.56
490.17	11082.44
490.35	11360.96
490.53	11393.73
490.70	11510.75
490.88	11351.60
491.06	11651.19
491.24	11346.92
491.41	11763.53
491.59	12004.61
491.77	11873.54
491.95	11976.52
492.13	12257.39
492.30	12219.94
492.48	12301.86
492.66	12231.64
492.84	12301.86
493.01	12189.51
493.19	12416.54
493.37	12863.58
493.54	12582.72
493.72	12580.38
493.90	12624.85
494.08	12879.97
494.25	13053.17
494.43	13015.72
494.61	13034.44
494.79	12975.93
494.96	13165.51
495.14	13341.05
495.32	13308.29
495.49	13362.12
495.67	13638.30
495.85	13404.25
496.02	13696.82
496.20	13919.17
496.38	13699.16
496.55	13626.60
496.73	13956.61
496.91	13867.67
497.09	14024.49
497.26	14087.68
497.44	14352.16
497.62	14319.40
497.79	14682.18
497.97	14560.47
498.14	14406.00
498.32	14466.85
498.50	14466.85
498.67	14829.63
498.85	14647.07
499.03	15047.30
499.20	14693.88
499.38	15208.80
499.56	14827.29
499.73	15204.12
499.91	15276.68
500.08	15260.29
500.26	15152.63
500.44	15281.36
500.61	15192.42
500.79	15234.55
500.97	15447.54
501.14	15452.22
501.32	15826.70
501.49	15695.63
501.67	15655.84
501.84	15524.77
502.02	15592.65
502.20	15934.37
502.37	16013.95
502.55	15917.98
502.72	16194.17
502.90	15658.18
503.07	16037.35
503.25	16081.82
503.43	16004.58
503.60	16180.12
503.78	16301.83
503.95	16259.70
504.13	16315.87
504.30	16709.08
504.48	16360.34
504.65	16521.84
504.83	16578.01
505.01	16938.46
505.18	16826.11
505.36	16975.91
505.53	16690.36
505.71	16980.59
505.88	17003.99
506.06	16912.71
506.23	16912.71
506.41	17114.00
506.58	17013.35
506.76	17198.26
506.93	17266.13
507.11	17242.73
507.28	17090.59
507.46	17305.92
507.63	17523.59
507.81	17591.47
507.98	17394.86
508.16	17692.11
508.33	17736.58
508.50	17572.74
508.68	17722.54
508.85	17624.23
509.03	17980.00
509.20	17963.61
509.38	17884.03
509.55	18307.67
509.73	18045.53
509.90	17869.99
510.08	18068.94
510.25	18232.77
510.42	18534.70
510.60	18347.46
510.77	18600.24
510.95	18551.09
511.12	18487.89
511.30	18410.65
511.47	18808.54
511.64	18764.07
511.82	18735.99
511.99	18691.52
512.17	18672.79
512.34	18633.00
512.51	18890.46
512.69	18897.49
512.86	18672.79
513.04	19431.13
513.21	19225.16
513.38	19154.94
513.56	19667.52
513.73	19044.94
513.90	19367.93
514.08	19475.60
514.25	19286.01
514.43	19449.85
514.60	19477.94
514.77	19854.76
514.95	19414.74
515.12	19381.98
515.29	19618.37
515.47	19501.34
515.64	19995.20
515.81	19829.02
515.99	19775.19
516.16	20006.90
516.33	20194.14
516.51	20365.00
516.68	20156.69
516.85	20016.26
517.03	20170.74
517.20	20299.47
517.37	20137.97
517.54	20170.74
517.72	20540.54
517.89	20411.81
518.06	20093.50
518.24	20535.86
518.41	20362.66
518.58	20690.34
518.75	20840.13
518.93	20652.89
519.10	20807.36
519.27	20926.73
519.45	20807.36
519.62	21025.03
519.79	20774.60
519.96	20814.38
520.14	21008.65
520.31	20870.56
520.48	21095.25
520.65	20950.14
520.83	21041.42
521.00	21315.26
521.17	21486.12
521.34	20938.43
521.52	21411.22
521.69	21156.10
521.86	21408.88
522.03	21532.93
522.20	21673.36
522.38	21399.52
522.55	22068.91
522.72	21504.84
522.89	21624.21
523.07	22005.72
523.24	21785.71
523.41	22188.28
523.58	21504.84
523.75	21914.44
523.92	21860.60
524.10	21752.94
524.27	21778.68
524.44	22176.58
524.61	21898.05
524.78	21886.35
524.96	22298.28
525.13	22223.39
525.30	21984.65
525.47	22483.19
525.64	22532.34
525.81	22382.54
525.98	22511.27
526.16	22572.13
526.33	22588.51
526.50	22632.98
526.67	22387.22
526.84	22714.90
527.01	22611.92
527.18	22586.17
527.36	22963.00
527.53	22878.74
527.70	23220.45
527.87	22946.61
528.04	22799.16
528.21	22778.09
528.38	22890.44
528.55	23065.98
528.72	23073.00
528.89	22876.40
529.07	23126.83
529.24	23030.87
529.41	23412.38
529.58	23138.54
529.75	23428.76
529.92	23426.42
530.09	23475.57
530.26	23351.52
530.43	23590.26
530.60	23185.35
530.77	23419.40
530.94	23431.10
531.11	23381.95
531.28	23417.06
531.46	23433.44
531.63	23632.39
531.80	23536.43
531.97	23695.58
532.14	23470.89
532.31	23473.23
532.48	23878.15
532.65	23976.45
532.82	23552.81
532.99	23836.02
533.16	23606.64
533.33	24159.01
533.50	24091.13
533.67	24320.51
533.84	23962.40
534.01	24147.31
534.18	23873.46
534.35	24294.76
534.52	23960.06
534.69	24411.79
534.86	24755.85
535.03	24067.73
535.20	24652.86
535.37	24559.24
535.54	24538.18
535.71	24175.39
535.88	24638.82
536.05	24322.85
536.22	24496.05
536.38	25039.05
536.55	24446.90
536.72	24915.00
536.89	24601.37
537.06	24753.51
537.23	24889.26
537.40	24400.08
537.57	24856.49
537.74	24781.59
537.91	25020.33
538.08	24720.74
538.25	25116.29
538.42	25099.90
538.59	24788.61
538.75	24769.89
538.92	24922.02
539.09	25139.69
539.26	25500.14
539.43	25340.98
539.60	25090.54
539.77	25352.68
539.94	25090.54
540.11	25202.89
540.28	25200.55
540.44	25324.60
540.61	25214.59
540.78	24917.34
540.95	25149.06
541.12	25280.13
541.29	25198.21
541.46	25280.13
541.62	25769.30
541.79	25465.03
541.96	25240.34
542.13	25502.48
542.30	25621.84
542.47	25724.83
542.63	25287.15
542.80	25930.80
542.97	26043.14
543.14	26045.48
543.31	25869.94
543.48	25909.73
543.64	26396.56
543.81	26359.11
543.98	26136.76
544.15	26419.97
544.32	26185.91
544.48	26204.64
544.65	26216.34
544.82	26188.25
544.99	26111.02
545.16	26197.62
545.32	26101.65
545.49	26157.83
545.66	26483.16
545.83	26462.10
546.00	27026.17
546.16	26274.85
546.33	26155.49
546.50	26452.73
546.67	26623.59
546.83	26466.78
547.00	26614.23
547.17	26768.71
547.34	26867.01
547.50	26443.37
547.67	26639.98
547.84	26466.78
548.00	26710.19
548.17	26995.74
548.34	26932.54
548.51	26757.00
548.67	27082.34
548.84	26754.66
549.01	27065.96
549.18	26693.81
549.34	26932.54
549.51	27035.53
549.68	26916.16
549.84	26920.84
550.01	26806.16
550.18	26829.56
550.34	27122.13
550.51	26969.99
550.68	27110.43
550.84	27133.83
551.01	27213.41
551.18	27087.02
551.34	26881.05
551.51	27285.97
551.68	26925.52
551.84	27213.41
552.01	27545.76
552.18	27644.07
552.34	27129.15
552.51	27634.71
552.68	27442.78
552.84	27407.67
553.01	27410.01
553.18	27473.21
553.34	27639.39
553.51	27414.69
553.67	27665.13
553.84	27819.61
554.01	27707.26
554.17	27381.93
554.34	27545.76
554.51	27187.66
554.67	27646.41
554.84	27608.96
555.00	27789.18
555.17	27632.36
555.33	27978.76
555.50	27840.67
555.67	27751.73
555.83	27693.22
556.00	27988.13
556.16	27976.42
556.33	27332.78
556.50	27756.41
556.66	27578.53
556.83	27838.33
556.99	28105.15
557.16	28177.71
557.32	28290.06
557.49	27864.08
557.65	27957.70
557.82	28030.26
557.98	28063.02
558.15	28414.10
558.32	28435.17
558.48	28278.35
558.65	27971.74
558.81	28170.69
558.98	28334.53
559.14	27796.20
559.31	27812.59
559.47	28002.17
559.64	28268.99
559.80	28580.28
559.97	28299.42
560.13	28409.42
560.30	28446.87
560.46	28273.67
560.63	28271.33
560.79	28575.60
560.96	28308.78
561.12	28449.21
561.29	28261.97
561.45	28435.17
561.61	28589.64
561.78	28568.58
561.94	28336.87
562.11	28701.99
562.27	28517.09
562.44	28381.34
562.60	28484.32
562.77	28500.70
562.93	28371.97
563.10	28713.69
563.26	28432.83
563.42	28634.11
563.59	28861.15
563.75	28620.07
563.92	28636.45
564.08	28430.49
564.24	28802.63
564.41	28603.69
564.57	28388.36
564.74	28568.58
564.90	28570.92
565.07	28966.47
565.23	28767.52
565.39	28730.08
565.56	28896.25
565.72	28634.11
565.88	28648.16
566.05	28739.44
566.21	28781.57
566.38	28652.84
566.54	28638.80
566.70	28842.42
566.87	29287.12
567.03	28795.61
567.19	29521.18
567.36	28882.21
567.52	28898.59
567.68	28809.65
567.85	28662.20
568.01	28961.79
568.17	28987.53
568.34	29275.42
568.50	28730.08
568.66	28938.38
568.83	29069.45
568.99	29041.37
569.15	28840.08
569.32	28774.55
569.48	28804.97
569.64	28968.81
569.81	29149.03
569.97	28940.72
570.13	28985.19
570.30	28884.55
570.46	28833.06
570.62	29083.50
570.78	29167.76
570.95	28875.19
571.11	28781.57
571.27	28933.70
571.43	28872.85
571.60	28952.43
571.76	29221.59
571.92	29340.96
572.09	29486.07
572.25	29502.45
572.41	29432.24
572.57	29537.56
572.74	29223.93
572.90	28835.40
573.06	29127.97
573.22	29090.52
573.38	29364.36
573.55	29383.09
573.71	29668.63
573.87	29076.48
574.03	29195.84
574.20	29715.44
574.36	29153.71
574.52	29474.37
574.68	29345.64
574.84	28926.68
575.01	29399.47
575.17	29172.44
575.33	29202.86
575.49	29216.91
575.65	29394.79
575.82	29582.03
575.98	29631.18
576.14	29818.42
576.30	29336.27
576.46	28940.72
576.62	29301.17
576.79	29523.52
576.95	29067.11
577.11	29235.63
577.27	29298.83
577.43	29699.06
577.59	29261.38
577.75	29380.74
577.92	29170.10
578.08	29113.92
578.24	29146.69
578.40	29179.46
578.56	29411.17
578.72	29338.62
578.88	29612.46
579.04	29766.93
579.21	29390.11
579.37	29497.77
579.53	29560.97
579.69	29104.56
579.85	29514.16
580.01	29462.66
580.17	29144.35
580.33	29394.79
580.49	29336.27
580.65	29460.32
580.82	29523.52
580.98	29802.04
581.14	29495.43
581.30	29869.92
581.46	29457.98
581.62	29289.46
581.78	28835.40
581.94	29560.97
582.10	29151.37
582.26	29567.99
582.42	29762.25
582.58	29645.23
582.74	29455.64
582.90	29699.06
583.06	29345.64
583.22	29514.16
583.38	29502.45
583.54	29343.30
583.70	29659.27
583.86	29450.96
584.02	29226.27
584.18	29687.36
584.34	29528.20
584.50	29521.18
584.66	29369.04
584.82	29273.08
584.98	29476.71
585.14	29724.80
585.30	29439.26
585.46	29806.72
585.62	29127.97
585.78	29331.59
585.94	29106.90
586.10	29851.19
586.26	29373.72
586.42	29947.15
586.58	29565.65
586.74	29392.45
586.90	29277.76
587.06	29142.01
587.22	29151.37
587.38	29532.88
587.54	29605.44
587.70	29928.43
587.86	29633.52
588.02	29687.36
588.18	29993.97
588.34	29661.61
588.49	29886.30
588.65	29413.51
588.81	29338.62
588.97	29694.38
589.13	29502.45
589.29	30092.27
589.45	29677.99
589.61	29865.24
589.77	30015.03
589.93	29846.51
590.08	30015.03
590.24	29951.84
590.40	29930.77
590.56	29603.10
590.72	29535.22
590.88	30073.54
591.04	29818.42
591.20	30649.32
591.35	29982.26
591.51	30228.02
591.67	29916.73
591.83	29972.90
591.99	30024.39
