SpectraSuite Data File
++++++++++++++++++++++++++++++++++++
Date: Fri Oct 18 13:58:15 GMT-05:00 2013
User: bianchi
Dark Spectrum Present: No
Reference Spectrum Present: No
Number of Sampled Component Spectra: 1
Spectrometers: USB2+H05261
Integration Time (usec): 50000 (USB2+H05261)
Spectra Averaged: 1 (USB2+H05261)
Boxcar Smoothing: 0 (USB2+H05261)
Correct for Electrical Dark: No (USB2+H05261)
Strobe/Lamp Enabled: No (USB2+H05261)
Correct for Detector Non-linearity: No (USB2+H05261)
Correct for Stray Light: No (USB2+H05261)
Number of Pixels in Processed Spectrum: 2048
>>>>>Begin Processed Spectral Data<<<<<
365.73	0.00
365.92	0.00
366.12	0.00
366.32	0.00
366.52	0.00
366.72	0.00
366.91	0.00
367.11	0.00
367.31	0.00
367.51	0.00
367.70	0.00
367.90	0.00
368.10	0.00
368.30	0.00
368.49	0.00
368.69	0.00
368.89	0.00
369.09	0.00
369.28	0.00
369.48	0.00
369.68	0.00
369.87	0.00
370.07	0.00
370.27	0.00
370.47	0.00
370.66	28.09
370.86	79.58
371.06	159.16
371.25	124.05
371.45	163.84
371.65	203.63
371.84	175.54
372.04	72.56
372.24	170.86
372.44	128.73
372.63	180.22
372.83	210.65
373.03	224.69
373.22	217.67
373.42	147.45
373.62	217.67
373.81	227.03
374.01	294.91
374.21	241.08
374.40	198.95
374.60	212.99
374.79	285.55
374.99	311.29
375.19	266.82
375.38	283.20
375.58	290.23
375.78	299.59
375.97	269.16
376.17	292.57
376.37	217.67
376.56	278.52
376.76	287.89
376.95	222.35
377.15	273.84
377.35	241.08
377.54	273.84
377.74	248.10
377.93	320.65
378.13	248.10
378.33	327.68
378.52	245.76
378.72	234.05
378.91	341.72
379.11	290.23
379.31	227.03
379.50	269.16
379.70	297.25
379.89	248.10
380.09	353.42
380.28	365.12
380.48	280.86
380.68	351.08
380.87	304.27
381.07	339.38
381.26	348.74
381.46	297.25
381.65	393.21
381.85	311.29
382.04	308.95
382.24	299.59
382.43	341.72
382.63	383.85
382.83	369.80
383.02	407.25
383.22	400.23
383.41	341.72
383.61	325.33
383.80	416.62
384.00	358.10
384.19	330.02
384.39	374.49
384.58	346.40
384.78	327.68
384.97	414.27
385.17	369.80
385.36	285.55
385.56	447.04
385.75	374.49
385.95	433.00
386.14	395.55
386.34	402.57
386.53	365.12
386.72	440.02
386.92	475.13
387.11	402.57
387.31	468.11
387.50	428.32
387.70	374.49
387.89	409.59
388.09	372.15
388.28	320.65
388.48	416.62
388.67	400.23
388.86	545.34
389.06	468.11
389.25	493.85
389.45	461.09
389.64	423.64
389.84	524.28
390.03	433.00
390.22	451.72
390.42	503.22
390.61	514.92
390.81	538.32
391.00	580.45
391.19	531.30
391.39	545.34
391.58	475.13
391.78	547.69
391.97	482.15
392.16	486.83
392.36	554.71
392.55	517.26
392.75	573.43
392.94	545.34
393.13	493.85
393.33	505.56
393.52	552.37
393.71	617.90
393.91	617.90
394.10	550.03
394.29	521.94
394.49	535.98
394.68	521.94
394.88	566.41
395.07	543.00
395.26	496.19
395.46	540.66
395.65	648.33
395.84	653.01
396.04	716.20
396.23	669.39
396.42	664.71
396.62	622.58
396.81	634.29
397.00	683.44
397.19	697.48
397.39	645.99
397.58	610.88
397.77	657.69
397.97	620.24
398.16	770.04
398.35	716.20
398.55	704.50
398.74	744.29
398.93	692.80
399.12	676.41
399.32	678.76
399.51	760.67
399.70	751.31
399.90	655.35
400.09	723.23
400.28	802.80
400.47	798.12
400.67	812.17
400.86	786.42
401.05	809.83
401.24	753.65
401.44	812.17
401.63	837.91
401.82	844.93
402.01	777.06
402.21	875.36
402.40	877.70
402.59	807.48
402.78	807.48
402.97	858.98
403.17	821.53
403.36	861.32
403.55	851.96
403.74	908.13
403.93	901.11
404.13	945.58
404.32	793.44
404.51	922.17
404.70	891.74
404.89	922.17
405.09	973.66
405.28	992.39
405.47	964.30
405.66	997.07
405.85	980.68
406.05	978.34
406.24	922.17
406.43	1069.62
406.62	1015.79
406.81	997.07
407.00	976.00
407.20	940.90
407.39	1097.71
407.58	1083.67
407.77	1137.50
407.96	1062.60
408.15	1022.81
408.34	1128.14
408.54	1083.67
408.73	1069.62
408.92	1076.65
409.11	1177.29
409.30	1067.28
409.49	1170.27
409.68	1139.84
409.87	1228.78
410.07	1291.98
410.26	1116.44
410.45	1240.48
410.64	1207.72
410.83	1217.08
411.02	1235.80
411.21	1254.53
411.40	1371.55
411.59	1313.04
411.78	1284.95
411.98	1221.76
412.17	1200.69
412.36	1205.38
412.55	1287.29
412.74	1359.85
412.93	1392.62
413.12	1287.29
413.31	1378.58
413.50	1380.92
413.69	1453.47
413.88	1430.07
414.07	1406.66
414.26	1465.18
414.45	1401.98
414.64	1451.13
414.83	1556.46
415.02	1467.52
415.22	1514.33
415.41	1556.46
415.60	1598.59
415.79	1593.90
415.98	1607.95
416.17	1636.03
416.36	1621.99
416.55	1633.69
416.74	1694.55
416.93	1650.08
417.12	1680.50
417.31	1687.53
417.50	1727.32
417.69	1687.53
417.88	1804.55
418.07	1680.50
418.26	1790.51
418.45	1827.96
418.64	1774.13
418.83	1849.02
419.02	1809.23
419.21	1734.34
419.39	1870.09
419.58	1774.13
419.77	1893.49
419.96	1825.62
420.15	1874.77
420.34	1949.67
420.53	1919.24
420.72	1839.66
420.91	1886.47
421.10	1905.20
421.29	1923.92
421.48	1834.98
421.67	1837.32
421.86	1987.11
422.05	1895.83
422.24	2064.35
422.43	2019.88
422.61	2017.54
422.80	1975.41
422.99	2045.63
423.18	2017.54
423.37	1989.46
423.56	2036.27
423.75	2036.27
423.94	2038.61
424.13	1914.56
424.32	1778.81
424.50	1996.48
424.69	2083.08
424.88	2045.63
425.07	1998.82
425.26	2050.31
425.45	2001.16
425.64	2076.06
425.83	2015.20
426.01	2146.27
426.20	2064.35
426.39	1980.09
426.58	1975.41
426.77	2106.48
426.96	2029.24
427.15	2036.27
427.33	2087.76
427.52	2113.50
427.71	2195.42
427.90	2188.40
428.09	2239.89
428.28	2193.08
428.46	2108.82
428.65	2223.51
428.84	2188.40
429.03	2279.68
429.22	2129.89
429.40	2424.80
429.59	2270.32
429.78	2113.50
429.97	2101.80
430.16	2230.53
430.34	2195.42
430.53	2408.41
430.72	2331.17
430.91	2303.09
431.10	2317.13
431.28	2347.56
431.47	2291.38
431.66	2429.48
431.85	2389.69
432.03	2438.84
432.22	2436.50
432.41	2495.01
432.60	2492.67
432.79	2321.81
432.97	2499.69
433.16	2480.97
433.35	2345.22
433.54	2560.55
433.72	2537.14
433.91	2509.05
434.10	2457.56
434.28	2502.03
434.47	2436.50
434.66	2569.91
434.85	2670.55
435.03	2642.46
435.22	2516.08
435.41	2633.10
435.59	2759.49
435.78	2588.63
435.97	2588.63
436.16	2710.34
436.34	2689.28
436.53	2595.65
436.72	2780.56
436.90	2560.55
437.09	2740.77
437.28	2665.87
437.46	2794.60
437.65	2757.15
437.84	2663.53
438.02	2864.82
438.21	2810.98
438.40	2761.83
438.58	2778.22
438.77	2876.52
438.96	2764.17
439.14	2916.31
439.33	2970.14
439.52	3007.59
439.70	3035.67
439.89	3042.70
440.08	3047.38
440.26	3014.61
440.45	2979.50
440.63	3035.67
440.82	3077.80
441.01	3075.46
441.19	3066.10
441.38	3222.92
441.57	3131.64
441.75	3272.07
441.94	3241.64
442.12	3192.49
442.31	3466.33
442.50	3283.77
442.68	3239.30
442.87	3239.30
443.05	3276.75
443.24	3400.80
443.43	3361.01
443.61	3503.78
443.80	3449.95
443.98	3307.18
444.17	3328.24
444.35	3262.71
444.54	3602.08
444.73	3438.25
444.91	3391.44
445.10	3541.23
445.28	3349.31
445.47	3344.63
445.65	3438.25
445.84	3424.20
446.02	3513.14
446.21	3440.59
446.39	3506.12
446.58	3726.13
446.77	3478.04
446.95	3344.63
447.14	3529.53
447.32	3517.83
447.51	3492.08
447.69	3480.38
447.88	3557.61
448.06	3548.25
448.25	3552.93
448.43	3531.87
448.62	3574.00
448.80	3545.91
448.99	3653.58
449.17	3576.34
449.36	3543.57
449.54	3611.45
449.73	3637.19
449.91	3770.60
450.10	3662.94
450.28	3688.68
450.46	3756.56
450.65	3606.77
450.83	3721.45
451.02	3695.71
451.20	3672.30
451.39	3730.81
451.57	3896.99
451.76	3651.24
451.94	3845.50
452.13	3803.37
452.31	3702.73
452.49	3754.22
452.68	3861.88
452.86	3939.12
453.05	3904.01
453.23	3978.91
453.42	3850.18
453.60	3805.71
453.78	3861.88
453.97	3840.82
454.15	3899.33
454.34	4009.34
454.52	4035.08
454.70	3941.46
454.89	4007.00
455.07	3918.06
455.26	4025.72
455.44	4140.41
455.62	4128.70
455.81	3976.57
455.99	4093.60
456.17	4149.77
456.36	4229.35
456.54	4194.24
456.73	4227.01
456.91	4238.71
457.09	4365.10
457.28	4376.80
457.46	4292.54
457.64	4545.32
457.83	4496.17
458.01	4381.48
458.19	4308.93
458.38	4390.84
458.56	4442.34
458.74	4313.61
458.93	4402.55
459.11	4559.36
459.29	4432.97
459.48	4416.59
459.66	4348.72
459.84	4524.26
460.03	4479.79
460.21	4423.61
460.39	4645.96
460.57	4561.70
460.76	4624.90
460.94	4650.64
461.12	4552.34
461.31	4702.14
461.49	4552.34
461.67	4641.28
461.85	4730.22
462.04	4725.54
462.22	4894.06
462.40	4624.90
462.59	4575.75
462.77	4849.59
462.95	4777.03
463.13	4727.88
463.32	4713.84
463.50	4812.14
463.68	4873.00
463.86	4770.01
464.05	4777.03
464.23	4791.08
464.41	4964.28
464.59	4833.21
464.78	4961.94
464.96	4901.08
465.14	4847.25
465.32	4959.60
465.50	4950.23
465.69	4947.89
465.87	4954.91
466.05	5057.90
466.23	5172.58
466.41	5165.56
466.60	5132.79
466.78	4971.30
466.96	5018.11
467.14	5041.51
467.32	5093.01
467.51	5036.83
467.69	4933.85
467.87	5013.43
468.05	5233.44
468.23	5167.90
468.41	4997.04
468.60	5214.71
468.78	5163.22
468.96	5198.33
469.14	5369.19
469.32	5305.99
469.50	5277.91
469.69	5465.15
469.87	5275.57
470.05	5469.83
470.23	5359.83
470.41	5394.93
470.59	5462.81
470.77	5458.13
470.95	5444.09
471.14	5561.11
471.32	5577.50
471.50	5675.80
471.68	5476.85
471.86	5671.12
472.04	5511.96
472.22	5652.39
472.40	5671.12
472.58	5823.25
472.77	5755.38
472.95	5717.93
473.13	6001.13
473.31	5935.60
473.49	5760.06
473.67	5935.60
473.85	5909.85
474.03	6094.76
474.21	5944.96
474.39	6015.18
474.57	6054.97
474.75	6097.10
474.93	6221.14
475.12	6099.44
475.30	6209.44
475.48	6183.70
475.66	6284.34
475.84	6277.32
476.02	6146.25
476.20	6326.47
476.38	6476.26
476.56	6668.19
476.74	6506.69
476.92	6590.95
477.10	6450.52
477.28	6724.36
477.46	6651.80
477.64	6565.20
477.82	6738.40
478.00	6745.42
478.18	6906.92
478.36	6930.33
478.54	7077.78
478.72	7045.01
478.90	7054.37
479.08	7129.27
479.26	7157.36
479.44	7332.90
479.62	7318.86
479.80	7454.61
479.98	7531.84
480.16	7681.64
480.34	7435.88
480.52	7625.47
480.70	7496.74
480.88	7667.60
481.06	7789.30
481.24	7847.82
481.41	7782.28
481.59	7988.25
481.77	7976.55
481.95	7995.27
482.13	8067.83
482.31	7939.10
482.49	8285.50
482.67	8449.33
482.85	8311.24
483.03	8393.16
483.21	8439.97
483.39	8589.77
483.57	8580.40
483.74	8557.00
483.92	8732.54
484.10	8699.77
484.28	9057.87
484.46	8844.88
484.64	9186.60
484.82	8917.44
485.00	9224.05
485.18	9364.48
485.35	9240.44
485.53	9324.69
485.71	9523.64
485.89	9734.29
486.07	9427.68
486.25	9654.71
486.43	9607.90
486.61	9750.67
486.78	9844.29
486.96	9785.78
487.14	10134.52
487.32	10101.75
487.50	10218.78
487.68	10115.80
487.85	10389.64
488.03	10544.11
488.21	10637.73
488.39	10452.83
488.57	10792.21
488.75	10810.93
488.92	10963.07
489.10	10846.04
489.28	11035.63
489.46	11080.10
489.64	11133.93
489.81	11309.47
489.99	11386.71
490.17	11513.10
490.35	11515.44
490.53	11447.56
490.70	11618.42
490.88	11672.25
491.06	11749.49
491.24	11948.43
491.41	11604.38
491.59	11796.30
491.77	12035.03
491.95	12255.04
492.13	12212.92
492.30	12336.96
492.48	12264.41
492.66	12318.24
492.84	12278.45
493.01	12599.10
493.19	12819.11
493.37	12741.88
493.54	12776.98
493.72	12973.59
493.90	12826.14
494.08	12982.95
494.25	12954.87
494.43	13099.98
494.61	13219.35
494.79	13549.36
494.96	13305.95
495.14	13509.57
495.32	13642.98
495.49	13348.08
495.67	13556.38
495.85	13774.05
496.02	13919.17
496.20	13757.67
496.38	13867.67
496.55	13706.18
496.73	14410.68
496.91	14033.85
497.09	14073.64
497.26	14513.66
497.44	14317.06
497.62	14193.01
497.79	14684.52
497.97	14668.14
498.14	14668.14
498.32	14850.70
498.50	14740.69
498.67	15061.35
498.85	14927.94
499.03	15096.46
499.20	15108.16
499.38	14696.22
499.56	15169.01
499.73	15220.50
499.91	15332.85
500.08	15477.96
500.26	15150.29
500.44	15321.15
500.61	15424.13
500.79	15515.41
500.97	15782.23
501.14	15719.04
501.32	15625.42
501.49	15719.04
501.67	15812.66
501.84	15932.03
502.02	15667.55
502.20	16102.89
502.37	16009.26
502.55	16325.24
502.72	16229.27
502.90	16063.10
503.07	16142.67
503.25	16404.81
503.43	16535.88
503.60	16360.34
503.78	16418.86
503.95	16669.30
504.13	16210.55
504.30	16781.64
504.48	16580.36
504.65	16849.52
504.83	16823.77
505.01	17214.64
505.18	17060.16
505.36	17027.40
505.53	17114.00
505.71	16903.35
505.88	17003.99
506.06	16975.91
506.23	17425.29
506.41	17158.47
506.58	17502.53
506.76	17453.37
506.93	17474.44
507.11	17362.09
507.28	17610.19
507.46	17502.53
507.63	17745.94
507.81	18192.98
507.98	17851.27
508.16	17750.62
508.33	18057.23
508.50	18118.09
508.68	18005.74
508.85	18043.19
509.03	17984.68
509.20	17907.44
509.38	18380.23
509.55	18071.28
509.73	18359.16
509.90	18457.46
510.08	18356.82
510.25	18176.60
510.42	18560.45
510.60	18757.05
510.77	18588.53
510.95	18630.66
511.12	18630.66
511.30	18595.56
511.47	18574.49
511.64	18806.20
511.82	18867.06
511.99	18998.13
512.17	18946.64
512.34	18728.97
512.51	19278.99
512.69	18960.68
512.86	19466.24
513.04	19391.34
513.21	19328.14
513.38	19690.93
513.56	19330.48
513.73	19452.19
513.90	19445.17
514.08	19634.75
514.25	19601.99
514.43	19784.55
514.60	19803.27
514.77	19737.74
514.95	19901.58
515.12	19770.51
515.29	19864.13
515.47	19822.00
515.64	19997.54
515.81	20100.52
515.99	19992.86
516.16	20196.48
516.33	20737.15
516.51	20222.23
516.68	20063.07
516.85	20360.32
517.03	20561.61
517.20	20311.17
517.37	20460.96
517.54	20608.42
517.72	20812.04
517.89	20603.74
518.06	20783.96
518.24	20472.67
518.41	20552.24
518.58	20734.81
518.75	20645.87
518.93	20851.83
519.10	20893.96
519.27	21057.80
519.45	21057.80
519.62	21261.43
519.79	20975.88
519.96	20915.03
520.14	21280.15
520.31	20917.37
520.48	21474.42
520.65	21188.87
520.83	21010.99
521.00	21132.70
521.17	21537.61
521.34	21469.73
521.52	21516.54
521.69	21558.67
521.86	21671.02
522.03	21876.99
522.20	21603.14
522.38	22008.06
522.55	21750.60
522.72	22017.42
522.89	21736.56
523.07	22071.25
523.24	22029.12
523.41	22073.59
523.58	22195.30
523.75	22230.41
523.92	21982.31
524.10	22305.31
524.27	22373.18
524.44	22293.60
524.61	22560.42
524.78	22415.31
524.96	22260.84
525.13	22649.36
525.30	22759.37
525.47	22574.47
525.64	22567.45
525.81	22810.86
525.98	22808.52
526.16	22967.68
526.33	22588.51
526.50	22855.33
526.67	22537.02
526.84	22611.92
527.01	22515.95
527.18	23431.10
527.36	23122.15
527.53	23204.07
527.70	23564.51
527.87	23278.97
528.04	23370.25
528.21	23351.52
528.38	23164.28
528.55	23400.68
528.72	23571.54
528.89	23496.64
529.07	23454.51
529.24	23129.17
529.41	23854.74
529.58	23742.39
529.75	23452.17
529.92	23559.83
530.09	23417.06
530.26	23527.06
530.43	23845.38
530.60	23611.32
530.77	23786.86
530.94	23955.38
531.11	23896.87
531.28	23447.49
531.46	23836.02
531.63	23983.47
531.80	23737.71
531.97	24006.87
532.14	24341.57
532.31	24107.52
532.48	24060.71
532.65	24261.99
532.82	24126.24
532.99	24149.65
533.16	23981.13
533.33	23892.19
533.50	24514.77
533.67	24166.03
533.84	24137.94
534.01	24411.79
534.18	24119.22
534.35	24926.71
534.52	24538.18
534.69	24538.18
534.86	24601.37
535.03	24739.46
535.20	24739.46
535.37	24697.33
535.54	24657.54
535.71	24678.61
535.88	24666.91
536.05	24865.85
536.22	24882.24
536.38	24737.12
536.55	24844.79
536.72	24968.84
536.89	24765.21
537.06	25015.65
537.23	25057.78
537.40	24999.26
537.57	25039.05
537.74	25209.91
537.91	25415.88
538.08	25401.83
538.25	25167.78
538.42	25518.86
538.59	25193.53
538.75	25046.07
538.92	25256.72
539.09	25113.95
539.26	25549.29
539.43	25474.39
539.60	25472.05
539.77	25729.51
539.94	25626.53
540.11	25373.75
540.28	25783.34
540.44	25762.28
540.61	25455.67
540.78	25376.09
540.95	25596.10
541.12	25701.42
541.29	25979.95
541.46	25734.19
541.62	25802.07
541.79	26026.76
541.96	25436.94
542.13	25743.55
542.30	25912.07
542.47	26256.13
542.63	26040.80
542.80	26204.64
542.97	26480.82
543.14	26394.22
543.31	26153.15
543.48	26579.12
543.64	26415.29
543.81	26675.09
543.98	26504.23
544.15	26544.02
544.32	26672.74
544.48	26801.47
544.65	26649.34
544.82	26448.05
544.99	26167.19
545.16	26632.96
545.32	26480.82
545.49	27042.55
545.66	26661.04
545.83	26927.86
546.00	26864.67
546.16	26757.00
546.33	26448.05
546.50	26338.05
546.67	26749.98
546.83	26305.28
547.00	26721.90
547.17	26888.07
547.34	27019.14
547.50	26906.80
547.67	27271.92
547.84	26815.52
548.00	27321.07
548.17	27477.89
548.34	27213.41
548.51	27192.34
548.67	27412.35
548.84	27487.25
549.01	27505.98
549.18	27056.59
549.34	27498.95
549.51	27197.02
549.68	27435.76
549.84	27080.00
550.01	27161.92
550.18	27140.85
550.34	27367.88
550.51	27110.43
550.68	27527.04
550.84	27515.34
551.01	27569.17
551.18	27285.97
551.34	27510.66
551.51	27580.87
551.68	27868.76
551.84	27693.22
552.01	27718.96
552.18	27772.80
552.34	27777.48
552.51	27917.91
552.68	28376.66
552.84	27821.95
553.01	27999.83
553.18	27665.13
553.34	28004.51
553.51	28102.81
553.67	28158.99
553.84	28077.07
554.01	27882.80
554.17	28226.86
554.34	28189.41
554.51	28091.11
554.67	28058.34
554.84	28133.24
555.00	27807.90
555.17	28060.68
555.33	28245.58
555.50	27709.60
555.67	28210.48
555.83	28259.63
556.00	28514.75
556.16	28650.50
556.33	28203.46
556.50	28123.88
556.66	28407.08
556.83	28250.27
556.99	28922.00
557.16	28460.91
557.32	28493.68
557.49	28601.35
557.65	28367.29
557.82	28334.53
557.98	28690.29
558.15	28098.13
558.32	28580.28
558.48	28371.97
558.65	28694.97
558.81	28315.80
558.98	28879.87
559.14	28402.40
559.31	28699.65
559.47	28341.55
559.64	28395.38
559.80	28861.15
559.97	28687.95
560.13	28788.59
560.30	28687.95
560.46	28767.52
560.63	28648.16
560.79	28809.65
560.96	28793.27
561.12	28568.58
561.29	28666.88
561.45	28737.10
561.61	28907.96
561.78	29032.00
561.94	28907.96
562.11	29181.80
562.27	28914.98
562.44	28912.64
562.60	28830.72
562.77	29071.79
562.93	28638.80
563.10	29418.19
563.26	28922.00
563.42	29130.31
563.59	29046.05
563.75	28826.04
563.92	29476.71
564.08	28926.68
564.24	29071.79
564.41	28896.25
564.57	29008.60
564.74	29010.94
564.90	29244.99
565.07	28835.40
565.23	29181.80
565.39	29008.60
565.56	29640.54
565.72	29188.82
565.88	29357.34
566.05	29113.92
566.21	28842.42
566.38	29111.58
566.54	29134.99
566.70	29621.82
566.87	29230.95
567.03	29170.10
567.19	29624.16
567.36	29111.58
567.52	29504.79
567.68	29420.53
567.85	29209.89
568.01	29172.44
568.17	29305.85
568.34	29556.28
568.50	29523.52
568.66	29514.16
568.83	29448.62
568.99	29575.01
569.15	29539.90
569.32	29289.46
569.48	29195.84
569.64	29305.85
569.81	29446.28
569.97	29600.76
570.13	29504.79
570.30	29446.28
570.46	29584.37
570.62	29324.57
570.78	29317.55
570.95	29439.26
571.11	29352.66
571.27	29041.37
571.43	29277.76
571.60	29710.76
571.76	29422.87
571.92	29467.34
572.09	29799.70
572.25	29596.07
572.41	29621.82
572.57	29694.38
572.74	29696.72
572.90	29357.34
573.06	29474.37
573.22	29514.16
573.38	29429.90
573.55	29647.57
573.71	30157.80
573.87	29947.15
574.03	29392.45
574.20	29439.26
574.36	29567.99
574.52	29273.08
574.68	29399.47
574.84	29748.21
575.01	29860.55
575.17	29869.92
575.33	29890.98
575.49	29436.92
575.65	29890.98
575.82	29701.40
575.98	29586.71
576.14	29537.56
576.30	29734.17
576.46	29472.03
576.62	29642.88
576.79	29617.14
576.95	29589.05
577.11	29799.70
577.27	30094.61
577.43	29752.89
577.59	29673.31
577.75	29830.13
577.92	29551.60
578.08	29668.63
578.24	29764.59
578.40	29998.65
578.56	29802.04
578.72	29610.12
578.88	30157.80
579.04	30228.02
579.21	29773.95
579.37	30082.91
579.53	29991.62
579.69	29544.58
579.85	29603.10
580.01	29699.06
580.17	29668.63
580.33	29734.17
580.49	29984.60
580.65	29811.40
580.82	30094.61
580.98	30043.12
581.14	30202.27
581.30	30057.16
581.46	29507.13
581.62	29598.41
581.78	29998.65
581.94	29755.23
582.10	29441.60
582.26	29544.58
582.42	30000.99
582.58	29930.77
582.74	29986.94
582.90	29860.55
583.06	29919.07
583.22	29886.30
583.38	29652.25
583.54	29830.13
583.70	29656.93
583.86	29659.27
584.02	30127.38
584.18	30099.29
584.34	29563.31
584.50	30281.85
584.66	29930.77
584.82	29689.70
584.98	30291.21
585.14	29853.53
585.30	29809.06
585.46	29834.81
585.62	29778.64
585.78	29764.59
585.94	29926.09
586.10	29979.92
586.26	30040.78
586.42	30223.34
586.58	30305.26
586.74	29490.75
586.90	29940.13
587.06	29654.59
587.22	30244.40
587.38	29895.66
587.54	30080.56
587.70	30309.94
587.86	30211.64
588.02	30244.40
588.18	30441.01
588.34	30052.48
588.49	30003.33
588.65	30059.50
588.81	30267.81
588.97	30029.07
589.13	30361.43
589.29	29923.75
589.45	30052.48
589.61	30078.22
589.77	30363.77
589.93	30192.91
590.08	30466.75
590.24	30274.83
590.40	30253.76
590.56	30492.50
590.72	30155.46
590.88	29930.77
591.04	30256.11
591.20	30417.60
591.35	30380.15
591.51	30579.10
591.67	30609.53
591.83	30218.66
591.99	30553.35
