SpectraSuite Data File
++++++++++++++++++++++++++++++++++++
Date: Fri Oct 18 13:57:56 GMT-05:00 2013
User: bianchi
Dark Spectrum Present: No
Reference Spectrum Present: No
Number of Sampled Component Spectra: 1
Spectrometers: USB2+H05261
Integration Time (usec): 50000 (USB2+H05261)
Spectra Averaged: 1 (USB2+H05261)
Boxcar Smoothing: 0 (USB2+H05261)
Correct for Electrical Dark: No (USB2+H05261)
Strobe/Lamp Enabled: No (USB2+H05261)
Correct for Detector Non-linearity: No (USB2+H05261)
Correct for Stray Light: No (USB2+H05261)
Number of Pixels in Processed Spectrum: 2048
>>>>>Begin Processed Spectral Data<<<<<
365.73	0.00
365.92	0.00
366.12	0.00
366.32	0.00
366.52	0.00
366.72	0.00
366.91	0.00
367.11	0.00
367.31	0.00
367.51	0.00
367.70	0.00
367.90	0.00
368.10	0.00
368.30	0.00
368.49	0.00
368.69	0.00
368.89	0.00
369.09	0.00
369.28	0.00
369.48	0.00
369.68	0.00
369.87	0.00
370.07	0.00
370.27	0.00
370.47	0.00
370.66	49.15
370.86	49.15
371.06	149.79
371.25	154.48
371.45	201.29
371.65	128.73
371.84	145.11
372.04	98.30
372.24	198.95
372.44	154.48
372.63	156.82
372.83	238.73
373.03	198.95
373.22	149.79
373.42	128.73
373.62	243.42
373.81	215.33
374.01	210.65
374.21	215.33
374.40	229.37
374.60	283.20
374.79	161.50
374.99	299.59
375.19	208.31
375.38	245.76
375.58	257.46
375.78	252.78
375.97	311.29
376.17	308.95
376.37	276.18
376.56	241.08
376.76	285.55
376.95	294.91
377.15	311.29
377.35	227.03
377.54	299.59
377.74	231.71
377.93	280.86
378.13	315.97
378.33	341.72
378.52	269.16
378.72	241.08
378.91	259.80
379.11	264.48
379.31	297.25
379.50	304.27
379.70	278.52
379.89	325.33
380.09	287.89
380.28	257.46
380.48	205.97
380.68	299.59
380.87	355.76
381.07	332.36
381.26	322.99
381.46	388.53
381.65	369.80
381.85	339.38
382.04	304.27
382.24	346.40
382.43	327.68
382.63	367.46
382.83	292.57
383.02	390.87
383.22	348.74
383.41	294.91
383.61	402.57
383.80	444.70
384.00	369.80
384.19	376.83
384.39	418.96
384.58	346.40
384.78	365.12
384.97	346.40
385.17	381.51
385.36	341.72
385.56	381.51
385.75	360.44
385.95	402.57
386.14	381.51
386.34	407.25
386.53	383.85
386.72	444.70
386.92	465.77
387.11	423.64
387.31	461.09
387.50	456.40
387.70	440.02
387.89	425.98
388.09	407.25
388.28	437.68
388.48	451.72
388.67	482.15
388.86	463.43
389.06	484.49
389.25	491.51
389.45	463.43
389.64	535.98
389.84	482.15
390.03	585.13
390.22	505.56
390.42	517.26
390.61	531.30
390.81	404.91
391.00	571.09
391.19	552.37
391.39	503.22
391.58	503.22
391.78	484.49
391.97	578.11
392.16	526.62
392.36	475.13
392.55	510.24
392.75	528.96
392.94	535.98
393.13	571.09
393.33	550.03
393.52	566.41
393.71	596.84
393.91	533.64
394.10	538.32
394.29	594.50
394.49	585.13
394.68	578.11
394.88	517.26
395.07	624.92
395.26	599.18
395.46	606.20
395.65	571.09
395.84	713.86
396.04	695.14
396.23	622.58
396.42	585.13
396.62	669.39
396.81	662.37
397.00	748.97
397.19	706.84
397.39	624.92
397.58	716.20
397.77	723.23
397.97	732.59
398.16	812.17
398.35	772.38
398.55	741.95
398.74	816.85
398.93	779.40
399.12	727.91
399.32	667.05
399.51	765.36
399.70	812.17
399.90	777.06
400.09	713.86
400.28	851.96
400.47	767.70
400.67	866.00
400.86	809.83
401.05	795.78
401.24	734.93
401.44	882.38
401.63	791.10
401.82	828.55
402.01	851.96
402.21	807.48
402.40	807.48
402.59	943.24
402.78	809.83
402.97	894.08
403.17	884.72
403.36	905.79
403.55	828.55
403.74	922.17
403.93	917.49
404.13	964.30
404.32	929.19
404.51	1011.11
404.70	908.13
404.89	945.58
405.09	1076.65
405.28	924.51
405.47	1055.58
405.66	1015.79
405.85	961.96
406.05	992.39
406.24	1053.24
406.43	1053.24
406.62	1004.09
406.81	1032.18
407.00	985.37
407.20	1088.35
407.39	1081.33
407.58	1081.33
407.77	1088.35
407.96	1104.73
408.15	1118.78
408.34	1081.33
408.54	1114.10
408.73	1121.12
408.92	1078.99
409.11	1107.07
409.30	1071.97
409.49	1193.67
409.68	1196.01
409.87	1153.88
410.07	1247.51
410.26	1210.06
410.45	1282.61
410.64	1242.82
410.83	1153.88
411.02	1240.48
411.21	1352.83
411.40	1280.27
411.59	1273.25
411.78	1252.19
411.98	1212.40
412.17	1343.47
412.36	1313.04
412.55	1343.47
412.74	1420.71
412.93	1451.13
413.12	1273.25
413.31	1472.20
413.50	1376.24
413.69	1453.47
413.88	1495.60
414.07	1448.79
414.26	1423.05
414.45	1423.05
414.64	1460.49
414.83	1542.41
415.02	1462.83
415.22	1511.99
415.41	1643.06
415.60	1675.82
415.79	1600.93
415.98	1582.20
416.17	1629.01
416.36	1631.35
416.55	1675.82
416.74	1671.14
416.93	1755.40
417.12	1727.32
417.31	1643.06
417.50	1792.85
417.69	1816.26
417.88	1781.15
418.07	1816.26
418.26	1877.11
418.45	1886.47
418.64	1900.52
418.83	1898.17
419.02	1760.08
419.21	1832.64
419.39	1834.98
419.58	1816.26
419.77	1858.39
419.96	1832.64
420.15	1877.11
420.34	1842.00
420.53	1933.28
420.72	1975.41
420.91	2038.61
421.10	1930.94
421.29	1998.82
421.48	1989.46
421.67	2010.52
421.86	2071.37
422.05	2073.71
422.24	2214.15
422.43	1909.88
422.61	1970.73
422.80	2057.33
422.99	2029.24
423.18	2073.71
423.37	2174.36
423.56	2087.76
423.75	2064.35
423.94	2150.95
424.13	1905.20
424.32	2022.22
424.50	2052.65
424.69	2146.27
424.88	2085.42
425.07	2019.88
425.26	1989.46
425.45	2106.48
425.64	2129.89
425.83	2200.10
426.01	2108.82
426.20	2174.36
426.39	2132.23
426.58	2214.15
426.77	2092.44
426.96	2190.74
427.15	1984.77
427.33	2143.93
427.52	2200.10
427.71	2209.47
427.90	2267.98
428.09	2150.95
428.28	2200.10
428.46	2244.57
428.65	2214.15
428.84	2279.68
429.03	2335.85
429.22	2258.62
429.40	2399.05
429.59	2298.41
429.78	2239.89
429.97	2174.36
430.16	2258.62
430.34	2296.07
430.53	2296.07
430.72	2394.37
430.91	2431.82
431.10	2345.22
431.28	2422.45
431.47	2473.95
431.66	2382.67
431.85	2448.20
432.03	2544.16
432.22	2520.76
432.41	2513.74
432.60	2431.82
432.79	2403.73
432.97	2509.05
433.16	2506.71
433.35	2588.63
433.54	2504.37
433.72	2537.14
433.91	2590.97
434.10	2684.59
434.28	2525.44
434.47	2630.76
434.66	2595.65
434.85	2771.19
435.03	2677.57
435.22	2560.55
435.41	2736.09
435.59	2705.66
435.78	2715.02
435.97	2619.06
436.16	2710.34
436.34	2752.47
436.53	2729.06
436.72	2897.58
436.90	2626.08
437.09	2787.58
437.28	2799.28
437.46	2752.47
437.65	2857.79
437.84	2766.51
438.02	2818.00
438.21	2860.13
438.40	2761.83
438.58	2841.41
438.77	2883.54
438.96	2995.89
439.14	3054.40
439.33	2963.12
439.52	3066.10
439.70	3047.38
439.89	3108.23
440.08	3033.33
440.26	3185.47
440.45	3117.59
440.63	3117.59
440.82	3222.92
441.01	3143.34
441.19	3038.02
441.38	3410.16
441.57	3248.66
441.75	3239.30
441.94	3309.52
442.12	3372.71
442.31	3487.40
442.50	3510.80
442.68	3349.31
442.87	3253.34
443.05	3461.65
443.24	3431.23
443.43	3433.57
443.61	3447.61
443.80	3599.74
443.98	3452.29
444.17	3281.43
444.35	3538.89
444.54	3557.61
444.73	3618.47
444.91	3466.33
445.10	3522.51
445.28	3571.66
445.47	3447.61
445.65	3515.48
445.84	3447.61
446.02	3545.91
446.21	3501.44
446.39	3562.30
446.58	3611.45
446.77	3581.02
446.95	3517.83
447.14	3599.74
447.32	3658.26
447.51	3536.55
447.69	3648.90
447.88	3571.66
448.06	3599.74
448.25	3693.37
448.43	3709.75
448.62	3667.62
448.80	3796.35
448.99	3646.55
449.17	3620.81
449.36	3674.64
449.54	3794.01
449.73	3843.16
449.91	3695.71
450.10	3658.26
450.28	3829.12
450.46	3840.82
450.65	3953.16
450.83	3843.16
451.02	3859.54
451.20	3964.87
451.39	3960.19
451.57	3995.29
451.76	3941.46
451.94	3929.76
452.13	4109.98
452.31	3985.93
452.49	3864.22
452.68	3932.10
452.86	3899.33
453.05	4011.68
453.23	3971.89
453.42	4025.72
453.60	4131.05
453.78	4044.45
453.97	3962.53
454.15	4051.47
454.34	3978.91
454.52	3990.61
454.70	4124.02
454.89	4037.42
455.07	4014.02
455.26	4205.94
455.44	4362.76
455.62	4100.62
455.81	4285.52
455.99	4180.20
456.17	4161.47
456.36	4283.18
456.54	4241.05
456.73	4308.93
456.91	4334.67
457.09	4447.02
457.28	4535.96
457.46	4418.93
457.64	4339.35
457.83	4432.97
458.01	4411.91
458.19	4681.07
458.38	4554.68
458.56	4554.68
458.74	4650.64
458.93	4456.38
459.11	4533.62
459.29	4613.20
459.48	4716.18
459.66	4624.90
459.84	4652.98
460.03	4844.91
460.21	4798.10
460.39	4648.30
460.57	4699.80
460.76	4781.71
460.94	4816.82
461.12	4940.87
461.31	4697.46
461.49	4664.69
461.67	4683.41
461.85	4844.91
462.04	4915.12
462.22	5034.49
462.40	4961.94
462.59	4938.53
462.77	4901.08
462.95	4842.57
463.13	4896.40
463.32	4870.65
463.50	4875.34
463.68	5004.07
463.86	4933.85
464.05	4973.64
464.23	5034.49
464.41	5085.98
464.59	4833.21
464.78	5111.73
464.96	5043.85
465.14	5036.83
465.32	5085.98
465.50	5245.14
465.69	5205.35
465.87	5188.97
466.05	5174.92
466.23	5081.30
466.41	5193.65
466.60	5439.40
466.78	5275.57
466.96	5233.44
467.14	5137.48
467.32	5291.95
467.51	5451.11
467.69	5151.52
467.87	5378.55
468.05	5324.72
468.23	5231.10
468.41	5226.42
468.60	5252.16
468.78	5366.85
468.96	5247.48
469.14	5359.83
469.32	5493.24
469.50	5364.51
469.69	5551.75
469.87	5551.75
470.05	5591.54
470.23	5664.10
470.41	5614.95
470.59	5692.18
470.77	5565.79
470.95	5619.63
471.14	5863.04
471.32	5666.44
471.50	5818.57
471.68	5703.89
471.86	5603.24
472.04	5947.30
472.22	5895.81
472.40	5795.17
472.58	5865.38
472.77	5846.66
472.95	5949.64
473.13	6279.66
473.31	5827.93
473.49	6052.63
473.67	5973.05
473.85	6186.04
474.03	6274.98
474.21	6258.59
474.39	6190.72
474.57	6317.11
474.75	6363.92
474.93	6443.49
475.12	6349.87
475.30	6480.94
475.48	6258.59
475.66	6265.61
475.84	6427.11
476.02	6633.08
476.20	6745.42
476.38	6516.05
476.56	6738.40
476.74	6757.13
476.92	6733.72
477.10	6532.44
477.28	6813.30
477.46	6787.55
477.64	6773.51
477.82	7059.06
478.00	7323.54
478.18	7155.02
478.36	7211.19
478.54	7236.94
478.72	7321.20
478.90	7541.21
479.08	7375.03
479.26	7365.67
479.44	7405.46
479.62	7744.83
479.80	7419.50
479.98	7597.38
480.16	7648.87
480.34	7756.54
480.52	7922.71
480.70	7791.64
480.88	7777.60
481.06	7861.86
481.24	7974.21
481.41	8002.29
481.59	8182.51
481.77	8238.69
481.95	8442.31
482.13	8353.37
482.31	8329.97
482.49	8491.46
482.67	8386.14
482.85	8451.67
483.03	8683.39
483.21	9048.51
483.39	8926.80
483.57	8849.57
483.74	8987.66
483.92	8971.27
484.10	8912.76
484.28	8997.02
484.46	9259.16
484.64	9451.08
484.82	9371.50
485.00	9130.43
485.18	9523.64
485.35	9661.73
485.53	9743.65
485.71	9865.36
485.89	9877.06
486.07	9872.38
486.25	9888.76
486.43	9998.77
486.61	10066.64
486.78	10214.10
486.96	10410.70
487.14	10473.90
487.32	10361.55
487.50	10532.41
487.68	10576.88
487.85	10644.76
488.03	10710.29
488.21	11082.44
488.39	10808.59
488.57	10995.84
488.75	10956.05
488.92	11447.56
489.10	11311.81
489.28	11384.37
489.46	11536.50
489.64	11274.36
489.81	11658.21
489.99	11868.86
490.17	11730.76
490.35	11700.34
490.53	11800.98
490.70	12006.95
490.88	11941.41
491.06	11889.92
491.24	12039.72
491.41	11990.56
491.59	12449.31
491.77	12556.97
491.95	12599.10
492.13	12432.93
492.30	12746.56
492.48	12725.49
492.66	12561.66
492.84	12915.08
493.01	12863.58
493.19	13142.11
493.37	13453.40
493.54	13217.01
493.72	13303.60
493.90	13327.01
494.08	13544.68
494.25	13561.06
494.43	13790.44
494.61	13848.95
494.79	13598.51
494.96	13862.99
495.14	14015.13
495.32	13851.29
495.49	13874.70
495.67	14223.44
495.85	14265.57
496.02	14499.62
496.20	14331.10
496.38	14384.93
496.55	14401.32
496.73	14630.69
496.91	14684.52
497.09	14808.57
497.26	14974.75
497.44	14831.97
497.62	14787.50
497.79	14878.79
497.97	15014.54
498.14	15330.51
498.32	15449.88
498.50	15337.53
498.67	15393.70
498.85	15723.72
499.03	15499.03
499.20	15527.11
499.38	15611.37
499.56	15625.42
499.73	15641.80
499.91	15793.94
500.08	15749.46
500.26	15927.35
500.44	16027.99
500.61	15967.13
500.79	16217.57
500.97	16470.35
501.14	16386.09
501.32	16453.97
501.49	16149.70
501.67	16374.39
501.84	16521.84
502.02	16460.99
502.20	16718.45
502.37	16891.65
502.55	16706.74
502.72	16610.78
502.90	16706.74
503.07	16711.42
503.25	16601.42
503.43	16655.25
503.60	17128.04
503.78	17153.79
503.95	17022.72
504.13	17062.51
504.30	17254.43
504.48	17153.79
504.65	17350.39
504.83	17572.74
505.01	17830.20
505.18	17476.78
505.36	17584.44
505.53	17451.03
505.71	17734.24
505.88	17645.30
506.06	17448.69
506.23	17958.93
506.41	17659.34
506.58	18244.48
506.76	18347.46
506.93	18001.06
507.11	17886.37
507.28	18204.69
507.46	18305.33
507.63	18417.68
507.81	18480.87
507.98	18314.69
508.16	18530.02
508.33	18450.44
508.50	18424.70
508.68	18689.18
508.85	18750.03
509.03	18492.57
509.20	18913.87
509.38	19239.20
509.55	18958.34
509.73	19154.94
509.90	19316.44
510.08	19171.33
510.25	19234.52
510.42	19112.81
510.60	19225.16
510.77	19571.56
510.95	19328.14
511.12	19520.07
511.30	19087.07
511.47	19463.90
511.64	19246.23
511.82	19817.32
511.99	19807.95
512.17	19585.60
512.34	19578.58
512.51	19697.95
512.69	19953.07
512.86	19709.65
513.04	20023.28
513.21	20205.84
513.38	19985.83
513.56	19978.81
513.73	19859.45
513.90	20009.24
514.08	20210.53
514.25	20098.18
514.43	20472.67
514.60	20360.32
514.77	20229.25
514.95	20805.02
515.12	20372.02
515.29	20418.83
515.47	20788.64
515.64	20713.74
515.81	20538.20
515.99	21120.99
516.16	21095.25
516.33	21139.72
516.51	21027.37
516.68	20996.95
516.85	21050.78
517.03	21273.13
517.20	21310.58
517.37	21355.05
517.54	21509.52
517.72	21266.11
517.89	21231.00
518.06	21170.15
518.24	21551.65
518.41	21490.80
518.58	21479.10
518.75	21317.60
518.93	21743.58
519.10	21591.44
519.27	21736.56
519.45	21631.23
519.62	21954.22
519.79	21666.34
519.96	21944.86
520.14	22005.72
520.31	21743.58
520.48	22033.80
520.65	22160.19
520.83	21668.68
521.00	22328.71
521.17	22464.46
521.34	22169.55
521.52	22317.01
521.69	22263.18
521.86	22459.78
522.03	22731.28
522.20	22551.06
522.38	22539.36
522.55	22326.37
522.72	22504.25
522.89	22675.11
523.07	22867.03
523.24	22827.24
523.41	23061.30
523.58	22572.13
523.75	22822.56
523.92	22965.34
524.10	22897.46
524.27	22988.74
524.44	23307.05
524.61	22967.68
524.78	23468.55
524.96	23295.35
525.13	23101.09
525.30	23323.44
525.47	23384.29
525.64	23222.80
525.81	23477.91
525.98	23648.77
526.16	23527.06
526.33	23683.88
526.50	23826.65
526.67	23438.12
526.84	23601.96
527.01	23646.43
527.18	23800.91
527.36	23763.46
527.53	24095.82
527.70	24245.61
527.87	24229.23
528.04	23819.63
528.21	24093.47
528.38	23934.32
528.55	24128.58
528.72	24041.98
528.89	24608.39
529.07	24280.72
529.24	23920.28
529.41	24336.89
529.58	24140.29
529.75	24280.72
529.92	24456.26
530.09	24671.59
530.26	24250.29
530.43	24753.51
530.60	24896.28
530.77	24535.84
530.94	24753.51
531.11	24692.65
531.28	24451.58
531.46	24900.96
531.63	24959.47
531.80	24800.32
531.97	25362.04
532.14	24713.72
532.31	24833.08
532.48	25046.07
532.65	25172.46
532.82	25025.01
532.99	25085.86
533.16	24819.04
533.33	25483.75
533.50	25167.78
533.67	25441.62
533.84	25046.07
534.01	25207.57
534.18	25006.28
534.35	25518.86
534.52	25387.79
534.69	25591.42
534.86	25867.60
535.03	25252.04
535.20	25818.45
535.37	25668.66
535.54	25876.96
535.71	25242.68
535.88	25502.48
536.05	25776.32
536.22	25738.87
536.38	25530.56
536.55	26045.48
536.72	25996.33
536.89	25907.39
537.06	25898.03
537.23	26106.34
537.40	25752.91
537.57	25802.07
537.74	25837.17
537.91	26153.15
538.08	26164.85
538.25	26324.01
538.42	26143.78
538.59	26405.92
538.75	26141.44
538.92	26087.61
539.09	26473.80
539.26	26363.79
539.43	26534.65
539.60	26492.52
539.77	26078.25
539.94	26586.15
540.11	26302.94
540.28	26260.81
540.44	26333.37
540.61	26698.49
540.78	26527.63
540.95	26466.78
541.12	26698.49
541.29	26721.90
541.46	26642.32
541.62	26579.12
541.79	26827.22
541.96	26581.46
542.13	26408.26
542.30	27033.19
542.47	26993.40
542.63	27227.45
542.80	27325.75
542.97	27213.41
543.14	27255.54
543.31	27316.39
543.48	27285.97
543.64	27550.45
543.81	27620.66
543.98	27510.66
544.15	27761.09
544.32	27576.19
544.48	27770.46
544.65	27342.14
544.82	27805.56
544.99	27358.52
545.16	27625.34
545.32	27267.24
545.49	27761.09
545.66	27545.76
545.83	27887.48
546.00	27927.27
546.16	27999.83
546.33	27482.57
546.50	27264.90
546.67	27594.92
546.83	27618.32
547.00	28168.35
547.17	27765.78
547.34	27793.86
547.50	27917.91
547.67	28238.56
547.84	27812.59
548.00	28240.90
548.17	28133.24
548.34	28215.16
548.51	28299.42
548.67	28135.58
548.84	28217.50
549.01	28369.63
549.18	28196.43
549.34	28484.32
549.51	28481.98
549.68	28348.57
549.84	28100.47
550.01	28800.29
550.18	28404.74
550.34	28542.83
550.51	28486.66
550.68	28666.88
550.84	28332.18
551.01	28526.45
551.18	28442.19
551.34	28348.57
551.51	28524.11
551.68	28524.11
551.84	28879.87
552.01	28666.88
552.18	28648.16
552.34	28210.48
552.51	28982.85
552.68	28580.28
552.84	28704.33
553.01	28697.31
553.18	28624.75
553.34	29179.46
553.51	28929.02
553.67	29003.92
553.84	29181.80
554.01	29212.23
554.17	29113.92
554.34	29090.52
554.51	28804.97
554.67	29139.67
554.84	29099.88
555.00	29160.73
555.17	29357.34
555.33	29303.51
555.50	28994.56
555.67	29076.48
555.83	29041.37
556.00	29261.38
556.16	29612.46
556.33	29053.07
556.50	29338.62
556.66	29291.80
556.83	29401.81
556.99	29589.05
557.16	29525.86
557.32	29633.52
557.49	29862.90
557.65	29378.40
557.82	29600.76
557.98	29776.30
558.15	29418.19
558.32	29865.24
558.48	29336.27
558.65	29947.15
558.81	29497.77
558.98	30115.67
559.14	29818.42
559.31	29935.45
559.47	29614.80
559.64	29706.08
559.80	30064.18
559.97	30176.53
560.13	29441.60
560.30	29757.57
560.46	30092.27
560.63	29617.14
560.79	29989.28
560.96	30267.81
561.12	30064.18
561.29	29612.46
561.45	29930.77
561.61	29928.43
561.78	30363.77
561.94	30132.06
562.11	30206.95
562.27	30141.42
562.44	29886.30
562.60	29940.13
562.77	30209.29
562.93	29886.30
563.10	30436.33
563.26	29923.75
563.42	30499.52
563.59	30235.04
563.75	30398.88
563.92	30480.80
564.08	29991.62
564.24	30092.27
564.41	29982.26
564.57	30265.47
564.74	29912.05
564.90	30422.28
565.07	30340.36
565.23	30810.81
565.39	30059.50
565.56	30525.27
565.72	30323.98
565.88	30213.98
566.05	29930.77
566.21	30405.90
566.38	30085.25
566.54	30188.23
566.70	30562.72
566.87	30609.53
567.03	30298.23
567.19	30401.22
567.36	30789.75
567.52	30480.80
567.68	30602.50
567.85	30359.09
568.01	30735.92
568.17	30705.49
568.34	30611.87
568.50	30740.60
568.66	30785.07
568.83	30529.95
568.99	30567.40
569.15	30405.90
569.32	30508.88
569.48	30373.13
569.64	30380.15
569.81	30742.94
569.97	30611.87
570.13	30852.94
570.30	30658.68
570.46	30984.01
570.62	30616.55
570.78	30724.21
570.95	30361.43
571.11	30302.92
571.27	30597.82
571.43	30646.97
571.60	30665.70
571.76	30689.10
571.92	30267.81
572.09	30548.67
572.25	31007.42
572.41	30817.83
572.57	30726.55
572.74	30897.41
572.90	30703.15
573.06	30363.77
573.22	30457.39
573.38	30773.36
573.55	30925.50
573.71	30897.41
573.87	30953.58
574.03	30944.22
574.20	30782.73
574.36	30913.80
574.52	31068.27
574.68	31063.59
574.84	30991.03
575.01	30838.90
575.17	30782.73
575.33	30981.67
575.49	30621.23
575.65	30857.62
575.82	30654.00
575.98	30810.81
576.14	30960.61
576.30	30934.86
576.46	30700.81
576.62	30927.84
576.79	30728.89
576.95	30607.19
577.11	30960.61
577.27	31147.85
577.43	30918.48
577.59	31295.30
577.75	30864.64
577.92	30195.25
578.08	30845.92
578.24	30998.06
578.40	31103.38
578.56	31173.60
578.72	30944.22
578.88	31002.74
579.04	31672.13
579.21	31189.98
579.37	31105.72
579.53	31110.40
579.69	30621.23
579.85	31178.28
580.01	31229.77
580.17	30665.70
580.33	30946.56
580.49	30888.05
580.65	30986.35
580.82	31475.52
580.98	31145.51
581.14	31360.84
581.30	31218.07
581.46	30934.86
581.62	30895.07
581.78	30658.68
581.94	31201.68
582.10	31215.72
582.26	31218.07
582.42	30806.13
582.58	31386.58
582.74	31417.01
582.90	30918.48
583.06	31110.40
583.22	31063.59
583.38	30780.39
583.54	30918.48
583.70	31292.96
583.86	30782.73
584.02	31122.10
584.18	31250.83
584.34	31309.35
584.50	31384.24
584.66	31330.41
584.82	30801.45
584.98	31227.43
585.14	31222.75
585.30	30766.34
585.46	31189.98
585.62	30874.01
585.78	31346.79
585.94	30927.84
586.10	31077.63
586.26	31253.17
586.42	31459.14
586.58	31550.42
586.74	31264.88
586.90	30998.06
587.06	31138.49
587.22	31276.58
587.38	31407.65
587.54	31290.62
587.70	31248.49
587.86	31676.81
588.02	31351.48
588.18	31496.59
588.34	31264.88
588.49	31124.44
588.65	31225.09
588.81	31143.17
588.97	31189.98
589.13	31590.21
589.29	31524.68
589.45	31395.95
589.61	31992.78
589.77	31505.95
589.93	31557.44
590.08	31747.03
590.24	31257.85
590.40	31608.93
590.56	31651.06
590.72	31761.07
590.88	31405.31
591.04	31154.87
591.20	31402.97
591.35	31732.98
591.51	31721.28
591.67	31864.05
591.83	31672.13
