SpectraSuite Data File
++++++++++++++++++++++++++++++++++++
Date: Fri Oct 18 13:58:09 GMT-05:00 2013
User: bianchi
Dark Spectrum Present: No
Reference Spectrum Present: No
Number of Sampled Component Spectra: 1
Spectrometers: USB2+H05261
Integration Time (usec): 50000 (USB2+H05261)
Spectra Averaged: 1 (USB2+H05261)
Boxcar Smoothing: 0 (USB2+H05261)
Correct for Electrical Dark: No (USB2+H05261)
Strobe/Lamp Enabled: No (USB2+H05261)
Correct for Detector Non-linearity: No (USB2+H05261)
Correct for Stray Light: No (USB2+H05261)
Number of Pixels in Processed Spectrum: 2048
>>>>>Begin Processed Spectral Data<<<<<
365.73	0.00
365.92	0.00
366.12	0.00
366.32	0.00
366.52	0.00
366.72	0.00
366.91	0.00
367.11	0.00
367.31	0.00
367.51	0.00
367.70	0.00
367.90	0.00
368.10	0.00
368.30	0.00
368.49	0.00
368.69	0.00
368.89	0.00
369.09	0.00
369.28	0.00
369.48	0.00
369.68	0.00
369.87	0.00
370.07	0.00
370.27	0.00
370.47	0.00
370.66	72.56
370.86	91.28
371.06	107.66
371.25	133.41
371.45	121.71
371.65	198.95
371.84	238.73
372.04	121.71
372.24	177.88
372.44	145.11
372.63	163.84
372.83	264.48
373.03	252.78
373.22	262.14
373.42	217.67
373.62	180.22
373.81	220.01
374.01	194.26
374.21	257.46
374.40	222.35
374.60	184.90
374.79	262.14
374.99	222.35
375.19	248.10
375.38	133.41
375.58	255.12
375.78	208.31
375.97	271.50
376.17	315.97
376.37	315.97
376.56	248.10
376.76	212.99
376.95	217.67
377.15	184.90
377.35	217.67
377.54	290.23
377.74	304.27
377.93	220.01
378.13	334.70
378.33	220.01
378.52	191.92
378.72	266.82
378.91	292.57
379.11	313.63
379.31	255.12
379.50	196.60
379.70	294.91
379.89	252.78
380.09	322.99
380.28	313.63
380.48	292.57
380.68	290.23
380.87	304.27
381.07	259.80
381.26	318.31
381.46	311.29
381.65	285.55
381.85	299.59
382.04	386.19
382.24	367.46
382.43	327.68
382.63	351.08
382.83	376.83
383.02	358.10
383.22	341.72
383.41	369.80
383.61	344.06
383.80	414.27
384.00	374.49
384.19	383.85
384.39	435.34
384.58	421.30
384.78	461.09
384.97	376.83
385.17	360.44
385.36	416.62
385.56	393.21
385.75	374.49
385.95	388.53
386.14	496.19
386.34	332.36
386.53	465.77
386.72	447.04
386.92	409.59
387.11	435.34
387.31	430.66
387.50	374.49
387.70	409.59
387.89	383.85
388.09	409.59
388.28	414.27
388.48	428.32
388.67	491.51
388.86	491.51
389.06	528.96
389.25	514.92
389.45	566.41
389.64	472.79
389.84	547.69
390.03	479.81
390.22	463.43
390.42	468.11
390.61	498.53
390.81	447.04
391.00	557.05
391.19	489.17
391.39	498.53
391.58	528.96
391.78	498.53
391.97	486.83
392.16	442.36
392.36	505.56
392.55	564.07
392.75	552.37
392.94	603.86
393.13	535.98
393.33	554.71
393.52	482.15
393.71	514.92
393.91	571.09
394.10	535.98
394.29	547.69
394.49	559.39
394.68	538.32
394.88	664.71
395.07	660.03
395.26	566.41
395.46	610.88
395.65	575.77
395.84	638.97
396.04	713.86
396.23	664.71
396.42	641.31
396.62	617.90
396.81	688.12
397.00	709.18
397.19	690.46
397.39	678.76
397.58	681.10
397.77	662.37
397.97	702.16
398.16	711.52
398.35	674.07
398.55	627.26
398.74	748.97
398.93	732.59
399.12	713.86
399.32	727.91
399.51	706.84
399.70	758.33
399.90	748.97
400.09	748.97
400.28	760.67
400.47	716.20
400.67	774.72
400.86	774.72
401.05	697.48
401.24	718.54
401.44	777.06
401.63	706.84
401.82	823.87
402.01	809.83
402.21	826.21
402.40	805.14
402.59	833.23
402.78	894.08
402.97	915.15
403.17	894.08
403.36	929.19
403.55	889.40
403.74	877.70
403.93	917.49
404.13	894.08
404.32	877.70
404.51	950.26
404.70	924.51
404.89	912.81
405.09	908.13
405.28	936.21
405.47	943.24
405.66	961.96
405.85	1029.84
406.05	992.39
406.24	1022.81
406.43	1013.45
406.62	1015.79
406.81	990.05
407.00	985.37
407.20	1046.22
407.39	1004.09
407.58	1149.20
407.77	1067.28
407.96	1135.16
408.15	1128.14
408.34	1062.60
408.54	971.32
408.73	1071.97
408.92	1121.12
409.11	1172.61
409.30	1186.65
409.49	1111.75
409.68	1205.38
409.87	1231.12
410.07	1249.85
410.26	1198.35
410.45	1165.59
410.64	1240.48
410.83	1203.04
411.02	1303.68
411.21	1336.45
411.40	1188.99
411.59	1221.76
411.78	1287.29
411.98	1289.64
412.17	1329.42
412.36	1277.93
412.55	1416.02
412.74	1409.00
412.93	1437.09
413.12	1444.11
413.31	1413.68
413.50	1387.94
413.69	1437.09
413.88	1516.67
414.07	1451.13
414.26	1500.28
414.45	1514.33
414.64	1554.12
414.83	1476.88
415.02	1481.56
415.22	1495.60
415.41	1621.99
415.60	1572.84
415.79	1603.27
415.98	1556.46
416.17	1591.56
416.36	1514.33
416.55	1645.40
416.74	1685.19
416.93	1673.48
417.12	1692.21
417.31	1652.42
417.50	1734.34
417.69	1797.53
417.88	1722.63
418.07	1729.66
418.26	1717.95
418.45	1753.06
418.64	1739.02
418.83	1820.94
419.02	1769.44
419.21	1839.66
419.39	1912.22
419.58	1748.38
419.77	1952.01
419.96	1771.79
420.15	1877.11
420.34	1921.58
420.53	1870.09
420.72	1933.28
420.91	1963.71
421.10	1956.69
421.29	1998.82
421.48	1919.24
421.67	1907.54
421.86	1959.03
422.05	2029.24
422.24	1921.58
422.43	2005.84
422.61	1987.11
422.80	2043.29
422.99	2022.22
423.18	2005.84
423.37	2047.97
423.56	2036.27
423.75	1994.14
423.94	2085.42
424.13	1877.11
424.32	1940.30
424.50	2200.10
424.69	2122.87
424.88	2176.70
425.07	1989.46
425.26	1994.14
425.45	2071.37
425.64	2073.71
425.83	1996.48
426.01	2092.44
426.20	1982.43
426.39	2045.63
426.58	2069.03
426.77	2174.36
426.96	2132.23
427.15	2066.69
427.33	2157.97
427.52	2101.80
427.71	2069.03
427.90	2134.57
428.09	2160.31
428.28	2174.36
428.46	2160.31
428.65	2260.96
428.84	2314.79
429.03	2331.17
429.22	2216.49
429.40	2314.79
429.59	2291.38
429.78	2207.13
429.97	2275.00
430.16	2218.83
430.34	2263.30
430.53	2244.57
430.72	2406.07
430.91	2408.41
431.10	2216.49
431.28	2504.37
431.47	2415.43
431.66	2366.28
431.85	2392.03
432.03	2389.69
432.22	2469.27
432.41	2338.20
432.60	2499.69
432.79	2333.51
432.97	2387.35
433.16	2464.58
433.35	2485.65
433.54	2583.95
433.72	2523.10
433.91	2581.61
434.10	2698.64
434.28	2487.99
434.47	2530.12
434.66	2583.95
434.85	2534.80
435.03	2710.34
435.22	2654.17
435.41	2724.38
435.59	2715.02
435.78	2703.32
435.97	2686.94
436.16	2661.19
436.34	2689.28
436.53	2745.45
436.72	2832.05
436.90	2696.30
437.09	2731.41
437.28	2513.74
437.46	2745.45
437.65	2708.00
437.84	2785.24
438.02	2700.98
438.21	2803.96
438.40	2757.15
438.58	2963.12
438.77	2888.22
438.96	2864.82
439.14	3021.63
439.33	3068.44
439.52	3019.29
439.70	2960.78
439.89	3068.44
440.08	3047.38
440.26	3117.59
440.45	3159.72
440.63	3112.91
440.82	3194.83
441.01	3126.96
441.19	3185.47
441.38	3318.88
441.57	3349.31
441.75	3311.86
441.94	3311.86
442.12	3351.65
442.31	3293.13
442.50	3379.73
442.68	3323.56
442.87	3489.74
443.05	3489.74
443.24	3410.16
443.43	3353.99
443.61	3421.86
443.80	3634.85
443.98	3384.41
444.17	3431.23
444.35	3400.80
444.54	3662.94
444.73	3522.51
444.91	3365.69
445.10	3562.30
445.28	3459.31
445.47	3309.52
445.65	3403.14
445.84	3503.78
446.02	3562.30
446.21	3475.70
446.39	3499.10
446.58	3571.66
446.77	3522.51
446.95	3456.97
447.14	3625.49
447.32	3545.91
447.51	3597.40
447.69	3543.57
447.88	3665.28
448.06	3541.23
448.25	3585.70
448.43	3602.08
448.62	3508.46
448.80	3604.42
448.99	3658.26
449.17	3468.67
449.36	3487.40
449.54	3714.43
449.73	3644.21
449.91	3714.43
450.10	3700.39
450.28	3882.95
450.46	3719.11
450.65	3866.56
450.83	3941.46
451.02	3702.73
451.20	3826.78
451.39	3957.85
451.57	3822.09
451.76	3943.80
451.94	3845.50
452.13	3777.62
452.31	3920.40
452.49	3744.86
452.68	3758.90
452.86	3906.35
453.05	3833.80
453.23	3847.84
453.42	4004.66
453.60	3871.25
453.78	4051.47
453.97	3866.56
454.15	4004.66
454.34	3988.27
454.52	4060.83
454.70	4109.98
454.89	4117.00
455.07	4175.52
455.26	4102.96
455.44	4032.74
455.62	4107.64
455.81	4191.90
455.99	4205.94
456.17	4093.60
456.36	4320.63
456.54	4287.86
456.73	4344.03
456.91	4491.49
457.09	4510.21
457.28	4407.23
457.46	4306.59
457.64	4383.82
457.83	4496.17
458.01	4376.80
458.19	4748.95
458.38	4479.79
458.56	4498.51
458.74	4379.14
458.93	4542.98
459.11	4470.42
459.29	4404.89
459.48	4531.28
459.66	4540.64
459.84	4528.94
460.03	4493.83
460.21	4514.89
460.39	4545.32
460.57	4542.98
460.76	4634.26
460.94	4655.33
461.12	4650.64
461.31	4617.88
461.49	4601.49
461.67	4667.03
461.85	4814.48
462.04	4734.90
462.22	5055.56
462.40	4917.47
462.59	4638.94
462.77	4744.27
462.95	4943.21
463.13	4837.89
463.32	4833.21
463.50	4908.10
463.68	5008.75
463.86	5071.94
464.05	4968.96
464.23	4954.91
464.41	4844.91
464.59	4791.08
464.78	5053.22
464.96	5057.90
465.14	4915.12
465.32	5029.81
465.50	5100.03
465.69	5128.11
465.87	5022.79
466.05	5111.73
466.23	5149.18
466.41	5210.03
466.60	5184.29
466.78	5020.45
466.96	5078.96
467.14	4971.30
467.32	5193.65
467.51	5207.69
467.69	5160.88
467.87	5172.58
468.05	5282.59
468.23	5280.25
468.41	5210.03
468.60	5331.74
468.78	5341.10
468.96	5247.48
469.14	5380.89
469.32	5317.70
469.50	5259.18
469.69	5441.75
469.87	5458.13
470.05	5275.57
470.23	5556.43
470.41	5411.32
470.59	5584.52
470.77	5598.56
470.95	5551.75
471.14	5783.46
471.32	5579.84
471.50	5664.10
471.68	5582.18
471.86	5797.51
472.04	5710.91
472.22	5757.72
472.40	5778.78
472.58	5753.04
472.77	5825.59
472.95	5900.49
473.13	6064.33
473.31	5905.17
473.49	5921.56
473.67	5846.66
473.85	5956.66
474.03	6087.73
474.21	6132.20
474.39	6183.70
474.57	6113.48
474.75	6054.97
474.93	6129.86
475.12	6181.35
475.30	6279.66
475.48	6265.61
475.66	6230.51
475.84	6303.06
476.02	6455.20
476.20	6429.45
476.38	6548.82
476.56	6846.07
476.74	6392.00
476.92	6609.67
477.10	6649.46
477.28	6504.35
477.46	6616.69
477.64	6707.98
477.82	7030.97
478.00	7218.21
478.18	6937.35
478.36	7089.48
478.54	7052.03
478.72	7360.98
478.90	7077.78
479.08	7243.96
479.26	7307.15
479.44	7412.48
479.62	7414.82
479.80	7506.10
479.98	7426.52
480.16	7758.88
480.34	7634.83
480.52	7590.36
480.70	7733.13
480.88	7597.38
481.06	7878.24
481.24	7735.47
481.41	7882.92
481.59	7999.95
481.77	8032.72
481.95	8100.59
482.13	8161.45
482.31	8329.97
482.49	8458.70
482.67	8315.92
482.85	8388.48
483.03	8636.58
483.21	8695.09
483.39	8585.08
483.57	8894.04
483.74	8767.65
483.92	8870.63
484.10	8608.49
484.28	8966.59
484.46	9153.84
484.64	9163.20
484.82	9039.15
485.00	9476.83
485.18	9362.14
485.35	9525.98
485.53	9453.42
485.71	9453.42
485.89	9708.54
486.07	9589.17
486.25	9741.31
486.43	9783.44
486.61	9970.68
486.78	10113.45
486.96	9919.19
487.14	10071.33
487.32	10209.42
487.50	10485.60
487.68	10256.23
487.85	10494.96
488.03	10450.49
488.21	10721.99
488.39	10874.13
488.57	10822.64
488.75	10906.90
488.92	10927.96
489.10	11054.35
489.28	11080.10
489.46	11412.45
489.64	11243.93
489.81	11524.80
489.99	11246.27
490.17	11461.60
490.35	11470.97
490.53	11578.63
490.70	11693.32
490.88	11709.70
491.06	12205.89
491.24	11667.57
491.41	11948.43
491.59	12212.92
491.77	12109.93
491.95	12564.00
492.13	12383.77
492.30	12325.26
492.48	12372.07
492.66	12418.88
492.84	12589.74
493.01	12711.45
493.19	12807.41
493.37	13090.62
493.54	12985.29
493.72	13046.15
493.90	13125.72
494.08	13397.23
494.25	13362.12
494.43	13472.12
494.61	13605.53
494.79	13635.96
494.96	13544.68
495.14	13474.46
495.32	13788.10
495.49	13762.35
495.67	13809.16
495.85	13839.59
496.02	14193.01
496.20	14047.90
496.38	14207.05
496.55	14150.88
496.73	14476.21
496.91	14171.94
497.09	14562.81
497.26	14490.26
497.44	14464.51
497.62	14764.10
497.79	14977.09
497.97	14579.20
498.14	14927.94
498.32	14923.26
498.50	15007.52
498.67	15236.89
498.85	15150.29
499.03	15126.88
499.20	15243.91
499.38	15314.13
499.56	15370.30
499.73	15531.80
499.91	15648.82
500.08	15524.77
500.26	15679.25
500.44	15573.92
500.61	15840.75
500.79	15660.52
500.97	16016.29
501.14	16025.65
501.32	16051.39
501.49	16072.46
501.67	16154.38
501.84	16191.83
502.02	16231.62
502.20	16444.60
502.37	16463.33
502.55	16175.44
502.72	16526.52
502.90	16540.57
503.07	16332.26
503.25	16819.09
503.43	16610.78
503.60	16795.68
503.78	16849.52
503.95	16798.02
504.13	16879.94
504.30	16971.22
504.48	16659.93
504.65	17226.34
504.83	17200.60
505.01	17563.38
505.18	17240.39
505.36	17425.29
505.53	17282.52
505.71	17207.62
505.88	17596.15
506.06	17530.61
506.23	17891.06
506.41	17965.95
506.58	17874.67
506.76	17708.49
506.93	17848.93
507.11	17881.69
507.28	17851.27
507.46	18036.17
507.63	17748.28
507.81	18396.61
507.98	18097.02
508.16	18026.81
508.33	18183.62
508.50	18253.84
508.68	18059.57
508.85	18684.50
509.03	18284.26
509.20	18485.55
509.38	18939.62
509.55	18515.98
509.73	18485.55
509.90	18682.16
510.08	18321.71
510.25	18272.56
510.42	18916.21
510.60	18855.36
510.77	18766.42
510.95	19108.13
511.12	19110.47
511.30	18946.64
511.47	19115.16
511.64	18981.74
511.82	19428.79
511.99	19269.63
512.17	19232.18
512.34	19510.71
512.51	19494.32
512.69	19356.23
512.86	19318.78
513.04	19627.73
513.21	19768.16
513.38	19857.10
513.56	19922.64
513.73	19775.19
513.90	19983.49
514.08	19761.14
514.25	20149.67
514.43	20060.73
514.60	20114.56
514.77	19924.98
514.95	20086.48
515.12	20285.42
515.29	20107.54
515.47	20662.25
515.64	20528.84
515.81	20559.27
515.99	20493.73
516.16	20737.15
516.33	20484.37
516.51	21032.05
516.68	20608.42
516.85	20566.29
517.03	20774.60
517.20	20790.98
517.37	20968.86
517.54	21001.63
517.72	21137.38
517.89	20966.52
518.06	20893.96
518.24	21018.01
518.41	20999.29
518.58	21352.71
518.75	20837.79
518.93	21331.64
519.10	21097.59
519.27	21525.91
519.45	21429.94
519.62	21380.79
519.79	21504.84
519.96	21490.80
520.14	21685.06
520.31	21474.42
520.48	21586.76
520.65	21664.00
520.83	21846.56
521.00	21809.11
521.17	21869.97
521.34	21748.26
521.52	21741.24
521.69	21862.94
521.86	22099.34
522.03	22197.64
522.20	22073.59
522.38	22307.65
522.55	22324.03
522.72	22143.81
522.89	22192.96
523.07	22321.69
523.24	22279.56
523.41	23016.83
523.58	22356.80
523.75	22485.53
523.92	22450.42
524.10	22450.42
524.27	22583.83
524.44	22417.65
524.61	22693.83
524.78	22649.36
524.96	22712.56
525.13	23075.34
525.30	22728.94
525.47	22979.38
525.64	22785.12
525.81	23063.64
525.98	23424.08
526.16	23227.48
526.33	23274.29
526.50	23225.14
526.67	22998.10
526.84	23363.23
527.01	22888.10
527.18	23332.80
527.36	23325.78
527.53	23618.35
527.70	24027.94
527.87	23850.06
528.04	23695.58
528.21	23466.21
528.38	23623.03
528.55	23391.31
528.72	23819.63
528.89	23704.95
529.07	23744.73
529.24	23592.60
529.41	23967.09
529.58	23702.61
529.75	23840.70
529.92	23587.92
530.09	24149.65
530.26	24049.00
530.43	24013.90
530.60	24252.63
530.77	24095.82
530.94	24074.75
531.11	24105.18
531.28	24198.80
531.46	24362.64
531.63	24212.84
531.80	24360.30
531.97	24584.99
532.14	24711.38
532.31	24556.90
532.48	24627.12
532.65	24446.90
532.82	24261.99
532.99	24470.30
533.16	24538.18
533.33	24683.29
533.50	25125.65
533.67	24669.25
533.84	24573.28
534.01	24528.81
534.18	24723.08
534.35	24718.40
534.52	24624.78
534.69	25062.46
534.86	25357.36
535.03	25095.22
535.20	25130.33
535.37	25184.16
535.54	25256.72
535.71	25074.16
535.88	24959.47
536.05	25401.83
536.22	25376.09
536.38	25490.77
536.55	25301.19
536.72	25378.43
536.89	25312.89
537.06	25340.98
537.23	25462.69
537.40	25448.64
537.57	25645.25
537.74	25497.80
537.91	26216.34
538.08	25621.84
538.25	25811.43
538.42	25792.70
538.59	26113.36
538.75	25729.51
538.92	25799.73
539.09	25977.61
539.26	26111.02
539.43	25846.54
539.60	26024.42
539.77	26111.02
539.94	26242.09
540.11	26024.42
540.28	25804.41
540.44	26160.17
540.61	26054.84
540.78	26441.03
540.95	26050.16
541.12	26462.10
541.29	26485.50
541.46	26277.19
541.62	26127.40
541.79	26279.54
541.96	26118.04
542.13	25954.20
542.30	26677.43
542.47	26548.70
542.63	26286.56
542.80	26771.05
542.97	27087.02
543.14	26948.93
543.31	26700.83
543.48	26764.03
543.64	26979.36
543.81	26895.10
543.98	27304.69
544.15	27239.15
544.32	27049.57
544.48	27510.66
544.65	26998.08
544.82	27063.61
544.99	27075.32
545.16	27028.51
545.32	26794.45
545.49	27110.43
545.66	27768.12
545.83	27157.24
546.00	27300.01
546.16	27398.31
546.33	27330.44
546.50	27037.87
546.67	27583.21
546.83	27002.76
547.00	27267.24
547.17	27367.88
547.34	27648.75
547.50	27552.79
547.67	27630.02
547.84	27529.38
548.00	27468.53
548.17	27669.81
548.34	27227.45
548.51	27908.55
548.67	27770.46
548.84	27828.97
549.01	27704.92
549.18	27920.25
549.34	27838.33
549.51	27730.67
549.68	27866.42
549.84	27676.83
550.01	27667.47
550.18	27871.10
550.34	28116.86
550.51	27976.42
550.68	28187.07
550.84	27667.47
551.01	27915.57
551.18	28072.39
551.34	27887.48
551.51	28053.66
551.68	28418.78
551.84	28498.36
552.01	28037.28
552.18	28411.76
552.34	28198.77
552.51	28180.05
552.68	28210.48
552.84	28439.85
553.01	28535.81
553.18	28311.12
553.34	28226.86
553.51	28334.53
553.67	28606.03
553.84	28718.37
554.01	28720.71
554.17	28484.32
554.34	28608.37
554.51	28554.54
554.67	28622.41
554.84	28514.75
555.00	28826.04
555.17	29036.69
555.33	28870.51
555.50	28549.85
555.67	28737.10
555.83	28491.34
556.00	28945.41
556.16	28898.59
556.33	28823.70
556.50	28758.16
556.66	28924.34
556.83	28952.43
556.99	29244.99
557.16	28746.46
557.32	29106.90
557.49	28964.13
557.65	28816.68
557.82	28636.45
557.98	29043.71
558.15	28959.45
558.32	29422.87
558.48	29076.48
558.65	29560.97
558.81	29097.54
558.98	29034.35
559.14	28889.23
559.31	28966.47
559.47	29228.61
559.64	29535.22
559.80	29322.23
559.97	29078.82
560.13	29504.79
560.30	29549.26
560.46	29261.38
560.63	29401.81
560.79	28973.49
560.96	29663.95
561.12	29376.06
561.29	29394.79
561.45	29326.91
561.61	29560.97
561.78	29160.73
561.94	29481.39
562.11	29687.36
562.27	29507.13
562.44	29439.26
562.60	29551.60
562.77	29710.76
562.93	29909.71
563.10	29310.53
563.26	29362.02
563.42	29848.85
563.59	29607.78
563.75	29890.98
563.92	29631.18
564.08	29598.41
564.24	30026.73
564.41	29621.82
564.57	29624.16
564.74	29301.17
564.90	29837.15
565.07	29963.54
565.23	29949.50
565.39	30115.67
565.56	29834.81
565.72	29919.07
565.88	29715.44
566.05	29488.41
566.21	29565.65
566.38	29825.45
566.54	29827.79
566.70	29989.28
566.87	30057.16
567.03	29874.60
567.19	30101.63
567.36	30436.33
567.52	29722.46
567.68	30054.82
567.85	29736.51
568.01	29677.99
568.17	29558.63
568.34	29748.21
568.50	29713.10
568.66	30080.56
568.83	30047.80
568.99	29806.72
569.15	29851.19
569.32	29685.01
569.48	29881.62
569.64	30141.42
569.81	30113.33
569.97	29816.08
570.13	30398.88
570.30	30022.05
570.46	29724.80
570.62	30204.61
570.78	29804.38
570.95	29780.98
571.11	30080.56
571.27	29991.62
571.43	30054.82
571.60	29933.11
571.76	29979.92
571.92	30300.58
572.09	30469.09
572.25	30370.79
572.41	30373.13
572.57	30391.86
572.74	30300.58
572.90	29759.91
573.06	30096.95
573.22	30113.33
573.38	30419.94
573.55	29919.07
573.71	30487.82
573.87	30462.07
574.03	30246.74
574.20	30132.06
574.36	30438.67
574.52	30614.21
574.68	29965.88
574.84	30726.55
575.01	30022.05
575.17	30494.84
575.33	30043.12
575.49	30396.54
575.65	30394.20
575.82	30705.49
575.98	30415.26
576.14	30345.05
576.30	30263.13
576.46	30274.83
576.62	30429.30
576.79	30443.35
576.95	30235.04
577.11	30515.90
577.27	30316.96
577.43	30604.84
577.59	30314.62
577.75	30185.89
577.92	29909.71
578.08	30087.59
578.24	29937.79
578.40	30593.14
578.56	30403.56
578.72	30354.41
578.88	30487.82
579.04	30703.15
579.21	30288.87
579.37	30192.91
579.53	30331.00
579.69	30178.87
579.85	30553.35
580.01	30096.95
580.17	30178.87
580.33	30553.35
580.49	30480.80
580.65	30658.68
580.82	30197.59
580.98	30258.45
581.14	30368.45
581.30	30433.99
581.46	30705.49
581.62	30253.76
581.78	30277.17
581.94	30649.32
582.10	30480.80
582.26	30347.39
582.42	30377.81
582.58	30913.80
582.74	30632.93
582.90	30714.85
583.06	30525.27
583.22	30225.68
583.38	30738.26
583.54	30448.03
583.70	30780.39
583.86	30696.13
584.02	29982.26
584.18	30738.26
584.34	30579.10
584.50	30878.69
584.66	30735.92
584.82	30590.80
584.98	30256.11
585.14	30429.30
585.30	30160.14
585.46	30052.48
585.62	30445.69
585.78	30705.49
585.94	30792.09
586.10	30443.35
586.26	30789.75
586.42	30766.34
586.58	30927.84
586.74	30918.48
586.90	30724.21
587.06	30494.84
587.22	30670.38
587.38	30354.41
587.54	30422.28
587.70	30740.60
587.86	30541.65
588.02	30761.66
588.18	30651.66
588.34	31054.23
588.49	30689.10
588.65	30511.22
588.81	30267.81
588.97	31061.25
589.13	30448.03
589.29	30415.26
589.45	30845.92
589.61	30749.96
589.77	31250.83
589.93	30698.47
590.08	31199.34
590.24	31147.85
590.40	30974.65
590.56	31157.21
590.72	30562.72
590.88	30611.87
591.04	30663.36
591.20	30632.93
591.35	31187.64
591.51	31234.45
591.67	31161.89
591.83	31068.27
591.99	30845.92
