SpectraSuite Data File
++++++++++++++++++++++++++++++++++++
Date: Fri Oct 18 13:58:25 GMT-05:00 2013
User: bianchi
Dark Spectrum Present: No
Reference Spectrum Present: No
Number of Sampled Component Spectra: 1
Spectrometers: USB2+H05261
Integration Time (usec): 50000 (USB2+H05261)
Spectra Averaged: 1 (USB2+H05261)
Boxcar Smoothing: 0 (USB2+H05261)
Correct for Electrical Dark: No (USB2+H05261)
Strobe/Lamp Enabled: No (USB2+H05261)
Correct for Detector Non-linearity: No (USB2+H05261)
Correct for Stray Light: No (USB2+H05261)
Number of Pixels in Processed Spectrum: 2048
>>>>>Begin Processed Spectral Data<<<<<
365.73	0.00
365.92	0.00
366.12	0.00
366.32	0.00
366.52	0.00
366.72	0.00
366.91	0.00
367.11	0.00
367.31	0.00
367.51	0.00
367.70	0.00
367.90	0.00
368.10	0.00
368.30	0.00
368.49	0.00
368.69	0.00
368.89	0.00
369.09	0.00
369.28	0.00
369.48	0.00
369.68	0.00
369.87	0.00
370.07	0.00
370.27	0.00
370.47	0.00
370.66	86.60
370.86	44.47
371.06	189.58
371.25	147.45
371.45	46.81
371.65	156.82
371.84	156.82
372.04	98.30
372.24	159.16
372.44	135.75
372.63	177.88
372.83	175.54
373.03	184.90
373.22	191.92
373.42	205.97
373.62	252.78
373.81	131.07
374.01	224.69
374.21	255.12
374.40	231.71
374.60	280.86
374.79	227.03
374.99	294.91
375.19	273.84
375.38	245.76
375.58	238.73
375.78	276.18
375.97	264.48
376.17	315.97
376.37	311.29
376.56	234.05
376.76	294.91
376.95	259.80
377.15	203.63
377.35	248.10
377.54	292.57
377.74	344.06
377.93	273.84
378.13	313.63
378.33	330.02
378.52	262.14
378.72	245.76
378.91	266.82
379.11	264.48
379.31	351.08
379.50	259.80
379.70	259.80
379.89	374.49
380.09	294.91
380.28	299.59
380.48	332.36
380.68	299.59
380.87	273.84
381.07	308.95
381.26	292.57
381.46	311.29
381.65	325.33
381.85	315.97
382.04	337.04
382.24	351.08
382.43	341.72
382.63	311.29
382.83	395.55
383.02	397.89
383.22	306.61
383.41	304.27
383.61	280.86
383.80	322.99
384.00	351.08
384.19	404.91
384.39	318.31
384.58	351.08
384.78	355.76
384.97	339.38
385.17	400.23
385.36	411.93
385.56	400.23
385.75	358.10
385.95	440.02
386.14	386.19
386.34	402.57
386.53	402.57
386.72	362.78
386.92	395.55
387.11	400.23
387.31	428.32
387.50	428.32
387.70	442.36
387.89	510.24
388.09	486.83
388.28	409.59
388.48	374.49
388.67	461.09
388.86	472.79
389.06	447.04
389.25	470.45
389.45	535.98
389.64	388.53
389.84	498.53
390.03	463.43
390.22	545.34
390.42	421.30
390.61	409.59
390.81	456.40
391.00	454.06
391.19	500.87
391.39	461.09
391.58	524.28
391.78	564.07
391.97	442.36
392.16	430.66
392.36	589.82
392.55	512.58
392.75	592.16
392.94	566.41
393.13	592.16
393.33	564.07
393.52	573.43
393.71	578.11
393.91	540.66
394.10	566.41
394.29	599.18
394.49	615.56
394.68	566.41
394.88	589.82
395.07	575.77
395.26	601.52
395.46	608.54
395.65	582.79
395.84	554.71
396.04	627.26
396.23	643.65
396.42	606.20
396.62	648.33
396.81	699.82
397.00	692.80
397.19	678.76
397.39	681.10
397.58	676.41
397.77	695.14
397.97	674.07
398.16	674.07
398.35	760.67
398.55	631.94
398.74	671.73
398.93	744.29
399.12	713.86
399.32	711.52
399.51	763.01
399.70	763.01
399.90	741.95
400.09	786.42
400.28	688.12
400.47	767.70
400.67	784.08
400.86	746.63
401.05	788.76
401.24	793.44
401.44	772.38
401.63	826.21
401.82	854.30
402.01	863.66
402.21	830.89
402.40	870.68
402.59	835.57
402.78	882.38
402.97	880.04
403.17	795.78
403.36	880.04
403.55	833.23
403.74	880.04
403.93	863.66
404.13	987.71
404.32	910.47
404.51	847.27
404.70	994.73
404.89	896.43
405.09	1039.20
405.28	943.24
405.47	961.96
405.66	884.72
405.85	961.96
406.05	1004.09
406.24	950.26
406.43	983.02
406.62	983.02
406.81	1046.22
407.00	1022.81
407.20	1001.75
407.39	1022.81
407.58	1046.22
407.77	1114.10
407.96	1039.20
408.15	973.66
408.34	1020.47
408.54	1043.88
408.73	1015.79
408.92	1095.37
409.11	1163.25
409.30	1200.69
409.49	1041.54
409.68	1111.75
409.87	1132.82
410.07	1177.29
410.26	1086.01
410.45	1118.78
410.64	1210.06
410.83	1125.80
411.02	1252.19
411.21	1228.78
411.40	1163.25
411.59	1254.53
411.78	1287.29
411.98	1268.57
412.17	1331.76
412.36	1289.64
412.55	1284.95
412.74	1430.07
412.93	1345.81
413.12	1345.81
413.31	1334.11
413.50	1404.32
413.69	1352.83
413.88	1427.73
414.07	1469.86
414.26	1465.18
414.45	1434.75
414.64	1486.24
414.83	1533.05
415.02	1542.41
415.22	1493.26
415.41	1582.20
415.60	1575.18
415.79	1577.52
415.98	1554.12
416.17	1631.35
416.36	1558.80
416.55	1575.18
416.74	1675.82
416.93	1577.52
417.12	1659.44
417.31	1668.80
417.50	1708.59
417.69	1774.13
417.88	1760.08
418.07	1675.82
418.26	1736.68
418.45	1692.21
418.64	1863.07
418.83	1699.23
419.02	1713.27
419.21	1907.54
419.39	1884.13
419.58	1757.74
419.77	1884.13
419.96	1842.00
420.15	1870.09
420.34	1914.56
420.53	1884.13
420.72	1860.73
420.91	1825.62
421.10	1942.64
421.29	2052.65
421.48	1956.69
421.67	1954.35
421.86	1853.70
422.05	2069.03
422.24	1914.56
422.43	1970.73
422.61	2038.61
422.80	1947.33
422.99	2047.97
423.18	1884.13
423.37	1998.82
423.56	1996.48
423.75	2019.88
423.94	2012.86
424.13	1891.15
424.32	1895.83
424.50	2047.97
424.69	1977.75
424.88	2064.35
425.07	2092.44
425.26	2005.84
425.45	2078.40
425.64	2069.03
425.83	2019.88
426.01	1949.67
426.20	2108.82
426.39	2008.18
426.58	1982.43
426.77	2101.80
426.96	2036.27
427.15	2153.29
427.33	2115.84
427.52	2129.89
427.71	2113.50
427.90	2162.66
428.09	2132.23
428.28	2054.99
428.46	2190.74
428.65	2118.18
428.84	2331.17
429.03	2289.04
429.22	2260.96
429.40	2186.06
429.59	2300.75
429.78	2223.51
429.97	2211.81
430.16	2270.32
430.34	2352.24
430.53	2312.45
430.72	2326.49
430.91	2331.17
431.10	2431.82
431.28	2389.69
431.47	2483.31
431.66	2534.80
431.85	2345.22
432.03	2483.31
432.22	2562.89
432.41	2527.78
432.60	2399.05
432.79	2403.73
432.97	2462.24
433.16	2399.05
433.35	2478.63
433.54	2518.42
433.72	2499.69
433.91	2450.54
434.10	2586.29
434.28	2466.92
434.47	2548.84
434.66	2530.12
434.85	2586.29
435.03	2600.34
435.22	2462.24
435.41	2740.77
435.59	2686.94
435.78	2581.61
435.97	2593.31
436.16	2602.68
436.34	2619.06
436.53	2736.09
436.72	2740.77
436.90	2640.12
437.09	2773.53
437.28	2729.06
437.46	2761.83
437.65	2848.43
437.84	2747.79
438.02	2696.30
438.21	2897.58
438.40	2766.51
438.58	2834.39
438.77	2853.11
438.96	2846.09
439.14	2867.16
439.33	2991.20
439.52	2944.39
439.70	2911.63
439.89	2970.14
440.08	3000.57
440.26	3049.72
440.45	2986.52
440.63	3016.95
440.82	2958.44
441.01	3117.59
441.19	3197.17
441.38	3059.08
441.57	3295.47
441.75	3239.30
441.94	3283.77
442.12	3229.94
442.31	3236.96
442.50	3377.39
442.68	3269.73
442.87	3330.58
443.05	3384.41
443.24	3318.88
443.43	3391.44
443.61	3372.71
443.80	3541.23
443.98	3213.56
444.17	3307.18
444.35	3421.86
444.54	3344.63
444.73	3351.65
444.91	3323.56
445.10	3442.93
445.28	3400.80
445.47	3421.86
445.65	3393.78
445.84	3449.95
446.02	3585.70
446.21	3471.01
446.39	3496.76
446.58	3534.21
446.77	3414.84
446.95	3501.44
447.14	3543.57
447.32	3529.53
447.51	3543.57
447.69	3527.19
447.88	3496.76
448.06	3585.70
448.25	3485.06
448.43	3590.38
448.62	3487.40
448.80	3566.98
448.99	3449.95
449.17	3613.79
449.36	3515.48
449.54	3599.74
449.73	3599.74
449.91	3676.98
450.10	3644.21
450.28	3794.01
450.46	3672.30
450.65	3681.66
450.83	3744.86
451.02	3772.94
451.20	3747.20
451.39	3878.27
451.57	3791.67
451.76	3850.18
451.94	3822.09
452.13	3889.97
452.31	3733.15
452.49	3775.28
452.68	3953.16
452.86	3892.31
453.05	3819.75
453.23	3892.31
453.42	3803.37
453.60	3854.86
453.78	3953.16
453.97	4030.40
454.15	3824.44
454.34	3838.48
454.52	4016.36
454.70	3941.46
454.89	4093.60
455.07	4051.47
455.26	3964.87
455.44	4145.09
455.62	4187.22
455.81	4039.76
455.99	4126.36
456.17	4095.94
456.36	4173.18
456.54	4067.85
456.73	4236.37
456.91	4461.06
457.09	4222.33
457.28	4332.33
457.46	4318.29
457.64	4376.80
457.83	4423.61
458.01	4234.03
458.19	4362.76
458.38	4189.56
458.56	4498.51
458.74	4458.72
458.93	4514.89
459.11	4311.27
459.29	4458.72
459.48	4383.82
459.66	4383.82
459.84	4400.21
460.03	4557.02
460.21	4428.29
460.39	4667.03
460.57	4519.57
460.76	4697.46
460.94	4535.96
461.12	4634.26
461.31	4655.33
461.49	4554.68
461.67	4477.44
461.85	4760.65
462.04	4765.33
462.22	4795.76
462.40	4821.50
462.59	4772.35
462.77	4648.30
462.95	4762.99
463.13	4858.95
463.32	4847.25
463.50	4809.80
463.68	4971.30
463.86	4880.02
464.05	4779.37
464.23	4762.99
464.41	4966.62
464.59	4873.00
464.78	4826.18
464.96	4762.99
465.14	4798.10
465.32	5018.11
465.50	5018.11
465.69	5137.48
465.87	5067.26
466.05	5018.11
466.23	4835.55
466.41	5093.01
466.60	5235.78
466.78	5039.17
466.96	4898.74
467.14	5029.81
467.32	5064.92
467.51	5242.80
467.69	4926.83
467.87	5170.24
468.05	5268.55
468.23	5198.33
468.41	5167.90
468.60	5277.91
468.78	5261.52
468.96	5069.60
469.14	5275.57
469.32	5373.87
469.50	5109.39
469.69	5350.46
469.87	5416.00
470.05	5397.28
470.23	5317.70
470.41	5416.00
470.59	5411.32
470.77	5490.90
470.95	5493.24
471.14	5600.90
471.32	5493.24
471.50	5600.90
471.68	5666.44
471.86	5598.56
472.04	5715.59
472.22	5853.68
472.40	5488.56
472.58	5746.02
472.77	5776.44
472.95	5797.51
473.13	5935.60
473.31	5947.30
473.49	5865.38
473.67	5750.70
473.85	5877.09
474.03	6181.35
474.21	5877.09
474.39	5877.09
474.57	6057.31
474.75	6064.33
474.93	6162.63
475.12	6181.35
475.30	6197.74
475.48	6092.41
475.66	6167.31
475.84	6279.66
476.02	6305.40
476.20	6317.11
476.38	6464.56
476.56	6558.18
476.74	6574.56
476.92	6506.69
477.10	6555.84
477.28	6579.25
477.46	6785.21
477.64	6736.06
477.82	6780.53
478.00	7023.95
478.18	7019.27
478.36	6951.39
478.54	7009.90
478.72	6977.14
478.90	6995.86
479.08	7164.38
479.26	7075.44
479.44	7211.19
479.62	7335.24
479.80	7358.64
479.98	7269.70
480.16	7407.80
480.34	7719.09
480.52	7620.78
480.70	7599.72
480.88	7665.25
481.06	7772.92
481.24	7634.83
481.41	7812.71
481.59	7896.97
481.77	7976.55
481.95	8180.17
482.13	8226.98
482.31	8231.66
482.49	8229.32
482.67	8257.41
482.85	8301.88
483.03	8407.20
483.21	8564.02
483.39	8800.41
483.57	8493.80
483.74	8671.68
483.92	8718.50
484.10	8690.41
484.28	8870.63
484.46	9025.11
484.64	8952.55
484.82	9020.42
485.00	9219.37
485.18	9549.39
485.35	9528.32
485.53	9404.27
485.71	9327.03
485.89	9628.96
486.07	9591.52
486.25	9413.63
486.43	9731.95
486.61	9720.24
486.78	9748.33
486.96	10132.18
487.14	9984.73
487.32	10092.39
487.50	10286.65
487.68	10155.58
487.85	10307.72
488.03	10289.00
488.21	10492.62
488.39	10633.05
488.57	10305.38
488.75	10815.62
488.92	10888.17
489.10	11033.29
489.28	10881.15
489.46	11077.76
489.64	11052.01
489.81	11304.79
489.99	11201.80
490.17	11382.03
490.35	11559.91
490.53	11655.87
490.70	11442.88
490.88	11655.87
491.06	11829.07
491.24	11641.82
491.41	11885.24
491.59	11765.87
491.77	12011.63
491.95	11981.20
492.13	12243.34
492.30	12430.59
492.48	12159.08
492.66	12219.94
492.84	12379.09
493.01	12428.24
493.19	12430.59
493.37	12849.54
493.54	12720.81
493.72	12924.44
493.90	13050.83
494.08	12856.56
494.25	13151.47
494.43	13254.45
494.61	13371.48
494.79	13380.84
494.96	13331.69
495.14	13261.48
495.32	13563.40
495.49	13474.46
495.67	13315.31
495.85	13851.29
496.02	13830.23
496.20	14033.85
496.38	13837.25
496.55	13907.46
496.73	14326.42
496.91	13888.74
497.09	14347.48
497.26	14345.14
497.44	14375.57
497.62	14581.54
497.79	14740.69
497.97	14513.66
498.14	14841.34
498.32	14925.60
498.50	14654.09
498.67	14668.14
498.85	14890.49
499.03	14918.57
499.20	14874.10
499.38	14981.77
499.56	14822.61
499.73	15021.56
499.91	15449.88
500.08	15356.25
500.26	15192.42
500.44	15447.54
500.61	15468.60
500.79	15534.14
500.97	15566.90
501.14	15889.90
501.32	16102.89
501.49	15910.96
501.67	15765.85
501.84	15784.57
502.02	15843.09
502.20	16159.06
502.37	16037.35
502.55	16027.99
502.72	16259.70
502.90	16107.57
503.07	16084.16
503.25	16559.29
503.43	16102.89
503.60	16552.27
503.78	16568.65
503.95	16662.27
504.13	16350.98
504.30	16875.26
504.48	16489.07
504.65	16781.64
504.83	17008.67
505.01	17039.10
505.18	16854.20
505.36	17055.48
505.53	16975.91
505.71	17050.80
505.88	17191.23
506.06	16872.92
506.23	17303.58
506.41	17383.16
506.58	17397.20
506.76	17151.45
506.93	17387.84
507.11	17455.72
507.28	17439.33
507.46	17439.33
507.63	17532.95
507.81	17771.69
507.98	17596.15
508.16	17750.62
508.33	17972.97
508.50	17909.78
508.68	17572.74
508.85	18403.63
509.03	18073.62
509.20	18031.49
509.38	18300.65
509.55	18499.59
509.73	18190.64
509.90	18368.52
510.08	18267.88
510.25	18609.60
510.42	18384.91
510.60	18731.31
510.77	18663.43
510.95	18817.91
511.12	18618.96
511.30	18689.18
511.47	19058.98
511.64	18899.83
511.82	19213.46
511.99	18918.55
512.17	19360.91
512.34	19058.98
512.51	19260.27
512.69	19126.86
512.86	19260.27
513.04	19267.29
513.21	19538.79
513.38	19756.46
513.56	19363.25
513.73	19047.28
513.90	19475.60
514.08	19749.44
514.25	19807.95
514.43	19562.20
514.60	20030.30
514.77	20088.82
514.95	19829.02
515.12	19885.19
515.29	19920.30
515.47	19882.85
515.64	20105.20
515.81	19833.70
515.99	20252.66
516.16	20688.00
516.33	20257.34
516.51	20372.02
516.68	20009.24
516.85	20297.13
517.03	20423.51
517.20	20695.02
517.37	20559.27
517.54	20868.22
517.72	20697.36
517.89	20631.82
518.06	20496.07
518.24	21008.65
518.41	20854.17
518.58	20992.26
518.75	20856.51
518.93	21163.12
519.10	20929.07
519.27	21057.80
519.45	21095.25
519.62	20910.35
519.79	21249.72
519.96	21053.12
520.14	21184.19
520.31	20858.85
520.48	21675.70
520.65	21261.43
520.83	21144.40
521.00	21481.44
521.17	21221.64
521.34	21226.32
521.52	21638.25
521.69	21305.90
521.86	21715.49
522.03	21729.53
522.20	21930.82
522.38	21722.51
522.55	21991.67
522.72	21715.49
522.89	21921.46
523.07	22167.21
523.24	21867.63
523.41	22307.65
523.58	22068.91
523.75	22120.40
523.92	21982.31
524.10	21876.99
524.27	22434.03
524.44	22558.08
524.61	22302.96
524.78	22492.55
524.96	22359.14
525.13	22506.59
525.30	22810.86
525.47	22857.67
525.64	22270.20
525.81	22628.30
525.98	22822.56
526.16	22752.35
526.33	22820.22
526.50	23007.47
526.67	22717.24
526.84	22625.96
527.01	22759.37
527.18	22750.01
527.36	22808.52
527.53	23190.03
527.70	23241.52
527.87	23009.81
528.04	23204.07
528.21	23239.18
528.38	22621.28
528.55	23447.49
528.72	23367.91
528.89	23360.89
529.07	23342.16
529.24	23477.91
529.41	23377.27
529.58	23398.34
529.75	23548.13
529.92	23400.68
530.09	23166.62
530.26	23611.32
530.43	23658.14
530.60	23424.08
530.77	23920.28
530.94	23934.32
531.11	23674.52
531.28	23569.19
531.46	23964.75
531.63	23885.17
531.80	24133.26
531.97	23482.59
532.14	24182.42
532.31	24346.25
532.48	24325.19
532.65	24049.00
532.82	24084.11
532.99	24507.75
533.16	23906.23
533.33	24397.74
533.50	24432.85
533.67	24381.36
533.84	24149.65
534.01	24271.36
534.18	24166.03
534.35	24531.15
534.52	24198.80
534.69	24388.38
534.86	24566.26
535.03	24868.19
535.20	24489.03
535.37	24599.03
535.54	24507.75
535.71	24538.18
535.88	24816.70
536.05	24613.07
536.22	24938.41
536.38	25195.87
536.55	24805.00
536.72	25053.09
536.89	24809.68
537.06	24755.85
537.23	24713.72
537.40	24985.22
537.57	25029.69
537.74	25252.04
537.91	25212.25
538.08	25219.27
538.25	25022.67
538.42	24861.17
538.59	25443.96
538.75	25207.57
538.92	25013.31
539.09	25418.22
539.26	25184.16
539.43	25287.15
539.60	25593.76
539.77	25469.71
539.94	25699.08
540.11	25661.63
540.28	25738.87
540.44	25811.43
540.61	25516.52
540.78	25207.57
540.95	25418.22
541.12	25764.62
541.29	25446.30
541.46	25474.39
541.62	25949.52
541.79	25982.29
541.96	25776.32
542.13	25387.79
542.30	25977.61
542.47	25984.63
542.63	25748.23
542.80	26101.65
542.97	26302.94
543.14	26316.98
543.31	26239.75
543.48	26127.40
543.64	26452.73
543.81	26738.28
543.98	27000.42
544.15	26335.71
544.32	26787.43
544.48	26787.43
544.65	26569.76
544.82	26340.39
544.99	26183.57
545.16	26834.24
545.32	26352.09
545.49	27222.77
545.66	26991.06
545.83	26944.25
546.00	26684.45
546.16	26639.98
546.33	26630.62
546.50	26511.25
546.67	26939.57
546.83	26277.19
547.00	27019.14
547.17	26747.64
547.34	26724.24
547.50	26946.59
547.67	27314.05
547.84	26986.38
548.00	27129.15
548.17	27402.99
548.34	26927.86
548.51	27157.24
548.67	26883.39
548.84	26946.59
549.01	26969.99
549.18	27082.34
549.34	27133.83
549.51	27051.91
549.68	27269.58
549.84	27150.21
550.01	27520.02
550.18	27124.47
550.34	27393.63
550.51	27426.40
550.68	27552.79
550.84	27215.75
551.01	27761.09
551.18	27063.61
551.34	27264.90
551.51	27534.06
551.68	27630.02
551.84	27335.12
552.01	27761.09
552.18	27580.87
552.34	27564.49
552.51	27665.13
552.68	27943.66
552.84	27761.09
553.01	27946.00
553.18	28250.27
553.34	27751.73
553.51	27740.03
553.67	27824.29
553.84	28474.96
554.01	27913.23
554.17	27924.93
554.34	28016.21
554.51	27686.20
554.67	28116.86
554.84	27653.43
555.00	28161.33
555.17	28030.26
555.33	28173.03
555.50	27770.46
555.67	27828.97
555.83	27831.31
556.00	27969.40
556.16	28280.69
556.33	28332.18
556.50	28217.50
556.66	28463.25
556.83	28514.75
556.99	28449.21
557.16	28334.53
557.32	28198.77
557.49	28620.07
557.65	28130.90
557.82	28577.94
557.98	28116.86
558.15	28474.96
558.32	28411.76
558.48	28706.67
558.65	28680.92
558.81	28601.35
558.98	28687.95
559.14	28479.64
559.31	28811.99
559.47	28563.90
559.64	28547.51
559.80	28636.45
559.97	28765.18
560.13	28584.96
560.30	28301.76
560.46	28861.15
560.63	28814.34
560.79	28830.72
560.96	28666.88
561.12	28704.33
561.29	28542.83
561.45	28793.27
561.61	28779.23
561.78	28566.24
561.94	29298.83
562.11	28903.28
562.27	28945.41
562.44	28903.28
562.60	28774.55
562.77	28699.65
562.93	28992.22
563.10	28957.11
563.26	28814.34
563.42	29160.73
563.59	28861.15
563.75	28943.06
563.92	29003.92
564.08	28723.05
564.24	29209.89
564.41	28959.45
564.57	28753.48
564.74	28830.72
564.90	29085.84
565.07	29078.82
565.23	29357.34
565.39	29139.67
565.56	29088.18
565.72	29027.32
565.88	28884.55
566.05	28889.23
566.21	29177.12
566.38	29008.60
566.54	29233.29
566.70	29287.12
566.87	29287.12
567.03	29376.06
567.19	29682.67
567.36	29408.83
567.52	29153.71
567.68	29343.30
567.85	29064.77
568.01	29432.24
568.17	29263.72
568.34	29507.13
568.50	29453.30
568.66	29504.79
568.83	29106.90
568.99	29406.49
569.15	29205.20
569.32	29223.93
569.48	29039.03
569.64	28999.24
569.81	29226.27
569.97	29076.48
570.13	29277.76
570.30	29380.74
570.46	29841.83
570.62	29270.74
570.78	29539.90
570.95	29055.41
571.11	29301.17
571.27	29064.77
571.43	29280.10
571.60	29422.87
571.76	29591.39
571.92	29441.60
572.09	29455.64
572.25	30099.29
572.41	29486.07
572.57	29436.92
572.74	29504.79
572.90	29397.13
573.06	29504.79
573.22	29055.41
573.38	29972.90
573.55	29289.46
573.71	29518.84
573.87	29532.88
574.03	29099.88
574.20	29654.59
574.36	29029.66
574.52	29521.18
574.68	29685.01
574.84	29563.31
575.01	29628.84
575.17	29359.68
575.33	29263.72
575.49	29626.50
575.65	29319.89
575.82	29862.90
575.98	29617.14
576.14	29638.20
576.30	29834.81
576.46	29172.44
576.62	29443.94
576.79	29776.30
576.95	29621.82
577.11	29617.14
577.27	29645.23
577.43	30082.91
577.59	29598.41
577.75	30099.29
577.92	29436.92
578.08	29600.76
578.24	28992.22
578.40	29507.13
578.56	30003.33
578.72	29642.88
578.88	30092.27
579.04	29570.33
579.21	29682.67
579.37	29687.36
579.53	29661.61
579.69	29149.03
579.85	29441.60
580.01	29490.75
580.17	29259.04
580.33	29912.05
580.49	29701.40
580.65	29827.79
580.82	29982.26
580.98	29827.79
581.14	29345.64
581.30	29706.08
581.46	29649.91
581.62	29661.61
581.78	29624.16
581.94	29820.77
582.10	29977.58
582.26	29577.35
582.42	29909.71
582.58	30033.75
582.74	29673.31
582.90	29905.02
583.06	30019.71
583.22	29600.76
583.38	29551.60
583.54	29563.31
583.70	29717.78
583.86	29940.13
584.02	29558.63
584.18	29792.68
584.34	29853.53
584.50	29809.06
584.66	30235.04
584.82	29860.55
584.98	29984.60
585.14	29612.46
585.30	29546.92
585.46	29846.51
585.62	29715.44
585.78	29839.49
585.94	29834.81
586.10	30176.53
586.26	30349.73
586.42	30600.16
586.58	30293.55
586.74	29699.06
586.90	29741.19
587.06	29837.15
587.22	30110.99
587.38	29481.39
587.54	30113.33
587.70	30586.12
587.86	30040.78
588.02	29811.40
588.18	30118.01
588.34	29984.60
588.49	30113.33
588.65	30256.11
588.81	29771.61
588.97	29624.16
589.13	29928.43
589.29	29862.90
589.45	30228.02
589.61	30209.29
589.77	30403.56
589.93	30534.63
590.08	30670.38
590.24	30174.19
590.40	30038.44
590.56	30387.18
590.72	30181.21
590.88	29890.98
591.04	29930.77
591.20	30272.49
591.35	30342.70
591.51	30473.78
591.67	30368.45
591.83	30211.64
591.99	30211.64
