SpectraSuite Data File
++++++++++++++++++++++++++++++++++++
Date: Fri Oct 18 13:58:33 GMT-05:00 2013
User: bianchi
Dark Spectrum Present: No
Reference Spectrum Present: No
Number of Sampled Component Spectra: 1
Spectrometers: USB2+H05261
Integration Time (usec): 50000 (USB2+H05261)
Spectra Averaged: 1 (USB2+H05261)
Boxcar Smoothing: 0 (USB2+H05261)
Correct for Electrical Dark: No (USB2+H05261)
Strobe/Lamp Enabled: No (USB2+H05261)
Correct for Detector Non-linearity: No (USB2+H05261)
Correct for Stray Light: No (USB2+H05261)
Number of Pixels in Processed Spectrum: 2048
>>>>>Begin Processed Spectral Data<<<<<
365.73	0.00
365.92	0.00
366.12	0.00
366.32	0.00
366.52	0.00
366.72	0.00
366.91	0.00
367.11	0.00
367.31	0.00
367.51	0.00
367.70	0.00
367.90	0.00
368.10	0.00
368.30	0.00
368.49	0.00
368.69	0.00
368.89	0.00
369.09	0.00
369.28	0.00
369.48	0.00
369.68	0.00
369.87	0.00
370.07	0.00
370.27	0.00
370.47	0.00
370.66	63.19
370.86	138.09
371.06	145.11
371.25	114.69
371.45	124.05
371.65	117.03
371.84	138.09
372.04	133.41
372.24	163.84
372.44	191.92
372.63	191.92
372.83	212.99
373.03	234.05
373.22	234.05
373.42	126.39
373.62	210.65
373.81	234.05
374.01	245.76
374.21	215.33
374.40	243.42
374.60	212.99
374.79	245.76
374.99	245.76
375.19	182.56
375.38	180.22
375.58	145.11
375.78	189.58
375.97	245.76
376.17	271.50
376.37	243.42
376.56	227.03
376.76	285.55
376.95	290.23
377.15	184.90
377.35	257.46
377.54	224.69
377.74	241.08
377.93	245.76
378.13	245.76
378.33	290.23
378.52	278.52
378.72	311.29
378.91	257.46
379.11	203.63
379.31	334.70
379.50	231.71
379.70	358.10
379.89	278.52
380.09	257.46
380.28	217.67
380.48	315.97
380.68	299.59
380.87	325.33
381.07	311.29
381.26	322.99
381.46	337.04
381.65	306.61
381.85	285.55
382.04	353.42
382.24	294.91
382.43	330.02
382.63	334.70
382.83	320.65
383.02	308.95
383.22	348.74
383.41	346.40
383.61	285.55
383.80	351.08
384.00	440.02
384.19	351.08
384.39	355.76
384.58	386.19
384.78	444.70
384.97	421.30
385.17	374.49
385.36	318.31
385.56	447.04
385.75	381.51
385.95	386.19
386.14	437.68
386.34	372.15
386.53	407.25
386.72	285.55
386.92	416.62
387.11	379.17
387.31	486.83
387.50	414.27
387.70	444.70
387.89	425.98
388.09	367.46
388.28	362.78
388.48	425.98
388.67	503.22
388.86	383.85
389.06	512.58
389.25	526.62
389.45	468.11
389.64	414.27
389.84	472.79
390.03	503.22
390.22	440.02
390.42	468.11
390.61	411.93
390.81	465.77
391.00	507.90
391.19	489.17
391.39	514.92
391.58	524.28
391.78	470.45
391.97	535.98
392.16	505.56
392.36	587.47
392.55	603.86
392.75	498.53
392.94	545.34
393.13	543.00
393.33	486.83
393.52	521.94
393.71	608.54
393.91	524.28
394.10	608.54
394.29	573.43
394.49	477.47
394.68	641.31
394.88	596.84
395.07	629.60
395.26	596.84
395.46	716.20
395.65	685.78
395.84	617.90
396.04	568.75
396.23	662.37
396.42	653.01
396.62	610.88
396.81	636.63
397.00	653.01
397.19	702.16
397.39	664.71
397.58	645.99
397.77	676.41
397.97	664.71
398.16	713.86
398.35	681.10
398.55	660.03
398.74	781.74
398.93	692.80
399.12	723.23
399.32	660.03
399.51	624.92
399.70	758.33
399.90	690.46
400.09	730.25
400.28	812.17
400.47	697.48
400.67	793.44
400.86	814.51
401.05	669.39
401.24	758.33
401.44	763.01
401.63	835.57
401.82	844.93
402.01	770.04
402.21	835.57
402.40	800.46
402.59	863.66
402.78	812.17
402.97	779.40
403.17	880.04
403.36	819.19
403.55	858.98
403.74	866.00
403.93	851.96
404.13	880.04
404.32	884.72
404.51	861.32
404.70	849.61
404.89	851.96
405.09	961.96
405.28	821.53
405.47	880.04
405.66	961.96
405.85	922.17
406.05	1008.77
406.24	1022.81
406.43	1013.45
406.62	1008.77
406.81	1034.52
407.00	1020.47
407.20	999.41
407.39	938.55
407.58	966.64
407.77	1015.79
407.96	1097.71
408.15	1111.75
408.34	1043.88
408.54	1055.58
408.73	1053.24
408.92	1100.05
409.11	1104.73
409.30	1188.99
409.49	1167.93
409.68	1074.31
409.87	1034.52
410.07	1158.57
410.26	1139.84
410.45	1217.08
410.64	1219.42
410.83	1196.01
411.02	1205.38
411.21	1252.19
411.40	1221.76
411.59	1252.19
411.78	1280.27
411.98	1329.42
412.17	1306.02
412.36	1242.82
412.55	1296.66
412.74	1327.08
412.93	1390.28
413.12	1282.61
413.31	1329.42
413.50	1411.34
413.69	1399.64
413.88	1575.18
414.07	1420.71
414.26	1521.35
414.45	1416.02
414.64	1455.81
414.83	1413.68
415.02	1479.22
415.22	1514.33
415.41	1584.54
415.60	1474.54
415.79	1614.97
415.98	1502.62
416.17	1654.76
416.36	1556.46
416.55	1570.50
416.74	1666.46
416.93	1607.95
417.12	1633.69
417.31	1657.10
417.50	1638.38
417.69	1675.82
417.88	1757.74
418.07	1673.48
418.26	1626.67
418.45	1692.21
418.64	1827.96
418.83	1804.55
419.02	1675.82
419.21	1837.32
419.39	1844.34
419.58	1830.30
419.77	1804.55
419.96	1839.66
420.15	1846.68
420.34	1785.83
420.53	1849.02
420.72	1846.68
420.91	2057.33
421.10	2029.24
421.29	2064.35
421.48	1872.43
421.67	1942.64
421.86	2012.86
422.05	1907.54
422.24	1877.11
422.43	2071.37
422.61	1961.37
422.80	2047.97
422.99	1994.14
423.18	1975.41
423.37	2012.86
423.56	1973.07
423.75	2033.93
423.94	1909.88
424.13	1856.04
424.32	1916.90
424.50	2031.58
424.69	2104.14
424.88	2043.29
425.07	1966.05
425.26	2022.22
425.45	2005.84
425.64	2057.33
425.83	1942.64
426.01	2087.76
426.20	2033.93
426.39	2010.52
426.58	2069.03
426.77	2097.12
426.96	2122.87
427.15	2085.42
427.33	2106.48
427.52	2052.65
427.71	2232.87
427.90	2141.59
428.09	2190.74
428.28	2195.42
428.46	2153.29
428.65	2193.08
428.84	2172.02
429.03	2237.55
429.22	2265.64
429.40	2279.68
429.59	2272.66
429.78	2195.42
429.97	2062.01
430.16	2235.21
430.34	2298.41
430.53	2363.94
430.72	2307.77
430.91	2216.49
431.10	2228.19
431.28	2352.24
431.47	2455.22
431.66	2436.50
431.85	2401.39
432.03	2347.56
432.22	2504.37
432.41	2387.35
432.60	2457.56
432.79	2464.58
432.97	2438.84
433.16	2450.54
433.35	2392.03
433.54	2469.27
433.72	2436.50
433.91	2495.01
434.10	2380.32
434.28	2530.12
434.47	2562.89
434.66	2576.93
434.85	2534.80
435.03	2609.70
435.22	2553.52
435.41	2633.10
435.59	2649.49
435.78	2665.87
435.97	2633.10
436.16	2607.36
436.34	2628.42
436.53	2600.34
436.72	2642.46
436.90	2628.42
437.09	2679.91
437.28	2686.94
437.46	2668.21
437.65	2705.66
437.84	2703.32
438.02	2698.64
438.21	2757.15
438.40	2825.03
438.58	2775.88
438.77	3073.12
438.96	2944.39
439.14	2986.52
439.33	2867.16
439.52	2946.73
439.70	3077.80
439.89	2977.16
440.08	3087.17
440.26	3087.17
440.45	3009.93
440.63	3246.32
440.82	3122.27
441.01	3136.32
441.19	3122.27
441.38	3157.38
441.57	3222.92
441.75	3239.30
441.94	3236.96
442.12	3283.77
442.31	3239.30
442.50	3279.09
442.68	3213.56
442.87	3307.18
443.05	3349.31
443.24	3293.13
443.43	3475.70
443.61	3290.79
443.80	3410.16
443.98	3365.69
444.17	3220.58
444.35	3281.43
444.54	3325.90
444.73	3365.69
444.91	3396.12
445.10	3424.20
445.28	3447.61
445.47	3440.59
445.65	3342.28
445.84	3384.41
446.02	3492.08
446.21	3531.87
446.39	3403.14
446.58	3361.01
446.77	3543.57
446.95	3459.31
447.14	3405.48
447.32	3480.38
447.51	3478.04
447.69	3473.36
447.88	3562.30
448.06	3527.19
448.25	3503.78
448.43	3648.90
448.62	3550.59
448.80	3473.36
448.99	3578.68
449.17	3700.39
449.36	3557.61
449.54	3705.07
449.73	3545.91
449.91	3730.81
450.10	3538.89
450.28	3662.94
450.46	3667.62
450.65	3646.55
450.83	3775.28
451.02	3730.81
451.20	3889.97
451.39	3751.88
451.57	3819.75
451.76	3749.54
451.94	3854.86
452.13	3845.50
452.31	3794.01
452.49	3775.28
452.68	3815.07
452.86	3836.14
453.05	3864.22
453.23	3936.78
453.42	3810.39
453.60	3857.20
453.78	3826.78
453.97	3941.46
454.15	3969.55
454.34	3885.29
454.52	3878.27
454.70	3861.88
454.89	4035.08
455.07	3920.40
455.26	3997.64
455.44	4051.47
455.62	4032.74
455.81	4074.87
455.99	4138.07
456.17	4175.52
456.36	4093.60
456.54	4112.32
456.73	4198.92
456.91	4250.41
457.09	4353.40
457.28	4348.72
457.46	4313.61
457.64	4234.03
457.83	4397.87
458.01	4205.94
458.19	4367.44
458.38	4447.02
458.56	4435.32
458.74	4348.72
458.93	4308.93
459.11	4496.17
459.29	4414.25
459.48	4477.44
459.66	4482.13
459.84	4540.64
460.03	4503.19
460.21	4601.49
460.39	4428.29
460.57	4493.83
460.76	4599.15
460.94	4655.33
461.12	4624.90
461.31	4723.20
461.49	4538.30
461.67	4615.54
461.85	4755.97
462.04	4741.93
462.22	4793.42
462.40	4664.69
462.59	4727.88
462.77	4821.50
462.95	4826.18
463.13	4798.10
463.32	4947.89
463.50	4723.20
463.68	4786.40
463.86	4823.84
464.05	4821.50
464.23	4739.58
464.41	4844.91
464.59	4725.54
464.78	4938.53
464.96	4924.49
465.14	4812.14
465.32	4959.60
465.50	4805.12
465.69	5146.84
465.87	4952.57
466.05	4840.23
466.23	4884.70
466.41	4968.96
466.60	5294.29
466.78	5050.88
466.96	4873.00
467.14	4922.15
467.32	5132.79
467.51	5242.80
467.69	4973.64
467.87	4994.70
468.05	5156.20
468.23	5057.90
468.41	5142.16
468.60	5055.56
468.78	5369.19
468.96	5135.14
469.14	5252.16
469.32	5100.03
469.50	5362.17
469.69	5214.71
469.87	5240.46
470.05	5352.81
470.23	5322.38
470.41	5427.70
470.59	5268.55
470.77	5294.29
470.95	5507.28
471.14	5434.72
471.32	5343.44
471.50	5526.00
471.68	5586.86
471.86	5654.73
472.04	5659.42
472.22	5856.02
472.40	5495.58
472.58	5542.39
472.77	5619.63
472.95	5902.83
473.13	5989.43
473.31	5834.96
473.49	5668.78
473.67	5900.49
473.85	5823.25
474.03	5984.75
474.21	6050.28
474.39	6162.63
474.57	6045.60
474.75	6235.19
474.93	6164.97
475.12	6136.88
475.30	6209.44
475.48	6136.88
475.66	6349.87
475.84	6279.66
476.02	6399.02
476.20	6342.85
476.38	6293.70
476.56	6593.29
476.74	6457.54
476.92	6509.03
477.10	6408.39
477.28	6665.85
477.46	6726.70
477.64	6665.85
477.82	6911.60
478.00	6883.52
478.18	6920.96
478.36	6878.83
478.54	7185.44
478.72	7225.23
478.90	7087.14
479.08	7091.82
479.26	7105.87
479.44	7232.26
479.62	7440.56
479.80	7281.41
479.98	7466.31
480.16	7571.63
480.34	7522.48
480.52	7534.18
480.70	7618.44
480.88	7705.04
481.06	7662.91
481.24	7538.87
481.41	7854.84
481.59	7957.82
481.77	7995.27
481.95	8142.72
482.13	8070.17
482.31	7999.95
482.49	7999.95
482.67	8196.56
482.85	8287.84
483.03	8437.63
483.21	8624.87
483.39	8542.96
483.57	8407.20
483.74	8650.62
483.92	8655.30
484.10	8329.97
484.28	8931.48
484.46	8961.91
484.64	9092.98
484.82	9214.69
485.00	8943.19
485.18	9188.94
485.35	9191.28
485.53	9284.91
485.71	9394.91
485.89	9736.63
486.07	9572.79
486.25	9664.07
486.43	9547.05
486.61	9734.29
486.78	9795.14
486.96	9841.95
487.14	9973.02
487.32	10148.56
487.50	10061.96
487.68	10193.03
487.85	10466.88
488.03	10558.16
488.21	10338.15
488.39	10450.49
488.57	10820.30
488.75	10576.88
488.92	10984.13
489.10	10745.40
489.28	10981.79
489.46	10956.05
489.64	11136.27
489.81	11297.77
489.99	11288.40
490.17	11211.17
490.35	11463.94
490.53	11604.38
490.70	11536.50
490.88	11587.99
491.06	11758.85
491.24	11688.64
491.41	11676.93
491.59	11716.72
491.77	11967.16
491.95	12266.75
492.13	12219.94
492.30	12205.89
492.48	12276.11
492.66	12248.02
492.84	12292.49
493.01	12505.48
493.19	12390.80
493.37	12753.58
493.54	12648.26
493.72	12861.24
493.90	12606.13
494.08	12945.50
494.25	12854.22
494.43	13233.39
494.61	13270.84
494.79	13273.18
494.96	13102.32
495.14	13275.52
495.32	13462.76
495.49	13448.72
495.67	13628.94
495.85	13598.51
496.02	13664.05
496.20	14001.08
496.38	13973.00
496.55	13642.98
496.73	14190.67
496.91	14059.60
497.09	14176.62
497.26	14335.78
497.44	14326.42
497.62	14370.89
497.79	14448.13
497.97	14312.38
498.14	14714.95
498.32	14836.66
498.50	15126.88
498.67	14766.44
498.85	14869.42
499.03	14796.87
499.20	14689.20
499.38	14927.94
499.56	15166.67
499.73	15653.50
499.91	15176.03
500.08	15393.70
500.26	15475.62
500.44	15536.48
500.61	15260.29
500.79	15304.76
500.97	15374.98
501.14	15747.12
501.32	15669.89
501.49	15587.97
501.67	15695.63
501.84	15934.37
502.02	15864.15
502.20	15915.64
502.37	16245.66
502.55	15953.09
502.72	16329.92
502.90	16112.25
503.07	16030.33
503.25	16177.78
503.43	16091.18
503.60	16226.93
503.78	16582.70
503.95	16580.36
504.13	16446.94
504.30	16720.79
504.48	16379.07
504.65	16699.72
504.83	16823.77
505.01	16940.80
505.18	16819.09
505.36	17057.82
505.53	16919.73
505.71	16875.26
505.88	17034.42
506.06	16767.60
506.23	17174.85
506.41	17064.85
506.58	17228.68
506.76	17121.02
506.93	17329.33
507.11	17638.28
507.28	17420.61
507.46	17790.41
507.63	17664.02
507.81	17603.17
507.98	17914.46
508.16	17603.17
508.33	17591.47
508.50	17605.51
508.68	17577.42
508.85	18017.44
509.03	17888.71
509.20	18300.65
509.38	18420.02
509.55	18188.30
509.73	17982.34
509.90	18335.76
510.08	18082.98
510.25	18272.56
510.42	18302.99
510.60	18476.19
510.77	18331.08
510.95	18537.04
511.12	18640.03
511.30	18747.69
511.47	18717.26
511.64	18658.75
511.82	18927.91
511.99	18785.14
512.17	19047.28
512.34	18991.11
512.51	18998.13
512.69	19183.03
512.86	19201.76
513.04	19389.00
513.21	19236.86
513.38	19281.33
513.56	19307.08
513.73	18979.40
513.90	19054.30
514.08	19417.08
514.25	19672.20
514.43	19515.39
514.60	19754.12
514.77	19686.25
514.95	19772.85
515.12	19601.99
515.29	19817.32
515.47	19953.07
515.64	19974.13
515.81	20081.80
515.99	20126.27
516.16	19988.18
516.33	20175.42
516.51	20163.72
516.68	20217.55
516.85	20285.42
517.03	20360.32
517.20	20137.97
517.37	20531.18
517.54	20414.15
517.72	20102.86
517.89	20219.89
518.06	20166.06
518.24	20273.72
518.41	20706.72
518.58	20287.76
518.75	20538.20
518.93	20718.42
519.10	20627.14
519.27	20975.88
519.45	20601.40
519.62	20842.47
519.79	20882.26
519.96	20732.47
520.14	21233.34
520.31	21139.72
520.48	21172.49
520.65	20680.97
520.83	21116.31
521.00	21270.79
521.17	20868.22
521.34	21249.72
521.52	21455.69
521.69	21474.42
521.86	21275.47
522.03	21458.03
522.20	21792.73
522.38	21572.72
522.55	21521.23
522.72	21544.63
522.89	21888.69
523.07	22129.77
523.24	21979.97
523.41	22010.40
523.58	21914.44
523.75	22530.00
523.92	21888.69
524.10	21888.69
524.27	21776.34
524.44	21998.70
524.61	22567.45
524.78	22223.39
524.96	22242.11
525.13	22508.93
525.30	22698.52
525.47	22349.78
525.64	22412.97
525.81	22471.48
525.98	22576.81
526.16	22738.30
526.33	22644.68
526.50	22869.37
526.67	22408.29
526.84	22452.76
527.01	22609.58
527.18	22852.99
527.36	22852.99
527.53	22857.67
527.70	23522.38
527.87	23145.56
528.04	22764.05
528.21	22874.06
528.38	22883.42
528.55	23477.91
528.72	23049.60
528.89	23168.96
529.07	23103.43
529.24	23253.22
529.41	23356.21
529.58	23468.55
529.75	23353.87
529.92	23461.53
530.09	23559.83
530.26	23501.32
530.43	23482.59
530.60	23381.95
530.77	23662.82
530.94	23695.58
531.11	23510.68
531.28	23370.25
531.46	23831.33
531.63	23807.93
531.80	23784.52
531.97	23845.38
532.14	23754.10
532.31	23896.87
532.48	23997.51
532.65	23903.89
532.82	24133.26
532.99	24046.66
533.16	24032.62
533.33	24126.24
533.50	24694.99
533.67	24580.31
533.84	24219.86
534.01	24112.20
534.18	24105.18
534.35	24584.99
534.52	24093.47
534.69	24498.39
534.86	24734.78
535.03	24463.28
535.20	24690.31
535.37	24428.17
535.54	24676.27
535.71	24400.08
535.88	24299.44
536.05	24364.98
536.22	24666.91
536.38	24910.32
536.55	24655.20
536.72	24570.94
536.89	24697.33
537.06	24641.16
537.23	24964.15
537.40	24584.99
537.57	25240.34
537.74	25336.30
537.91	25404.17
538.08	25303.53
538.25	25046.07
538.42	24989.90
538.59	25413.54
538.75	24797.98
538.92	25226.29
539.09	25289.49
539.26	25146.72
539.43	25158.42
539.60	25661.63
539.77	25214.59
539.94	25198.21
540.11	25221.61
540.28	25404.17
540.44	25329.28
540.61	25387.79
540.78	25340.98
540.95	25678.02
541.12	25207.57
541.29	25596.10
541.46	25336.30
541.62	25633.55
541.79	25331.62
541.96	24893.94
542.13	25537.59
542.30	25619.50
542.47	25993.99
542.63	25982.29
542.80	25898.03
542.97	26045.48
543.14	26143.78
543.31	25881.64
543.48	26141.44
543.64	26284.22
543.81	26525.29
543.98	26410.60
544.15	26295.92
544.32	26422.31
544.48	26480.82
544.65	26661.04
544.82	26019.74
544.99	26221.02
545.16	26555.72
545.32	26485.50
545.49	26623.59
545.66	26546.36
545.83	27084.68
546.00	26668.06
546.16	26305.28
546.33	26183.57
546.50	26309.96
546.67	26740.62
546.83	26169.53
547.00	26450.39
547.17	26597.85
547.34	26663.38
547.50	26892.76
547.67	27030.85
547.84	26773.39
548.00	26869.35
548.17	27112.77
548.34	26841.26
548.51	27173.62
548.67	26969.99
548.84	26977.01
549.01	26916.16
549.18	27037.87
549.34	26824.88
549.51	27335.12
549.68	26806.16
549.84	26546.36
550.01	27309.37
550.18	27461.51
550.34	27318.73
550.51	27613.64
550.68	27307.03
550.84	27124.47
551.01	27246.18
551.18	26969.99
551.34	27187.66
551.51	27173.62
551.68	27557.47
551.84	27438.10
552.01	27487.25
552.18	27386.61
552.34	27351.50
552.51	27653.43
552.68	27262.56
552.84	27557.47
553.01	27791.52
553.18	27843.01
553.34	27611.30
553.51	27515.34
553.67	27868.76
553.84	27653.43
554.01	27772.80
554.17	27833.65
554.34	28011.53
554.51	27599.60
554.67	27735.35
554.84	27566.83
555.00	28072.39
555.17	28056.00
555.33	27765.78
555.50	28231.54
555.67	27807.90
555.83	28016.21
556.00	28051.32
556.16	28107.49
556.33	27880.46
556.50	27777.48
556.66	28414.10
556.83	28280.69
556.99	28299.42
557.16	28439.85
557.32	28449.21
557.49	28116.86
557.65	27913.23
557.82	28140.26
557.98	28290.06
558.15	28184.73
558.32	28589.64
558.48	28308.78
558.65	28261.97
558.81	28215.16
558.98	28395.38
559.14	28046.64
559.31	28685.61
559.47	28128.56
559.64	28781.57
559.80	28741.78
559.97	28765.18
560.13	28762.84
560.30	28840.08
560.46	28451.55
560.63	28699.65
560.79	28570.92
560.96	28830.72
561.12	28680.92
561.29	28276.01
561.45	28814.34
561.61	28772.21
561.78	28491.34
561.94	28547.51
562.11	28596.67
562.27	28800.29
562.44	28477.30
562.60	28680.92
562.77	28659.86
562.93	28606.03
563.10	28706.67
563.26	28938.38
563.42	28744.12
563.59	28922.00
563.75	28786.25
563.92	28772.21
564.08	28535.81
564.24	28498.36
564.41	28809.65
564.57	28720.71
564.74	28701.99
564.90	28987.53
565.07	29071.79
565.23	28692.63
565.39	29123.29
565.56	29067.11
565.72	28929.02
565.88	29104.56
566.05	29102.22
566.21	28931.36
566.38	28591.98
566.54	29137.33
566.70	29432.24
566.87	28989.88
567.03	28947.75
567.19	29399.47
567.36	28786.25
567.52	29177.12
567.68	29219.25
567.85	28999.24
568.01	29015.62
568.17	29223.93
568.34	29509.47
568.50	29233.29
568.66	29179.46
568.83	29249.67
568.99	29219.25
569.15	29268.40
569.32	29460.32
569.48	28896.25
569.64	29319.89
569.81	29137.33
569.97	29343.30
570.13	29280.10
570.30	29362.02
570.46	29322.23
570.62	28961.79
570.78	29219.25
570.95	29165.42
571.11	29457.98
571.27	28781.57
571.43	29069.45
571.60	29237.97
571.76	29326.91
571.92	29373.72
572.09	29612.46
572.25	29383.09
572.41	29549.26
572.57	29560.97
572.74	29638.20
572.90	29043.71
573.06	29032.00
573.22	29050.73
573.38	29273.08
573.55	29010.94
573.71	29745.87
573.87	29329.25
574.03	29280.10
574.20	29317.55
574.36	29064.77
574.52	29282.44
574.68	29050.73
574.84	29532.88
575.01	28926.68
575.17	29366.70
575.33	29472.03
575.49	29383.09
575.65	29469.69
575.82	29469.69
575.98	29518.84
576.14	29727.14
576.30	29469.69
576.46	29525.86
576.62	29385.43
576.79	29214.57
576.95	29095.20
577.11	29621.82
577.27	29577.35
577.43	29523.52
577.59	29443.94
577.75	29549.26
577.92	29589.05
578.08	29233.29
578.24	29479.05
578.40	29376.06
578.56	29551.60
578.72	29652.25
578.88	29598.41
579.04	29567.99
579.21	29331.59
579.37	29329.25
579.53	29495.43
579.69	29385.43
579.85	29347.98
580.01	29738.85
580.17	29268.40
580.33	29617.14
580.49	29364.36
580.65	29670.97
580.82	29591.39
580.98	29476.71
581.14	29663.95
581.30	29535.22
581.46	29472.03
581.62	29322.23
581.78	29425.22
581.94	29347.98
582.10	29645.23
582.26	29488.41
582.42	29745.87
582.58	29881.62
582.74	29579.69
582.90	29827.79
583.06	29383.09
583.22	29380.74
583.38	29809.06
583.54	29584.37
583.70	29043.71
583.86	29479.05
584.02	29523.52
584.18	29680.33
584.34	29755.23
584.50	29930.77
584.66	29940.13
584.82	29790.34
584.98	29727.14
585.14	29301.17
585.30	28940.72
585.46	29610.12
585.62	29472.03
585.78	29572.67
585.94	29661.61
586.10	29612.46
586.26	29731.83
586.42	29638.20
586.58	29560.97
586.74	29970.56
586.90	29429.90
587.06	29589.05
587.22	29560.97
587.38	29429.90
587.54	29930.77
587.70	29858.21
587.86	29525.86
588.02	29926.09
588.18	29991.62
588.34	29603.10
588.49	29647.57
588.65	29689.70
588.81	29879.28
588.97	29738.85
589.13	29663.95
589.29	29443.94
589.45	29841.83
589.61	29785.66
589.77	30298.23
589.93	29773.95
590.08	30118.01
590.24	29872.26
590.40	30441.01
590.56	30103.97
590.72	29792.68
590.88	29769.27
591.04	29785.66
591.20	30396.54
591.35	30078.22
591.51	30099.29
591.67	30213.98
591.83	30342.70
591.99	29900.34
