SpectraSuite Data File
++++++++++++++++++++++++++++++++++++
Date: Fri Oct 18 13:58:09 GMT-05:00 2013
User: bianchi
Dark Spectrum Present: No
Reference Spectrum Present: No
Number of Sampled Component Spectra: 1
Spectrometers: USB2+H05261
Integration Time (usec): 50000 (USB2+H05261)
Spectra Averaged: 1 (USB2+H05261)
Boxcar Smoothing: 0 (USB2+H05261)
Correct for Electrical Dark: No (USB2+H05261)
Strobe/Lamp Enabled: No (USB2+H05261)
Correct for Detector Non-linearity: No (USB2+H05261)
Correct for Stray Light: No (USB2+H05261)
Number of Pixels in Processed Spectrum: 2048
>>>>>Begin Processed Spectral Data<<<<<
365.73	0.00
365.92	0.00
366.12	0.00
366.32	0.00
366.52	0.00
366.72	0.00
366.91	0.00
367.11	0.00
367.31	0.00
367.51	0.00
367.70	0.00
367.90	0.00
368.10	0.00
368.30	0.00
368.49	0.00
368.69	0.00
368.89	0.00
369.09	0.00
369.28	0.00
369.48	0.00
369.68	0.00
369.87	0.00
370.07	0.00
370.27	0.00
370.47	0.00
370.66	49.15
370.86	86.60
371.06	147.45
371.25	189.58
371.45	51.49
371.65	133.41
371.84	25.75
372.04	154.48
372.24	215.33
372.44	149.79
372.63	189.58
372.83	264.48
373.03	182.56
373.22	159.16
373.42	205.97
373.62	248.10
373.81	234.05
374.01	194.26
374.21	311.29
374.40	159.16
374.60	243.42
374.79	220.01
374.99	269.16
375.19	241.08
375.38	243.42
375.58	236.39
375.78	243.42
375.97	294.91
376.17	248.10
376.37	346.40
376.56	259.80
376.76	283.20
376.95	266.82
377.15	236.39
377.35	334.70
377.54	280.86
377.74	278.52
377.93	278.52
378.13	285.55
378.33	266.82
378.52	215.33
378.72	276.18
378.91	285.55
379.11	351.08
379.31	311.29
379.50	201.29
379.70	353.42
379.89	313.63
380.09	318.31
380.28	304.27
380.48	273.84
380.68	283.20
380.87	320.65
381.07	383.85
381.26	365.12
381.46	313.63
381.65	308.95
381.85	341.72
382.04	358.10
382.24	355.76
382.43	292.57
382.63	308.95
382.83	339.38
383.02	376.83
383.22	287.89
383.41	313.63
383.61	327.68
383.80	386.19
384.00	322.99
384.19	355.76
384.39	376.83
384.58	386.19
384.78	355.76
384.97	470.45
385.17	374.49
385.36	365.12
385.56	344.06
385.75	381.51
385.95	491.51
386.14	313.63
386.34	315.97
386.53	407.25
386.72	367.46
386.92	458.74
387.11	416.62
387.31	395.55
387.50	416.62
387.70	334.70
387.89	418.96
388.09	369.80
388.28	334.70
388.48	418.96
388.67	442.36
388.86	411.93
389.06	416.62
389.25	451.72
389.45	489.17
389.64	402.57
389.84	538.32
390.03	521.94
390.22	514.92
390.42	463.43
390.61	510.24
390.81	507.90
391.00	468.11
391.19	540.66
391.39	545.34
391.58	531.30
391.78	582.79
391.97	573.43
392.16	493.85
392.36	545.34
392.55	552.37
392.75	521.94
392.94	545.34
393.13	606.20
393.33	545.34
393.52	545.34
393.71	571.09
393.91	564.07
394.10	599.18
394.29	561.73
394.49	655.35
394.68	636.63
394.88	608.54
395.07	592.16
395.26	636.63
395.46	624.92
395.65	554.71
395.84	610.88
396.04	723.23
396.23	718.54
396.42	627.26
396.62	671.73
396.81	641.31
397.00	594.50
397.19	676.41
397.39	655.35
397.58	695.14
397.77	655.35
397.97	709.18
398.16	699.82
398.35	662.37
398.55	706.84
398.74	709.18
398.93	695.14
399.12	788.76
399.32	603.86
399.51	709.18
399.70	608.54
399.90	812.17
400.09	758.33
400.28	751.31
400.47	798.12
400.67	802.80
400.86	758.33
401.05	739.61
401.24	821.53
401.44	753.65
401.63	823.87
401.82	828.55
402.01	849.61
402.21	814.51
402.40	858.98
402.59	828.55
402.78	833.23
402.97	884.72
403.17	835.57
403.36	938.55
403.55	826.21
403.74	858.98
403.93	959.62
404.13	924.51
404.32	891.74
404.51	912.81
404.70	828.55
404.89	891.74
405.09	971.32
405.28	964.30
405.47	950.26
405.66	964.30
405.85	968.98
406.05	966.64
406.24	1018.13
406.43	1027.50
406.62	1043.88
406.81	1074.31
407.00	990.05
407.20	964.30
407.39	1025.15
407.58	1064.94
407.77	1083.67
407.96	1025.15
408.15	1137.50
408.34	1081.33
408.54	1142.18
408.73	1149.20
408.92	1093.03
409.11	1086.01
409.30	1167.93
409.49	1174.95
409.68	1102.39
409.87	1179.63
410.07	1186.65
410.26	1181.97
410.45	1212.40
410.64	1132.82
410.83	1193.67
411.02	1191.33
411.21	1259.21
411.40	1233.46
411.59	1378.58
411.78	1299.00
411.98	1273.25
412.17	1303.68
412.36	1313.04
412.55	1343.47
412.74	1481.56
412.93	1287.29
413.12	1371.55
413.31	1434.75
413.50	1371.55
413.69	1495.60
413.88	1350.49
414.07	1511.99
414.26	1439.43
414.45	1509.65
414.64	1495.60
414.83	1544.75
415.02	1519.01
415.22	1624.33
415.41	1643.06
415.60	1579.86
415.79	1575.18
415.98	1544.75
416.17	1605.61
416.36	1598.59
416.55	1636.03
416.74	1678.16
416.93	1626.67
417.12	1687.53
417.31	1696.89
417.50	1671.14
417.69	1699.23
417.88	1682.85
418.07	1713.27
418.26	1776.47
418.45	1851.36
418.64	1764.76
418.83	1905.20
419.02	1825.62
419.21	1764.76
419.39	1839.66
419.58	1825.62
419.77	1778.81
419.96	1806.89
420.15	1902.86
420.34	1846.68
420.53	1884.13
420.72	1914.56
420.91	1870.09
421.10	1902.86
421.29	1907.54
421.48	1888.81
421.67	2001.16
421.86	1898.17
422.05	1977.75
422.24	2054.99
422.43	1900.52
422.61	1900.52
422.80	2010.52
422.99	2064.35
423.18	1987.11
423.37	1923.92
423.56	2045.63
423.75	1963.71
423.94	2015.20
424.13	1944.99
424.32	1935.62
424.50	2026.90
424.69	2015.20
424.88	2043.29
425.07	2022.22
425.26	2015.20
425.45	2122.87
425.64	2059.67
425.83	1987.11
426.01	2118.18
426.20	2047.97
426.39	2083.08
426.58	2092.44
426.77	2186.06
426.96	2204.78
427.15	2087.76
427.33	2043.29
427.52	2127.55
427.71	2125.21
427.90	2237.55
428.09	2129.89
428.28	2298.41
428.46	2181.38
428.65	2242.23
428.84	2228.19
429.03	2246.91
429.22	2267.98
429.40	2279.68
429.59	2244.57
429.78	2221.17
429.97	2230.53
430.16	2256.28
430.34	2251.60
430.53	2317.13
430.72	2291.38
430.91	2282.02
431.10	2298.41
431.28	2443.52
431.47	2413.09
431.66	2518.42
431.85	2466.92
432.03	2452.88
432.22	2420.11
432.41	2394.37
432.60	2525.44
432.79	2403.73
432.97	2511.39
433.16	2438.84
433.35	2450.54
433.54	2555.86
433.72	2560.55
433.91	2518.42
434.10	2530.12
434.28	2448.20
434.47	2647.15
434.66	2609.70
434.85	2562.89
435.03	2658.85
435.22	2553.52
435.41	2710.34
435.59	2675.23
435.78	2708.00
435.97	2740.77
436.16	2651.83
436.34	2710.34
436.53	2665.87
436.72	2803.96
436.90	2693.96
437.09	2647.15
437.28	2658.85
437.46	2668.21
437.65	2780.56
437.84	2729.06
438.02	2771.19
438.21	2719.70
438.40	2782.90
438.58	2803.96
438.77	2958.44
438.96	2988.86
439.14	3054.40
439.33	3063.76
439.52	2993.55
439.70	3005.25
439.89	3061.42
440.08	3152.70
440.26	3054.40
440.45	3243.98
440.63	3105.89
440.82	3229.94
441.01	3166.74
441.19	3082.49
441.38	3297.81
441.57	3204.19
441.75	3361.01
441.94	3332.92
442.12	3323.56
442.31	3300.16
442.50	3297.81
442.68	3295.47
442.87	3358.67
443.05	3379.73
443.24	3353.99
443.43	3375.05
443.61	3459.31
443.80	3386.76
443.98	3351.65
444.17	3248.66
444.35	3452.29
444.54	3407.82
444.73	3428.88
444.91	3466.33
445.10	3630.17
445.28	3468.67
445.47	3424.20
445.65	3389.10
445.84	3494.42
446.02	3566.98
446.21	3562.30
446.39	3492.08
446.58	3620.81
446.77	3557.61
446.95	3412.50
447.14	3487.40
447.32	3684.00
447.51	3524.85
447.69	3468.67
447.88	3602.08
448.06	3534.21
448.25	3421.86
448.43	3417.18
448.62	3616.13
448.80	3550.59
448.99	3688.68
449.17	3648.90
449.36	3597.40
449.54	3728.47
449.73	3714.43
449.91	3723.79
450.10	3749.54
450.28	3822.09
450.46	3761.24
450.65	3672.30
450.83	3763.58
451.02	3791.67
451.20	3974.23
451.39	4044.45
451.57	3934.44
451.76	3751.88
451.94	3700.39
452.13	3777.62
452.31	3939.12
452.49	3960.19
452.68	3932.10
452.86	3798.69
453.05	3992.95
453.23	4009.34
453.42	3936.78
453.60	4049.13
453.78	4032.74
453.97	3943.80
454.15	3819.75
454.34	3953.16
454.52	4002.32
454.70	4028.06
454.89	3939.12
455.07	4014.02
455.26	4049.13
455.44	4135.73
455.62	4166.15
455.81	4152.11
455.99	4095.94
456.17	4191.90
456.36	4271.48
456.54	4196.58
456.73	4456.38
456.91	4482.13
457.09	4353.40
457.28	4486.81
457.46	4301.90
457.64	4320.63
457.83	4304.25
458.01	4306.59
458.19	4376.80
458.38	4449.36
458.56	4603.83
458.74	4435.32
458.93	4418.93
459.11	4437.66
459.29	4550.00
459.48	4517.23
459.66	4622.56
459.84	4669.37
460.03	4674.05
460.21	4514.89
460.39	4676.39
460.57	4617.88
460.76	4554.68
460.94	4842.57
461.12	4772.35
461.31	4479.79
461.49	4638.94
461.67	4540.64
461.85	4809.80
462.04	4699.80
462.22	5013.43
462.40	4802.78
462.59	4699.80
462.77	4954.91
462.95	4978.32
463.13	4748.95
463.32	4945.55
463.50	4828.53
463.68	4784.06
463.86	4917.47
464.05	4807.46
464.23	4868.31
464.41	4957.25
464.59	4896.40
464.78	4875.34
464.96	5032.15
465.14	5006.41
465.32	5001.72
465.50	5156.20
465.69	5093.01
465.87	4854.27
466.05	5069.60
466.23	4983.00
466.41	5137.48
466.60	5076.62
466.78	5090.67
466.96	5132.79
467.14	5093.01
467.32	5172.58
467.51	5320.04
467.69	5041.51
467.87	5245.14
468.05	5205.35
468.23	5090.67
468.41	5284.93
468.60	5252.16
468.78	5448.77
468.96	5249.82
469.14	5408.98
469.32	5341.10
469.50	5322.38
469.69	5425.36
469.87	5371.53
470.05	5469.83
470.23	5493.24
470.41	5390.25
470.59	5551.75
470.77	5343.44
470.95	5572.82
471.14	5511.96
471.32	5502.60
471.50	5392.59
471.68	5572.82
471.86	5586.86
472.04	5741.33
472.22	5853.68
472.40	5919.21
472.58	5680.48
472.77	5750.70
472.95	6008.16
473.13	6054.97
473.31	5816.23
473.49	5923.90
473.67	5963.68
473.85	6033.90
474.03	6150.93
474.21	6176.67
474.39	5984.75
474.57	6087.73
474.75	6258.59
474.93	6375.62
475.12	6223.48
475.30	6239.87
475.48	6153.27
475.66	6270.30
475.84	6338.17
476.02	6487.96
476.20	6478.60
476.38	6635.42
476.56	6607.33
476.74	6630.74
476.92	6497.33
477.10	6565.20
477.28	6839.05
477.46	6609.67
477.64	6778.19
477.82	6890.54
478.00	6988.84
478.18	6942.03
478.36	7052.03
478.54	7108.21
478.72	7117.57
478.90	7122.25
479.08	7316.51
479.26	7412.48
479.44	7382.05
479.62	7396.09
479.80	7286.09
479.98	7557.59
480.16	7646.53
480.34	7393.75
480.52	7660.57
480.70	7683.98
480.88	7588.02
481.06	7749.51
481.24	7878.24
481.41	7836.11
481.59	8077.19
481.77	8152.09
481.95	7992.93
482.13	8088.89
482.31	8276.13
482.49	8470.40
482.67	8404.86
482.85	8599.13
483.03	8390.82
483.21	8655.30
483.39	8690.41
483.57	8802.75
483.74	8821.48
483.92	8865.95
484.10	8847.22
484.28	8868.29
484.46	9207.67
484.64	9144.47
484.82	9212.35
485.00	9268.52
485.18	9310.65
485.35	9603.22
485.53	9764.72
485.71	9774.08
485.89	9741.31
486.07	9696.84
486.25	9650.03
486.43	9954.30
486.61	9914.51
486.78	9905.15
486.96	9891.10
487.14	10246.87
487.32	10150.90
487.50	10272.61
487.68	10523.05
487.85	10504.32
488.03	10705.61
488.21	10497.30
488.39	10839.02
488.57	10778.17
488.75	10871.79
488.92	11054.35
489.10	11073.07
489.28	11103.50
489.46	11321.17
489.64	11154.99
489.81	11377.34
489.99	11454.58
490.17	11351.60
490.35	11686.29
490.53	11644.17
490.70	11758.85
490.88	11756.51
491.06	12030.35
491.24	11847.79
491.41	11960.14
491.59	11899.28
491.77	12102.91
491.95	12198.87
492.13	12393.14
492.30	12346.33
492.48	12421.22
492.66	12311.22
492.84	12491.44
493.01	12655.28
493.19	12772.30
493.37	12727.83
493.54	12758.26
493.72	12980.61
493.90	13011.04
494.08	13099.98
494.25	13310.63
494.43	13343.39
494.61	13418.29
494.79	13343.39
494.96	13432.33
495.14	13532.98
495.32	13752.99
495.49	13813.84
495.67	13657.03
495.85	13891.08
496.02	13832.57
496.20	14235.14
496.38	14094.71
496.55	14235.14
496.73	14518.34
496.91	14317.06
497.09	14394.29
497.26	14508.98
497.44	14714.95
497.62	14476.21
497.79	14693.88
497.97	14726.65
498.14	14918.57
498.32	15000.49
498.50	15047.30
498.67	15281.36
498.85	15026.24
499.03	15171.35
499.20	15248.59
499.38	15147.95
499.56	15351.57
499.73	15433.49
499.91	15522.43
500.08	15655.84
500.26	15559.88
500.44	15566.90
500.61	15695.63
500.79	15651.16
500.97	16006.92
501.14	16170.76
501.32	15964.79
501.49	16018.63
501.67	16255.02
501.84	16109.91
502.02	16020.97
502.20	16285.45
502.37	16264.38
502.55	16407.16
502.72	16409.50
502.90	16320.56
503.07	16453.97
503.25	16727.81
503.43	16098.20
503.60	16901.01
503.78	16978.25
503.95	16760.58
504.13	16627.17
504.30	16910.37
504.48	16821.43
504.65	17121.02
504.83	17062.51
505.01	17149.11
505.18	17170.17
505.36	17703.81
505.53	17003.99
505.71	17352.73
505.88	17544.66
506.06	17259.11
506.23	17446.35
506.41	17549.34
506.58	17607.85
506.76	17687.43
506.93	17748.28
507.11	17490.82
507.28	17703.81
507.46	17717.86
507.63	17827.86
507.81	18061.91
507.98	17991.70
508.16	18029.15
508.33	18057.23
508.50	18429.38
508.68	18099.36
508.85	18237.45
509.03	18150.85
509.20	18333.42
509.38	18604.92
509.55	18452.78
509.73	18560.45
509.90	18696.20
510.08	18525.34
510.25	18651.73
510.42	18803.86
510.60	19000.47
510.77	18876.42
510.95	18883.44
511.12	18883.44
511.30	19033.24
511.47	19058.98
511.64	19108.13
511.82	19344.53
511.99	19660.50
512.17	19342.19
512.34	19033.24
512.51	19410.06
512.69	19288.35
512.86	19522.41
513.04	19702.63
513.21	19758.80
513.38	19960.09
513.56	19637.09
513.73	19374.95
513.90	19782.21
514.08	19782.21
514.25	19908.60
514.43	19920.30
514.60	20037.33
514.77	20149.67
514.95	20341.60
515.12	19747.10
515.29	19941.36
515.47	20098.18
515.64	20271.38
515.81	20357.98
515.99	20456.28
516.16	20538.20
516.33	20582.67
516.51	20589.69
516.68	20470.33
516.85	20435.22
517.03	20699.70
517.20	20697.36
517.37	20858.85
517.54	20795.66
517.72	20540.54
517.89	20996.95
518.06	20900.98
518.24	20556.93
518.41	20755.87
518.58	21261.43
518.75	20844.81
518.93	21205.25
519.10	21032.05
519.27	21427.60
519.45	21184.19
519.62	21240.36
519.79	21242.70
519.96	21413.56
520.14	21490.80
520.31	21558.67
520.48	21537.61
520.65	21060.14
520.83	21654.64
521.00	21884.01
521.17	21558.67
521.34	21645.27
521.52	21682.72
521.69	21788.05
521.86	22122.74
522.03	22242.11
522.20	21970.61
522.38	22331.05
522.55	21991.67
522.72	22111.04
522.89	22153.17
523.07	22448.08
523.24	22431.69
523.41	22640.00
523.58	22211.68
523.75	22328.71
523.92	22263.18
524.10	22319.35
524.27	22333.39
524.44	22452.76
524.61	23094.07
524.78	22899.80
524.96	22965.34
525.13	23000.44
525.30	22948.95
525.47	22675.11
525.64	22909.16
525.81	22747.67
525.98	23021.51
526.16	22850.65
526.33	23300.03
526.50	23124.49
526.67	22899.80
526.84	23026.19
527.01	22948.95
527.18	23222.80
527.36	23344.50
527.53	23351.52
527.70	23847.72
527.87	23630.05
528.04	23440.47
528.21	23363.23
528.38	23440.47
528.55	23562.17
528.72	23580.90
528.89	23550.47
529.07	23964.75
529.24	23583.24
529.41	23960.06
529.58	23913.25
529.75	23740.05
529.92	24039.64
530.09	24018.58
530.26	24049.00
530.43	24252.63
530.60	23894.53
530.77	23789.20
530.94	23981.13
531.11	23997.51
531.28	23981.13
531.46	24187.10
531.63	24009.22
531.80	24376.68
531.97	24624.78
532.14	24753.51
532.31	24395.40
532.48	24025.60
532.65	24222.20
532.82	24133.26
532.99	24694.99
533.16	24472.64
533.33	24549.88
533.50	24828.40
533.67	24915.00
533.84	24411.79
534.01	24872.87
534.18	24500.73
534.35	24776.91
534.52	24884.58
534.69	25130.33
534.86	25013.31
535.03	24762.87
535.20	25315.23
535.37	25025.01
535.54	25455.67
535.71	25020.33
535.88	25472.05
536.05	25034.37
536.22	25216.93
536.38	25254.38
536.55	25127.99
536.72	25516.52
536.89	25277.79
537.06	25266.08
537.23	25392.47
537.40	25371.41
537.57	25607.80
537.74	25497.80
537.91	25914.41
538.08	25514.18
538.25	25418.22
538.42	25678.02
538.59	25881.64
538.75	25734.19
538.92	25687.38
539.09	25848.88
539.26	25942.50
539.43	25888.67
539.60	26113.36
539.77	25816.11
539.94	26171.87
540.11	25706.10
540.28	25961.22
540.44	25989.31
540.61	26038.46
540.78	25804.41
540.95	26050.16
541.12	26214.00
541.29	26040.80
541.46	26340.39
541.62	25785.68
541.79	26125.06
541.96	25750.57
542.13	25792.70
542.30	26251.45
542.47	26387.20
542.63	26267.83
542.80	26572.10
542.97	26682.11
543.14	26906.80
543.31	26780.41
543.48	26745.30
543.64	26731.26
543.81	26904.46
543.98	27136.17
544.15	26843.60
544.32	27117.45
544.48	27239.15
544.65	26780.41
544.82	26473.80
544.99	26803.82
545.16	27206.39
545.32	26906.80
545.49	27225.11
545.66	26944.25
545.83	27625.34
546.00	27332.78
546.16	27164.26
546.33	27246.18
546.50	27115.11
546.67	27377.25
546.83	26534.65
547.00	27325.75
547.17	27131.49
547.34	27356.18
547.50	27749.39
547.67	27697.90
547.84	27510.66
548.00	27756.41
548.17	27456.82
548.34	27543.42
548.51	27620.66
548.67	27777.48
548.84	27840.67
549.01	27711.94
549.18	27573.85
549.34	27557.47
549.51	27681.52
549.68	27594.92
549.84	27440.44
550.01	27695.56
550.18	27590.24
550.34	27793.86
550.51	28154.30
550.68	28168.35
550.84	27716.62
551.01	28184.73
551.18	27779.82
551.34	27974.08
551.51	28126.22
551.68	27948.34
551.84	27850.03
552.01	27709.60
552.18	28126.22
552.34	28081.75
552.51	28238.56
552.68	28240.90
552.84	28383.68
553.01	28491.34
553.18	28348.57
553.34	28371.97
553.51	28205.80
553.67	28453.89
553.84	28390.70
554.01	28437.51
554.17	28503.04
554.34	28285.37
554.51	28622.41
554.67	28517.09
554.84	28489.00
555.00	28407.08
555.17	28701.99
555.33	28325.16
555.50	28849.44
555.67	28732.42
555.83	28182.39
556.00	28486.66
556.16	28549.85
556.33	28746.46
556.50	28573.26
556.66	29010.94
556.83	28690.29
556.99	28999.24
557.16	28973.49
557.32	28889.23
557.49	29081.16
557.65	28762.84
557.82	28847.10
557.98	28854.12
558.15	28568.58
558.32	29226.27
558.48	29144.35
558.65	29355.00
558.81	28975.83
558.98	29001.58
559.14	29223.93
559.31	29048.39
559.47	29067.11
559.64	28947.75
559.80	29116.26
559.97	29022.64
560.13	28971.15
560.30	29340.96
560.46	29254.36
560.63	29186.48
560.79	29378.40
560.96	29244.99
561.12	29455.64
561.29	29174.78
561.45	29308.19
561.61	29233.29
561.78	29340.96
561.94	29216.91
562.11	29146.69
562.27	29701.40
562.44	29310.53
562.60	29469.69
562.77	29460.32
562.93	29266.06
563.10	29549.26
563.26	29415.85
563.42	29668.63
563.59	29825.45
563.75	29181.80
563.92	29401.81
564.08	29780.98
564.24	29612.46
564.41	29631.18
564.57	29659.27
564.74	29652.25
564.90	29514.16
565.07	29443.94
565.23	29549.26
565.39	29872.26
565.56	30036.09
565.72	29394.79
565.88	29865.24
566.05	29392.45
566.21	29638.20
566.38	29443.94
566.54	29750.55
566.70	29977.58
566.87	29600.76
567.03	29701.40
567.19	30024.39
567.36	29872.26
567.52	29593.73
567.68	29785.66
567.85	29392.45
568.01	29947.15
568.17	29762.25
568.34	30029.07
568.50	29993.97
568.66	29668.63
568.83	30024.39
568.99	30356.75
569.15	30188.23
569.32	29701.40
569.48	29656.93
569.64	30223.34
569.81	29902.68
569.97	29825.45
570.13	30375.47
570.30	29855.87
570.46	30132.06
570.62	29874.60
570.78	29610.12
570.95	29703.74
571.11	29961.20
571.27	29670.97
571.43	29687.36
571.60	29914.39
571.76	30125.04
571.92	29926.09
572.09	30082.91
572.25	30043.12
572.41	30352.07
572.57	29956.52
572.74	29912.05
572.90	29907.37
573.06	29848.85
573.22	30249.08
573.38	29928.43
573.55	30087.59
573.71	30665.70
573.87	30110.99
574.03	29874.60
574.20	30235.04
574.36	29890.98
574.52	30206.95
574.68	30162.48
574.84	30162.48
575.01	29762.25
575.17	29703.74
575.33	30045.46
575.49	30157.80
575.65	30312.28
575.82	30155.46
575.98	30323.98
576.14	30377.81
576.30	30103.97
576.46	30284.19
576.62	29865.24
576.79	30122.69
576.95	30134.40
577.11	30050.14
577.27	30478.46
577.43	30543.99
577.59	30024.39
577.75	29907.37
577.92	29905.02
578.08	29848.85
578.24	30281.85
578.40	30270.15
578.56	30527.61
578.72	30478.46
578.88	30515.90
579.04	30433.99
579.21	30239.72
579.37	30319.30
579.53	29902.68
579.69	30120.35
579.85	30029.07
580.01	30038.44
580.17	29830.13
580.33	30277.17
580.49	30139.08
580.65	30560.37
580.82	29961.20
580.98	30506.54
581.14	30670.38
581.30	30457.39
581.46	30239.72
581.62	30408.24
581.78	30279.51
581.94	30459.73
582.10	30438.67
582.26	30347.39
582.42	30190.57
582.58	30232.70
582.74	30511.22
582.90	30494.84
583.06	29839.49
583.22	30586.12
583.38	30286.53
583.54	30532.29
583.70	30075.88
583.86	30115.67
584.02	30494.84
584.18	30443.35
584.34	30665.70
584.50	30560.37
584.66	30307.60
584.82	30354.41
584.98	30567.40
585.14	30546.33
585.30	30199.93
585.46	30410.58
585.62	29996.31
585.78	30597.82
585.94	30047.80
586.10	30433.99
586.26	30366.11
586.42	30551.01
586.58	30843.58
586.74	30235.04
586.90	30387.18
587.06	30321.64
587.22	30490.16
587.38	30639.95
587.54	30705.49
587.70	30710.17
587.86	30567.40
588.02	30567.40
588.18	30293.55
588.34	30728.89
588.49	31103.38
588.65	30794.43
588.81	30597.82
588.97	30679.74
589.13	30462.07
589.29	30513.56
589.45	30637.61
589.61	30794.43
589.77	31145.51
589.93	30787.41
590.08	30822.51
590.24	30925.50
590.40	31014.44
590.56	30895.07
590.72	30703.15
590.88	30529.95
591.04	30323.98
591.20	30705.49
591.35	30845.92
591.51	31023.80
591.67	31005.08
591.83	31103.38
591.99	31161.89
