SpectraSuite Data File
++++++++++++++++++++++++++++++++++++
Date: Fri Oct 18 13:58:15 GMT-05:00 2013
User: bianchi
Dark Spectrum Present: No
Reference Spectrum Present: No
Number of Sampled Component Spectra: 1
Spectrometers: USB2+H05261
Integration Time (usec): 50000 (USB2+H05261)
Spectra Averaged: 1 (USB2+H05261)
Boxcar Smoothing: 0 (USB2+H05261)
Correct for Electrical Dark: No (USB2+H05261)
Strobe/Lamp Enabled: No (USB2+H05261)
Correct for Detector Non-linearity: No (USB2+H05261)
Correct for Stray Light: No (USB2+H05261)
Number of Pixels in Processed Spectrum: 2048
>>>>>Begin Processed Spectral Data<<<<<
365.73	0.00
365.92	0.00
366.12	0.00
366.32	0.00
366.52	0.00
366.72	0.00
366.91	0.00
367.11	0.00
367.31	0.00
367.51	0.00
367.70	0.00
367.90	0.00
368.10	0.00
368.30	0.00
368.49	0.00
368.69	0.00
368.89	0.00
369.09	0.00
369.28	0.00
369.48	0.00
369.68	0.00
369.87	0.00
370.07	0.00
370.27	0.00
370.47	0.00
370.66	98.30
370.86	53.83
371.06	138.09
371.25	191.92
371.45	149.79
371.65	182.56
371.84	138.09
372.04	173.20
372.24	156.82
372.44	191.92
372.63	224.69
372.83	201.29
373.03	203.63
373.22	166.18
373.42	126.39
373.62	248.10
373.81	271.50
374.01	252.78
374.21	196.60
374.40	203.63
374.60	269.16
374.79	297.25
374.99	290.23
375.19	245.76
375.38	304.27
375.58	210.65
375.78	271.50
375.97	222.35
376.17	301.93
376.37	290.23
376.56	278.52
376.76	205.97
376.95	205.97
377.15	184.90
377.35	241.08
377.54	248.10
377.74	297.25
377.93	259.80
378.13	266.82
378.33	271.50
378.52	308.95
378.72	372.15
378.91	311.29
379.11	311.29
379.31	283.20
379.50	283.20
379.70	365.12
379.89	301.93
380.09	297.25
380.28	308.95
380.48	248.10
380.68	264.48
380.87	257.46
381.07	269.16
381.26	341.72
381.46	327.68
381.65	273.84
381.85	280.86
382.04	280.86
382.24	372.15
382.43	234.05
382.63	264.48
382.83	339.38
383.02	355.76
383.22	327.68
383.41	290.23
383.61	379.17
383.80	318.31
384.00	283.20
384.19	355.76
384.39	351.08
384.58	315.97
384.78	337.04
384.97	388.53
385.17	334.70
385.36	383.85
385.56	472.79
385.75	482.15
385.95	395.55
386.14	409.59
386.34	390.87
386.53	482.15
386.72	358.10
386.92	477.47
387.11	411.93
387.31	442.36
387.50	402.57
387.70	456.40
387.89	418.96
388.09	458.74
388.28	444.70
388.48	411.93
388.67	388.53
388.86	482.15
389.06	444.70
389.25	346.40
389.45	367.46
389.64	435.34
389.84	454.06
390.03	491.51
390.22	430.66
390.42	554.71
390.61	526.62
390.81	409.59
391.00	463.43
391.19	568.75
391.39	587.47
391.58	498.53
391.78	543.00
391.97	468.11
392.16	477.47
392.36	620.24
392.55	545.34
392.75	573.43
392.94	550.03
393.13	568.75
393.33	540.66
393.52	545.34
393.71	557.05
393.91	514.92
394.10	514.92
394.29	535.98
394.49	608.54
394.68	531.30
394.88	596.84
395.07	683.44
395.26	603.86
395.46	559.39
395.65	655.35
395.84	744.29
396.04	706.84
396.23	737.27
396.42	622.58
396.62	655.35
396.81	610.88
397.00	634.29
397.19	678.76
397.39	606.20
397.58	643.65
397.77	645.99
397.97	676.41
398.16	589.82
398.35	727.91
398.55	678.76
398.74	746.63
398.93	697.48
399.12	702.16
399.32	683.44
399.51	688.12
399.70	809.83
399.90	720.88
400.09	730.25
400.28	755.99
400.47	692.80
400.67	819.19
400.86	763.01
401.05	713.86
401.24	737.27
401.44	788.76
401.63	763.01
401.82	823.87
402.01	711.52
402.21	725.57
402.40	894.08
402.59	943.24
402.78	877.70
402.97	933.87
403.17	875.36
403.36	856.64
403.55	903.45
403.74	938.55
403.93	847.27
404.13	873.02
404.32	912.81
404.51	1001.75
404.70	1008.77
404.89	875.36
405.09	1046.22
405.28	936.21
405.47	950.26
405.66	990.05
405.85	929.19
406.05	880.04
406.24	1039.20
406.43	1015.79
406.62	1027.50
406.81	1095.37
407.00	957.28
407.20	901.11
407.39	1015.79
407.58	1041.54
407.77	957.28
407.96	1076.65
408.15	1011.11
408.34	1006.43
408.54	1011.11
408.73	1069.62
408.92	1093.03
409.11	1132.82
409.30	1107.07
409.49	1125.80
409.68	1132.82
409.87	1163.25
410.07	1153.88
410.26	1116.44
410.45	1130.48
410.64	1226.44
410.83	1322.40
411.02	1207.72
411.21	1254.53
411.40	1203.04
411.59	1287.29
411.78	1275.59
411.98	1324.74
412.17	1240.48
412.36	1217.08
412.55	1345.81
412.74	1345.81
412.93	1348.15
413.12	1380.92
413.31	1357.51
413.50	1383.26
413.69	1409.00
413.88	1448.79
414.07	1376.24
414.26	1474.54
414.45	1409.00
414.64	1500.28
414.83	1589.22
415.02	1465.18
415.22	1563.48
415.41	1596.25
415.60	1614.97
415.79	1600.93
415.98	1434.75
416.17	1535.39
416.36	1572.84
416.55	1631.35
416.74	1661.78
416.93	1699.23
417.12	1636.03
417.31	1547.09
417.50	1696.89
417.69	1837.32
417.88	1788.17
418.07	1675.82
418.26	1762.42
418.45	1680.50
418.64	1816.26
418.83	1720.29
419.02	1788.17
419.21	1797.53
419.39	1732.00
419.58	1804.55
419.77	1837.32
419.96	1839.66
420.15	1806.89
420.34	1790.51
420.53	1825.62
420.72	1961.37
420.91	1933.28
421.10	1963.71
421.29	2024.56
421.48	1846.68
421.67	1902.86
421.86	1975.41
422.05	1959.03
422.24	1926.26
422.43	1916.90
422.61	1984.77
422.80	1886.47
422.99	1961.37
423.18	2143.93
423.37	1961.37
423.56	2054.99
423.75	1928.60
423.94	2040.95
424.13	1839.66
424.32	1877.11
424.50	1968.39
424.69	2015.20
424.88	2108.82
425.07	2029.24
425.26	2005.84
425.45	2001.16
425.64	2031.58
425.83	1975.41
426.01	2094.78
426.20	2113.50
426.39	2097.12
426.58	2012.86
426.77	2099.46
426.96	2155.63
427.15	2064.35
427.33	2038.61
427.52	2174.36
427.71	2064.35
427.90	2043.29
428.09	2101.80
428.28	2172.02
428.46	2242.23
428.65	2256.28
428.84	2293.72
429.03	2176.70
429.22	2253.94
429.40	2239.89
429.59	2291.38
429.78	2085.42
429.97	2174.36
430.16	2225.85
430.34	2195.42
430.53	2392.03
430.72	2345.22
430.91	2232.87
431.10	2237.55
431.28	2312.45
431.47	2335.85
431.66	2382.67
431.85	2333.51
432.03	2466.92
432.22	2464.58
432.41	2389.69
432.60	2457.56
432.79	2366.28
432.97	2457.56
433.16	2520.76
433.35	2424.80
433.54	2560.55
433.72	2541.82
433.91	2602.68
434.10	2544.16
434.28	2427.14
434.47	2518.42
434.66	2530.12
434.85	2434.16
435.03	2693.96
435.22	2633.10
435.41	2677.57
435.59	2532.46
435.78	2553.52
435.97	2621.40
436.16	2607.36
436.34	2626.08
436.53	2574.59
436.72	2663.53
436.90	2619.06
437.09	2848.43
437.28	2813.32
437.46	2586.29
437.65	2649.49
437.84	2750.13
438.02	2668.21
438.21	2780.56
438.40	2633.10
438.58	2876.52
438.77	2794.60
438.96	2928.01
439.14	2883.54
439.33	2825.03
439.52	3009.93
439.70	2935.03
439.89	3068.44
440.08	3112.91
440.26	3035.67
440.45	3096.53
440.63	3026.31
440.82	2984.18
441.01	3098.87
441.19	3169.09
441.38	3138.66
441.57	3117.59
441.75	3236.96
441.94	3213.56
442.12	3199.51
442.31	3274.41
442.50	3297.81
442.68	3236.96
442.87	3232.28
443.05	3342.28
443.24	3314.20
443.43	3353.99
443.61	3351.65
443.80	3419.52
443.98	3386.76
444.17	3325.90
444.35	3452.29
444.54	3405.48
444.73	3370.37
444.91	3468.67
445.10	3454.63
445.28	3492.08
445.47	3368.03
445.65	3361.01
445.84	3449.95
446.02	3456.97
446.21	3398.46
446.39	3393.78
446.58	3433.57
446.77	3482.72
446.95	3478.04
447.14	3473.36
447.32	3534.21
447.51	3667.62
447.69	3466.33
447.88	3492.08
448.06	3417.18
448.25	3300.16
448.43	3557.61
448.62	3433.57
448.80	3426.54
448.99	3475.70
449.17	3566.98
449.36	3501.44
449.54	3611.45
449.73	3616.13
449.91	3747.20
450.10	3691.02
450.28	3653.58
450.46	3740.18
450.65	3784.65
450.83	3751.88
451.02	3625.49
451.20	3751.88
451.39	3824.44
451.57	3796.35
451.76	3712.09
451.94	3836.14
452.13	3983.59
452.31	3801.03
452.49	3726.13
452.68	3836.14
452.86	3875.93
453.05	3770.60
453.23	3936.78
453.42	3882.95
453.60	3789.33
453.78	3882.95
453.97	3796.35
454.15	3798.69
454.34	3754.22
454.52	3859.54
454.70	4028.06
454.89	3957.85
455.07	3967.21
455.26	3950.82
455.44	4056.15
455.62	4074.87
455.81	3967.21
455.99	4236.37
456.17	4102.96
456.36	4243.39
456.54	4131.05
456.73	4152.11
456.91	4217.65
457.09	4236.37
457.28	4337.01
457.46	4287.86
457.64	4313.61
457.83	4264.46
458.01	4241.05
458.19	4306.59
458.38	4355.74
458.56	4386.16
458.74	4299.56
458.93	4278.50
459.11	4339.35
459.29	4334.67
459.48	4280.84
459.66	4582.77
459.84	4617.88
460.03	4545.32
460.21	4531.28
460.39	4596.81
460.57	4535.96
460.76	4606.17
460.94	4498.51
461.12	4730.22
461.31	4594.47
461.49	4713.84
461.67	4582.77
461.85	4678.73
462.04	4741.93
462.22	4894.06
462.40	4777.03
462.59	4660.01
462.77	4664.69
462.95	4880.02
463.13	4910.44
463.32	4685.75
463.50	4786.40
463.68	4844.91
463.86	4758.31
464.05	4793.42
464.23	4830.87
464.41	4910.44
464.59	4833.21
464.78	4990.02
464.96	4940.87
465.14	4854.27
465.32	5006.41
465.50	4959.60
465.69	4873.00
465.87	4933.85
466.05	4968.96
466.23	5027.47
466.41	4964.28
466.60	5128.11
466.78	5029.81
466.96	5048.54
467.14	5151.52
467.32	4964.28
467.51	5111.73
467.69	4837.89
467.87	4915.12
468.05	5146.84
468.23	4889.38
468.41	4999.38
468.60	5130.45
468.78	5174.92
468.96	5224.08
469.14	5193.65
469.32	5310.68
469.50	5111.73
469.69	5282.59
469.87	5303.65
470.05	5329.40
470.23	5200.67
470.41	5376.21
470.59	5418.34
470.77	5495.58
470.95	5465.15
471.14	5544.73
471.32	5392.59
471.50	5521.32
471.68	5558.77
471.86	5586.86
472.04	5717.93
472.22	5767.08
472.40	5699.20
472.58	5668.78
472.77	5741.33
472.95	5771.76
473.13	6029.22
473.31	5846.66
473.49	5720.27
473.67	5760.06
473.85	5865.38
474.03	5996.45
474.21	5940.28
474.39	6005.81
474.57	5961.34
474.75	6050.28
474.93	6228.17
475.12	6221.14
475.30	5884.11
475.48	6033.90
475.66	6179.01
475.84	6260.93
476.02	6235.19
476.20	6197.74
476.38	6279.66
476.56	6539.46
476.74	6616.69
476.92	6417.75
477.10	6459.88
477.28	6497.33
477.46	6775.85
477.64	6722.02
477.82	6696.27
478.00	6949.05
478.18	6927.99
478.36	6855.43
478.54	7068.42
478.72	7180.76
478.90	7164.38
479.08	7019.27
479.26	7272.04
479.44	7267.36
479.62	7360.98
479.80	7314.17
479.98	7543.55
480.16	7485.03
480.34	7426.52
480.52	7627.81
480.70	7503.76
480.88	7620.78
481.06	7597.38
481.24	7616.10
481.41	7749.51
481.59	8002.29
481.77	7861.86
481.95	8119.32
482.13	8042.08
482.31	8044.42
482.49	8168.47
482.67	8156.77
482.85	8306.56
483.03	8446.99
483.21	8449.33
483.39	8662.32
483.57	8526.57
483.74	8500.83
483.92	8695.09
484.10	8461.04
484.28	8905.74
484.46	8975.95
484.64	8856.59
484.82	8912.76
485.00	9078.94
485.18	9057.87
485.35	9284.91
485.53	9305.97
485.71	9444.06
485.89	9762.37
486.07	9544.70
486.25	9645.35
486.43	9277.88
486.61	9605.56
486.78	9947.28
486.96	9930.89
487.14	10029.20
487.32	9956.64
487.50	9994.09
487.68	10265.59
487.85	10326.44
488.03	10368.57
488.21	10574.54
488.39	10527.73
488.57	10548.79
488.75	10703.27
488.92	10890.51
489.10	10881.15
489.28	10939.66
489.46	11225.21
489.64	10883.49
489.81	11276.70
489.99	11098.82
490.17	11286.06
490.35	11318.83
490.53	11459.26
490.70	11611.40
490.88	11618.42
491.06	11611.40
491.24	11580.97
491.41	11892.26
491.59	11957.80
491.77	11728.42
491.95	11932.05
492.13	12006.95
492.30	12285.47
492.48	12229.30
492.66	12100.57
492.84	12327.60
493.01	12449.31
493.19	12634.21
493.37	12505.48
493.54	12634.21
493.72	12805.07
493.90	12744.22
494.08	12868.27
494.25	13291.90
494.43	13240.41
494.61	13329.35
494.79	13397.23
494.96	13221.69
495.14	13209.98
495.32	13390.20
495.49	13565.74
495.67	13717.88
495.85	13834.91
496.02	13738.94
496.20	13635.96
496.38	13862.99
496.55	13659.37
496.73	14157.90
496.91	13841.93
497.09	14097.05
497.26	14188.33
497.44	14284.29
497.62	14295.99
497.79	14246.84
497.97	14464.51
498.14	14839.00
498.32	14946.66
498.50	14745.38
498.67	14927.94
498.85	14707.93
499.03	14710.27
499.20	14831.97
499.38	14958.36
499.56	15084.75
499.73	14974.75
499.91	15239.23
500.08	15314.13
500.26	15047.30
500.44	15473.28
500.61	15316.47
500.79	15473.28
500.97	15515.41
501.14	15798.62
501.32	15475.62
501.49	15611.37
501.67	15777.55
501.84	15906.28
502.02	15974.16
502.20	16201.19
502.37	16058.42
502.55	15803.30
502.72	16126.29
502.90	15899.26
503.07	16217.57
503.25	16121.61
503.43	16336.94
503.60	16505.46
503.78	16416.52
503.95	16477.37
504.13	16540.57
504.30	16512.48
504.48	16503.12
504.65	16538.23
504.83	16964.20
505.01	16966.54
505.18	17022.72
505.36	17088.25
505.53	16673.98
505.71	17071.87
505.88	16858.88
506.06	16872.92
506.23	16994.63
506.41	17034.42
506.58	17455.72
506.76	17085.91
506.93	17303.58
507.11	17296.56
507.28	17748.28
507.46	17404.22
507.63	17486.14
507.81	17769.35
507.98	17434.65
508.16	17776.37
508.33	17792.75
508.50	17284.86
508.68	17837.22
508.85	17907.44
509.03	17851.27
509.20	18239.79
509.38	18314.69
509.55	18274.90
509.73	18188.30
509.90	18157.88
510.08	18132.13
510.25	18047.87
510.42	18422.36
510.60	18733.65
510.77	18530.02
510.95	18530.02
511.12	18735.99
511.30	18576.83
511.47	18665.77
511.64	18640.03
511.82	18614.28
511.99	18764.07
512.17	18925.57
512.34	19075.37
512.51	19103.45
512.69	19058.98
512.86	19056.64
513.04	19360.91
513.21	19379.64
513.38	19428.79
513.56	19449.85
513.73	19374.95
513.90	19683.91
514.08	19527.09
514.25	19520.07
514.43	19887.53
514.60	19737.74
514.77	19833.70
514.95	19793.91
515.12	19854.76
515.29	19538.79
515.47	19772.85
515.64	20121.59
515.81	19637.09
515.99	20023.28
516.16	20329.89
516.33	20407.13
516.51	20166.06
516.68	20070.09
516.85	20018.60
517.03	20290.10
517.20	20437.56
517.37	20840.13
517.54	20676.29
517.72	20329.89
517.89	20655.23
518.06	20798.00
518.24	20444.58
518.41	20549.90
518.58	20769.91
518.75	20582.67
518.93	20856.51
519.10	20634.16
519.27	20961.84
519.45	20865.88
519.62	21039.08
519.79	21102.27
519.96	20886.94
520.14	21303.56
520.31	20982.90
520.48	21324.62
520.65	21275.47
520.83	21593.78
521.00	21212.28
521.17	21205.25
521.34	21081.21
521.52	21338.66
521.69	21373.77
521.86	21717.83
522.03	21605.49
522.20	21647.61
522.38	21544.63
522.55	21479.10
522.72	21654.64
522.89	21778.68
523.07	21984.65
523.24	21743.58
523.41	22340.41
523.58	21713.15
523.75	22312.33
523.92	22017.42
524.10	22066.57
524.27	22490.21
524.44	22078.27
524.61	22270.20
524.78	22438.72
524.96	22412.97
525.13	22651.70
525.30	22309.99
525.47	22572.13
525.64	22485.53
525.81	22829.59
525.98	22452.76
526.16	22600.21
526.33	22590.85
526.50	22883.42
526.67	22682.13
526.84	22654.05
527.01	22855.33
527.18	23133.86
527.36	22750.01
527.53	22911.50
527.70	23346.84
527.87	23161.94
528.04	23063.64
528.21	23019.17
528.38	22782.77
528.55	23466.21
528.72	23168.96
528.89	23260.24
529.07	23126.83
529.24	22838.95
529.41	23405.36
529.58	23145.56
529.75	23536.43
529.92	23386.63
530.09	23468.55
530.26	23552.81
530.43	23660.48
530.60	23351.52
530.77	23377.27
530.94	23400.68
531.11	23545.79
531.28	23765.80
531.46	23967.09
531.63	23906.23
531.80	23861.76
531.97	24128.58
532.14	23889.85
532.31	23770.48
532.48	23917.93
532.65	24098.16
532.82	23915.59
532.99	23889.85
533.16	23674.52
533.33	24329.87
533.50	24563.92
533.67	24343.91
533.84	24109.86
534.01	24400.08
534.18	24070.07
534.35	24542.86
534.52	24159.01
534.69	24383.70
534.86	24589.67
535.03	24638.82
535.20	24650.52
535.37	24592.01
535.54	24477.32
535.71	24388.38
535.88	24549.88
536.05	24620.10
536.22	24603.71
536.38	24891.60
536.55	24954.79
536.72	25020.33
536.89	24507.75
537.06	24840.11
537.23	24781.59
537.40	24727.76
537.57	24917.34
537.74	24929.05
537.91	25317.57
538.08	25106.93
538.25	24968.84
538.42	25120.97
538.59	25071.82
538.75	25120.97
538.92	25436.94
539.09	25263.74
539.26	25355.02
539.43	25212.25
539.60	25291.83
539.77	25219.27
539.94	25083.52
540.11	25668.66
540.28	25586.74
540.44	25350.34
540.61	25462.69
540.78	25376.09
540.95	25422.90
541.12	25652.27
541.29	25750.57
541.46	25865.26
541.62	25717.81
541.79	25467.37
541.96	25343.32
542.13	25397.15
542.30	25781.00
542.47	26132.08
542.63	25958.88
542.80	26017.40
542.97	26125.06
543.14	26328.69
543.31	26183.57
543.48	26368.48
543.64	26284.22
543.81	26043.14
543.98	26263.15
544.15	26244.43
544.32	26340.39
544.48	26522.95
544.65	26115.70
544.82	26024.42
544.99	26380.18
545.16	26539.33
545.32	26534.65
545.49	26845.94
545.66	26768.71
545.83	26689.13
546.00	26621.25
546.16	26635.30
546.33	26995.74
546.50	26218.68
546.67	26726.58
546.83	26574.44
547.00	26614.23
547.17	26757.00
547.34	26693.81
547.50	26991.06
547.67	27082.34
547.84	27021.48
548.00	27171.28
548.17	27037.87
548.34	27089.36
548.51	27513.00
548.67	27154.90
548.84	26948.93
549.01	27037.87
549.18	27236.81
549.34	27026.17
549.51	27388.95
549.68	27194.68
549.84	26991.06
550.01	26969.99
550.18	27246.18
550.34	27356.18
550.51	27201.71
550.68	27370.22
550.84	27653.43
551.01	27321.07
551.18	27138.51
551.34	27105.74
551.51	27019.14
551.68	27433.42
551.84	27529.38
552.01	27454.48
552.18	27644.07
552.34	27494.27
552.51	27634.71
552.68	27440.44
552.84	27566.83
553.01	27814.93
553.18	27747.05
553.34	27630.02
553.51	27702.58
553.67	28044.30
553.84	28032.60
554.01	28046.64
554.17	27938.97
554.34	28020.89
554.51	27562.15
554.67	28144.94
554.84	27899.19
555.00	27960.04
555.17	27723.65
555.33	28067.70
555.50	27800.88
555.67	28203.46
555.83	28013.87
556.00	27999.83
556.16	27999.83
556.33	28283.03
556.50	27859.40
556.66	28135.58
556.83	28245.58
556.99	28364.95
557.16	28144.94
557.32	28465.60
557.49	28659.86
557.65	28226.86
557.82	28137.92
557.98	28151.96
558.15	28168.35
558.32	28617.73
558.48	28599.01
558.65	28685.61
558.81	28369.63
558.98	28301.76
559.14	28390.70
559.31	28184.73
559.47	28568.58
559.64	28273.67
559.80	28603.69
559.97	28627.09
560.13	28917.32
560.30	28765.18
560.46	28893.91
560.63	28425.81
560.79	28631.77
560.96	28596.67
561.12	28582.62
561.29	28678.58
561.45	28744.12
561.61	28620.07
561.78	28627.09
561.94	28823.70
562.11	28893.91
562.27	28570.92
562.44	28561.56
562.60	28493.68
562.77	28788.59
562.93	28854.12
563.10	28774.55
563.26	28446.87
563.42	29010.94
563.59	29174.78
563.75	29130.31
563.92	29001.58
564.08	28533.47
564.24	28931.36
564.41	28840.08
564.57	28800.29
564.74	28762.84
564.90	28903.28
565.07	28905.62
565.23	29289.46
565.39	28879.87
565.56	28823.70
565.72	28758.16
565.88	29078.82
566.05	29113.92
566.21	29144.35
566.38	29097.54
566.54	29153.71
566.70	29516.50
566.87	29373.72
567.03	29139.67
567.19	29652.25
567.36	29125.63
567.52	29252.02
567.68	29565.65
567.85	29020.30
568.01	29048.39
568.17	28685.61
568.34	29057.75
568.50	29577.35
568.66	29015.62
568.83	29130.31
568.99	29317.55
569.15	29034.35
569.32	29032.00
569.48	29034.35
569.64	29085.84
569.81	29291.80
569.97	28910.30
570.13	29076.48
570.30	29235.63
570.46	29467.34
570.62	29174.78
570.78	29345.64
570.95	29043.71
571.11	29270.74
571.27	29289.46
571.43	29060.09
571.60	29191.16
571.76	29252.02
571.92	29397.13
572.09	29343.30
572.25	29434.58
572.41	29467.34
572.57	29481.39
572.74	29530.54
572.90	29123.29
573.06	29582.03
573.22	29476.71
573.38	29535.22
573.55	29392.45
573.71	29769.27
573.87	29577.35
574.03	29394.79
574.20	29621.82
574.36	29296.49
574.52	29228.61
574.68	29495.43
574.84	29226.27
575.01	29701.40
575.17	29841.83
575.33	29532.88
575.49	29333.93
575.65	29736.51
575.82	29710.76
575.98	29460.32
576.14	29450.96
576.30	29853.53
576.46	29006.26
576.62	29511.81
576.79	29273.08
576.95	29345.64
577.11	29963.54
577.27	29350.32
577.43	29921.41
577.59	29441.60
577.75	29692.04
577.92	29373.72
578.08	29509.47
578.24	29296.49
578.40	29567.99
578.56	29652.25
578.72	29738.85
578.88	29858.21
579.04	29647.57
579.21	29715.44
579.37	29764.59
579.53	30019.71
579.69	29872.26
579.85	29399.47
580.01	29710.76
580.17	29472.03
580.33	29521.18
580.49	29893.32
580.65	29860.55
580.82	29673.31
580.98	29654.59
581.14	29961.20
581.30	29687.36
581.46	29411.17
581.62	29556.28
581.78	29420.53
581.94	29666.29
582.10	29549.26
582.26	29624.16
582.42	29647.57
582.58	30087.59
582.74	29895.66
582.90	29764.59
583.06	29909.71
583.22	29600.76
583.38	29869.92
583.54	29586.71
583.70	29713.10
583.86	29755.23
584.02	29759.91
584.18	29729.48
584.34	29811.40
584.50	29649.91
584.66	29556.28
584.82	30078.22
584.98	29797.36
585.14	29556.28
585.30	29738.85
585.46	29923.75
585.62	29750.55
585.78	29472.03
585.94	29427.56
586.10	30134.40
586.26	29968.22
586.42	30300.58
586.58	29715.44
586.74	29795.02
586.90	29511.81
587.06	29642.88
587.22	29806.72
587.38	29610.12
587.54	29827.79
587.70	29895.66
587.86	30499.52
588.02	30015.03
588.18	30160.14
588.34	30066.52
588.49	29788.00
588.65	29783.32
588.81	30122.69
588.97	29675.65
589.13	29827.79
589.29	29933.11
589.45	29982.26
589.61	29795.02
589.77	30085.25
589.93	30118.01
590.08	30178.87
590.24	30092.27
590.40	30029.07
590.56	29926.09
590.72	29977.58
590.88	29963.54
591.04	30218.66
591.20	30129.72
591.35	30511.22
591.51	30513.56
591.67	30698.47
591.83	30338.02
591.99	30328.66
