SpectraSuite Data File
++++++++++++++++++++++++++++++++++++
Date: Fri Oct 18 13:57:54 GMT-05:00 2013
User: bianchi
Dark Spectrum Present: No
Reference Spectrum Present: No
Number of Sampled Component Spectra: 1
Spectrometers: USB2+H05261
Integration Time (usec): 50000 (USB2+H05261)
Spectra Averaged: 1 (USB2+H05261)
Boxcar Smoothing: 0 (USB2+H05261)
Correct for Electrical Dark: No (USB2+H05261)
Strobe/Lamp Enabled: No (USB2+H05261)
Correct for Detector Non-linearity: No (USB2+H05261)
Correct for Stray Light: No (USB2+H05261)
Number of Pixels in Processed Spectrum: 2048
>>>>>Begin Processed Spectral Data<<<<<
365.73	0.00
365.92	0.00
366.12	0.00
366.32	0.00
366.52	0.00
366.72	0.00
366.91	0.00
367.11	0.00
367.31	0.00
367.51	0.00
367.70	0.00
367.90	0.00
368.10	0.00
368.30	0.00
368.49	0.00
368.69	0.00
368.89	0.00
369.09	0.00
369.28	0.00
369.48	0.00
369.68	0.00
369.87	0.00
370.07	0.00
370.27	0.00
370.47	0.00
370.66	91.28
370.86	95.96
371.06	107.66
371.25	126.39
371.45	117.03
371.65	154.48
371.84	124.05
372.04	147.45
372.24	170.86
372.44	187.24
372.63	229.37
372.83	159.16
373.03	248.10
373.22	159.16
373.42	191.92
373.62	229.37
373.81	283.20
374.01	191.92
374.21	245.76
374.40	189.58
374.60	248.10
374.79	191.92
374.99	222.35
375.19	264.48
375.38	255.12
375.58	262.14
375.78	273.84
375.97	271.50
376.17	262.14
376.37	332.36
376.56	234.05
376.76	276.18
376.95	201.29
377.15	241.08
377.35	241.08
377.54	250.44
377.74	280.86
377.93	231.71
378.13	257.46
378.33	297.25
378.52	273.84
378.72	285.55
378.91	266.82
379.11	311.29
379.31	290.23
379.50	315.97
379.70	355.76
379.89	365.12
380.09	362.78
380.28	306.61
380.48	322.99
380.68	337.04
380.87	285.55
381.07	362.78
381.26	430.66
381.46	374.49
381.65	262.14
381.85	304.27
382.04	341.72
382.24	374.49
382.43	365.12
382.63	341.72
382.83	332.36
383.02	353.42
383.22	435.34
383.41	369.80
383.61	367.46
383.80	372.15
384.00	395.55
384.19	404.91
384.39	379.17
384.58	367.46
384.78	393.21
384.97	337.04
385.17	433.00
385.36	486.83
385.56	461.09
385.75	374.49
385.95	409.59
386.14	414.27
386.34	367.46
386.53	372.15
386.72	430.66
386.92	430.66
387.11	360.44
387.31	454.06
387.50	383.85
387.70	409.59
387.89	404.91
388.09	402.57
388.28	479.81
388.48	428.32
388.67	437.68
388.86	470.45
389.06	475.13
389.25	505.56
389.45	461.09
389.64	566.41
389.84	503.22
390.03	521.94
390.22	557.05
390.42	505.56
390.61	535.98
390.81	458.74
391.00	561.73
391.19	606.20
391.39	557.05
391.58	477.47
391.78	566.41
391.97	571.09
392.16	538.32
392.36	559.39
392.55	571.09
392.75	533.64
392.94	458.74
393.13	521.94
393.33	557.05
393.52	554.71
393.71	667.05
393.91	559.39
394.10	613.22
394.29	573.43
394.49	624.92
394.68	617.90
394.88	559.39
395.07	723.23
395.26	655.35
395.46	653.01
395.65	629.60
395.84	688.12
396.04	709.18
396.23	655.35
396.42	669.39
396.62	664.71
396.81	695.14
397.00	657.69
397.19	692.80
397.39	774.72
397.58	734.93
397.77	716.20
397.97	711.52
398.16	748.97
398.35	730.25
398.55	760.67
398.74	648.33
398.93	713.86
399.12	725.57
399.32	683.44
399.51	664.71
399.70	772.38
399.90	718.54
400.09	697.48
400.28	781.74
400.47	716.20
400.67	816.85
400.86	777.06
401.05	835.57
401.24	786.42
401.44	851.96
401.63	791.10
401.82	816.85
402.01	781.74
402.21	847.27
402.40	875.36
402.59	767.70
402.78	884.72
402.97	849.61
403.17	833.23
403.36	901.11
403.55	798.12
403.74	1001.75
403.93	887.06
404.13	971.32
404.32	959.62
404.51	992.39
404.70	957.28
404.89	966.64
405.09	1036.86
405.28	905.79
405.47	929.19
405.66	1032.18
405.85	936.21
406.05	992.39
406.24	940.90
406.43	952.60
406.62	1018.13
406.81	1078.99
407.00	1041.54
407.20	1027.50
407.39	1090.69
407.58	1053.24
407.77	1086.01
407.96	1144.52
408.15	1095.37
408.34	1069.62
408.54	1078.99
408.73	1135.16
408.92	1064.94
409.11	1224.10
409.30	1116.44
409.49	1203.04
409.68	1181.97
409.87	1128.14
410.07	1242.82
410.26	1170.27
410.45	1221.76
410.64	1301.34
410.83	1186.65
411.02	1200.69
411.21	1369.21
411.40	1275.59
411.59	1341.13
411.78	1380.92
411.98	1231.12
412.17	1306.02
412.36	1383.26
412.55	1357.51
412.74	1301.34
412.93	1413.68
413.12	1345.81
413.31	1439.43
413.50	1385.60
413.69	1467.52
413.88	1479.22
414.07	1427.73
414.26	1404.32
414.45	1528.37
414.64	1490.92
414.83	1399.64
415.02	1591.56
415.22	1596.25
415.41	1507.30
415.60	1710.93
415.79	1638.38
415.98	1645.40
416.17	1720.29
416.36	1694.55
416.55	1650.08
416.74	1799.87
416.93	1582.20
417.12	1757.74
417.31	1760.08
417.50	1713.27
417.69	1771.79
417.88	1820.94
418.07	1760.08
418.26	1739.02
418.45	1799.87
418.64	1921.58
418.83	1790.51
419.02	1825.62
419.21	1783.49
419.39	1851.36
419.58	1820.94
419.77	1886.47
419.96	1916.90
420.15	1949.67
420.34	1968.39
420.53	1884.13
420.72	2031.58
420.91	1954.35
421.10	2012.86
421.29	2017.54
421.48	1886.47
421.67	2022.22
421.86	1912.22
422.05	2087.76
422.24	2078.40
422.43	2010.52
422.61	2045.63
422.80	1947.33
422.99	2090.10
423.18	2146.27
423.37	2099.46
423.56	2064.35
423.75	2054.99
423.94	2118.18
424.13	2024.56
424.32	1987.11
424.50	2139.25
424.69	2111.16
424.88	2101.80
425.07	2012.86
425.26	2076.06
425.45	2127.55
425.64	2122.87
425.83	2132.23
426.01	1998.82
426.20	2155.63
426.39	2090.10
426.58	2225.85
426.77	2172.02
426.96	2125.21
427.15	2275.00
427.33	2150.95
427.52	2300.75
427.71	2148.61
427.90	2139.25
428.09	2186.06
428.28	2319.47
428.46	2188.40
428.65	2169.68
428.84	2279.68
429.03	2300.75
429.22	2228.19
429.40	2284.36
429.59	2317.13
429.78	2207.13
429.97	2223.51
430.16	2235.21
430.34	2375.64
430.53	2396.71
430.72	2211.81
430.91	2300.75
431.10	2342.88
431.28	2375.64
431.47	2495.01
431.66	2462.24
431.85	2396.71
432.03	2490.33
432.22	2506.71
432.41	2590.97
432.60	2579.27
432.79	2509.05
432.97	2593.31
433.16	2539.48
433.35	2523.10
433.54	2562.89
433.72	2586.29
433.91	2583.95
434.10	2656.51
434.28	2495.01
434.47	2581.61
434.66	2677.57
434.85	2682.25
435.03	2710.34
435.22	2668.21
435.41	2860.13
435.59	2668.21
435.78	2668.21
435.97	2722.04
436.16	2663.53
436.34	2759.49
436.53	2801.62
436.72	2829.71
436.90	2810.98
437.09	2726.72
437.28	2818.00
437.46	2771.19
437.65	2913.97
437.84	2836.73
438.02	2771.19
438.21	2820.35
438.40	2818.00
438.58	3005.25
438.77	2932.69
438.96	3021.63
439.14	2916.31
439.33	3190.15
439.52	2993.55
439.70	3124.62
439.89	3185.47
440.08	3119.93
440.26	3176.11
440.45	3169.09
440.63	3117.59
440.82	3227.60
441.01	3089.51
441.19	3084.83
441.38	3241.64
441.57	3337.60
441.75	3318.88
441.94	3316.54
442.12	3288.45
442.31	3368.03
442.50	3377.39
442.68	3356.33
442.87	3346.97
443.05	3365.69
443.24	3562.30
443.43	3475.70
443.61	3463.99
443.80	3637.19
443.98	3398.46
444.17	3339.94
444.35	3499.10
444.54	3538.89
444.73	3566.98
444.91	3665.28
445.10	3536.55
445.28	3534.21
445.47	3517.83
445.65	3522.51
445.84	3555.27
446.02	3726.13
446.21	3454.63
446.39	3574.00
446.58	3772.94
446.77	3655.92
446.95	3475.70
447.14	3592.72
447.32	3496.76
447.51	3660.60
447.69	3569.32
447.88	3686.34
448.06	3557.61
448.25	3625.49
448.43	3625.49
448.62	3634.85
448.80	3648.90
448.99	3691.02
449.17	3756.56
449.36	3604.42
449.54	3782.31
449.73	3707.41
449.91	3751.88
450.10	3896.99
450.28	3742.52
450.46	3779.97
450.65	3941.46
450.83	3925.08
451.02	3812.73
451.20	4011.68
451.39	3826.78
451.57	3878.27
451.76	3887.63
451.94	3854.86
452.13	3913.38
452.31	4049.13
452.49	3988.27
452.68	3983.59
452.86	3969.55
453.05	3971.89
453.23	3990.61
453.42	3985.93
453.60	4025.72
453.78	4170.83
453.97	3971.89
454.15	4088.92
454.34	4035.08
454.52	4236.37
454.70	4049.13
454.89	4093.60
455.07	4187.22
455.26	4198.92
455.44	4063.17
455.62	4065.51
455.81	4257.43
455.99	4210.62
456.17	4383.82
456.36	4306.59
456.54	4294.88
456.73	4365.10
456.91	4486.81
457.09	4437.66
457.28	4617.88
457.46	4313.61
457.64	4528.94
457.83	4514.89
458.01	4397.87
458.19	4418.93
458.38	4362.76
458.56	4561.70
458.74	4599.15
458.93	4568.73
459.11	4521.92
459.29	4573.41
459.48	4564.04
459.66	4514.89
459.84	4631.92
460.03	4657.67
460.21	4596.81
460.39	4681.07
460.57	4688.09
460.76	4676.39
460.94	4667.03
461.12	4636.60
461.31	4660.01
461.49	4819.16
461.67	4617.88
461.85	4835.55
462.04	4748.95
462.22	4917.47
462.40	4793.42
462.59	4821.50
462.77	4910.44
462.95	4936.19
463.13	4840.23
463.32	4894.06
463.50	4964.28
463.68	5008.75
463.86	4966.62
464.05	4755.97
464.23	5032.15
464.41	5116.41
464.59	5118.75
464.78	5055.56
464.96	5043.85
465.14	4924.49
465.32	5118.75
465.50	5025.13
465.69	5280.25
465.87	5123.43
466.05	5118.75
466.23	4978.32
466.41	5078.96
466.60	5167.90
466.78	5151.52
466.96	5203.01
467.14	5207.69
467.32	5170.24
467.51	5301.31
467.69	5378.55
467.87	5242.80
468.05	5362.17
468.23	5341.10
468.41	5287.27
468.60	5427.70
468.78	5404.30
468.96	5210.03
469.14	5497.92
469.32	5504.94
469.50	5343.44
469.69	5537.71
469.87	5687.50
470.05	5661.76
470.23	5762.40
470.41	5577.50
470.59	5657.07
470.77	5619.63
470.95	5762.40
471.14	5717.93
471.32	5640.69
471.50	5767.08
471.68	5881.77
471.86	5731.97
472.04	5823.25
472.22	5858.36
472.40	5731.97
472.58	5849.00
472.77	5928.58
472.95	6010.50
473.13	6225.82
473.31	6038.58
473.49	6085.39
473.67	6017.52
473.85	5982.41
474.03	6286.68
474.21	6265.61
474.39	6209.44
474.57	6324.13
474.75	6574.56
474.93	6235.19
475.12	6331.15
475.30	6424.77
475.48	6494.99
475.66	6349.87
475.84	6520.73
476.02	6300.72
476.20	6626.06
476.38	6698.61
476.56	6698.61
476.74	6724.36
476.92	6724.36
477.10	6761.81
477.28	6937.35
477.46	6817.98
477.64	7140.97
477.82	7007.56
478.00	7176.08
478.18	7267.36
478.36	7073.10
478.54	7300.13
478.72	7222.89
478.90	7239.28
479.08	7351.62
479.26	7557.59
479.44	7527.16
479.62	7630.15
479.80	7648.87
479.98	7681.64
480.16	7943.78
480.34	7564.61
480.52	7943.78
480.70	7758.88
480.88	7913.35
481.06	7808.03
481.24	7812.71
481.41	8236.35
481.59	8156.77
481.77	8198.90
481.95	8461.04
482.13	8308.90
482.31	8402.52
482.49	8608.49
482.67	8627.21
482.85	8624.87
483.03	8659.98
483.21	8964.25
483.39	8968.93
483.57	8849.57
483.74	8887.01
483.92	8957.23
484.10	8910.42
484.28	9139.79
484.46	9329.38
484.64	9455.76
484.82	9212.35
485.00	9591.52
485.18	9504.92
485.35	9748.33
485.53	9856.00
485.71	9748.33
485.89	9877.06
486.07	9825.57
486.25	9837.27
486.43	10001.11
486.61	10155.58
486.78	10092.39
486.96	10190.69
487.14	10455.17
487.32	10342.83
487.50	10485.60
487.68	10424.75
487.85	10609.65
488.03	10803.91
488.21	10913.92
488.39	10642.42
488.57	10801.57
488.75	11082.44
488.92	11405.43
489.10	11154.99
489.28	11164.36
489.46	11414.79
489.64	11405.43
489.81	11618.42
489.99	11375.00
490.17	11513.10
490.35	11641.82
490.53	11873.54
490.70	12177.81
490.88	11868.86
491.06	12285.47
491.24	12079.50
491.41	11882.90
491.59	12121.63
491.77	12198.87
491.95	12322.92
492.13	12578.04
492.30	12744.22
492.48	12624.85
492.66	12603.78
492.84	12723.15
493.01	12910.40
493.19	13032.10
493.37	13125.72
493.54	12926.78
493.72	13139.77
493.90	13191.26
494.08	13495.53
494.25	13701.50
494.43	13547.02
494.61	13635.96
494.79	13565.74
494.96	13476.80
495.14	13973.00
495.32	14019.81
495.49	13877.04
495.67	14190.67
495.85	14295.99
496.02	14319.40
496.20	14361.53
496.38	14384.93
496.55	14225.78
496.73	14689.20
496.91	14628.35
497.09	14696.22
497.26	14513.66
497.44	14960.70
497.62	14920.92
497.79	14920.92
497.97	14918.57
498.14	15208.80
498.32	15206.46
498.50	15602.01
498.67	15398.38
498.85	15349.23
499.03	15506.05
499.20	15545.84
499.38	15688.61
499.56	15672.23
499.73	15578.61
499.91	15812.66
500.08	16016.29
500.26	15779.89
500.44	15775.21
500.61	15967.13
500.79	16262.04
500.97	16535.88
501.14	16477.37
501.32	16236.30
501.49	16341.62
501.67	16421.20
501.84	16264.38
502.02	16369.71
502.20	16411.84
502.37	16863.56
502.55	16788.66
502.72	16879.94
502.90	16421.20
503.07	16624.83
503.25	16695.04
503.43	16886.97
503.60	17198.26
503.78	17053.14
503.95	17128.04
504.13	17132.72
504.30	17083.57
504.48	17146.76
504.65	17373.80
504.83	17343.37
505.01	17441.67
505.18	17558.70
505.36	17593.81
505.53	17483.80
505.71	17535.29
505.88	17474.44
506.06	17717.86
506.23	18148.51
506.41	17930.84
506.58	18040.85
506.76	17914.46
506.93	18223.41
507.11	18026.81
507.28	18129.79
507.46	18169.58
507.63	18368.52
507.81	18455.12
507.98	17984.68
508.16	18492.57
508.33	18441.08
508.50	18462.15
508.68	18389.59
508.85	18724.29
509.03	18583.85
509.20	18944.30
509.38	18899.83
509.55	18941.96
509.73	18761.73
509.90	18927.91
510.08	18981.74
510.25	19133.88
510.42	19047.28
510.60	19218.14
510.77	19344.53
510.95	19377.30
511.12	19084.73
511.30	19274.31
511.47	19353.89
511.64	19459.21
511.82	19658.16
511.99	19754.12
512.17	19562.20
512.34	19529.43
512.51	19899.23
512.69	19616.03
512.86	19892.21
513.04	20304.15
513.21	19999.88
513.38	20168.40
513.56	19913.28
513.73	19880.51
513.90	19777.53
514.08	20493.73
514.25	20402.45
514.43	20402.45
514.60	20421.17
514.77	20643.52
514.95	20680.97
515.12	20374.36
515.29	20360.32
515.47	20844.81
515.64	20746.51
515.81	20575.65
515.99	21074.18
516.16	21116.31
516.33	21020.35
516.51	21085.89
516.68	20931.41
516.85	21139.72
517.03	20959.50
517.20	20912.69
517.37	21263.77
517.54	21357.39
517.72	21025.03
517.89	21163.12
518.06	21170.15
518.24	21130.36
518.41	21104.61
518.58	21472.07
518.75	21247.38
518.93	21659.32
519.10	21696.77
519.27	21968.27
519.45	21341.00
519.62	21642.93
519.79	21827.84
519.96	21699.11
520.14	22087.64
520.31	21743.58
520.48	22237.43
520.65	21977.63
520.83	22052.53
521.00	22207.00
521.17	22359.14
521.34	22300.62
521.52	22448.08
521.69	22410.63
521.86	22349.78
522.03	22724.26
522.20	22567.45
522.38	22487.87
522.55	22754.69
522.72	22829.59
522.89	23070.66
523.07	23047.26
523.24	22817.88
523.41	22913.84
523.58	22995.76
523.75	23023.85
523.92	22644.68
524.10	23136.20
524.27	23175.98
524.44	23175.98
524.61	23365.57
524.78	23604.30
524.96	23278.97
525.13	23150.24
525.30	23309.40
525.47	23183.01
525.64	23461.53
525.81	23187.69
525.98	23569.19
526.16	23630.05
526.33	23810.27
526.50	24030.28
526.67	23374.93
526.84	23552.81
527.01	23225.14
527.18	23625.37
527.36	23990.49
527.53	23733.03
527.70	24140.29
527.87	23770.48
528.04	23826.65
528.21	24130.92
528.38	24074.75
528.55	24081.77
528.72	24353.27
528.89	24285.40
529.07	23875.80
529.24	24205.82
529.41	24493.71
529.58	24327.53
529.75	24205.82
529.92	24121.56
530.09	24168.37
530.26	24329.87
530.43	24362.64
530.60	24713.72
530.77	24294.76
530.94	24664.57
531.11	24442.21
531.28	24545.20
531.46	24650.52
531.63	24959.47
531.80	24437.53
531.97	25015.65
532.14	25076.50
532.31	25027.35
532.48	24900.96
532.65	25219.27
532.82	24601.37
532.99	25022.67
533.16	24978.20
533.33	25055.43
533.50	25275.45
533.67	25216.93
533.84	25528.22
534.01	25418.22
534.18	25511.84
534.35	25654.61
534.52	25322.26
534.69	25448.64
534.86	25455.67
535.03	25481.41
535.20	25682.70
535.37	25348.00
535.54	25687.38
535.71	25338.64
535.88	25560.99
536.05	25806.75
536.22	25869.94
536.38	25916.75
536.55	25572.69
536.72	25511.84
536.89	25862.92
537.06	25708.44
537.23	25862.92
537.40	25773.98
537.57	26003.35
537.74	25661.63
537.91	26115.70
538.08	26534.65
538.25	25902.71
538.42	25949.52
538.59	26382.52
538.75	25949.52
538.92	26338.05
539.09	26096.97
539.26	26206.98
539.43	26143.78
539.60	26412.95
539.77	26005.69
539.94	26410.60
540.11	26225.70
540.28	26529.97
540.44	26394.22
540.61	26125.06
540.78	26441.03
540.95	26759.34
541.12	26742.96
541.29	26593.17
541.46	26822.54
541.62	26773.39
541.79	26504.23
541.96	26536.99
542.13	26560.40
542.30	26609.55
542.47	26916.16
542.63	27012.12
542.80	26892.76
542.97	27222.77
543.14	27138.51
543.31	27222.77
543.48	27175.96
543.64	27438.10
543.81	27236.81
543.98	27674.49
544.15	27613.64
544.32	27508.32
544.48	27517.68
544.65	27363.20
544.82	27330.44
544.99	27367.88
545.16	27339.80
545.32	27271.92
545.49	27840.67
545.66	27899.19
545.83	28133.24
546.00	27615.98
546.16	27740.03
546.33	27608.96
546.50	27543.42
546.67	28320.48
546.83	27445.12
547.00	27548.11
547.17	27754.07
547.34	27910.89
547.50	28271.33
547.67	28327.50
547.84	28105.15
548.00	27744.71
548.17	28432.83
548.34	27931.95
548.51	28664.54
548.67	28290.06
548.84	28393.04
549.01	27985.79
549.18	28098.13
549.34	27976.42
549.51	28456.23
549.68	28184.73
549.84	28144.94
550.01	28290.06
550.18	28416.44
550.34	28402.40
550.51	28879.87
550.68	28451.55
550.84	28196.43
551.01	28643.48
551.18	28685.61
551.34	28257.29
551.51	28697.31
551.68	28268.99
551.84	28814.34
552.01	28341.55
552.18	28673.90
552.34	28301.76
552.51	28952.43
552.68	28863.49
552.84	28641.14
553.01	28772.21
553.18	28980.51
553.34	28968.81
553.51	28666.88
553.67	28893.91
553.84	29053.07
554.01	29212.23
554.17	29259.04
554.34	28713.69
554.51	28833.06
554.67	28957.11
554.84	28856.46
555.00	29324.57
555.17	29310.53
555.33	29111.58
555.50	29083.50
555.67	28931.36
555.83	28896.25
556.00	29104.56
556.16	29479.05
556.33	29266.06
556.50	29237.97
556.66	29252.02
556.83	29378.40
556.99	29385.43
557.16	29474.37
557.32	29523.52
557.49	29495.43
557.65	29415.85
557.82	29287.12
557.98	29479.05
558.15	29230.95
558.32	29848.85
558.48	29816.08
558.65	29551.60
558.81	29586.71
558.98	29706.08
559.14	29900.34
559.31	29235.63
559.47	29586.71
559.64	29790.34
559.80	29600.76
559.97	30071.20
560.13	29769.27
560.30	29722.46
560.46	29776.30
560.63	30010.35
560.79	29874.60
560.96	29956.52
561.12	29607.78
561.29	30169.51
561.45	29722.46
561.61	30092.27
561.78	29778.64
561.94	29848.85
562.11	30047.80
562.27	29806.72
562.44	29741.19
562.60	29792.68
562.77	30263.13
562.93	29846.51
563.10	30478.46
563.26	29729.48
563.42	29975.24
563.59	29986.94
563.75	30342.70
563.92	30359.09
564.08	30078.22
564.24	29909.71
564.41	29968.22
564.57	29851.19
564.74	29764.59
564.90	30693.79
565.07	30412.92
565.23	30408.24
565.39	30134.40
565.56	30328.66
565.72	29909.71
565.88	30157.80
566.05	30464.41
566.21	30387.18
566.38	30338.02
566.54	30410.58
566.70	30731.23
566.87	30511.22
567.03	30419.94
567.19	31065.93
567.36	30602.50
567.52	30213.98
567.68	30316.96
567.85	30319.30
568.01	30532.29
568.17	30038.44
568.34	30576.76
568.50	30684.42
568.66	30600.16
568.83	30513.56
568.99	30373.13
569.15	30899.75
569.32	30277.17
569.48	30452.71
569.64	30553.35
569.81	30651.66
569.97	30808.47
570.13	30742.94
570.30	30555.69
570.46	30850.60
570.62	30356.75
570.78	30663.36
570.95	30534.63
571.11	30756.98
571.27	30590.80
571.43	30513.56
571.60	30714.85
571.76	30473.78
571.92	30801.45
572.09	30871.67
572.25	31166.57
572.41	30588.46
572.57	30625.91
572.74	30916.14
572.90	30855.28
573.06	30597.82
573.22	30436.33
573.38	31049.55
573.55	30518.25
573.71	31206.36
573.87	31117.42
574.03	30946.56
574.20	30684.42
574.36	31049.55
574.52	31171.25
574.68	30281.85
574.84	30623.57
575.01	30675.06
575.17	30815.49
575.33	30930.18
575.49	30955.93
575.65	30735.92
575.82	31005.08
575.98	30857.62
576.14	30654.00
576.30	30616.55
576.46	30806.13
576.62	30782.73
576.79	31136.15
576.95	31152.53
577.11	30862.30
577.27	30829.54
577.43	31119.76
577.59	30974.65
577.75	30852.94
577.92	31030.82
578.08	30845.92
578.24	30841.24
578.40	30948.90
578.56	30628.25
578.72	31267.22
578.88	31428.71
579.04	30845.92
579.21	30979.33
579.37	31007.42
579.53	30939.54
579.69	31323.39
579.85	31171.25
580.01	30534.63
580.17	30614.21
580.33	31035.50
580.49	31136.15
580.65	31218.07
580.82	31260.20
580.98	31225.09
581.14	30939.54
581.30	31271.90
581.46	31063.59
581.62	30848.26
581.78	30803.79
581.94	30646.97
582.10	30813.15
582.26	31126.78
582.42	30831.88
582.58	30986.35
582.74	31229.77
582.90	31154.87
583.06	31384.24
583.22	31257.85
583.38	31555.10
583.54	31201.68
583.70	31016.78
583.86	30944.22
584.02	31005.08
584.18	31491.91
584.34	31349.14
584.50	31208.70
584.66	31426.37
584.82	31194.66
584.98	31440.42
585.14	30850.60
585.30	30852.94
585.46	30850.60
585.62	30946.56
585.78	31220.41
585.94	30976.99
586.10	31056.57
586.26	31344.45
586.42	31264.88
586.58	31087.00
586.74	31105.72
586.90	31232.11
587.06	30909.11
587.22	31225.09
587.38	30661.02
587.54	31580.85
587.70	31519.99
587.86	30967.63
588.02	31246.15
588.18	31349.14
588.34	31281.26
588.49	31171.25
588.65	31122.10
588.81	31030.82
588.97	31204.02
589.13	31402.97
589.29	31393.61
589.45	31372.54
589.61	31180.62
589.77	31433.39
589.93	31718.94
590.08	31592.55
590.24	31110.40
590.40	31655.75
590.56	31597.23
590.72	31398.29
590.88	31363.18
591.04	31187.64
591.20	31601.91
591.35	31887.46
591.51	31758.73
591.67	31608.93
591.83	31922.57
