SpectraSuite Data File
++++++++++++++++++++++++++++++++++++
Date: Fri Oct 18 13:58:28 GMT-05:00 2013
User: bianchi
Dark Spectrum Present: No
Reference Spectrum Present: No
Number of Sampled Component Spectra: 1
Spectrometers: USB2+H05261
Integration Time (usec): 50000 (USB2+H05261)
Spectra Averaged: 1 (USB2+H05261)
Boxcar Smoothing: 0 (USB2+H05261)
Correct for Electrical Dark: No (USB2+H05261)
Strobe/Lamp Enabled: No (USB2+H05261)
Correct for Detector Non-linearity: No (USB2+H05261)
Correct for Stray Light: No (USB2+H05261)
Number of Pixels in Processed Spectrum: 2048
>>>>>Begin Processed Spectral Data<<<<<
365.73	0.00
365.92	0.00
366.12	0.00
366.32	0.00
366.52	0.00
366.72	0.00
366.91	0.00
367.11	0.00
367.31	0.00
367.51	0.00
367.70	0.00
367.90	0.00
368.10	0.00
368.30	0.00
368.49	0.00
368.69	0.00
368.89	0.00
369.09	0.00
369.28	0.00
369.48	0.00
369.68	0.00
369.87	0.00
370.07	0.00
370.27	0.00
370.47	0.00
370.66	23.41
370.86	65.54
371.06	105.32
371.25	138.09
371.45	81.92
371.65	105.32
371.84	152.13
372.04	184.90
372.24	177.88
372.44	159.16
372.63	208.31
372.83	227.03
373.03	184.90
373.22	194.26
373.42	210.65
373.62	159.16
373.81	217.67
374.01	227.03
374.21	308.95
374.40	278.52
374.60	341.72
374.79	215.33
374.99	205.97
375.19	285.55
375.38	292.57
375.58	224.69
375.78	271.50
375.97	250.44
376.17	252.78
376.37	255.12
376.56	327.68
376.76	243.42
376.95	224.69
377.15	264.48
377.35	234.05
377.54	266.82
377.74	287.89
377.93	241.08
378.13	315.97
378.33	304.27
378.52	257.46
378.72	271.50
378.91	208.31
379.11	245.76
379.31	294.91
379.50	283.20
379.70	294.91
379.89	306.61
380.09	355.76
380.28	400.23
380.48	241.08
380.68	360.44
380.87	269.16
381.07	332.36
381.26	313.63
381.46	330.02
381.65	308.95
381.85	360.44
382.04	360.44
382.24	306.61
382.43	301.93
382.63	355.76
382.83	325.33
383.02	348.74
383.22	458.74
383.41	320.65
383.61	322.99
383.80	355.76
384.00	367.46
384.19	315.97
384.39	409.59
384.58	397.89
384.78	463.43
384.97	353.42
385.17	379.17
385.36	337.04
385.56	430.66
385.75	341.72
385.95	367.46
386.14	374.49
386.34	447.04
386.53	449.38
386.72	416.62
386.92	362.78
387.11	433.00
387.31	404.91
387.50	402.57
387.70	402.57
387.89	437.68
388.09	409.59
388.28	470.45
388.48	395.55
388.67	461.09
388.86	468.11
389.06	423.64
389.25	557.05
389.45	496.19
389.64	379.17
389.84	409.59
390.03	468.11
390.22	496.19
390.42	456.40
390.61	416.62
390.81	421.30
391.00	533.64
391.19	496.19
391.39	510.24
391.58	533.64
391.78	440.02
391.97	575.77
392.16	634.29
392.36	559.39
392.55	580.45
392.75	547.69
392.94	531.30
393.13	507.90
393.33	531.30
393.52	575.77
393.71	510.24
393.91	552.37
394.10	554.71
394.29	603.86
394.49	503.22
394.68	592.16
394.88	589.82
395.07	514.92
395.26	648.33
395.46	594.50
395.65	559.39
395.84	697.48
396.04	641.31
396.23	582.79
396.42	610.88
396.62	627.26
396.81	683.44
397.00	615.56
397.19	671.73
397.39	655.35
397.58	599.18
397.77	697.48
397.97	727.91
398.16	695.14
398.35	697.48
398.55	638.97
398.74	734.93
398.93	730.25
399.12	713.86
399.32	638.97
399.51	702.16
399.70	737.27
399.90	833.23
400.09	844.93
400.28	763.01
400.47	732.59
400.67	837.91
400.86	734.93
401.05	751.31
401.24	847.27
401.44	821.53
401.63	786.42
401.82	854.30
402.01	837.91
402.21	835.57
402.40	777.06
402.59	786.42
402.78	884.72
402.97	816.85
403.17	922.17
403.36	889.40
403.55	884.72
403.74	898.77
403.93	983.02
404.13	866.00
404.32	940.90
404.51	868.34
404.70	947.92
404.89	954.94
405.09	896.43
405.28	849.61
405.47	968.98
405.66	997.07
405.85	1013.45
406.05	931.53
406.24	987.71
406.43	980.68
406.62	950.26
406.81	1025.15
407.00	931.53
407.20	954.94
407.39	961.96
407.58	954.94
407.77	1027.50
407.96	1125.80
408.15	1074.31
408.34	1086.01
408.54	1046.22
408.73	1076.65
408.92	1069.62
409.11	1036.86
409.30	1224.10
409.49	1116.44
409.68	1130.48
409.87	1093.03
410.07	1076.65
410.26	1205.38
410.45	1179.63
410.64	1221.76
410.83	1212.40
411.02	1151.54
411.21	1228.78
411.40	1308.36
411.59	1315.38
411.78	1214.74
411.98	1219.42
412.17	1256.87
412.36	1282.61
412.55	1308.36
412.74	1380.92
412.93	1320.06
413.12	1357.51
413.31	1441.77
413.50	1392.62
413.69	1418.36
413.88	1397.30
414.07	1350.49
414.26	1469.86
414.45	1460.49
414.64	1582.20
414.83	1554.12
415.02	1596.25
415.22	1549.43
415.41	1521.35
415.60	1612.63
415.79	1558.80
415.98	1481.56
416.17	1570.50
416.36	1502.62
416.55	1558.80
416.74	1671.14
416.93	1689.87
417.12	1598.59
417.31	1755.40
417.50	1647.74
417.69	1694.55
417.88	1671.14
418.07	1675.82
418.26	1816.26
418.45	1607.95
418.64	1717.95
418.83	1788.17
419.02	1727.32
419.21	1858.39
419.39	1860.73
419.58	1790.51
419.77	1741.36
419.96	1816.26
420.15	1764.76
420.34	1774.13
420.53	1792.85
420.72	1888.81
420.91	1994.14
421.10	1905.20
421.29	1961.37
421.48	1888.81
421.67	1973.07
421.86	1881.79
422.05	1956.69
422.24	1987.11
422.43	1919.24
422.61	1961.37
422.80	2017.54
422.99	2017.54
423.18	2017.54
423.37	2017.54
423.56	2038.61
423.75	1968.39
423.94	1907.54
424.13	1776.47
424.32	1921.58
424.50	1952.01
424.69	2111.16
424.88	2101.80
425.07	1912.22
425.26	1961.37
425.45	2064.35
425.64	2047.97
425.83	2062.01
426.01	2059.67
426.20	2050.31
426.39	2136.91
426.58	2113.50
426.77	2073.71
426.96	2097.12
427.15	2022.22
427.33	2087.76
427.52	2125.21
427.71	2146.27
427.90	2073.71
428.09	2139.25
428.28	2181.38
428.46	2153.29
428.65	2223.51
428.84	2174.36
429.03	2263.30
429.22	2244.57
429.40	2197.76
429.59	2195.42
429.78	2160.31
429.97	2087.76
430.16	2244.57
430.34	2190.74
430.53	2153.29
430.72	2354.58
430.91	2223.51
431.10	2275.00
431.28	2317.13
431.47	2368.62
431.66	2380.32
431.85	2305.43
432.03	2401.39
432.22	2377.98
432.41	2321.81
432.60	2452.88
432.79	2410.75
432.97	2424.80
433.16	2558.21
433.35	2424.80
433.54	2569.91
433.72	2609.70
433.91	2490.33
434.10	2471.61
434.28	2448.20
434.47	2555.86
434.66	2612.04
434.85	2626.08
435.03	2537.14
435.22	2602.68
435.41	2644.81
435.59	2696.30
435.78	2616.72
435.97	2705.66
436.16	2740.77
436.34	2590.97
436.53	2609.70
436.72	2649.49
436.90	2579.27
437.09	2729.06
437.28	2616.72
437.46	2759.49
437.65	2808.64
437.84	2679.91
438.02	2801.62
438.21	2731.41
438.40	2825.03
438.58	2867.16
438.77	2930.35
438.96	2958.44
439.14	2801.62
439.33	2867.16
439.52	2949.08
439.70	2918.65
439.89	3007.59
440.08	2920.99
440.26	3033.33
440.45	3061.42
440.63	3028.65
440.82	3141.00
441.01	3143.34
441.19	3138.66
441.38	3222.92
441.57	3155.04
441.75	3248.66
441.94	3248.66
442.12	3220.58
442.31	3309.52
442.50	3328.24
442.68	3281.43
442.87	3293.13
443.05	3276.75
443.24	3330.58
443.43	3386.76
443.61	3309.52
443.80	3393.78
443.98	3260.37
444.17	3225.26
444.35	3344.63
444.54	3466.33
444.73	3421.86
444.91	3440.59
445.10	3426.54
445.28	3541.23
445.47	3344.63
445.65	3442.93
445.84	3424.20
446.02	3482.72
446.21	3297.81
446.39	3414.84
446.58	3559.95
446.77	3377.39
446.95	3321.22
447.14	3410.16
447.32	3424.20
447.51	3382.07
447.69	3424.20
447.88	3545.91
448.06	3522.51
448.25	3492.08
448.43	3576.34
448.62	3466.33
448.80	3520.17
448.99	3524.85
449.17	3435.91
449.36	3541.23
449.54	3522.51
449.73	3765.92
449.91	3653.58
450.10	3564.64
450.28	3627.83
450.46	3667.62
450.65	3721.45
450.83	3712.09
451.02	3686.34
451.20	3761.24
451.39	3915.72
451.57	3627.83
451.76	3744.86
451.94	3707.41
452.13	3765.92
452.31	3871.25
452.49	3705.07
452.68	3878.27
452.86	3833.80
453.05	3796.35
453.23	3962.53
453.42	3880.61
453.60	3892.31
453.78	3829.12
453.97	3920.40
454.15	3845.50
454.34	3815.07
454.52	4004.66
454.70	4016.36
454.89	4058.49
455.07	4037.42
455.26	3988.27
455.44	4021.04
455.62	3936.78
455.81	4063.17
455.99	4161.47
456.17	4065.51
456.36	4042.11
456.54	4072.53
456.73	4170.83
456.91	4290.20
457.09	4311.27
457.28	4248.07
457.46	4149.77
457.64	4201.26
457.83	4205.94
458.01	4248.07
458.19	4468.08
458.38	4318.29
458.56	4290.20
458.74	4559.36
458.93	4362.76
459.11	4257.43
459.29	4386.16
459.48	4390.84
459.66	4477.44
459.84	4360.42
460.03	4681.07
460.21	4561.70
460.39	4524.26
460.57	4498.51
460.76	4550.00
460.94	4557.02
461.12	4580.43
461.31	4608.51
461.49	4465.74
461.67	4652.98
461.85	4650.64
462.04	4606.17
462.22	4723.20
462.40	4791.08
462.59	4732.56
462.77	4753.63
462.95	4884.70
463.13	4812.14
463.32	4910.44
463.50	4833.21
463.68	4849.59
463.86	4819.16
464.05	4873.00
464.23	4762.99
464.41	4919.81
464.59	4816.82
464.78	4882.36
464.96	4926.83
465.14	4770.01
465.32	4861.29
465.50	4975.98
465.69	5081.30
465.87	5118.75
466.05	4800.44
466.23	4994.70
466.41	5060.24
466.60	5224.08
466.78	4870.65
466.96	4971.30
467.14	5214.71
467.32	5123.43
467.51	5055.56
467.69	5146.84
467.87	5144.50
468.05	5191.31
468.23	5160.88
468.41	4957.25
468.60	5142.16
468.78	5203.01
468.96	5121.09
469.14	5317.70
469.32	5313.02
469.50	5158.54
469.69	5444.09
469.87	5331.74
470.05	5376.21
470.23	5345.78
470.41	5434.72
470.59	5488.56
470.77	5315.36
470.95	5455.79
471.14	5572.82
471.32	5476.85
471.50	5497.92
471.68	5593.88
471.86	5500.26
472.04	5638.35
472.22	5753.04
472.40	5537.71
472.58	5682.82
472.77	5659.42
472.95	5703.89
473.13	5881.77
473.31	5860.70
473.49	5738.99
473.67	5886.45
473.85	5881.77
474.03	5888.79
474.21	5762.40
474.39	5886.45
474.57	5900.49
474.75	5987.09
474.93	6160.29
475.12	5898.15
475.30	6066.67
475.48	6148.59
475.66	6085.39
475.84	6164.97
476.02	6305.40
476.20	6230.51
476.38	6590.95
476.56	6581.59
476.74	6429.45
476.92	6567.54
477.10	6490.31
477.28	6581.59
477.46	6665.85
477.64	6759.47
477.82	6733.72
478.00	6913.94
478.18	6909.26
478.36	7007.56
478.54	7152.68
478.72	6946.71
478.90	7059.06
479.08	7063.74
479.26	7272.04
479.44	7267.36
479.62	7452.27
479.80	7316.51
479.98	7428.86
480.16	7503.76
480.34	7407.80
480.52	7641.85
480.70	7543.55
480.88	7454.61
481.06	7611.42
481.24	7597.38
481.41	7679.30
481.59	7789.30
481.77	7810.37
481.95	7936.76
482.13	7988.25
482.31	8053.78
482.49	8173.15
482.67	8182.51
482.85	8304.22
483.03	8535.93
483.21	8407.20
483.39	8517.21
483.57	8407.20
483.74	8547.64
483.92	8652.96
484.10	8669.34
484.28	8620.19
484.46	8901.06
484.64	9085.96
484.82	8833.18
485.00	9228.73
485.18	9202.99
485.35	9366.82
485.53	9245.12
485.71	9312.99
485.89	9769.40
486.07	9493.21
486.25	9483.85
486.43	9664.07
486.61	9708.54
486.78	9790.46
486.96	9788.12
487.14	9942.60
487.32	9792.80
487.50	10200.05
487.68	10340.49
487.85	10176.65
488.03	10434.11
488.21	10509.01
488.39	10527.73
488.57	10399.00
488.75	10342.83
488.92	10867.11
489.10	10768.80
489.28	10747.74
489.46	11096.48
489.64	10864.77
489.81	11073.07
489.99	11211.17
490.17	11302.45
490.35	11445.22
490.53	11480.33
490.70	11627.78
490.88	11587.99
491.06	11529.48
491.24	11791.62
491.41	11810.34
491.59	11857.15
491.77	11943.75
491.95	11826.73
492.13	12037.38
492.30	11894.60
492.48	12081.85
492.66	12203.55
492.84	12292.49
493.01	12327.60
493.19	12519.53
493.37	12594.42
493.54	12369.73
493.72	12816.77
493.90	12718.47
494.08	12744.22
494.25	12915.08
494.43	13048.49
494.61	13144.45
494.79	13062.53
494.96	13034.44
495.14	13249.77
495.32	13334.03
495.49	13483.83
495.67	13462.76
495.85	13668.73
496.02	13469.78
496.20	13745.97
496.38	13944.91
496.55	13736.60
496.73	14038.53
496.91	13963.64
497.09	14167.26
497.26	14230.46
497.44	14291.31
497.62	14083.00
497.79	14551.11
497.97	14106.41
498.14	14651.75
498.32	14682.18
498.50	14740.69
498.67	14827.29
498.85	14775.80
499.03	14986.45
499.20	14897.51
499.38	15096.46
499.56	15021.56
499.73	15218.16
499.91	15180.71
500.08	15428.81
500.26	15234.55
500.44	15566.90
500.61	15133.90
500.79	15398.38
500.97	15393.70
501.14	15910.96
501.32	15627.76
501.49	15768.19
501.67	15726.06
501.84	15604.35
502.02	15934.37
502.20	15976.50
502.37	16161.40
502.55	15971.82
502.72	16109.91
502.90	15974.16
503.07	15950.75
503.25	16271.40
503.43	16346.30
503.60	16222.25
503.78	16365.03
503.95	16336.94
504.13	16339.28
504.30	16727.81
504.48	16386.09
504.65	16482.05
504.83	16702.06
505.01	16699.72
505.18	16798.02
505.36	16821.43
505.53	16940.80
505.71	16858.88
505.88	17078.89
506.06	16788.66
506.23	17109.32
506.41	16851.86
506.58	16961.86
506.76	17252.09
506.93	17654.66
507.11	17139.74
507.28	17568.06
507.46	17413.59
507.63	17467.42
507.81	17844.24
507.98	17338.69
508.16	17575.08
508.33	17680.41
508.50	17778.71
508.68	17750.62
508.85	18127.45
509.03	18045.53
509.20	18127.45
509.38	18047.87
509.55	18106.38
509.73	18396.61
509.90	18148.51
510.08	18284.26
510.25	18129.79
510.42	18204.69
510.60	18801.52
510.77	18527.68
510.95	18848.33
511.12	18602.58
511.30	18593.22
511.47	18857.70
511.64	18956.00
511.82	19040.26
511.99	18857.70
512.17	19016.85
512.34	18965.36
512.51	19007.49
512.69	19304.74
512.86	18761.73
513.04	19283.67
513.21	18871.74
513.38	19424.11
513.56	19323.46
513.73	19346.87
513.90	19367.93
514.08	19468.58
514.25	19580.92
514.43	19623.05
514.60	19606.67
514.77	19442.83
514.95	19803.27
515.12	19758.80
515.29	19634.75
515.47	19777.53
515.64	20173.08
515.81	19578.58
515.99	20278.40
516.16	20269.04
516.33	20025.62
516.51	20400.11
516.68	20058.39
516.85	19850.08
517.03	20140.31
517.20	20348.62
517.37	20182.44
517.54	20407.13
517.72	20152.01
517.89	20418.83
518.06	20575.65
518.24	20350.96
518.41	20411.81
518.58	20463.30
518.75	20585.01
518.93	20706.72
519.10	20971.20
519.27	20774.60
519.45	20697.36
519.62	21151.42
519.79	20802.68
519.96	20814.38
520.14	20919.71
520.31	20929.07
520.48	21167.80
520.65	21212.28
520.83	21348.03
521.00	21179.51
521.17	21181.85
521.34	21282.49
521.52	21296.53
521.69	21200.57
521.86	21689.74
522.03	21626.55
522.20	21432.29
522.38	21584.42
522.55	21446.33
522.72	21738.90
522.89	21708.47
523.07	21886.35
523.24	21825.50
523.41	21923.80
523.58	22019.76
523.75	22118.06
523.92	21811.45
524.10	22057.21
524.27	22419.99
524.44	22321.69
524.61	22239.77
524.78	22181.26
524.96	22258.49
525.13	22347.44
525.30	22221.05
525.47	21937.84
525.64	22270.20
525.81	22735.96
525.98	22412.97
526.16	22733.62
526.33	22576.81
526.50	22625.96
526.67	22445.74
526.84	22628.30
527.01	22665.75
527.18	22771.07
527.36	23051.94
527.53	22693.83
527.70	23049.60
527.87	22881.08
528.04	23049.60
528.21	22852.99
528.38	22953.63
528.55	22885.76
528.72	23253.22
528.89	23227.48
529.07	23335.14
529.24	23222.80
529.41	23037.89
529.58	23276.63
529.75	23044.91
529.92	23583.24
530.09	23314.08
530.26	23751.76
530.43	23489.62
530.60	23538.77
530.77	23660.48
530.94	23517.70
531.11	23489.62
531.28	23644.09
531.46	23555.15
531.63	23520.04
531.80	23653.45
531.97	23828.99
532.14	23864.10
532.31	23894.53
532.48	23819.63
532.65	23950.70
532.82	23868.78
532.99	24280.72
533.16	24163.69
533.33	24009.22
533.50	24697.33
533.67	24290.08
533.84	23810.27
534.01	24233.91
534.18	23997.51
534.35	24030.28
534.52	24283.06
534.69	24081.77
534.86	24205.82
535.03	24552.22
535.20	24247.95
535.37	24505.41
535.54	24737.12
535.71	24306.46
535.88	24699.67
536.05	24519.45
536.22	24683.29
536.38	24734.78
536.55	24840.11
536.72	24821.38
536.89	24634.14
537.06	24751.17
537.23	24872.87
537.40	24739.46
537.57	24774.57
537.74	24613.07
537.91	25205.23
538.08	25296.51
538.25	24809.68
538.42	25036.71
538.59	25282.47
538.75	24687.97
538.92	25277.79
539.09	25036.71
539.26	25172.46
539.43	25280.13
539.60	25387.79
539.77	25348.00
539.94	25373.75
540.11	25200.55
540.28	25238.00
540.44	25387.79
540.61	24952.45
540.78	25298.85
540.95	25226.29
541.12	25479.07
541.29	25401.83
541.46	25745.89
541.62	25242.68
541.79	25380.77
541.96	25425.24
542.13	25376.09
542.30	25560.99
542.47	26078.25
542.63	26040.80
542.80	25963.56
542.97	26155.49
543.14	26307.62
543.31	25991.65
543.48	26057.18
543.64	26607.21
543.81	26057.18
543.98	26139.10
544.15	26326.35
544.32	26075.91
544.48	26752.32
544.65	26366.13
544.82	26171.87
544.99	26092.29
545.16	26356.77
545.32	26242.09
545.49	26689.13
545.66	26735.94
545.83	26504.23
546.00	26806.16
546.16	26586.15
546.33	26113.36
546.50	26251.45
546.67	26522.95
546.83	26073.57
547.00	26256.13
547.17	26817.86
547.34	26637.64
547.50	26808.50
547.67	27005.10
547.84	27061.27
548.00	26892.76
548.17	26822.54
548.34	26609.55
548.51	27178.30
548.67	27009.78
548.84	27133.83
549.01	26789.77
549.18	27089.36
549.34	27030.85
549.51	27173.62
549.68	27084.68
549.84	26977.01
550.01	27171.28
550.18	27190.00
550.34	27447.46
550.51	27201.71
550.68	27197.02
550.84	27339.80
551.01	27257.88
551.18	27056.59
551.34	27072.98
551.51	27325.75
551.68	27468.53
551.84	27594.92
552.01	27372.57
552.18	27653.43
552.34	27426.40
552.51	27564.49
552.68	27185.32
552.84	27606.62
553.01	27688.54
553.18	27311.71
553.34	27377.25
553.51	27613.64
553.67	27494.27
553.84	27360.86
554.01	27733.01
554.17	27651.09
554.34	28025.57
554.51	27463.85
554.67	27990.47
554.84	27618.32
555.00	27674.49
555.17	28177.71
555.33	27892.16
555.50	27936.63
555.67	27707.26
555.83	27524.70
556.00	27637.05
556.16	28322.82
556.33	28037.28
556.50	28264.31
556.66	28290.06
556.83	27852.38
556.99	28154.30
557.16	28332.18
557.32	28500.70
557.49	28163.67
557.65	27796.20
557.82	27728.33
557.98	27683.86
558.15	27962.38
558.32	28545.17
558.48	28290.06
558.65	28041.96
558.81	28383.68
558.98	28507.72
559.14	28070.04
559.31	27997.49
559.47	28301.76
559.64	28500.70
559.80	28271.33
559.97	28716.03
560.13	28650.50
560.30	28446.87
560.46	28648.16
560.63	28348.57
560.79	28283.03
560.96	28226.86
561.12	28245.58
561.29	28205.80
561.45	28411.76
561.61	28563.90
561.78	28926.68
561.94	28556.88
562.11	28217.50
562.27	28570.92
562.44	28290.06
562.60	29001.58
562.77	28240.90
562.93	28238.56
563.10	28645.82
563.26	28264.31
563.42	29043.71
563.59	28477.30
563.75	28360.27
563.92	28886.89
564.08	28690.29
564.24	28854.12
564.41	28563.90
564.57	28589.64
564.74	28765.18
564.90	28922.00
565.07	29106.90
565.23	28671.56
565.39	28704.33
565.56	29062.43
565.72	29142.01
565.88	28842.42
566.05	29036.69
566.21	28870.51
566.38	28964.13
566.54	29013.28
566.70	28849.44
566.87	29567.99
567.03	28940.72
567.19	29090.52
567.36	29205.20
567.52	28840.08
567.68	29193.50
567.85	29142.01
568.01	28961.79
568.17	28861.15
568.34	29200.52
568.50	28926.68
568.66	29383.09
568.83	29291.80
568.99	28933.70
569.15	28734.76
569.32	28659.86
569.48	29071.79
569.64	29067.11
569.81	29118.60
569.97	29310.53
570.13	29408.83
570.30	29001.58
570.46	28891.57
570.62	29244.99
570.78	29331.59
570.95	28891.57
571.11	29383.09
571.27	28893.91
571.43	29336.27
571.60	28826.04
571.76	29123.29
571.92	29315.21
572.09	29090.52
572.25	29359.68
572.41	28985.19
572.57	29226.27
572.74	29118.60
572.90	29125.63
573.06	29308.19
573.22	29273.08
573.38	29125.63
573.55	29057.75
573.71	29603.10
573.87	29483.73
574.03	29441.60
574.20	29296.49
574.36	29043.71
574.52	29350.32
574.68	29252.02
574.84	28917.32
575.01	29158.39
575.17	29757.57
575.33	29418.19
575.49	29415.85
575.65	29099.88
575.82	29521.18
575.98	29081.16
576.14	29516.50
576.30	29312.87
576.46	29364.36
576.62	28727.74
576.79	29476.71
576.95	29294.14
577.11	29137.33
577.27	29244.99
577.43	29507.13
577.59	29469.69
577.75	29331.59
577.92	29032.00
578.08	29598.41
578.24	29249.67
578.40	29408.83
578.56	29486.07
578.72	29582.03
578.88	29687.36
579.04	29706.08
579.21	29670.97
579.37	29560.97
579.53	29315.21
579.69	29298.83
579.85	29256.70
580.01	29301.17
580.17	29142.01
580.33	29188.82
580.49	29329.25
580.65	29729.48
580.82	29244.99
580.98	29172.44
581.14	29570.33
581.30	29797.36
581.46	29619.48
581.62	29577.35
581.78	29507.13
581.94	29432.24
582.10	29689.70
582.26	29479.05
582.42	29476.71
582.58	29701.40
582.74	29401.81
582.90	29357.34
583.06	29392.45
583.22	29935.45
583.38	29392.45
583.54	29450.96
583.70	29216.91
583.86	29350.32
584.02	29399.47
584.18	29521.18
584.34	29706.08
584.50	29755.23
584.66	29296.49
584.82	29659.27
584.98	29399.47
585.14	29525.86
585.30	29638.20
585.46	29539.90
585.62	29268.40
585.78	29584.37
585.94	29387.77
586.10	29233.29
586.26	29359.68
586.42	29860.55
586.58	30431.65
586.74	29153.71
586.90	29465.00
587.06	29685.01
587.22	29816.08
587.38	29586.71
587.54	29523.52
587.70	30040.78
587.86	29720.12
588.02	30101.63
588.18	30230.36
588.34	30167.16
588.49	29476.71
588.65	29621.82
588.81	29933.11
588.97	29795.02
589.13	29596.07
589.29	29509.47
589.45	29788.00
589.61	29748.21
589.77	30061.84
589.93	30003.33
590.08	29905.02
590.24	30267.81
590.40	30363.77
590.56	30136.74
590.72	29525.86
590.88	30073.54
591.04	29771.61
591.20	30359.09
591.35	29916.73
591.51	30127.38
591.67	30221.00
591.83	29982.26
591.99	29982.26
