SpectraSuite Data File
++++++++++++++++++++++++++++++++++++
Date: Fri Oct 18 13:57:52 GMT-05:00 2013
User: bianchi
Dark Spectrum Present: No
Reference Spectrum Present: No
Number of Sampled Component Spectra: 1
Spectrometers: USB2+H05261
Integration Time (usec): 50000 (USB2+H05261)
Spectra Averaged: 1 (USB2+H05261)
Boxcar Smoothing: 0 (USB2+H05261)
Correct for Electrical Dark: No (USB2+H05261)
Strobe/Lamp Enabled: No (USB2+H05261)
Correct for Detector Non-linearity: No (USB2+H05261)
Correct for Stray Light: No (USB2+H05261)
Number of Pixels in Processed Spectrum: 2048
>>>>>Begin Processed Spectral Data<<<<<
365.73	0.00
365.92	0.00
366.12	0.00
366.32	0.00
366.52	0.00
366.72	0.00
366.91	0.00
367.11	0.00
367.31	0.00
367.51	0.00
367.70	0.00
367.90	0.00
368.10	0.00
368.30	0.00
368.49	0.00
368.69	0.00
368.89	0.00
369.09	0.00
369.28	0.00
369.48	0.00
369.68	0.00
369.87	0.00
370.07	0.00
370.27	0.00
370.47	0.00
370.66	11.70
370.86	63.19
371.06	154.48
371.25	210.65
371.45	98.30
371.65	117.03
371.84	168.52
372.04	180.22
372.24	196.60
372.44	191.92
372.63	177.88
372.83	191.92
373.03	210.65
373.22	173.20
373.42	194.26
373.62	198.95
373.81	180.22
374.01	285.55
374.21	262.14
374.40	234.05
374.60	327.68
374.79	252.78
374.99	224.69
375.19	241.08
375.38	196.60
375.58	262.14
375.78	269.16
375.97	250.44
376.17	332.36
376.37	269.16
376.56	257.46
376.76	187.24
376.95	238.73
377.15	297.25
377.35	290.23
377.54	294.91
377.74	297.25
377.93	264.48
378.13	248.10
378.33	269.16
378.52	285.55
378.72	210.65
378.91	264.48
379.11	358.10
379.31	292.57
379.50	315.97
379.70	301.93
379.89	339.38
380.09	318.31
380.28	304.27
380.48	318.31
380.68	332.36
380.87	362.78
381.07	280.86
381.26	360.44
381.46	224.69
381.65	294.91
381.85	287.89
382.04	285.55
382.24	311.29
382.43	294.91
382.63	299.59
382.83	294.91
383.02	374.49
383.22	332.36
383.41	351.08
383.61	379.17
383.80	367.46
384.00	388.53
384.19	411.93
384.39	388.53
384.58	365.12
384.78	367.46
384.97	449.38
385.17	322.99
385.36	390.87
385.56	407.25
385.75	351.08
385.95	362.78
386.14	358.10
386.34	304.27
386.53	376.83
386.72	423.64
386.92	496.19
387.11	381.51
387.31	379.17
387.50	379.17
387.70	376.83
387.89	442.36
388.09	390.87
388.28	433.00
388.48	447.04
388.67	465.77
388.86	505.56
389.06	463.43
389.25	533.64
389.45	465.77
389.64	489.17
389.84	407.25
390.03	524.28
390.22	538.32
390.42	575.77
390.61	456.40
390.81	575.77
391.00	435.34
391.19	585.13
391.39	533.64
391.58	531.30
391.78	514.92
391.97	620.24
392.16	557.05
392.36	512.58
392.55	589.82
392.75	561.73
392.94	552.37
393.13	521.94
393.33	505.56
393.52	573.43
393.71	561.73
393.91	596.84
394.10	514.92
394.29	613.22
394.49	580.45
394.68	580.45
394.88	643.65
395.07	589.82
395.26	620.24
395.46	638.97
395.65	638.97
395.84	697.48
396.04	627.26
396.23	610.88
396.42	627.26
396.62	638.97
396.81	671.73
397.00	716.20
397.19	734.93
397.39	655.35
397.58	704.50
397.77	711.52
397.97	631.94
398.16	716.20
398.35	692.80
398.55	683.44
398.74	753.65
398.93	699.82
399.12	674.07
399.32	706.84
399.51	744.29
399.70	777.06
399.90	746.63
400.09	723.23
400.28	800.46
400.47	739.61
400.67	807.48
400.86	753.65
401.05	840.25
401.24	772.38
401.44	802.80
401.63	805.14
401.82	737.27
402.01	823.87
402.21	868.34
402.40	767.70
402.59	926.85
402.78	828.55
402.97	800.46
403.17	882.38
403.36	847.27
403.55	851.96
403.74	891.74
403.93	903.45
404.13	945.58
404.32	929.19
404.51	844.93
404.70	938.55
404.89	898.77
405.09	938.55
405.28	908.13
405.47	910.47
405.66	1039.20
405.85	973.66
406.05	922.17
406.24	1018.13
406.43	968.98
406.62	1027.50
406.81	1111.75
407.00	959.62
407.20	1036.86
407.39	1055.58
407.58	1205.38
407.77	1041.54
407.96	1029.84
408.15	1071.97
408.34	1043.88
408.54	1081.33
408.73	1043.88
408.92	1184.31
409.11	1144.52
409.30	1200.69
409.49	1071.97
409.68	1181.97
409.87	1177.29
410.07	1142.18
410.26	1097.71
410.45	1228.78
410.64	1186.65
410.83	1193.67
411.02	1294.32
411.21	1160.91
411.40	1224.10
411.59	1270.91
411.78	1254.53
411.98	1235.80
412.17	1252.19
412.36	1327.08
412.55	1355.17
412.74	1313.04
412.93	1334.11
413.12	1409.00
413.31	1397.30
413.50	1383.26
413.69	1462.83
413.88	1441.77
414.07	1343.47
414.26	1467.52
414.45	1458.15
414.64	1385.60
414.83	1446.45
415.02	1427.73
415.22	1514.33
415.41	1572.84
415.60	1640.72
415.79	1558.80
415.98	1554.12
416.17	1617.31
416.36	1561.14
416.55	1638.38
416.74	1645.40
416.93	1605.61
417.12	1605.61
417.31	1671.14
417.50	1678.16
417.69	1647.74
417.88	1703.91
418.07	1769.44
418.26	1757.74
418.45	1706.25
418.64	1804.55
418.83	1755.40
419.02	1797.53
419.21	1856.04
419.39	1842.00
419.58	1881.79
419.77	1905.20
419.96	1944.99
420.15	1839.66
420.34	1893.49
420.53	1879.45
420.72	1961.37
420.91	1963.71
421.10	1902.86
421.29	1973.07
421.48	1830.30
421.67	1980.09
421.86	1909.88
422.05	1909.88
422.24	1907.54
422.43	1963.71
422.61	2001.16
422.80	2113.50
422.99	2022.22
423.18	2092.44
423.37	2043.29
423.56	2043.29
423.75	2087.76
423.94	1877.11
424.13	1928.60
424.32	1970.73
424.50	2099.46
424.69	2125.21
424.88	2069.03
425.07	1970.73
425.26	2076.06
425.45	2050.31
425.64	1982.43
425.83	2001.16
426.01	2010.52
426.20	2078.40
426.39	2008.18
426.58	2122.87
426.77	2141.59
426.96	2083.08
427.15	2148.61
427.33	2101.80
427.52	2216.49
427.71	2127.55
427.90	2150.95
428.09	2157.97
428.28	2211.81
428.46	2237.55
428.65	2246.91
428.84	2256.28
429.03	2265.64
429.22	2136.91
429.40	2289.04
429.59	2134.57
429.78	2246.91
429.97	2270.32
430.16	2242.23
430.34	2260.96
430.53	2375.64
430.72	2338.20
430.91	2223.51
431.10	2275.00
431.28	2368.62
431.47	2380.32
431.66	2438.84
431.85	2354.58
432.03	2546.50
432.22	2473.95
432.41	2277.34
432.60	2504.37
432.79	2420.11
432.97	2429.48
433.16	2560.55
433.35	2509.05
433.54	2504.37
433.72	2548.84
433.91	2546.50
434.10	2548.84
434.28	2476.29
434.47	2558.21
434.66	2600.34
434.85	2621.40
435.03	2600.34
435.22	2628.42
435.41	2715.02
435.59	2590.97
435.78	2635.44
435.97	2658.85
436.16	2607.36
436.34	2691.62
436.53	2747.79
436.72	2750.13
436.90	2640.12
437.09	2672.89
437.28	2740.77
437.46	2640.12
437.65	2759.49
437.84	2736.09
438.02	2794.60
438.21	2862.48
438.40	2633.10
438.58	2700.98
438.77	2743.11
438.96	2958.44
439.14	2834.39
439.33	2902.26
439.52	3110.57
439.70	2963.12
439.89	3026.31
440.08	3016.95
440.26	3148.02
440.45	3063.76
440.63	3138.66
440.82	3117.59
441.01	3035.67
441.19	3101.21
441.38	3213.56
441.57	3194.83
441.75	3272.07
441.94	3279.09
442.12	3187.81
442.31	3260.37
442.50	3424.20
442.68	3396.12
442.87	3262.71
443.05	3232.28
443.24	3473.36
443.43	3407.82
443.61	3400.80
443.80	3506.12
443.98	3269.73
444.17	3300.16
444.35	3414.84
444.54	3435.91
444.73	3428.88
444.91	3344.63
445.10	3428.88
445.28	3342.28
445.47	3365.69
445.65	3379.73
445.84	3471.01
446.02	3522.51
446.21	3501.44
446.39	3389.10
446.58	3585.70
446.77	3503.78
446.95	3274.41
447.14	3520.17
447.32	3595.06
447.51	3541.23
447.69	3534.21
447.88	3576.34
448.06	3421.86
448.25	3524.85
448.43	3695.71
448.62	3461.65
448.80	3669.96
448.99	3574.00
449.17	3562.30
449.36	3618.47
449.54	3669.96
449.73	3658.26
449.91	3801.03
450.10	3674.64
450.28	3707.41
450.46	3726.13
450.65	3794.01
450.83	3684.00
451.02	3735.50
451.20	3829.12
451.39	3845.50
451.57	3896.99
451.76	3819.75
451.94	3772.94
452.13	3810.39
452.31	3735.50
452.49	3894.65
452.68	3768.26
452.86	3819.75
453.05	3950.82
453.23	3852.52
453.42	3796.35
453.60	3847.84
453.78	3868.91
453.97	3904.01
454.15	3985.93
454.34	4131.05
454.52	3997.64
454.70	4051.47
454.89	4030.40
455.07	3995.29
455.26	4135.73
455.44	4189.56
455.62	4037.42
455.81	4037.42
455.99	4297.22
456.17	4088.92
456.36	4189.56
456.54	4184.88
456.73	4409.57
456.91	4208.28
457.09	4327.65
457.28	4369.78
457.46	4283.18
457.64	4503.19
457.83	4306.59
458.01	4285.52
458.19	4472.76
458.38	4421.27
458.56	4507.87
458.74	4472.76
458.93	4484.47
459.11	4627.24
459.29	4428.29
459.48	4496.17
459.66	4416.59
459.84	4718.52
460.03	4683.41
460.21	4702.14
460.39	4542.98
460.57	4578.09
460.76	4788.74
460.94	4638.94
461.12	4599.15
461.31	4571.07
461.49	4622.56
461.67	4643.62
461.85	4641.28
462.04	4540.64
462.22	5064.92
462.40	4842.57
462.59	4760.65
462.77	4816.82
462.95	4856.61
463.13	4805.12
463.32	4910.44
463.50	4837.89
463.68	4997.04
463.86	4819.16
464.05	4823.84
464.23	4947.89
464.41	4849.59
464.59	4940.87
464.78	5043.85
464.96	4978.32
465.14	4905.76
465.32	4903.42
465.50	4997.04
465.69	5029.81
465.87	5060.24
466.05	5046.20
466.23	5008.75
466.41	5125.77
466.60	5111.73
466.78	5160.88
466.96	5008.75
467.14	4985.34
467.32	5053.22
467.51	5200.67
467.69	5004.07
467.87	5228.76
468.05	5240.46
468.23	5064.92
468.41	5259.18
468.60	5291.95
468.78	5226.42
468.96	5254.50
469.14	5172.58
469.32	5282.59
469.50	5238.12
469.69	5453.45
469.87	5401.96
470.05	5488.56
470.23	5420.68
470.41	5399.62
470.59	5570.48
470.77	5483.88
470.95	5490.90
471.14	5673.46
471.32	5514.30
471.50	5558.77
471.68	5528.35
471.86	5748.36
472.04	5593.88
472.22	5767.08
472.40	5591.54
472.58	5657.07
472.77	5734.31
472.95	5790.49
473.13	5973.05
473.31	5774.10
473.49	5895.81
473.67	5879.43
473.85	5909.85
474.03	5970.71
474.21	6160.29
474.39	6179.01
474.57	6099.44
474.75	6274.98
474.93	6122.84
475.12	6195.40
475.30	6183.70
475.48	6242.21
475.66	6333.49
475.84	6267.95
476.02	6274.98
476.20	6455.20
476.38	6490.31
476.56	6537.12
476.74	6689.25
476.92	6553.50
477.10	6604.99
477.28	6551.16
477.46	6612.01
477.64	6717.34
477.82	6829.68
478.00	7080.12
478.18	6942.03
478.36	6986.50
478.54	7087.14
478.72	7143.32
478.90	7194.81
479.08	7332.90
479.26	7318.86
479.44	7262.68
479.62	7307.15
479.80	7494.40
479.98	7370.35
480.16	7510.78
480.34	7445.24
480.52	7433.54
480.70	7786.96
480.88	7700.36
481.06	7747.17
481.24	7653.55
481.41	7957.82
481.59	7983.57
481.77	8030.38
481.95	7969.52
482.13	8126.34
482.31	8205.92
482.49	8205.92
482.67	8238.69
482.85	8416.57
483.03	8498.49
483.21	8622.53
483.39	8652.96
483.57	8709.13
483.74	8734.88
483.92	8784.03
484.10	8744.24
484.28	8718.50
484.46	9139.79
484.64	9245.12
484.82	9057.87
485.00	9282.56
485.18	9231.07
485.35	9404.27
485.53	9434.70
485.71	9446.40
485.89	9865.36
486.07	9659.39
486.25	9734.29
486.43	9624.28
486.61	9811.53
486.78	9991.75
486.96	9846.63
487.14	10050.26
487.32	10099.41
487.50	10300.70
487.68	10106.43
487.85	10331.12
488.03	10410.70
488.21	10682.20
488.39	10843.70
488.57	10757.10
488.75	10789.87
488.92	11033.29
489.10	11007.54
489.28	10934.98
489.46	11115.20
489.64	11145.63
489.81	11410.11
489.99	11248.61
490.17	11426.50
490.35	11592.67
490.53	11482.67
490.70	11784.60
490.88	11934.39
491.06	11929.71
491.24	11791.62
491.41	11875.88
491.59	11906.31
491.77	11943.75
491.95	12233.98
492.13	12348.67
492.30	12376.75
492.48	12390.80
492.66	12327.60
492.84	12105.25
493.01	12657.62
493.19	12711.45
493.37	12762.94
493.54	13032.10
493.72	12889.33
493.90	12877.63
494.08	12985.29
494.25	13261.48
494.43	13324.67
494.61	13315.31
494.79	13408.93
494.96	13359.78
495.14	13373.82
495.32	13738.94
495.49	13671.07
495.67	13734.26
495.85	13844.27
496.02	13879.38
496.20	14132.15
496.38	14040.87
496.55	14239.82
496.73	14476.21
496.91	14108.75
497.09	14480.89
497.26	14661.12
497.44	14150.88
497.62	14450.47
497.79	14672.82
497.97	14401.32
498.14	14745.38
498.32	15030.92
498.50	15035.60
498.67	15054.33
498.85	15019.22
499.03	15044.96
499.20	15232.21
499.38	14967.73
499.56	15426.47
499.73	15293.06
499.91	15466.26
500.08	15438.17
500.26	15360.94
500.44	15531.80
500.61	15740.10
500.79	15477.96
500.97	15644.14
501.14	16060.76
501.32	15906.28
501.49	15981.18
501.67	16077.14
501.84	16154.38
502.02	16336.94
502.20	16100.55
502.37	16299.49
502.55	16093.52
502.72	16229.27
502.90	16163.74
503.07	16346.30
503.25	16184.80
503.43	16187.14
503.60	16636.53
503.78	16636.53
503.95	16624.83
504.13	16854.20
504.30	16779.30
504.48	16676.32
504.65	16840.15
504.83	16968.88
505.01	17331.67
505.18	17240.39
505.36	17362.09
505.53	17195.92
505.71	16896.33
505.88	17308.26
506.06	17273.15
506.23	17593.81
506.41	17441.67
506.58	17586.79
506.76	17427.63
506.93	17451.03
507.11	17362.09
507.28	17724.88
507.46	17743.60
507.63	17451.03
507.81	17923.82
507.98	17923.82
508.16	17598.49
508.33	17898.08
508.50	17937.87
508.68	17858.29
508.85	18333.42
509.03	18345.12
509.20	18230.43
509.38	18464.49
509.55	18338.10
509.73	18644.71
509.90	18394.27
510.08	18408.31
510.25	18410.65
510.42	18738.33
510.60	19023.87
510.77	18581.51
510.95	19110.47
511.12	18663.43
511.30	18675.13
511.47	18979.40
511.64	18838.97
511.82	19016.85
511.99	19180.69
512.17	19023.87
512.34	18850.67
512.51	19248.57
512.69	19307.08
512.86	19389.00
513.04	19852.42
513.21	19522.41
513.38	19601.99
513.56	19850.08
513.73	19470.92
513.90	19606.67
514.08	19885.19
514.25	19768.16
514.43	19829.02
514.60	19873.49
514.77	20042.01
514.95	19814.98
515.12	20233.93
515.29	20004.56
515.47	20077.12
515.64	20348.62
515.81	20465.64
515.99	19934.34
516.16	20580.33
516.33	20332.23
516.51	20592.03
516.68	20341.60
516.85	20357.98
517.03	20809.70
517.20	20851.83
517.37	20514.80
517.54	20549.90
517.72	20566.29
517.89	20828.43
518.06	20900.98
518.24	20767.57
518.41	20751.19
518.58	21069.50
518.75	20802.68
518.93	21350.37
519.10	21348.03
519.27	20905.66
519.45	21043.76
519.62	20893.96
519.79	21209.93
519.96	21158.44
520.14	21338.66
520.31	21312.92
520.48	21631.23
520.65	21275.47
520.83	21341.00
521.00	21774.00
521.17	21465.05
521.34	21511.86
521.52	21694.43
521.69	21741.24
521.86	22057.21
522.03	22284.24
522.20	21951.88
522.38	21947.20
522.55	22230.41
522.72	22050.19
522.89	22235.09
523.07	22436.38
523.24	22270.20
523.41	22232.75
523.58	21881.67
523.75	22441.06
523.92	22260.84
524.10	22345.09
524.27	22504.25
524.44	22525.32
524.61	23012.15
524.78	22948.95
524.96	22792.14
525.13	22733.62
525.30	22785.12
525.47	22881.08
525.64	22621.28
525.81	22986.40
525.98	22939.59
526.16	22984.06
526.33	22911.50
526.50	23178.33
526.67	22569.79
526.84	22778.09
527.01	23075.34
527.18	23094.07
527.36	23152.58
527.53	23236.84
527.70	23234.50
527.87	23606.64
528.04	23077.68
528.21	23459.19
528.38	23381.95
528.55	23297.69
528.72	23522.38
528.89	23496.64
529.07	23297.69
529.24	23754.10
529.41	23927.30
529.58	23417.06
529.75	23311.74
529.92	23515.36
530.09	23735.37
530.26	23908.57
530.43	24046.66
530.60	23868.78
530.77	23985.81
530.94	23627.71
531.11	23896.87
531.28	23864.10
531.46	24306.46
531.63	23948.36
531.80	24259.65
531.97	24430.51
532.14	24379.02
532.31	24151.99
532.48	24329.87
532.65	24245.61
532.82	24168.37
532.99	24463.28
533.16	24364.98
533.33	24842.45
533.50	24636.48
533.67	24573.28
533.84	24334.55
534.01	24449.24
534.18	24360.30
534.35	24627.12
534.52	24615.41
534.69	24882.24
534.86	24879.89
535.03	24573.28
535.20	24933.73
535.37	24800.32
535.54	24699.67
535.71	24716.06
535.88	24933.73
536.05	25118.63
536.22	24917.34
536.38	25453.33
536.55	24922.02
536.72	25610.14
536.89	25261.40
537.06	25048.41
537.23	25998.67
537.40	25186.50
537.57	25221.61
537.74	25158.42
537.91	25373.75
538.08	25610.14
538.25	25546.95
538.42	25273.10
538.59	25736.53
538.75	25270.76
538.92	25165.44
539.09	25729.51
539.26	25671.00
539.43	25837.17
539.60	25397.15
539.77	25755.26
539.94	25568.01
540.11	25944.84
540.28	25963.56
540.44	25883.98
540.61	25551.63
540.78	25628.87
540.95	25883.98
541.12	26129.74
541.29	26125.06
541.46	26005.69
541.62	25909.73
541.79	25687.38
541.96	25975.27
542.13	26054.84
542.30	25940.16
542.47	26426.99
542.63	26574.44
542.80	26422.31
542.97	26115.70
543.14	26178.89
543.31	26347.41
543.48	26253.79
543.64	26719.56
543.81	26859.99
543.98	26529.97
544.15	26717.22
544.32	26778.07
544.48	26967.65
544.65	26719.56
544.82	26597.85
544.99	26852.97
545.16	26567.42
545.32	27133.83
545.49	26913.82
545.66	26969.99
545.83	26960.63
546.00	27077.66
546.16	26852.97
546.33	27145.53
546.50	26874.03
546.67	26864.67
546.83	26827.22
547.00	26803.82
547.17	27185.32
547.34	26881.05
547.50	27480.23
547.67	27529.38
547.84	27541.08
548.00	27168.94
548.17	27300.01
548.34	27426.40
548.51	27459.16
548.67	27297.67
548.84	27592.58
549.01	27304.69
549.18	27527.04
549.34	27789.18
549.51	27814.93
549.68	27557.47
549.84	27257.88
550.01	27562.15
550.18	27393.63
550.34	27707.26
550.51	27906.21
550.68	27967.06
550.84	27611.30
551.01	27480.23
551.18	27285.97
551.34	27955.36
551.51	27857.06
551.68	28147.28
551.84	27831.31
552.01	27885.14
552.18	27882.80
552.34	27936.63
552.51	28142.60
552.68	27866.42
552.84	28137.92
553.01	27868.76
553.18	27850.03
553.34	27796.20
553.51	27854.72
553.67	28259.63
553.84	28589.64
554.01	28196.43
554.17	28334.53
554.34	28086.43
554.51	28166.01
554.67	28503.04
554.84	28140.26
555.00	28245.58
555.17	28048.98
555.33	28156.64
555.50	28369.63
555.67	28203.46
555.83	28432.83
556.00	28397.72
556.16	28561.56
556.33	28723.05
556.50	28364.95
556.66	28519.43
556.83	28549.85
556.99	29202.86
557.16	28823.70
557.32	28594.32
557.49	29139.67
557.65	28685.61
557.82	28465.60
557.98	28496.02
558.15	28442.19
558.32	28629.43
558.48	28755.82
558.65	28943.06
558.81	28797.95
558.98	28823.70
559.14	28980.51
559.31	28622.41
559.47	29301.17
559.64	29174.78
559.80	29411.17
559.97	29240.31
560.13	29013.28
560.30	29024.98
560.46	29172.44
560.63	29195.84
560.79	29069.45
560.96	29256.70
561.12	28903.28
561.29	28982.85
561.45	28811.99
561.61	29198.18
561.78	29244.99
561.94	28877.53
562.11	29254.36
562.27	28940.72
562.44	29142.01
562.60	29071.79
562.77	29111.58
562.93	28947.75
563.10	29212.23
563.26	29102.22
563.42	29322.23
563.59	29422.87
563.75	29127.97
563.92	29053.07
564.08	29532.88
564.24	29202.86
564.41	29460.32
564.57	29586.71
564.74	29380.74
564.90	29455.64
565.07	29542.24
565.23	29151.37
565.39	29399.47
565.56	29214.57
565.72	29432.24
565.88	29666.29
566.05	29422.87
566.21	29149.03
566.38	29345.64
566.54	29795.02
566.70	29645.23
566.87	29790.34
567.03	29413.51
567.19	29895.66
567.36	29727.14
567.52	29432.24
567.68	29642.88
567.85	29476.71
568.01	29888.64
568.17	29748.21
568.34	29900.34
568.50	29500.11
568.66	29811.40
568.83	30113.33
568.99	29654.59
569.15	29551.60
569.32	29420.53
569.48	29172.44
569.64	29685.01
569.81	29645.23
569.97	29708.42
570.13	29446.28
570.30	29584.37
570.46	29949.50
570.62	30064.18
570.78	29514.16
570.95	29235.63
571.11	29439.26
571.27	29652.25
571.43	29521.18
571.60	29830.13
571.76	30038.44
571.92	29490.75
572.09	29876.94
572.25	29624.16
572.41	29701.40
572.57	30132.06
572.74	29832.47
572.90	29680.33
573.06	29565.65
573.22	29685.01
573.38	29968.22
573.55	29682.67
573.71	30108.65
573.87	30080.56
574.03	29956.52
574.20	30089.93
574.36	29670.97
574.52	29626.50
574.68	29986.94
574.84	29675.65
575.01	30089.93
575.17	29818.42
575.33	29560.97
575.49	30129.72
575.65	29853.53
575.82	30178.87
575.98	29919.07
576.14	30050.14
576.30	30155.46
576.46	30036.09
576.62	29806.72
576.79	30323.98
576.95	30045.46
577.11	30087.59
577.27	30036.09
577.43	30036.09
577.59	29989.28
577.75	30251.42
577.92	29776.30
578.08	29680.33
578.24	29853.53
578.40	30139.08
578.56	30085.25
578.72	29778.64
578.88	30487.82
579.04	30005.67
579.21	29961.20
579.37	30061.84
579.53	30040.78
579.69	30115.67
579.85	29961.20
580.01	29993.97
580.17	29743.53
580.33	30218.66
580.49	30286.53
580.65	29944.81
580.82	30190.57
580.98	30305.26
581.14	30237.38
581.30	30377.81
581.46	30209.29
581.62	29806.72
581.78	30169.51
581.94	30419.94
582.10	29907.37
582.26	30129.72
582.42	30162.48
582.58	30401.22
582.74	30459.73
582.90	30136.74
583.06	30274.83
583.22	30228.02
583.38	30082.91
583.54	30122.69
583.70	30408.24
583.86	30345.05
584.02	30246.74
584.18	30682.08
584.34	30536.97
584.50	30169.51
584.66	30045.46
584.82	30068.86
584.98	30431.65
585.14	30410.58
585.30	29811.40
585.46	29933.11
585.62	30277.17
585.78	30221.00
585.94	30029.07
586.10	30450.37
586.26	30080.56
586.42	30387.18
586.58	30307.60
586.74	30209.29
586.90	29949.50
587.06	30195.25
587.22	30300.58
587.38	30108.65
587.54	30567.40
587.70	30431.65
587.86	30370.79
588.02	30609.53
588.18	30810.81
588.34	30572.08
588.49	30450.37
588.65	30265.47
588.81	30181.21
588.97	30520.59
589.13	30457.39
589.29	30597.82
589.45	30483.14
589.61	30890.39
589.77	30714.85
589.93	30569.74
590.08	30705.49
590.24	30764.00
590.40	30775.70
590.56	30300.58
590.72	30431.65
590.88	30309.94
591.04	30508.88
591.20	30569.74
591.35	30675.06
591.51	30817.83
591.67	30663.36
591.83	30883.37
591.99	30909.11
