SpectraSuite Data File
++++++++++++++++++++++++++++++++++++
Date: Fri Oct 18 13:57:59 GMT-05:00 2013
User: bianchi
Dark Spectrum Present: No
Reference Spectrum Present: No
Number of Sampled Component Spectra: 1
Spectrometers: USB2+H05261
Integration Time (usec): 50000 (USB2+H05261)
Spectra Averaged: 1 (USB2+H05261)
Boxcar Smoothing: 0 (USB2+H05261)
Correct for Electrical Dark: No (USB2+H05261)
Strobe/Lamp Enabled: No (USB2+H05261)
Correct for Detector Non-linearity: No (USB2+H05261)
Correct for Stray Light: No (USB2+H05261)
Number of Pixels in Processed Spectrum: 2048
>>>>>Begin Processed Spectral Data<<<<<
365.73	0.00
365.92	0.00
366.12	0.00
366.32	0.00
366.52	0.00
366.72	0.00
366.91	0.00
367.11	0.00
367.31	0.00
367.51	0.00
367.70	0.00
367.90	0.00
368.10	0.00
368.30	0.00
368.49	0.00
368.69	0.00
368.89	0.00
369.09	0.00
369.28	0.00
369.48	0.00
369.68	0.00
369.87	0.00
370.07	0.00
370.27	0.00
370.47	0.00
370.66	88.94
370.86	154.48
371.06	187.24
371.25	191.92
371.45	152.13
371.65	205.97
371.84	117.03
372.04	152.13
372.24	208.31
372.44	149.79
372.63	154.48
372.83	208.31
373.03	231.71
373.22	245.76
373.42	189.58
373.62	278.52
373.81	231.71
374.01	248.10
374.21	243.42
374.40	236.39
374.60	234.05
374.79	280.86
374.99	313.63
375.19	212.99
375.38	236.39
375.58	234.05
375.78	248.10
375.97	280.86
376.17	266.82
376.37	273.84
376.56	259.80
376.76	238.73
376.95	255.12
377.15	238.73
377.35	327.68
377.54	201.29
377.74	201.29
377.93	245.76
378.13	337.04
378.33	241.08
378.52	248.10
378.72	322.99
378.91	318.31
379.11	273.84
379.31	283.20
379.50	252.78
379.70	313.63
379.89	301.93
380.09	355.76
380.28	325.33
380.48	402.57
380.68	353.42
380.87	353.42
381.07	301.93
381.26	332.36
381.46	362.78
381.65	348.74
381.85	379.17
382.04	383.85
382.24	304.27
382.43	372.15
382.63	325.33
382.83	421.30
383.02	388.53
383.22	383.85
383.41	418.96
383.61	327.68
383.80	311.29
384.00	330.02
384.19	313.63
384.39	386.19
384.58	346.40
384.78	386.19
384.97	376.83
385.17	369.80
385.36	358.10
385.56	407.25
385.75	381.51
385.95	358.10
386.14	334.70
386.34	423.64
386.53	404.91
386.72	381.51
386.92	470.45
387.11	400.23
387.31	351.08
387.50	360.44
387.70	367.46
387.89	437.68
388.09	390.87
388.28	498.53
388.48	360.44
388.67	526.62
388.86	486.83
389.06	500.87
389.25	397.89
389.45	442.36
389.64	503.22
389.84	447.04
390.03	603.86
390.22	510.24
390.42	440.02
390.61	512.58
390.81	510.24
391.00	503.22
391.19	528.96
391.39	507.90
391.58	496.19
391.78	585.13
391.97	599.18
392.16	557.05
392.36	608.54
392.55	543.00
392.75	524.28
392.94	521.94
393.13	547.69
393.33	479.81
393.52	535.98
393.71	550.03
393.91	559.39
394.10	491.51
394.29	489.17
394.49	610.88
394.68	580.45
394.88	613.22
395.07	575.77
395.26	669.39
395.46	674.07
395.65	629.60
395.84	655.35
396.04	676.41
396.23	664.71
396.42	648.33
396.62	688.12
396.81	664.71
397.00	697.48
397.19	758.33
397.39	615.56
397.58	739.61
397.77	653.01
397.97	716.20
398.16	723.23
398.35	683.44
398.55	702.16
398.74	669.39
398.93	730.25
399.12	774.72
399.32	695.14
399.51	770.04
399.70	805.14
399.90	746.63
400.09	781.74
400.28	833.23
400.47	779.40
400.67	828.55
400.86	793.44
401.05	781.74
401.24	779.40
401.44	779.40
401.63	784.08
401.82	854.30
402.01	821.53
402.21	861.32
402.40	807.48
402.59	882.38
402.78	842.59
402.97	891.74
403.17	814.51
403.36	866.00
403.55	880.04
403.74	1011.11
403.93	903.45
404.13	952.60
404.32	898.77
404.51	952.60
404.70	985.37
404.89	950.26
405.09	952.60
405.28	968.98
405.47	936.21
405.66	943.24
405.85	1057.92
406.05	1022.81
406.24	997.07
406.43	1097.71
406.62	987.71
406.81	980.68
407.00	1004.09
407.20	1048.56
407.39	1062.60
407.58	1053.24
407.77	1071.97
407.96	1060.26
408.15	1233.46
408.34	1062.60
408.54	1114.10
408.73	1144.52
408.92	1064.94
409.11	1233.46
409.30	1172.61
409.49	1170.27
409.68	1263.89
409.87	1114.10
410.07	1184.31
410.26	1233.46
410.45	1191.33
410.64	1233.46
410.83	1263.89
411.02	1207.72
411.21	1364.53
411.40	1287.29
411.59	1296.66
411.78	1219.42
411.98	1289.64
412.17	1369.21
412.36	1378.58
412.55	1366.87
412.74	1350.49
412.93	1284.95
413.12	1369.21
413.31	1460.49
413.50	1343.47
413.69	1437.09
413.88	1420.71
414.07	1500.28
414.26	1437.09
414.45	1598.59
414.64	1383.26
414.83	1465.18
415.02	1493.26
415.22	1547.09
415.41	1544.75
415.60	1561.14
415.79	1554.12
415.98	1694.55
416.17	1657.10
416.36	1694.55
416.55	1668.80
416.74	1708.59
416.93	1643.06
417.12	1687.53
417.31	1640.72
417.50	1717.95
417.69	1820.94
417.88	1783.49
418.07	1760.08
418.26	1820.94
418.45	1746.04
418.64	1865.41
418.83	1830.30
419.02	1816.26
419.21	1820.94
419.39	1776.47
419.58	1825.62
419.77	1963.71
419.96	1914.56
420.15	1914.56
420.34	1809.23
420.53	1867.75
420.72	1982.43
420.91	1973.07
421.10	1977.75
421.29	2106.48
421.48	2003.50
421.67	2008.18
421.86	1926.26
422.05	1966.05
422.24	2010.52
422.43	1921.58
422.61	1973.07
422.80	2071.37
422.99	2085.42
423.18	2059.67
423.37	2052.65
423.56	2029.24
423.75	2022.22
423.94	2050.31
424.13	1849.02
424.32	1858.39
424.50	2008.18
424.69	2207.13
424.88	2101.80
425.07	2062.01
425.26	1996.48
425.45	1980.09
425.64	2083.08
425.83	2022.22
426.01	2050.31
426.20	2071.37
426.39	2076.06
426.58	2019.88
426.77	2097.12
426.96	2118.18
427.15	2066.69
427.33	2125.21
427.52	2200.10
427.71	2139.25
427.90	2186.06
428.09	2186.06
428.28	2258.62
428.46	2317.13
428.65	2284.36
428.84	2272.66
429.03	2324.15
429.22	2162.66
429.40	2279.68
429.59	2317.13
429.78	2174.36
429.97	2157.97
430.16	2239.89
430.34	2263.30
430.53	2282.02
430.72	2502.03
430.91	2370.96
431.10	2366.28
431.28	2513.74
431.47	2424.80
431.66	2443.52
431.85	2429.48
432.03	2499.69
432.22	2497.35
432.41	2420.11
432.60	2457.56
432.79	2485.65
432.97	2567.57
433.16	2642.46
433.35	2661.19
433.54	2642.46
433.72	2553.52
433.91	2656.51
434.10	2715.02
434.28	2562.89
434.47	2516.08
434.66	2616.72
434.85	2717.36
435.03	2668.21
435.22	2588.63
435.41	2703.32
435.59	2684.59
435.78	2846.09
435.97	2715.02
436.16	2719.70
436.34	2761.83
436.53	2766.51
436.72	2815.66
436.90	2750.13
437.09	2700.98
437.28	2715.02
437.46	2932.69
437.65	2909.29
437.84	2808.64
438.02	2731.41
438.21	2801.62
438.40	2747.79
438.58	3028.65
438.77	3000.57
438.96	2953.76
439.14	3094.19
439.33	3096.53
439.52	2923.33
439.70	3124.62
439.89	3040.36
440.08	3103.55
440.26	3091.85
440.45	3243.98
440.63	3279.09
440.82	3222.92
441.01	3218.24
441.19	3178.45
441.38	3199.51
441.57	3225.26
441.75	3267.39
441.94	3344.63
442.12	3302.50
442.31	3321.22
442.50	3323.56
442.68	3382.07
442.87	3356.33
443.05	3419.52
443.24	3566.98
443.43	3342.28
443.61	3447.61
443.80	3648.90
443.98	3386.76
444.17	3398.46
444.35	3581.02
444.54	3536.55
444.73	3482.72
444.91	3454.63
445.10	3538.89
445.28	3456.97
445.47	3435.91
445.65	3534.21
445.84	3538.89
446.02	3536.55
446.21	3471.01
446.39	3606.77
446.58	3545.91
446.77	3578.68
446.95	3534.21
447.14	3574.00
447.32	3590.38
447.51	3630.17
447.69	3604.42
447.88	3604.42
448.06	3536.55
448.25	3510.80
448.43	3562.30
448.62	3548.25
448.80	3669.96
448.99	3583.36
449.17	3723.79
449.36	3632.51
449.54	3651.24
449.73	3707.41
449.91	3728.47
450.10	3733.15
450.28	3768.26
450.46	3796.35
450.65	3786.99
450.83	3808.05
451.02	3857.20
451.20	3868.91
451.39	3904.01
451.57	3866.56
451.76	3866.56
451.94	3854.86
452.13	3854.86
452.31	3908.69
452.49	3932.10
452.68	3873.59
452.86	3852.52
453.05	3985.93
453.23	4009.34
453.42	3971.89
453.60	4072.53
453.78	3922.74
453.97	3992.95
454.15	3974.23
454.34	3843.16
454.52	4046.79
454.70	4177.86
454.89	4135.73
455.07	4037.42
455.26	4264.46
455.44	4273.82
455.62	4198.92
455.81	4161.47
455.99	4056.15
456.17	4320.63
456.36	4273.82
456.54	4219.99
456.73	4339.35
456.91	4367.44
457.09	4304.25
457.28	4395.53
457.46	4257.43
457.64	4374.46
457.83	4580.43
458.01	4449.36
458.19	4400.21
458.38	4425.95
458.56	4571.07
458.74	4622.56
458.93	4564.04
459.11	4496.17
459.29	4442.34
459.48	4404.89
459.66	4732.56
459.84	4545.32
460.03	4603.83
460.21	4678.73
460.39	4737.24
460.57	4507.87
460.76	4697.46
460.94	4774.69
461.12	4676.39
461.31	4779.37
461.49	4709.16
461.67	4734.90
461.85	4889.38
462.04	4777.03
462.22	5006.41
462.40	4880.02
462.59	4868.31
462.77	4959.60
462.95	4954.91
463.13	4786.40
463.32	5048.54
463.50	4968.96
463.68	5015.77
463.86	5095.35
464.05	4746.61
464.23	4755.97
464.41	5004.07
464.59	4966.62
464.78	5062.58
464.96	4973.64
465.14	4903.42
465.32	5015.77
465.50	5125.77
465.69	5048.54
465.87	5001.72
466.05	4985.34
466.23	5144.50
466.41	5069.60
466.60	5195.99
466.78	5322.38
466.96	5095.35
467.14	5198.33
467.32	5177.26
467.51	5261.52
467.69	5078.96
467.87	5130.45
468.05	5111.73
468.23	5228.76
468.41	5217.05
468.60	5301.31
468.78	5406.64
468.96	5245.14
469.14	5465.15
469.32	5357.49
469.50	5334.08
469.69	5427.70
469.87	5383.23
470.05	5626.65
470.23	5610.26
470.41	5514.30
470.59	5584.52
470.77	5593.88
470.95	5671.12
471.14	5600.90
471.32	5509.62
471.50	5710.91
471.68	5680.48
471.86	5844.32
472.04	5753.04
472.22	5804.53
472.40	5809.21
472.58	6003.47
472.77	5994.11
472.95	6038.58
473.13	6001.13
473.31	5926.24
473.49	5987.09
473.67	5947.30
473.85	6022.20
474.03	6083.05
474.21	6087.73
474.39	6160.29
474.57	6218.80
474.75	6274.98
474.93	6389.66
475.12	6298.38
475.30	6349.87
475.48	6303.06
475.66	6375.62
475.84	6499.67
476.02	6497.33
476.20	6370.94
476.38	6338.17
476.56	6670.53
476.74	6628.40
476.92	6609.67
477.10	6757.13
477.28	6792.23
477.46	6700.95
477.64	6642.44
477.82	7026.29
478.00	7241.62
478.18	6993.52
478.36	7218.21
478.54	7335.24
478.72	7229.91
478.90	7412.48
479.08	7442.90
479.26	7503.76
479.44	7538.87
479.62	7478.01
479.80	7485.03
479.98	7569.29
480.16	7583.34
480.34	7595.04
480.52	7695.68
480.70	7662.91
480.88	7625.47
481.06	7770.58
481.24	7943.78
481.41	7932.08
481.59	8100.59
481.77	8299.54
481.95	8250.39
482.13	8095.91
482.31	8252.73
482.49	8386.14
482.67	8348.69
482.85	8414.23
483.03	8753.60
483.21	8741.90
483.39	8982.98
483.57	8755.94
483.74	8950.21
483.92	8975.95
484.10	8798.07
484.28	8971.27
484.46	9156.18
484.64	9394.91
484.82	8894.04
485.00	9380.87
485.18	9411.29
485.35	9582.15
485.53	9589.17
485.71	9668.75
485.89	9879.40
486.07	9731.95
486.25	9874.72
486.43	9727.27
486.61	10008.13
486.78	9996.43
486.96	10120.48
487.14	10281.97
487.32	10232.82
487.50	10523.05
487.68	10384.96
487.85	10679.86
488.03	10768.80
488.21	10771.15
488.39	10860.09
488.57	10934.98
488.75	10820.30
488.92	11096.48
489.10	11124.57
489.28	11098.82
489.46	11356.28
489.64	11344.58
489.81	11571.61
489.99	11468.62
490.17	11433.52
490.35	11763.53
490.53	11700.34
490.70	11955.46
490.88	11836.09
491.06	11927.37
491.24	12248.02
491.41	12065.46
491.59	12175.47
491.77	12432.93
491.95	12255.04
492.13	12407.18
492.30	12531.23
492.48	12533.57
492.66	12674.00
492.84	12587.40
493.01	12858.90
493.19	12870.61
493.37	13219.35
493.54	12919.76
493.72	13186.58
493.90	13238.07
494.08	13387.86
494.25	13441.70
494.43	13441.70
494.61	13647.66
494.79	13631.28
494.96	13584.47
495.14	13568.09
495.32	14005.77
495.49	13628.94
495.67	13748.31
495.85	14073.64
496.02	14373.23
496.20	14043.21
496.38	14300.67
496.55	14108.75
496.73	14640.05
496.91	14499.62
497.09	14682.18
497.26	14712.61
497.44	14775.80
497.62	14630.69
497.79	14813.25
497.97	14731.33
498.14	14789.85
498.32	15227.53
498.50	15225.18
498.67	15290.72
498.85	15073.05
499.03	15365.62
499.20	15288.38
499.38	15332.85
499.56	15456.90
499.73	15894.58
499.91	15613.71
500.08	15728.40
500.26	15648.82
500.44	15665.21
500.61	15936.71
500.79	16030.33
500.97	16248.00
501.14	16222.25
501.32	16107.57
501.49	16133.31
501.67	16439.92
501.84	16287.79
502.02	16334.60
502.20	16123.95
502.37	16587.38
502.55	16486.73
502.72	16533.54
502.90	16451.63
503.07	16545.25
503.25	16552.27
503.43	16547.59
503.60	16889.31
503.78	16802.71
503.95	16798.02
504.13	17195.92
504.30	17172.51
504.48	16994.63
504.65	17043.78
504.83	17383.16
505.01	17334.01
505.18	17214.64
505.36	17680.41
505.53	17338.69
505.71	17397.20
505.88	17535.29
506.06	17757.64
506.23	17762.33
506.41	17799.77
506.58	17612.53
506.76	18003.40
506.93	17972.97
507.11	17802.11
507.28	17926.16
507.46	17790.41
507.63	18064.25
507.81	18452.78
507.98	18267.88
508.16	18434.06
508.33	18270.22
508.50	18401.29
508.68	18317.03
508.85	18614.28
509.03	18604.92
509.20	18583.85
509.38	18778.12
509.55	18958.34
509.73	18555.77
509.90	18728.97
510.08	18735.99
510.25	18909.19
510.42	19136.22
510.60	19150.26
510.77	19124.52
510.95	19274.31
511.12	18895.14
511.30	19126.86
511.47	19304.74
511.64	19501.34
511.82	19442.83
511.99	19499.00
512.17	19569.22
512.34	19506.02
512.51	19543.47
512.69	19887.53
512.86	19775.19
513.04	19845.40
513.21	19810.29
513.38	19761.14
513.56	20044.35
513.73	20016.26
513.90	20074.77
514.08	19995.20
514.25	20168.40
514.43	20334.57
514.60	20163.72
514.77	20425.86
514.95	20381.38
515.12	20308.83
515.29	20327.55
515.47	20446.92
515.64	20638.84
515.81	20393.09
515.99	20917.37
516.16	20912.69
516.33	21013.33
516.51	20893.96
516.68	20563.95
516.85	20730.12
517.03	20877.58
517.20	20966.52
517.37	20856.51
517.54	21090.57
517.72	21188.87
517.89	21135.04
518.06	20805.02
518.24	21270.79
518.41	21406.54
518.58	21170.15
518.75	21231.00
518.93	21617.19
519.10	21420.58
519.27	21411.22
519.45	21678.04
519.62	21542.29
519.79	21876.99
519.96	21720.17
520.14	21937.84
520.31	21738.90
520.48	21785.71
520.65	21731.87
520.83	21860.60
521.00	21820.81
521.17	21781.03
521.34	21848.90
521.52	22445.74
521.69	22265.52
521.86	22424.67
522.03	22225.73
522.20	22089.98
522.38	22059.55
522.55	22141.47
522.72	22129.77
522.89	22539.36
523.07	22707.88
523.24	22609.58
523.41	22508.93
523.58	22417.65
523.75	22867.03
523.92	22466.80
524.10	22436.38
524.27	22878.74
524.44	22836.61
524.61	22869.37
524.78	23042.57
524.96	22651.70
525.13	23138.54
525.30	23346.84
525.47	23145.56
525.64	22939.59
525.81	23264.92
525.98	23391.31
526.16	23367.91
526.33	23447.49
526.50	23466.21
526.67	23098.75
526.84	23634.73
527.01	23538.77
527.18	23421.74
527.36	23410.04
527.53	23854.74
527.70	23861.76
527.87	23978.79
528.04	23550.47
528.21	23758.78
528.38	23943.68
528.55	23976.45
528.72	23899.21
528.89	24224.54
529.07	23758.78
529.24	24030.28
529.41	24177.73
529.58	24079.43
529.75	23611.32
529.92	23735.37
530.09	24126.24
530.26	24039.64
530.43	24369.66
530.60	23955.38
530.77	24357.96
530.94	24409.45
531.11	24060.71
531.28	24170.71
531.46	23922.62
531.63	24648.18
531.80	24390.72
531.97	24706.70
532.14	24744.14
532.31	24540.52
532.48	24769.89
532.65	24758.19
532.82	24549.88
532.99	24744.14
533.16	24603.71
533.33	25053.09
533.50	25022.67
533.67	25465.03
533.84	24966.49
534.01	24875.21
534.18	24975.86
534.35	25177.14
534.52	25212.25
534.69	25223.95
534.86	25387.79
535.03	25364.39
535.20	25179.48
535.37	25558.65
535.54	25235.66
535.71	24830.74
535.88	25336.30
536.05	25528.22
536.22	25706.10
536.38	25689.72
536.55	25696.74
536.72	25584.40
536.89	25682.70
537.06	25671.00
537.23	25923.77
537.40	25474.39
537.57	25795.04
537.74	25635.89
537.91	26071.23
538.08	25968.24
538.25	25741.21
538.42	25680.36
538.59	25970.58
538.75	25685.04
538.92	26045.48
539.09	26333.37
539.26	26171.87
539.43	26136.76
539.60	26373.16
539.77	25963.56
539.94	26302.94
540.11	26387.20
540.28	26197.62
540.44	26192.94
540.61	26242.09
540.78	26078.25
540.95	26167.19
541.12	26057.18
541.29	26387.20
541.46	26436.35
541.62	26515.93
541.79	26434.01
541.96	26232.72
542.13	26412.95
542.30	26719.56
542.47	26499.55
542.63	26986.38
542.80	26792.11
542.97	27138.51
543.14	27005.10
543.31	27087.02
543.48	26920.84
543.64	27096.38
543.81	27431.08
543.98	27438.10
544.15	27129.15
544.32	27080.00
544.48	27421.72
544.65	27400.65
544.82	27063.61
544.99	27161.92
545.16	27133.83
545.32	26995.74
545.49	27323.41
545.66	27522.36
545.83	27658.11
546.00	27894.50
546.16	27246.18
546.33	27054.25
546.50	27218.09
546.67	27489.59
546.83	27115.11
547.00	27536.40
547.17	27271.92
547.34	27573.85
547.50	27938.97
547.67	27976.42
547.84	27641.73
548.00	27924.93
548.17	27929.61
548.34	27910.89
548.51	27501.29
548.67	28114.52
548.84	28060.68
549.01	27943.66
549.18	27906.21
549.34	28086.43
549.51	27885.14
549.68	27845.35
549.84	28053.66
550.01	28095.79
550.18	27953.02
550.34	28484.32
550.51	28194.09
550.68	28369.63
550.84	28114.52
551.01	28144.94
551.18	28198.77
551.34	28264.31
551.51	28325.16
551.68	28301.76
551.84	28259.63
552.01	28135.58
552.18	28643.48
552.34	28257.29
552.51	28430.49
552.68	28261.97
552.84	28556.88
553.01	28774.55
553.18	28650.50
553.34	28503.04
553.51	28615.39
553.67	28496.02
553.84	28795.61
554.01	28940.72
554.17	28802.63
554.34	28751.14
554.51	28397.72
554.67	29074.13
554.84	28905.62
555.00	28968.81
555.17	28992.22
555.33	28863.49
555.50	29008.60
555.67	28893.91
555.83	28975.83
556.00	28961.79
556.16	29144.35
556.33	28952.43
556.50	28819.02
556.66	29200.52
556.83	28900.94
556.99	29209.89
557.16	29429.90
557.32	29436.92
557.49	29420.53
557.65	28959.45
557.82	28716.03
557.98	29350.32
558.15	29195.84
558.32	29455.64
558.48	29074.13
558.65	29127.97
558.81	29521.18
558.98	29696.72
559.14	29394.79
559.31	29184.14
559.47	29380.74
559.64	29184.14
559.80	29497.77
559.97	29724.80
560.13	29383.09
560.30	29343.30
560.46	29652.25
560.63	29898.00
560.79	29535.22
560.96	29867.58
561.12	29436.92
561.29	29640.54
561.45	29771.61
561.61	29972.90
561.78	29699.06
561.94	29607.78
562.11	29986.94
562.27	29771.61
562.44	29914.39
562.60	29642.88
562.77	29476.71
562.93	29635.86
563.10	29923.75
563.26	29795.02
563.42	30110.99
563.59	29776.30
563.75	29890.98
563.92	30075.88
564.08	29759.91
564.24	29666.29
564.41	29806.72
564.57	29811.40
564.74	29876.94
564.90	29816.08
565.07	30068.86
565.23	29921.41
565.39	29984.60
565.56	29972.90
565.72	29951.84
565.88	29762.25
566.05	30120.35
566.21	30094.61
566.38	29982.26
566.54	29827.79
566.70	30089.93
566.87	30340.36
567.03	30113.33
567.19	30527.61
567.36	30274.83
567.52	30366.11
567.68	30026.73
567.85	29902.68
568.01	30160.14
568.17	29876.94
568.34	30419.94
568.50	30359.09
568.66	30237.38
568.83	30323.98
568.99	30354.41
569.15	30384.83
569.32	30057.16
569.48	29956.52
569.64	29853.53
569.81	30333.34
569.97	30415.26
570.13	30270.15
570.30	30047.80
570.46	30466.75
570.62	29755.23
570.78	30045.46
570.95	30052.48
571.11	30211.64
571.27	30012.69
571.43	30368.45
571.60	30050.14
571.76	30569.74
571.92	30272.49
572.09	30682.08
572.25	30024.39
572.41	30595.48
572.57	30363.77
572.74	30328.66
572.90	30237.38
573.06	30600.16
573.22	30508.88
573.38	30572.08
573.55	30410.58
573.71	30960.61
573.87	30569.74
574.03	30508.88
574.20	30576.76
574.36	30263.13
574.52	30218.66
574.68	30192.91
574.84	30366.11
575.01	30625.91
575.17	30799.11
575.33	30778.04
575.49	30553.35
575.65	30349.73
575.82	30852.94
575.98	30396.54
576.14	30836.56
576.30	30251.42
576.46	30656.34
576.62	30504.20
576.79	30670.38
576.95	30478.46
577.11	30536.97
577.27	30836.56
577.43	30630.59
577.59	30682.08
577.75	30654.00
577.92	30171.85
578.08	30349.73
578.24	30391.86
578.40	30415.26
578.56	30756.98
578.72	30574.42
578.88	30824.86
579.04	30803.79
579.21	30705.49
579.37	30646.97
579.53	30618.89
579.69	30546.33
579.85	30333.34
580.01	30719.53
580.17	30508.88
580.33	30731.23
580.49	30593.14
580.65	30764.00
580.82	30684.42
580.98	30843.58
581.14	30370.79
581.30	30967.63
581.46	30551.01
581.62	30572.08
581.78	30651.66
581.94	30738.26
582.10	30679.74
582.26	30967.63
582.42	30742.94
582.58	30862.30
582.74	30728.89
582.90	30672.72
583.06	30689.10
583.22	30625.91
583.38	30478.46
583.54	30565.06
583.70	30710.17
583.86	31023.80
584.02	30707.83
584.18	31042.53
584.34	31185.30
584.50	30831.88
584.66	30768.68
584.82	30239.72
584.98	30822.51
585.14	30581.44
585.30	30298.23
585.46	30796.77
585.62	30700.81
585.78	31002.74
585.94	30588.46
586.10	30658.68
586.26	30581.44
586.42	30991.03
586.58	30965.29
586.74	30906.77
586.90	30628.25
587.06	30941.88
587.22	30780.39
587.38	31054.23
587.54	30670.38
587.70	30799.11
587.86	31079.97
588.02	30780.39
588.18	31213.38
588.34	31096.36
588.49	31077.63
588.65	31002.74
588.81	30888.05
588.97	30728.89
589.13	30986.35
589.29	30829.54
589.45	30742.94
589.61	31295.30
589.77	30904.43
589.93	31175.94
590.08	31424.03
590.24	31304.67
590.40	31290.62
590.56	31564.46
590.72	30848.26
590.88	31063.59
591.04	31208.70
591.20	31611.28
591.35	31449.78
591.51	31562.12
591.67	31028.48
591.83	31452.12
