SpectraSuite Data File
++++++++++++++++++++++++++++++++++++
Date: Fri Oct 18 13:58:41 GMT-05:00 2013
User: bianchi
Dark Spectrum Present: No
Reference Spectrum Present: No
Number of Sampled Component Spectra: 1
Spectrometers: USB2+H05261
Integration Time (usec): 50000 (USB2+H05261)
Spectra Averaged: 1 (USB2+H05261)
Boxcar Smoothing: 0 (USB2+H05261)
Correct for Electrical Dark: No (USB2+H05261)
Strobe/Lamp Enabled: No (USB2+H05261)
Correct for Detector Non-linearity: No (USB2+H05261)
Correct for Stray Light: No (USB2+H05261)
Number of Pixels in Processed Spectrum: 2048
>>>>>Begin Processed Spectral Data<<<<<
365.73	23.41
365.92	23.41
366.12	23.41
366.32	0.00
366.52	0.00
366.72	0.00
366.91	0.00
367.11	0.00
367.31	0.00
367.51	0.00
367.70	0.00
367.90	0.00
368.10	0.00
368.30	0.00
368.49	0.00
368.69	0.00
368.89	0.00
369.09	0.00
369.28	0.00
369.48	0.00
369.68	0.00
369.87	0.00
370.07	0.00
370.27	0.00
370.47	0.00
370.66	124.05
370.86	39.79
371.06	98.30
371.25	145.11
371.45	147.45
371.65	177.88
371.84	177.88
372.04	187.24
372.24	138.09
372.44	121.71
372.63	159.16
372.83	166.18
373.03	140.43
373.22	210.65
373.42	224.69
373.62	248.10
373.81	173.20
374.01	250.44
374.21	241.08
374.40	227.03
374.60	266.82
374.79	215.33
374.99	238.73
375.19	248.10
375.38	201.29
375.58	224.69
375.78	245.76
375.97	266.82
376.17	266.82
376.37	238.73
376.56	292.57
376.76	243.42
376.95	248.10
377.15	325.33
377.35	278.52
377.54	248.10
377.74	306.61
377.93	306.61
378.13	222.35
378.33	301.93
378.52	297.25
378.72	287.89
378.91	273.84
379.11	411.93
379.31	311.29
379.50	259.80
379.70	262.14
379.89	351.08
380.09	327.68
380.28	266.82
380.48	283.20
380.68	344.06
380.87	304.27
381.07	311.29
381.26	290.23
381.46	315.97
381.65	294.91
381.85	287.89
382.04	365.12
382.24	297.25
382.43	425.98
382.63	379.17
382.83	351.08
383.02	308.95
383.22	367.46
383.41	381.51
383.61	379.17
383.80	414.27
384.00	416.62
384.19	311.29
384.39	374.49
384.58	360.44
384.78	369.80
384.97	360.44
385.17	379.17
385.36	367.46
385.56	369.80
385.75	334.70
385.95	433.00
386.14	428.32
386.34	423.64
386.53	355.76
386.72	447.04
386.92	491.51
387.11	390.87
387.31	449.38
387.50	369.80
387.70	383.85
387.89	482.15
388.09	395.55
388.28	397.89
388.48	447.04
388.67	423.64
388.86	503.22
389.06	449.38
389.25	472.79
389.45	374.49
389.64	524.28
389.84	458.74
390.03	521.94
390.22	472.79
390.42	458.74
390.61	416.62
390.81	425.98
391.00	533.64
391.19	538.32
391.39	433.00
391.58	552.37
391.78	444.70
391.97	543.00
392.16	538.32
392.36	526.62
392.55	491.51
392.75	554.71
392.94	507.90
393.13	524.28
393.33	617.90
393.52	528.96
393.71	521.94
393.91	533.64
394.10	538.32
394.29	627.26
394.49	585.13
394.68	564.07
394.88	596.84
395.07	685.78
395.26	655.35
395.46	622.58
395.65	653.01
395.84	575.77
396.04	704.50
396.23	580.45
396.42	641.31
396.62	681.10
396.81	685.78
397.00	683.44
397.19	627.26
397.39	624.92
397.58	606.20
397.77	627.26
397.97	683.44
398.16	634.29
398.35	718.54
398.55	744.29
398.74	690.46
398.93	732.59
399.12	692.80
399.32	685.78
399.51	727.91
399.70	702.16
399.90	695.14
400.09	788.76
400.28	755.99
400.47	781.74
400.67	814.51
400.86	823.87
401.05	753.65
401.24	772.38
401.44	770.04
401.63	786.42
401.82	795.78
402.01	847.27
402.21	770.04
402.40	908.13
402.59	793.44
402.78	800.46
402.97	840.25
403.17	814.51
403.36	856.64
403.55	884.72
403.74	903.45
403.93	936.21
404.13	1001.75
404.32	938.55
404.51	959.62
404.70	1015.79
404.89	903.45
405.09	973.66
405.28	922.17
405.47	971.32
405.66	1057.92
405.85	1032.18
406.05	978.34
406.24	945.58
406.43	964.30
406.62	964.30
406.81	1057.92
407.00	889.40
407.20	954.94
407.39	929.19
407.58	1015.79
407.77	987.71
407.96	1011.11
408.15	1095.37
408.34	978.34
408.54	1142.18
408.73	1121.12
408.92	1095.37
409.11	1167.93
409.30	1165.59
409.49	1102.39
409.68	1125.80
409.87	1235.80
410.07	1198.35
410.26	1128.14
410.45	1116.44
410.64	1170.27
410.83	1188.99
411.02	1179.63
411.21	1228.78
411.40	1214.74
411.59	1221.76
411.78	1158.57
411.98	1200.69
412.17	1336.45
412.36	1324.74
412.55	1341.13
412.74	1355.17
412.93	1369.21
413.12	1371.55
413.31	1423.05
413.50	1334.11
413.69	1352.83
413.88	1507.30
414.07	1441.77
414.26	1373.89
414.45	1516.67
414.64	1444.11
414.83	1425.39
415.02	1500.28
415.22	1460.49
415.41	1607.95
415.60	1472.20
415.79	1636.03
415.98	1582.20
416.17	1600.93
416.36	1603.27
416.55	1708.59
416.74	1636.03
416.93	1568.16
417.12	1547.09
417.31	1650.08
417.50	1666.46
417.69	1739.02
417.88	1699.23
418.07	1710.93
418.26	1785.83
418.45	1710.93
418.64	1769.44
418.83	1783.49
419.02	1783.49
419.21	1853.70
419.39	1860.73
419.58	1879.45
419.77	1816.26
419.96	1933.28
420.15	1865.41
420.34	1748.38
420.53	1884.13
420.72	1998.82
420.91	1905.20
421.10	1963.71
421.29	1893.49
421.48	1820.94
421.67	1949.67
421.86	1860.73
422.05	1994.14
422.24	1937.96
422.43	1998.82
422.61	1973.07
422.80	2047.97
422.99	1973.07
423.18	2083.08
423.37	2083.08
423.56	1954.35
423.75	1846.68
423.94	1942.64
424.13	1940.30
424.32	1888.81
424.50	2064.35
424.69	2076.06
424.88	2038.61
425.07	2099.46
425.26	1998.82
425.45	2022.22
425.64	1919.24
425.83	2059.67
426.01	2050.31
426.20	1973.07
426.39	1984.77
426.58	2017.54
426.77	2092.44
426.96	2069.03
427.15	2106.48
427.33	2129.89
427.52	2111.16
427.71	2207.13
427.90	2153.29
428.09	2050.31
428.28	2111.16
428.46	2125.21
428.65	2186.06
428.84	2317.13
429.03	2352.24
429.22	2232.87
429.40	2237.55
429.59	2277.34
429.78	2059.67
429.97	2204.78
430.16	2162.66
430.34	2223.51
430.53	2363.94
430.72	2307.77
430.91	2275.00
431.10	2333.51
431.28	2321.81
431.47	2399.05
431.66	2345.22
431.85	2354.58
432.03	2356.92
432.22	2487.99
432.41	2356.92
432.60	2377.98
432.79	2506.71
432.97	2415.43
433.16	2499.69
433.35	2469.27
433.54	2401.39
433.72	2518.42
433.91	2487.99
434.10	2509.05
434.28	2408.41
434.47	2525.44
434.66	2497.35
434.85	2537.14
435.03	2469.27
435.22	2537.14
435.41	2766.51
435.59	2696.30
435.78	2670.55
435.97	2736.09
436.16	2640.12
436.34	2672.89
436.53	2693.96
436.72	2705.66
436.90	2670.55
437.09	2703.32
437.28	2679.91
437.46	2637.78
437.65	2740.77
437.84	2708.00
438.02	2761.83
438.21	2764.17
438.40	2708.00
438.58	2869.50
438.77	2813.32
438.96	2717.36
439.14	2944.39
439.33	2794.60
439.52	2972.48
439.70	3136.32
439.89	2953.76
440.08	2930.35
440.26	3012.27
440.45	3115.25
440.63	3033.33
440.82	3173.77
441.01	2988.86
441.19	3133.98
441.38	3211.22
441.57	3141.00
441.75	3150.36
441.94	3276.75
442.12	3185.47
442.31	3379.73
442.50	3365.69
442.68	3218.24
442.87	3251.00
443.05	3325.90
443.24	3386.76
443.43	3377.39
443.61	3400.80
443.80	3368.03
443.98	3351.65
444.17	3241.64
444.35	3571.66
444.54	3398.46
444.73	3454.63
444.91	3220.58
445.10	3524.85
445.28	3311.86
445.47	3410.16
445.65	3426.54
445.84	3391.44
446.02	3386.76
446.21	3435.91
446.39	3449.95
446.58	3445.27
446.77	3531.87
446.95	3353.99
447.14	3356.33
447.32	3466.33
447.51	3435.91
447.69	3566.98
447.88	3559.95
448.06	3368.03
448.25	3384.41
448.43	3447.61
448.62	3499.10
448.80	3555.27
448.99	3531.87
449.17	3531.87
449.36	3578.68
449.54	3686.34
449.73	3805.71
449.91	3632.51
450.10	3632.51
450.28	3658.26
450.46	3726.13
450.65	3644.21
450.83	3726.13
451.02	3791.67
451.20	3756.56
451.39	3726.13
451.57	3817.41
451.76	3819.75
451.94	3805.71
452.13	3768.26
452.31	3899.33
452.49	3702.73
452.68	3990.61
452.86	3981.25
453.05	3887.63
453.23	3911.04
453.42	3866.56
453.60	3868.91
453.78	3744.86
453.97	3763.58
454.15	4021.04
454.34	3904.01
454.52	4002.32
454.70	3955.51
454.89	4025.72
455.07	3894.65
455.26	4161.47
455.44	4231.69
455.62	3997.64
455.81	4091.26
455.99	4189.56
456.17	4147.43
456.36	4018.70
456.54	4163.81
456.73	4217.65
456.91	4353.40
457.09	4306.59
457.28	4252.75
457.46	4262.12
457.64	4273.82
457.83	4215.30
458.01	4229.35
458.19	4264.46
458.38	4259.78
458.56	4463.40
458.74	4421.27
458.93	4489.15
459.11	4437.66
459.29	4337.01
459.48	4615.54
459.66	4409.57
459.84	4606.17
460.03	4676.39
460.21	4360.42
460.39	4482.13
460.57	4358.08
460.76	4542.98
460.94	4573.41
461.12	4547.66
461.31	4610.86
461.49	4472.76
461.67	4547.66
461.85	4737.24
462.04	4568.73
462.22	4835.55
462.40	4723.20
462.59	4692.77
462.77	4784.06
462.95	4697.46
463.13	4807.46
463.32	4950.23
463.50	4933.85
463.68	4732.56
463.86	4704.48
464.05	4826.18
464.23	4655.33
464.41	4849.59
464.59	4849.59
464.78	4999.38
464.96	4863.63
465.14	4870.65
465.32	4868.31
465.50	4966.62
465.69	4966.62
465.87	4896.40
466.05	4938.53
466.23	4992.36
466.41	5102.37
466.60	5128.11
466.78	4840.23
466.96	4915.12
467.14	4985.34
467.32	4952.57
467.51	5100.03
467.69	4980.66
467.87	5043.85
468.05	5057.90
468.23	5153.86
468.41	5050.88
468.60	5006.41
468.78	5404.30
468.96	5093.01
469.14	5380.89
469.32	5366.85
469.50	5219.39
469.69	5420.68
469.87	5497.92
470.05	5193.65
470.23	5350.46
470.41	5401.96
470.59	5563.45
470.77	5210.03
470.95	5462.81
471.14	5504.94
471.32	5547.07
471.50	5570.48
471.68	5469.83
471.86	5706.23
472.04	5589.20
472.22	5729.63
472.40	5540.05
472.58	5673.46
472.77	5734.31
472.95	5790.49
473.13	5951.98
473.31	5837.30
473.49	5708.57
473.67	5905.17
473.85	5858.36
474.03	5771.76
474.21	5977.73
474.39	5914.53
474.57	6033.90
474.75	6083.05
474.93	6181.35
475.12	5994.11
475.30	6061.99
475.48	6052.63
475.66	6225.82
475.84	6235.19
476.02	6253.91
476.20	6239.87
476.38	6366.26
476.56	6579.25
476.74	6644.78
476.92	6506.69
477.10	6469.24
477.28	6686.91
477.46	6569.88
477.64	6715.00
477.82	6771.17
478.00	7016.93
478.18	7002.88
478.36	6750.10
478.54	7021.61
478.72	7091.82
478.90	7080.12
479.08	7169.06
479.26	7115.23
479.44	7222.89
479.62	7403.11
479.80	7370.35
479.98	7253.32
480.16	7637.17
480.34	7365.67
480.52	7426.52
480.70	7449.93
480.88	7536.52
481.06	7590.36
481.24	7693.34
481.41	7747.17
481.59	8060.80
481.77	8060.80
481.95	8042.08
482.13	8088.89
482.31	8053.78
482.49	8231.66
482.67	8201.24
482.85	8463.38
483.03	8587.43
483.21	8592.11
483.39	8510.19
483.57	8512.53
483.74	8554.66
483.92	8582.74
484.10	8599.13
484.28	8851.91
484.46	9050.85
484.64	9114.05
484.82	9102.34
485.00	9151.49
485.18	9181.92
485.35	9341.08
485.53	9359.80
485.71	9430.02
485.89	9745.99
486.07	9556.41
486.25	9591.52
486.43	9575.13
486.61	9792.80
486.78	9727.27
486.96	9750.67
487.14	9963.66
487.32	9956.64
487.50	10270.27
487.68	10239.84
487.85	10289.00
488.03	10420.06
488.21	10553.48
488.39	10424.75
488.57	10462.19
488.75	10773.49
488.92	10626.03
489.10	10839.02
489.28	10855.40
489.46	11052.01
489.64	10991.16
489.81	11279.04
489.99	11389.05
490.17	11316.49
490.35	11176.06
490.53	11321.17
490.70	11508.41
490.88	11534.16
491.06	11630.12
491.24	11595.01
491.41	11854.81
491.59	11885.24
491.77	11932.05
491.95	12194.19
492.13	12133.34
492.30	12332.28
492.48	12191.85
492.66	12285.47
492.84	12257.39
493.01	12549.95
493.19	12666.98
493.37	12599.10
493.54	12589.74
493.72	12748.90
493.90	12903.37
494.08	12877.63
494.25	13221.69
494.43	13261.48
494.61	12884.65
494.79	13240.41
494.96	13287.22
495.14	13139.77
495.32	13469.78
495.49	13507.23
495.67	13554.04
495.85	13755.33
496.02	13961.30
496.20	13813.84
496.38	13954.27
496.55	13954.27
496.73	14167.26
496.91	13994.06
497.09	14122.79
497.26	14260.88
497.44	14193.01
497.62	14319.40
497.79	14380.25
497.97	14541.75
498.14	14675.16
498.32	14855.38
498.50	14750.06
498.67	14824.95
498.85	14850.70
499.03	14724.31
499.20	14944.32
499.38	14775.80
499.56	15115.18
499.73	15468.60
499.91	15150.29
500.08	15351.57
500.26	15426.47
500.44	15318.81
500.61	15410.09
500.79	15616.05
500.97	15604.35
501.14	15674.57
501.32	15847.77
501.49	15527.11
501.67	15470.94
501.84	15871.17
502.02	15714.36
502.20	16084.16
502.37	16224.59
502.55	16051.39
502.72	16325.24
502.90	16231.62
503.07	16112.25
503.25	16336.94
503.43	16243.32
503.60	16430.56
503.78	16512.48
503.95	16622.48
504.13	16617.80
504.30	16442.26
504.48	16486.73
504.65	16875.26
504.83	16819.09
505.01	16741.85
505.18	17132.72
505.36	17193.58
505.53	16826.11
505.71	17111.66
505.88	16999.31
506.06	16898.67
506.23	16898.67
506.41	16943.14
506.58	17504.87
506.76	17401.88
506.93	17436.99
507.11	17317.62
507.28	17387.84
507.46	17507.21
507.63	17804.46
507.81	17916.80
507.98	17795.09
508.16	17708.49
508.33	17832.54
508.50	17818.50
508.68	17703.81
508.85	17654.66
509.03	18066.60
509.20	18139.15
509.38	18314.69
509.55	18534.70
509.73	18331.08
509.90	18118.09
510.08	18097.02
510.25	18232.77
510.42	18363.84
510.60	18614.28
510.77	18768.76
510.95	18717.26
511.12	18696.20
511.30	18679.82
511.47	18686.84
511.64	18911.53
511.82	18941.96
511.99	18726.63
512.17	18864.72
512.34	18593.22
512.51	19014.51
512.69	19173.67
512.86	19047.28
513.04	19185.37
513.21	19489.64
513.38	19166.65
513.56	19356.23
513.73	19213.46
513.90	19515.39
514.08	19232.18
514.25	19229.84
514.43	19559.86
514.60	19435.81
514.77	19389.00
514.95	19768.16
515.12	19859.45
515.29	19648.80
515.47	19840.72
515.64	20018.60
515.81	19740.08
515.99	20182.44
516.16	20149.67
516.33	20397.77
516.51	20407.13
516.68	20196.48
516.85	19964.77
517.03	20002.22
517.20	20575.65
517.37	20587.35
517.54	20290.10
517.72	20549.90
517.89	20800.34
518.06	20360.32
518.24	20599.05
518.41	20395.43
518.58	20758.21
518.75	20570.97
518.93	20854.17
519.10	20629.48
519.27	20936.09
519.45	20959.50
519.62	20720.76
519.79	20788.64
519.96	21064.82
520.14	21043.76
520.31	20884.60
520.48	21010.99
520.65	21160.78
520.83	21441.65
521.00	21235.68
521.17	21144.40
521.34	21401.86
521.52	21434.63
521.69	21537.61
521.86	21706.13
522.03	21965.93
522.20	21467.39
522.38	21561.02
522.55	21614.85
522.72	21699.11
522.89	21774.00
523.07	22359.14
523.24	22001.04
523.41	22277.22
523.58	21902.73
523.75	21900.39
523.92	22155.51
524.10	21912.10
524.27	22260.84
524.44	22017.42
524.61	22347.44
524.78	22183.60
524.96	22340.41
525.13	22415.31
525.30	22068.91
525.47	22499.57
525.64	22419.99
525.81	22628.30
525.98	22778.09
526.16	22459.78
526.33	22703.20
526.50	22960.66
526.67	22768.73
526.84	22642.34
527.01	22806.18
527.18	22780.43
527.36	22771.07
527.53	22979.38
527.70	23030.87
527.87	23037.89
528.04	22904.48
528.21	23276.63
528.38	23115.13
528.55	23117.47
528.72	22998.10
528.89	23040.23
529.07	23337.48
529.24	23124.49
529.41	23655.79
529.58	23461.53
529.75	23548.13
529.92	23367.91
530.09	23484.94
530.26	23227.48
530.43	23344.50
530.60	23583.24
530.77	23564.51
530.94	23634.73
531.11	23866.44
531.28	23676.86
531.46	23433.44
531.63	23917.93
531.80	23831.33
531.97	24156.67
532.14	23899.21
532.31	24079.43
532.48	23906.23
532.65	23817.29
532.82	23978.79
532.99	24044.32
533.16	24308.80
533.33	24327.53
533.50	24276.04
533.67	24079.43
533.84	24283.06
534.01	24161.35
534.18	24411.79
534.35	24741.80
534.52	24395.40
534.69	24788.61
534.86	24697.33
535.03	24627.12
535.20	24575.62
535.37	24776.91
535.54	24470.30
535.71	24826.06
535.88	24554.56
536.05	24727.76
536.22	24975.86
536.38	25034.37
536.55	25053.09
536.72	24753.51
536.89	24774.57
537.06	24971.18
537.23	25057.78
537.40	24636.48
537.57	25130.33
537.74	24891.60
537.91	25263.74
538.08	25483.75
538.25	25521.20
538.42	25113.95
538.59	25420.56
538.75	25015.65
538.92	25322.26
539.09	25249.70
539.26	25048.41
539.43	25467.37
539.60	25507.16
539.77	25235.66
539.94	25853.56
540.11	25340.98
540.28	25418.22
540.44	25525.88
540.61	25261.40
540.78	25305.87
540.95	25591.42
541.12	25624.18
541.29	25577.37
541.46	25731.85
541.62	25373.75
541.79	25804.41
541.96	25441.62
542.13	25972.92
542.30	25802.07
542.47	26199.96
542.63	26054.84
542.80	26096.97
542.97	26223.36
543.14	26251.45
543.31	26504.23
543.48	25879.30
543.64	26068.89
543.81	25982.29
543.98	26511.25
544.15	26553.38
544.32	26277.19
544.48	26607.21
544.65	26111.02
544.82	26551.04
544.99	26298.26
545.16	26754.66
545.32	26422.31
545.49	26499.55
545.66	26553.38
545.83	26857.65
546.00	26883.39
546.16	26822.54
546.33	26214.00
546.50	26504.23
546.67	26759.34
546.83	26497.20
547.00	26876.37
547.17	27014.46
547.34	27012.12
547.50	27014.46
547.67	27316.39
547.84	27051.91
548.00	27016.80
548.17	26878.71
548.34	26962.97
548.51	27300.01
548.67	27047.23
548.84	27243.84
549.01	26991.06
549.18	26822.54
549.34	26904.46
549.51	27349.16
549.68	26977.01
549.84	26888.07
550.01	26930.20
550.18	26995.74
550.34	27428.74
550.51	27686.20
550.68	27489.59
550.84	27185.32
551.01	27164.26
551.18	27367.88
551.34	27253.20
551.51	27302.35
551.68	27489.59
551.84	27728.33
552.01	27590.24
552.18	27641.73
552.34	27346.82
552.51	27527.04
552.68	27428.74
552.84	27597.26
553.01	27634.71
553.18	27828.97
553.34	27974.08
553.51	27693.22
553.67	27704.92
553.84	28233.88
554.01	27875.78
554.17	27964.72
554.34	27697.90
554.51	27882.80
554.67	28170.69
554.84	28030.26
555.00	27702.58
555.17	27866.42
555.33	27843.01
555.50	28465.60
555.67	27725.99
555.83	28030.26
556.00	28219.84
556.16	28432.83
556.33	28388.36
556.50	28229.20
556.66	28271.33
556.83	28163.67
556.99	28533.47
557.16	28683.27
557.32	28189.41
557.49	28418.78
557.65	28020.89
557.82	28173.03
557.98	28283.03
558.15	28219.84
558.32	28701.99
558.48	28273.67
558.65	28671.56
558.81	28690.29
558.98	28631.77
559.14	28166.01
559.31	28301.76
559.47	28142.60
559.64	28599.01
559.80	28652.84
559.97	28875.19
560.13	28882.21
560.30	28591.98
560.46	28493.68
560.63	28393.04
560.79	28554.54
560.96	28823.70
561.12	28526.45
561.29	28657.52
561.45	28451.55
561.61	28599.01
561.78	28840.08
561.94	28797.95
562.11	28608.37
562.27	29088.18
562.44	28615.39
562.60	28659.86
562.77	28683.27
562.93	28856.46
563.10	29043.71
563.26	28746.46
563.42	28851.78
563.59	28912.64
563.75	28807.31
563.92	29092.86
564.08	28709.01
564.24	28950.09
564.41	28943.06
564.57	28863.49
564.74	29347.98
564.90	28957.11
565.07	28971.15
565.23	29481.39
565.39	28692.63
565.56	29008.60
565.72	28964.13
565.88	29027.32
566.05	28910.30
566.21	28882.21
566.38	29132.65
566.54	29095.20
566.70	29397.13
566.87	29106.90
567.03	29598.41
567.19	29869.92
567.36	29535.22
567.52	29483.73
567.68	29221.59
567.85	29450.96
568.01	28975.83
568.17	29259.04
568.34	29495.43
568.50	29614.80
568.66	29134.99
568.83	29125.63
568.99	29259.04
569.15	29055.41
569.32	29146.69
569.48	29116.26
569.64	29102.22
569.81	29179.46
569.97	29455.64
570.13	29392.45
570.30	29427.56
570.46	29144.35
570.62	29369.04
570.78	29064.77
570.95	29029.66
571.11	29624.16
571.27	28929.02
571.43	29153.71
571.60	29532.88
571.76	29432.24
571.92	29331.59
572.09	29455.64
572.25	29469.69
572.41	29312.87
572.57	29525.86
572.74	29872.26
572.90	29134.99
573.06	29443.94
573.22	29125.63
573.38	29413.51
573.55	29647.57
573.71	29921.41
573.87	29853.53
574.03	29139.67
574.20	29661.61
574.36	29273.08
574.52	29518.84
574.68	29177.12
574.84	29617.14
575.01	29647.57
575.17	29947.15
575.33	29413.51
575.49	29385.43
575.65	29305.85
575.82	29558.63
575.98	29525.86
576.14	29577.35
576.30	29460.32
576.46	29839.49
576.62	29076.48
576.79	29514.16
576.95	29717.78
577.11	29813.74
577.27	30197.59
577.43	29783.32
577.59	29481.39
577.75	29661.61
577.92	29102.22
578.08	29357.34
578.24	29359.68
578.40	29631.18
578.56	29254.36
578.72	29675.65
578.88	30115.67
579.04	30033.75
579.21	29921.41
579.37	29331.59
579.53	30087.59
579.69	29621.82
579.85	29511.81
580.01	29729.48
580.17	29640.54
580.33	29476.71
580.49	29659.27
580.65	29710.76
580.82	30005.67
580.98	29488.41
581.14	29788.00
581.30	29888.64
581.46	29638.20
581.62	29481.39
581.78	29514.16
581.94	29724.80
582.10	29736.51
582.26	29677.99
582.42	29617.14
582.58	29898.00
582.74	29975.24
582.90	29989.28
583.06	29635.86
583.22	29813.74
583.38	29685.01
583.54	29797.36
583.70	30012.69
583.86	29696.72
584.02	29827.79
584.18	30005.67
584.34	29888.64
584.50	29762.25
584.66	29890.98
584.82	29479.05
584.98	29710.76
585.14	30010.35
585.30	29652.25
585.46	29752.89
585.62	29582.03
585.78	30185.89
585.94	29862.90
586.10	29860.55
586.26	29736.51
586.42	30017.37
586.58	29986.94
586.74	29951.84
586.90	29715.44
587.06	29804.38
587.22	29809.06
587.38	29699.06
587.54	30260.79
587.70	30209.29
587.86	30295.89
588.02	30281.85
588.18	30281.85
588.34	30192.91
588.49	29816.08
588.65	29645.23
588.81	29717.78
588.97	29682.67
589.13	30101.63
589.29	30270.15
589.45	29460.32
589.61	30195.25
589.77	30267.81
589.93	30218.66
590.08	30284.19
590.24	30363.77
590.40	30150.78
590.56	30071.20
590.72	30221.00
590.88	30092.27
591.04	29902.68
591.20	30417.60
591.35	30230.36
591.51	30841.24
591.67	30253.76
591.83	30260.79
591.99	30501.86
