SpectraSuite Data File
++++++++++++++++++++++++++++++++++++
Date: Fri Oct 18 13:57:53 GMT-05:00 2013
User: bianchi
Dark Spectrum Present: No
Reference Spectrum Present: No
Number of Sampled Component Spectra: 1
Spectrometers: USB2+H05261
Integration Time (usec): 50000 (USB2+H05261)
Spectra Averaged: 1 (USB2+H05261)
Boxcar Smoothing: 0 (USB2+H05261)
Correct for Electrical Dark: No (USB2+H05261)
Strobe/Lamp Enabled: No (USB2+H05261)
Correct for Detector Non-linearity: No (USB2+H05261)
Correct for Stray Light: No (USB2+H05261)
Number of Pixels in Processed Spectrum: 2048
>>>>>Begin Processed Spectral Data<<<<<
365.73	32.77
365.92	32.77
366.12	32.77
366.32	0.00
366.52	0.00
366.72	0.00
366.91	0.00
367.11	0.00
367.31	0.00
367.51	0.00
367.70	0.00
367.90	0.00
368.10	0.00
368.30	0.00
368.49	0.00
368.69	0.00
368.89	0.00
369.09	0.00
369.28	0.00
369.48	0.00
369.68	0.00
369.87	0.00
370.07	0.00
370.27	0.00
370.47	0.00
370.66	51.49
370.86	205.97
371.06	84.26
371.25	182.56
371.45	121.71
371.65	198.95
371.84	86.60
372.04	98.30
372.24	140.43
372.44	208.31
372.63	194.26
372.83	250.44
373.03	245.76
373.22	212.99
373.42	138.09
373.62	201.29
373.81	142.77
374.01	215.33
374.21	243.42
374.40	245.76
374.60	231.71
374.79	152.13
374.99	187.24
375.19	306.61
375.38	252.78
375.58	262.14
375.78	266.82
375.97	217.67
376.17	248.10
376.37	180.22
376.56	294.91
376.76	255.12
376.95	290.23
377.15	220.01
377.35	203.63
377.54	287.89
377.74	308.95
377.93	299.59
378.13	273.84
378.33	297.25
378.52	215.33
378.72	257.46
378.91	273.84
379.11	252.78
379.31	220.01
379.50	220.01
379.70	346.40
379.89	276.18
380.09	301.93
380.28	362.78
380.48	376.83
380.68	294.91
380.87	266.82
381.07	322.99
381.26	325.33
381.46	266.82
381.65	330.02
381.85	325.33
382.04	264.48
382.24	297.25
382.43	311.29
382.63	358.10
382.83	353.42
383.02	353.42
383.22	365.12
383.41	369.80
383.61	344.06
383.80	353.42
384.00	369.80
384.19	358.10
384.39	341.72
384.58	297.25
384.78	454.06
384.97	393.21
385.17	351.08
385.36	402.57
385.56	362.78
385.75	451.72
385.95	372.15
386.14	428.32
386.34	444.70
386.53	374.49
386.72	383.85
386.92	465.77
387.11	402.57
387.31	402.57
387.50	348.74
387.70	479.81
387.89	512.58
388.09	348.74
388.28	458.74
388.48	451.72
388.67	526.62
388.86	404.91
389.06	461.09
389.25	482.15
389.45	475.13
389.64	400.23
389.84	418.96
390.03	461.09
390.22	500.87
390.42	468.11
390.61	486.83
390.81	465.77
391.00	414.27
391.19	411.93
391.39	561.73
391.58	505.56
391.78	524.28
391.97	500.87
392.16	477.47
392.36	543.00
392.55	535.98
392.75	507.90
392.94	578.11
393.13	550.03
393.33	627.26
393.52	568.75
393.71	533.64
393.91	521.94
394.10	582.79
394.29	540.66
394.49	655.35
394.68	547.69
394.88	596.84
395.07	636.63
395.26	667.05
395.46	615.56
395.65	566.41
395.84	681.10
396.04	594.50
396.23	657.69
396.42	631.94
396.62	582.79
396.81	685.78
397.00	566.41
397.19	688.12
397.39	697.48
397.58	664.71
397.77	669.39
397.97	683.44
398.16	725.57
398.35	634.29
398.55	702.16
398.74	648.33
398.93	767.70
399.12	746.63
399.32	767.70
399.51	716.20
399.70	858.98
399.90	725.57
400.09	732.59
400.28	692.80
400.47	779.40
400.67	765.36
400.86	767.70
401.05	826.21
401.24	807.48
401.44	770.04
401.63	720.88
401.82	748.97
402.01	821.53
402.21	924.51
402.40	870.68
402.59	873.02
402.78	809.83
402.97	819.19
403.17	943.24
403.36	819.19
403.55	1011.11
403.74	919.83
403.93	795.78
404.13	868.34
404.32	837.91
404.51	873.02
404.70	873.02
404.89	863.66
405.09	976.00
405.28	910.47
405.47	882.38
405.66	1020.47
405.85	1013.45
406.05	1032.18
406.24	1039.20
406.43	912.81
406.62	980.68
406.81	994.73
407.00	1032.18
407.20	1041.54
407.39	987.71
407.58	1055.58
407.77	1083.67
407.96	1046.22
408.15	1039.20
408.34	999.41
408.54	1181.97
408.73	1205.38
408.92	1048.56
409.11	1146.86
409.30	1116.44
409.49	1207.72
409.68	1191.33
409.87	1181.97
410.07	1165.59
410.26	1160.91
410.45	1137.50
410.64	1259.21
410.83	1144.52
411.02	1181.97
411.21	1186.65
411.40	1184.31
411.59	1268.57
411.78	1296.66
411.98	1287.29
412.17	1254.53
412.36	1275.59
412.55	1336.45
412.74	1324.74
412.93	1460.49
413.12	1352.83
413.31	1380.92
413.50	1350.49
413.69	1490.92
413.88	1441.77
414.07	1411.34
414.26	1401.98
414.45	1385.60
414.64	1444.11
414.83	1514.33
415.02	1654.76
415.22	1561.14
415.41	1479.22
415.60	1589.22
415.79	1561.14
415.98	1568.16
416.17	1561.14
416.36	1586.88
416.55	1591.56
416.74	1661.78
416.93	1621.99
417.12	1720.29
417.31	1682.85
417.50	1640.72
417.69	1748.38
417.88	1703.91
418.07	1753.06
418.26	1816.26
418.45	1703.91
418.64	1839.66
418.83	1806.89
419.02	1860.73
419.21	1919.24
419.39	1818.60
419.58	1823.28
419.77	1907.54
419.96	1839.66
420.15	1956.69
420.34	2024.56
420.53	1888.81
420.72	1797.53
420.91	1933.28
421.10	1949.67
421.29	1973.07
421.48	1886.47
421.67	1980.09
421.86	1994.14
422.05	1982.43
422.24	1984.77
422.43	2026.90
422.61	2069.03
422.80	2008.18
422.99	1935.62
423.18	2092.44
423.37	1959.03
423.56	1980.09
423.75	2012.86
423.94	1944.99
424.13	1966.05
424.32	1888.81
424.50	2134.57
424.69	2083.08
424.88	2101.80
425.07	1858.39
425.26	2033.93
425.45	1963.71
425.64	2038.61
425.83	2054.99
426.01	2134.57
426.20	2038.61
426.39	2111.16
426.58	2043.29
426.77	1977.75
426.96	2251.60
427.15	2090.10
427.33	2083.08
427.52	2134.57
427.71	2106.48
427.90	2155.63
428.09	2113.50
428.28	2155.63
428.46	2239.89
428.65	2225.85
428.84	2225.85
429.03	2239.89
429.22	2181.38
429.40	2282.02
429.59	2277.34
429.78	2125.21
429.97	2024.56
430.16	2143.93
430.34	2230.53
430.53	2373.30
430.72	2260.96
430.91	2368.62
431.10	2181.38
431.28	2338.20
431.47	2417.77
431.66	2555.86
431.85	2279.68
432.03	2427.14
432.22	2614.38
432.41	2408.41
432.60	2525.44
432.79	2485.65
432.97	2581.61
433.16	2487.99
433.35	2443.52
433.54	2555.86
433.72	2513.74
433.91	2436.50
434.10	2525.44
434.28	2518.42
434.47	2548.84
434.66	2605.02
434.85	2612.04
435.03	2581.61
435.22	2502.03
435.41	2633.10
435.59	2574.59
435.78	2647.15
435.97	2722.04
436.16	2768.85
436.34	2754.81
436.53	2698.64
436.72	2813.32
436.90	2614.38
437.09	2649.49
437.28	2658.85
437.46	2738.43
437.65	2794.60
437.84	2766.51
438.02	2759.49
438.21	2708.00
438.40	2771.19
438.58	2923.33
438.77	2928.01
438.96	2747.79
439.14	2932.69
439.33	2902.26
439.52	2897.58
439.70	3028.65
439.89	2951.42
440.08	2963.12
440.26	3014.61
440.45	3108.23
440.63	3059.08
440.82	3087.17
441.01	3066.10
441.19	3108.23
441.38	3251.00
441.57	3115.25
441.75	3204.19
441.94	3267.39
442.12	3349.31
442.31	3318.88
442.50	3300.16
442.68	3267.39
442.87	3246.32
443.05	3344.63
443.24	3311.86
443.43	3236.96
443.61	3344.63
443.80	3480.38
443.98	3293.13
444.17	3290.79
444.35	3438.25
444.54	3478.04
444.73	3515.48
444.91	3393.78
445.10	3332.92
445.28	3487.40
445.47	3496.76
445.65	3424.20
445.84	3398.46
446.02	3513.14
446.21	3356.33
446.39	3543.57
446.58	3637.19
446.77	3435.91
446.95	3510.80
447.14	3543.57
447.32	3744.86
447.51	3405.48
447.69	3482.72
447.88	3599.74
448.06	3583.36
448.25	3417.18
448.43	3419.52
448.62	3473.36
448.80	3576.34
448.99	3578.68
449.17	3681.66
449.36	3571.66
449.54	3590.38
449.73	3679.32
449.91	3730.81
450.10	3819.75
450.28	3794.01
450.46	3775.28
450.65	3772.94
450.83	3829.12
451.02	3728.47
451.20	3789.33
451.39	3808.05
451.57	3744.86
451.76	3840.82
451.94	3866.56
452.13	3988.27
452.31	3772.94
452.49	3707.41
452.68	3911.04
452.86	3850.18
453.05	3770.60
453.23	3880.61
453.42	3911.04
453.60	3925.08
453.78	3911.04
453.97	3985.93
454.15	3918.06
454.34	3915.72
454.52	3981.25
454.70	3999.98
454.89	4112.32
455.07	4025.72
455.26	4049.13
455.44	4025.72
455.62	4100.62
455.81	3962.53
455.99	4121.68
456.17	4100.62
456.36	4173.18
456.54	4215.30
456.73	4170.83
456.91	4301.90
457.09	4262.12
457.28	4400.21
457.46	4219.99
457.64	4229.35
457.83	4299.56
458.01	4273.82
458.19	4421.27
458.38	4287.86
458.56	4547.66
458.74	4456.38
458.93	4301.90
459.11	4341.69
459.29	4423.61
459.48	4603.83
459.66	4461.06
459.84	4601.49
460.03	4582.77
460.21	4573.41
460.39	4482.13
460.57	4482.13
460.76	4606.17
460.94	4550.00
461.12	4629.58
461.31	4645.96
461.49	4805.12
461.67	4720.86
461.85	4657.67
462.04	4711.50
462.22	4882.36
462.40	4821.50
462.59	4685.75
462.77	4781.71
462.95	4873.00
463.13	4634.26
463.32	4809.80
463.50	4842.57
463.68	4746.61
463.86	4858.95
464.05	4882.36
464.23	4793.42
464.41	4851.93
464.59	4933.85
464.78	4999.38
464.96	4861.29
465.14	4786.40
465.32	5064.92
465.50	4903.42
465.69	5064.92
465.87	4898.74
466.05	5142.16
466.23	4837.89
466.41	4940.87
466.60	5245.14
466.78	5046.20
466.96	4858.95
467.14	5224.08
467.32	5130.45
467.51	5331.74
467.69	5104.71
467.87	5207.69
468.05	5235.78
468.23	5167.90
468.41	5095.35
468.60	5137.48
468.78	5315.36
468.96	5121.09
469.14	5095.35
469.32	5460.47
469.50	5170.24
469.69	5329.40
469.87	5488.56
470.05	5518.98
470.23	5472.17
470.41	5394.93
470.59	5514.30
470.77	5343.44
470.95	5668.78
471.14	5575.16
471.32	5441.75
471.50	5647.71
471.68	5621.97
471.86	5495.58
472.04	5614.95
472.22	5790.49
472.40	5657.07
472.58	5738.99
472.77	5715.59
472.95	5898.15
473.13	5954.32
473.31	5900.49
473.49	5968.37
473.67	5998.79
473.85	5966.03
474.03	5954.32
474.21	5872.40
474.39	5968.37
474.57	6059.65
474.75	6183.70
474.93	6223.48
475.12	6183.70
475.30	6251.57
475.48	6171.99
475.66	6118.16
475.84	6408.39
476.02	6387.32
476.20	6445.84
476.38	6420.09
476.56	6649.46
476.74	6441.15
476.92	6445.84
477.10	6553.50
477.28	6743.08
477.46	6546.48
477.64	6775.85
477.82	6707.98
478.00	6998.20
478.18	7033.31
478.36	7138.63
478.54	7105.87
478.72	7056.72
478.90	7087.14
479.08	7131.61
479.26	7187.79
479.44	7349.28
479.62	7293.11
479.80	7440.56
479.98	7370.35
480.16	7538.87
480.34	7473.33
480.52	7588.02
480.70	7527.16
480.88	7611.42
481.06	7728.45
481.24	7709.72
481.41	7723.77
481.59	8013.99
481.77	8018.68
481.95	7990.59
482.13	8133.36
482.31	8105.28
482.49	8184.85
482.67	8266.77
482.85	8594.45
483.03	8683.39
483.21	8713.81
483.39	8465.72
483.57	8645.94
483.74	8667.00
483.92	8814.46
484.10	8538.27
484.28	8901.06
484.46	9095.32
484.64	9231.07
484.82	8994.68
485.00	9151.49
485.18	9221.71
485.35	9446.40
485.53	9231.07
485.71	9640.67
485.89	9760.03
486.07	9579.81
486.25	9549.39
486.43	9736.63
486.61	9680.46
486.78	9877.06
486.96	10113.45
487.14	10176.65
487.32	10284.31
487.50	10281.97
487.68	10251.55
487.85	10324.10
488.03	10424.75
488.21	10860.09
488.39	10675.18
488.57	10679.86
488.75	10665.82
488.92	10736.04
489.10	10946.69
489.28	10949.03
489.46	11267.34
489.64	11080.10
489.81	11599.70
489.99	11262.66
490.17	11138.61
490.35	11459.26
490.53	11775.24
490.70	11632.46
490.88	11496.71
491.06	11887.58
491.24	11812.68
491.41	11915.67
491.59	11950.78
491.77	12023.33
491.95	12159.08
492.13	12238.66
492.30	12430.59
492.48	12402.50
492.66	12404.84
492.84	12463.35
493.01	12568.68
493.19	12545.27
493.37	12779.32
493.54	12587.40
493.72	12835.50
493.90	13018.06
494.08	12996.99
494.25	13060.19
494.43	13259.13
494.61	13535.32
494.79	13420.63
494.96	13312.97
495.14	13378.50
495.32	13469.78
495.49	13460.42
495.67	14026.83
495.85	13998.74
496.02	13977.68
496.20	13907.46
496.38	13806.82
496.55	14083.00
496.73	14279.61
496.91	14050.24
497.09	14267.91
497.26	14588.56
497.44	14471.53
497.62	14181.31
497.79	14679.84
497.97	14398.98
498.14	14862.40
498.32	14949.00
498.50	14979.43
498.67	15084.75
498.85	15068.37
499.03	15068.37
499.20	15236.89
499.38	15126.88
499.56	15232.21
499.73	15447.54
499.91	15220.50
500.08	15456.90
500.26	15550.52
500.44	15431.15
500.61	15730.74
500.79	15487.32
500.97	15831.38
501.14	16037.35
501.32	15857.13
501.49	15929.69
501.67	15819.68
501.84	16046.71
502.02	16271.40
502.20	16226.93
502.37	16201.19
502.55	16304.17
502.72	16056.08
502.90	16245.66
503.07	16177.78
503.25	16379.07
503.43	16336.94
503.60	16566.31
503.78	16908.03
503.95	16617.80
504.13	16681.00
504.30	16659.93
504.48	16535.88
504.65	16718.45
504.83	16978.25
505.01	17266.13
505.18	17308.26
505.36	17235.70
505.53	17046.12
505.71	17216.98
505.88	17139.74
506.06	17043.78
506.23	17317.62
506.41	17422.95
506.58	17376.14
506.76	17418.27
506.93	17657.00
507.11	17680.41
507.28	17619.55
507.46	17774.03
507.63	17827.86
507.81	18054.89
507.98	17642.96
508.16	18202.35
508.33	17951.91
508.50	17804.46
508.68	18071.28
508.85	18087.66
509.03	18134.47
509.20	18052.55
509.38	18647.05
509.55	18328.74
509.73	18518.32
509.90	18572.15
510.08	18487.89
510.25	18663.43
510.42	18574.49
510.60	18934.93
510.77	18869.40
510.95	18857.70
511.12	18759.39
511.30	18876.42
511.47	18757.05
511.64	18899.83
511.82	19009.83
511.99	19168.99
512.17	19201.76
512.34	19248.57
512.51	19204.10
512.69	18986.43
512.86	19257.93
513.04	19323.46
513.21	19330.48
513.38	19456.87
513.56	19644.12
513.73	19040.26
513.90	19463.90
514.08	19733.06
514.25	19676.88
514.43	19709.65
514.60	19894.55
514.77	20020.94
514.95	20126.27
515.12	20027.96
515.29	20123.93
515.47	20053.71
515.64	20065.41
515.81	20210.53
515.99	20444.58
516.16	20472.67
516.33	20467.98
516.51	20587.35
516.68	20257.34
516.85	20269.04
517.03	20465.64
517.20	20889.28
517.37	20716.08
517.54	20554.58
517.72	20739.49
517.89	20821.41
518.06	20833.11
518.24	20599.05
518.41	20821.41
518.58	20985.24
518.75	21064.82
518.93	20732.47
519.10	21308.24
519.27	21046.10
519.45	20617.78
519.62	21238.02
519.79	21563.36
519.96	21443.99
520.14	21193.55
520.31	21172.49
520.48	21479.10
520.65	21359.73
520.83	21451.01
521.00	21706.13
521.17	21565.70
521.34	21535.27
521.52	21310.58
521.69	21811.45
521.86	22064.23
522.03	21879.33
522.20	22258.49
522.38	22033.80
522.55	21958.91
522.72	22047.85
522.89	21902.73
523.07	22192.96
523.24	22003.38
523.41	22361.48
523.58	22338.07
523.75	22518.29
523.92	22047.85
524.10	22307.65
524.27	22555.74
524.44	22588.51
524.61	22672.77
524.78	22579.15
524.96	22539.36
525.13	22504.25
525.30	22569.79
525.47	23061.30
525.64	22560.42
525.81	23190.03
525.98	22991.08
526.16	22785.12
526.33	23147.90
526.50	23168.96
526.67	22817.88
526.84	22813.20
527.01	23012.15
527.18	23222.80
527.36	22958.31
527.53	23410.04
527.70	23580.90
527.87	23318.76
528.04	23400.68
528.21	23126.83
528.38	23014.49
528.55	23356.21
528.72	23522.38
528.89	23931.98
529.07	23372.59
529.24	23419.40
529.41	23920.28
529.58	23569.19
529.75	23660.48
529.92	23901.55
530.09	23814.95
530.26	23623.03
530.43	23814.95
530.60	23307.05
530.77	23779.84
530.94	24196.46
531.11	23814.95
531.28	23857.08
531.46	23887.51
531.63	23906.23
531.80	24240.93
531.97	24159.01
532.14	24467.96
532.31	24168.37
532.48	24170.71
532.65	24367.32
532.82	23990.49
532.99	24353.27
533.16	24072.41
533.33	24474.98
533.50	24755.85
533.67	24430.51
533.84	24203.48
534.01	24692.65
534.18	24849.47
534.35	24744.14
534.52	24613.07
534.69	24517.11
534.86	24666.91
535.03	24748.82
535.20	25165.44
535.37	24634.14
535.54	25055.43
535.71	24964.15
535.88	24844.79
536.05	24858.83
536.22	25046.07
536.38	25099.90
536.55	25165.44
536.72	25172.46
536.89	24961.81
537.06	25174.80
537.23	25336.30
537.40	25111.61
537.57	25366.73
537.74	25340.98
537.91	25647.59
538.08	25198.21
538.25	25359.70
538.42	25373.75
538.59	25338.64
538.75	25200.55
538.92	25469.71
539.09	25500.14
539.26	25750.57
539.43	25701.42
539.60	25848.88
539.77	25568.01
539.94	25446.30
540.11	25905.05
540.28	25656.95
540.44	25736.53
540.61	25965.90
540.78	25549.29
540.95	25972.92
541.12	25851.22
541.29	25989.31
541.46	25989.31
541.62	25715.47
541.79	25940.16
541.96	25685.04
542.13	26150.81
542.30	26160.17
542.47	26408.26
542.63	25977.61
542.80	26448.05
542.97	26492.52
543.14	26295.92
543.31	26384.86
543.48	26597.85
543.64	26707.85
543.81	26555.72
543.98	26679.77
544.15	26534.65
544.32	26572.10
544.48	26958.29
544.65	26483.16
544.82	26391.88
544.99	26291.24
545.16	26616.57
545.32	26895.10
545.49	26799.13
545.66	26958.29
545.83	27007.44
546.00	26974.67
546.16	27152.55
546.33	27117.45
546.50	26506.57
546.67	27140.85
546.83	26806.16
547.00	26843.60
547.17	26925.52
547.34	27491.93
547.50	27143.19
547.67	27601.94
547.84	27250.86
548.00	26960.63
548.17	27498.95
548.34	27213.41
548.51	27117.45
548.67	27208.73
548.84	27463.85
549.01	27407.67
549.18	27344.48
549.34	27484.91
549.51	27400.65
549.68	27508.32
549.84	27417.04
550.01	27438.10
550.18	27557.47
550.34	27606.62
550.51	28023.23
550.68	27754.07
550.84	27604.28
551.01	27529.38
551.18	27896.85
551.34	27391.29
551.51	27810.25
551.68	27917.91
551.84	27761.09
552.01	27938.97
552.18	28006.85
552.34	28215.16
552.51	28177.71
552.68	27688.54
552.84	27960.04
553.01	28121.54
553.18	28023.23
553.34	28051.32
553.51	27967.06
553.67	28332.18
553.84	28362.61
554.01	27992.81
554.17	28137.92
554.34	28074.73
554.51	28414.10
554.67	28486.66
554.84	28264.31
555.00	27938.97
555.17	28470.28
555.33	28533.47
555.50	28072.39
555.67	28105.15
555.83	28786.25
556.00	28591.98
556.16	28610.71
556.33	28278.35
556.50	28369.63
556.66	28594.32
556.83	28458.57
556.99	29099.88
557.16	28954.77
557.32	28891.57
557.49	28819.02
557.65	28699.65
557.82	28840.08
557.98	28624.75
558.15	28692.63
558.32	28723.05
558.48	28811.99
558.65	29347.98
558.81	28856.46
558.98	28694.97
559.14	28739.44
559.31	28844.76
559.47	29048.39
559.64	29179.46
559.80	28814.34
559.97	29083.50
560.13	28814.34
560.30	28919.66
560.46	29240.31
560.63	28950.09
560.79	29020.30
560.96	29111.58
561.12	29256.70
561.29	29046.05
561.45	29149.03
561.61	29415.85
561.78	28980.51
561.94	29319.89
562.11	29022.64
562.27	29078.82
562.44	28912.64
562.60	29090.52
562.77	28870.51
562.93	29010.94
563.10	29284.78
563.26	29046.05
563.42	29336.27
563.59	29376.06
563.75	29364.36
563.92	29378.40
564.08	28968.81
564.24	29259.04
564.41	29048.39
564.57	29137.33
564.74	29240.31
564.90	29301.17
565.07	29373.72
565.23	29441.60
565.39	29268.40
565.56	29226.27
565.72	29303.51
565.88	29331.59
566.05	29497.77
566.21	29156.05
566.38	29371.38
566.54	29390.11
566.70	29750.55
566.87	29647.57
567.03	29493.09
567.19	29502.45
567.36	29563.31
567.52	29706.08
567.68	29476.71
567.85	29509.47
568.01	29352.66
568.17	29820.77
568.34	29820.77
568.50	29406.49
568.66	29640.54
568.83	29972.90
568.99	29680.33
569.15	29762.25
569.32	29542.24
569.48	29830.13
569.64	29675.65
569.81	29567.99
569.97	29497.77
570.13	29844.17
570.30	29408.83
570.46	29722.46
570.62	29755.23
570.78	29677.99
570.95	29186.48
571.11	29851.19
571.27	29563.31
571.43	29724.80
571.60	29560.97
571.76	30008.01
571.92	29778.64
572.09	29694.38
572.25	29883.96
572.41	29773.95
572.57	29834.81
572.74	29902.68
572.90	29553.94
573.06	29764.59
573.22	29532.88
573.38	29750.55
573.55	30043.12
573.71	30146.10
573.87	29928.43
574.03	29883.96
574.20	29589.05
574.36	29593.73
574.52	29514.16
574.68	29809.06
574.84	29921.41
575.01	30206.95
575.17	29909.71
575.33	29825.45
575.49	29699.06
575.65	30038.44
575.82	29993.97
575.98	29909.71
576.14	30384.83
576.30	29619.48
576.46	29507.13
576.62	29741.19
576.79	30185.89
576.95	29956.52
577.11	30075.88
577.27	30010.35
577.43	30183.55
577.59	29783.32
577.75	30057.16
577.92	29617.14
578.08	29818.42
578.24	30382.49
578.40	30174.19
578.56	30181.21
578.72	30113.33
578.88	30092.27
579.04	30555.69
579.21	30066.52
579.37	30064.18
579.53	29858.21
579.69	29762.25
579.85	30171.85
580.01	30080.56
580.17	29778.64
580.33	29958.86
580.49	30057.16
580.65	30277.17
580.82	30445.69
580.98	30080.56
581.14	29659.27
581.30	30169.51
581.46	30106.31
581.62	30122.69
581.78	29940.13
581.94	30195.25
582.10	29839.49
582.26	30249.08
582.42	30431.65
582.58	30611.87
582.74	30347.39
582.90	30094.61
583.06	30354.41
583.22	30307.60
583.38	30228.02
583.54	30316.96
583.70	30073.54
583.86	30015.03
584.02	29940.13
584.18	30270.15
584.34	30536.97
584.50	30422.28
584.66	30050.14
584.82	30022.05
584.98	30221.00
585.14	30281.85
585.30	29979.92
585.46	29968.22
585.62	30384.83
585.78	30120.35
585.94	30080.56
586.10	30368.45
586.26	30195.25
586.42	30466.75
586.58	30015.03
586.74	30342.70
586.90	29663.95
587.06	29694.38
587.22	30148.44
587.38	30471.43
587.54	30118.01
587.70	30295.89
587.86	30237.38
588.02	30646.97
588.18	30888.05
588.34	30689.10
588.49	30230.36
588.65	30501.86
588.81	30148.44
588.97	30417.60
589.13	30199.93
589.29	29996.31
589.45	30625.91
589.61	30651.66
589.77	31042.53
589.93	30590.80
590.08	30625.91
590.24	30705.49
590.40	30558.03
590.56	30775.70
590.72	30541.65
590.88	30398.88
591.04	29858.21
591.20	30436.33
591.35	30848.26
591.51	30806.13
591.67	30745.28
591.83	30962.95
591.99	31014.44
