SpectraSuite Data File
++++++++++++++++++++++++++++++++++++
Date: Fri Oct 18 13:58:31 GMT-05:00 2013
User: bianchi
Dark Spectrum Present: No
Reference Spectrum Present: No
Number of Sampled Component Spectra: 1
Spectrometers: USB2+H05261
Integration Time (usec): 50000 (USB2+H05261)
Spectra Averaged: 1 (USB2+H05261)
Boxcar Smoothing: 0 (USB2+H05261)
Correct for Electrical Dark: No (USB2+H05261)
Strobe/Lamp Enabled: No (USB2+H05261)
Correct for Detector Non-linearity: No (USB2+H05261)
Correct for Stray Light: No (USB2+H05261)
Number of Pixels in Processed Spectrum: 2048
>>>>>Begin Processed Spectral Data<<<<<
365.73	0.00
365.92	0.00
366.12	0.00
366.32	0.00
366.52	0.00
366.72	0.00
366.91	0.00
367.11	0.00
367.31	0.00
367.51	0.00
367.70	0.00
367.90	0.00
368.10	0.00
368.30	0.00
368.49	0.00
368.69	0.00
368.89	0.00
369.09	0.00
369.28	0.00
369.48	0.00
369.68	0.00
369.87	0.00
370.07	0.00
370.27	0.00
370.47	0.00
370.66	72.56
370.86	67.88
371.06	112.35
371.25	72.56
371.45	152.13
371.65	208.31
371.84	105.32
372.04	138.09
372.24	166.18
372.44	135.75
372.63	133.41
372.83	177.88
373.03	217.67
373.22	182.56
373.42	184.90
373.62	243.42
373.81	220.01
374.01	189.58
374.21	184.90
374.40	198.95
374.60	229.37
374.79	264.48
374.99	238.73
375.19	212.99
375.38	278.52
375.58	241.08
375.78	212.99
375.97	234.05
376.17	215.33
376.37	255.12
376.56	255.12
376.76	250.44
376.95	257.46
377.15	262.14
377.35	285.55
377.54	369.80
377.74	252.78
377.93	203.63
378.13	318.31
378.33	353.42
378.52	271.50
378.72	269.16
378.91	290.23
379.11	255.12
379.31	280.86
379.50	315.97
379.70	215.33
379.89	353.42
380.09	292.57
380.28	287.89
380.48	255.12
380.68	248.10
380.87	287.89
381.07	358.10
381.26	252.78
381.46	367.46
381.65	327.68
381.85	297.25
382.04	264.48
382.24	411.93
382.43	330.02
382.63	334.70
382.83	346.40
383.02	341.72
383.22	294.91
383.41	294.91
383.61	379.17
383.80	383.85
384.00	433.00
384.19	334.70
384.39	390.87
384.58	379.17
384.78	330.02
384.97	332.36
385.17	435.34
385.36	379.17
385.56	423.64
385.75	402.57
385.95	325.33
386.14	381.51
386.34	339.38
386.53	407.25
386.72	374.49
386.92	400.23
387.11	393.21
387.31	353.42
387.50	423.64
387.70	397.89
387.89	383.85
388.09	388.53
388.28	411.93
388.48	433.00
388.67	355.76
388.86	444.70
389.06	411.93
389.25	421.30
389.45	477.47
389.64	500.87
389.84	449.38
390.03	484.49
390.22	477.47
390.42	461.09
390.61	430.66
390.81	442.36
391.00	472.79
391.19	545.34
391.39	472.79
391.58	519.60
391.78	479.81
391.97	566.41
392.16	463.43
392.36	528.96
392.55	447.04
392.75	538.32
392.94	512.58
393.13	568.75
393.33	580.45
393.52	643.65
393.71	571.09
393.91	575.77
394.10	489.17
394.29	533.64
394.49	533.64
394.68	601.52
394.88	603.86
395.07	526.62
395.26	575.77
395.46	606.20
395.65	638.97
395.84	601.52
396.04	669.39
396.23	725.57
396.42	571.09
396.62	575.77
396.81	660.03
397.00	657.69
397.19	603.86
397.39	627.26
397.58	601.52
397.77	685.78
397.97	627.26
398.16	603.86
398.35	671.73
398.55	624.92
398.74	662.37
398.93	709.18
399.12	681.10
399.32	667.05
399.51	683.44
399.70	664.71
399.90	683.44
400.09	737.27
400.28	748.97
400.47	718.54
400.67	751.31
400.86	774.72
401.05	737.27
401.24	840.25
401.44	788.76
401.63	725.57
401.82	763.01
402.01	795.78
402.21	795.78
402.40	819.19
402.59	763.01
402.78	849.61
402.97	828.55
403.17	814.51
403.36	844.93
403.55	863.66
403.74	849.61
403.93	891.74
404.13	873.02
404.32	870.68
404.51	915.15
404.70	854.30
404.89	826.21
405.09	947.92
405.28	908.13
405.47	875.36
405.66	973.66
405.85	983.02
406.05	976.00
406.24	973.66
406.43	924.51
406.62	919.83
406.81	966.64
407.00	1020.47
407.20	1008.77
407.39	978.34
407.58	997.07
407.77	994.73
407.96	999.41
408.15	1055.58
408.34	1118.78
408.54	1020.47
408.73	1046.22
408.92	1057.92
409.11	1055.58
409.30	1170.27
409.49	1043.88
409.68	1118.78
409.87	1167.93
410.07	1160.91
410.26	1170.27
410.45	1275.59
410.64	1177.29
410.83	1273.25
411.02	1203.04
411.21	1128.14
411.40	1203.04
411.59	1282.61
411.78	1296.66
411.98	1214.74
412.17	1280.27
412.36	1266.23
412.55	1313.04
412.74	1352.83
412.93	1324.74
413.12	1334.11
413.31	1313.04
413.50	1289.64
413.69	1336.45
413.88	1479.22
414.07	1364.53
414.26	1476.88
414.45	1359.85
414.64	1514.33
414.83	1425.39
415.02	1519.01
415.22	1455.81
415.41	1540.07
415.60	1547.09
415.79	1586.88
415.98	1502.62
416.17	1558.80
416.36	1523.69
416.55	1526.03
416.74	1556.46
416.93	1572.84
417.12	1589.22
417.31	1605.61
417.50	1647.74
417.69	1687.53
417.88	1661.78
418.07	1654.76
418.26	1584.54
418.45	1724.97
418.64	1771.79
418.83	1717.95
419.02	1715.61
419.21	1727.32
419.39	1834.98
419.58	1851.36
419.77	1659.44
419.96	1781.15
420.15	1858.39
420.34	1717.95
420.53	1736.68
420.72	1891.15
420.91	1865.41
421.10	1989.46
421.29	1984.77
421.48	1760.08
421.67	2017.54
421.86	1928.60
422.05	1980.09
422.24	2003.50
422.43	1919.24
422.61	1947.33
422.80	1900.52
422.99	1926.26
423.18	1973.07
423.37	1973.07
423.56	1947.33
423.75	1998.82
423.94	1949.67
424.13	1832.64
424.32	1919.24
424.50	2024.56
424.69	1926.26
424.88	1933.28
425.07	2033.93
425.26	2064.35
425.45	1954.35
425.64	1942.64
425.83	2054.99
426.01	2026.90
426.20	1989.46
426.39	1989.46
426.58	2001.16
426.77	2029.24
426.96	2031.58
427.15	2076.06
427.33	2012.86
427.52	2022.22
427.71	2167.34
427.90	2047.97
428.09	2029.24
428.28	2155.63
428.46	2242.23
428.65	2181.38
428.84	2228.19
429.03	2225.85
429.22	2176.70
429.40	2132.23
429.59	2237.55
429.78	2179.04
429.97	2162.66
430.16	2223.51
430.34	2235.21
430.53	2263.30
430.72	2209.47
430.91	2249.25
431.10	2321.81
431.28	2326.49
431.47	2193.08
431.66	2356.92
431.85	2267.98
432.03	2270.32
432.22	2415.43
432.41	2399.05
432.60	2387.35
432.79	2328.83
432.97	2312.45
433.16	2478.63
433.35	2380.32
433.54	2420.11
433.72	2478.63
433.91	2478.63
434.10	2626.08
434.28	2427.14
434.47	2518.42
434.66	2495.01
434.85	2490.33
435.03	2572.25
435.22	2502.03
435.41	2583.95
435.59	2616.72
435.78	2506.71
435.97	2586.29
436.16	2583.95
436.34	2518.42
436.53	2614.38
436.72	2658.85
436.90	2593.31
437.09	2675.23
437.28	2511.39
437.46	2724.38
437.65	2717.36
437.84	2668.21
438.02	2640.12
438.21	2726.72
438.40	2803.96
438.58	2801.62
438.77	2876.52
438.96	2778.22
439.14	2897.58
439.33	2843.75
439.52	2881.20
439.70	2953.76
439.89	2951.42
440.08	2916.31
440.26	3035.67
440.45	3040.36
440.63	2920.99
440.82	3073.12
441.01	3033.33
441.19	3101.21
441.38	3143.34
441.57	3063.76
441.75	3213.56
441.94	3290.79
442.12	3157.38
442.31	3290.79
442.50	3187.81
442.68	3248.66
442.87	3297.81
443.05	3279.09
443.24	3314.20
443.43	3372.71
443.61	3290.79
443.80	3405.48
443.98	3206.53
444.17	3243.98
444.35	3309.52
444.54	3386.76
444.73	3375.05
444.91	3241.64
445.10	3346.97
445.28	3379.73
445.47	3201.85
445.65	3283.77
445.84	3405.48
446.02	3377.39
446.21	3384.41
446.39	3403.14
446.58	3433.57
446.77	3379.73
446.95	3318.88
447.14	3318.88
447.32	3426.54
447.51	3492.08
447.69	3358.67
447.88	3449.95
448.06	3463.99
448.25	3386.76
448.43	3461.65
448.62	3384.41
448.80	3379.73
448.99	3473.36
449.17	3503.78
449.36	3574.00
449.54	3604.42
449.73	3679.32
449.91	3581.02
450.10	3639.53
450.28	3590.38
450.46	3644.21
450.65	3646.55
450.83	3751.88
451.02	3529.53
451.20	3707.41
451.39	3808.05
451.57	3616.13
451.76	3698.05
451.94	3857.20
452.13	3920.40
452.31	3906.35
452.49	3676.98
452.68	3705.07
452.86	3510.80
453.05	3852.52
453.23	3707.41
453.42	3770.60
453.60	3775.28
453.78	3765.92
453.97	3859.54
454.15	3906.35
454.34	3925.08
454.52	3885.29
454.70	3932.10
454.89	3850.18
455.07	3988.27
455.26	3934.44
455.44	4011.68
455.62	3871.25
455.81	3904.01
455.99	3985.93
456.17	4133.39
456.36	4058.49
456.54	4156.79
456.73	4016.36
456.91	4313.61
457.09	4060.83
457.28	4374.46
457.46	4077.21
457.64	4294.88
457.83	4255.09
458.01	4009.34
458.19	4381.48
458.38	4306.59
458.56	4280.84
458.74	4222.33
458.93	4318.29
459.11	4308.93
459.29	4372.12
459.48	4390.84
459.66	4388.50
459.84	4362.76
460.03	4451.70
460.21	4435.32
460.39	4360.42
460.57	4552.34
460.76	4496.17
460.94	4573.41
461.12	4500.85
461.31	4496.17
461.49	4437.66
461.67	4327.65
461.85	4678.73
462.04	4484.47
462.22	4664.69
462.40	4589.79
462.59	4652.98
462.77	4531.28
462.95	4770.01
463.13	4652.98
463.32	4664.69
463.50	4725.54
463.68	4865.97
463.86	4903.42
464.05	4716.18
464.23	4582.77
464.41	4702.14
464.59	4760.65
464.78	4912.78
464.96	4837.89
465.14	4798.10
465.32	4812.14
465.50	4751.29
465.69	4936.19
465.87	4933.85
466.05	4779.37
466.23	4835.55
466.41	4938.53
466.60	5151.52
466.78	4954.91
466.96	4851.93
467.14	5104.71
467.32	4917.47
467.51	5181.95
467.69	4929.17
467.87	5081.30
468.05	5181.95
468.23	5015.77
468.41	4873.00
468.60	5067.26
468.78	5062.58
468.96	4964.28
469.14	5224.08
469.32	5074.28
469.50	5011.09
469.69	5156.20
469.87	5329.40
470.05	5383.23
470.23	5380.89
470.41	5383.23
470.59	5352.81
470.77	5233.44
470.95	5254.50
471.14	5465.15
471.32	5334.08
471.50	5607.92
471.68	5430.04
471.86	5387.91
472.04	5434.72
472.22	5556.43
472.40	5350.46
472.58	5575.16
472.77	5605.58
472.95	5685.16
473.13	5818.57
473.31	5664.10
473.49	5636.01
473.67	5687.50
473.85	5841.98
474.03	5900.49
474.21	5802.19
474.39	6066.67
474.57	5858.36
474.75	6001.13
474.93	6015.18
475.12	5994.11
475.30	6064.33
475.48	6003.47
475.66	5984.75
475.84	6104.12
476.02	6076.03
476.20	6197.74
476.38	6303.06
476.56	6417.75
476.74	6377.96
476.92	6291.36
477.10	6377.96
477.28	6457.54
477.46	6403.71
477.64	6698.61
477.82	6792.23
478.00	6827.34
478.18	6649.46
478.36	7007.56
478.54	6848.41
478.72	6927.99
478.90	6963.09
479.08	6911.60
479.26	7045.01
479.44	7117.57
479.62	7246.30
479.80	7213.53
479.98	7171.40
480.16	7353.96
480.34	7449.93
480.52	7344.60
480.70	7412.48
480.88	7396.09
481.06	7531.84
481.24	7463.97
481.41	7641.85
481.59	7691.00
481.77	7719.09
481.95	7723.77
482.13	7822.07
482.31	7852.50
482.49	8060.80
482.67	8098.25
482.85	8208.26
483.03	8224.64
483.21	8299.54
483.39	8587.43
483.57	8395.50
483.74	8397.84
483.92	8496.14
484.10	8458.70
484.28	8559.34
484.46	8772.33
484.64	8936.17
484.82	8835.52
485.00	8868.29
485.18	9156.18
485.35	9371.50
485.53	9231.07
485.71	9142.13
485.89	9322.35
486.07	9284.91
486.25	9488.53
486.43	9448.74
486.61	9509.60
486.78	9589.17
486.96	9795.14
487.14	9722.59
487.32	10003.45
487.50	9846.63
487.68	10071.33
487.85	10101.75
488.03	10211.76
488.21	10307.72
488.39	10256.23
488.57	10377.94
488.75	10235.16
488.92	10544.11
489.10	10551.14
489.28	10902.22
489.46	10696.25
489.64	10672.84
489.81	10897.53
489.99	11044.99
490.17	10820.30
490.35	11037.97
490.53	11180.74
490.70	11463.94
490.88	11279.04
491.06	11433.52
491.24	11276.70
491.41	11702.68
491.59	11672.25
491.77	11569.27
491.95	11655.87
492.13	12067.80
492.30	11908.65
492.48	11838.43
492.66	12079.50
492.84	12269.09
493.01	12245.68
493.19	12224.62
493.37	12446.97
493.54	12484.42
493.72	12566.34
493.90	12498.46
494.08	12538.25
494.25	12894.01
494.43	12720.81
494.61	12765.28
494.79	13163.17
494.96	12933.80
495.14	12922.10
495.32	13132.75
495.49	13334.03
495.67	12989.97
495.85	13465.10
496.02	13518.93
496.20	13724.90
496.38	13584.47
496.55	13465.10
496.73	13696.82
496.91	13645.32
497.09	13809.16
497.26	13657.03
497.44	14099.39
497.62	14094.71
497.79	14099.39
497.97	14305.35
498.14	14267.91
498.32	14424.72
498.50	14487.92
498.67	14394.29
498.85	14558.13
499.03	14569.83
499.20	14588.56
499.38	14675.16
499.56	14895.17
499.73	14693.88
499.91	14846.02
500.08	15047.30
500.26	15061.35
500.44	14991.13
500.61	15068.37
500.79	14876.44
500.97	15049.64
501.14	15489.67
501.32	15557.54
501.49	15204.12
501.67	15482.64
501.84	15288.38
502.02	15517.75
502.20	15810.32
502.37	15768.19
502.55	15653.50
502.72	15878.19
502.90	15576.27
503.07	15803.30
503.25	15538.82
503.43	15946.07
503.60	15997.56
503.78	16210.55
503.95	15826.70
504.13	16004.58
504.30	16217.57
504.48	16175.44
504.65	16339.28
504.83	16538.23
505.01	16465.67
505.18	16631.85
505.36	16833.13
505.53	16393.11
505.71	16437.58
505.88	16716.11
506.06	16659.93
506.23	17067.19
506.41	16805.05
506.58	16830.79
506.76	16767.60
506.93	16648.23
507.11	16858.88
507.28	16910.37
507.46	17139.74
507.63	17465.08
507.81	17060.16
507.98	17083.57
508.16	17458.06
508.33	17355.07
508.50	17436.99
508.68	17645.30
508.85	17558.70
509.03	17923.82
509.20	17869.99
509.38	17937.87
509.55	17886.37
509.73	17862.97
509.90	17788.07
510.08	17776.37
510.25	17860.63
510.42	18092.34
510.60	18047.87
510.77	17919.14
510.95	18354.48
511.12	18108.72
511.30	18291.29
511.47	18113.41
511.64	18298.31
511.82	18455.12
511.99	18366.18
512.17	18637.69
512.34	18672.79
512.51	18574.49
512.69	18775.78
512.86	18941.96
513.04	18743.01
513.21	18913.87
513.38	18834.29
513.56	19171.33
513.73	18714.92
513.90	18792.16
514.08	18834.29
514.25	19325.80
514.43	19257.93
514.60	19300.06
514.77	19370.27
514.95	19552.84
515.12	19452.19
515.29	19183.03
515.47	19304.74
515.64	19377.30
515.81	19225.16
515.99	19648.80
516.16	19777.53
516.33	19831.36
516.51	20074.77
516.68	19903.92
516.85	19697.95
517.03	19943.70
517.20	19700.29
517.37	20046.69
517.54	19920.30
517.72	20161.37
517.89	20105.20
518.06	19875.83
518.24	20372.02
518.41	20044.35
518.58	20355.64
518.75	20095.84
518.93	20308.83
519.10	20301.81
519.27	20266.70
519.45	20182.44
519.62	20762.89
519.79	20449.26
519.96	20460.96
520.14	20521.82
520.31	20765.23
520.48	21076.52
520.65	20592.03
520.83	20636.50
521.00	20999.29
521.17	20809.70
521.34	21088.23
521.52	20671.61
521.69	21125.68
521.86	21284.83
522.03	21462.71
522.20	21362.07
522.38	21226.32
522.55	21261.43
522.72	21081.21
522.89	21341.00
523.07	21411.22
523.24	21626.55
523.41	21605.49
523.58	21130.36
523.75	21673.36
523.92	21427.60
524.10	21647.61
524.27	21858.26
524.44	21640.59
524.61	22258.49
524.78	21839.54
524.96	21921.46
525.13	21666.34
525.30	22174.24
525.47	21956.57
525.64	21837.20
525.81	22026.78
525.98	22190.62
526.16	22087.64
526.33	22223.39
526.50	22277.22
526.67	22298.28
526.84	22422.33
527.01	22024.44
527.18	22085.30
527.36	22522.98
527.53	22497.23
527.70	22707.88
527.87	22497.23
528.04	22909.16
528.21	22778.09
528.38	22427.01
528.55	22455.10
528.72	22567.45
528.89	22714.90
529.07	22719.58
529.24	22614.26
529.41	22838.95
529.58	22794.48
529.75	22817.88
529.92	23168.96
530.09	23014.49
530.26	22951.29
530.43	22984.06
530.60	22906.82
530.77	22845.97
530.94	23220.45
531.11	23065.98
531.28	23124.49
531.46	23157.26
531.63	23185.35
531.80	23555.15
531.97	23761.12
532.14	23386.63
532.31	23264.92
532.48	23482.59
532.65	23606.64
532.82	23594.94
532.99	23260.24
533.16	23578.56
533.33	24070.07
533.50	23660.48
533.67	23880.49
533.84	23372.59
534.01	23798.57
534.18	23452.17
534.35	23831.33
534.52	23660.48
534.69	24027.94
534.86	24102.84
535.03	23821.97
535.20	23871.12
535.37	23632.39
535.54	24386.04
535.71	24269.01
535.88	24044.32
536.05	24231.57
536.22	24105.18
536.38	24507.75
536.55	24287.74
536.72	24355.61
536.89	24219.86
537.06	23878.15
537.23	24240.93
537.40	24053.69
537.57	24580.31
537.74	24589.67
537.91	24645.84
538.08	24680.95
538.25	24439.87
538.42	24559.24
538.59	25064.80
538.75	24713.72
538.92	24666.91
539.09	24739.46
539.26	24992.24
539.43	24718.40
539.60	25205.23
539.77	24730.10
539.94	24933.73
540.11	24837.76
540.28	24959.47
540.44	24819.04
540.61	25127.99
540.78	25104.59
540.95	24898.62
541.12	24730.10
541.29	25172.46
541.46	24662.22
541.62	25348.00
541.79	24943.09
541.96	25130.33
542.13	24959.47
542.30	25366.73
542.47	25563.33
542.63	25413.54
542.80	25614.82
542.97	25745.89
543.14	25408.86
543.31	25806.75
543.48	25408.86
543.64	25823.13
543.81	25741.21
543.98	25802.07
544.15	25336.30
544.32	25972.92
544.48	26019.74
544.65	25593.76
544.82	26064.21
544.99	25584.40
545.16	26120.38
545.32	26204.64
545.49	25759.94
545.66	26092.29
545.83	26181.23
546.00	26181.23
546.16	26010.37
546.33	25809.09
546.50	25628.87
546.67	26120.38
546.83	25708.44
547.00	26061.87
547.17	26008.03
547.34	26190.59
547.50	26155.49
547.67	26614.23
547.84	26419.97
548.00	26118.04
548.17	26309.96
548.34	26284.22
548.51	26806.16
548.67	26562.74
548.84	26445.71
549.01	26288.90
549.18	26281.88
549.34	26471.46
549.51	26651.68
549.68	26618.91
549.84	26672.74
550.01	26541.68
550.18	26506.57
550.34	26560.40
550.51	26916.16
550.68	26771.05
550.84	26232.72
551.01	26492.52
551.18	26838.92
551.34	26583.80
551.51	26803.82
551.68	26679.77
551.84	27035.53
552.01	27108.08
552.18	26829.56
552.34	26857.65
552.51	27094.04
552.68	27115.11
552.84	27204.05
553.01	27154.90
553.18	26672.74
553.34	27374.91
553.51	27143.19
553.67	27012.12
553.84	27314.05
554.01	27395.97
554.17	26794.45
554.34	27353.84
554.51	27246.18
554.67	27278.94
554.84	27262.56
555.00	27091.70
555.17	27260.22
555.33	27377.25
555.50	27147.87
555.67	27756.41
555.83	27278.94
556.00	27431.08
556.16	27583.21
556.33	27564.49
556.50	27225.11
556.66	28126.22
556.83	27248.52
556.99	27903.87
557.16	27786.84
557.32	27527.04
557.49	27484.91
557.65	27087.02
557.82	27637.05
557.98	27442.78
558.15	27644.07
558.32	27754.07
558.48	27990.47
558.65	27491.93
558.81	27768.12
558.98	27885.14
559.14	28023.23
559.31	27754.07
559.47	27648.75
559.64	27920.25
559.80	27938.97
559.97	27866.42
560.13	27674.49
560.30	28041.96
560.46	28126.22
560.63	28016.21
560.79	28016.21
560.96	28205.80
561.12	28245.58
561.29	27623.00
561.45	28357.93
561.61	28245.58
561.78	28088.77
561.94	28374.31
562.11	27812.59
562.27	28091.11
562.44	28084.09
562.60	28093.45
562.77	28357.93
562.93	27810.25
563.10	28137.92
563.26	28011.53
563.42	28521.77
563.59	28524.11
563.75	28079.41
563.92	28194.09
564.08	27967.06
564.24	28163.67
564.41	28044.30
564.57	28182.39
564.74	28161.33
564.90	28137.92
565.07	28638.80
565.23	27990.47
565.39	28395.38
565.56	28409.42
565.72	28231.54
565.88	28163.67
566.05	28301.76
566.21	28336.87
566.38	28224.52
566.54	28271.33
566.70	28439.85
566.87	28538.15
567.03	28573.26
567.19	28552.20
567.36	28842.42
567.52	28498.36
567.68	28718.37
567.85	28201.11
568.01	28460.91
568.17	28304.10
568.34	28388.36
568.50	28552.20
568.66	28423.47
568.83	28854.12
568.99	28268.99
569.15	28481.98
569.32	28219.84
569.48	28556.88
569.64	28013.87
569.81	28533.47
569.97	28512.41
570.13	28903.28
570.30	28463.25
570.46	28638.80
570.62	28793.27
570.78	28889.23
570.95	28332.18
571.11	28322.82
571.27	28294.74
571.43	28807.31
571.60	28673.90
571.76	28411.76
571.92	28952.43
572.09	28767.52
572.25	29149.03
572.41	28774.55
572.57	28772.21
572.74	28924.34
572.90	28353.25
573.06	28706.67
573.22	28952.43
573.38	28753.48
573.55	28662.20
573.71	28924.34
573.87	28811.99
574.03	28545.17
574.20	29102.22
574.36	28734.76
574.52	28786.25
574.68	28870.51
574.84	28617.73
575.01	28910.30
575.17	28680.92
575.33	28947.75
575.49	28975.83
575.65	28692.63
575.82	28914.98
575.98	28620.07
576.14	29001.58
576.30	28884.55
576.46	28929.02
576.62	28837.74
576.79	28971.15
576.95	28524.11
577.11	28573.26
577.27	28807.31
577.43	28907.96
577.59	28563.90
577.75	28648.16
577.92	28512.41
578.08	28854.12
578.24	28968.81
578.40	29156.05
578.56	29151.37
578.72	29095.20
578.88	29116.26
579.04	29008.60
579.21	28844.76
579.37	28638.80
579.53	29212.23
579.69	28772.21
579.85	28943.06
580.01	28772.21
580.17	28683.27
580.33	28973.49
580.49	28884.55
580.65	29551.60
580.82	29055.41
580.98	29263.72
581.14	29046.05
581.30	29160.73
581.46	28659.86
581.62	29055.41
581.78	28641.14
581.94	28863.49
582.10	29130.31
582.26	28732.42
582.42	28912.64
582.58	29029.66
582.74	28959.45
582.90	29010.94
583.06	29067.11
583.22	29160.73
583.38	29123.29
583.54	29170.10
583.70	29034.35
583.86	29095.20
584.02	29130.31
584.18	29303.51
584.34	28884.55
584.50	29083.50
584.66	29015.62
584.82	29303.51
584.98	29146.69
585.14	28914.98
585.30	29099.88
585.46	29076.48
585.62	28863.49
585.78	29179.46
585.94	28526.45
586.10	28980.51
586.26	29252.02
586.42	29401.81
586.58	29322.23
586.74	29017.96
586.90	28985.19
587.06	28783.91
587.22	28868.17
587.38	28875.19
587.54	28865.83
587.70	29560.97
587.86	29223.93
588.02	29310.53
588.18	29460.32
588.34	29621.82
588.49	29301.17
588.65	28989.88
588.81	29099.88
588.97	29149.03
589.13	29113.92
589.29	28830.72
589.45	29404.15
589.61	29439.26
589.77	29792.68
589.93	29422.87
590.08	29259.04
590.24	29259.04
590.40	29450.96
590.56	29261.38
590.72	29516.50
590.88	29032.00
591.04	29198.18
591.20	29727.14
591.35	29766.93
591.51	29582.03
591.67	29675.65
591.83	29738.85
591.99	29467.34
