SpectraSuite Data File
++++++++++++++++++++++++++++++++++++
Date: Fri Oct 18 13:58:00 GMT-05:00 2013
User: bianchi
Dark Spectrum Present: No
Reference Spectrum Present: No
Number of Sampled Component Spectra: 1
Spectrometers: USB2+H05261
Integration Time (usec): 50000 (USB2+H05261)
Spectra Averaged: 1 (USB2+H05261)
Boxcar Smoothing: 0 (USB2+H05261)
Correct for Electrical Dark: No (USB2+H05261)
Strobe/Lamp Enabled: No (USB2+H05261)
Correct for Detector Non-linearity: No (USB2+H05261)
Correct for Stray Light: No (USB2+H05261)
Number of Pixels in Processed Spectrum: 2048
>>>>>Begin Processed Spectral Data<<<<<
365.73	0.00
365.92	0.00
366.12	0.00
366.32	0.00
366.52	0.00
366.72	0.00
366.91	0.00
367.11	0.00
367.31	0.00
367.51	0.00
367.70	0.00
367.90	0.00
368.10	0.00
368.30	0.00
368.49	0.00
368.69	0.00
368.89	0.00
369.09	0.00
369.28	0.00
369.48	0.00
369.68	0.00
369.87	0.00
370.07	0.00
370.27	0.00
370.47	0.00
370.66	81.92
370.86	170.86
371.06	72.56
371.25	91.28
371.45	117.03
371.65	124.05
371.84	154.48
372.04	100.64
372.24	212.99
372.44	152.13
372.63	210.65
372.83	311.29
373.03	196.60
373.22	119.37
373.42	145.11
373.62	194.26
373.81	163.84
374.01	175.54
374.21	212.99
374.40	220.01
374.60	285.55
374.79	262.14
374.99	215.33
375.19	210.65
375.38	238.73
375.58	184.90
375.78	262.14
375.97	227.03
376.17	325.33
376.37	250.44
376.56	280.86
376.76	217.67
376.95	248.10
377.15	280.86
377.35	234.05
377.54	301.93
377.74	245.76
377.93	231.71
378.13	283.20
378.33	224.69
378.52	262.14
378.72	217.67
378.91	287.89
379.11	273.84
379.31	229.37
379.50	271.50
379.70	220.01
379.89	255.12
380.09	255.12
380.28	259.80
380.48	301.93
380.68	365.12
380.87	372.15
381.07	334.70
381.26	360.44
381.46	330.02
381.65	252.78
381.85	341.72
382.04	276.18
382.24	360.44
382.43	290.23
382.63	322.99
382.83	379.17
383.02	276.18
383.22	337.04
383.41	381.51
383.61	393.21
383.80	294.91
384.00	304.27
384.19	440.02
384.39	383.85
384.58	395.55
384.78	386.19
384.97	409.59
385.17	367.46
385.36	390.87
385.56	344.06
385.75	308.95
385.95	362.78
386.14	395.55
386.34	362.78
386.53	411.93
386.72	425.98
386.92	362.78
387.11	400.23
387.31	374.49
387.50	402.57
387.70	397.89
387.89	472.79
388.09	383.85
388.28	463.43
388.48	465.77
388.67	493.85
388.86	496.19
389.06	510.24
389.25	421.30
389.45	470.45
389.64	461.09
389.84	510.24
390.03	559.39
390.22	484.49
390.42	465.77
390.61	461.09
390.81	456.40
391.00	503.22
391.19	498.53
391.39	470.45
391.58	545.34
391.78	559.39
391.97	524.28
392.16	428.32
392.36	535.98
392.55	514.92
392.75	559.39
392.94	559.39
393.13	587.47
393.33	631.94
393.52	545.34
393.71	561.73
393.91	594.50
394.10	589.82
394.29	552.37
394.49	601.52
394.68	561.73
394.88	620.24
395.07	643.65
395.26	564.07
395.46	589.82
395.65	568.75
395.84	653.01
396.04	671.73
396.23	683.44
396.42	627.26
396.62	606.20
396.81	711.52
397.00	638.97
397.19	624.92
397.39	645.99
397.58	667.05
397.77	720.88
397.97	657.69
398.16	716.20
398.35	678.76
398.55	720.88
398.74	674.07
398.93	716.20
399.12	732.59
399.32	627.26
399.51	699.82
399.70	770.04
399.90	711.52
400.09	774.72
400.28	683.44
400.47	795.78
400.67	791.10
400.86	720.88
401.05	830.89
401.24	772.38
401.44	758.33
401.63	791.10
401.82	795.78
402.01	805.14
402.21	816.85
402.40	781.74
402.59	880.04
402.78	716.20
402.97	809.83
403.17	873.02
403.36	828.55
403.55	758.33
403.74	891.74
403.93	931.53
404.13	954.94
404.32	936.21
404.51	847.27
404.70	959.62
404.89	924.51
405.09	976.00
405.28	940.90
405.47	880.04
405.66	952.60
405.85	945.58
406.05	1006.43
406.24	964.30
406.43	980.68
406.62	1020.47
406.81	1027.50
407.00	954.94
407.20	1097.71
407.39	1043.88
407.58	1020.47
407.77	1097.71
407.96	1029.84
408.15	1048.56
408.34	1137.50
408.54	1111.75
408.73	1090.69
408.92	1114.10
409.11	1149.20
409.30	1039.20
409.49	1116.44
409.68	1132.82
409.87	1139.84
410.07	1144.52
410.26	1231.12
410.45	1088.35
410.64	1111.75
410.83	1121.12
411.02	1219.42
411.21	1186.65
411.40	1249.85
411.59	1320.06
411.78	1301.34
411.98	1263.89
412.17	1317.72
412.36	1291.98
412.55	1331.76
412.74	1329.42
412.93	1315.38
413.12	1341.13
413.31	1390.28
413.50	1439.43
413.69	1444.11
413.88	1404.32
414.07	1355.17
414.26	1511.99
414.45	1430.07
414.64	1467.52
414.83	1516.67
415.02	1474.54
415.22	1647.74
415.41	1598.59
415.60	1568.16
415.79	1568.16
415.98	1607.95
416.17	1657.10
416.36	1570.50
416.55	1666.46
416.74	1671.14
416.93	1762.42
417.12	1570.50
417.31	1701.57
417.50	1549.43
417.69	1671.14
417.88	1685.19
418.07	1717.95
418.26	1743.70
418.45	1746.04
418.64	1739.02
418.83	1724.97
419.02	1762.42
419.21	1799.87
419.39	1877.11
419.58	1753.06
419.77	1832.64
419.96	1799.87
420.15	1799.87
420.34	1827.96
420.53	1963.71
420.72	1956.69
420.91	1935.62
421.10	1919.24
421.29	1954.35
421.48	1783.49
421.67	1977.75
421.86	1914.56
422.05	1888.81
422.24	1914.56
422.43	1954.35
422.61	2008.18
422.80	2022.22
422.99	2111.16
423.18	2071.37
423.37	2022.22
423.56	1984.77
423.75	2052.65
423.94	2076.06
424.13	2001.16
424.32	2052.65
424.50	2043.29
424.69	2092.44
424.88	2036.27
425.07	2064.35
425.26	1989.46
425.45	2113.50
425.64	2024.56
425.83	2050.31
426.01	1975.41
426.20	2031.58
426.39	2106.48
426.58	2017.54
426.77	2029.24
426.96	2157.97
427.15	2101.80
427.33	2167.34
427.52	2108.82
427.71	2197.76
427.90	2148.61
428.09	2054.99
428.28	2092.44
428.46	2136.91
428.65	2150.95
428.84	2256.28
429.03	2256.28
429.22	2083.08
429.40	2197.76
429.59	2183.72
429.78	2165.00
429.97	2094.78
430.16	2221.17
430.34	2211.81
430.53	2502.03
430.72	2249.25
430.91	2307.77
431.10	2260.96
431.28	2338.20
431.47	2340.54
431.66	2424.80
431.85	2368.62
432.03	2373.30
432.22	2389.69
432.41	2387.35
432.60	2427.14
432.79	2471.61
432.97	2408.41
433.16	2349.90
433.35	2480.97
433.54	2399.05
433.72	2431.82
433.91	2518.42
434.10	2558.21
434.28	2459.90
434.47	2614.38
434.66	2495.01
434.85	2609.70
435.03	2663.53
435.22	2490.33
435.41	2642.46
435.59	2614.38
435.78	2583.95
435.97	2703.32
436.16	2574.59
436.34	2724.38
436.53	2642.46
436.72	2778.22
436.90	2672.89
437.09	2792.26
437.28	2647.15
437.46	2764.17
437.65	2700.98
437.84	2785.24
438.02	2778.22
438.21	2796.94
438.40	2672.89
438.58	2860.13
438.77	2949.08
438.96	2899.92
439.14	2883.54
439.33	2963.12
439.52	2864.82
439.70	2979.50
439.89	2871.84
440.08	3040.36
440.26	3047.38
440.45	3115.25
440.63	3103.55
440.82	3185.47
441.01	3052.06
441.19	3215.90
441.38	3232.28
441.57	3225.26
441.75	3185.47
441.94	3300.16
442.12	3241.64
442.31	3272.07
442.50	3281.43
442.68	3258.03
442.87	3258.03
443.05	3339.94
443.24	3337.60
443.43	3330.58
443.61	3349.31
443.80	3456.97
443.98	3361.01
444.17	3213.56
444.35	3555.27
444.54	3435.91
444.73	3323.56
444.91	3393.78
445.10	3332.92
445.28	3410.16
445.47	3391.44
445.65	3220.58
445.84	3459.31
446.02	3480.38
446.21	3375.05
446.39	3428.88
446.58	3445.27
446.77	3442.93
446.95	3456.97
447.14	3471.01
447.32	3466.33
447.51	3461.65
447.69	3379.73
447.88	3522.51
448.06	3576.34
448.25	3454.63
448.43	3522.51
448.62	3342.28
448.80	3503.78
448.99	3559.95
449.17	3581.02
449.36	3461.65
449.54	3625.49
449.73	3822.09
449.91	3669.96
450.10	3789.33
450.28	3751.88
450.46	3808.05
450.65	3744.86
450.83	3676.98
451.02	3786.99
451.20	3831.46
451.39	3786.99
451.57	3665.28
451.76	3716.77
451.94	3754.22
452.13	3726.13
452.31	3859.54
452.49	3833.80
452.68	3934.44
452.86	3925.08
453.05	3908.69
453.23	3974.23
453.42	3866.56
453.60	3803.37
453.78	3894.65
453.97	3817.41
454.15	3901.67
454.34	3899.33
454.52	3906.35
454.70	3962.53
454.89	3939.12
455.07	4100.62
455.26	3873.59
455.44	4065.51
455.62	4030.40
455.81	4117.00
455.99	4016.36
456.17	4201.26
456.36	4184.88
456.54	4217.65
456.73	4117.00
456.91	4322.97
457.09	4276.16
457.28	4337.01
457.46	4196.58
457.64	4320.63
457.83	4409.57
458.01	4276.16
458.19	4400.21
458.38	4369.78
458.56	4381.48
458.74	4344.03
458.93	4456.38
459.11	4393.19
459.29	4327.65
459.48	4486.81
459.66	4327.65
459.84	4507.87
460.03	4599.15
460.21	4573.41
460.39	4650.64
460.57	4592.13
460.76	4416.59
460.94	4491.49
461.12	4564.04
461.31	4561.70
461.49	4620.22
461.67	4727.88
461.85	4652.98
462.04	4652.98
462.22	5006.41
462.40	4711.50
462.59	4629.58
462.77	4748.95
462.95	4816.82
463.13	4908.10
463.32	4777.03
463.50	4629.58
463.68	4826.18
463.86	4910.44
464.05	4706.82
464.23	4823.84
464.41	4870.65
464.59	4716.18
464.78	4919.81
464.96	5013.43
465.14	4844.91
465.32	4964.28
465.50	4938.53
465.69	5076.62
465.87	5029.81
466.05	4985.34
466.23	4954.91
466.41	4952.57
466.60	5266.21
466.78	5116.41
466.96	5022.79
467.14	4999.38
467.32	5078.96
467.51	5121.09
467.69	4980.66
467.87	5151.52
468.05	5188.97
468.23	5109.39
468.41	5219.39
468.60	5327.06
468.78	5252.16
468.96	5167.90
469.14	5224.08
469.32	5373.87
469.50	5195.99
469.69	5277.91
469.87	5341.10
470.05	5270.89
470.23	5359.83
470.41	5338.76
470.59	5331.74
470.77	5509.62
470.95	5537.71
471.14	5575.16
471.32	5327.06
471.50	5614.95
471.68	5621.97
471.86	5638.35
472.04	5530.69
472.22	5818.57
472.40	5472.17
472.58	5671.12
472.77	5650.05
472.95	5874.74
473.13	6017.52
473.31	5746.02
473.49	5734.31
473.67	5905.17
473.85	5940.28
474.03	6061.99
474.21	5980.07
474.39	6019.86
474.57	6209.44
474.75	6033.90
474.93	6232.85
475.12	6127.52
475.30	6008.16
475.48	6174.33
475.66	6190.72
475.84	6321.79
476.02	6317.11
476.20	6436.47
476.38	6565.20
476.56	6738.40
476.74	6579.25
476.92	6520.73
477.10	6408.39
477.28	6553.50
477.46	6590.95
477.64	6640.10
477.82	6712.66
478.00	6843.73
478.18	6801.60
478.36	6923.30
478.54	6890.54
478.72	7049.69
478.90	6937.35
479.08	7176.08
479.26	7201.83
479.44	7309.49
479.62	7248.64
479.80	7276.73
479.98	7487.37
480.16	7445.24
480.34	7424.18
480.52	7445.24
480.70	7796.32
480.88	7538.87
481.06	7719.09
481.24	7819.73
481.41	7730.79
481.59	7812.71
481.77	8030.38
481.95	8070.17
482.13	8152.09
482.31	8081.87
482.49	8334.65
482.67	8346.35
482.85	8222.30
483.03	8402.52
483.21	8442.31
483.39	8414.23
483.57	8475.08
483.74	8477.42
483.92	8489.12
484.10	8552.32
484.28	8997.02
484.46	8884.67
484.64	9081.28
484.82	8882.33
485.00	9200.65
485.18	9282.56
485.35	9500.23
485.53	9259.16
485.71	9334.06
485.89	9572.79
486.07	9540.02
486.25	9497.89
486.43	9607.90
486.61	9659.39
486.78	9661.73
486.96	9860.68
487.14	10029.20
487.32	10111.11
487.50	10169.63
487.68	9977.70
487.85	10223.46
488.03	10595.61
488.21	10520.71
488.39	10640.08
488.57	10583.90
488.75	10745.40
488.92	11037.97
489.10	11105.84
489.28	10860.09
489.46	10874.13
489.64	10949.03
489.81	11353.94
489.99	11342.24
490.17	11407.77
490.35	11520.12
490.53	11398.41
490.70	11417.13
490.88	11541.18
491.06	11641.82
491.24	11934.39
491.41	11763.53
491.59	11955.46
491.77	11775.24
491.95	12180.15
492.13	12287.81
492.30	11885.24
492.48	12304.20
492.66	12210.57
492.84	12425.90
493.01	12638.89
493.19	12365.05
493.37	12657.62
493.54	12823.80
493.72	12610.81
493.90	12556.97
494.08	12952.52
494.25	13111.68
494.43	12875.29
494.61	13153.81
494.79	13252.11
494.96	13235.73
495.14	13511.91
495.32	13596.17
495.49	13689.79
495.67	13748.31
495.85	13769.37
496.02	13680.43
496.20	13837.25
496.38	13898.10
496.55	13818.52
496.73	14146.20
496.91	13820.86
497.09	14406.00
497.26	14286.63
497.44	14221.10
497.62	14480.89
497.79	14602.60
497.97	14284.29
498.14	14766.44
498.32	15007.52
498.50	14675.16
498.67	14820.27
498.85	14871.76
499.03	15103.48
499.20	15014.54
499.38	15140.93
499.56	15199.44
499.73	15169.01
499.91	15262.63
500.08	15613.71
500.26	15328.17
500.44	15274.34
500.61	15672.23
500.79	15517.75
500.97	15382.00
501.14	15908.62
501.32	15896.92
501.49	15667.55
501.67	15557.54
501.84	15917.98
502.02	15920.32
502.20	16025.65
502.37	16112.25
502.55	16095.86
502.72	15873.51
502.90	16332.26
503.07	15831.38
503.25	16248.00
503.43	16355.66
503.60	16243.32
503.78	16535.88
503.95	16613.12
504.13	16517.16
504.30	16638.87
504.48	16617.80
504.65	16847.18
504.83	16957.18
505.01	16769.94
505.18	16840.15
505.36	17174.85
505.53	16856.54
505.71	16917.39
505.88	17153.79
506.06	16886.97
506.23	17415.93
506.41	17216.98
506.58	17270.81
506.76	17212.30
506.93	17591.47
507.11	17446.35
507.28	17303.58
507.46	17579.76
507.63	17355.07
507.81	17776.37
507.98	17893.40
508.16	17965.95
508.33	17570.40
508.50	17947.23
508.68	17862.97
508.85	18029.15
509.03	17954.25
509.20	18059.57
509.38	18328.74
509.55	18302.99
509.73	18111.07
509.90	18349.80
510.08	18335.76
510.25	18265.54
510.42	18635.35
510.60	18579.17
510.77	18712.58
510.95	18808.54
511.12	18387.25
511.30	18586.19
511.47	18705.56
511.64	18607.26
511.82	19094.09
511.99	19012.17
512.17	19176.01
512.34	19122.18
512.51	19075.37
512.69	19386.66
512.86	19283.67
513.04	19080.05
513.21	19508.37
513.38	19627.73
513.56	19138.56
513.73	19421.77
513.90	19468.58
514.08	19403.04
514.25	19592.62
514.43	19576.24
514.60	19953.07
514.77	19840.72
514.95	19800.93
515.12	19704.97
515.29	19531.77
515.47	20042.01
515.64	20126.27
515.81	20224.57
515.99	20168.40
516.16	20313.51
516.33	20072.43
516.51	20290.10
516.68	20247.97
516.85	20166.06
517.03	20547.56
517.20	20367.34
517.37	20538.20
517.54	20545.22
517.72	20634.16
517.89	20580.33
518.06	20573.31
518.24	20503.09
518.41	20929.07
518.58	20713.74
518.75	20802.68
518.93	20931.41
519.10	21130.36
519.27	21149.08
519.45	20842.47
519.62	21095.25
519.79	20903.32
519.96	21099.93
520.14	21298.88
520.31	21390.16
520.48	21303.56
520.65	21254.40
520.83	21233.34
521.00	21261.43
521.17	21289.51
521.34	21429.94
521.52	21474.42
521.69	21371.43
521.86	21685.06
522.03	22022.10
522.20	21682.72
522.38	21923.80
522.55	21755.28
522.72	21521.23
522.89	22185.94
523.07	22281.90
523.24	22115.72
523.41	22340.41
523.58	22061.89
523.75	22471.48
523.92	21923.80
524.10	22214.02
524.27	22270.20
524.44	22195.30
524.61	22560.42
524.78	22424.67
524.96	22569.79
525.13	22576.81
525.30	22326.37
525.47	22319.35
525.64	22298.28
525.81	22607.23
525.98	22852.99
526.16	22860.01
526.33	22279.56
526.50	22527.66
526.67	22530.00
526.84	22630.64
527.01	22794.48
527.18	22775.75
527.36	22707.88
527.53	23175.98
527.70	23445.15
527.87	23281.31
528.04	23108.11
528.21	23342.16
528.38	23213.43
528.55	23445.15
528.72	23185.35
528.89	23594.94
529.07	23154.92
529.24	23384.29
529.41	23510.68
529.58	23349.18
529.75	23353.87
529.92	23412.38
530.09	23386.63
530.26	23356.21
530.43	23587.92
530.60	23403.02
530.77	23410.04
530.94	23784.52
531.11	23836.02
531.28	24004.53
531.46	23824.31
531.63	23934.32
531.80	23791.55
531.97	24013.90
532.14	23995.17
532.31	23562.17
532.48	24027.94
532.65	24374.34
532.82	23948.36
532.99	24215.18
533.16	23882.83
533.33	24332.21
533.50	24313.48
533.67	24362.64
533.84	24133.26
534.01	24196.46
534.18	24196.46
534.35	24432.85
534.52	24858.83
534.69	24662.22
534.86	24547.54
535.03	24456.26
535.20	24774.57
535.37	24613.07
535.54	24856.49
535.71	24369.66
535.88	24528.81
536.05	25039.05
536.22	25144.38
536.38	24748.82
536.55	25163.10
536.72	25039.05
536.89	24610.73
537.06	24816.70
537.23	24893.94
537.40	24849.47
537.57	24795.64
537.74	25219.27
537.91	25118.63
538.08	24982.88
538.25	25273.10
538.42	24907.98
538.59	25191.19
538.75	25329.28
538.92	25036.71
539.09	25343.32
539.26	25015.65
539.43	25560.99
539.60	25319.92
539.77	25282.47
539.94	25928.45
540.11	25081.18
540.28	25256.72
540.44	25565.67
540.61	25298.85
540.78	25806.75
540.95	25766.96
541.12	25647.59
541.29	25628.87
541.46	25465.03
541.62	25570.35
541.79	26047.82
541.96	25678.02
542.13	25827.81
542.30	25937.82
542.47	25865.26
542.63	25841.85
542.80	26111.02
542.97	26162.51
543.14	26277.19
543.31	26050.16
543.48	26412.95
543.64	26167.19
543.81	26508.91
543.98	26429.33
544.15	26345.07
544.32	26347.41
544.48	26845.94
544.65	26616.57
544.82	26593.17
544.99	26316.98
545.16	26375.50
545.32	26583.80
545.49	26618.91
545.66	26845.94
545.83	26352.09
546.00	26871.69
546.16	26621.25
546.33	26588.49
546.50	26490.18
546.67	26859.99
546.83	26443.37
547.00	26778.07
547.17	27026.17
547.34	26829.56
547.50	26962.97
547.67	26897.44
547.84	26764.03
548.00	27126.81
548.17	27241.50
548.34	27208.73
548.51	27000.42
548.67	27246.18
548.84	27260.22
549.01	27166.60
549.18	26911.48
549.34	27012.12
549.51	27587.89
549.68	27433.42
549.84	27335.12
550.01	27484.91
550.18	27250.86
550.34	27379.59
550.51	27557.47
550.68	27517.68
550.84	27445.12
551.01	27623.00
551.18	27398.31
551.34	27438.10
551.51	27627.68
551.68	27311.71
551.84	27606.62
552.01	27405.33
552.18	27723.65
552.34	27845.35
552.51	28077.07
552.68	27557.47
552.84	27824.29
553.01	27910.89
553.18	27630.02
553.34	27527.04
553.51	27791.52
553.67	27803.22
553.84	28311.12
554.01	28102.81
554.17	28013.87
554.34	27936.63
554.51	27936.63
554.67	28182.39
554.84	27974.08
555.00	28362.61
555.17	28189.41
555.33	28119.20
555.50	28334.53
555.67	27707.26
555.83	28126.22
556.00	28187.07
556.16	28631.77
556.33	28332.18
556.50	28280.69
556.66	28231.54
556.83	28402.40
556.99	28734.76
557.16	28264.31
557.32	28493.68
557.49	28140.26
557.65	28491.34
557.82	28128.56
557.98	28276.01
558.15	28236.22
558.32	28648.16
558.48	28271.33
558.65	28519.43
558.81	28517.09
558.98	28690.29
559.14	28603.69
559.31	28451.55
559.47	28521.77
559.64	28371.97
559.80	28772.21
559.97	28638.80
560.13	28690.29
560.30	28910.30
560.46	28811.99
560.63	28505.38
560.79	28809.65
560.96	28936.04
561.12	28421.13
561.29	28421.13
561.45	28774.55
561.61	28828.38
561.78	29036.69
561.94	29127.97
562.11	28985.19
562.27	29083.50
562.44	28741.78
562.60	28762.84
562.77	28610.71
562.93	28919.66
563.10	29408.83
563.26	28959.45
563.42	29060.09
563.59	29453.30
563.75	28819.02
563.92	28678.58
564.08	29003.92
564.24	28882.21
564.41	28741.78
564.57	28950.09
564.74	29362.02
564.90	29397.13
565.07	29214.57
565.23	28964.13
565.39	29032.00
565.56	29249.67
565.72	29127.97
565.88	29195.84
566.05	29102.22
566.21	28966.47
566.38	28940.72
566.54	29312.87
566.70	29252.02
566.87	29490.75
567.03	29092.86
567.19	29132.65
567.36	29244.99
567.52	29252.02
567.68	29455.64
567.85	29095.20
568.01	29013.28
568.17	29118.60
568.34	29413.51
568.50	29371.38
568.66	29420.53
568.83	29577.35
568.99	29408.83
569.15	29378.40
569.32	29310.53
569.48	29237.97
569.64	29490.75
569.81	29324.57
569.97	29446.28
570.13	29427.56
570.30	29326.91
570.46	29319.89
570.62	29366.70
570.78	29528.20
570.95	29226.27
571.11	29467.34
571.27	28987.53
571.43	29301.17
571.60	29546.92
571.76	29067.11
571.92	29479.05
572.09	29371.38
572.25	29549.26
572.41	29493.09
572.57	29607.78
572.74	29748.21
572.90	29401.81
573.06	29523.52
573.22	29818.42
573.38	29338.62
573.55	29570.33
573.71	29575.01
573.87	30569.74
574.03	29844.17
574.20	29795.02
574.36	29244.99
574.52	29811.40
574.68	29593.73
574.84	29956.52
575.01	29551.60
575.17	29596.07
575.33	29411.17
575.49	30225.68
575.65	29785.66
575.82	29996.31
575.98	29586.71
576.14	29734.17
576.30	29696.72
576.46	29649.91
576.62	29170.10
576.79	29998.65
576.95	29518.84
577.11	29591.39
577.27	29972.90
577.43	30010.35
577.59	29607.78
577.75	29666.29
577.92	29675.65
578.08	29610.12
578.24	29600.76
578.40	29703.74
578.56	29481.39
578.72	30012.69
578.88	30232.70
579.04	30066.52
579.21	30148.44
579.37	29649.91
579.53	29898.00
579.69	29764.59
579.85	29816.08
580.01	29844.17
580.17	29804.38
580.33	29537.56
580.49	29642.88
580.65	30169.51
580.82	29912.05
580.98	29818.42
581.14	30375.47
581.30	30040.78
581.46	29701.40
581.62	29720.12
581.78	29699.06
581.94	29668.63
582.10	29539.90
582.26	29694.38
582.42	29788.00
582.58	29635.86
582.74	29820.77
582.90	30031.41
583.06	30047.80
583.22	29755.23
583.38	29961.20
583.54	29624.16
583.70	30424.62
583.86	29881.62
584.02	29916.73
584.18	30129.72
584.34	30071.20
584.50	30162.48
584.66	29626.50
584.82	29792.68
584.98	30101.63
585.14	29773.95
585.30	29958.86
585.46	29813.74
585.62	29766.93
585.78	29996.31
585.94	29539.90
586.10	30015.03
586.26	30288.87
586.42	30218.66
586.58	30293.55
586.74	29780.98
586.90	29837.15
587.06	29699.06
587.22	29799.70
587.38	29785.66
587.54	29820.77
587.70	30162.48
587.86	30188.23
588.02	30504.20
588.18	30455.05
588.34	30300.58
588.49	30036.09
588.65	29977.58
588.81	30223.34
588.97	29722.46
589.13	29872.26
589.29	29790.34
589.45	30415.26
589.61	30169.51
589.77	30375.47
589.93	30316.96
590.08	30333.34
590.24	30562.72
590.40	30024.39
590.56	30459.73
590.72	30087.59
590.88	30298.23
591.04	30113.33
591.20	30209.29
591.35	30693.79
591.51	30249.08
591.67	30506.54
591.83	30073.54
591.99	30520.59
