SpectraSuite Data File
++++++++++++++++++++++++++++++++++++
Date: Fri Oct 18 13:58:27 GMT-05:00 2013
User: bianchi
Dark Spectrum Present: No
Reference Spectrum Present: No
Number of Sampled Component Spectra: 1
Spectrometers: USB2+H05261
Integration Time (usec): 50000 (USB2+H05261)
Spectra Averaged: 1 (USB2+H05261)
Boxcar Smoothing: 0 (USB2+H05261)
Correct for Electrical Dark: No (USB2+H05261)
Strobe/Lamp Enabled: No (USB2+H05261)
Correct for Detector Non-linearity: No (USB2+H05261)
Correct for Stray Light: No (USB2+H05261)
Number of Pixels in Processed Spectrum: 2048
>>>>>Begin Processed Spectral Data<<<<<
365.73	0.00
365.92	0.00
366.12	0.00
366.32	0.00
366.52	0.00
366.72	0.00
366.91	0.00
367.11	0.00
367.31	0.00
367.51	0.00
367.70	0.00
367.90	0.00
368.10	0.00
368.30	0.00
368.49	0.00
368.69	0.00
368.89	0.00
369.09	0.00
369.28	0.00
369.48	0.00
369.68	0.00
369.87	0.00
370.07	0.00
370.27	0.00
370.47	2.34
370.66	70.22
370.86	35.11
371.06	110.01
371.25	60.85
371.45	114.69
371.65	145.11
371.84	154.48
372.04	95.96
372.24	175.54
372.44	145.11
372.63	140.43
372.83	222.35
373.03	154.48
373.22	203.63
373.42	191.92
373.62	210.65
373.81	184.90
374.01	327.68
374.21	194.26
374.40	259.80
374.60	222.35
374.79	182.56
374.99	266.82
375.19	177.88
375.38	273.84
375.58	222.35
375.78	222.35
375.97	269.16
376.17	234.05
376.37	248.10
376.56	212.99
376.76	259.80
376.95	292.57
377.15	290.23
377.35	208.31
377.54	313.63
377.74	306.61
377.93	315.97
378.13	205.97
378.33	351.08
378.52	278.52
378.72	266.82
378.91	341.72
379.11	229.37
379.31	318.31
379.50	280.86
379.70	320.65
379.89	266.82
380.09	308.95
380.28	353.42
380.48	386.19
380.68	273.84
380.87	297.25
381.07	250.44
381.26	287.89
381.46	271.50
381.65	276.18
381.85	269.16
382.04	276.18
382.24	301.93
382.43	306.61
382.63	376.83
382.83	341.72
383.02	313.63
383.22	292.57
383.41	332.36
383.61	355.76
383.80	379.17
384.00	395.55
384.19	369.80
384.39	456.40
384.58	416.62
384.78	327.68
384.97	278.52
385.17	400.23
385.36	322.99
385.56	393.21
385.75	306.61
385.95	344.06
386.14	400.23
386.34	418.96
386.53	355.76
386.72	435.34
386.92	372.15
387.11	463.43
387.31	416.62
387.50	456.40
387.70	379.17
387.89	442.36
388.09	374.49
388.28	528.96
388.48	451.72
388.67	386.19
388.86	447.04
389.06	486.83
389.25	454.06
389.45	477.47
389.64	503.22
389.84	409.59
390.03	428.32
390.22	489.17
390.42	510.24
390.61	367.46
390.81	496.19
391.00	468.11
391.19	423.64
391.39	496.19
391.58	470.45
391.78	568.75
391.97	575.77
392.16	524.28
392.36	475.13
392.55	587.47
392.75	461.09
392.94	514.92
393.13	543.00
393.33	650.67
393.52	533.64
393.71	566.41
393.91	559.39
394.10	571.09
394.29	655.35
394.49	603.86
394.68	589.82
394.88	566.41
395.07	543.00
395.26	629.60
395.46	561.73
395.65	580.45
395.84	557.05
396.04	641.31
396.23	653.01
396.42	634.29
396.62	603.86
396.81	695.14
397.00	624.92
397.19	582.79
397.39	716.20
397.58	734.93
397.77	683.44
397.97	657.69
398.16	814.51
398.35	741.95
398.55	685.78
398.74	580.45
398.93	699.82
399.12	723.23
399.32	727.91
399.51	676.41
399.70	767.70
399.90	685.78
400.09	662.37
400.28	751.31
400.47	716.20
400.67	760.67
400.86	758.33
401.05	851.96
401.24	767.70
401.44	732.59
401.63	748.97
401.82	819.19
402.01	837.91
402.21	814.51
402.40	858.98
402.59	730.25
402.78	840.25
402.97	847.27
403.17	770.04
403.36	903.45
403.55	814.51
403.74	903.45
403.93	856.64
404.13	924.51
404.32	891.74
404.51	940.90
404.70	894.08
404.89	952.60
405.09	1032.18
405.28	861.32
405.47	835.57
405.66	889.40
405.85	957.28
406.05	966.64
406.24	971.32
406.43	961.96
406.62	943.24
406.81	968.98
407.00	1025.15
407.20	957.28
407.39	968.98
407.58	971.32
407.77	1029.84
407.96	1018.13
408.15	1046.22
408.34	938.55
408.54	1132.82
408.73	1142.18
408.92	1121.12
409.11	1102.39
409.30	1158.57
409.49	1125.80
409.68	1144.52
409.87	1130.48
410.07	1177.29
410.26	1217.08
410.45	1177.29
410.64	1160.91
410.83	1196.01
411.02	1219.42
411.21	1310.70
411.40	1188.99
411.59	1294.32
411.78	1266.23
411.98	1240.48
412.17	1291.98
412.36	1226.44
412.55	1334.11
412.74	1282.61
412.93	1315.38
413.12	1308.36
413.31	1362.19
413.50	1294.32
413.69	1401.98
413.88	1364.53
414.07	1320.06
414.26	1465.18
414.45	1366.87
414.64	1392.62
414.83	1540.07
415.02	1472.20
415.22	1577.52
415.41	1497.94
415.60	1621.99
415.79	1483.90
415.98	1685.19
416.17	1605.61
416.36	1631.35
416.55	1633.69
416.74	1636.03
416.93	1666.46
417.12	1591.56
417.31	1626.67
417.50	1687.53
417.69	1783.49
417.88	1750.72
418.07	1675.82
418.26	1804.55
418.45	1748.38
418.64	1856.04
418.83	1830.30
419.02	1750.72
419.21	1783.49
419.39	1710.93
419.58	1710.93
419.77	1699.23
419.96	1930.94
420.15	1884.13
420.34	1842.00
420.53	1774.13
420.72	1844.34
420.91	1877.11
421.10	1916.90
421.29	1942.64
421.48	1844.34
421.67	2076.06
421.86	1905.20
422.05	1942.64
422.24	1900.52
422.43	1940.30
422.61	2005.84
422.80	1966.05
422.99	2038.61
423.18	2120.53
423.37	1949.67
423.56	1949.67
423.75	2001.16
423.94	1893.49
424.13	1830.30
424.32	1954.35
424.50	1930.94
424.69	2029.24
424.88	2118.18
425.07	2022.22
425.26	1977.75
425.45	1949.67
425.64	1991.80
425.83	2064.35
426.01	1935.62
426.20	2085.42
426.39	1998.82
426.58	2026.90
426.77	2113.50
426.96	2071.37
427.15	2155.63
427.33	2094.78
427.52	2148.61
427.71	2101.80
427.90	2186.06
428.09	2176.70
428.28	2155.63
428.46	2197.76
428.65	2303.09
428.84	2211.81
429.03	2293.72
429.22	2216.49
429.40	2195.42
429.59	2225.85
429.78	2188.40
429.97	2073.71
430.16	2076.06
430.34	2427.14
430.53	2331.17
430.72	2356.92
430.91	2256.28
431.10	2188.40
431.28	2328.83
431.47	2349.90
431.66	2359.26
431.85	2218.83
432.03	2434.16
432.22	2497.35
432.41	2408.41
432.60	2532.46
432.79	2443.52
432.97	2471.61
433.16	2436.50
433.35	2401.39
433.54	2558.21
433.72	2574.59
433.91	2595.65
434.10	2502.03
434.28	2567.57
434.47	2478.63
434.66	2506.71
434.85	2579.27
435.03	2546.50
435.22	2579.27
435.41	2700.98
435.59	2665.87
435.78	2635.44
435.97	2555.86
436.16	2628.42
436.34	2754.81
436.53	2658.85
436.72	2623.74
436.90	2689.28
437.09	2712.68
437.28	2619.06
437.46	2724.38
437.65	2651.83
437.84	2743.11
438.02	2761.83
438.21	2696.30
438.40	2801.62
438.58	2820.35
438.77	2745.45
438.96	2855.45
439.14	3005.25
439.33	2986.52
439.52	2991.20
439.70	2958.44
439.89	2892.90
440.08	2998.23
440.26	3016.95
440.45	3063.76
440.63	3194.83
440.82	3030.99
441.01	3014.61
441.19	3129.30
441.38	3180.79
441.57	3185.47
441.75	3206.53
441.94	3302.50
442.12	3236.96
442.31	3276.75
442.50	3307.18
442.68	3239.30
442.87	3295.47
443.05	3370.37
443.24	3307.18
443.43	3332.92
443.61	3463.99
443.80	3447.61
443.98	3302.50
444.17	3227.60
444.35	3279.09
444.54	3454.63
444.73	3454.63
444.91	3442.93
445.10	3410.16
445.28	3417.18
445.47	3358.67
445.65	3583.36
445.84	3419.52
446.02	3426.54
446.21	3417.18
446.39	3445.27
446.58	3449.95
446.77	3480.38
446.95	3440.59
447.14	3414.84
447.32	3459.31
447.51	3412.50
447.69	3435.91
447.88	3581.02
448.06	3398.46
448.25	3433.57
448.43	3463.99
448.62	3588.04
448.80	3438.25
448.99	3585.70
449.17	3613.79
449.36	3646.55
449.54	3662.94
449.73	3669.96
449.91	3779.97
450.10	3651.24
450.28	3744.86
450.46	3822.09
450.65	3583.36
450.83	3712.09
451.02	3627.83
451.20	3810.39
451.39	3782.31
451.57	3761.24
451.76	3679.32
451.94	3871.25
452.13	3887.63
452.31	3964.87
452.49	3721.45
452.68	3873.59
452.86	3836.14
453.05	3845.50
453.23	3885.29
453.42	3779.97
453.60	3845.50
453.78	3892.31
453.97	3885.29
454.15	3857.20
454.34	3786.99
454.52	4016.36
454.70	4028.06
454.89	4023.38
455.07	4074.87
455.26	3988.27
455.44	3995.29
455.62	4067.85
455.81	4102.96
455.99	4168.49
456.17	4180.20
456.36	3957.85
456.54	4245.73
456.73	4252.75
456.91	4250.41
457.09	4154.45
457.28	4329.99
457.46	4327.65
457.64	4184.88
457.83	4355.74
458.01	4140.41
458.19	4435.32
458.38	4205.94
458.56	4374.46
458.74	4259.78
458.93	4315.95
459.11	4503.19
459.29	4372.12
459.48	4468.08
459.66	4542.98
459.84	4507.87
460.03	4716.18
460.21	4442.34
460.39	4554.68
460.57	4334.67
460.76	4521.92
460.94	4514.89
461.12	4599.15
461.31	4603.83
461.49	4622.56
461.67	4678.73
461.85	4718.52
462.04	4760.65
462.22	4713.84
462.40	4645.96
462.59	4758.31
462.77	4751.29
462.95	4772.35
463.13	4765.33
463.32	4561.70
463.50	4730.22
463.68	4858.95
463.86	4837.89
464.05	4798.10
464.23	4641.28
464.41	4821.50
464.59	4723.20
464.78	4889.38
464.96	4994.70
465.14	4816.82
465.32	5013.43
465.50	4997.04
465.69	5064.92
465.87	4842.57
466.05	4938.53
466.23	5025.13
466.41	5048.54
466.60	5181.95
466.78	5008.75
466.96	4994.70
467.14	4978.32
467.32	5043.85
467.51	5144.50
467.69	5090.67
467.87	5050.88
468.05	5266.21
468.23	5069.60
468.41	5156.20
468.60	5214.71
468.78	5109.39
468.96	5167.90
469.14	5338.76
469.32	5376.21
469.50	5198.33
469.69	5434.72
469.87	5373.87
470.05	5481.53
470.23	5408.98
470.41	5430.04
470.59	5474.51
470.77	5401.96
470.95	5542.39
471.14	5430.04
471.32	5245.14
471.50	5640.69
471.68	5547.07
471.86	5568.13
472.04	5593.88
472.22	5692.18
472.40	5593.88
472.58	5682.82
472.77	5776.44
472.95	5692.18
473.13	6073.69
473.31	5767.08
473.49	5689.84
473.67	5790.49
473.85	5741.33
474.03	5879.43
474.21	5926.24
474.39	6092.41
474.57	6099.44
474.75	6076.03
474.93	6076.03
475.12	5944.96
475.30	6197.74
475.48	6127.52
475.66	6293.70
475.84	6190.72
476.02	6225.82
476.20	6092.41
476.38	6291.36
476.56	6616.69
476.74	6434.13
476.92	6576.91
477.10	6413.07
477.28	6586.27
477.46	6651.80
477.64	6668.19
477.82	6722.02
478.00	6864.79
478.18	6867.13
478.36	6862.45
478.54	6981.82
478.72	7129.27
478.90	7047.35
479.08	6991.18
479.26	7208.85
479.44	7316.51
479.62	7281.41
479.80	7506.10
479.98	7316.51
480.16	7597.38
480.34	7424.18
480.52	7665.25
480.70	7595.04
480.88	7613.76
481.06	7749.51
481.24	7667.60
481.41	7679.30
481.59	7906.33
481.77	7864.20
481.95	7964.84
482.13	8074.85
482.31	7941.44
482.49	8294.86
482.67	8121.66
482.85	8322.94
483.03	8477.42
483.21	8482.10
483.39	8517.21
483.57	8549.98
483.74	8641.26
483.92	8564.02
484.10	8751.26
484.28	8924.46
484.46	8875.31
484.64	9146.81
484.82	8870.63
485.00	8943.19
485.18	9233.41
485.35	9488.53
485.53	9224.05
485.71	9322.35
485.89	9561.09
486.07	9469.81
486.25	9373.85
486.43	9511.94
486.61	9750.67
486.78	9722.59
486.96	9804.50
487.14	9949.62
487.32	9984.73
487.50	10162.61
487.68	10317.08
487.85	10270.27
488.03	10263.25
488.21	10562.84
488.39	10464.54
488.57	10464.54
488.75	10623.69
488.92	10846.04
489.10	10998.18
489.28	10878.81
489.46	11232.23
489.64	11180.74
489.81	11274.36
489.99	11112.86
490.17	11386.71
490.35	11564.59
490.53	11571.61
490.70	11279.04
490.88	11527.14
491.06	11683.95
491.24	11611.40
491.41	11875.88
491.59	11920.35
491.77	11639.48
491.95	11971.84
492.13	11892.26
492.30	12126.32
492.48	12210.57
492.66	12264.41
492.84	12276.11
493.01	12400.16
493.19	12582.72
493.37	12727.83
493.54	12844.86
493.72	12716.13
493.90	12812.09
494.08	12959.55
494.25	13092.96
494.43	13195.94
494.61	13177.22
494.79	13146.79
494.96	13123.38
495.14	13556.38
495.32	13355.10
495.49	13540.00
495.67	13516.59
495.85	13682.77
496.02	13717.88
496.20	13757.67
496.38	14001.08
496.55	13916.83
496.73	14101.73
496.91	14052.58
497.09	14239.82
497.26	14277.27
497.44	14174.28
497.62	14012.79
497.79	14387.27
497.97	14415.36
498.14	14623.67
498.32	14651.75
498.50	14750.06
498.67	14829.63
498.85	14738.35
499.03	14895.17
499.20	14951.34
499.38	15194.76
499.56	14951.34
499.73	15070.71
499.91	15440.51
500.08	15208.80
500.26	15360.94
500.44	15477.96
500.61	15332.85
500.79	15211.14
500.97	15377.32
501.14	15576.27
501.32	15662.86
501.49	15929.69
501.67	15475.62
501.84	15489.67
502.02	15669.89
502.20	16081.82
502.37	15707.34
502.55	16264.38
502.72	15950.75
502.90	15929.69
503.07	15889.90
503.25	16013.95
503.43	16353.32
503.60	16437.58
503.78	16535.88
503.95	16306.51
504.13	16421.20
504.30	16212.89
504.48	16444.60
504.65	16599.08
504.83	16858.88
505.01	17053.14
505.18	16634.19
505.36	17221.66
505.53	16713.77
505.71	16879.94
505.88	16905.69
506.06	16758.24
506.23	16971.22
506.41	17224.00
506.58	17186.55
506.76	17280.18
506.93	17275.49
507.11	17249.75
507.28	17399.54
507.46	17273.15
507.63	17254.43
507.81	17790.41
507.98	17415.93
508.16	17804.46
508.33	17781.05
508.50	17855.95
508.68	17907.44
508.85	18043.19
509.03	18221.07
509.20	17949.57
509.38	18118.09
509.55	17933.18
509.73	18120.43
509.90	18183.62
510.08	18010.42
510.25	18209.37
510.42	18520.66
510.60	18417.68
510.77	18427.04
510.95	18448.10
511.12	18642.37
511.30	18548.75
511.47	18855.36
511.64	18773.44
511.82	19040.26
511.99	19012.17
512.17	18897.49
512.34	18675.13
512.51	19290.70
512.69	19105.79
512.86	18977.06
513.04	18693.86
513.21	19293.04
513.38	19264.95
513.56	19171.33
513.73	19676.88
513.90	19091.75
514.08	19150.26
514.25	19662.84
514.43	19360.91
514.60	19831.36
514.77	19644.12
514.95	19756.46
515.12	19459.21
515.29	19501.34
515.47	19939.02
515.64	19962.43
515.81	20004.56
515.99	19899.23
516.16	20252.66
516.33	19992.86
516.51	20266.70
516.68	20166.06
516.85	20025.62
517.03	20196.48
517.20	20475.01
517.37	20074.77
517.54	20369.68
517.72	20294.79
517.89	20264.36
518.06	20383.73
518.24	20587.35
518.41	20365.00
518.58	20826.09
518.75	20678.63
518.93	20690.34
519.10	20940.77
519.27	20917.37
519.45	20919.71
519.62	20671.61
519.79	20982.90
519.96	20662.25
520.14	21085.89
520.31	20758.21
520.48	21179.51
520.65	21053.12
520.83	21252.06
521.00	21074.18
521.17	21259.09
521.34	21247.38
521.52	21329.30
521.69	21661.66
521.86	21242.70
522.03	21685.06
522.20	21352.71
522.38	21731.87
522.55	21462.71
522.72	21874.65
522.89	21940.18
523.07	22031.46
523.24	21839.54
523.41	21994.01
523.58	22085.30
523.75	22001.04
523.92	21837.20
524.10	22075.93
524.27	22171.89
524.44	22253.81
524.61	22073.59
524.78	22333.39
524.96	22691.49
525.13	22169.55
525.30	22831.93
525.47	22277.22
525.64	22494.89
525.81	22799.16
525.98	22625.96
526.16	22583.83
526.33	22258.49
526.50	22534.68
526.67	22338.07
526.84	22836.61
527.01	22644.68
527.18	22831.93
527.36	22684.47
527.53	23033.21
527.70	23239.18
527.87	23065.98
528.04	22944.27
528.21	22775.75
528.38	22888.10
528.55	23360.89
528.72	22806.18
528.89	23204.07
529.07	23285.99
529.24	23105.77
529.41	23358.55
529.58	23328.12
529.75	23271.95
529.92	23489.62
530.09	23356.21
530.26	23639.41
530.43	23466.21
530.60	23716.65
530.77	23733.03
530.94	23660.48
531.11	23578.56
531.28	23494.30
531.46	23597.28
531.63	23784.52
531.80	23747.08
531.97	23744.73
532.14	24114.54
532.31	23468.55
532.48	23747.08
532.65	23941.34
532.82	24041.98
532.99	23627.71
533.16	24177.73
533.33	24032.62
533.50	24004.53
533.67	24552.22
533.84	23929.64
534.01	24067.73
534.18	23908.57
534.35	24357.96
534.52	24161.35
534.69	24664.57
534.86	24732.44
535.03	24512.43
535.20	24205.82
535.37	24582.65
535.54	24624.78
535.71	24449.24
535.88	24584.99
536.05	24559.24
536.22	24575.62
536.38	24847.13
536.55	24765.21
536.72	24758.19
536.89	24704.35
537.06	24643.50
537.23	24709.04
537.40	24498.39
537.57	24980.54
537.74	24826.06
537.91	25516.52
538.08	25076.50
538.25	24929.05
538.42	25099.90
538.59	25371.41
538.75	25078.84
538.92	25212.25
539.09	25303.53
539.26	25085.86
539.43	25357.36
539.60	25305.87
539.77	25390.13
539.94	25331.62
540.11	25500.14
540.28	25256.72
540.44	25415.88
540.61	25247.36
540.78	25439.28
540.95	25603.12
541.12	25488.43
541.29	25509.50
541.46	25359.70
541.62	25298.85
541.79	25750.57
541.96	25270.76
542.13	25558.65
542.30	26015.05
542.47	26029.10
542.63	26242.09
542.80	25916.75
542.97	25986.97
543.14	26008.03
543.31	25764.62
543.48	25982.29
543.64	26693.81
543.81	26286.56
543.98	26340.39
544.15	26141.44
544.32	26256.13
544.48	26536.99
544.65	26258.47
544.82	26111.02
544.99	26164.85
545.16	26616.57
545.32	26583.80
545.49	27117.45
545.66	26588.49
545.83	26572.10
546.00	26391.88
546.16	26733.60
546.33	26408.26
546.50	26553.38
546.67	26466.78
546.83	26419.97
547.00	26625.93
547.17	26136.76
547.34	27101.06
547.50	26581.46
547.67	26829.56
547.84	26902.12
548.00	26595.51
548.17	26747.64
548.34	26771.05
548.51	27140.85
548.67	26878.71
548.84	26930.20
549.01	26778.07
549.18	26625.93
549.34	27061.27
549.51	27213.41
549.68	27096.38
549.84	26906.80
550.01	27337.46
550.18	27042.55
550.34	27360.86
550.51	27300.01
550.68	27587.89
550.84	27037.87
551.01	27459.16
551.18	27028.51
551.34	27754.07
551.51	27466.19
551.68	27433.42
551.84	27316.39
552.01	27761.09
552.18	27707.26
552.34	27330.44
552.51	27632.36
552.68	27152.55
552.84	27377.25
553.01	27431.08
553.18	27576.19
553.34	27630.02
553.51	27618.32
553.67	27885.14
553.84	27763.43
554.01	28240.90
554.17	27536.40
554.34	27520.02
554.51	27693.22
554.67	27887.48
554.84	27784.50
555.00	27800.88
555.17	27604.28
555.33	28002.17
555.50	27550.45
555.67	27688.54
555.83	27791.52
556.00	27852.38
556.16	28294.74
556.33	28130.90
556.50	28119.20
556.66	28039.62
556.83	28018.55
556.99	28039.62
557.16	28039.62
557.32	28070.04
557.49	27978.76
557.65	28205.80
557.82	28252.61
557.98	28432.83
558.15	28079.41
558.32	28430.49
558.48	28575.60
558.65	28231.54
558.81	28245.58
558.98	28634.11
559.14	28404.74
559.31	28032.60
559.47	28437.51
559.64	28332.18
559.80	28449.21
559.97	28400.06
560.13	28077.07
560.30	28407.08
560.46	28287.71
560.63	28348.57
560.79	28425.81
560.96	28437.51
561.12	28404.74
561.29	28187.07
561.45	28556.88
561.61	28629.43
561.78	28198.77
561.94	28622.41
562.11	28823.70
562.27	28751.14
562.44	29003.92
562.60	28458.57
562.77	28570.92
562.93	28355.59
563.10	28943.06
563.26	28723.05
563.42	28533.47
563.59	28975.83
563.75	28629.43
563.92	28788.59
564.08	28765.18
564.24	28889.23
564.41	28723.05
564.57	28868.17
564.74	28833.06
564.90	28868.17
565.07	28865.83
565.23	28996.90
565.39	29142.01
565.56	29181.80
565.72	28971.15
565.88	29050.73
566.05	28489.00
566.21	28491.34
566.38	28816.68
566.54	29111.58
566.70	29200.52
566.87	29296.49
567.03	29177.12
567.19	29462.66
567.36	28989.88
567.52	28975.83
567.68	29287.12
567.85	28978.17
568.01	29441.60
568.17	28687.95
568.34	29214.57
568.50	29034.35
568.66	29254.36
568.83	28961.79
568.99	29516.50
569.15	29074.13
569.32	28865.83
569.48	28875.19
569.64	29200.52
569.81	29216.91
569.97	29118.60
570.13	29158.39
570.30	29387.77
570.46	29050.73
570.62	29104.56
570.78	28868.17
570.95	29153.71
571.11	29308.19
571.27	28879.87
571.43	28858.81
571.60	29465.00
571.76	29408.83
571.92	29181.80
572.09	29109.24
572.25	29509.47
572.41	29067.11
572.57	29153.71
572.74	29230.95
572.90	29006.26
573.06	29355.00
573.22	29015.62
573.38	29350.32
573.55	29486.07
573.71	29277.76
573.87	29591.39
574.03	29233.29
574.20	29450.96
574.36	29113.92
574.52	29371.38
574.68	28973.49
574.84	29378.40
575.01	29371.38
575.17	29661.61
575.33	29420.53
575.49	29502.45
575.65	29415.85
575.82	29455.64
575.98	29343.30
576.14	29497.77
576.30	29633.52
576.46	29116.26
576.62	29046.05
576.79	29453.30
576.95	29013.28
577.11	29497.77
577.27	29511.81
577.43	29577.35
577.59	29488.41
577.75	29575.01
577.92	29699.06
578.08	29331.59
578.24	29523.52
578.40	29874.60
578.56	29310.53
578.72	29621.82
578.88	29923.75
579.04	29759.91
579.21	29755.23
579.37	29560.97
579.53	29355.00
579.69	29446.28
579.85	29575.01
580.01	29596.07
580.17	29497.77
580.33	29509.47
580.49	29345.64
580.65	29436.92
580.82	29591.39
580.98	29961.20
581.14	29661.61
581.30	29755.23
581.46	29338.62
581.62	29237.97
581.78	29586.71
581.94	29694.38
582.10	29652.25
582.26	29523.52
582.42	29607.78
582.58	29792.68
582.74	29605.44
582.90	29851.19
583.06	29762.25
583.22	29846.51
583.38	29600.76
583.54	29563.31
583.70	29450.96
583.86	29640.54
584.02	29415.85
584.18	30122.69
584.34	29989.28
584.50	29841.83
584.66	29748.21
584.82	29610.12
584.98	29670.97
585.14	29586.71
585.30	29275.42
585.46	29813.74
585.62	29460.32
585.78	29659.27
585.94	29500.11
586.10	29764.59
586.26	29469.69
586.42	30075.88
586.58	29846.51
586.74	29696.72
586.90	29399.47
587.06	29696.72
587.22	29493.09
587.38	29221.59
587.54	29865.24
587.70	30087.59
587.86	29343.30
588.02	29802.04
588.18	29972.90
588.34	29481.39
588.49	29893.32
588.65	29869.92
588.81	29582.03
588.97	29565.65
589.13	29956.52
589.29	29743.53
589.45	29750.55
589.61	29670.97
589.77	29689.70
589.93	30174.19
590.08	30071.20
590.24	29912.05
590.40	30518.25
590.56	29710.76
590.72	29556.28
590.88	29656.93
591.04	29862.90
591.20	30375.47
591.35	30267.81
591.51	30204.61
591.67	30403.56
591.83	30298.23
591.99	30160.14
