SpectraSuite Data File
++++++++++++++++++++++++++++++++++++
Date: Fri Oct 18 13:58:00 GMT-05:00 2013
User: bianchi
Dark Spectrum Present: No
Reference Spectrum Present: No
Number of Sampled Component Spectra: 1
Spectrometers: USB2+H05261
Integration Time (usec): 50000 (USB2+H05261)
Spectra Averaged: 1 (USB2+H05261)
Boxcar Smoothing: 0 (USB2+H05261)
Correct for Electrical Dark: No (USB2+H05261)
Strobe/Lamp Enabled: No (USB2+H05261)
Correct for Detector Non-linearity: No (USB2+H05261)
Correct for Stray Light: No (USB2+H05261)
Number of Pixels in Processed Spectrum: 2048
>>>>>Begin Processed Spectral Data<<<<<
365.73	0.00
365.92	0.00
366.12	0.00
366.32	0.00
366.52	0.00
366.72	0.00
366.91	0.00
367.11	0.00
367.31	0.00
367.51	0.00
367.70	0.00
367.90	0.00
368.10	0.00
368.30	0.00
368.49	0.00
368.69	0.00
368.89	0.00
369.09	0.00
369.28	0.00
369.48	0.00
369.68	0.00
369.87	0.00
370.07	0.00
370.27	0.00
370.47	0.00
370.66	72.56
370.86	102.98
371.06	184.90
371.25	105.32
371.45	135.75
371.65	203.63
371.84	194.26
372.04	142.77
372.24	131.07
372.44	170.86
372.63	177.88
372.83	231.71
373.03	175.54
373.22	198.95
373.42	205.97
373.62	182.56
373.81	166.18
374.01	189.58
374.21	220.01
374.40	196.60
374.60	161.50
374.79	224.69
374.99	215.33
375.19	227.03
375.38	252.78
375.58	259.80
375.78	292.57
375.97	255.12
376.17	337.04
376.37	236.39
376.56	255.12
376.76	189.58
376.95	280.86
377.15	308.95
377.35	294.91
377.54	266.82
377.74	308.95
377.93	215.33
378.13	280.86
378.33	290.23
378.52	362.78
378.72	294.91
378.91	236.39
379.11	245.76
379.31	294.91
379.50	203.63
379.70	259.80
379.89	285.55
380.09	266.82
380.28	339.38
380.48	304.27
380.68	318.31
380.87	304.27
381.07	327.68
381.26	430.66
381.46	283.20
381.65	313.63
381.85	294.91
382.04	360.44
382.24	379.17
382.43	315.97
382.63	360.44
382.83	351.08
383.02	486.83
383.22	411.93
383.41	372.15
383.61	297.25
383.80	348.74
384.00	423.64
384.19	325.33
384.39	428.32
384.58	362.78
384.78	404.91
384.97	337.04
385.17	306.61
385.36	306.61
385.56	360.44
385.75	315.97
385.95	388.53
386.14	444.70
386.34	423.64
386.53	376.83
386.72	400.23
386.92	414.27
387.11	353.42
387.31	404.91
387.50	433.00
387.70	407.25
387.89	393.21
388.09	442.36
388.28	388.53
388.48	437.68
388.67	531.30
388.86	449.38
389.06	430.66
389.25	404.91
389.45	416.62
389.64	500.87
389.84	475.13
390.03	411.93
390.22	409.59
390.42	470.45
390.61	390.87
390.81	442.36
391.00	510.24
391.19	475.13
391.39	531.30
391.58	463.43
391.78	507.90
391.97	517.26
392.16	535.98
392.36	498.53
392.55	524.28
392.75	608.54
392.94	479.81
393.13	566.41
393.33	566.41
393.52	603.86
393.71	599.18
393.91	559.39
394.10	617.90
394.29	582.79
394.49	528.96
394.68	585.13
394.88	557.05
395.07	573.43
395.26	557.05
395.46	638.97
395.65	683.44
395.84	641.31
396.04	671.73
396.23	655.35
396.42	594.50
396.62	688.12
396.81	645.99
397.00	655.35
397.19	667.05
397.39	601.52
397.58	671.73
397.77	657.69
397.97	690.46
398.16	777.06
398.35	622.58
398.55	716.20
398.74	732.59
398.93	755.99
399.12	653.01
399.32	648.33
399.51	650.67
399.70	741.95
399.90	795.78
400.09	690.46
400.28	753.65
400.47	758.33
400.67	793.44
400.86	791.10
401.05	737.27
401.24	795.78
401.44	767.70
401.63	791.10
401.82	800.46
402.01	889.40
402.21	798.12
402.40	889.40
402.59	858.98
402.78	823.87
402.97	798.12
403.17	868.34
403.36	908.13
403.55	924.51
403.74	915.15
403.93	910.47
404.13	908.13
404.32	884.72
404.51	849.61
404.70	926.85
404.89	868.34
405.09	933.87
405.28	968.98
405.47	938.55
405.66	957.28
405.85	1027.50
406.05	957.28
406.24	1004.09
406.43	973.66
406.62	1067.28
406.81	968.98
407.00	980.68
407.20	980.68
407.39	990.05
407.58	1013.45
407.77	999.41
407.96	997.07
408.15	1083.67
408.34	1064.94
408.54	1160.91
408.73	1027.50
408.92	1074.31
409.11	1205.38
409.30	1135.16
409.49	1078.99
409.68	1139.84
409.87	1093.03
410.07	1231.12
410.26	1191.33
410.45	1163.25
410.64	1177.29
410.83	1219.42
411.02	1163.25
411.21	1207.72
411.40	1301.34
411.59	1238.14
411.78	1289.64
411.98	1313.04
412.17	1249.85
412.36	1320.06
412.55	1320.06
412.74	1308.36
412.93	1373.89
413.12	1263.89
413.31	1378.58
413.50	1331.76
413.69	1385.60
413.88	1488.58
414.07	1303.68
414.26	1383.26
414.45	1425.39
414.64	1420.71
414.83	1434.75
415.02	1495.60
415.22	1514.33
415.41	1638.38
415.60	1633.69
415.79	1481.56
415.98	1607.95
416.17	1582.20
416.36	1591.56
416.55	1568.16
416.74	1614.97
416.93	1706.25
417.12	1621.99
417.31	1769.44
417.50	1673.48
417.69	1764.76
417.88	1743.70
418.07	1710.93
418.26	1722.63
418.45	1743.70
418.64	1722.63
418.83	1792.85
419.02	1816.26
419.21	1823.28
419.39	1778.81
419.58	1696.89
419.77	1825.62
419.96	1804.55
420.15	1968.39
420.34	1914.56
420.53	1900.52
420.72	1877.11
420.91	1898.17
421.10	1849.02
421.29	1949.67
421.48	1844.34
421.67	1891.15
421.86	1846.68
422.05	1926.26
422.24	1902.86
422.43	1870.09
422.61	1947.33
422.80	1984.77
422.99	1998.82
423.18	2047.97
423.37	2012.86
423.56	2134.57
423.75	1980.09
423.94	1940.30
424.13	1837.32
424.32	1891.15
424.50	2022.22
424.69	2101.80
424.88	2062.01
425.07	1942.64
425.26	1977.75
425.45	1933.28
425.64	2064.35
425.83	1907.54
426.01	2085.42
426.20	2097.12
426.39	2134.57
426.58	2080.74
426.77	2097.12
426.96	2045.63
427.15	2197.76
427.33	2174.36
427.52	1952.01
427.71	2256.28
427.90	2165.00
428.09	2160.31
428.28	2031.58
428.46	2125.21
428.65	2174.36
428.84	2172.02
429.03	2160.31
429.22	2183.72
429.40	2225.85
429.59	2258.62
429.78	2153.29
429.97	2115.84
430.16	2289.04
430.34	2389.69
430.53	2186.06
430.72	2282.02
430.91	2324.15
431.10	2246.91
431.28	2314.79
431.47	2537.14
431.66	2422.45
431.85	2300.75
432.03	2375.64
432.22	2523.10
432.41	2387.35
432.60	2392.03
432.79	2408.41
432.97	2509.05
433.16	2459.90
433.35	2389.69
433.54	2422.45
433.72	2504.37
433.91	2293.72
434.10	2546.50
434.28	2499.69
434.47	2431.82
434.66	2506.71
434.85	2583.95
435.03	2478.63
435.22	2567.57
435.41	2661.19
435.59	2609.70
435.78	2579.27
435.97	2670.55
436.16	2593.31
436.34	2621.40
436.53	2637.78
436.72	2679.91
436.90	2626.08
437.09	2682.25
437.28	2686.94
437.46	2654.17
437.65	2810.98
437.84	2787.58
438.02	2752.47
438.21	2789.92
438.40	2747.79
438.58	2825.03
438.77	2796.94
438.96	2782.90
439.14	2949.08
439.33	2925.67
439.52	2977.16
439.70	3014.61
439.89	3075.46
440.08	3016.95
440.26	3016.95
440.45	3047.38
440.63	3082.49
440.82	3115.25
441.01	3042.70
441.19	3155.04
441.38	3124.62
441.57	3232.28
441.75	3124.62
441.94	3251.00
442.12	3232.28
442.31	3197.17
442.50	3363.35
442.68	3225.26
442.87	3447.61
443.05	3311.86
443.24	3276.75
443.43	3332.92
443.61	3321.22
443.80	3400.80
443.98	3192.49
444.17	3356.33
444.35	3356.33
444.54	3545.91
444.73	3566.98
444.91	3618.47
445.10	3414.84
445.28	3414.84
445.47	3346.97
445.65	3473.36
445.84	3515.48
446.02	3506.12
446.21	3473.36
446.39	3356.33
446.58	3438.25
446.77	3480.38
446.95	3342.28
447.14	3489.74
447.32	3431.23
447.51	3566.98
447.69	3604.42
447.88	3524.85
448.06	3499.10
448.25	3536.55
448.43	3398.46
448.62	3499.10
448.80	3543.57
448.99	3630.17
449.17	3585.70
449.36	3506.12
449.54	3632.51
449.73	3578.68
449.91	3698.05
450.10	3744.86
450.28	3637.19
450.46	3684.00
450.65	3723.79
450.83	3782.31
451.02	3681.66
451.20	3836.14
451.39	3784.65
451.57	3901.67
451.76	3794.01
451.94	3744.86
452.13	3770.60
452.31	3829.12
452.49	3735.50
452.68	3749.54
452.86	3824.44
453.05	3836.14
453.23	3894.65
453.42	3922.74
453.60	3889.97
453.78	3995.29
453.97	3852.52
454.15	3878.27
454.34	4018.70
454.52	3819.75
454.70	3985.93
454.89	3974.23
455.07	4016.36
455.26	4004.66
455.44	3983.59
455.62	3997.64
455.81	4037.42
455.99	4070.19
456.17	4051.47
456.36	4133.39
456.54	4203.60
456.73	4126.36
456.91	4367.44
457.09	4393.19
457.28	4145.09
457.46	4292.54
457.64	4447.02
457.83	4231.69
458.01	4245.73
458.19	4486.81
458.38	4318.29
458.56	4341.69
458.74	4358.08
458.93	4395.53
459.11	4374.46
459.29	4362.76
459.48	4493.83
459.66	4524.26
459.84	4491.49
460.03	4627.24
460.21	4421.27
460.39	4393.19
460.57	4482.13
460.76	4507.87
460.94	4702.14
461.12	4580.43
461.31	4542.98
461.49	4643.62
461.67	4550.00
461.85	4800.44
462.04	4652.98
462.22	4957.25
462.40	4802.78
462.59	4662.35
462.77	4683.41
462.95	4840.23
463.13	4786.40
463.32	4851.93
463.50	4641.28
463.68	4840.23
463.86	4746.61
464.05	4711.50
464.23	4868.31
464.41	4884.70
464.59	4802.78
464.78	4887.04
464.96	4830.87
465.14	4706.82
465.32	4786.40
465.50	4947.89
465.69	5125.77
465.87	4884.70
466.05	4910.44
466.23	5121.09
466.41	4950.23
466.60	5032.15
466.78	4964.28
466.96	5053.22
467.14	5050.88
467.32	5109.39
467.51	4957.25
467.69	5011.09
467.87	5151.52
468.05	5153.86
468.23	5111.73
468.41	5188.97
468.60	5315.36
468.78	5144.50
468.96	5118.75
469.14	5296.63
469.32	5277.91
469.50	5076.62
469.69	5310.68
469.87	5526.00
470.05	5540.05
470.23	5315.36
470.41	5378.55
470.59	5584.52
470.77	5394.93
470.95	5404.30
471.14	5561.11
471.32	5378.55
471.50	5631.33
471.68	5444.09
471.86	5706.23
472.04	5598.56
472.22	5671.12
472.40	5614.95
472.58	5476.85
472.77	5788.14
472.95	5652.39
473.13	6085.39
473.31	5657.07
473.49	5729.63
473.67	5781.12
473.85	5977.73
474.03	6069.01
474.21	6001.13
474.39	6024.54
474.57	6066.67
474.75	6239.87
474.93	6040.92
475.12	6069.01
475.30	6179.01
475.48	6012.84
475.66	6333.49
475.84	6291.36
476.02	6303.06
476.20	6179.01
476.38	6534.78
476.56	6588.61
476.74	6553.50
476.92	6436.47
477.10	6558.18
477.28	6815.64
477.46	6532.44
477.64	6775.85
477.82	6794.58
478.00	6925.65
478.18	6956.07
478.36	7002.88
478.54	7187.79
478.72	7082.46
478.90	6881.18
479.08	7192.47
479.26	7227.57
479.44	7279.07
479.62	7382.05
479.80	7405.46
479.98	7304.81
480.16	7627.81
480.34	7403.11
480.52	7789.30
480.70	7791.64
480.88	7426.52
481.06	7723.77
481.24	7606.74
481.41	7810.37
481.59	7808.03
481.77	8147.40
481.95	7955.48
482.13	7962.50
482.31	8051.44
482.49	8198.90
482.67	8119.32
482.85	8290.18
483.03	8500.83
483.21	8589.77
483.39	8854.25
483.57	8456.36
483.74	8664.66
483.92	8702.11
484.10	8727.86
484.28	8992.34
484.46	8980.64
484.64	9006.38
484.82	8737.22
485.00	9006.38
485.18	9373.85
485.35	9224.05
485.53	9296.61
485.71	9685.14
485.89	9617.26
486.07	9479.17
486.25	9528.32
486.43	9582.15
486.61	9722.59
486.78	10019.83
486.96	10033.88
487.14	10078.35
487.32	10094.73
487.50	10120.48
487.68	10066.64
487.85	10197.71
488.03	10312.40
488.21	10670.50
488.39	10590.92
488.57	10670.50
488.75	10747.74
488.92	10525.39
489.10	10785.19
489.28	10848.38
489.46	11044.99
489.64	11035.63
489.81	11178.40
489.99	11073.07
490.17	11211.17
490.35	11482.67
490.53	11585.65
490.70	11707.36
490.88	11894.60
491.06	11683.95
491.24	11585.65
491.41	11716.72
491.59	11831.41
491.77	12079.50
491.95	11932.05
492.13	12063.12
492.30	12072.48
492.48	12285.47
492.66	12271.43
492.84	12252.70
493.01	12435.27
493.19	12416.54
493.37	12386.12
493.54	12753.58
493.72	12784.01
493.90	12561.66
494.08	12739.54
494.25	12931.46
494.43	12987.63
494.61	13193.60
494.79	13509.57
494.96	13287.22
495.14	13462.76
495.32	13425.31
495.49	13497.87
495.67	13659.37
495.85	13537.66
496.02	13923.85
496.20	13930.87
496.38	13933.21
496.55	13905.12
496.73	14387.27
496.91	14078.32
497.09	14288.97
497.26	14230.46
497.44	14092.37
497.62	14450.47
497.79	14464.51
497.97	14410.68
498.14	14602.60
498.32	14679.84
498.50	14743.03
498.67	14991.13
498.85	14799.21
499.03	14946.66
499.20	15197.10
499.38	15152.63
499.56	15103.48
499.73	15372.64
499.91	15316.47
500.08	15276.68
500.26	15283.70
500.44	15246.25
500.61	15552.86
500.79	15674.57
500.97	15775.21
501.14	15971.82
501.32	15871.17
501.49	15576.27
501.67	15704.99
501.84	15908.62
502.02	15796.28
502.20	15917.98
502.37	15962.45
502.55	16107.57
502.72	16004.58
502.90	15971.82
503.07	15885.22
503.25	16226.93
503.43	16175.44
503.60	16578.01
503.78	16423.54
503.95	16496.10
504.13	16308.85
504.30	16484.39
504.48	16535.88
504.65	16688.02
504.83	16683.34
505.01	17146.76
505.18	16849.52
505.36	17050.80
505.53	17067.19
505.71	17181.87
505.88	16917.39
506.06	17114.00
506.23	17429.97
506.41	17179.53
506.58	17556.36
506.76	17259.11
506.93	17809.14
507.11	17376.14
507.28	17664.02
507.46	17743.60
507.63	17551.68
507.81	17568.06
507.98	17647.64
508.16	17926.16
508.33	17902.76
508.50	17905.10
508.68	17956.59
508.85	18174.26
509.03	18113.41
509.20	18225.75
509.38	18452.78
509.55	17996.38
509.73	18487.89
509.90	18661.09
510.08	18403.63
510.25	18183.62
510.42	18214.05
510.60	18469.17
510.77	18635.35
510.95	18633.00
511.12	18726.63
511.30	18523.00
511.47	18735.99
511.64	18677.48
511.82	19075.37
511.99	19021.53
512.17	19197.07
512.34	19019.19
512.51	19323.46
512.69	18995.79
512.86	18913.87
513.04	19618.37
513.21	19307.08
513.38	19267.29
513.56	19168.99
513.73	19351.55
513.90	19417.08
514.08	19271.97
514.25	19714.33
514.43	19847.74
514.60	19625.39
514.77	19733.06
514.95	19988.18
515.12	19438.15
515.29	19772.85
515.47	19777.53
515.64	19995.20
515.81	19672.20
515.99	20196.48
516.16	19882.85
516.33	20285.42
516.51	20100.52
516.68	20107.54
516.85	20381.38
517.03	20130.95
517.20	20521.82
517.37	20484.37
517.54	20042.01
517.72	20510.11
517.89	20421.17
518.06	20688.00
518.24	20563.95
518.41	20620.12
518.58	21055.46
518.75	20755.87
518.93	20999.29
519.10	20905.66
519.27	20987.58
519.45	20805.02
519.62	21036.74
519.79	21057.80
519.96	21259.09
520.14	20968.86
520.31	21216.96
520.48	21352.71
520.65	21490.80
520.83	21266.11
521.00	21256.75
521.17	21277.81
521.34	21132.70
521.52	21710.81
521.69	21479.10
521.86	21598.46
522.03	21886.35
522.20	21909.75
522.38	21893.37
522.55	21689.74
522.72	21778.68
522.89	21766.98
523.07	22235.09
523.24	21998.70
523.41	22125.08
523.58	21743.58
523.75	22050.19
523.92	21944.86
524.10	21998.70
524.27	22174.24
524.44	22490.21
524.61	22532.34
524.78	22553.40
524.96	22450.42
525.13	22162.53
525.30	22508.93
525.47	22494.89
525.64	22654.05
525.81	22738.30
525.98	22604.89
526.16	22705.54
526.33	22558.08
526.50	22782.77
526.67	22850.65
526.84	22764.05
527.01	22705.54
527.18	23117.47
527.36	23197.05
527.53	23112.79
527.70	22979.38
527.87	23211.09
528.04	23117.47
528.21	23033.21
528.38	22932.57
528.55	23229.82
528.72	23344.50
528.89	23328.12
529.07	23108.11
529.24	23491.96
529.41	23440.47
529.58	23271.95
529.75	23372.59
529.92	23747.08
530.09	23543.45
530.26	23491.96
530.43	23648.77
530.60	23943.68
530.77	23599.62
530.94	23438.12
531.11	23576.22
531.28	23625.37
531.46	24023.26
531.63	23812.61
531.80	24079.43
531.97	24081.77
532.14	23836.02
532.31	23648.77
532.48	24009.22
532.65	23854.74
532.82	24114.54
532.99	24154.33
533.16	24203.48
533.33	24058.37
533.50	24638.82
533.67	24444.56
533.84	24184.76
534.01	24093.47
534.18	24369.66
534.35	24482.00
534.52	24472.64
534.69	24479.66
534.86	24666.91
535.03	24357.96
535.20	24685.63
535.37	24549.88
535.54	24613.07
535.71	24350.93
535.88	24568.60
536.05	24957.13
536.22	24652.86
536.38	24931.39
536.55	24985.22
536.72	25006.28
536.89	24393.06
537.06	25455.67
537.23	25053.09
537.40	25006.28
537.57	24617.75
537.74	25560.99
537.91	25226.29
538.08	25235.66
538.25	25294.17
538.42	24837.76
538.59	25067.14
538.75	24959.47
538.92	25142.03
539.09	25528.22
539.26	25127.99
539.43	25472.05
539.60	25446.30
539.77	25329.28
539.94	25455.67
540.11	25385.45
540.28	25593.76
540.44	25532.90
540.61	25551.63
540.78	25591.42
540.95	25844.20
541.12	25209.91
541.29	25675.68
541.46	25839.51
541.62	25525.88
541.79	25612.48
541.96	25029.69
542.13	25626.53
542.30	25680.36
542.47	26197.62
542.63	26253.79
542.80	26003.35
542.97	26274.85
543.14	26218.68
543.31	25916.75
543.48	26270.17
543.64	26658.70
543.81	26637.64
543.98	26335.71
544.15	26874.03
544.32	26691.47
544.48	26803.82
544.65	26434.01
544.82	26389.54
544.99	26162.51
545.16	26366.13
545.32	26401.24
545.49	26703.17
545.66	26682.11
545.83	26965.31
546.00	26845.94
546.16	26473.80
546.33	26616.57
546.50	26338.05
546.67	26513.59
546.83	26139.10
547.00	26637.64
547.17	26897.44
547.34	26686.79
547.50	27058.93
547.67	27332.78
547.84	27316.39
548.00	26878.71
548.17	26995.74
548.34	27124.47
548.51	27082.34
548.67	27211.07
548.84	27372.57
549.01	27154.90
549.18	26890.41
549.34	27063.61
549.51	27150.21
549.68	27307.03
549.84	26923.18
550.01	27204.05
550.18	26977.01
550.34	27395.97
550.51	27632.36
550.68	27999.83
550.84	27150.21
551.01	27213.41
551.18	27505.98
551.34	26911.48
551.51	27152.55
551.68	27697.90
551.84	27531.72
552.01	27835.99
552.18	27697.90
552.34	27508.32
552.51	27707.26
552.68	27487.25
552.84	27798.54
553.01	27697.90
553.18	27517.68
553.34	27711.94
553.51	27599.60
553.67	27997.49
553.84	28109.83
554.01	28287.71
554.17	28306.44
554.34	27803.22
554.51	27889.82
554.67	27955.36
554.84	28030.26
555.00	27838.33
555.17	27835.99
555.33	28315.80
555.50	28156.64
555.67	27908.55
555.83	27941.32
556.00	28510.07
556.16	28622.41
556.33	28056.00
556.50	28126.22
556.66	28268.99
556.83	28194.09
556.99	28376.66
557.16	28772.21
557.32	28430.49
557.49	28538.15
557.65	27992.81
557.82	28060.68
557.98	28091.11
558.15	28407.08
558.32	28615.39
558.48	28421.13
558.65	28870.51
558.81	28641.14
558.98	28456.23
559.14	28409.42
559.31	28718.37
559.47	28716.03
559.64	28641.14
559.80	28411.76
559.97	28519.43
560.13	28549.85
560.30	28285.37
560.46	28606.03
560.63	28938.38
560.79	28758.16
560.96	28889.23
561.12	28905.62
561.29	28582.62
561.45	28772.21
561.61	28957.11
561.78	28807.31
561.94	29212.23
562.11	29158.39
562.27	28922.00
562.44	28893.91
562.60	28905.62
562.77	28793.27
562.93	28561.56
563.10	29083.50
563.26	28673.90
563.42	28877.53
563.59	28851.78
563.75	28769.86
563.92	28966.47
564.08	28884.55
564.24	28809.65
564.41	28933.70
564.57	28678.58
564.74	29259.04
564.90	29252.02
565.07	29053.07
565.23	28924.34
565.39	28924.34
565.56	29179.46
565.72	28992.22
565.88	29511.81
566.05	28811.99
566.21	28882.21
566.38	28926.68
566.54	29118.60
566.70	29584.37
566.87	29497.77
567.03	29202.86
567.19	29479.05
567.36	29696.72
567.52	29113.92
567.68	29130.31
567.85	29289.46
568.01	29151.37
568.17	29123.29
568.34	29099.88
568.50	29441.60
568.66	29355.00
568.83	29472.03
568.99	29738.85
569.15	29291.80
569.32	29427.56
569.48	29266.06
569.64	29443.94
569.81	29142.01
569.97	28917.32
570.13	29202.86
570.30	29394.79
570.46	29352.66
570.62	29277.76
570.78	29453.30
570.95	29310.53
571.11	28989.88
571.27	29230.95
571.43	29333.93
571.60	29317.55
571.76	29256.70
571.92	29413.51
572.09	29481.39
572.25	29539.90
572.41	29560.97
572.57	29371.38
572.74	29687.36
572.90	29331.59
573.06	29237.97
573.22	29357.34
573.38	29584.37
573.55	29163.08
573.71	29619.48
573.87	29713.10
574.03	29558.63
574.20	29603.10
574.36	29308.19
574.52	29603.10
574.68	29280.10
574.84	29598.41
575.01	29411.17
575.17	29467.34
575.33	29809.06
575.49	29811.40
575.65	29668.63
575.82	29401.81
575.98	29790.34
576.14	29429.90
576.30	29607.78
576.46	29439.26
576.62	29495.43
576.79	30103.97
576.95	29422.87
577.11	29539.90
577.27	29827.79
577.43	29504.79
577.59	29570.33
577.75	29914.39
577.92	29237.97
578.08	29373.72
578.24	29270.74
578.40	29565.65
578.56	29902.68
578.72	29921.41
578.88	29713.10
579.04	30036.09
579.21	30148.44
579.37	30139.08
579.53	29766.93
579.69	29441.60
579.85	29731.83
580.01	29844.17
580.17	29343.30
580.33	29617.14
580.49	29975.24
580.65	29647.57
580.82	29687.36
580.98	29656.93
581.14	29804.38
581.30	29846.51
581.46	29567.99
581.62	29472.03
581.78	29729.48
581.94	29717.78
582.10	29748.21
582.26	29762.25
582.42	29839.49
582.58	29820.77
582.74	29729.48
582.90	29797.36
583.06	29589.05
583.22	29689.70
583.38	29720.12
583.54	29785.66
583.70	29865.24
583.86	29757.57
584.02	29666.29
584.18	30253.76
584.34	29912.05
584.50	30068.86
584.66	29963.54
584.82	29553.94
584.98	29654.59
585.14	29687.36
585.30	29418.19
585.46	29511.81
585.62	29743.53
585.78	29830.13
585.94	29577.35
586.10	30082.91
586.26	30110.99
586.42	30319.30
586.58	29708.42
586.74	30068.86
586.90	29532.88
587.06	29900.34
587.22	29855.87
587.38	29467.34
587.54	29944.81
587.70	30309.94
587.86	29996.31
588.02	30010.35
588.18	29874.60
588.34	30066.52
588.49	29923.75
588.65	29827.79
588.81	30057.16
588.97	30258.45
589.13	29572.67
589.29	30221.00
589.45	30176.53
589.61	30134.40
589.77	30031.41
589.93	30326.32
590.08	30366.11
590.24	30342.70
590.40	30288.87
590.56	30036.09
590.72	29790.34
590.88	29844.17
591.04	30024.39
591.20	30485.48
591.35	30211.64
591.51	30602.50
591.67	30150.78
591.83	30239.72
591.99	30525.27
