SpectraSuite Data File
++++++++++++++++++++++++++++++++++++
Date: Fri Oct 18 13:58:21 GMT-05:00 2013
User: bianchi
Dark Spectrum Present: No
Reference Spectrum Present: No
Number of Sampled Component Spectra: 1
Spectrometers: USB2+H05261
Integration Time (usec): 50000 (USB2+H05261)
Spectra Averaged: 1 (USB2+H05261)
Boxcar Smoothing: 0 (USB2+H05261)
Correct for Electrical Dark: No (USB2+H05261)
Strobe/Lamp Enabled: No (USB2+H05261)
Correct for Detector Non-linearity: No (USB2+H05261)
Correct for Stray Light: No (USB2+H05261)
Number of Pixels in Processed Spectrum: 2048
>>>>>Begin Processed Spectral Data<<<<<
365.73	0.00
365.92	0.00
366.12	0.00
366.32	0.00
366.52	0.00
366.72	0.00
366.91	0.00
367.11	0.00
367.31	0.00
367.51	0.00
367.70	0.00
367.90	0.00
368.10	0.00
368.30	0.00
368.49	0.00
368.69	0.00
368.89	0.00
369.09	0.00
369.28	0.00
369.48	0.00
369.68	0.00
369.87	0.00
370.07	0.00
370.27	0.00
370.47	0.00
370.66	56.17
370.86	112.35
371.06	131.07
371.25	105.32
371.45	131.07
371.65	152.13
371.84	126.39
372.04	194.26
372.24	212.99
372.44	100.64
372.63	203.63
372.83	227.03
373.03	208.31
373.22	234.05
373.42	215.33
373.62	231.71
373.81	220.01
374.01	271.50
374.21	236.39
374.40	227.03
374.60	271.50
374.79	196.60
374.99	234.05
375.19	210.65
375.38	262.14
375.58	250.44
375.78	358.10
375.97	231.71
376.17	341.72
376.37	327.68
376.56	280.86
376.76	243.42
376.95	280.86
377.15	220.01
377.35	238.73
377.54	266.82
377.74	224.69
377.93	205.97
378.13	255.12
378.33	299.59
378.52	259.80
378.72	278.52
378.91	306.61
379.11	320.65
379.31	266.82
379.50	308.95
379.70	276.18
379.89	252.78
380.09	266.82
380.28	241.08
380.48	313.63
380.68	262.14
380.87	290.23
381.07	334.70
381.26	285.55
381.46	327.68
381.65	360.44
381.85	306.61
382.04	386.19
382.24	255.12
382.43	278.52
382.63	325.33
382.83	283.20
383.02	299.59
383.22	313.63
383.41	365.12
383.61	449.38
383.80	297.25
384.00	346.40
384.19	397.89
384.39	489.17
384.58	360.44
384.78	454.06
384.97	355.76
385.17	339.38
385.36	337.04
385.56	386.19
385.75	367.46
385.95	386.19
386.14	400.23
386.34	376.83
386.53	402.57
386.72	449.38
386.92	383.85
387.11	390.87
387.31	447.04
387.50	355.76
387.70	355.76
387.89	409.59
388.09	400.23
388.28	404.91
388.48	365.12
388.67	435.34
388.86	414.27
389.06	449.38
389.25	447.04
389.45	463.43
389.64	479.81
389.84	470.45
390.03	388.53
390.22	454.06
390.42	433.00
390.61	463.43
390.81	486.83
391.00	475.13
391.19	402.57
391.39	514.92
391.58	423.64
391.78	496.19
391.97	531.30
392.16	559.39
392.36	564.07
392.55	528.96
392.75	552.37
392.94	500.87
393.13	510.24
393.33	505.56
393.52	540.66
393.71	557.05
393.91	566.41
394.10	510.24
394.29	512.58
394.49	573.43
394.68	545.34
394.88	601.52
395.07	601.52
395.26	580.45
395.46	674.07
395.65	610.88
395.84	631.94
396.04	587.47
396.23	533.64
396.42	613.22
396.62	641.31
396.81	702.16
397.00	624.92
397.19	552.37
397.39	599.18
397.58	667.05
397.77	660.03
397.97	748.97
398.16	660.03
398.35	645.99
398.55	641.31
398.74	697.48
398.93	748.97
399.12	770.04
399.32	744.29
399.51	720.88
399.70	643.65
399.90	676.41
400.09	765.36
400.28	751.31
400.47	788.76
400.67	781.74
400.86	702.16
401.05	723.23
401.24	781.74
401.44	795.78
401.63	774.72
401.82	856.64
402.01	826.21
402.21	711.52
402.40	767.70
402.59	819.19
402.78	819.19
402.97	781.74
403.17	819.19
403.36	856.64
403.55	940.90
403.74	912.81
403.93	868.34
404.13	905.79
404.32	912.81
404.51	938.55
404.70	849.61
404.89	926.85
405.09	915.15
405.28	873.02
405.47	973.66
405.66	954.94
405.85	959.62
406.05	924.51
406.24	999.41
406.43	976.00
406.62	976.00
406.81	1060.26
407.00	952.60
407.20	1064.94
407.39	943.24
407.58	1020.47
407.77	1043.88
407.96	1062.60
408.15	1018.13
408.34	1039.20
408.54	1025.15
408.73	1121.12
408.92	1104.73
409.11	1053.24
409.30	1188.99
409.49	1102.39
409.68	1116.44
409.87	1076.65
410.07	1163.25
410.26	1203.04
410.45	1193.67
410.64	1228.78
410.83	1240.48
411.02	1130.48
411.21	1301.34
411.40	1303.68
411.59	1233.46
411.78	1235.80
411.98	1247.51
412.17	1310.70
412.36	1266.23
412.55	1313.04
412.74	1313.04
412.93	1296.66
413.12	1273.25
413.31	1387.94
413.50	1275.59
413.69	1467.52
413.88	1336.45
414.07	1378.58
414.26	1306.02
414.45	1376.24
414.64	1409.00
414.83	1474.54
415.02	1540.07
415.22	1500.28
415.41	1589.22
415.60	1596.25
415.79	1579.86
415.98	1556.46
416.17	1727.32
416.36	1621.99
416.55	1612.63
416.74	1577.52
416.93	1575.18
417.12	1647.74
417.31	1619.65
417.50	1727.32
417.69	1701.57
417.88	1668.80
418.07	1689.87
418.26	1661.78
418.45	1682.85
418.64	1802.21
418.83	1792.85
419.02	1664.12
419.21	1863.07
419.39	1771.79
419.58	1741.36
419.77	1797.53
419.96	1912.22
420.15	1863.07
420.34	1746.04
420.53	1865.41
420.72	1757.74
420.91	1884.13
421.10	1942.64
421.29	1886.47
421.48	2001.16
421.67	1832.64
421.86	1884.13
422.05	1926.26
422.24	2019.88
422.43	1881.79
422.61	1877.11
422.80	2012.86
422.99	1977.75
423.18	1961.37
423.37	1902.86
423.56	2022.22
423.75	2040.95
423.94	1949.67
424.13	1788.17
424.32	1961.37
424.50	2040.95
424.69	2092.44
424.88	1923.92
425.07	1987.11
425.26	2008.18
425.45	2031.58
425.64	2047.97
425.83	2045.63
426.01	1998.82
426.20	2029.24
426.39	1975.41
426.58	2015.20
426.77	2022.22
426.96	2115.84
427.15	1961.37
427.33	1977.75
427.52	2033.93
427.71	2115.84
427.90	2258.62
428.09	2097.12
428.28	2207.13
428.46	2099.46
428.65	2188.40
428.84	2359.26
429.03	2251.60
429.22	2076.06
429.40	2169.68
429.59	2321.81
429.78	2165.00
429.97	2045.63
430.16	2141.59
430.34	2282.02
430.53	2389.69
430.72	2179.04
430.91	2366.28
431.10	2228.19
431.28	2305.43
431.47	2289.04
431.66	2370.96
431.85	2363.94
432.03	2375.64
432.22	2338.20
432.41	2401.39
432.60	2422.45
432.79	2422.45
432.97	2326.49
433.16	2509.05
433.35	2459.90
433.54	2448.20
433.72	2647.15
433.91	2422.45
434.10	2464.58
434.28	2537.14
434.47	2354.58
434.66	2490.33
434.85	2534.80
435.03	2530.12
435.22	2588.63
435.41	2698.64
435.59	2689.28
435.78	2764.17
435.97	2649.49
436.16	2614.38
436.34	2548.84
436.53	2612.04
436.72	2757.15
436.90	2628.42
437.09	2705.66
437.28	2612.04
437.46	2686.94
437.65	2841.41
437.84	2698.64
438.02	2672.89
438.21	2813.32
438.40	2597.99
438.58	2869.50
438.77	2974.82
438.96	2888.22
439.14	2839.07
439.33	2925.67
439.52	2909.29
439.70	2796.94
439.89	2993.55
440.08	3012.27
440.26	2972.48
440.45	2993.55
440.63	2958.44
440.82	3052.06
441.01	3021.63
441.19	3122.27
441.38	3157.38
441.57	3283.77
441.75	3110.57
441.94	3236.96
442.12	3236.96
442.31	3286.11
442.50	3246.32
442.68	3023.97
442.87	3206.53
443.05	3183.13
443.24	3323.56
443.43	3204.19
443.61	3386.76
443.80	3449.95
443.98	3274.41
444.17	3260.37
444.35	3290.79
444.54	3513.14
444.73	3372.71
444.91	3550.59
445.10	3431.23
445.28	3339.94
445.47	3337.60
445.65	3534.21
445.84	3534.21
446.02	3517.83
446.21	3295.47
446.39	3372.71
446.58	3576.34
446.77	3454.63
446.95	3309.52
447.14	3398.46
447.32	3524.85
447.51	3440.59
447.69	3330.58
447.88	3426.54
448.06	3428.88
448.25	3531.87
448.43	3482.72
448.62	3501.44
448.80	3501.44
448.99	3529.53
449.17	3506.12
449.36	3492.08
449.54	3761.24
449.73	3606.77
449.91	3684.00
450.10	3550.59
450.28	3740.18
450.46	3658.26
450.65	3698.05
450.83	3700.39
451.02	3805.71
451.20	3688.68
451.39	3768.26
451.57	3702.73
451.76	3698.05
451.94	3794.01
452.13	3789.33
452.31	3836.14
452.49	3786.99
452.68	3845.50
452.86	3819.75
453.05	3819.75
453.23	3901.67
453.42	3845.50
453.60	3716.77
453.78	3691.02
453.97	3772.94
454.15	3794.01
454.34	3772.94
454.52	3955.51
454.70	3880.61
454.89	4021.04
455.07	3971.89
455.26	4067.85
455.44	4060.83
455.62	4070.19
455.81	4070.19
455.99	4086.58
456.17	4072.53
456.36	4086.58
456.54	4175.52
456.73	4140.41
456.91	4313.61
457.09	4238.71
457.28	4259.78
457.46	4154.45
457.64	4257.43
457.83	4184.88
458.01	4241.05
458.19	4285.52
458.38	4388.50
458.56	4231.69
458.74	4238.71
458.93	4435.32
459.11	4461.06
459.29	4327.65
459.48	4358.08
459.66	4606.17
459.84	4578.09
460.03	4606.17
460.21	4341.69
460.39	4465.74
460.57	4503.19
460.76	4716.18
460.94	4613.20
461.12	4589.79
461.31	4475.10
461.49	4599.15
461.67	4594.47
461.85	4627.24
462.04	4582.77
462.22	4753.63
462.40	4692.77
462.59	4692.77
462.77	4709.16
462.95	4786.40
463.13	4739.58
463.32	4596.81
463.50	4755.97
463.68	4812.14
463.86	4793.42
464.05	4702.14
464.23	4669.37
464.41	4784.06
464.59	4840.23
464.78	4833.21
464.96	4823.84
465.14	4706.82
465.32	4884.70
465.50	4908.10
465.69	4875.34
465.87	4851.93
466.05	4887.04
466.23	4957.25
466.41	4973.64
466.60	5177.26
466.78	4994.70
466.96	4997.04
467.14	4961.94
467.32	4875.34
467.51	5041.51
467.69	5008.75
467.87	5006.41
468.05	5104.71
468.23	5156.20
468.41	5158.54
468.60	5200.67
468.78	5156.20
468.96	4992.36
469.14	5135.14
469.32	5090.67
469.50	5203.01
469.69	5317.70
469.87	5289.61
470.05	5348.12
470.23	5355.15
470.41	5455.79
470.59	5432.38
470.77	5397.28
470.95	5397.28
471.14	5518.98
471.32	5287.27
471.50	5472.17
471.68	5504.94
471.86	5504.94
472.04	5561.11
472.22	5717.93
472.40	5650.05
472.58	5518.98
472.77	5643.03
472.95	5577.50
473.13	5949.64
473.31	5722.61
473.49	5881.77
473.67	5858.36
473.85	5853.68
474.03	5818.57
474.21	5951.98
474.39	6019.86
474.57	5849.00
474.75	5949.64
474.93	6031.56
475.12	6183.70
475.30	6204.76
475.48	5980.07
475.66	6047.94
475.84	6162.63
476.02	6279.66
476.20	6237.53
476.38	6284.34
476.56	6312.42
476.74	6504.35
476.92	6345.19
477.10	6387.32
477.28	6665.85
477.46	6473.92
477.64	6612.01
477.82	6803.94
478.00	6855.43
478.18	6970.12
478.36	6794.58
478.54	6881.18
478.72	6862.45
478.90	7040.33
479.08	6958.41
479.26	6993.52
479.44	7152.68
479.62	7314.17
479.80	7129.27
479.98	7346.94
480.16	7323.54
480.34	7478.01
480.52	7506.10
480.70	7578.65
480.88	7487.37
481.06	7538.87
481.24	7377.37
481.41	7616.10
481.59	7798.66
481.77	7873.56
481.95	7843.14
482.13	7941.44
482.31	8013.99
482.49	8018.68
482.67	8018.68
482.85	8320.60
483.03	8301.88
483.21	8439.97
483.39	8472.74
483.57	8311.24
483.74	8671.68
483.92	8636.58
484.10	8561.68
484.28	8844.88
484.46	8713.81
484.64	8982.98
484.82	8917.44
485.00	8997.02
485.18	9125.75
485.35	9181.92
485.53	9231.07
485.71	9315.33
485.89	9525.98
486.07	9350.44
486.25	9493.21
486.43	9497.89
486.61	9598.54
486.78	9605.56
486.96	9678.12
487.14	9928.55
487.32	9928.55
487.50	10120.48
487.68	9877.06
487.85	10242.18
488.03	10328.78
488.21	10228.14
488.39	10438.79
488.57	10427.09
488.75	10600.29
488.92	10726.68
489.10	10871.79
489.28	10796.89
489.46	10897.53
489.64	10906.90
489.81	11040.31
489.99	11176.06
490.17	11173.72
490.35	11131.59
490.53	10984.13
490.70	11290.74
490.88	11335.21
491.06	11583.31
491.24	11550.54
491.41	11531.82
491.59	11744.81
491.77	11875.88
491.95	11798.64
492.13	11772.89
492.30	12081.85
492.48	11819.71
492.66	12123.98
492.84	12088.87
493.01	12142.70
493.19	12386.12
493.37	12732.51
493.54	12465.69
493.72	12430.59
493.90	12549.95
494.08	12819.11
494.25	13006.36
494.43	12912.74
494.61	13088.28
494.79	13167.85
494.96	13085.94
495.14	13209.98
495.32	13291.90
495.49	13429.99
495.67	13289.56
495.85	13364.46
496.02	13673.41
496.20	13757.67
496.38	13809.16
496.55	13930.87
496.73	14043.21
496.91	13937.89
497.09	13998.74
497.26	14057.26
497.44	13872.36
497.62	14143.86
497.79	14338.12
497.97	14317.06
498.14	14658.78
498.32	14539.41
498.50	14508.98
498.67	14626.01
498.85	14740.69
499.03	14633.03
499.20	14789.85
499.38	14689.20
499.56	15009.86
499.73	15016.88
499.91	15246.25
500.08	15035.60
500.26	15147.95
500.44	14871.76
500.61	15129.22
500.79	15321.15
500.97	15382.00
501.14	15927.35
501.32	15674.57
501.49	15646.48
501.67	15337.53
501.84	15454.56
502.02	15583.29
502.20	15688.61
502.37	15934.37
502.55	15852.45
502.72	15929.69
502.90	15882.88
503.07	15967.13
503.25	15950.75
503.43	15852.45
503.60	16290.13
503.78	16299.49
503.95	16325.24
504.13	16077.14
504.30	16285.45
504.48	16528.86
504.65	16456.31
504.83	16652.91
505.01	16798.02
505.18	16868.24
505.36	17003.99
505.53	16863.56
505.71	16702.06
505.88	16966.54
506.06	16786.32
506.23	17025.06
506.41	17015.69
506.58	16999.31
506.76	17188.89
506.93	17219.32
507.11	17099.95
507.28	17341.03
507.46	17481.46
507.63	17383.16
507.81	17511.89
507.98	17556.36
508.16	17600.83
508.33	17390.18
508.50	17703.81
508.68	17706.15
508.85	17928.50
509.03	17781.05
509.20	17689.77
509.38	18146.17
509.55	17956.59
509.73	18040.85
509.90	18094.68
510.08	18029.15
510.25	18216.39
510.42	18232.77
510.60	18354.48
510.77	18560.45
510.95	18380.23
511.12	18487.89
511.30	18735.99
511.47	18850.67
511.64	18284.26
511.82	18747.69
511.99	18340.44
512.17	18656.41
512.34	18965.36
512.51	18750.03
512.69	18633.00
512.86	18546.40
513.04	18906.85
513.21	19037.92
513.38	18853.02
513.56	18916.21
513.73	18993.45
513.90	19070.68
514.08	19264.95
514.25	19047.28
514.43	19325.80
514.60	19515.39
514.77	19349.21
514.95	19616.03
515.12	19777.53
515.29	19665.18
515.47	20070.09
515.64	19639.44
515.81	19559.86
515.99	19831.36
516.16	19983.49
516.33	20013.92
516.51	19939.02
516.68	20086.48
516.85	19845.40
517.03	20060.73
517.20	19817.32
517.37	20287.76
517.54	20484.37
517.72	20374.36
517.89	20339.26
518.06	20222.23
518.24	20524.16
518.41	20313.51
518.58	20444.58
518.75	20482.03
518.93	20568.63
519.10	20318.19
519.27	20875.24
519.45	20781.62
519.62	20458.62
519.79	20517.14
519.96	20795.66
520.14	21083.55
520.31	20830.77
520.48	21249.72
520.65	20774.60
520.83	21312.92
521.00	21319.94
521.17	20929.07
521.34	21469.73
521.52	21167.80
521.69	21254.40
521.86	21579.74
522.03	21352.71
522.20	21502.50
522.38	21628.89
522.55	21135.04
522.72	21535.27
522.89	21486.12
523.07	21642.93
523.24	21919.12
523.41	21720.17
523.58	21523.57
523.75	21640.59
523.92	21837.20
524.10	21729.53
524.27	21851.24
524.44	22052.53
524.61	22298.28
524.78	22253.81
524.96	21996.35
525.13	21839.54
525.30	22384.88
525.47	22043.17
525.64	22366.16
525.81	22003.38
525.98	22436.38
526.16	22183.60
526.33	22221.05
526.50	22600.21
526.67	22401.27
526.84	22572.13
527.01	22410.63
527.18	22527.66
527.36	22740.64
527.53	22588.51
527.70	23002.78
527.87	22869.37
528.04	22937.25
528.21	22611.92
528.38	22485.53
528.55	23112.79
528.72	23087.04
528.89	22955.97
529.07	23112.79
529.24	23236.84
529.41	23129.17
529.58	23028.53
529.75	22981.72
529.92	23257.90
530.09	23077.68
530.26	23105.77
530.43	23281.31
530.60	23058.96
530.77	23152.58
530.94	23632.39
531.11	23358.55
531.28	23445.15
531.46	23283.65
531.63	23723.67
531.80	23740.05
531.97	23618.35
532.14	23674.52
532.31	23817.29
532.48	23655.79
532.65	23924.96
532.82	23793.89
532.99	23707.29
533.16	23735.37
533.33	24554.56
533.50	24123.90
533.67	23786.86
533.84	23824.31
534.01	24212.84
534.18	23580.90
534.35	24245.61
534.52	24147.31
534.69	24261.99
534.86	24322.85
535.03	23985.81
535.20	24547.54
535.37	24276.04
535.54	24336.89
535.71	24168.37
535.88	24016.24
536.05	24039.64
536.22	24704.35
536.38	24732.44
536.55	24372.00
536.72	24477.32
536.89	24741.80
537.06	24479.66
537.23	25113.95
537.40	24662.22
537.57	24552.22
537.74	24683.29
537.91	24751.17
538.08	24776.91
538.25	24835.42
538.42	24795.64
538.59	24709.04
538.75	24938.41
538.92	24760.53
539.09	25273.10
539.26	25102.25
539.43	25053.09
539.60	25144.38
539.77	25118.63
539.94	25575.03
540.11	24940.75
540.28	25315.23
540.44	25008.62
540.61	24971.18
540.78	25399.49
540.95	25219.27
541.12	25055.43
541.29	25357.36
541.46	25481.41
541.62	25418.22
541.79	25422.90
541.96	25223.95
542.13	25371.41
542.30	25589.08
542.47	25743.55
542.63	26190.59
542.80	25888.67
542.97	25926.11
543.14	25778.66
543.31	25652.27
543.48	25715.47
543.64	26141.44
543.81	26019.74
543.98	26038.46
544.15	25991.65
544.32	26417.63
544.48	26635.30
544.65	26059.52
544.82	25986.97
544.99	25818.45
545.16	26096.97
545.32	26417.63
545.49	26164.85
545.66	26522.95
545.83	26553.38
546.00	26593.17
546.16	26148.46
546.33	26022.08
546.50	25848.88
546.67	26295.92
546.83	26307.62
547.00	26307.62
547.17	26043.14
547.34	26728.92
547.50	26881.05
547.67	26958.29
547.84	26560.40
548.00	26459.76
548.17	26541.68
548.34	26869.35
548.51	26934.88
548.67	27131.49
548.84	27054.25
549.01	26553.38
549.18	26686.79
549.34	26455.08
549.51	26670.40
549.68	26960.63
549.84	26764.03
550.01	26958.29
550.18	26897.44
550.34	27126.81
550.51	27072.98
550.68	27131.49
550.84	26658.70
551.01	27143.19
551.18	26934.88
551.34	26923.18
551.51	26754.66
551.68	27276.60
551.84	27314.05
552.01	27026.17
552.18	27271.92
552.34	26920.84
552.51	27049.57
552.68	27105.74
552.84	27548.11
553.01	27484.91
553.18	27297.67
553.34	27721.30
553.51	27367.88
553.67	27733.01
553.84	27639.39
554.01	27342.14
554.17	27470.87
554.34	27454.48
554.51	27297.67
554.67	27725.99
554.84	27185.32
555.00	27215.75
555.17	27690.88
555.33	27496.61
555.50	27784.50
555.67	27646.41
555.83	27941.32
556.00	27796.20
556.16	28067.70
556.33	27941.32
556.50	27978.76
556.66	27835.99
556.83	27824.29
556.99	28046.64
557.16	27901.53
557.32	28074.73
557.49	28247.93
557.65	27866.42
557.82	27784.50
557.98	27384.27
558.15	28130.90
558.32	28093.45
558.48	28287.71
558.65	28247.93
558.81	27894.50
558.98	28240.90
559.14	28339.21
559.31	28081.75
559.47	27992.81
559.64	28102.81
559.80	28458.57
559.97	28311.12
560.13	27995.15
560.30	28428.15
560.46	28437.51
560.63	28442.19
560.79	28252.61
560.96	28477.30
561.12	28250.27
561.29	28371.97
561.45	28116.86
561.61	28273.67
561.78	28332.18
561.94	28589.64
562.11	28474.96
562.27	28442.19
562.44	28400.06
562.60	28273.67
562.77	28533.47
562.93	28304.10
563.10	28638.80
563.26	28388.36
563.42	28624.75
563.59	28500.70
563.75	28622.41
563.92	28622.41
564.08	28587.30
564.24	28463.25
564.41	28615.39
564.57	28503.04
564.74	28833.06
564.90	28809.65
565.07	28858.81
565.23	29020.30
565.39	28666.88
565.56	28716.03
565.72	28587.30
565.88	28439.85
566.05	28613.05
566.21	28744.12
566.38	28643.48
566.54	28648.16
566.70	28982.85
566.87	29219.25
567.03	28746.46
567.19	28954.77
567.36	29064.77
567.52	28561.56
567.68	29132.65
567.85	28929.02
568.01	28950.09
568.17	28926.68
568.34	28947.75
568.50	28917.32
568.66	29259.04
568.83	29088.18
568.99	28795.61
569.15	28854.12
569.32	28996.90
569.48	28655.18
569.64	28758.16
569.81	29359.68
569.97	28781.57
570.13	29113.92
570.30	28711.35
570.46	28891.57
570.62	28819.02
570.78	29085.84
570.95	28657.52
571.11	28842.42
571.27	28933.70
571.43	28868.17
571.60	29144.35
571.76	28917.32
571.92	29216.91
572.09	29043.71
572.25	29165.42
572.41	29315.21
572.57	29362.02
572.74	29139.67
572.90	28837.74
573.06	28994.56
573.22	28900.94
573.38	28973.49
573.55	29287.12
573.71	29270.74
573.87	29151.37
574.03	29076.48
574.20	28804.97
574.36	28959.45
574.52	29053.07
574.68	28739.44
574.84	29429.90
575.01	28854.12
575.17	28940.72
575.33	28842.42
575.49	29104.56
575.65	29268.40
575.82	29013.28
575.98	29221.59
576.14	29174.78
576.30	29333.93
576.46	29226.27
576.62	29099.88
576.79	29240.31
576.95	29249.67
577.11	29064.77
577.27	29015.62
577.43	29481.39
577.59	29401.81
577.75	29535.22
577.92	28907.96
578.08	29200.52
578.24	29244.99
578.40	28896.25
578.56	29034.35
578.72	28938.38
578.88	29759.91
579.04	29350.32
579.21	29504.79
579.37	29401.81
579.53	29385.43
579.69	28943.06
579.85	29085.84
580.01	29127.97
580.17	29350.32
580.33	29397.13
580.49	29027.32
580.65	29399.47
580.82	29401.81
580.98	29167.76
581.14	29399.47
581.30	29249.67
581.46	29209.89
581.62	29462.66
581.78	28840.08
581.94	29256.70
582.10	29399.47
582.26	29429.90
582.42	29479.05
582.58	29230.95
582.74	29694.38
582.90	29624.16
583.06	29352.66
583.22	29425.22
583.38	29029.66
583.54	29013.28
583.70	29254.36
583.86	29476.71
584.02	29165.42
584.18	29696.72
584.34	29394.79
584.50	29734.17
584.66	29668.63
584.82	28924.34
584.98	29383.09
585.14	29165.42
585.30	29521.18
585.46	29420.53
585.62	28903.28
585.78	29666.29
585.94	29113.92
586.10	29399.47
586.26	29692.04
586.42	29610.12
586.58	29633.52
586.74	29174.78
586.90	29020.30
587.06	29163.08
587.22	29558.63
587.38	29134.99
587.54	29572.67
587.70	29783.32
587.86	29642.88
588.02	29549.26
588.18	29923.75
588.34	29486.07
588.49	29663.95
588.65	29226.27
588.81	29156.05
588.97	29759.91
589.13	29479.05
589.29	29607.78
589.45	29680.33
589.61	29776.30
589.77	29572.67
589.93	30143.76
590.08	29661.61
590.24	29762.25
590.40	30366.11
590.56	29766.93
590.72	29715.44
590.88	29270.74
591.04	29750.55
591.20	29860.55
591.35	30209.29
591.51	30132.06
591.67	30054.82
591.83	30312.28
591.99	29912.05
