SpectraSuite Data File
++++++++++++++++++++++++++++++++++++
Date: Fri Oct 18 13:58:21 GMT-05:00 2013
User: bianchi
Dark Spectrum Present: No
Reference Spectrum Present: No
Number of Sampled Component Spectra: 1
Spectrometers: USB2+H05261
Integration Time (usec): 50000 (USB2+H05261)
Spectra Averaged: 1 (USB2+H05261)
Boxcar Smoothing: 0 (USB2+H05261)
Correct for Electrical Dark: No (USB2+H05261)
Strobe/Lamp Enabled: No (USB2+H05261)
Correct for Detector Non-linearity: No (USB2+H05261)
Correct for Stray Light: No (USB2+H05261)
Number of Pixels in Processed Spectrum: 2048
>>>>>Begin Processed Spectral Data<<<<<
365.73	0.00
365.92	0.00
366.12	0.00
366.32	0.00
366.52	0.00
366.72	0.00
366.91	0.00
367.11	0.00
367.31	0.00
367.51	0.00
367.70	0.00
367.90	0.00
368.10	0.00
368.30	0.00
368.49	0.00
368.69	0.00
368.89	0.00
369.09	0.00
369.28	0.00
369.48	0.00
369.68	0.00
369.87	0.00
370.07	0.00
370.27	0.00
370.47	0.00
370.66	135.75
370.86	105.32
371.06	145.11
371.25	170.86
371.45	112.35
371.65	210.65
371.84	191.92
372.04	105.32
372.24	145.11
372.44	191.92
372.63	121.71
372.83	166.18
373.03	227.03
373.22	163.84
373.42	191.92
373.62	227.03
373.81	248.10
374.01	182.56
374.21	215.33
374.40	212.99
374.60	177.88
374.79	285.55
374.99	201.29
375.19	156.82
375.38	203.63
375.58	294.91
375.78	332.36
375.97	278.52
376.17	250.44
376.37	304.27
376.56	255.12
376.76	224.69
376.95	159.16
377.15	238.73
377.35	339.38
377.54	334.70
377.74	222.35
377.93	259.80
378.13	241.08
378.33	313.63
378.52	285.55
378.72	273.84
378.91	238.73
379.11	332.36
379.31	243.42
379.50	290.23
379.70	259.80
379.89	238.73
380.09	360.44
380.28	306.61
380.48	337.04
380.68	250.44
380.87	285.55
381.07	262.14
381.26	355.76
381.46	315.97
381.65	287.89
381.85	330.02
382.04	348.74
382.24	365.12
382.43	358.10
382.63	386.19
382.83	301.93
383.02	390.87
383.22	322.99
383.41	327.68
383.61	311.29
383.80	337.04
384.00	421.30
384.19	376.83
384.39	402.57
384.58	369.80
384.78	430.66
384.97	369.80
385.17	411.93
385.36	411.93
385.56	383.85
385.75	374.49
385.95	437.68
386.14	381.51
386.34	433.00
386.53	369.80
386.72	472.79
386.92	386.19
387.11	425.98
387.31	447.04
387.50	390.87
387.70	428.32
387.89	435.34
388.09	430.66
388.28	447.04
388.48	437.68
388.67	484.49
388.86	554.71
389.06	444.70
389.25	437.68
389.45	433.00
389.64	477.47
389.84	552.37
390.03	519.60
390.22	517.26
390.42	465.77
390.61	425.98
390.81	554.71
391.00	479.81
391.19	496.19
391.39	470.45
391.58	477.47
391.78	451.72
391.97	479.81
392.16	468.11
392.36	461.09
392.55	585.13
392.75	500.87
392.94	554.71
393.13	507.90
393.33	519.60
393.52	535.98
393.71	594.50
393.91	540.66
394.10	526.62
394.29	517.26
394.49	580.45
394.68	580.45
394.88	493.85
395.07	615.56
395.26	521.94
395.46	594.50
395.65	594.50
395.84	641.31
396.04	751.31
396.23	617.90
396.42	643.65
396.62	638.97
396.81	603.86
397.00	610.88
397.19	681.10
397.39	704.50
397.58	718.54
397.77	603.86
397.97	685.78
398.16	741.95
398.35	723.23
398.55	655.35
398.74	798.12
398.93	683.44
399.12	720.88
399.32	613.22
399.51	690.46
399.70	730.25
399.90	636.63
400.09	716.20
400.28	809.83
400.47	798.12
400.67	842.59
400.86	760.67
401.05	650.67
401.24	784.08
401.44	763.01
401.63	774.72
401.82	786.42
402.01	767.70
402.21	840.25
402.40	809.83
402.59	835.57
402.78	905.79
402.97	837.91
403.17	777.06
403.36	919.83
403.55	910.47
403.74	837.91
403.93	844.93
404.13	854.30
404.32	891.74
404.51	968.98
404.70	926.85
404.89	936.21
405.09	929.19
405.28	856.64
405.47	938.55
405.66	1011.11
405.85	997.07
406.05	978.34
406.24	917.49
406.43	945.58
406.62	952.60
406.81	1055.58
407.00	992.39
407.20	994.73
407.39	952.60
407.58	1027.50
407.77	1060.26
407.96	1088.35
408.15	1048.56
408.34	1069.62
408.54	1067.28
408.73	1081.33
408.92	1088.35
409.11	1088.35
409.30	1069.62
409.49	1076.65
409.68	1048.56
409.87	1018.13
410.07	1151.54
410.26	1210.06
410.45	1214.74
410.64	1198.35
410.83	1203.04
411.02	1200.69
411.21	1238.14
411.40	1212.40
411.59	1242.82
411.78	1186.65
411.98	1231.12
412.17	1313.04
412.36	1287.29
412.55	1277.93
412.74	1423.05
412.93	1373.89
413.12	1404.32
413.31	1376.24
413.50	1451.13
413.69	1338.79
413.88	1313.04
414.07	1502.62
414.26	1423.05
414.45	1373.89
414.64	1439.43
414.83	1432.41
415.02	1390.28
415.22	1540.07
415.41	1511.99
415.60	1432.41
415.79	1579.86
415.98	1554.12
416.17	1530.71
416.36	1682.85
416.55	1685.19
416.74	1713.27
416.93	1626.67
417.12	1570.50
417.31	1643.06
417.50	1652.42
417.69	1792.85
417.88	1720.29
418.07	1657.10
418.26	1746.04
418.45	1795.19
418.64	1806.89
418.83	1818.60
419.02	1842.00
419.21	1764.76
419.39	1860.73
419.58	1736.68
419.77	1849.02
419.96	1879.45
420.15	1837.32
420.34	1902.86
420.53	1823.28
420.72	1874.77
420.91	1912.22
421.10	1930.94
421.29	2003.50
421.48	1818.60
421.67	1956.69
421.86	1970.73
422.05	1916.90
422.24	1942.64
422.43	1968.39
422.61	2022.22
422.80	1937.96
422.99	1968.39
423.18	1994.14
423.37	2026.90
423.56	2033.93
423.75	2022.22
423.94	2010.52
424.13	1790.51
424.32	2045.63
424.50	2017.54
424.69	2092.44
424.88	2062.01
425.07	2038.61
425.26	2017.54
425.45	2073.71
425.64	2099.46
425.83	2043.29
426.01	2059.67
426.20	2005.84
426.39	2064.35
426.58	2017.54
426.77	2026.90
426.96	1998.82
427.15	2005.84
427.33	1926.26
427.52	2141.59
427.71	2256.28
427.90	2113.50
428.09	2218.83
428.28	2150.95
428.46	2237.55
428.65	2214.15
428.84	2235.21
429.03	2057.33
429.22	2120.53
429.40	2200.10
429.59	2148.61
429.78	2141.59
429.97	2204.78
430.16	2239.89
430.34	2235.21
430.53	2267.98
430.72	2413.09
430.91	2303.09
431.10	2314.79
431.28	2282.02
431.47	2265.64
431.66	2445.86
431.85	2413.09
432.03	2392.03
432.22	2385.01
432.41	2523.10
432.60	2347.56
432.79	2289.04
432.97	2452.88
433.16	2462.24
433.35	2452.88
433.54	2492.67
433.72	2459.90
433.91	2448.20
434.10	2443.52
434.28	2443.52
434.47	2495.01
434.66	2600.34
434.85	2532.46
435.03	2642.46
435.22	2602.68
435.41	2574.59
435.59	2684.59
435.78	2588.63
435.97	2619.06
436.16	2597.99
436.34	2675.23
436.53	2597.99
436.72	2757.15
436.90	2593.31
437.09	2647.15
437.28	2626.08
437.46	2651.83
437.65	2663.53
437.84	2883.54
438.02	2825.03
438.21	2693.96
438.40	2895.24
438.58	2789.92
438.77	2834.39
438.96	2909.29
439.14	2960.78
439.33	2888.22
439.52	2897.58
439.70	2949.08
439.89	2911.63
440.08	3070.78
440.26	2937.37
440.45	2920.99
440.63	2995.89
440.82	3108.23
441.01	3070.78
441.19	3162.06
441.38	3098.87
441.57	3248.66
441.75	3267.39
441.94	3236.96
442.12	3225.26
442.31	3281.43
442.50	3258.03
442.68	3220.58
442.87	3258.03
443.05	3213.56
443.24	3199.51
443.43	3424.20
443.61	3459.31
443.80	3536.55
443.98	3386.76
444.17	3297.81
444.35	3428.88
444.54	3506.12
444.73	3529.53
444.91	3454.63
445.10	3419.52
445.28	3302.50
445.47	3449.95
445.65	3419.52
445.84	3548.25
446.02	3534.21
446.21	3447.61
446.39	3426.54
446.58	3524.85
446.77	3454.63
446.95	3358.67
447.14	3482.72
447.32	3585.70
447.51	3461.65
447.69	3559.95
447.88	3639.53
448.06	3487.40
448.25	3566.98
448.43	3468.67
448.62	3517.83
448.80	3487.40
448.99	3611.45
449.17	3550.59
449.36	3536.55
449.54	3616.13
449.73	3625.49
449.91	3758.90
450.10	3665.28
450.28	3789.33
450.46	3765.92
450.65	3737.84
450.83	3719.11
451.02	3850.18
451.20	3754.22
451.39	3765.92
451.57	3765.92
451.76	3737.84
451.94	3707.41
452.13	3847.84
452.31	3740.18
452.49	3826.78
452.68	3833.80
452.86	3707.41
453.05	3932.10
453.23	4049.13
453.42	3810.39
453.60	3871.25
453.78	3878.27
453.97	3880.61
454.15	3889.97
454.34	4002.32
454.52	4037.42
454.70	3988.27
454.89	3904.01
455.07	3927.42
455.26	4070.19
455.44	4081.89
455.62	4070.19
455.81	4014.02
455.99	3990.61
456.17	4105.30
456.36	4004.66
456.54	4320.63
456.73	4170.83
456.91	4121.68
457.09	4283.18
457.28	4397.87
457.46	4205.94
457.64	4222.33
457.83	4472.76
458.01	4264.46
458.19	4407.23
458.38	4358.08
458.56	4435.32
458.74	4400.21
458.93	4442.34
459.11	4447.02
459.29	4372.12
459.48	4512.55
459.66	4273.82
459.84	4561.70
460.03	4587.45
460.21	4386.16
460.39	4571.07
460.57	4585.11
460.76	4610.86
460.94	4514.89
461.12	4557.02
461.31	4514.89
461.49	4580.43
461.67	4671.71
461.85	4772.35
462.04	4683.41
462.22	4706.82
462.40	4697.46
462.59	4610.86
462.77	4755.97
462.95	4793.42
463.13	4716.18
463.32	4727.88
463.50	4720.86
463.68	4758.31
463.86	4882.36
464.05	4751.29
464.23	4833.21
464.41	4894.06
464.59	4727.88
464.78	4903.42
464.96	4758.31
465.14	4772.35
465.32	4905.76
465.50	5062.58
465.69	5071.94
465.87	4903.42
466.05	4959.60
466.23	4856.61
466.41	4985.34
466.60	5177.26
466.78	5132.79
466.96	5090.67
467.14	4926.83
467.32	5032.15
467.51	5041.51
467.69	4952.57
467.87	5158.54
468.05	4983.00
468.23	5191.31
468.41	5151.52
468.60	4985.34
468.78	5247.48
468.96	5107.05
469.14	5165.56
469.32	5062.58
469.50	5102.37
469.69	5224.08
469.87	5392.59
470.05	5287.27
470.23	5558.77
470.41	5355.15
470.59	5434.72
470.77	5430.04
470.95	5394.93
471.14	5528.35
471.32	5305.99
471.50	5423.02
471.68	5605.58
471.86	5565.79
472.04	5537.71
472.22	5640.69
472.40	5535.37
472.58	5710.91
472.77	5617.29
472.95	5652.39
473.13	6057.31
473.31	5636.01
473.49	5720.27
473.67	5738.99
473.85	5694.52
474.03	5961.34
474.21	5905.17
474.39	6047.94
474.57	6097.10
474.75	6129.86
474.93	5954.32
475.12	6069.01
475.30	5998.79
475.48	6148.59
475.66	6143.91
475.84	6230.51
476.02	6333.49
476.20	6267.95
476.38	6363.92
476.56	6516.05
476.74	6492.65
476.92	6532.44
477.10	6539.46
477.28	6663.51
477.46	6506.69
477.64	6679.89
477.82	6593.29
478.00	6862.45
478.18	6885.86
478.36	6949.05
478.54	6778.19
478.72	6953.73
478.90	7190.13
479.08	7103.53
479.26	7169.06
479.44	7185.44
479.62	7344.60
479.80	7293.11
479.98	7262.68
480.16	7459.29
480.34	7440.56
480.52	7543.55
480.70	7681.64
480.88	7468.65
481.06	7541.21
481.24	7599.72
481.41	7789.30
481.59	7822.07
481.77	7901.65
481.95	7964.84
482.13	8044.42
482.31	8030.38
482.49	8074.85
482.67	8142.72
482.85	8353.37
483.03	8269.11
483.21	8336.99
483.39	8526.57
483.57	8587.43
483.74	8622.53
483.92	8592.11
484.10	8652.96
484.28	8887.01
484.46	8828.50
484.64	9280.22
484.82	9090.64
485.00	9027.45
485.18	9123.41
485.35	9329.38
485.53	9408.95
485.71	9551.73
485.89	9502.58
486.07	9441.72
486.25	9647.69
486.43	9453.42
486.61	9724.93
486.78	9750.67
486.96	9853.66
487.14	9947.28
487.32	9973.02
487.50	10090.05
487.68	10190.69
487.85	10193.03
488.03	10277.29
488.21	10373.25
488.39	10539.43
488.57	10729.02
488.75	10518.37
488.92	10633.05
489.10	10846.04
489.28	10803.91
489.46	11061.37
489.64	11009.88
489.81	11101.16
489.99	11274.36
490.17	11220.53
490.35	11386.71
490.53	11627.78
490.70	11587.99
490.88	11639.48
491.06	11913.33
491.24	11705.02
491.41	11744.81
491.59	11892.26
491.77	11840.77
491.95	11997.59
492.13	12114.61
492.30	12084.19
492.48	11995.25
492.66	12180.15
492.84	12365.05
493.01	12287.81
493.19	12355.69
493.37	12552.29
493.54	12620.17
493.72	12760.60
493.90	12681.02
494.08	12975.93
494.25	12996.99
494.43	12924.44
494.61	13406.59
494.79	12982.95
494.96	13319.99
495.14	13111.68
495.32	13158.49
495.49	13231.05
495.67	13748.31
495.85	13439.36
496.02	13568.09
496.20	13909.80
496.38	13879.38
496.55	13790.44
496.73	14188.33
496.91	14017.47
497.09	14335.78
497.26	14190.67
497.44	14104.07
497.62	14253.86
497.79	14565.15
497.97	14342.80
498.14	14752.40
498.32	14717.29
498.50	14822.61
498.67	14846.02
498.85	14750.06
499.03	14951.34
499.20	14764.10
499.38	14972.41
499.56	15169.01
499.73	15059.01
499.91	15314.13
500.08	15405.41
500.26	14956.02
500.44	15382.00
500.61	15377.32
500.79	15442.85
500.97	15726.06
501.14	15681.59
501.32	15789.25
501.49	15915.64
501.67	15679.25
501.84	15637.12
502.02	15786.91
502.20	15978.84
502.37	15812.66
502.55	15976.50
502.72	16095.86
502.90	16030.33
503.07	15768.19
503.25	16095.86
503.43	16290.13
503.60	16393.11
503.78	16484.39
503.95	16390.77
504.13	16542.91
504.30	16627.17
504.48	16704.40
504.65	16547.59
504.83	16966.54
505.01	16966.54
505.18	16915.05
505.36	16819.09
505.53	16905.69
505.71	16896.33
505.88	17296.56
506.06	16975.91
506.23	17174.85
506.41	17205.28
506.58	17254.43
506.76	17586.79
506.93	17231.02
507.11	17425.29
507.28	17095.27
507.46	17319.96
507.63	17605.51
507.81	17802.11
507.98	17544.66
508.16	17446.35
508.33	17940.21
508.50	17804.46
508.68	17783.39
508.85	18326.39
509.03	17972.97
509.20	18471.51
509.38	18281.92
509.55	18169.58
509.73	18120.43
509.90	18090.00
510.08	18354.48
510.25	18340.44
510.42	18347.46
510.60	18567.47
510.77	18712.58
510.95	18532.36
511.12	18705.56
511.30	18710.24
511.47	18733.65
511.64	18520.66
511.82	18876.42
511.99	18698.54
512.17	19117.50
512.34	18897.49
512.51	19391.34
512.69	19068.34
512.86	18864.72
513.04	19374.95
513.21	19620.71
513.38	19066.00
513.56	19288.35
513.73	19122.18
513.90	19445.17
514.08	19204.10
514.25	19740.08
514.43	19562.20
514.60	19812.63
514.77	19599.65
514.95	19796.25
515.12	19513.05
515.29	19604.33
515.47	20030.30
515.64	20016.26
515.81	19702.63
515.99	20051.37
516.16	19981.15
516.33	20023.28
516.51	20205.84
516.68	19854.76
516.85	20325.21
517.03	20467.98
517.20	20271.38
517.37	20252.66
517.54	20388.41
517.72	20219.89
517.89	20475.01
518.06	20514.80
518.24	20491.39
518.41	20732.47
518.58	20613.10
518.75	20437.56
518.93	20765.23
519.10	20802.68
519.27	20798.00
519.45	20725.44
519.62	20893.96
519.79	20601.40
519.96	20947.79
520.14	21317.60
520.31	20968.86
520.48	21060.14
520.65	20947.79
520.83	21247.38
521.00	21088.23
521.17	21404.20
521.34	21298.88
521.52	21268.45
521.69	21486.12
521.86	21568.04
522.03	21530.59
522.20	21635.91
522.38	21689.74
522.55	21610.17
522.72	21881.67
522.89	21624.21
523.07	21841.88
523.24	21902.73
523.41	22038.48
523.58	21696.77
523.75	21912.10
523.92	21961.25
524.10	21905.07
524.27	22059.55
524.44	22511.27
524.61	22307.65
524.78	22162.53
524.96	22464.46
525.13	22146.15
525.30	22340.41
525.47	22415.31
525.64	22209.34
525.81	22714.90
525.98	22593.19
526.16	22614.26
526.33	22675.11
526.50	22506.59
526.67	22719.58
526.84	22527.66
527.01	22319.35
527.18	22888.10
527.36	22981.72
527.53	22909.16
527.70	22988.74
527.87	23218.11
528.04	23030.87
528.21	23173.64
528.38	23234.50
528.55	22862.35
528.72	23143.22
528.89	23438.12
529.07	22803.84
529.24	23077.68
529.41	23377.27
529.58	23220.45
529.75	23325.78
529.92	23424.08
530.09	23255.56
530.26	23573.88
530.43	23583.24
530.60	23332.80
530.77	23562.17
530.94	23477.91
531.11	23857.08
531.28	23178.33
531.46	23625.37
531.63	23805.59
531.80	24088.79
531.97	23630.05
532.14	23601.96
532.31	23817.29
532.48	23548.13
532.65	24114.54
532.82	23688.56
532.99	23969.43
533.16	24004.53
533.33	24018.58
533.50	24060.71
533.67	24177.73
533.84	24065.39
534.01	24212.84
534.18	24034.96
534.35	24456.26
534.52	24140.29
534.69	24456.26
534.86	24723.08
535.03	24435.19
535.20	24587.33
535.37	24570.94
535.54	24594.35
535.71	24400.08
535.88	24348.59
536.05	24772.23
536.22	24627.12
536.38	24659.88
536.55	25104.59
536.72	24905.64
536.89	24690.31
537.06	24760.53
537.23	24954.79
537.40	24753.51
537.57	24687.97
537.74	25034.37
537.91	25088.20
538.08	25240.34
538.25	24950.11
538.42	25008.62
538.59	25200.55
538.75	24865.85
538.92	25273.10
539.09	25371.41
539.26	25174.80
539.43	25350.34
539.60	25315.23
539.77	25228.63
539.94	25294.17
540.11	25088.20
540.28	25275.45
540.44	25493.12
540.61	25436.94
540.78	25476.73
540.95	25291.83
541.12	25530.56
541.29	25511.84
541.46	25788.02
541.62	25652.27
541.79	25460.35
541.96	25493.12
542.13	25738.87
542.30	25631.21
542.47	25940.16
542.63	26223.36
542.80	25883.98
542.97	26054.84
543.14	26396.56
543.31	25811.43
543.48	26092.29
543.64	26417.63
543.81	26251.45
543.98	26305.28
544.15	26588.49
544.32	26281.88
544.48	26689.13
544.65	26352.09
544.82	25965.90
544.99	26029.10
545.16	26551.04
545.32	26221.02
545.49	26827.22
545.66	26747.64
545.83	26700.83
546.00	26752.32
546.16	26574.44
546.33	26565.08
546.50	26253.79
546.67	26869.35
546.83	26551.04
547.00	26824.88
547.17	26469.12
547.34	26899.78
547.50	26789.77
547.67	27012.12
547.84	26780.41
548.00	26848.29
548.17	26670.40
548.34	27058.93
548.51	27225.11
548.67	26906.80
548.84	27377.25
549.01	27152.55
549.18	26848.29
549.34	26862.33
549.51	26761.69
549.68	26857.65
549.84	26890.41
550.01	26885.73
550.18	27192.34
550.34	27328.10
550.51	27447.46
550.68	27344.48
550.84	27103.40
551.01	26967.65
551.18	27082.34
551.34	27194.68
551.51	27140.85
551.68	27278.94
551.84	27669.81
552.01	27601.94
552.18	27173.62
552.34	27419.38
552.51	27438.10
552.68	27316.39
552.84	27428.74
553.01	27962.38
553.18	27580.87
553.34	27573.85
553.51	27644.07
553.67	27601.94
553.84	28020.89
554.01	27931.95
554.17	27924.93
554.34	27700.24
554.51	27917.91
554.67	27814.93
554.84	27953.02
555.00	27672.15
555.17	27931.95
555.33	28020.89
555.50	27990.47
555.67	28016.21
555.83	27894.50
556.00	27971.74
556.16	28259.63
556.33	28299.42
556.50	28166.01
556.66	28343.89
556.83	27828.97
556.99	28308.78
557.16	28582.62
557.32	28381.34
557.49	28268.99
557.65	27927.27
557.82	27946.00
557.98	28189.41
558.15	28116.86
558.32	28376.66
558.48	28254.95
558.65	28634.11
558.81	27997.49
558.98	28425.81
559.14	28287.71
559.31	28400.06
559.47	28657.52
559.64	28463.25
559.80	28184.73
559.97	28500.70
560.13	28465.60
560.30	28734.76
560.46	28594.32
560.63	28456.23
560.79	28460.91
560.96	28662.20
561.12	28783.91
561.29	28507.72
561.45	28781.57
561.61	28540.49
561.78	28861.15
561.94	28477.30
562.11	28526.45
562.27	28809.65
562.44	28545.17
562.60	28676.24
562.77	28465.60
562.93	28568.58
563.10	28727.74
563.26	28458.57
563.42	28957.11
563.59	28732.42
563.75	28627.09
563.92	28788.59
564.08	28837.74
564.24	28694.97
564.41	28208.14
564.57	28531.13
564.74	28769.86
564.90	28652.84
565.07	28980.51
565.23	29125.63
565.39	28987.53
565.56	28671.56
565.72	28861.15
565.88	28896.25
566.05	28943.06
566.21	28657.52
566.38	28795.61
566.54	28870.51
566.70	28989.88
566.87	28987.53
567.03	29120.95
567.19	29462.66
567.36	29226.27
567.52	29130.31
567.68	29333.93
567.85	28856.46
568.01	28924.34
568.17	29179.46
568.34	29174.78
568.50	29446.28
568.66	29205.20
568.83	29228.61
568.99	29591.39
569.15	28945.41
569.32	29221.59
569.48	29198.18
569.64	29057.75
569.81	29364.36
569.97	29099.88
570.13	29333.93
570.30	29219.25
570.46	29186.48
570.62	29441.60
570.78	28886.89
570.95	28982.85
571.11	29113.92
571.27	28964.13
571.43	28849.44
571.60	29083.50
571.76	29097.54
571.92	28891.57
572.09	29060.09
572.25	28987.53
572.41	29453.30
572.57	29401.81
572.74	29252.02
572.90	29158.39
573.06	29273.08
573.22	29015.62
573.38	29521.18
573.55	29317.55
573.71	29565.65
573.87	29542.24
574.03	29521.18
574.20	29401.81
574.36	29163.08
574.52	29355.00
574.68	29476.71
574.84	29291.80
575.01	29418.19
575.17	29390.11
575.33	29254.36
575.49	29378.40
575.65	29493.09
575.82	29565.65
575.98	29275.42
576.14	29254.36
576.30	29603.10
576.46	29397.13
576.62	29186.48
576.79	29727.14
576.95	29296.49
577.11	29380.74
577.27	29771.61
577.43	29490.75
577.59	29539.90
577.75	29567.99
577.92	29139.67
578.08	29626.50
578.24	29198.18
578.40	29523.52
578.56	29366.70
578.72	29743.53
578.88	29778.64
579.04	29399.47
579.21	29495.43
579.37	29731.83
579.53	29979.92
579.69	29256.70
579.85	29198.18
580.01	29380.74
580.17	29436.92
580.33	29696.72
580.49	29497.77
580.65	29670.97
580.82	29476.71
580.98	29535.22
581.14	29663.95
581.30	29575.01
581.46	29397.13
581.62	29460.32
581.78	29469.69
581.94	29600.76
582.10	29074.13
582.26	29514.16
582.42	29481.39
582.58	30005.67
582.74	29621.82
582.90	29514.16
583.06	29380.74
583.22	29434.58
583.38	29860.55
583.54	29469.69
583.70	29865.24
583.86	29551.60
584.02	29752.89
584.18	29287.12
584.34	29537.56
584.50	29722.46
584.66	29385.43
584.82	29277.76
584.98	29572.67
585.14	29413.51
585.30	29415.85
585.46	29916.73
585.62	29858.21
585.78	29565.65
585.94	29460.32
586.10	30015.03
586.26	29846.51
586.42	29912.05
586.58	29970.56
586.74	29797.36
586.90	29495.43
587.06	29369.04
587.22	29617.14
587.38	29551.60
587.54	29776.30
587.70	29949.50
587.86	29816.08
588.02	29598.41
588.18	29841.83
588.34	30010.35
588.49	29287.12
588.65	29858.21
588.81	29956.52
588.97	29818.42
589.13	29523.52
589.29	29972.90
589.45	30176.53
589.61	30008.01
589.77	29757.57
589.93	29436.92
590.08	30176.53
590.24	30059.50
590.40	29907.37
590.56	29926.09
590.72	29715.44
590.88	29783.32
591.04	29928.43
591.20	30059.50
591.35	29944.81
591.51	30553.35
591.67	30164.82
591.83	30323.98
591.99	30057.16
