SpectraSuite Data File
++++++++++++++++++++++++++++++++++++
Date: Fri Oct 18 13:58:41 GMT-05:00 2013
User: bianchi
Dark Spectrum Present: No
Reference Spectrum Present: No
Number of Sampled Component Spectra: 1
Spectrometers: USB2+H05261
Integration Time (usec): 50000 (USB2+H05261)
Spectra Averaged: 1 (USB2+H05261)
Boxcar Smoothing: 0 (USB2+H05261)
Correct for Electrical Dark: No (USB2+H05261)
Strobe/Lamp Enabled: No (USB2+H05261)
Correct for Detector Non-linearity: No (USB2+H05261)
Correct for Stray Light: No (USB2+H05261)
Number of Pixels in Processed Spectrum: 2048
>>>>>Begin Processed Spectral Data<<<<<
365.73	18.72
365.92	18.72
366.12	18.72
366.32	0.00
366.52	0.00
366.72	0.00
366.91	0.00
367.11	0.00
367.31	0.00
367.51	0.00
367.70	0.00
367.90	0.00
368.10	0.00
368.30	0.00
368.49	0.00
368.69	0.00
368.89	0.00
369.09	0.00
369.28	0.00
369.48	0.00
369.68	0.00
369.87	0.00
370.07	0.00
370.27	0.00
370.47	0.00
370.66	77.24
370.86	79.58
371.06	46.81
371.25	110.01
371.45	112.35
371.65	152.13
371.84	149.79
372.04	105.32
372.24	180.22
372.44	184.90
372.63	299.59
372.83	203.63
373.03	201.29
373.22	227.03
373.42	114.69
373.62	210.65
373.81	210.65
374.01	227.03
374.21	212.99
374.40	283.20
374.60	262.14
374.79	266.82
374.99	227.03
375.19	234.05
375.38	299.59
375.58	220.01
375.78	294.91
375.97	229.37
376.17	283.20
376.37	292.57
376.56	259.80
376.76	327.68
376.95	212.99
377.15	315.97
377.35	318.31
377.54	271.50
377.74	210.65
377.93	294.91
378.13	348.74
378.33	304.27
378.52	238.73
378.72	278.52
378.91	290.23
379.11	212.99
379.31	301.93
379.50	229.37
379.70	330.02
379.89	306.61
380.09	294.91
380.28	262.14
380.48	315.97
380.68	346.40
380.87	330.02
381.07	318.31
381.26	304.27
381.46	287.89
381.65	325.33
381.85	341.72
382.04	320.65
382.24	365.12
382.43	292.57
382.63	365.12
382.83	306.61
383.02	290.23
383.22	400.23
383.41	320.65
383.61	390.87
383.80	320.65
384.00	362.78
384.19	353.42
384.39	393.21
384.58	437.68
384.78	395.55
384.97	437.68
385.17	400.23
385.36	290.23
385.56	393.21
385.75	322.99
385.95	411.93
386.14	416.62
386.34	402.57
386.53	400.23
386.72	402.57
386.92	407.25
387.11	425.98
387.31	428.32
387.50	442.36
387.70	449.38
387.89	423.64
388.09	440.02
388.28	437.68
388.48	386.19
388.67	561.73
388.86	423.64
389.06	456.40
389.25	461.09
389.45	409.59
389.64	472.79
389.84	421.30
390.03	463.43
390.22	465.77
390.42	411.93
390.61	510.24
390.81	482.15
391.00	559.39
391.19	477.47
391.39	468.11
391.58	521.94
391.78	489.17
391.97	489.17
392.16	582.79
392.36	613.22
392.55	521.94
392.75	521.94
392.94	503.22
393.13	514.92
393.33	554.71
393.52	526.62
393.71	514.92
393.91	580.45
394.10	627.26
394.29	531.30
394.49	545.34
394.68	603.86
394.88	587.47
395.07	622.58
395.26	615.56
395.46	594.50
395.65	601.52
395.84	571.09
396.04	739.61
396.23	629.60
396.42	615.56
396.62	674.07
396.81	582.79
397.00	566.41
397.19	671.73
397.39	671.73
397.58	624.92
397.77	547.69
397.97	667.05
398.16	566.41
398.35	713.86
398.55	688.12
398.74	798.12
398.93	695.14
399.12	730.25
399.32	716.20
399.51	784.08
399.70	662.37
399.90	716.20
400.09	725.57
400.28	772.38
400.47	777.06
400.67	744.29
400.86	760.67
401.05	734.93
401.24	767.70
401.44	760.67
401.63	882.38
401.82	826.21
402.01	760.67
402.21	805.14
402.40	936.21
402.59	795.78
402.78	901.11
402.97	819.19
403.17	828.55
403.36	840.25
403.55	887.06
403.74	880.04
403.93	985.37
404.13	875.36
404.32	901.11
404.51	833.23
404.70	940.90
404.89	1018.13
405.09	856.64
405.28	938.55
405.47	851.96
405.66	980.68
405.85	870.68
406.05	961.96
406.24	1027.50
406.43	1006.43
406.62	1004.09
406.81	1071.97
407.00	936.21
407.20	943.24
407.39	1018.13
407.58	1043.88
407.77	1060.26
407.96	1048.56
408.15	1128.14
408.34	973.66
408.54	1020.47
408.73	1083.67
408.92	1146.86
409.11	1125.80
409.30	1062.60
409.49	1125.80
409.68	1125.80
409.87	1130.48
410.07	1146.86
410.26	1081.33
410.45	1184.31
410.64	1097.71
410.83	1135.16
411.02	1181.97
411.21	1277.93
411.40	1203.04
411.59	1245.16
411.78	1214.74
411.98	1317.72
412.17	1320.06
412.36	1212.40
412.55	1334.11
412.74	1303.68
412.93	1301.34
413.12	1193.67
413.31	1373.89
413.50	1376.24
413.69	1430.07
413.88	1423.05
414.07	1401.98
414.26	1404.32
414.45	1572.84
414.64	1479.22
414.83	1465.18
415.02	1441.77
415.22	1446.45
415.41	1554.12
415.60	1516.67
415.79	1551.78
415.98	1540.07
416.17	1521.35
416.36	1556.46
416.55	1593.90
416.74	1605.61
416.93	1589.22
417.12	1624.33
417.31	1760.08
417.50	1678.16
417.69	1750.72
417.88	1795.19
418.07	1764.76
418.26	1636.03
418.45	1729.66
418.64	1893.49
418.83	1799.87
419.02	1739.02
419.21	1834.98
419.39	1790.51
419.58	1757.74
419.77	1769.44
419.96	1830.30
420.15	1785.83
420.34	1818.60
420.53	1942.64
420.72	1856.04
420.91	1933.28
421.10	1970.73
421.29	1954.35
421.48	1865.41
421.67	1940.30
421.86	1970.73
422.05	1942.64
422.24	1926.26
422.43	2038.61
422.61	1921.58
422.80	2033.93
422.99	2047.97
423.18	1926.26
423.37	2043.29
423.56	2097.12
423.75	2019.88
423.94	1900.52
424.13	1923.92
424.32	1881.79
424.50	2092.44
424.69	2076.06
424.88	2122.87
425.07	2052.65
425.26	1902.86
425.45	1944.99
425.64	1952.01
425.83	1996.48
426.01	2076.06
426.20	2038.61
426.39	1947.33
426.58	2003.50
426.77	2073.71
426.96	2019.88
427.15	2134.57
427.33	2122.87
427.52	2090.10
427.71	2132.23
427.90	2167.34
428.09	2132.23
428.28	2202.44
428.46	2040.95
428.65	2249.25
428.84	2296.07
429.03	2228.19
429.22	2207.13
429.40	2228.19
429.59	2218.83
429.78	2160.31
429.97	2162.66
430.16	2228.19
430.34	2356.92
430.53	2326.49
430.72	2387.35
430.91	2403.73
431.10	2223.51
431.28	2340.54
431.47	2347.56
431.66	2342.88
431.85	2181.38
432.03	2342.88
432.22	2413.09
432.41	2441.18
432.60	2345.22
432.79	2464.58
432.97	2342.88
433.16	2443.52
433.35	2502.03
433.54	2480.97
433.72	2546.50
433.91	2480.97
434.10	2459.90
434.28	2422.45
434.47	2553.52
434.66	2548.84
434.85	2516.08
435.03	2520.76
435.22	2544.16
435.41	2644.81
435.59	2635.44
435.78	2609.70
435.97	2642.46
436.16	2766.51
436.34	2696.30
436.53	2698.64
436.72	2733.75
436.90	2722.04
437.09	2651.83
437.28	2684.59
437.46	2726.72
437.65	2726.72
437.84	2705.66
438.02	2729.06
438.21	2759.49
438.40	2825.03
438.58	2864.82
438.77	2923.33
438.96	2853.11
439.14	2916.31
439.33	2855.45
439.52	2967.80
439.70	2939.71
439.89	2867.16
440.08	3073.12
440.26	3007.59
440.45	2991.20
440.63	3115.25
440.82	3082.49
441.01	3049.72
441.19	2995.89
441.38	3187.81
441.57	3103.55
441.75	3222.92
441.94	3300.16
442.12	3321.22
442.31	3382.07
442.50	3258.03
442.68	3253.34
442.87	3159.72
443.05	3215.90
443.24	3538.89
443.43	3255.69
443.61	3332.92
443.80	3403.14
443.98	3314.20
444.17	3332.92
444.35	3482.72
444.54	3410.16
444.73	3433.57
444.91	3307.18
445.10	3503.78
445.28	3468.67
445.47	3335.26
445.65	3309.52
445.84	3550.59
446.02	3482.72
446.21	3377.39
446.39	3410.16
446.58	3552.93
446.77	3447.61
446.95	3419.52
447.14	3609.11
447.32	3583.36
447.51	3506.12
447.69	3407.82
447.88	3590.38
448.06	3548.25
448.25	3583.36
448.43	3534.21
448.62	3548.25
448.80	3555.27
448.99	3576.34
449.17	3604.42
449.36	3576.34
449.54	3613.79
449.73	3648.90
449.91	3681.66
450.10	3669.96
450.28	3779.97
450.46	3646.55
450.65	3627.83
450.83	3770.60
451.02	3850.18
451.20	3948.48
451.39	3770.60
451.57	3695.71
451.76	3737.84
451.94	3686.34
452.13	3880.61
452.31	3838.48
452.49	3861.88
452.68	3847.84
452.86	3833.80
453.05	3822.09
453.23	3894.65
453.42	3779.97
453.60	3871.25
453.78	3908.69
453.97	3918.06
454.15	3838.48
454.34	3857.20
454.52	4002.32
454.70	4044.45
454.89	3922.74
455.07	3981.25
455.26	4039.76
455.44	3988.27
455.62	3960.19
455.81	4107.64
455.99	4145.09
456.17	4114.66
456.36	3988.27
456.54	4271.48
456.73	4297.22
456.91	4234.03
457.09	4318.29
457.28	4290.20
457.46	4208.28
457.64	4402.55
457.83	4196.58
458.01	4215.30
458.19	4414.25
458.38	4400.21
458.56	4360.42
458.74	4423.61
458.93	4484.47
459.11	4472.76
459.29	4512.55
459.48	4507.87
459.66	4365.10
459.84	4367.44
460.03	4641.28
460.21	4582.77
460.39	4608.51
460.57	4575.75
460.76	4657.67
460.94	4564.04
461.12	4608.51
461.31	4603.83
461.49	4587.45
461.67	4615.54
461.85	4613.20
462.04	4671.71
462.22	4709.16
462.40	4660.01
462.59	4833.21
462.77	4760.65
462.95	4849.59
463.13	4798.10
463.32	4720.86
463.50	4709.16
463.68	4894.06
463.86	4854.27
464.05	4798.10
464.23	4835.55
464.41	4837.89
464.59	4725.54
464.78	5004.07
464.96	5041.51
465.14	4865.97
465.32	4887.04
465.50	5071.94
465.69	5041.51
465.87	4994.70
466.05	5062.58
466.23	4978.32
466.41	5041.51
466.60	5095.35
466.78	4919.81
466.96	5032.15
467.14	5027.47
467.32	5151.52
467.51	5114.07
467.69	5036.83
467.87	5195.99
468.05	5149.18
468.23	5060.24
468.41	5167.90
468.60	5156.20
468.78	5198.33
468.96	5245.14
469.14	5221.74
469.32	5528.35
469.50	5170.24
469.69	5289.61
469.87	5413.66
470.05	5420.68
470.23	5385.57
470.41	5425.36
470.59	5418.34
470.77	5401.96
470.95	5446.43
471.14	5544.73
471.32	5526.00
471.50	5507.28
471.68	5427.70
471.86	5556.43
472.04	5605.58
472.22	5701.54
472.40	5645.37
472.58	5696.86
472.77	5827.93
472.95	5727.29
473.13	5973.05
473.31	5746.02
473.49	5907.51
473.67	5900.49
473.85	5820.91
474.03	6008.16
474.21	5893.47
474.39	6043.26
474.57	6029.22
474.75	6179.01
474.93	6087.73
475.12	6228.17
475.30	6183.70
475.48	6223.48
475.66	6190.72
475.84	6291.36
476.02	6282.00
476.20	6450.52
476.38	6349.87
476.56	6572.22
476.74	6478.60
476.92	6333.49
477.10	6455.20
477.28	6590.95
477.46	6551.16
477.64	6626.06
477.82	6853.09
478.00	7037.99
478.18	6949.05
478.36	6869.47
478.54	7166.72
478.72	7124.59
478.90	6984.16
479.08	7218.21
479.26	7103.53
479.44	7342.26
479.62	7552.91
479.80	7339.92
479.98	7330.56
480.16	7433.54
480.34	7473.33
480.52	7566.95
480.70	7433.54
480.88	7499.08
481.06	7674.62
481.24	7611.42
481.41	7585.68
481.59	7845.48
481.77	8095.91
481.95	7950.80
482.13	7925.05
482.31	8102.93
482.49	8423.59
482.67	8257.41
482.85	8439.97
483.03	8393.16
483.21	8322.94
483.39	8589.77
483.57	8493.80
483.74	8592.11
483.92	8594.45
484.10	8739.56
484.28	8978.30
484.46	8889.35
484.64	9322.35
484.82	9156.18
485.00	9144.47
485.18	9179.58
485.35	9392.57
485.53	9167.88
485.71	9399.59
485.89	9577.47
486.07	9469.81
486.25	9507.26
486.43	9483.85
486.61	9778.76
486.78	10003.45
486.96	9930.89
487.14	10031.54
487.32	9947.28
487.50	10274.95
487.68	10122.82
487.85	10232.82
488.03	10656.46
488.21	10574.54
488.39	10607.31
488.57	10574.54
488.75	10597.95
488.92	10853.06
489.10	10869.45
489.28	11122.23
489.46	10881.15
489.64	11091.80
489.81	11391.39
489.99	11171.38
490.17	11286.06
490.35	11499.05
490.53	11733.11
490.70	11698.00
490.88	11456.92
491.06	11590.33
491.24	11915.67
491.41	11838.43
491.59	11927.37
491.77	11885.24
491.95	12013.97
492.13	12006.95
492.30	12051.42
492.48	12238.66
492.66	12346.33
492.84	12264.41
493.01	12571.02
493.19	12519.53
493.37	12697.41
493.54	12582.72
493.72	12699.75
493.90	12645.91
494.08	12739.54
494.25	12996.99
494.43	12959.55
494.61	13476.80
494.79	13174.88
494.96	13137.43
495.14	13170.19
495.32	13235.73
495.49	13345.73
495.67	13593.83
495.85	13589.15
496.02	13628.94
496.20	13774.05
496.38	13907.46
496.55	13715.54
496.73	14319.40
496.91	13996.40
497.09	14115.77
497.26	14209.39
497.44	14300.67
497.62	14305.35
497.79	14260.88
497.97	14300.67
498.14	14637.71
498.32	14541.75
498.50	14658.78
498.67	14764.10
498.85	14918.57
499.03	14979.43
499.20	14714.95
499.38	14841.34
499.56	14944.32
499.73	15051.99
499.91	15585.63
500.08	15197.10
500.26	15192.42
500.44	15398.38
500.61	15447.54
500.79	15459.24
500.97	15470.94
501.14	15634.78
501.32	15784.57
501.49	15740.10
501.67	15852.45
501.84	15662.86
502.02	15868.83
502.20	16042.03
502.37	16035.01
502.55	16149.70
502.72	16042.03
502.90	16016.29
503.07	16194.17
503.25	16292.47
503.43	16304.17
503.60	16400.13
503.78	16592.06
503.95	16575.67
504.13	16423.54
504.30	16596.74
504.48	16556.95
504.65	16945.48
504.83	17062.51
505.01	16938.46
505.18	16821.43
505.36	17338.69
505.53	16720.79
505.71	16858.88
505.88	17128.04
506.06	17008.67
506.23	17338.69
506.41	17160.81
506.58	17312.94
506.76	17376.14
506.93	17179.53
507.11	17123.36
507.28	17364.43
507.46	17525.93
507.63	17444.01
507.81	17642.96
507.98	17720.20
508.16	17600.83
508.33	17582.10
508.50	17502.53
508.68	17823.18
508.85	18005.74
509.03	18176.60
509.20	17811.48
509.38	18349.80
509.55	18197.67
509.73	18178.94
509.90	18319.37
510.08	18366.18
510.25	18443.42
510.42	18356.82
510.60	18333.42
510.77	18473.85
510.95	18700.88
511.12	18471.51
511.30	18600.24
511.47	18539.38
511.64	18651.73
511.82	18965.36
511.99	19178.35
512.17	18941.96
512.34	18857.70
512.51	19056.64
512.69	19239.20
512.86	19042.60
513.04	19295.38
513.21	19229.84
513.38	19461.55
513.56	19084.73
513.73	19042.60
513.90	19396.02
514.08	19276.65
514.25	19559.86
514.43	20049.03
514.60	19812.63
514.77	19758.80
514.95	19789.23
515.12	19426.45
515.29	19599.65
515.47	19644.12
515.64	19948.39
515.81	19803.27
515.99	19896.89
516.16	20156.69
516.33	20226.91
516.51	20549.90
516.68	20236.27
516.85	20067.75
517.03	20306.49
517.20	19997.54
517.37	20390.75
517.54	20655.23
517.72	20479.69
517.89	20477.35
518.06	20524.16
518.24	20259.68
518.41	20538.20
518.58	20533.52
518.75	20566.29
518.93	20629.48
519.10	20875.24
519.27	21195.89
519.45	20826.09
519.62	21200.57
519.79	20676.29
519.96	20950.14
520.14	21231.00
520.31	21221.64
520.48	20886.94
520.65	20858.85
520.83	21212.28
521.00	21420.58
521.17	21092.91
521.34	21275.47
521.52	21413.56
521.69	21448.67
521.86	21816.13
522.03	21612.51
522.20	21626.55
522.38	22015.08
522.55	21390.16
522.72	21673.36
522.89	21762.30
523.07	22204.66
523.24	22017.42
523.41	22033.80
523.58	21891.03
523.75	22160.19
523.92	22134.45
524.10	21879.33
524.27	21930.82
524.44	22197.64
524.61	22331.05
524.78	22352.12
524.96	22424.67
525.13	22384.88
525.30	22637.66
525.47	22207.00
525.64	22345.09
525.81	22567.45
525.98	22815.54
526.16	22803.84
526.33	22761.71
526.50	22773.41
526.67	22499.57
526.84	22719.58
527.01	22916.19
527.18	22899.80
527.36	22738.30
527.53	22883.42
527.70	23084.70
527.87	23342.16
528.04	23089.38
528.21	23061.30
528.38	23002.78
528.55	23316.42
528.72	23143.22
528.89	23061.30
529.07	23339.82
529.24	23461.53
529.41	23365.57
529.58	23206.41
529.75	23201.73
529.92	23281.31
530.09	23508.34
530.26	23564.51
530.43	23683.88
530.60	23419.40
530.77	23718.99
530.94	23826.65
531.11	23667.50
531.28	23576.22
531.46	23606.64
531.63	23599.62
531.80	24037.30
531.97	24056.03
532.14	24074.75
532.31	24121.56
532.48	23915.59
532.65	24400.08
532.82	23672.18
532.99	24119.22
533.16	24102.84
533.33	24212.84
533.50	24465.62
533.67	24102.84
533.84	24205.82
534.01	24261.99
534.18	23990.49
534.35	24292.42
534.52	24041.98
534.69	24067.73
534.86	24542.86
535.03	24673.93
535.20	24718.40
535.37	24362.64
535.54	24528.81
535.71	24423.49
535.88	24870.53
536.05	24685.63
536.22	24725.42
536.38	24833.08
536.55	25174.80
536.72	25429.92
536.89	24685.63
537.06	25104.59
537.23	24975.86
537.40	25043.73
537.57	24959.47
537.74	24945.43
537.91	25446.30
538.08	25324.60
538.25	25186.50
538.42	25010.96
538.59	25017.99
538.75	24732.44
538.92	25062.46
539.09	25603.12
539.26	25259.06
539.43	25422.90
539.60	25387.79
539.77	25441.62
539.94	25813.77
540.11	25462.69
540.28	25329.28
540.44	25450.99
540.61	25390.13
540.78	25694.40
540.95	25532.90
541.12	25706.10
541.29	25778.66
541.46	25762.28
541.62	25273.10
541.79	25837.17
541.96	25542.27
542.13	25642.91
542.30	25874.62
542.47	25762.28
542.63	25862.92
542.80	26445.71
542.97	26305.28
543.14	26295.92
543.31	26375.50
543.48	25869.94
543.64	26199.96
543.81	26536.99
543.98	26260.81
544.15	26466.78
544.32	26260.81
544.48	26684.45
544.65	26501.89
544.82	26206.98
544.99	26574.44
545.16	26529.97
545.32	26359.11
545.49	26558.06
545.66	26574.44
545.83	26761.69
546.00	26700.83
546.16	26969.99
546.33	26632.96
546.50	26258.47
546.67	26644.66
546.83	26176.55
547.00	26504.23
547.17	26827.22
547.34	27002.76
547.50	26883.39
547.67	27054.25
547.84	27026.17
548.00	27370.22
548.17	27175.96
548.34	26654.02
548.51	26930.20
548.67	27295.33
548.84	27302.35
549.01	27487.25
549.18	27323.41
549.34	27044.89
549.51	27222.77
549.68	26960.63
549.84	27197.02
550.01	27208.73
550.18	27112.77
550.34	27098.72
550.51	27534.06
550.68	27337.46
550.84	27454.48
551.01	27508.32
551.18	27185.32
551.34	27704.92
551.51	27260.22
551.68	27892.16
551.84	27360.86
552.01	27571.51
552.18	27655.77
552.34	27241.50
552.51	27522.36
552.68	27407.67
552.84	27592.58
553.01	27571.51
553.18	27578.53
553.34	27800.88
553.51	27798.54
553.67	27672.15
553.84	28034.94
554.01	27782.16
554.17	27864.08
554.34	27920.25
554.51	27704.92
554.67	27775.14
554.84	27885.14
555.00	27814.93
555.17	27833.65
555.33	27826.63
555.50	27777.48
555.67	28032.60
555.83	28322.82
556.00	28343.89
556.16	28336.87
556.33	27824.29
556.50	27672.15
556.66	28048.98
556.83	28137.92
556.99	28376.66
557.16	28393.04
557.32	28187.07
557.49	28407.08
557.65	28170.69
557.82	28210.48
557.98	28299.42
558.15	28350.91
558.32	28573.26
558.48	28407.08
558.65	28760.50
558.81	28540.49
558.98	28594.32
559.14	28474.96
559.31	28453.89
559.47	28311.12
559.64	28355.59
559.80	28573.26
559.97	28467.94
560.13	28360.27
560.30	28676.24
560.46	28648.16
560.63	28500.70
560.79	28563.90
560.96	28744.12
561.12	29015.62
561.29	28400.06
561.45	28905.62
561.61	28781.57
561.78	28692.63
561.94	29032.00
562.11	29486.07
562.27	28765.18
562.44	28795.61
562.60	28453.89
562.77	28542.83
562.93	28479.64
563.10	29268.40
563.26	28863.49
563.42	29001.58
563.59	28781.57
563.75	28973.49
563.92	28807.31
564.08	28996.90
564.24	28739.44
564.41	28783.91
564.57	28645.82
564.74	28601.35
564.90	29324.57
565.07	29144.35
565.23	28994.56
565.39	29085.84
565.56	28711.35
565.72	28886.89
565.88	28802.63
566.05	29041.37
566.21	29102.22
566.38	29071.79
566.54	29235.63
566.70	29244.99
566.87	29317.55
567.03	28875.19
567.19	29310.53
567.36	29172.44
567.52	29347.98
567.68	29329.25
567.85	28645.82
568.01	29359.68
568.17	29207.55
568.34	29301.17
568.50	29198.18
568.66	29167.76
568.83	29689.70
568.99	29221.59
569.15	29259.04
569.32	29394.79
569.48	29034.35
569.64	29252.02
569.81	29516.50
569.97	29385.43
570.13	29380.74
570.30	29743.53
570.46	29193.50
570.62	29394.79
570.78	29518.84
570.95	29003.92
571.11	29450.96
571.27	29701.40
571.43	29069.45
571.60	29565.65
571.76	29202.86
571.92	29326.91
572.09	29331.59
572.25	29628.84
572.41	29303.51
572.57	29656.93
572.74	29593.73
572.90	28952.43
573.06	29296.49
573.22	29380.74
573.38	29359.68
573.55	29635.86
573.71	29701.40
573.87	29830.13
574.03	29362.02
574.20	29347.98
574.36	29546.92
574.52	29465.00
574.68	29469.69
574.84	29755.23
575.01	29209.89
575.17	29818.42
575.33	29596.07
575.49	29600.76
575.65	29846.51
575.82	29490.75
575.98	29905.02
576.14	29312.87
576.30	29425.22
576.46	29757.57
576.62	29326.91
576.79	29556.28
576.95	29390.11
577.11	29469.69
577.27	29802.04
577.43	29844.17
577.59	29230.95
577.75	29593.73
577.92	29624.16
578.08	29282.44
578.24	29429.90
578.40	29343.30
578.56	29635.86
578.72	29607.78
578.88	29996.31
579.04	30082.91
579.21	29989.28
579.37	29479.05
579.53	29701.40
579.69	29738.85
579.85	29780.98
580.01	29305.85
580.17	29252.02
580.33	29373.72
580.49	29443.94
580.65	30047.80
580.82	30033.75
580.98	29905.02
581.14	29785.66
581.30	29694.38
581.46	29523.52
581.62	29743.53
581.78	29366.70
581.94	29951.84
582.10	29673.31
582.26	29516.50
582.42	29977.58
582.58	29621.82
582.74	29790.34
582.90	29818.42
583.06	29886.30
583.22	29385.43
583.38	29582.03
583.54	29699.06
583.70	29577.35
583.86	29673.31
584.02	29509.47
584.18	29865.24
584.34	29993.97
584.50	30260.79
584.66	29858.21
584.82	29481.39
584.98	29696.72
585.14	29780.98
585.30	29844.17
585.46	29731.83
585.62	29706.08
585.78	29675.65
585.94	29970.56
586.10	29956.52
586.26	29731.83
586.42	29961.20
586.58	29809.06
586.74	29727.14
586.90	29282.44
587.06	29465.00
587.22	29497.77
587.38	29687.36
587.54	29722.46
587.70	29874.60
587.86	29937.79
588.02	30101.63
588.18	30092.27
588.34	29968.22
588.49	30045.46
588.65	29722.46
588.81	29376.06
588.97	30183.55
589.13	30005.67
589.29	29757.57
589.45	30029.07
589.61	30192.91
589.77	29914.39
589.93	30192.91
590.08	30132.06
590.24	30314.62
590.40	30345.05
590.56	30155.46
590.72	29764.59
590.88	30087.59
591.04	29706.08
591.20	30316.96
591.35	30401.22
591.51	30270.15
591.67	30508.88
591.83	30342.70
591.99	30382.49
