SpectraSuite Data File
++++++++++++++++++++++++++++++++++++
Date: Fri Oct 18 13:58:02 GMT-05:00 2013
User: bianchi
Dark Spectrum Present: No
Reference Spectrum Present: No
Number of Sampled Component Spectra: 1
Spectrometers: USB2+H05261
Integration Time (usec): 50000 (USB2+H05261)
Spectra Averaged: 1 (USB2+H05261)
Boxcar Smoothing: 0 (USB2+H05261)
Correct for Electrical Dark: No (USB2+H05261)
Strobe/Lamp Enabled: No (USB2+H05261)
Correct for Detector Non-linearity: No (USB2+H05261)
Correct for Stray Light: No (USB2+H05261)
Number of Pixels in Processed Spectrum: 2048
>>>>>Begin Processed Spectral Data<<<<<
365.73	0.00
365.92	0.00
366.12	0.00
366.32	0.00
366.52	0.00
366.72	0.00
366.91	0.00
367.11	0.00
367.31	0.00
367.51	0.00
367.70	0.00
367.90	0.00
368.10	0.00
368.30	0.00
368.49	0.00
368.69	0.00
368.89	0.00
369.09	0.00
369.28	0.00
369.48	0.00
369.68	0.00
369.87	0.00
370.07	0.00
370.27	0.00
370.47	0.00
370.66	105.32
370.86	98.30
371.06	126.39
371.25	187.24
371.45	86.60
371.65	236.39
371.84	138.09
372.04	140.43
372.24	194.26
372.44	117.03
372.63	208.31
372.83	236.39
373.03	278.52
373.22	212.99
373.42	168.52
373.62	229.37
373.81	241.08
374.01	255.12
374.21	248.10
374.40	196.60
374.60	236.39
374.79	222.35
374.99	255.12
375.19	229.37
375.38	215.33
375.58	241.08
375.78	203.63
375.97	236.39
376.17	271.50
376.37	318.31
376.56	308.95
376.76	212.99
376.95	201.29
377.15	257.46
377.35	271.50
377.54	308.95
377.74	259.80
377.93	236.39
378.13	287.89
378.33	273.84
378.52	334.70
378.72	315.97
378.91	351.08
379.11	339.38
379.31	292.57
379.50	301.93
379.70	322.99
379.89	297.25
380.09	301.93
380.28	297.25
380.48	285.55
380.68	280.86
380.87	285.55
381.07	379.17
381.26	257.46
381.46	330.02
381.65	297.25
381.85	381.51
382.04	393.21
382.24	294.91
382.43	306.61
382.63	280.86
382.83	355.76
383.02	287.89
383.22	353.42
383.41	374.49
383.61	374.49
383.80	416.62
384.00	334.70
384.19	325.33
384.39	388.53
384.58	454.06
384.78	381.51
384.97	411.93
385.17	318.31
385.36	360.44
385.56	369.80
385.75	334.70
385.95	374.49
386.14	397.89
386.34	386.19
386.53	402.57
386.72	381.51
386.92	383.85
387.11	447.04
387.31	381.51
387.50	477.47
387.70	430.66
387.89	418.96
388.09	477.47
388.28	409.59
388.48	365.12
388.67	484.49
388.86	433.00
389.06	486.83
389.25	510.24
389.45	444.70
389.64	388.53
389.84	468.11
390.03	456.40
390.22	482.15
390.42	545.34
390.61	514.92
390.81	374.49
391.00	425.98
391.19	517.26
391.39	533.64
391.58	484.49
391.78	470.45
391.97	535.98
392.16	566.41
392.36	603.86
392.55	519.60
392.75	559.39
392.94	559.39
393.13	564.07
393.33	568.75
393.52	521.94
393.71	571.09
393.91	538.32
394.10	531.30
394.29	676.41
394.49	641.31
394.68	594.50
394.88	617.90
395.07	664.71
395.26	517.26
395.46	589.82
395.65	634.29
395.84	620.24
396.04	648.33
396.23	594.50
396.42	678.76
396.62	636.63
396.81	660.03
397.00	643.65
397.19	606.20
397.39	678.76
397.58	653.01
397.77	599.18
397.97	648.33
398.16	716.20
398.35	720.88
398.55	641.31
398.74	718.54
398.93	777.06
399.12	774.72
399.32	695.14
399.51	744.29
399.70	798.12
399.90	727.91
400.09	901.11
400.28	685.78
400.47	765.36
400.67	758.33
400.86	734.93
401.05	777.06
401.24	830.89
401.44	837.91
401.63	880.04
401.82	844.93
402.01	809.83
402.21	837.91
402.40	830.89
402.59	781.74
402.78	809.83
402.97	828.55
403.17	793.44
403.36	814.51
403.55	919.83
403.74	882.38
403.93	875.36
404.13	880.04
404.32	837.91
404.51	933.87
404.70	912.81
404.89	950.26
405.09	929.19
405.28	868.34
405.47	964.30
405.66	980.68
405.85	1022.81
406.05	1013.45
406.24	1004.09
406.43	954.94
406.62	1039.20
406.81	1008.77
407.00	1020.47
407.20	1015.79
407.39	1043.88
407.58	1076.65
407.77	1151.54
407.96	1095.37
408.15	1020.47
408.34	1032.18
408.54	1128.14
408.73	1036.86
408.92	1174.95
409.11	1118.78
409.30	1086.01
409.49	1121.12
409.68	1107.07
409.87	1088.35
410.07	1160.91
410.26	1083.67
410.45	1214.74
410.64	1118.78
410.83	1324.74
411.02	1249.85
411.21	1273.25
411.40	1214.74
411.59	1364.53
411.78	1181.97
411.98	1310.70
412.17	1392.62
412.36	1254.53
412.55	1306.02
412.74	1427.73
412.93	1369.21
413.12	1313.04
413.31	1397.30
413.50	1313.04
413.69	1378.58
413.88	1444.11
414.07	1345.81
414.26	1418.36
414.45	1434.75
414.64	1378.58
414.83	1479.22
415.02	1401.98
415.22	1591.56
415.41	1519.01
415.60	1598.59
415.79	1607.95
415.98	1584.54
416.17	1624.33
416.36	1638.38
416.55	1650.08
416.74	1652.42
416.93	1591.56
417.12	1654.76
417.31	1629.01
417.50	1734.34
417.69	1748.38
417.88	1675.82
418.07	1680.50
418.26	1717.95
418.45	1769.44
418.64	1790.51
418.83	1849.02
419.02	1743.70
419.21	1816.26
419.39	1891.15
419.58	1851.36
419.77	1781.15
419.96	1877.11
420.15	1813.92
420.34	1823.28
420.53	1825.62
420.72	1989.46
420.91	1921.58
421.10	1919.24
421.29	2033.93
421.48	1937.96
421.67	1893.49
421.86	1959.03
422.05	2043.29
422.24	2057.33
422.43	2050.31
422.61	1942.64
422.80	1891.15
422.99	1947.33
423.18	2073.71
423.37	2024.56
423.56	2038.61
423.75	2015.20
423.94	2008.18
424.13	1837.32
424.32	1902.86
424.50	2062.01
424.69	2083.08
424.88	1982.43
425.07	2054.99
425.26	2069.03
425.45	2029.24
425.64	2066.69
425.83	2129.89
426.01	2043.29
426.20	2047.97
426.39	2012.86
426.58	1940.30
426.77	2122.87
426.96	2136.91
427.15	2038.61
427.33	2080.74
427.52	2036.27
427.71	2160.31
427.90	2104.14
428.09	2284.36
428.28	2284.36
428.46	2307.77
428.65	2200.10
428.84	2235.21
429.03	2270.32
429.22	2092.44
429.40	2293.72
429.59	2267.98
429.78	2298.41
429.97	2190.74
430.16	2300.75
430.34	2228.19
430.53	2272.66
430.72	2319.47
430.91	2338.20
431.10	2380.32
431.28	2284.36
431.47	2359.26
431.66	2441.18
431.85	2415.43
432.03	2506.71
432.22	2502.03
432.41	2342.88
432.60	2527.78
432.79	2429.48
432.97	2532.46
433.16	2459.90
433.35	2438.84
433.54	2588.63
433.72	2464.58
433.91	2443.52
434.10	2506.71
434.28	2537.14
434.47	2544.16
434.66	2612.04
434.85	2602.68
435.03	2658.85
435.22	2558.21
435.41	2696.30
435.59	2651.83
435.78	2670.55
435.97	2640.12
436.16	2719.70
436.34	2644.81
436.53	2691.62
436.72	2626.08
436.90	2736.09
437.09	2754.81
437.28	2637.78
437.46	2815.66
437.65	2731.41
437.84	2750.13
438.02	2825.03
438.21	2780.56
438.40	2726.72
438.58	2892.90
438.77	2848.43
438.96	2771.19
439.14	2988.86
439.33	2920.99
439.52	3073.12
439.70	3045.04
439.89	2998.23
440.08	3087.17
440.26	3112.91
440.45	3023.97
440.63	3026.31
440.82	3073.12
441.01	3056.74
441.19	3180.79
441.38	3162.06
441.57	3246.32
441.75	3197.17
441.94	3236.96
442.12	3246.32
442.31	3215.90
442.50	3389.10
442.68	3295.47
442.87	3330.58
443.05	3335.26
443.24	3433.57
443.43	3389.10
443.61	3375.05
443.80	3597.40
443.98	3314.20
444.17	3260.37
444.35	3449.95
444.54	3456.97
444.73	3382.07
444.91	3403.14
445.10	3337.60
445.28	3520.17
445.47	3466.33
445.65	3403.14
445.84	3545.91
446.02	3445.27
446.21	3463.99
446.39	3454.63
446.58	3487.40
446.77	3520.17
446.95	3353.99
447.14	3557.61
447.32	3475.70
447.51	3508.46
447.69	3487.40
447.88	3581.02
448.06	3452.29
448.25	3471.01
448.43	3529.53
448.62	3548.25
448.80	3583.36
448.99	3639.53
449.17	3538.89
449.36	3588.04
449.54	3740.18
449.73	3676.98
449.91	3763.58
450.10	3630.17
450.28	3836.14
450.46	3726.13
450.65	3789.33
450.83	3829.12
451.02	3747.20
451.20	3840.82
451.39	3784.65
451.57	3761.24
451.76	3698.05
451.94	3875.93
452.13	3887.63
452.31	3889.97
452.49	3831.46
452.68	3901.67
452.86	3918.06
453.05	3875.93
453.23	3932.10
453.42	3983.59
453.60	3882.95
453.78	3873.59
453.97	3864.22
454.15	3836.14
454.34	3960.19
454.52	3880.61
454.70	3887.63
454.89	4030.40
455.07	4035.08
455.26	3971.89
455.44	4119.34
455.62	4086.58
455.81	4063.17
455.99	4124.02
456.17	4072.53
456.36	4269.14
456.54	4184.88
456.73	4390.84
456.91	4351.06
457.09	4418.93
457.28	4390.84
457.46	4355.74
457.64	4393.19
457.83	4470.42
458.01	4262.12
458.19	4266.80
458.38	4418.93
458.56	4362.76
458.74	4411.91
458.93	4409.57
459.11	4454.04
459.29	4430.63
459.48	4486.81
459.66	4498.51
459.84	4542.98
460.03	4702.14
460.21	4540.64
460.39	4496.17
460.57	4624.90
460.76	4535.96
460.94	4634.26
461.12	4533.62
461.31	4678.73
461.49	4671.71
461.67	4674.05
461.85	4695.11
462.04	4575.75
462.22	5071.94
462.40	4755.97
462.59	4777.03
462.77	4634.26
462.95	4774.69
463.13	4938.53
463.32	4880.02
463.50	4938.53
463.68	4816.82
463.86	4990.02
464.05	4753.63
464.23	4821.50
464.41	4908.10
464.59	4830.87
464.78	4924.49
464.96	4926.83
465.14	4833.21
465.32	4983.00
465.50	4933.85
465.69	5032.15
465.87	4938.53
466.05	5018.11
466.23	4997.04
466.41	5046.20
466.60	5118.75
466.78	5184.29
466.96	4997.04
467.14	5088.32
467.32	5114.07
467.51	5100.03
467.69	5165.56
467.87	5177.26
468.05	5200.67
468.23	5170.24
468.41	5212.37
468.60	5238.12
468.78	5228.76
468.96	5165.56
469.14	5343.44
469.32	5404.30
469.50	5303.65
469.69	5408.98
469.87	5397.28
470.05	5451.11
470.23	5343.44
470.41	5502.60
470.59	5495.58
470.77	5486.22
470.95	5497.92
471.14	5659.42
471.32	5535.37
471.50	5774.10
471.68	5696.86
471.86	5652.39
472.04	5748.36
472.22	5806.87
472.40	5851.34
472.58	5598.56
472.77	5795.17
472.95	5947.30
473.13	6066.67
473.31	5797.51
473.49	5755.38
473.67	5823.25
473.85	5996.45
474.03	5961.34
474.21	5975.39
474.39	5968.37
474.57	6078.37
474.75	6211.78
474.93	6263.27
475.12	6113.48
475.30	6251.57
475.48	6143.91
475.66	6445.84
475.84	6324.13
476.02	6356.90
476.20	6324.13
476.38	6616.69
476.56	6527.75
476.74	6541.80
476.92	6623.72
477.10	6633.08
477.28	6722.02
477.46	6700.95
477.64	6733.72
477.82	6906.92
478.00	7019.27
478.18	6951.39
478.36	6998.20
478.54	6923.30
478.72	7255.66
478.90	7033.31
479.08	7328.22
479.26	7248.64
479.44	7344.60
479.62	7375.03
479.80	7470.99
479.98	7473.33
480.16	7623.12
480.34	7461.63
480.52	7723.77
480.70	7782.28
480.88	7646.53
481.06	7609.08
481.24	7641.85
481.41	7705.04
481.59	7850.16
481.77	8128.68
481.95	7971.86
482.13	8145.06
482.31	8187.19
482.49	8383.80
482.67	8131.02
482.85	8439.97
483.03	8538.27
483.21	8580.40
483.39	8538.27
483.57	8786.37
483.74	8755.94
483.92	8788.71
484.10	8872.97
484.28	8863.61
484.46	9158.52
484.64	9029.79
484.82	8994.68
485.00	9055.53
485.18	9430.02
485.35	9327.03
485.53	9275.54
485.71	9439.38
485.89	9579.81
486.07	9638.33
486.25	9757.69
486.43	9743.65
486.61	9907.49
486.78	9872.38
486.96	10218.78
487.14	9895.78
487.32	10197.71
487.50	10118.14
487.68	10274.95
487.85	10595.61
488.03	10581.56
488.21	10560.50
488.39	10661.14
488.57	10635.39
488.75	10738.38
488.92	11047.33
489.10	10806.25
489.28	10864.77
489.46	11229.89
489.64	11229.89
489.81	11356.28
489.99	11288.40
490.17	11494.37
490.35	11641.82
490.53	11452.24
490.70	11616.08
490.88	11808.00
491.06	11873.54
491.24	11864.18
491.41	11726.08
491.59	11918.01
491.77	12081.85
491.95	12084.19
492.13	12215.26
492.30	12346.33
492.48	12608.47
492.66	12416.54
492.84	12276.11
493.01	12617.83
493.19	12449.31
493.37	12645.91
493.54	12964.23
493.72	12760.60
493.90	12760.60
494.08	13018.06
494.25	13205.30
494.43	13254.45
494.61	13453.40
494.79	13488.51
494.96	13469.78
495.14	13425.31
495.32	13652.34
495.49	13696.82
495.67	13912.14
495.85	13675.75
496.02	14256.20
496.20	14008.11
496.38	14146.20
496.55	14167.26
496.73	14300.67
496.91	14401.32
497.09	14504.30
497.26	14410.68
497.44	14551.11
497.62	14551.11
497.79	15051.99
497.97	14469.19
498.14	14977.09
498.32	14740.69
498.50	14946.66
498.67	14843.68
498.85	14918.57
499.03	14930.28
499.20	15000.49
499.38	14904.53
499.56	15204.12
499.73	15218.16
499.91	15166.67
500.08	15702.65
500.26	15543.50
500.44	15435.83
500.61	15442.85
500.79	15721.38
500.97	15580.95
501.14	16184.80
501.32	15819.68
501.49	15843.09
501.67	15894.58
501.84	16088.84
502.02	16063.10
502.20	16610.78
502.37	16215.23
502.55	16137.99
502.72	16383.75
502.90	16510.14
503.07	16580.36
503.25	16430.56
503.43	16535.88
503.60	16669.30
503.78	16730.15
503.95	16716.11
504.13	16725.47
504.30	16587.38
504.48	16748.87
504.65	16861.22
504.83	16699.72
505.01	17387.84
505.18	17291.88
505.36	17186.55
505.53	17191.23
505.71	17310.60
505.88	17476.78
506.06	17095.27
506.23	17406.56
506.41	17425.29
506.58	17418.27
506.76	17394.86
506.93	17633.60
507.11	17816.16
507.28	17561.04
507.46	17792.75
507.63	17823.18
507.81	17654.66
507.98	18094.68
508.16	17862.97
508.33	18085.32
508.50	18221.07
508.68	18270.22
508.85	18242.14
509.03	18242.14
509.20	18338.10
509.38	18541.72
509.55	18560.45
509.73	18464.49
509.90	18223.41
510.08	18560.45
510.25	18480.87
510.42	18441.08
510.60	18368.52
510.77	18876.42
510.95	19176.01
511.12	18813.23
511.30	19049.62
511.47	19014.51
511.64	19110.47
511.82	19002.81
511.99	19307.08
512.17	19187.71
512.34	19073.03
512.51	19042.60
512.69	19482.62
512.86	19494.32
513.04	19899.23
513.21	19583.26
513.38	19318.78
513.56	19557.52
513.73	19384.32
513.90	20013.92
514.08	19499.00
514.25	19826.68
514.43	19803.27
514.60	20077.12
514.77	19716.67
514.95	20018.60
515.12	19960.09
515.29	20084.14
515.47	20088.82
515.64	20339.26
515.81	20255.00
515.99	20287.76
516.16	20226.91
516.33	20346.28
516.51	20512.46
516.68	20414.15
516.85	20271.38
517.03	20753.53
517.20	20329.89
517.37	20697.36
517.54	20671.61
517.72	20762.89
517.89	20589.69
518.06	20648.21
518.24	20812.04
518.41	20819.07
518.58	21195.89
518.75	20823.75
518.93	20919.71
519.10	21172.49
519.27	21214.62
519.45	21366.75
519.62	20908.01
519.79	21137.38
519.96	21315.26
520.14	21310.58
520.31	21685.06
520.48	21593.78
520.65	21603.14
520.83	21678.04
521.00	21542.29
521.17	21678.04
521.34	21378.45
521.52	21734.21
521.69	21750.60
521.86	22017.42
522.03	21834.86
522.20	21984.65
522.38	21876.99
522.55	22239.77
522.72	21947.20
522.89	21834.86
523.07	22398.93
523.24	22160.19
523.41	22328.71
523.58	21820.81
523.75	22111.04
523.92	22258.49
524.10	22300.62
524.27	22621.28
524.44	22431.69
524.61	22665.75
524.78	22541.70
524.96	22757.03
525.13	22618.94
525.30	22656.39
525.47	22850.65
525.64	22611.92
525.81	22892.78
525.98	22913.84
526.16	22817.88
526.33	23030.87
526.50	23161.94
526.67	22782.77
526.84	22960.66
527.01	22628.30
527.18	22998.10
527.36	23293.01
527.53	23089.38
527.70	23295.35
527.87	23255.56
528.04	23393.65
528.21	23372.59
528.38	23054.28
528.55	23473.23
528.72	23253.22
528.89	23585.58
529.07	23674.52
529.24	23524.72
529.41	23508.34
529.58	23613.66
529.75	23742.39
529.92	23845.38
530.09	23707.29
530.26	24149.65
530.43	24229.23
530.60	23721.33
530.77	23831.33
530.94	24016.24
531.11	24002.19
531.28	23810.27
531.46	23569.19
531.63	24053.69
531.80	24336.89
531.97	24254.97
532.14	24233.91
532.31	24180.07
532.48	24318.17
532.65	24491.37
532.82	24236.25
532.99	24556.90
533.16	24261.99
533.33	24673.93
533.50	24723.08
533.67	24865.85
533.84	24620.10
534.01	24383.70
534.18	24418.81
534.35	24636.48
534.52	24491.37
534.69	24816.70
534.86	24767.55
535.03	24524.13
535.20	24863.51
535.37	24975.86
535.54	24545.20
535.71	24711.38
535.88	24776.91
536.05	24694.99
536.22	25076.50
536.38	24940.75
536.55	25212.25
536.72	25095.22
536.89	25127.99
537.06	25291.83
537.23	25191.19
537.40	25645.25
537.57	24891.60
537.74	25476.73
537.91	25294.17
538.08	25291.83
538.25	25539.93
538.42	25785.68
538.59	25645.25
538.75	25298.85
538.92	25249.70
539.09	25514.18
539.26	25635.89
539.43	25266.08
539.60	26047.82
539.77	25809.09
539.94	25916.75
540.11	25905.05
540.28	25645.25
540.44	25940.16
540.61	25621.84
540.78	25673.34
540.95	25982.29
541.12	25586.74
541.29	25930.80
541.46	25909.73
541.62	25841.85
541.79	26185.91
541.96	26040.80
542.13	26125.06
542.30	26174.21
542.47	26487.84
542.63	26204.64
542.80	26455.08
542.97	26628.27
543.14	26445.71
543.31	26459.76
543.48	26354.43
543.64	26656.36
543.81	26794.45
543.98	27005.10
544.15	26478.48
544.32	27267.24
544.48	27054.25
544.65	26958.29
544.82	26590.83
544.99	26478.48
545.16	26625.93
545.32	26628.27
545.49	26892.76
545.66	27026.17
545.83	27030.85
546.00	27267.24
546.16	27035.53
546.33	26871.69
546.50	26632.96
546.67	27417.04
546.83	27019.14
547.00	26787.43
547.17	27269.58
547.34	27353.84
547.50	27339.80
547.67	27288.31
547.84	27611.30
548.00	26700.83
548.17	27683.86
548.34	27267.24
548.51	27318.73
548.67	27590.24
548.84	27779.82
549.01	27285.97
549.18	27564.49
549.34	27623.00
549.51	27850.03
549.68	27377.25
549.84	27536.40
550.01	27524.70
550.18	27449.80
550.34	27571.51
550.51	27770.46
550.68	27903.87
550.84	27744.71
551.01	27686.20
551.18	27599.60
551.34	27751.73
551.51	27400.65
551.68	27791.52
551.84	27988.13
552.01	27810.25
552.18	27917.91
552.34	27892.16
552.51	28121.54
552.68	27505.98
552.84	27627.68
553.01	28446.87
553.18	28105.15
553.34	27983.44
553.51	28278.35
553.67	28217.50
553.84	28596.67
554.01	28229.20
554.17	28402.40
554.34	27791.52
554.51	28126.22
554.67	28102.81
554.84	28191.75
555.00	27985.79
555.17	28381.34
555.33	28521.77
555.50	28023.23
555.67	28287.71
555.83	28762.84
556.00	28315.80
556.16	28545.17
556.33	28477.30
556.50	28371.97
556.66	28603.69
556.83	28245.58
556.99	28830.72
557.16	28905.62
557.32	28655.18
557.49	28849.44
557.65	28786.25
557.82	28411.76
557.98	28842.42
558.15	28716.03
558.32	28924.34
558.48	28938.38
558.65	28809.65
558.81	29085.84
558.98	28819.02
559.14	28863.49
559.31	28514.75
559.47	28793.27
559.64	28601.35
559.80	28648.16
559.97	28922.00
560.13	28559.22
560.30	29120.95
560.46	28938.38
560.63	29053.07
560.79	28940.72
560.96	28964.13
561.12	28641.14
561.29	28769.86
561.45	29277.76
561.61	29373.72
561.78	29142.01
561.94	29106.90
562.11	29226.27
562.27	29371.38
562.44	29193.50
562.60	29233.29
562.77	29043.71
562.93	28987.53
563.10	29390.11
563.26	28947.75
563.42	29455.64
563.59	29436.92
563.75	29301.17
563.92	29448.62
564.08	29465.00
564.24	29373.72
564.41	29057.75
564.57	29355.00
564.74	29233.29
564.90	29685.01
565.07	29933.11
565.23	29390.11
565.39	29390.11
565.56	29434.58
565.72	29195.84
565.88	29434.58
566.05	29717.78
566.21	29715.44
566.38	29443.94
566.54	29635.86
566.70	29633.52
566.87	29813.74
567.03	29780.98
567.19	29830.13
567.36	30029.07
567.52	29476.71
567.68	29731.83
567.85	29483.73
568.01	29661.61
568.17	29111.58
568.34	29649.91
568.50	29996.31
568.66	29832.47
568.83	29942.47
568.99	29696.72
569.15	29869.92
569.32	29563.31
569.48	29869.92
569.64	30071.20
569.81	29762.25
569.97	29495.43
570.13	29848.85
570.30	29575.01
570.46	29738.85
570.62	29748.21
570.78	29324.57
570.95	29563.31
571.11	29542.24
571.27	29766.93
571.43	29387.77
571.60	29741.19
571.76	30050.14
571.92	29392.45
572.09	30120.35
572.25	29661.61
572.41	29855.87
572.57	29586.71
572.74	30232.70
572.90	29954.18
573.06	30050.14
573.22	30026.73
573.38	29902.68
573.55	29977.58
573.71	30302.92
573.87	30178.87
574.03	30061.84
574.20	29813.74
574.36	29607.78
574.52	30047.80
574.68	29706.08
574.84	29933.11
575.01	30071.20
575.17	30015.03
575.33	29881.62
575.49	29771.61
575.65	29940.13
575.82	30525.27
575.98	29788.00
576.14	29816.08
576.30	29823.11
576.46	29956.52
576.62	30000.99
576.79	29837.15
576.95	29951.84
577.11	29982.26
577.27	30279.51
577.43	29766.93
577.59	30176.53
577.75	29886.30
577.92	29816.08
578.08	29633.52
578.24	30033.75
578.40	29759.91
578.56	30043.12
578.72	29986.94
578.88	30569.74
579.04	30005.67
579.21	29937.79
579.37	29909.71
579.53	30099.29
579.69	29879.28
579.85	29832.47
580.01	30225.68
580.17	30190.57
580.33	30157.80
580.49	30099.29
580.65	29940.13
580.82	30394.20
580.98	30029.07
581.14	30380.15
581.30	30146.10
581.46	30019.71
581.62	30080.56
581.78	30045.46
581.94	30352.07
582.10	30087.59
582.26	30188.23
582.42	30199.93
582.58	30085.25
582.74	30305.26
582.90	30211.64
583.06	30284.19
583.22	30167.16
583.38	30169.51
583.54	30228.02
583.70	30265.47
583.86	30174.19
584.02	29923.75
584.18	30302.92
584.34	30761.66
584.50	30361.43
584.66	29933.11
584.82	30298.23
584.98	30504.20
585.14	29986.94
585.30	30108.65
585.46	30038.44
585.62	29979.92
585.78	30321.64
585.94	29853.53
586.10	30110.99
586.26	30136.74
586.42	30483.14
586.58	30265.47
586.74	30263.13
586.90	29965.88
587.06	30045.46
587.22	30050.14
587.38	30356.75
587.54	30567.40
587.70	30436.33
587.86	30536.97
588.02	30576.76
588.18	30562.72
588.34	30403.56
588.49	30419.94
588.65	30340.36
588.81	30387.18
588.97	30202.27
589.13	30419.94
589.29	30242.06
589.45	30738.26
589.61	30471.43
589.77	30401.22
589.93	30213.98
590.08	30260.79
590.24	30415.26
590.40	30691.44
590.56	30787.41
590.72	30331.00
590.88	30588.46
591.04	30298.23
591.20	30490.16
591.35	30487.82
591.51	30703.15
591.67	30845.92
591.83	31147.85
591.99	30621.23
