SpectraSuite Data File
++++++++++++++++++++++++++++++++++++
Date: Fri Oct 18 13:58:15 GMT-05:00 2013
User: bianchi
Dark Spectrum Present: No
Reference Spectrum Present: No
Number of Sampled Component Spectra: 1
Spectrometers: USB2+H05261
Integration Time (usec): 50000 (USB2+H05261)
Spectra Averaged: 1 (USB2+H05261)
Boxcar Smoothing: 0 (USB2+H05261)
Correct for Electrical Dark: No (USB2+H05261)
Strobe/Lamp Enabled: No (USB2+H05261)
Correct for Detector Non-linearity: No (USB2+H05261)
Correct for Stray Light: No (USB2+H05261)
Number of Pixels in Processed Spectrum: 2048
>>>>>Begin Processed Spectral Data<<<<<
365.73	0.00
365.92	0.00
366.12	0.00
366.32	0.00
366.52	0.00
366.72	0.00
366.91	0.00
367.11	0.00
367.31	0.00
367.51	0.00
367.70	0.00
367.90	0.00
368.10	0.00
368.30	0.00
368.49	0.00
368.69	0.00
368.89	0.00
369.09	0.00
369.28	0.00
369.48	0.00
369.68	0.00
369.87	0.00
370.07	0.00
370.27	0.00
370.47	0.00
370.66	58.51
370.86	142.77
371.06	149.79
371.25	131.07
371.45	140.43
371.65	135.75
371.84	128.73
372.04	86.60
372.24	147.45
372.44	187.24
372.63	215.33
372.83	191.92
373.03	238.73
373.22	173.20
373.42	177.88
373.62	205.97
373.81	205.97
374.01	290.23
374.21	194.26
374.40	269.16
374.60	196.60
374.79	259.80
374.99	210.65
375.19	217.67
375.38	238.73
375.58	227.03
375.78	234.05
375.97	252.78
376.17	313.63
376.37	224.69
376.56	337.04
376.76	187.24
376.95	299.59
377.15	292.57
377.35	280.86
377.54	189.58
377.74	217.67
377.93	294.91
378.13	222.35
378.33	318.31
378.52	276.18
378.72	278.52
378.91	229.37
379.11	257.46
379.31	287.89
379.50	273.84
379.70	297.25
379.89	299.59
380.09	360.44
380.28	252.78
380.48	271.50
380.68	297.25
380.87	322.99
381.07	393.21
381.26	320.65
381.46	313.63
381.65	299.59
381.85	374.49
382.04	318.31
382.24	276.18
382.43	325.33
382.63	414.27
382.83	276.18
383.02	369.80
383.22	353.42
383.41	411.93
383.61	369.80
383.80	344.06
384.00	311.29
384.19	395.55
384.39	330.02
384.58	360.44
384.78	353.42
384.97	414.27
385.17	334.70
385.36	292.57
385.56	390.87
385.75	379.17
385.95	308.95
386.14	428.32
386.34	393.21
386.53	437.68
386.72	376.83
386.92	477.47
387.11	430.66
387.31	369.80
387.50	376.83
387.70	435.34
387.89	479.81
388.09	407.25
388.28	428.32
388.48	381.51
388.67	493.85
388.86	430.66
389.06	433.00
389.25	493.85
389.45	519.60
389.64	528.96
389.84	510.24
390.03	521.94
390.22	526.62
390.42	435.34
390.61	444.70
390.81	449.38
391.00	493.85
391.19	505.56
391.39	470.45
391.58	550.03
391.78	442.36
391.97	575.77
392.16	475.13
392.36	540.66
392.55	592.16
392.75	519.60
392.94	610.88
393.13	519.60
393.33	519.60
393.52	571.09
393.71	500.87
393.91	568.75
394.10	547.69
394.29	585.13
394.49	507.90
394.68	486.83
394.88	552.37
395.07	582.79
395.26	615.56
395.46	688.12
395.65	678.76
395.84	599.18
396.04	690.46
396.23	613.22
396.42	557.05
396.62	643.65
396.81	596.84
397.00	599.18
397.19	678.76
397.39	685.78
397.58	674.07
397.77	683.44
397.97	711.52
398.16	791.10
398.35	685.78
398.55	641.31
398.74	685.78
398.93	734.93
399.12	692.80
399.32	718.54
399.51	660.03
399.70	767.70
399.90	711.52
400.09	784.08
400.28	753.65
400.47	870.68
400.67	718.54
400.86	819.19
401.05	748.97
401.24	781.74
401.44	772.38
401.63	748.97
401.82	781.74
402.01	809.83
402.21	753.65
402.40	908.13
402.59	807.48
402.78	894.08
402.97	891.74
403.17	772.38
403.36	840.25
403.55	844.93
403.74	873.02
403.93	856.64
404.13	929.19
404.32	774.72
404.51	964.30
404.70	912.81
404.89	894.08
405.09	922.17
405.28	919.83
405.47	919.83
405.66	964.30
405.85	1020.47
406.05	880.04
406.24	994.73
406.43	973.66
406.62	1008.77
406.81	1102.39
407.00	999.41
407.20	901.11
407.39	924.51
407.58	964.30
407.77	992.39
407.96	1057.92
408.15	1062.60
408.34	1020.47
408.54	1067.28
408.73	1100.05
408.92	1123.46
409.11	1121.12
409.30	1104.73
409.49	1116.44
409.68	1088.35
409.87	1221.76
410.07	1102.39
410.26	1259.21
410.45	1158.57
410.64	1261.55
410.83	1233.46
411.02	1235.80
411.21	1198.35
411.40	1355.17
411.59	1165.59
411.78	1228.78
411.98	1338.79
412.17	1385.60
412.36	1188.99
412.55	1282.61
412.74	1362.19
412.93	1355.17
413.12	1355.17
413.31	1315.38
413.50	1394.96
413.69	1387.94
413.88	1378.58
414.07	1404.32
414.26	1432.41
414.45	1401.98
414.64	1409.00
414.83	1483.90
415.02	1577.52
415.22	1549.43
415.41	1563.48
415.60	1593.90
415.79	1554.12
415.98	1631.35
416.17	1558.80
416.36	1558.80
416.55	1584.54
416.74	1554.12
416.93	1579.86
417.12	1626.67
417.31	1629.01
417.50	1708.59
417.69	1746.04
417.88	1722.63
418.07	1717.95
418.26	1764.76
418.45	1748.38
418.64	1804.55
418.83	1703.91
419.02	1729.66
419.21	1839.66
419.39	1720.29
419.58	1785.83
419.77	1781.15
419.96	1909.88
420.15	1982.43
420.34	1898.17
420.53	1900.52
420.72	1902.86
420.91	1851.36
421.10	1914.56
421.29	1893.49
421.48	1928.60
421.67	1851.36
421.86	1863.07
422.05	1888.81
422.24	1898.17
422.43	1980.09
422.61	1984.77
422.80	1949.67
422.99	1959.03
423.18	2026.90
423.37	2080.74
423.56	2043.29
423.75	2045.63
423.94	1977.75
424.13	1912.22
424.32	2017.54
424.50	1987.11
424.69	2087.76
424.88	2143.93
425.07	1980.09
425.26	2026.90
425.45	2024.56
425.64	1987.11
425.83	2015.20
426.01	2083.08
426.20	2052.65
426.39	2050.31
426.58	2033.93
426.77	2073.71
426.96	2076.06
427.15	2134.57
427.33	2031.58
427.52	2043.29
427.71	2050.31
427.90	2186.06
428.09	2209.47
428.28	2190.74
428.46	2127.55
428.65	2312.45
428.84	2239.89
429.03	2246.91
429.22	2129.89
429.40	2230.53
429.59	2267.98
429.78	2106.48
429.97	2033.93
430.16	2270.32
430.34	2193.08
430.53	2338.20
430.72	2249.25
430.91	2239.89
431.10	2179.04
431.28	2399.05
431.47	2431.82
431.66	2366.28
431.85	2314.79
432.03	2424.80
432.22	2532.46
432.41	2298.41
432.60	2399.05
432.79	2443.52
432.97	2441.18
433.16	2506.71
433.35	2464.58
433.54	2466.92
433.72	2497.35
433.91	2490.33
434.10	2466.92
434.28	2502.03
434.47	2551.18
434.66	2485.65
434.85	2693.96
435.03	2558.21
435.22	2677.57
435.41	2593.31
435.59	2635.44
435.78	2506.71
435.97	2761.83
436.16	2708.00
436.34	2619.06
436.53	2705.66
436.72	2771.19
436.90	2595.65
437.09	2888.22
437.28	2661.19
437.46	2855.45
437.65	2766.51
437.84	2778.22
438.02	2731.41
438.21	2752.47
438.40	2691.62
438.58	2899.92
438.77	2848.43
438.96	2787.58
439.14	2899.92
439.33	2935.03
439.52	2843.75
439.70	2928.01
439.89	2984.18
440.08	2963.12
440.26	2850.77
440.45	3019.29
440.63	3063.76
440.82	3164.40
441.01	3098.87
441.19	3122.27
441.38	3197.17
441.57	3091.85
441.75	3124.62
441.94	3251.00
442.12	3265.05
442.31	3314.20
442.50	3459.31
442.68	3321.22
442.87	3206.53
443.05	3379.73
443.24	3318.88
443.43	3314.20
443.61	3494.42
443.80	3414.84
443.98	3269.73
444.17	3255.69
444.35	3398.46
444.54	3379.73
444.73	3492.08
444.91	3424.20
445.10	3424.20
445.28	3417.18
445.47	3307.18
445.65	3534.21
445.84	3426.54
446.02	3475.70
446.21	3545.91
446.39	3449.95
446.58	3400.80
446.77	3501.44
446.95	3468.67
447.14	3485.06
447.32	3583.36
447.51	3463.99
447.69	3363.35
447.88	3377.39
448.06	3578.68
448.25	3487.40
448.43	3494.42
448.62	3492.08
448.80	3461.65
448.99	3536.55
449.17	3527.19
449.36	3475.70
449.54	3651.24
449.73	3581.02
449.91	3604.42
450.10	3684.00
450.28	3676.98
450.46	3728.47
450.65	3782.31
450.83	3658.26
451.02	3723.79
451.20	3808.05
451.39	3733.15
451.57	3754.22
451.76	3761.24
451.94	3803.37
452.13	3889.97
452.31	3901.67
452.49	3775.28
452.68	3815.07
452.86	3777.62
453.05	3882.95
453.23	3922.74
453.42	3896.99
453.60	3983.59
453.78	3875.93
453.97	3861.88
454.15	3962.53
454.34	3913.38
454.52	4007.00
454.70	3861.88
454.89	3976.57
455.07	3983.59
455.26	4098.28
455.44	4147.43
455.62	4028.06
455.81	4063.17
455.99	4374.46
456.17	4114.66
456.36	4145.09
456.54	4161.47
456.73	4264.46
456.91	4161.47
457.09	4271.48
457.28	4477.44
457.46	4238.71
457.64	4337.01
457.83	4257.43
458.01	4163.81
458.19	4348.72
458.38	4346.37
458.56	4376.80
458.74	4339.35
458.93	4315.95
459.11	4425.95
459.29	4404.89
459.48	4533.62
459.66	4503.19
459.84	4425.95
460.03	4622.56
460.21	4503.19
460.39	4594.47
460.57	4533.62
460.76	4657.67
460.94	4552.34
461.12	4444.68
461.31	4559.36
461.49	4585.11
461.67	4606.17
461.85	4760.65
462.04	4716.18
462.22	5048.54
462.40	4704.48
462.59	4489.15
462.77	4730.22
462.95	4734.90
463.13	4695.11
463.32	4739.58
463.50	4758.31
463.68	4856.61
463.86	4863.63
464.05	4760.65
464.23	4856.61
464.41	4971.30
464.59	4891.72
464.78	5006.41
464.96	4793.42
465.14	4910.44
465.32	4751.29
465.50	5013.43
465.69	4880.02
465.87	4828.53
466.05	4926.83
466.23	4936.19
466.41	4929.17
466.60	5205.35
466.78	4959.60
466.96	5130.45
467.14	5217.05
467.32	5074.28
467.51	5308.34
467.69	5004.07
467.87	5128.11
468.05	5149.18
468.23	5069.60
468.41	5146.84
468.60	5130.45
468.78	5252.16
468.96	5259.18
469.14	5231.10
469.32	5390.25
469.50	5167.90
469.69	5324.72
469.87	5123.43
470.05	5591.54
470.23	5275.57
470.41	5301.31
470.59	5511.96
470.77	5432.38
470.95	5479.19
471.14	5556.43
471.32	5423.02
471.50	5561.11
471.68	5584.52
471.86	5547.07
472.04	5713.25
472.22	5736.65
472.40	5701.54
472.58	5671.12
472.77	5809.21
472.95	5746.02
473.13	6064.33
473.31	5753.04
473.49	5839.64
473.67	5834.96
473.85	5818.57
474.03	6066.67
474.21	6024.54
474.39	6083.05
474.57	5961.34
474.75	6139.23
474.93	6272.64
475.12	6242.21
475.30	5998.79
475.48	6286.68
475.66	6202.42
475.84	6293.70
476.02	6296.04
476.20	6356.90
476.38	6221.14
476.56	6389.66
476.74	6462.22
476.92	6616.69
477.10	6621.38
477.28	6654.14
477.46	6670.53
477.64	6698.61
477.82	6857.77
478.00	6953.73
478.18	6771.17
478.36	6923.30
478.54	6932.67
478.72	7173.74
478.90	6958.41
479.08	7089.48
479.26	7250.98
479.44	7274.38
479.62	7449.93
479.80	7480.35
479.98	7403.11
480.16	7595.04
480.34	7377.37
480.52	7578.65
480.70	7681.64
480.88	7616.10
481.06	7693.34
481.24	7639.51
481.41	7639.51
481.59	7826.75
481.77	7964.84
481.95	8070.17
482.13	8074.85
482.31	7817.39
482.49	8393.16
482.67	8121.66
482.85	8219.96
483.03	8674.03
483.21	8409.54
483.39	8528.91
483.57	8573.38
483.74	8769.99
483.92	8758.28
484.10	8643.60
484.28	8954.89
484.46	9043.83
484.64	9067.24
484.82	8938.51
485.00	9142.13
485.18	9308.31
485.35	9387.89
485.53	9341.08
485.71	9373.85
485.89	9692.16
486.07	9603.22
486.25	9561.09
486.43	9434.70
486.61	9689.82
486.78	10031.54
486.96	9926.21
487.14	10076.01
487.32	10136.86
487.50	10036.22
487.68	10136.86
487.85	10225.80
488.03	10600.29
488.21	10438.79
488.39	10485.60
488.57	10541.77
488.75	10668.16
488.92	10953.71
489.10	11023.92
489.28	10810.93
489.46	10970.09
489.64	11096.48
489.81	11063.71
489.99	11204.14
490.17	11300.11
490.35	11595.01
490.53	11632.46
490.70	11559.91
490.88	11229.89
491.06	11681.61
491.24	11477.99
491.41	11831.41
491.59	12009.29
491.77	11658.21
491.95	12170.79
492.13	12079.50
492.30	12430.59
492.48	12250.36
492.66	12278.45
492.84	12327.60
493.01	12610.81
493.19	12446.97
493.37	12847.20
493.54	12669.32
493.72	12886.99
493.90	12748.90
494.08	12828.48
494.25	13008.70
494.43	12947.84
494.61	13060.19
494.79	13329.35
494.96	13238.07
495.14	13406.59
495.32	13404.25
495.49	13682.77
495.67	13614.90
495.85	13846.61
496.02	13532.98
496.20	13706.18
496.38	13923.85
496.55	13991.72
496.73	14207.05
496.91	14153.22
497.09	14319.40
497.26	14455.15
497.44	14111.09
497.62	14258.54
497.79	14457.49
497.97	14295.99
498.14	14752.40
498.32	14881.13
498.50	15061.35
498.67	14965.39
498.85	14815.59
499.03	14810.91
499.20	15021.56
499.38	14986.45
499.56	15068.37
499.73	15119.86
499.91	15279.02
500.08	15169.01
500.26	15274.34
500.44	15419.45
500.61	15417.11
500.79	15321.15
500.97	15508.39
501.14	15646.48
501.32	15669.89
501.49	15597.33
501.67	15843.09
501.84	16107.57
502.02	15838.41
502.20	16035.01
502.37	16210.55
502.55	15990.54
502.72	15896.92
502.90	15983.52
503.07	16107.57
503.25	16154.38
503.43	16369.71
503.60	16510.14
503.78	16306.51
503.95	16442.26
504.13	16566.31
504.30	16578.01
504.48	16545.25
504.65	16826.11
504.83	16943.14
505.01	16884.62
505.18	16622.48
505.36	17074.21
505.53	16966.54
505.71	17015.69
505.88	17088.25
506.06	16912.71
506.23	17207.62
506.41	17530.61
506.58	17348.05
506.76	17502.53
506.93	17481.46
507.11	17338.69
507.28	17610.19
507.46	17280.18
507.63	17678.07
507.81	17776.37
507.98	17563.38
508.16	17825.52
508.33	17764.67
508.50	17612.53
508.68	17813.82
508.85	17848.93
509.03	17930.84
509.20	18066.60
509.38	18214.05
509.55	18366.18
509.73	18111.07
509.90	18228.09
510.08	18171.92
510.25	18319.37
510.42	18328.74
510.60	18504.28
510.77	18623.64
510.95	18544.06
511.12	18420.02
511.30	18838.97
511.47	19037.92
511.64	18869.40
511.82	18937.27
511.99	18972.38
512.17	19229.84
512.34	18864.72
512.51	19257.93
512.69	19243.88
512.86	19056.64
513.04	19253.25
513.21	19374.95
513.38	19187.71
513.56	19372.61
513.73	19569.22
513.90	19520.07
514.08	19234.52
514.25	19702.63
514.43	19704.97
514.60	19779.87
514.77	19784.55
514.95	19927.32
515.12	19704.97
515.29	19583.26
515.47	20025.62
515.64	20217.55
515.81	20086.48
515.99	20133.29
516.16	19992.86
516.33	20105.20
516.51	20308.83
516.68	20334.57
516.85	20149.67
517.03	20156.69
517.20	20521.82
517.37	20182.44
517.54	20580.33
517.72	20374.36
517.89	20348.62
518.06	20514.80
518.24	20442.24
518.41	20397.77
518.58	20765.23
518.75	20652.89
518.93	20898.64
519.10	20692.68
519.27	21282.49
519.45	21069.50
519.62	21083.55
519.79	20767.57
519.96	20622.46
520.14	21149.08
520.31	21060.14
520.48	21120.99
520.65	21198.23
520.83	21411.22
521.00	21294.19
521.17	21345.69
521.34	21434.63
521.52	21593.78
521.69	21301.22
521.86	21495.48
522.03	21392.50
522.20	21671.02
522.38	21369.09
522.55	21898.05
522.72	21827.84
522.89	21804.43
523.07	21872.31
523.24	22061.89
523.41	21884.01
523.58	21809.11
523.75	22164.87
523.92	21998.70
524.10	22104.02
524.27	22504.25
524.44	22024.44
524.61	22300.62
524.78	22581.49
524.96	22401.27
525.13	22417.65
525.30	22604.89
525.47	22686.81
525.64	22553.40
525.81	22462.12
525.98	23021.51
526.16	22551.06
526.33	22869.37
526.50	22946.61
526.67	22272.54
526.84	22906.82
527.01	22735.96
527.18	22876.40
527.36	23133.86
527.53	22792.14
527.70	23449.83
527.87	23262.58
528.04	23016.83
528.21	22981.72
528.38	23185.35
528.55	23063.64
528.72	23077.68
528.89	23435.78
529.07	23194.71
529.24	23433.44
529.41	23573.88
529.58	23211.09
529.75	23349.18
529.92	23555.15
530.09	23388.97
530.26	23730.69
530.43	23789.20
530.60	23616.01
530.77	23400.68
530.94	23646.43
531.11	23475.57
531.28	23667.50
531.46	23716.65
531.63	23583.24
531.80	24135.60
531.97	24276.04
532.14	23686.22
532.31	24180.07
532.48	24037.30
532.65	23990.49
532.82	24137.94
532.99	24135.60
533.16	24056.03
533.33	24203.48
533.50	24123.90
533.67	24039.64
533.84	24182.42
534.01	24261.99
534.18	24297.10
534.35	24526.47
534.52	24135.60
534.69	24753.51
534.86	24545.20
535.03	24486.68
535.20	24498.39
535.37	24521.79
535.54	24549.88
535.71	24418.81
535.88	24762.87
536.05	24542.86
536.22	24802.66
536.38	25076.50
536.55	24910.32
536.72	24734.78
536.89	24812.02
537.06	24837.76
537.23	24786.27
537.40	24795.64
537.57	24678.61
537.74	25310.55
537.91	25259.06
538.08	25439.28
538.25	25025.01
538.42	25088.20
538.59	25532.90
538.75	25029.69
538.92	25118.63
539.09	25399.49
539.26	25387.79
539.43	25834.83
539.60	25626.53
539.77	25340.98
539.94	25376.09
540.11	25560.99
540.28	25383.11
540.44	25659.29
540.61	25591.42
540.78	25326.94
540.95	25422.90
541.12	25673.34
541.29	26160.17
541.46	25530.56
541.62	25287.15
541.79	25715.47
541.96	25516.52
542.13	25586.74
542.30	25722.49
542.47	25855.90
542.63	25862.92
542.80	26508.91
542.97	25914.41
543.14	26527.63
543.31	26071.23
543.48	26263.15
543.64	26206.98
543.81	26309.96
543.98	26625.93
544.15	26387.20
544.32	26230.38
544.48	26380.18
544.65	26265.49
544.82	26419.97
544.99	26134.42
545.16	26618.91
545.32	26590.83
545.49	26602.53
545.66	26618.91
545.83	26705.51
546.00	26890.41
546.16	26639.98
546.33	26403.58
546.50	26436.35
546.67	26775.73
546.83	26321.66
547.00	26522.95
547.17	26757.00
547.34	26953.61
547.50	26951.27
547.67	27087.02
547.84	26909.14
548.00	26874.03
548.17	27082.34
548.34	26984.04
548.51	27016.80
548.67	27344.48
548.84	26859.99
549.01	27524.70
549.18	27438.10
549.34	26988.72
549.51	27126.81
549.68	27023.83
549.84	26897.44
550.01	27246.18
550.18	26960.63
550.34	27215.75
550.51	27639.39
550.68	27615.98
550.84	27105.74
551.01	27534.06
551.18	27199.37
551.34	27417.04
551.51	27122.13
551.68	27248.52
551.84	27192.34
552.01	27630.02
552.18	27744.71
552.34	27651.09
552.51	27740.03
552.68	27571.51
552.84	27613.64
553.01	27892.16
553.18	27725.99
553.34	27885.14
553.51	27637.05
553.67	27868.76
553.84	27847.69
554.01	27709.60
554.17	27770.46
554.34	27868.76
554.51	27833.65
554.67	27903.87
554.84	27936.63
555.00	27969.40
555.17	27826.63
555.33	27866.42
555.50	27990.47
555.67	28173.03
555.83	28077.07
556.00	28280.69
556.16	28250.27
556.33	28268.99
556.50	28147.28
556.66	28325.16
556.83	27934.29
556.99	28191.75
557.16	28236.22
557.32	28060.68
557.49	28374.31
557.65	28070.04
557.82	28301.76
557.98	28603.69
558.15	28376.66
558.32	28472.62
558.48	28414.10
558.65	28453.89
558.81	28830.72
558.98	28711.35
559.14	28346.23
559.31	28404.74
559.47	28315.80
559.64	28687.95
559.80	28355.59
559.97	28676.24
560.13	28381.34
560.30	28566.24
560.46	28400.06
560.63	28542.83
560.79	28758.16
560.96	28828.38
561.12	28638.80
561.29	28219.84
561.45	28601.35
561.61	28723.05
561.78	28711.35
561.94	28912.64
562.11	29326.91
562.27	28769.86
562.44	28931.36
562.60	28737.10
562.77	28748.80
562.93	28601.35
563.10	28933.70
563.26	28734.76
563.42	29408.83
563.59	28891.57
563.75	28999.24
563.92	28865.83
564.08	28678.58
564.24	28723.05
564.41	28690.29
564.57	28875.19
564.74	28917.32
564.90	29081.16
565.07	29163.08
565.23	29006.26
565.39	29123.29
565.56	29036.69
565.72	28678.58
565.88	28830.72
566.05	28938.38
566.21	29287.12
566.38	28919.66
566.54	28959.45
566.70	29193.50
566.87	29228.61
567.03	29296.49
567.19	29778.64
567.36	29352.66
567.52	29015.62
567.68	28957.11
567.85	28903.28
568.01	29247.33
568.17	29163.08
568.34	29277.76
568.50	29362.02
568.66	29331.59
568.83	29289.46
568.99	29125.63
569.15	29177.12
569.32	29479.05
569.48	29163.08
569.64	29502.45
569.81	29270.74
569.97	29216.91
570.13	29727.14
570.30	29160.73
570.46	29415.85
570.62	29177.12
570.78	29202.86
570.95	29134.99
571.11	29511.81
571.27	29364.36
571.43	29343.30
571.60	29099.88
571.76	29254.36
571.92	29500.11
572.09	29195.84
572.25	29069.45
572.41	29745.87
572.57	29579.69
572.74	29575.01
572.90	29067.11
573.06	29235.63
573.22	29237.97
573.38	29230.95
573.55	28952.43
573.71	29790.34
573.87	29816.08
574.03	29392.45
574.20	29476.71
574.36	29181.80
574.52	29750.55
574.68	29769.27
574.84	29738.85
575.01	29788.00
575.17	29448.62
575.33	29486.07
575.49	29034.35
575.65	29713.10
575.82	29549.26
575.98	29563.31
576.14	29359.68
576.30	29584.37
576.46	29460.32
576.62	29268.40
576.79	29481.39
576.95	29654.59
577.11	29142.01
577.27	30061.84
577.43	29912.05
577.59	29617.14
577.75	29614.80
577.92	29237.97
578.08	29390.11
578.24	29523.52
578.40	29219.25
578.56	29785.66
578.72	29778.64
578.88	29647.57
579.04	30181.21
579.21	29752.89
579.37	29577.35
579.53	30078.22
579.69	29408.83
579.85	29659.27
580.01	29298.83
580.17	29235.63
580.33	29254.36
580.49	29764.59
580.65	29628.84
580.82	29635.86
580.98	29731.83
581.14	29624.16
581.30	29724.80
581.46	29455.64
581.62	29558.63
581.78	29291.80
581.94	29486.07
582.10	29598.41
582.26	29556.28
582.42	29792.68
582.58	30003.33
582.74	29869.92
582.90	29415.85
583.06	29773.95
583.22	29476.71
583.38	29591.39
583.54	29752.89
583.70	29752.89
583.86	29790.34
584.02	29577.35
584.18	29940.13
584.34	29631.18
584.50	29741.19
584.66	29640.54
584.82	29635.86
584.98	30073.54
585.14	29670.97
585.30	29724.80
585.46	29518.84
585.62	29542.24
585.78	29813.74
585.94	29858.21
586.10	29825.45
586.26	29731.83
586.42	29998.65
586.58	30146.10
586.74	30127.38
586.90	29656.93
587.06	29331.59
587.22	30010.35
587.38	29736.51
587.54	30057.16
587.70	30129.72
587.86	30075.88
588.02	30113.33
588.18	30118.01
588.34	29797.36
588.49	29827.79
588.65	29553.94
588.81	29699.06
588.97	30132.06
589.13	29565.65
589.29	30057.16
589.45	30066.52
589.61	30284.19
589.77	30366.11
589.93	30314.62
590.08	29986.94
590.24	30319.30
590.40	30213.98
590.56	30045.46
590.72	29944.81
590.88	30157.80
591.04	30209.29
591.20	30096.95
591.35	30293.55
591.51	30497.18
591.67	30419.94
591.83	30429.30
591.99	29905.02
