SpectraSuite Data File
++++++++++++++++++++++++++++++++++++
Date: Fri Oct 18 13:58:42 GMT-05:00 2013
User: bianchi
Dark Spectrum Present: No
Reference Spectrum Present: No
Number of Sampled Component Spectra: 1
Spectrometers: USB2+H05261
Integration Time (usec): 50000 (USB2+H05261)
Spectra Averaged: 1 (USB2+H05261)
Boxcar Smoothing: 0 (USB2+H05261)
Correct for Electrical Dark: No (USB2+H05261)
Strobe/Lamp Enabled: No (USB2+H05261)
Correct for Detector Non-linearity: No (USB2+H05261)
Correct for Stray Light: No (USB2+H05261)
Number of Pixels in Processed Spectrum: 2048
>>>>>Begin Processed Spectral Data<<<<<
365.73	0.00
365.92	0.00
366.12	0.00
366.32	0.00
366.52	0.00
366.72	0.00
366.91	0.00
367.11	0.00
367.31	0.00
367.51	0.00
367.70	0.00
367.90	0.00
368.10	0.00
368.30	0.00
368.49	0.00
368.69	0.00
368.89	0.00
369.09	0.00
369.28	0.00
369.48	0.00
369.68	0.00
369.87	0.00
370.07	0.00
370.27	0.00
370.47	0.00
370.66	16.38
370.86	201.29
371.06	203.63
371.25	161.50
371.45	124.05
371.65	152.13
371.84	126.39
372.04	131.07
372.24	91.28
372.44	173.20
372.63	229.37
372.83	161.50
373.03	124.05
373.22	208.31
373.42	203.63
373.62	191.92
373.81	173.20
374.01	170.86
374.21	217.67
374.40	234.05
374.60	250.44
374.79	191.92
374.99	264.48
375.19	379.17
375.38	292.57
375.58	227.03
375.78	166.18
375.97	177.88
376.17	245.76
376.37	285.55
376.56	266.82
376.76	325.33
376.95	252.78
377.15	222.35
377.35	203.63
377.54	358.10
377.74	262.14
377.93	250.44
378.13	236.39
378.33	318.31
378.52	266.82
378.72	330.02
378.91	234.05
379.11	287.89
379.31	311.29
379.50	273.84
379.70	266.82
379.89	266.82
380.09	301.93
380.28	320.65
380.48	330.02
380.68	266.82
380.87	222.35
381.07	365.12
381.26	311.29
381.46	365.12
381.65	322.99
381.85	372.15
382.04	397.89
382.24	369.80
382.43	332.36
382.63	344.06
382.83	341.72
383.02	341.72
383.22	395.55
383.41	294.91
383.61	341.72
383.80	425.98
384.00	358.10
384.19	344.06
384.39	411.93
384.58	365.12
384.78	294.91
384.97	395.55
385.17	372.15
385.36	367.46
385.56	395.55
385.75	400.23
385.95	383.85
386.14	430.66
386.34	290.23
386.53	451.72
386.72	402.57
386.92	430.66
387.11	404.91
387.31	374.49
387.50	428.32
387.70	416.62
387.89	397.89
388.09	451.72
388.28	435.34
388.48	479.81
388.67	341.72
388.86	461.09
389.06	451.72
389.25	440.02
389.45	496.19
389.64	444.70
389.84	468.11
390.03	454.06
390.22	472.79
390.42	477.47
390.61	498.53
390.81	428.32
391.00	454.06
391.19	521.94
391.39	500.87
391.58	552.37
391.78	505.56
391.97	524.28
392.16	496.19
392.36	573.43
392.55	559.39
392.75	535.98
392.94	543.00
393.13	550.03
393.33	624.92
393.52	580.45
393.71	615.56
393.91	559.39
394.10	545.34
394.29	575.77
394.49	465.77
394.68	617.90
394.88	552.37
395.07	709.18
395.26	615.56
395.46	585.13
395.65	603.86
395.84	634.29
396.04	718.54
396.23	592.16
396.42	582.79
396.62	685.78
396.81	709.18
397.00	601.52
397.19	685.78
397.39	716.20
397.58	753.65
397.77	702.16
397.97	732.59
398.16	671.73
398.35	709.18
398.55	760.67
398.74	704.50
398.93	681.10
399.12	667.05
399.32	681.10
399.51	699.82
399.70	774.72
399.90	723.23
400.09	758.33
400.28	713.86
400.47	732.59
400.67	786.42
400.86	692.80
401.05	739.61
401.24	847.27
401.44	884.72
401.63	863.66
401.82	816.85
402.01	851.96
402.21	847.27
402.40	858.98
402.59	812.17
402.78	791.10
402.97	788.76
403.17	854.30
403.36	812.17
403.55	861.32
403.74	854.30
403.93	788.76
404.13	910.47
404.32	805.14
404.51	861.32
404.70	896.43
404.89	851.96
405.09	896.43
405.28	901.11
405.47	997.07
405.66	1001.75
405.85	983.02
406.05	976.00
406.24	1008.77
406.43	1006.43
406.62	1060.26
406.81	1015.79
407.00	1015.79
407.20	912.81
407.39	947.92
407.58	987.71
407.77	1039.20
407.96	1076.65
408.15	1102.39
408.34	1158.57
408.54	1088.35
408.73	1081.33
408.92	1121.12
409.11	1132.82
409.30	1086.01
409.49	1095.37
409.68	1196.01
409.87	1146.86
410.07	1097.71
410.26	1132.82
410.45	1198.35
410.64	1196.01
410.83	1174.95
411.02	1170.27
411.21	1172.61
411.40	1252.19
411.59	1270.91
411.78	1303.68
411.98	1273.25
412.17	1219.42
412.36	1259.21
412.55	1247.51
412.74	1315.38
412.93	1322.40
413.12	1310.70
413.31	1469.86
413.50	1409.00
413.69	1376.24
413.88	1345.81
414.07	1423.05
414.26	1425.39
414.45	1493.26
414.64	1434.75
414.83	1502.62
415.02	1502.62
415.22	1629.01
415.41	1563.48
415.60	1596.25
415.79	1629.01
415.98	1584.54
416.17	1577.52
416.36	1607.95
416.55	1483.90
416.74	1657.10
416.93	1631.35
417.12	1699.23
417.31	1708.59
417.50	1619.65
417.69	1767.10
417.88	1774.13
418.07	1755.40
418.26	1727.32
418.45	1722.63
418.64	1820.94
418.83	1722.63
419.02	1673.48
419.21	1839.66
419.39	1872.43
419.58	1764.76
419.77	1820.94
419.96	1811.57
420.15	1996.48
420.34	1816.26
420.53	1839.66
420.72	1919.24
420.91	2010.52
421.10	1846.68
421.29	1912.22
421.48	1914.56
421.67	1956.69
421.86	2012.86
422.05	1996.48
422.24	2043.29
422.43	1991.80
422.61	2008.18
422.80	1977.75
422.99	2047.97
423.18	1987.11
423.37	2005.84
423.56	1949.67
423.75	2019.88
423.94	1996.48
424.13	1879.45
424.32	1881.79
424.50	1930.94
424.69	2118.18
424.88	1973.07
425.07	1928.60
425.26	1916.90
425.45	2064.35
425.64	2017.54
425.83	1944.99
426.01	2132.23
426.20	2134.57
426.39	1980.09
426.58	2059.67
426.77	2024.56
426.96	2064.35
427.15	1975.41
427.33	2080.74
427.52	2160.31
427.71	2204.78
427.90	2073.71
428.09	2174.36
428.28	2232.87
428.46	2186.06
428.65	2225.85
428.84	2218.83
429.03	2235.21
429.22	2235.21
429.40	2256.28
429.59	2319.47
429.78	2181.38
429.97	2139.25
430.16	2300.75
430.34	2345.22
430.53	2326.49
430.72	2314.79
430.91	2380.32
431.10	2270.32
431.28	2333.51
431.47	2349.90
431.66	2415.43
431.85	2417.77
432.03	2389.69
432.22	2509.05
432.41	2436.50
432.60	2361.60
432.79	2321.81
432.97	2518.42
433.16	2431.82
433.35	2466.92
433.54	2511.39
433.72	2558.21
433.91	2583.95
434.10	2546.50
434.28	2356.92
434.47	2560.55
434.66	2473.95
434.85	2509.05
435.03	2647.15
435.22	2600.34
435.41	2679.91
435.59	2569.91
435.78	2579.27
435.97	2466.92
436.16	2590.97
436.34	2698.64
436.53	2590.97
436.72	2745.45
436.90	2630.76
437.09	2729.06
437.28	2693.96
437.46	2757.15
437.65	2724.38
437.84	2771.19
438.02	2651.83
438.21	2862.48
438.40	2778.22
438.58	2850.77
438.77	2913.97
438.96	2918.65
439.14	2928.01
439.33	2946.73
439.52	2988.86
439.70	3045.04
439.89	3033.33
440.08	3098.87
440.26	3052.06
440.45	3061.42
440.63	3148.02
440.82	3112.91
441.01	3112.91
441.19	3119.93
441.38	3098.87
441.57	3185.47
441.75	3393.78
441.94	3276.75
442.12	3166.74
442.31	3337.60
442.50	3372.71
442.68	3255.69
442.87	3314.20
443.05	3234.62
443.24	3419.52
443.43	3323.56
443.61	3407.82
443.80	3478.04
443.98	3377.39
444.17	3199.51
444.35	3267.39
444.54	3424.20
444.73	3417.18
444.91	3438.25
445.10	3442.93
445.28	3353.99
445.47	3236.96
445.65	3398.46
445.84	3550.59
446.02	3426.54
446.21	3442.93
446.39	3489.74
446.58	3513.14
446.77	3482.72
446.95	3449.95
447.14	3414.84
447.32	3501.44
447.51	3382.07
447.69	3531.87
447.88	3581.02
448.06	3536.55
448.25	3421.86
448.43	3506.12
448.62	3639.53
448.80	3445.27
448.99	3463.99
449.17	3756.56
449.36	3676.98
449.54	3686.34
449.73	3737.84
449.91	3524.85
450.10	3581.02
450.28	3726.13
450.46	3719.11
450.65	3707.41
450.83	3815.07
451.02	3726.13
451.20	3896.99
451.39	3686.34
451.57	3815.07
451.76	3749.54
451.94	3796.35
452.13	3817.41
452.31	3953.16
452.49	3864.22
452.68	3899.33
452.86	3882.95
453.05	3831.46
453.23	4007.00
453.42	3777.62
453.60	3873.59
453.78	3894.65
453.97	3772.94
454.15	3943.80
454.34	3927.42
454.52	4014.02
454.70	4051.47
454.89	4021.04
455.07	4079.55
455.26	4105.30
455.44	4105.30
455.62	4203.60
455.81	4086.58
455.99	4081.89
456.17	4156.79
456.36	4163.81
456.54	4168.49
456.73	4229.35
456.91	4219.99
457.09	4229.35
457.28	4360.42
457.46	4112.32
457.64	4283.18
457.83	4367.44
458.01	4327.65
458.19	4334.67
458.38	4390.84
458.56	4475.10
458.74	4339.35
458.93	4383.82
459.11	4376.80
459.29	4367.44
459.48	4479.79
459.66	4386.16
459.84	4435.32
460.03	4631.92
460.21	4648.30
460.39	4512.55
460.57	4454.04
460.76	4622.56
460.94	4667.03
461.12	4564.04
461.31	4596.81
461.49	4454.04
461.67	4601.49
461.85	4777.03
462.04	4650.64
462.22	4767.67
462.40	4809.80
462.59	4711.50
462.77	4744.27
462.95	4589.79
463.13	4690.43
463.32	4676.39
463.50	4732.56
463.68	4889.38
463.86	4870.65
464.05	4823.84
464.23	4800.44
464.41	4798.10
464.59	4894.06
464.78	4926.83
464.96	4903.42
465.14	4809.80
465.32	4842.57
465.50	4905.76
465.69	4980.66
465.87	4919.81
466.05	5001.72
466.23	5125.77
466.41	4961.94
466.60	5170.24
466.78	4980.66
466.96	4961.94
467.14	5050.88
467.32	5109.39
467.51	5261.52
467.69	5121.09
467.87	5172.58
468.05	5156.20
468.23	5135.14
468.41	5235.78
468.60	5032.15
468.78	5301.31
468.96	5125.77
469.14	5303.65
469.32	5441.75
469.50	5093.01
469.69	5282.59
469.87	5406.64
470.05	5378.55
470.23	5296.63
470.41	5275.57
470.59	5504.94
470.77	5373.87
470.95	5413.66
471.14	5614.95
471.32	5327.06
471.50	5490.90
471.68	5586.86
471.86	5661.76
472.04	5577.50
472.22	5710.91
472.40	5521.32
472.58	5706.23
472.77	5781.12
472.95	5816.23
473.13	6001.13
473.31	5909.85
473.49	5905.17
473.67	5867.72
473.85	5783.46
474.03	5895.81
474.21	5935.60
474.39	6033.90
474.57	6012.84
474.75	6099.44
474.93	5944.96
475.12	6078.37
475.30	6207.10
475.48	6303.06
475.66	6155.61
475.84	6256.25
476.02	6249.23
476.20	6420.09
476.38	6431.79
476.56	6499.67
476.74	6523.07
476.92	6492.65
477.10	6614.35
477.28	6707.98
477.46	6593.29
477.64	6799.26
477.82	6825.00
478.00	6937.35
478.18	6916.28
478.36	7215.87
478.54	7021.61
478.72	7248.64
478.90	7101.19
479.08	7208.85
479.26	7176.08
479.44	7185.44
479.62	7283.75
479.80	7461.63
479.98	7435.88
480.16	7559.93
480.34	7555.25
480.52	7522.48
480.70	7681.64
480.88	7604.40
481.06	7655.89
481.24	7630.15
481.41	7915.69
481.59	8187.19
481.77	7896.97
481.95	7906.33
482.13	8166.13
482.31	8023.36
482.49	8248.05
482.67	8210.60
482.85	8168.47
483.03	8533.59
483.21	8362.73
483.39	8510.19
483.57	8847.22
483.74	8779.35
483.92	8681.05
484.10	8842.54
484.28	8828.50
484.46	8837.86
484.64	9172.56
484.82	8926.80
485.00	9004.04
485.18	9273.20
485.35	9275.54
485.53	9252.14
485.71	9415.98
485.89	9678.12
486.07	9596.20
486.25	9542.36
486.43	9542.36
486.61	9748.33
486.78	9940.26
486.96	9909.83
487.14	9888.76
487.32	10040.90
487.50	10289.00
487.68	10380.28
487.85	10279.63
488.03	10445.81
488.21	10604.97
488.39	10415.38
488.57	10607.31
488.75	10796.89
488.92	10885.83
489.10	10909.24
489.28	10757.10
489.46	11236.91
489.64	10785.19
489.81	11211.17
489.99	11211.17
490.17	11239.25
490.35	11517.78
490.53	11499.05
490.70	11302.45
490.88	11749.49
491.06	11728.42
491.24	11510.75
491.41	11901.62
491.59	11908.65
491.77	11564.59
491.95	12133.34
492.13	12128.66
492.30	12166.10
492.48	12203.55
492.66	12205.89
492.84	12339.30
493.01	12561.66
493.19	12411.86
493.37	12603.78
493.54	12559.31
493.72	12950.18
493.90	12784.01
494.08	12805.07
494.25	13167.85
494.43	13312.97
494.61	13284.88
494.79	13284.88
494.96	13146.79
495.14	13214.66
495.32	13504.89
495.49	13348.08
495.67	13657.03
495.85	13584.47
496.02	13696.82
496.20	13675.75
496.38	13973.00
496.55	14104.07
496.73	14066.62
496.91	13877.04
497.09	14185.99
497.26	14410.68
497.44	14326.42
497.62	14394.29
497.79	14471.53
497.97	14272.59
498.14	14684.52
498.32	14829.63
498.50	14895.17
498.67	14813.25
498.85	15194.76
499.03	14682.18
499.20	14949.00
499.38	15110.50
499.56	15180.71
499.73	15166.67
499.91	15164.33
500.08	15066.03
500.26	14974.75
500.44	15063.69
500.61	15442.85
500.79	15548.18
500.97	15618.39
501.14	15721.38
501.32	15489.67
501.49	15922.66
501.67	15800.96
501.84	15854.79
502.02	16030.33
502.20	15859.47
502.37	15927.35
502.55	15950.75
502.72	16334.60
502.90	16262.04
503.07	16201.19
503.25	16285.45
503.43	16379.07
503.60	16030.33
503.78	16732.49
503.95	16414.18
504.13	16592.06
504.30	16524.18
504.48	16645.89
504.65	16748.87
504.83	16884.62
505.01	17111.66
505.18	16783.98
505.36	16938.46
505.53	16936.12
505.71	16992.29
505.88	17116.34
506.06	17102.29
506.23	17114.00
506.41	17202.94
506.58	17362.09
506.76	17263.79
506.93	17444.01
507.11	17497.84
507.28	17598.49
507.46	17556.36
507.63	17558.70
507.81	17832.54
507.98	17596.15
508.16	17713.17
508.33	17825.52
508.50	17619.55
508.68	17902.76
508.85	18223.41
509.03	17928.50
509.20	17867.65
509.38	18153.20
509.55	18164.90
509.73	18450.44
509.90	18235.11
510.08	18150.85
510.25	18441.08
510.42	18396.61
510.60	18438.74
510.77	18583.85
510.95	18595.56
511.12	18398.95
511.30	18607.26
511.47	18948.98
511.64	18625.98
511.82	18988.77
511.99	18841.31
512.17	19311.76
512.34	18768.76
512.51	19087.07
512.69	19089.41
512.86	19342.19
513.04	19412.40
513.21	19206.44
513.38	19356.23
513.56	19676.88
513.73	19463.90
513.90	19555.18
514.08	19489.64
514.25	19679.22
514.43	19733.06
514.60	19770.51
514.77	19990.52
514.95	19742.42
515.12	19826.68
515.29	19641.78
515.47	19953.07
515.64	20215.21
515.81	19810.29
515.99	20142.65
516.16	20233.93
516.33	20142.65
516.51	20393.09
516.68	20119.24
516.85	20301.81
517.03	20285.42
517.20	20353.30
517.37	20690.34
517.54	20603.74
517.72	20437.56
517.89	20503.09
518.06	20783.96
518.24	20407.13
518.41	20844.81
518.58	20559.27
518.75	20697.36
518.93	21099.93
519.10	21006.31
519.27	21287.17
519.45	20922.05
519.62	20936.09
519.79	20643.52
519.96	20924.39
520.14	21106.95
520.31	21003.97
520.48	21078.86
520.65	21083.55
520.83	21383.13
521.00	21242.70
521.17	21200.57
521.34	21397.18
521.52	21668.68
521.69	21532.93
521.86	21926.14
522.03	21397.18
522.20	21905.07
522.38	21717.83
522.55	21855.92
522.72	21813.79
522.89	21656.98
523.07	21940.18
523.24	22010.40
523.41	22235.09
523.58	22059.55
523.75	21912.10
523.92	21872.31
524.10	22078.27
524.27	22230.41
524.44	22312.33
524.61	22597.87
524.78	22251.47
524.96	22136.79
525.13	22188.28
525.30	22693.83
525.47	22511.27
525.64	22490.21
525.81	22431.69
525.98	22534.68
526.16	22403.61
526.33	22611.92
526.50	22920.87
526.67	22607.23
526.84	22427.01
527.01	22616.60
527.18	22726.60
527.36	23012.15
527.53	22918.53
527.70	23367.91
527.87	23459.19
528.04	23484.94
528.21	22974.70
528.38	23094.07
528.55	23140.88
528.72	23250.88
528.89	23410.04
529.07	22965.34
529.24	23096.41
529.41	23358.55
529.58	23740.05
529.75	23618.35
529.92	23353.87
530.09	23290.67
530.26	23391.31
530.43	23683.88
530.60	23618.35
530.77	23751.76
530.94	23653.45
531.11	23604.30
531.28	23836.02
531.46	23934.32
531.63	24079.43
531.80	23690.90
531.97	23936.66
532.14	24456.26
532.31	23866.44
532.48	24060.71
532.65	23981.13
532.82	23964.75
532.99	24135.60
533.16	24140.29
533.33	24444.56
533.50	24451.58
533.67	24210.50
533.84	24151.99
534.01	24308.80
534.18	24250.29
534.35	24252.63
534.52	24540.52
534.69	24774.57
534.86	24446.90
535.03	24353.27
535.20	24592.01
535.37	24723.08
535.54	24500.73
535.71	24589.67
535.88	24287.74
536.05	24570.94
536.22	24889.26
536.38	24783.93
536.55	25132.67
536.72	24711.38
536.89	24812.02
537.06	24776.91
537.23	24940.75
537.40	25170.12
537.57	24709.04
537.74	24898.62
537.91	24996.92
538.08	25261.40
538.25	25263.74
538.42	25032.03
538.59	24964.15
538.75	24891.60
538.92	24933.73
539.09	25127.99
539.26	25359.70
539.43	25486.09
539.60	25212.25
539.77	25539.93
539.94	25233.32
540.11	25500.14
540.28	25198.21
540.44	25551.63
540.61	25366.73
540.78	25687.38
540.95	25596.10
541.12	25668.66
541.29	25436.94
541.46	25465.03
541.62	25788.02
541.79	25666.31
541.96	25706.10
542.13	25776.32
542.30	25982.29
542.47	26015.05
542.63	26026.76
542.80	26288.90
542.97	26361.45
543.14	26066.55
543.31	26288.90
543.48	26438.69
543.64	26396.56
543.81	26513.59
543.98	26408.26
544.15	26487.84
544.32	26604.87
544.48	26600.19
544.65	26466.78
544.82	26366.13
544.99	26118.04
545.16	26518.27
545.32	26286.56
545.49	26710.19
545.66	26565.08
545.83	26766.37
546.00	26340.39
546.16	26644.66
546.33	26466.78
546.50	26555.72
546.67	26740.62
546.83	26588.49
547.00	26979.36
547.17	26747.64
547.34	26857.65
547.50	27115.11
547.67	27159.58
547.84	26663.38
548.00	27173.62
548.17	27012.12
548.34	27147.87
548.51	27033.19
548.67	27061.27
548.84	26932.54
549.01	27267.24
549.18	27545.76
549.34	27475.55
549.51	27108.08
549.68	27110.43
549.84	26967.65
550.01	27550.45
550.18	27218.09
550.34	27150.21
550.51	27335.12
550.68	27594.92
550.84	27278.94
551.01	27456.82
551.18	27276.60
551.34	27641.73
551.51	27489.59
551.68	27704.92
551.84	27599.60
552.01	27733.01
552.18	27641.73
552.34	27349.16
552.51	27641.73
552.68	27388.95
552.84	27709.60
553.01	27740.03
553.18	27686.20
553.34	27871.10
553.51	27646.41
553.67	27915.57
553.84	28002.17
554.01	28025.57
554.17	28044.30
554.34	27901.53
554.51	27915.57
554.67	28077.07
554.84	27845.35
555.00	27606.62
555.17	28149.62
555.33	27835.99
555.50	27761.09
555.67	28079.41
555.83	27697.90
556.00	28402.40
556.16	28250.27
556.33	28416.44
556.50	28367.29
556.66	28416.44
556.83	28463.25
556.99	28481.98
557.16	28374.31
557.32	28481.98
557.49	28400.06
557.65	28276.01
557.82	28086.43
557.98	28039.62
558.15	28463.25
558.32	28154.30
558.48	28610.71
558.65	28769.86
558.81	28744.12
558.98	28591.98
559.14	28383.68
559.31	28479.64
559.47	28711.35
559.64	28519.43
559.80	28615.39
559.97	28591.98
560.13	28481.98
560.30	28664.54
560.46	29160.73
560.63	28865.83
560.79	28994.56
560.96	28545.17
561.12	28769.86
561.29	28341.55
561.45	28779.23
561.61	28985.19
561.78	28884.55
561.94	28842.42
562.11	28821.36
562.27	28847.10
562.44	28814.34
562.60	28622.41
562.77	28568.58
562.93	28865.83
563.10	29144.35
563.26	28720.71
563.42	29193.50
563.59	28669.22
563.75	29411.17
563.92	28910.30
564.08	28898.59
564.24	28931.36
564.41	28737.10
564.57	28788.59
564.74	28957.11
564.90	28989.88
565.07	29163.08
565.23	29289.46
565.39	28971.15
565.56	29109.24
565.72	28804.97
565.88	28938.38
566.05	28905.62
566.21	29151.37
566.38	29184.14
566.54	28830.72
566.70	29092.86
566.87	29146.69
567.03	29406.49
567.19	29397.13
567.36	29287.12
567.52	28772.21
567.68	29319.89
567.85	29139.67
568.01	29266.06
568.17	28996.90
568.34	29273.08
568.50	29596.07
568.66	29340.96
568.83	29289.46
568.99	29369.04
569.15	28826.04
569.32	28865.83
569.48	28931.36
569.64	28865.83
569.81	29256.70
569.97	29123.29
570.13	29462.66
570.30	29605.44
570.46	29268.40
570.62	29092.86
570.78	29284.78
570.95	29163.08
571.11	29689.70
571.27	29263.72
571.43	29106.90
571.60	29422.87
571.76	29528.20
571.92	29795.02
572.09	29242.65
572.25	29603.10
572.41	29340.96
572.57	29443.94
572.74	29649.91
572.90	29532.88
573.06	29369.04
573.22	29457.98
573.38	29598.41
573.55	29579.69
573.71	29495.43
573.87	29474.37
574.03	29474.37
574.20	29558.63
574.36	29645.23
574.52	29443.94
574.68	29443.94
574.84	29474.37
575.01	29560.97
575.17	29696.72
575.33	29572.67
575.49	29319.89
575.65	29542.24
575.82	29759.91
575.98	29741.19
576.14	29881.62
576.30	29343.30
576.46	29156.05
576.62	29362.02
576.79	29734.17
576.95	29156.05
577.11	29701.40
577.27	29942.47
577.43	30031.41
577.59	29603.10
577.75	29504.79
577.92	29118.60
578.08	29514.16
578.24	29486.07
578.40	29750.55
578.56	29359.68
578.72	29528.20
578.88	30326.32
579.04	29867.58
579.21	29312.87
579.37	29633.52
579.53	30082.91
579.69	29631.18
579.85	29621.82
580.01	29603.10
580.17	29514.16
580.33	29827.79
580.49	29944.81
580.65	29883.96
580.82	29551.60
580.98	30038.44
581.14	30113.33
581.30	29696.72
581.46	29788.00
581.62	29900.34
581.78	29256.70
581.94	29694.38
582.10	29701.40
582.26	29546.92
582.42	29617.14
582.58	29680.33
582.74	29694.38
582.90	29909.71
583.06	29626.50
583.22	29530.54
583.38	29752.89
583.54	29565.65
583.70	29766.93
583.86	29965.88
584.02	29722.46
584.18	29778.64
584.34	29713.10
584.50	30017.37
584.66	29830.13
584.82	29373.72
584.98	29785.66
585.14	29972.90
585.30	29432.24
585.46	29624.16
585.62	29635.86
585.78	29933.11
585.94	29785.66
586.10	29724.80
586.26	29582.03
586.42	29982.26
586.58	30155.46
586.74	30256.11
586.90	29685.01
587.06	29502.45
587.22	29766.93
587.38	29703.74
587.54	30197.59
587.70	29841.83
587.86	30064.18
588.02	30258.45
588.18	30225.68
588.34	30106.31
588.49	29984.60
588.65	29907.37
588.81	29900.34
588.97	30242.06
589.13	30431.65
589.29	29968.22
589.45	29855.87
589.61	30225.68
589.77	30141.42
589.93	29963.54
590.08	30525.27
590.24	30195.25
590.40	30029.07
590.56	30216.32
590.72	30094.61
590.88	29865.24
591.04	29958.86
591.20	30448.03
591.35	30188.23
591.51	30370.79
591.67	30911.46
591.83	30424.62
591.99	30328.66
