SpectraSuite Data File
++++++++++++++++++++++++++++++++++++
Date: Fri Oct 18 13:58:09 GMT-05:00 2013
User: bianchi
Dark Spectrum Present: No
Reference Spectrum Present: No
Number of Sampled Component Spectra: 1
Spectrometers: USB2+H05261
Integration Time (usec): 50000 (USB2+H05261)
Spectra Averaged: 1 (USB2+H05261)
Boxcar Smoothing: 0 (USB2+H05261)
Correct for Electrical Dark: No (USB2+H05261)
Strobe/Lamp Enabled: No (USB2+H05261)
Correct for Detector Non-linearity: No (USB2+H05261)
Correct for Stray Light: No (USB2+H05261)
Number of Pixels in Processed Spectrum: 2048
>>>>>Begin Processed Spectral Data<<<<<
365.73	0.00
365.92	0.00
366.12	0.00
366.32	0.00
366.52	0.00
366.72	0.00
366.91	0.00
367.11	0.00
367.31	0.00
367.51	0.00
367.70	0.00
367.90	0.00
368.10	0.00
368.30	0.00
368.49	0.00
368.69	0.00
368.89	0.00
369.09	0.00
369.28	0.00
369.48	0.00
369.68	0.00
369.87	0.00
370.07	0.00
370.27	0.00
370.47	7.02
370.66	44.47
370.86	86.60
371.06	119.37
371.25	208.31
371.45	189.58
371.65	93.62
371.84	189.58
372.04	189.58
372.24	168.52
372.44	201.29
372.63	119.37
372.83	245.76
373.03	234.05
373.22	236.39
373.42	238.73
373.62	285.55
373.81	205.97
374.01	222.35
374.21	245.76
374.40	308.95
374.60	299.59
374.79	231.71
374.99	217.67
375.19	269.16
375.38	257.46
375.58	252.78
375.78	227.03
375.97	245.76
376.17	290.23
376.37	191.92
376.56	222.35
376.76	248.10
376.95	252.78
377.15	262.14
377.35	262.14
377.54	304.27
377.74	292.57
377.93	238.73
378.13	311.29
378.33	273.84
378.52	325.33
378.72	332.36
378.91	276.18
379.11	276.18
379.31	344.06
379.50	306.61
379.70	318.31
379.89	266.82
380.09	353.42
380.28	292.57
380.48	306.61
380.68	285.55
380.87	318.31
381.07	353.42
381.26	365.12
381.46	388.53
381.65	395.55
381.85	308.95
382.04	304.27
382.24	353.42
382.43	353.42
382.63	353.42
382.83	376.83
383.02	351.08
383.22	374.49
383.41	339.38
383.61	353.42
383.80	376.83
384.00	374.49
384.19	365.12
384.39	383.85
384.58	372.15
384.78	383.85
384.97	344.06
385.17	433.00
385.36	360.44
385.56	386.19
385.75	325.33
385.95	397.89
386.14	381.51
386.34	444.70
386.53	379.17
386.72	397.89
386.92	468.11
387.11	418.96
387.31	421.30
387.50	416.62
387.70	381.51
387.89	388.53
388.09	416.62
388.28	437.68
388.48	390.87
388.67	519.60
388.86	486.83
389.06	409.59
389.25	547.69
389.45	503.22
389.64	421.30
389.84	425.98
390.03	475.13
390.22	477.47
390.42	484.49
390.61	470.45
390.81	617.90
391.00	484.49
391.19	507.90
391.39	547.69
391.58	552.37
391.78	561.73
391.97	533.64
392.16	524.28
392.36	587.47
392.55	500.87
392.75	559.39
392.94	573.43
393.13	512.58
393.33	503.22
393.52	615.56
393.71	566.41
393.91	631.94
394.10	547.69
394.29	573.43
394.49	552.37
394.68	601.52
394.88	603.86
395.07	613.22
395.26	664.71
395.46	561.73
395.65	631.94
395.84	671.73
396.04	655.35
396.23	627.26
396.42	601.52
396.62	674.07
396.81	674.07
397.00	678.76
397.19	669.39
397.39	685.78
397.58	653.01
397.77	650.67
397.97	744.29
398.16	709.18
398.35	678.76
398.55	730.25
398.74	695.14
398.93	779.40
399.12	716.20
399.32	765.36
399.51	755.99
399.70	774.72
399.90	561.73
400.09	823.87
400.28	791.10
400.47	720.88
400.67	781.74
400.86	753.65
401.05	805.14
401.24	734.93
401.44	868.34
401.63	835.57
401.82	851.96
402.01	816.85
402.21	856.64
402.40	856.64
402.59	767.70
402.78	821.53
402.97	798.12
403.17	945.58
403.36	903.45
403.55	844.93
403.74	884.72
403.93	1022.81
404.13	990.05
404.32	971.32
404.51	898.77
404.70	968.98
404.89	931.53
405.09	952.60
405.28	947.92
405.47	1078.99
405.66	1053.24
405.85	947.92
406.05	968.98
406.24	1057.92
406.43	1076.65
406.62	1013.45
406.81	999.41
407.00	997.07
407.20	1060.26
407.39	1041.54
407.58	1153.88
407.77	1043.88
407.96	1153.88
408.15	1095.37
408.34	1062.60
408.54	1144.52
408.73	1149.20
408.92	1149.20
409.11	1142.18
409.30	1132.82
409.49	1226.44
409.68	1172.61
409.87	1191.33
410.07	1193.67
410.26	1200.69
410.45	1158.57
410.64	1210.06
410.83	1233.46
411.02	1212.40
411.21	1334.11
411.40	1224.10
411.59	1310.70
411.78	1226.44
411.98	1287.29
412.17	1291.98
412.36	1378.58
412.55	1392.62
412.74	1383.26
412.93	1441.77
413.12	1369.21
413.31	1469.86
413.50	1390.28
413.69	1425.39
413.88	1437.09
414.07	1486.24
414.26	1451.13
414.45	1458.15
414.64	1465.18
414.83	1493.26
415.02	1614.97
415.22	1519.01
415.41	1511.99
415.60	1535.39
415.79	1521.35
415.98	1593.90
416.17	1542.41
416.36	1530.71
416.55	1551.78
416.74	1689.87
416.93	1678.16
417.12	1760.08
417.31	1820.94
417.50	1739.02
417.69	1692.21
417.88	1708.59
418.07	1680.50
418.26	1724.97
418.45	1790.51
418.64	1818.60
418.83	1856.04
419.02	1813.92
419.21	1823.28
419.39	1816.26
419.58	1846.68
419.77	1907.54
419.96	1930.94
420.15	1867.75
420.34	1806.89
420.53	1954.35
420.72	1954.35
420.91	2008.18
421.10	1944.99
421.29	2024.56
421.48	1771.79
421.67	1989.46
421.86	1968.39
422.05	2059.67
422.24	2008.18
422.43	2005.84
422.61	2003.50
422.80	2050.31
422.99	2045.63
423.18	1968.39
423.37	1998.82
423.56	1996.48
423.75	1989.46
423.94	2125.21
424.13	1877.11
424.32	1926.26
424.50	2069.03
424.69	2195.42
424.88	2134.57
425.07	2083.08
425.26	2024.56
425.45	2064.35
425.64	2071.37
425.83	2010.52
426.01	2106.48
426.20	2038.61
426.39	2043.29
426.58	2087.76
426.77	2115.84
426.96	2054.99
427.15	2150.95
427.33	2127.55
427.52	2108.82
427.71	2223.51
427.90	2160.31
428.09	2237.55
428.28	2237.55
428.46	2214.15
428.65	2195.42
428.84	2298.41
429.03	2246.91
429.22	2207.13
429.40	2064.35
429.59	2267.98
429.78	2242.23
429.97	2176.70
430.16	2146.27
430.34	2408.41
430.53	2377.98
430.72	2307.77
430.91	2382.67
431.10	2216.49
431.28	2438.84
431.47	2476.29
431.66	2434.16
431.85	2499.69
432.03	2356.92
432.22	2429.48
432.41	2511.39
432.60	2452.88
432.79	2487.99
432.97	2476.29
433.16	2495.01
433.35	2450.54
433.54	2583.95
433.72	2394.37
433.91	2530.12
434.10	2558.21
434.28	2572.25
434.47	2579.27
434.66	2670.55
434.85	2668.21
435.03	2654.17
435.22	2661.19
435.41	2693.96
435.59	2679.91
435.78	2548.84
435.97	2679.91
436.16	2712.68
436.34	2773.53
436.53	2705.66
436.72	2736.09
436.90	2766.51
437.09	2871.84
437.28	2715.02
437.46	2768.85
437.65	2729.06
437.84	2857.79
438.02	2892.90
438.21	2963.12
438.40	2808.64
438.58	2944.39
438.77	2895.24
438.96	2977.16
439.14	2918.65
439.33	2892.90
439.52	3155.04
439.70	3045.04
439.89	3138.66
440.08	3075.46
440.26	3101.21
440.45	3173.77
440.63	3112.91
440.82	3143.34
441.01	3276.75
441.19	3218.24
441.38	3314.20
441.57	3255.69
441.75	3199.51
441.94	3295.47
442.12	3358.67
442.31	3297.81
442.50	3370.37
442.68	3314.20
442.87	3361.01
443.05	3267.39
443.24	3503.78
443.43	3452.29
443.61	3475.70
443.80	3574.00
443.98	3316.54
444.17	3370.37
444.35	3421.86
444.54	3435.91
444.73	3506.12
444.91	3552.93
445.10	3606.77
445.28	3531.87
445.47	3569.32
445.65	3426.54
445.84	3447.61
446.02	3555.27
446.21	3471.01
446.39	3492.08
446.58	3597.40
446.77	3475.70
446.95	3482.72
447.14	3468.67
447.32	3595.06
447.51	3604.42
447.69	3571.66
447.88	3545.91
448.06	3478.04
448.25	3618.47
448.43	3726.13
448.62	3578.68
448.80	3557.61
448.99	3667.62
449.17	3672.30
449.36	3721.45
449.54	3808.05
449.73	3735.50
449.91	3583.36
450.10	3740.18
450.28	3817.41
450.46	3819.75
450.65	3922.74
450.83	3758.90
451.02	3878.27
451.20	3756.56
451.39	3932.10
451.57	3768.26
451.76	3817.41
451.94	3775.28
452.13	3918.06
452.31	3838.48
452.49	3889.97
452.68	3941.46
452.86	3880.61
453.05	3943.80
453.23	4053.81
453.42	4053.81
453.60	3939.12
453.78	3955.51
453.97	3976.57
454.15	3990.61
454.34	4037.42
454.52	4072.53
454.70	4079.55
454.89	4177.86
455.07	4117.00
455.26	3915.72
455.44	4203.60
455.62	4210.62
455.81	4222.33
455.99	4189.56
456.17	4114.66
456.36	4276.16
456.54	4262.12
456.73	4297.22
456.91	4346.37
457.09	4381.48
457.28	4542.98
457.46	4383.82
457.64	4397.87
457.83	4327.65
458.01	4510.21
458.19	4517.23
458.38	4402.55
458.56	4629.58
458.74	4407.23
458.93	4477.44
459.11	4484.47
459.29	4468.08
459.48	4667.03
459.66	4624.90
459.84	4472.76
460.03	4627.24
460.21	4521.92
460.39	4566.39
460.57	4622.56
460.76	4645.96
460.94	4589.79
461.12	4767.67
461.31	4580.43
461.49	4629.58
461.67	4580.43
461.85	4802.78
462.04	4826.18
462.22	5011.09
462.40	4870.65
462.59	4784.06
462.77	4795.76
462.95	4863.63
463.13	4968.96
463.32	4833.21
463.50	4870.65
463.68	4905.76
463.86	4908.10
464.05	4905.76
464.23	4823.84
464.41	4924.49
464.59	4821.50
464.78	5057.90
464.96	5139.82
465.14	4880.02
465.32	5095.35
465.50	5095.35
465.69	5219.39
465.87	4985.34
466.05	5095.35
466.23	5048.54
466.41	5095.35
466.60	5406.64
466.78	5071.94
466.96	5231.10
467.14	5177.26
467.32	5240.46
467.51	5163.22
467.69	5076.62
467.87	5224.08
468.05	5167.90
468.23	5348.12
468.41	5240.46
468.60	5228.76
468.78	5334.08
468.96	5263.86
469.14	5483.88
469.32	5427.70
469.50	5249.82
469.69	5497.92
469.87	5514.30
470.05	5619.63
470.23	5614.95
470.41	5518.98
470.59	5526.00
470.77	5460.47
470.95	5764.74
471.14	5516.64
471.32	5528.35
471.50	5685.16
471.68	5682.82
471.86	5830.27
472.04	5720.27
472.22	5781.12
472.40	5682.82
472.58	5778.78
472.77	5743.67
472.95	5851.34
473.13	6200.08
473.31	6045.60
473.49	5916.87
473.67	6078.37
473.85	6017.52
474.03	6190.72
474.21	6001.13
474.39	6153.27
474.57	6155.61
474.75	6333.49
474.93	6406.05
475.12	6291.36
475.30	6492.65
475.48	6359.24
475.66	6363.92
475.84	6452.86
476.02	6310.08
476.20	6429.45
476.38	6441.15
476.56	6857.77
476.74	6679.89
476.92	6661.16
477.10	6878.83
477.28	6754.79
477.46	6780.53
477.64	6661.16
477.82	6764.15
478.00	7054.37
478.18	7119.91
478.36	7073.10
478.54	7148.00
478.72	7222.89
478.90	7138.63
479.08	7342.26
479.26	7208.85
479.44	7377.37
479.62	7480.35
479.80	7585.68
479.98	7611.42
480.16	7529.50
480.34	7789.30
480.52	7735.47
480.70	7948.46
480.88	7786.96
481.06	7932.08
481.24	7896.97
481.41	8105.28
481.59	8149.75
481.77	7955.48
481.95	8332.31
482.13	8348.69
482.31	8234.00
482.49	8379.12
482.67	8505.51
482.85	8582.74
483.03	8739.56
483.21	8793.39
483.39	8842.54
483.57	8702.11
483.74	8734.88
483.92	8849.57
484.10	8858.93
484.28	9210.01
484.46	9205.33
484.64	9177.24
484.82	9294.27
485.00	9172.56
485.18	9427.68
485.35	9493.21
485.53	9343.42
485.71	9689.82
485.89	9703.86
486.07	9537.68
486.25	9692.16
486.43	9994.09
486.61	9907.49
486.78	9902.81
486.96	10122.82
487.14	10178.99
487.32	10270.27
487.50	10136.86
487.68	10394.32
487.85	10513.69
488.03	10771.15
488.21	10888.17
488.39	10434.11
488.57	10853.06
488.75	10857.75
488.92	11229.89
489.10	11087.12
489.28	11147.97
489.46	11159.67
489.64	11335.21
489.81	11302.45
489.99	11520.12
490.17	11426.50
490.35	11871.20
490.53	11934.39
490.70	11686.29
490.88	11756.51
491.06	11896.94
491.24	11847.79
491.41	11936.73
491.59	12095.89
491.77	12131.00
491.95	12486.76
492.13	12493.78
492.30	12425.90
492.48	12564.00
492.66	12533.57
492.84	12624.85
493.01	12833.16
493.19	12882.31
493.37	12884.65
493.54	13219.35
493.72	13057.85
493.90	12945.50
494.08	13303.60
494.25	13612.56
494.43	13362.12
494.61	13472.12
494.79	13694.47
494.96	13481.49
495.14	13549.36
495.32	13902.78
495.49	13785.76
495.67	13799.80
495.85	13769.37
496.02	14221.10
496.20	13965.98
496.38	14476.21
496.55	14338.12
496.73	14466.85
496.91	14251.52
497.09	14394.29
497.26	14391.95
497.44	14572.18
497.62	14586.22
497.79	14747.72
497.97	14658.78
498.14	14937.30
498.32	15236.89
498.50	14951.34
498.67	15176.03
498.85	15147.95
499.03	15080.07
499.20	15407.75
499.38	15309.44
499.56	15391.36
499.73	15487.32
499.91	15840.75
500.08	15625.42
500.26	15473.28
500.44	15564.56
500.61	16137.99
500.79	16208.21
500.97	15934.37
501.14	16086.50
501.32	16411.84
501.49	15946.07
501.67	15833.72
501.84	16210.55
502.02	16243.32
502.20	16425.88
502.37	16315.87
502.55	16706.74
502.72	16659.93
502.90	16561.63
503.07	16463.33
503.25	16805.05
503.43	16669.30
503.60	16912.71
503.78	16854.20
503.95	17071.87
504.13	16926.75
504.30	16868.24
504.48	16905.69
504.65	17006.33
504.83	17149.11
505.01	17483.80
505.18	17359.75
505.36	17694.45
505.53	17273.15
505.71	17207.62
505.88	17661.68
506.06	17378.48
506.23	17748.28
506.41	17657.00
506.58	17666.36
506.76	17591.47
506.93	17827.86
507.11	17734.24
507.28	17750.62
507.46	17769.35
507.63	18174.26
507.81	18211.71
507.98	17907.44
508.16	18171.92
508.33	18078.30
508.50	18073.62
508.68	18366.18
508.85	18506.62
509.03	18387.25
509.20	18546.40
509.38	18487.89
509.55	18731.31
509.73	18820.25
509.90	19058.98
510.08	18841.31
510.25	18808.54
510.42	18890.46
510.60	18904.51
510.77	19063.66
510.95	18899.83
511.12	18991.11
511.30	18902.17
511.47	19140.90
511.64	19192.39
511.82	19419.42
511.99	19379.64
512.17	19733.06
512.34	19616.03
512.51	19344.53
512.69	19545.81
512.86	19716.67
513.04	19955.41
513.21	19871.15
513.38	19793.91
513.56	19796.25
513.73	19564.54
513.90	19997.54
514.08	19494.32
514.25	20109.88
514.43	20327.55
514.60	20676.29
514.77	19901.58
514.95	20353.30
515.12	20287.76
515.29	20400.11
515.47	20372.02
515.64	20463.30
515.81	20386.07
515.99	20414.15
516.16	20671.61
516.33	20734.81
516.51	20786.30
516.68	20510.11
516.85	20580.33
517.03	20849.49
517.20	20751.19
517.37	20805.02
517.54	20870.56
517.72	21221.64
517.89	21160.78
518.06	21057.80
518.24	20954.82
518.41	20999.29
518.58	21345.69
518.75	21144.40
518.93	21359.73
519.10	21221.64
519.27	21509.52
519.45	21366.75
519.62	21259.09
519.79	21214.62
519.96	21481.44
520.14	21703.79
520.31	21392.50
520.48	21549.31
520.65	21596.12
520.83	21769.32
521.00	21853.58
521.17	21720.17
521.34	21930.82
521.52	21989.33
521.69	22127.42
521.86	22087.64
522.03	22375.52
522.20	22005.72
522.38	22537.02
522.55	22412.97
522.72	22377.86
522.89	22658.73
523.07	22651.70
523.24	22312.33
523.41	22352.12
523.58	22508.93
523.75	22560.42
523.92	22637.66
524.10	22691.49
524.27	22595.53
524.44	23058.96
524.61	22906.82
524.78	23140.88
524.96	23115.13
525.13	22855.33
525.30	23075.34
525.47	22958.31
525.64	22735.96
525.81	23234.50
525.98	23384.29
526.16	23222.80
526.33	23702.61
526.50	23527.06
526.67	23084.70
526.84	23400.68
527.01	23318.76
527.18	23571.54
527.36	23662.82
527.53	23630.05
527.70	23758.78
527.87	23672.18
528.04	23557.49
528.21	23901.55
528.38	23962.40
528.55	24060.71
528.72	23538.77
528.89	23854.74
529.07	23845.38
529.24	23852.40
529.41	23981.13
529.58	23941.34
529.75	23861.76
529.92	24004.53
530.09	24072.41
530.26	24098.16
530.43	24290.08
530.60	24112.20
530.77	24196.46
530.94	24528.81
531.11	24339.23
531.28	24379.02
531.46	24636.48
531.63	24159.01
531.80	24449.24
531.97	24620.10
532.14	24812.02
532.31	24528.81
532.48	24683.29
532.65	24830.74
532.82	24587.33
532.99	24500.73
533.16	24627.12
533.33	24709.04
533.50	25090.54
533.67	25017.99
533.84	24842.45
534.01	24446.90
534.18	25085.86
534.35	25170.12
534.52	24842.45
534.69	25207.57
534.86	25408.86
535.03	24786.27
535.20	25010.96
535.37	24947.77
535.54	25104.59
535.71	24957.13
535.88	25247.36
536.05	25252.04
536.22	25364.39
536.38	25759.94
536.55	25717.81
536.72	25727.17
536.89	25090.54
537.06	25537.59
537.23	25436.94
537.40	25317.57
537.57	25757.60
537.74	25865.26
537.91	25926.11
538.08	25942.50
538.25	25837.17
538.42	25764.62
538.59	26040.80
538.75	25778.66
538.92	25645.25
539.09	26096.97
539.26	26089.95
539.43	25656.95
539.60	26314.64
539.77	26375.50
539.94	26335.71
540.11	26300.60
540.28	25993.99
540.44	26064.21
540.61	25891.01
540.78	26115.70
540.95	26024.42
541.12	26450.39
541.29	26354.43
541.46	26270.17
541.62	26403.58
541.79	26614.23
541.96	26082.93
542.13	26494.86
542.30	26536.99
542.47	26621.25
542.63	26665.72
542.80	26455.08
542.97	27101.06
543.14	26902.12
543.31	26733.60
543.48	26700.83
543.64	26967.65
543.81	27204.05
543.98	27026.17
544.15	26948.93
544.32	27482.57
544.48	27529.38
544.65	27171.28
544.82	27075.32
544.99	26621.25
545.16	27587.89
545.32	27267.24
545.49	27520.02
545.66	27407.67
545.83	27321.07
546.00	27356.18
546.16	27470.87
546.33	27197.02
546.50	27419.38
546.67	27463.85
546.83	27096.38
547.00	27510.66
547.17	27653.43
547.34	27442.78
547.50	27662.79
547.67	27669.81
547.84	27672.15
548.00	27747.05
548.17	28215.16
548.34	27529.38
548.51	27782.16
548.67	27627.68
548.84	27894.50
549.01	27824.29
549.18	27672.15
549.34	27707.26
549.51	27819.61
549.68	27679.18
549.84	27871.10
550.01	28158.99
550.18	27613.64
550.34	27798.54
550.51	28247.93
550.68	28114.52
550.84	27660.45
551.01	28449.21
551.18	27978.76
551.34	28011.53
551.51	28098.13
551.68	28297.08
551.84	28287.71
552.01	28257.29
552.18	28332.18
552.34	28158.99
552.51	28285.37
552.68	28276.01
552.84	28327.50
553.01	28243.24
553.18	28290.06
553.34	28479.64
553.51	28709.01
553.67	28472.62
553.84	28837.74
554.01	28774.55
554.17	28542.83
554.34	28379.00
554.51	28460.91
554.67	28655.18
554.84	28755.82
555.00	29071.79
555.17	28952.43
555.33	28783.91
555.50	28694.97
555.67	28753.48
555.83	28821.36
556.00	28971.15
556.16	28959.45
556.33	28727.74
556.50	28978.17
556.66	29127.97
556.83	28882.21
556.99	29329.25
557.16	29249.67
557.32	29085.84
557.49	29347.98
557.65	28683.27
557.82	28847.10
557.98	28961.79
558.15	29032.00
558.32	29191.16
558.48	29195.84
558.65	29010.94
558.81	29371.38
558.98	29411.17
559.14	29355.00
559.31	29369.04
559.47	29429.90
559.64	29036.69
559.80	29429.90
559.97	29394.79
560.13	29415.85
560.30	29322.23
560.46	29610.12
560.63	28943.06
560.79	29399.47
560.96	29549.26
561.12	29631.18
561.29	29436.92
561.45	29362.02
561.61	29369.04
561.78	29544.58
561.94	29755.23
562.11	29654.59
562.27	29401.81
562.44	29460.32
562.60	29462.66
562.77	29811.40
562.93	29193.50
563.10	30000.99
563.26	29586.71
563.42	29788.00
563.59	29914.39
563.75	29675.65
563.92	29968.22
564.08	29977.58
564.24	29596.07
564.41	30164.82
564.57	29961.20
564.74	29905.02
564.90	29947.15
565.07	29898.00
565.23	29813.74
565.39	29912.05
565.56	30260.79
565.72	29804.38
565.88	29780.98
566.05	29465.00
566.21	29677.99
566.38	29825.45
566.54	29996.31
566.70	30118.01
566.87	30312.28
567.03	29940.13
567.19	29975.24
567.36	30066.52
567.52	29617.14
567.68	30314.62
567.85	29900.34
568.01	30122.69
568.17	29755.23
568.34	30319.30
568.50	29818.42
568.66	30356.75
568.83	30050.14
568.99	30115.67
569.15	29694.38
569.32	29996.31
569.48	29919.07
569.64	29883.96
569.81	29839.49
569.97	30171.85
570.13	30209.29
570.30	30153.12
570.46	29874.60
570.62	30073.54
570.78	30307.60
570.95	29788.00
571.11	30300.58
571.27	29926.09
571.43	30256.11
571.60	30352.07
571.76	30328.66
571.92	30146.10
572.09	30457.39
572.25	30417.60
572.41	30391.86
572.57	30342.70
572.74	30110.99
572.90	30024.39
573.06	29940.13
573.22	30651.66
573.38	30052.48
573.55	30103.97
573.71	30740.60
573.87	30529.95
574.03	30148.44
574.20	30199.93
574.36	30387.18
574.52	30473.78
574.68	30527.61
574.84	30607.19
575.01	30258.45
575.17	30497.18
575.33	30073.54
575.49	30490.16
575.65	30874.01
575.82	30286.53
575.98	30384.83
576.14	30457.39
576.30	30389.52
576.46	30242.06
576.62	30249.08
576.79	30579.10
576.95	30525.27
577.11	30543.99
577.27	30356.75
577.43	30405.90
577.59	30705.49
577.75	30436.33
577.92	30466.75
578.08	30422.28
578.24	30551.01
578.40	30316.96
578.56	30366.11
578.72	30866.98
578.88	31042.53
579.04	30616.55
579.21	30499.52
579.37	30813.15
579.53	30333.34
579.69	30272.49
579.85	30052.48
580.01	30492.50
580.17	30213.98
580.33	30396.54
580.49	30600.16
580.65	30766.34
580.82	30377.81
580.98	30546.33
581.14	30555.69
581.30	30834.22
581.46	30263.13
581.62	30572.08
581.78	30574.42
581.94	30331.00
582.10	30438.67
582.26	30698.47
582.42	30771.02
582.58	30691.44
582.74	30646.97
582.90	30773.36
583.06	30756.98
583.22	30569.74
583.38	30778.04
583.54	30558.03
583.70	30347.39
583.86	30689.10
584.02	30717.19
584.18	30768.68
584.34	30684.42
584.50	30639.95
584.66	30693.79
584.82	30462.07
584.98	30684.42
585.14	30761.66
585.30	30654.00
585.46	30590.80
585.62	30286.53
585.78	30286.53
585.94	30375.47
586.10	30733.57
586.26	30848.26
586.42	30848.26
586.58	30766.34
586.74	30628.25
586.90	30354.41
587.06	30677.40
587.22	30871.67
587.38	30394.20
587.54	30918.48
587.70	30785.07
587.86	30824.86
588.02	30799.11
588.18	30703.15
588.34	30934.86
588.49	30909.11
588.65	30670.38
588.81	31012.10
588.97	30515.90
589.13	30600.16
589.29	30426.96
589.45	30869.33
589.61	30909.11
589.77	31077.63
589.93	31075.29
590.08	30946.56
590.24	31274.24
590.40	30934.86
590.56	30953.58
590.72	30897.41
590.88	30754.64
591.04	30735.92
591.20	31311.69
591.35	30913.80
591.51	31189.98
591.67	31145.51
591.83	31051.89
591.99	31372.54
