SpectraSuite Data File
++++++++++++++++++++++++++++++++++++
Date: Fri Oct 18 13:57:59 GMT-05:00 2013
User: bianchi
Dark Spectrum Present: No
Reference Spectrum Present: No
Number of Sampled Component Spectra: 1
Spectrometers: USB2+H05261
Integration Time (usec): 50000 (USB2+H05261)
Spectra Averaged: 1 (USB2+H05261)
Boxcar Smoothing: 0 (USB2+H05261)
Correct for Electrical Dark: No (USB2+H05261)
Strobe/Lamp Enabled: No (USB2+H05261)
Correct for Detector Non-linearity: No (USB2+H05261)
Correct for Stray Light: No (USB2+H05261)
Number of Pixels in Processed Spectrum: 2048
>>>>>Begin Processed Spectral Data<<<<<
365.73	7.02
365.92	7.02
366.12	7.02
366.32	0.00
366.52	0.00
366.72	0.00
366.91	0.00
367.11	0.00
367.31	0.00
367.51	0.00
367.70	0.00
367.90	0.00
368.10	0.00
368.30	0.00
368.49	0.00
368.69	0.00
368.89	0.00
369.09	0.00
369.28	0.00
369.48	0.00
369.68	0.00
369.87	0.00
370.07	0.00
370.27	0.00
370.47	0.00
370.66	95.96
370.86	91.28
371.06	203.63
371.25	95.96
371.45	63.19
371.65	189.58
371.84	173.20
372.04	149.79
372.24	168.52
372.44	198.95
372.63	170.86
372.83	203.63
373.03	154.48
373.22	168.52
373.42	191.92
373.62	285.55
373.81	210.65
374.01	229.37
374.21	290.23
374.40	224.69
374.60	264.48
374.79	138.09
374.99	271.50
375.19	252.78
375.38	297.25
375.58	215.33
375.78	276.18
375.97	215.33
376.17	283.20
376.37	320.65
376.56	182.56
376.76	264.48
376.95	294.91
377.15	227.03
377.35	245.76
377.54	278.52
377.74	217.67
377.93	231.71
378.13	346.40
378.33	313.63
378.52	297.25
378.72	269.16
378.91	290.23
379.11	278.52
379.31	346.40
379.50	250.44
379.70	362.78
379.89	320.65
380.09	322.99
380.28	313.63
380.48	280.86
380.68	250.44
380.87	308.95
381.07	322.99
381.26	306.61
381.46	355.76
381.65	273.84
381.85	360.44
382.04	299.59
382.24	294.91
382.43	351.08
382.63	327.68
382.83	388.53
383.02	306.61
383.22	454.06
383.41	381.51
383.61	334.70
383.80	414.27
384.00	416.62
384.19	337.04
384.39	400.23
384.58	386.19
384.78	360.44
384.97	423.64
385.17	294.91
385.36	353.42
385.56	425.98
385.75	423.64
385.95	402.57
386.14	475.13
386.34	330.02
386.53	440.02
386.72	423.64
386.92	344.06
387.11	381.51
387.31	475.13
387.50	482.15
387.70	456.40
387.89	468.11
388.09	468.11
388.28	524.28
388.48	428.32
388.67	402.57
388.86	430.66
389.06	465.77
389.25	463.43
389.45	442.36
389.64	451.72
389.84	500.87
390.03	458.74
390.22	547.69
390.42	465.77
390.61	442.36
390.81	486.83
391.00	400.23
391.19	526.62
391.39	479.81
391.58	517.26
391.78	552.37
391.97	601.52
392.16	531.30
392.36	629.60
392.55	538.32
392.75	571.09
392.94	571.09
393.13	589.82
393.33	627.26
393.52	559.39
393.71	554.71
393.91	500.87
394.10	552.37
394.29	688.12
394.49	608.54
394.68	575.77
394.88	559.39
395.07	641.31
395.26	683.44
395.46	573.43
395.65	758.33
395.84	622.58
396.04	657.69
396.23	720.88
396.42	620.24
396.62	678.76
396.81	727.91
397.00	702.16
397.19	664.71
397.39	683.44
397.58	770.04
397.77	655.35
397.97	657.69
398.16	709.18
398.35	746.63
398.55	634.29
398.74	660.03
398.93	758.33
399.12	695.14
399.32	681.10
399.51	685.78
399.70	772.38
399.90	697.48
400.09	821.53
400.28	828.55
400.47	690.46
400.67	758.33
400.86	802.80
401.05	802.80
401.24	858.98
401.44	809.83
401.63	739.61
401.82	802.80
402.01	760.67
402.21	861.32
402.40	786.42
402.59	809.83
402.78	779.40
402.97	823.87
403.17	830.89
403.36	861.32
403.55	926.85
403.74	880.04
403.93	891.74
404.13	912.81
404.32	931.53
404.51	849.61
404.70	980.68
404.89	936.21
405.09	976.00
405.28	938.55
405.47	910.47
405.66	997.07
405.85	1018.13
406.05	997.07
406.24	985.37
406.43	1008.77
406.62	1041.54
406.81	1083.67
407.00	1107.07
407.20	1013.45
407.39	1083.67
407.58	1032.18
407.77	954.94
407.96	1064.94
408.15	1128.14
408.34	1109.41
408.54	1097.71
408.73	1158.57
408.92	1158.57
409.11	1125.80
409.30	1196.01
409.49	1102.39
409.68	1181.97
409.87	1217.08
410.07	1158.57
410.26	1224.10
410.45	1146.86
410.64	1205.38
410.83	1203.04
411.02	1247.51
411.21	1205.38
411.40	1273.25
411.59	1275.59
411.78	1299.00
411.98	1373.89
412.17	1320.06
412.36	1430.07
412.55	1362.19
412.74	1423.05
412.93	1373.89
413.12	1275.59
413.31	1439.43
413.50	1434.75
413.69	1472.20
413.88	1497.94
414.07	1495.60
414.26	1458.15
414.45	1572.84
414.64	1521.35
414.83	1495.60
415.02	1497.94
415.22	1533.05
415.41	1533.05
415.60	1537.73
415.79	1533.05
415.98	1600.93
416.17	1694.55
416.36	1661.78
416.55	1668.80
416.74	1654.76
416.93	1664.12
417.12	1694.55
417.31	1778.81
417.50	1736.68
417.69	1797.53
417.88	1624.33
418.07	1781.15
418.26	1886.47
418.45	1813.92
418.64	1865.41
418.83	1853.70
419.02	1842.00
419.21	1933.28
419.39	1797.53
419.58	1809.23
419.77	1851.36
419.96	1844.34
420.15	1937.96
420.34	1827.96
420.53	1820.94
420.72	1874.77
420.91	1998.82
421.10	1884.13
421.29	2015.20
421.48	1837.32
421.67	2003.50
421.86	1970.73
422.05	1987.11
422.24	2024.56
422.43	2033.93
422.61	2012.86
422.80	2045.63
422.99	2143.93
423.18	2062.01
423.37	2132.23
423.56	1926.26
423.75	2080.74
423.94	1982.43
424.13	2008.18
424.32	1977.75
424.50	2026.90
424.69	2165.00
424.88	2172.02
425.07	2085.42
425.26	2092.44
425.45	2050.31
425.64	2106.48
425.83	2036.27
426.01	2221.17
426.20	2190.74
426.39	2031.58
426.58	2087.76
426.77	2176.70
426.96	2113.50
427.15	2157.97
427.33	2071.37
427.52	2036.27
427.71	2160.31
427.90	2228.19
428.09	2282.02
428.28	2291.38
428.46	2270.32
428.65	2202.44
428.84	2300.75
429.03	2277.34
429.22	2293.72
429.40	2277.34
429.59	2188.40
429.78	2146.27
429.97	2237.55
430.16	2338.20
430.34	2359.26
430.53	2317.13
430.72	2340.54
430.91	2375.64
431.10	2410.75
431.28	2314.79
431.47	2375.64
431.66	2452.88
431.85	2382.67
432.03	2565.23
432.22	2595.65
432.41	2457.56
432.60	2455.22
432.79	2401.39
432.97	2487.99
433.16	2562.89
433.35	2443.52
433.54	2480.97
433.72	2523.10
433.91	2605.02
434.10	2612.04
434.28	2686.94
434.47	2499.69
434.66	2595.65
434.85	2541.82
435.03	2548.84
435.22	2640.12
435.41	2693.96
435.59	2747.79
435.78	2675.23
435.97	2675.23
436.16	2642.46
436.34	2745.45
436.53	2775.88
436.72	2878.86
436.90	2677.57
437.09	2733.75
437.28	2775.88
437.46	2736.09
437.65	2696.30
437.84	2766.51
438.02	2637.78
438.21	2878.86
438.40	2850.77
438.58	2888.22
438.77	3021.63
438.96	2888.22
439.14	3047.38
439.33	2981.84
439.52	3070.78
439.70	3056.74
439.89	3023.97
440.08	3108.23
440.26	3110.57
440.45	3070.78
440.63	3187.81
440.82	3194.83
441.01	3035.67
441.19	3302.50
441.38	3192.49
441.57	3269.73
441.75	3314.20
441.94	3302.50
442.12	3332.92
442.31	3353.99
442.50	3384.41
442.68	3206.53
442.87	3515.48
443.05	3459.31
443.24	3466.33
443.43	3304.84
443.61	3454.63
443.80	3609.11
443.98	3400.80
444.17	3283.77
444.35	3382.07
444.54	3571.66
444.73	3295.47
444.91	3492.08
445.10	3543.57
445.28	3466.33
445.47	3522.51
445.65	3335.26
445.84	3517.83
446.02	3592.72
446.21	3494.42
446.39	3515.48
446.58	3585.70
446.77	3667.62
446.95	3459.31
447.14	3599.74
447.32	3566.98
447.51	3590.38
447.69	3578.68
447.88	3595.06
448.06	3597.40
448.25	3606.77
448.43	3646.55
448.62	3698.05
448.80	3529.53
448.99	3775.28
449.17	3702.73
449.36	3658.26
449.54	3803.37
449.73	3779.97
449.91	3864.22
450.10	3590.38
450.28	3796.35
450.46	3906.35
450.65	3712.09
450.83	3712.09
451.02	3964.87
451.20	3882.95
451.39	3864.22
451.57	3836.14
451.76	3824.44
451.94	3854.86
452.13	3885.29
452.31	3955.51
452.49	3913.38
452.68	3899.33
452.86	3911.04
453.05	3957.85
453.23	4030.40
453.42	3957.85
453.60	3985.93
453.78	4105.30
453.97	3985.93
454.15	3918.06
454.34	4028.06
454.52	4227.01
454.70	4046.79
454.89	4091.26
455.07	4140.41
455.26	4227.01
455.44	4236.37
455.62	4145.09
455.81	4255.09
455.99	4322.97
456.17	4269.14
456.36	4264.46
456.54	4329.99
456.73	4252.75
456.91	4273.82
457.09	4423.61
457.28	4594.47
457.46	4388.50
457.64	4465.74
457.83	4456.38
458.01	4477.44
458.19	4629.58
458.38	4423.61
458.56	4589.79
458.74	4554.68
458.93	4573.41
459.11	4648.30
459.29	4454.04
459.48	4624.90
459.66	4505.53
459.84	4517.23
460.03	4798.10
460.21	4652.98
460.39	4660.01
460.57	4601.49
460.76	4631.92
460.94	4760.65
461.12	4627.24
461.31	4901.08
461.49	4737.24
461.67	4655.33
461.85	4877.68
462.04	4922.15
462.22	5022.79
462.40	4842.57
462.59	4828.53
462.77	4896.40
462.95	4915.12
463.13	4835.55
463.32	4873.00
463.50	5006.41
463.68	5146.84
463.86	4748.95
464.05	4777.03
464.23	5078.96
464.41	5001.72
464.59	4983.00
464.78	5001.72
464.96	4999.38
465.14	5008.75
465.32	5142.16
465.50	5144.50
465.69	5132.79
465.87	5006.41
466.05	5081.30
466.23	5039.17
466.41	5163.22
466.60	5195.99
466.78	5224.08
466.96	5090.67
467.14	4950.23
467.32	5107.05
467.51	5242.80
467.69	5027.47
467.87	5226.42
468.05	5231.10
468.23	5170.24
468.41	4968.96
468.60	5303.65
468.78	5469.83
468.96	5231.10
469.14	5425.36
469.32	5392.59
469.50	5289.61
469.69	5416.00
469.87	5619.63
470.05	5500.26
470.23	5619.63
470.41	5565.79
470.59	5556.43
470.77	5467.49
470.95	5554.09
471.14	5444.09
471.32	5558.77
471.50	5781.12
471.68	5804.53
471.86	5643.03
472.04	5624.31
472.22	5923.90
472.40	5687.50
472.58	5870.06
472.77	5881.77
472.95	5813.89
473.13	6019.86
473.31	5872.40
473.49	5879.43
473.67	6026.88
473.85	6022.20
474.03	6076.03
474.21	6097.10
474.39	6160.29
474.57	6071.35
474.75	6457.54
474.93	6436.47
475.12	6183.70
475.30	6438.81
475.48	6209.44
475.66	6340.51
475.84	6317.11
476.02	6612.01
476.20	6345.19
476.38	6551.16
476.56	6651.80
476.74	6729.04
476.92	6609.67
477.10	6733.72
477.28	6799.26
477.46	6789.89
477.64	6869.47
477.82	7016.93
478.00	7208.85
478.18	7225.23
478.36	7211.19
478.54	7232.26
478.72	7316.51
478.90	7105.87
479.08	7241.62
479.26	7482.69
479.44	7379.71
479.62	7536.52
479.80	7648.87
479.98	7616.10
480.16	7789.30
480.34	7691.00
480.52	7604.40
480.70	7880.58
480.88	7758.88
481.06	7889.95
481.24	7840.79
481.41	7971.86
481.59	8145.06
481.77	8306.56
481.95	8091.23
482.13	8322.94
482.31	8292.52
482.49	8510.19
482.67	8276.13
482.85	8643.60
483.03	8793.39
483.21	8767.65
483.39	8833.18
483.57	8835.52
483.74	8840.20
483.92	8968.93
484.10	8887.01
484.28	8997.02
484.46	9212.35
484.64	9418.32
484.82	9233.41
485.00	9418.32
485.18	9582.15
485.35	9614.92
485.53	9544.70
485.71	9710.88
485.89	9729.61
486.07	9727.27
486.25	9671.09
486.43	9902.81
486.61	9914.51
486.78	10033.88
486.96	10040.90
487.14	10340.49
487.32	10160.27
487.50	10296.02
487.68	10565.18
487.85	10555.82
488.03	10672.84
488.21	10867.11
488.39	10661.14
488.57	10916.26
488.75	10974.77
488.92	11073.07
489.10	11363.30
489.28	11213.51
489.46	11398.41
489.64	11304.79
489.81	11564.59
489.99	11545.86
490.17	11573.95
490.35	12004.61
490.53	11726.08
490.70	11803.32
490.88	11805.66
491.06	11939.07
491.24	11906.31
491.41	12187.17
491.59	12425.90
491.77	12215.26
491.95	12423.56
492.13	12407.18
492.30	12446.97
492.48	12664.64
492.66	12580.38
492.84	12631.87
493.01	12704.43
493.19	12840.18
493.37	13156.15
493.54	13123.38
493.72	13034.44
493.90	12992.31
494.08	13385.52
494.25	13305.95
494.43	13345.73
494.61	13750.65
494.79	13607.87
494.96	13434.68
495.14	13799.80
495.32	13909.80
495.49	13961.30
495.67	14038.53
495.85	14008.11
496.02	14120.45
496.20	14281.95
496.38	14420.04
496.55	14363.87
496.73	14534.73
496.91	14497.28
497.09	14478.55
497.26	14717.29
497.44	14621.33
497.62	14775.80
497.79	15066.03
497.97	14862.40
498.14	15040.28
498.32	15061.35
498.50	15019.22
498.67	15302.42
498.85	15229.87
499.03	15279.02
499.20	15503.71
499.38	15396.04
499.56	15681.59
499.73	15843.09
499.91	15618.39
500.08	15775.21
500.26	15529.45
500.44	15716.70
500.61	15999.90
500.79	15733.08
500.97	15845.43
501.14	16301.83
501.32	16304.17
501.49	16255.02
501.67	16350.98
501.84	16121.61
502.02	16528.86
502.20	16477.37
502.37	16575.67
502.55	16460.99
502.72	16697.38
502.90	16367.37
503.07	16599.08
503.25	16755.90
503.43	16622.48
503.60	17041.44
503.78	17018.04
503.95	17060.16
504.13	17018.04
504.30	17095.27
504.48	17085.91
504.65	17074.21
504.83	17146.76
505.01	17415.93
505.18	17228.68
505.36	17511.89
505.53	17125.70
505.71	17483.80
505.88	17397.20
506.06	17376.14
506.23	17703.81
506.41	17605.51
506.58	17951.91
506.76	17769.35
506.93	18073.62
507.11	17827.86
507.28	17757.64
507.46	18033.83
507.63	17998.72
507.81	18190.64
507.98	18204.69
508.16	18270.22
508.33	18295.97
508.50	18452.78
508.68	18459.81
508.85	18654.07
509.03	18541.72
509.20	18525.34
509.38	18670.45
509.55	18567.47
509.73	18820.25
509.90	18712.58
510.08	18918.55
510.25	19136.22
510.42	18944.30
510.60	19140.90
510.77	19157.28
510.95	19321.12
511.12	19030.90
511.30	19208.78
511.47	19571.56
511.64	19183.03
511.82	19484.96
511.99	19421.77
512.17	19403.04
512.34	19613.69
512.51	19506.02
512.69	19576.24
512.86	19484.96
513.04	19992.86
513.21	20011.58
513.38	19704.97
513.56	20147.33
513.73	19873.49
513.90	19777.53
514.08	19882.85
514.25	20112.22
514.43	20372.02
514.60	20482.03
514.77	20390.75
514.95	20524.16
515.12	20528.84
515.29	20135.63
515.47	20514.80
515.64	20912.69
515.81	20638.84
515.99	20575.65
516.16	20496.07
516.33	20865.88
516.51	20898.64
516.68	20861.19
516.85	21008.65
517.03	20933.75
517.20	21322.28
517.37	21132.70
517.54	20886.94
517.72	21001.63
517.89	21064.82
518.06	21111.63
518.24	20947.79
518.41	21167.80
518.58	21242.70
518.75	21310.58
518.93	21696.77
519.10	21333.98
519.27	21359.73
519.45	21504.84
519.62	21523.57
519.79	21462.71
519.96	21439.31
520.14	21891.03
520.31	21778.68
520.48	22204.66
520.65	21682.72
520.83	21902.73
521.00	21933.16
521.17	21874.65
521.34	22139.13
521.52	22174.24
521.69	22106.36
521.86	22265.52
522.03	22354.46
522.20	22885.76
522.38	22223.39
522.55	22223.39
522.72	22300.62
522.89	22518.29
523.07	22623.62
523.24	22560.42
523.41	22883.42
523.58	22513.61
523.75	22750.01
523.92	22558.08
524.10	22583.83
524.27	22860.01
524.44	23147.90
524.61	22815.54
524.78	23063.64
524.96	23035.55
525.13	23037.89
525.30	22998.10
525.47	23428.76
525.64	23171.30
525.81	23304.71
525.98	23278.97
526.16	23374.93
526.33	23466.21
526.50	23538.77
526.67	23154.92
526.84	23417.06
527.01	23449.83
527.18	23669.84
527.36	23716.65
527.53	23943.68
527.70	23789.20
527.87	23740.05
528.04	23726.01
528.21	23744.73
528.38	23611.32
528.55	23913.25
528.72	23695.58
528.89	24067.73
529.07	24098.16
529.24	24002.19
529.41	24446.90
529.58	23737.71
529.75	23826.65
529.92	24313.48
530.09	24329.87
530.26	24236.25
530.43	24334.55
530.60	24294.76
530.77	24484.34
530.94	24376.68
531.11	24287.74
531.28	24561.58
531.46	24577.97
531.63	24039.64
531.80	24582.65
531.97	24982.88
532.14	24505.41
532.31	24606.05
532.48	24758.19
532.65	24624.78
532.82	24479.66
532.99	24570.94
533.16	24505.41
533.33	25137.35
533.50	25048.41
533.67	24989.90
533.84	24453.92
534.01	24739.46
534.18	24884.58
534.35	25247.36
534.52	24849.47
534.69	25364.39
534.86	25261.40
535.03	25071.82
535.20	25350.34
535.37	25570.35
535.54	25343.32
535.71	24985.22
535.88	25385.45
536.05	25315.23
536.22	25741.21
536.38	25785.68
536.55	25624.18
536.72	25710.78
536.89	25207.57
537.06	25544.61
537.23	25689.72
537.40	25610.14
537.57	25844.20
537.74	25645.25
537.91	25949.52
538.08	26022.08
538.25	26146.12
538.42	25825.47
538.59	26099.31
538.75	25851.22
538.92	25970.58
539.09	25799.73
539.26	25984.63
539.43	25979.95
539.60	26015.05
539.77	25989.31
539.94	26082.93
540.11	26108.68
540.28	26513.59
540.44	26061.87
540.61	26356.77
540.78	26057.18
540.95	26611.89
541.12	25846.54
541.29	26424.65
541.46	26232.72
541.62	26541.68
541.79	26298.26
541.96	26120.38
542.13	26459.76
542.30	26621.25
542.47	26602.53
542.63	27080.00
542.80	27068.30
542.97	26749.98
543.14	27447.46
543.31	26581.46
543.48	26974.67
543.64	27215.75
543.81	27185.32
543.98	26897.44
544.15	27311.71
544.32	27190.00
544.48	27365.54
544.65	27250.86
544.82	27154.90
544.99	26696.15
545.16	27197.02
545.32	27084.68
545.49	27304.69
545.66	27295.33
545.83	27679.18
546.00	27679.18
546.16	27260.22
546.33	27737.69
546.50	27101.06
546.67	27412.35
546.83	27508.32
547.00	27014.46
547.17	27358.52
547.34	27550.45
547.50	27995.15
547.67	27747.05
547.84	27744.71
548.00	28013.87
548.17	28056.00
548.34	27585.55
548.51	27910.89
548.67	28203.46
548.84	27871.10
549.01	27843.01
549.18	27861.74
549.34	27896.85
549.51	28119.20
549.68	27917.91
549.84	28091.11
550.01	27948.34
550.18	27850.03
550.34	28081.75
550.51	28126.22
550.68	28247.93
550.84	27962.38
551.01	28301.76
551.18	27730.67
551.34	28056.00
551.51	28271.33
551.68	28531.13
551.84	28554.54
552.01	28212.82
552.18	28678.58
552.34	28601.35
552.51	28666.88
552.68	28386.02
552.84	28704.33
553.01	28861.15
553.18	28266.65
553.34	28783.91
553.51	28952.43
553.67	28865.83
553.84	28727.74
554.01	28615.39
554.17	28802.63
554.34	28687.95
554.51	28580.28
554.67	28786.25
554.84	28783.91
555.00	28835.40
555.17	28678.58
555.33	28802.63
555.50	28678.58
555.67	28570.92
555.83	28772.21
556.00	28851.78
556.16	29275.42
556.33	28971.15
556.50	28896.25
556.66	29008.60
556.83	29266.06
556.99	29237.97
557.16	29408.83
557.32	28957.11
557.49	29123.29
557.65	29174.78
557.82	29338.62
557.98	29123.29
558.15	29326.91
558.32	29287.12
558.48	29280.10
558.65	29387.77
558.81	29158.39
558.98	29532.88
559.14	29397.13
559.31	29530.54
559.47	29507.13
559.64	29373.72
559.80	29633.52
559.97	29600.76
560.13	29525.86
560.30	29820.77
560.46	29743.53
560.63	29514.16
560.79	29542.24
560.96	29766.93
561.12	29401.81
561.29	29809.06
561.45	29331.59
561.61	29715.44
561.78	29762.25
561.94	29804.38
562.11	29441.60
562.27	30012.69
562.44	29780.98
562.60	29914.39
562.77	29738.85
562.93	29986.94
563.10	29921.41
563.26	29532.88
563.42	30223.34
563.59	29762.25
563.75	29823.11
563.92	29776.30
564.08	29631.18
564.24	29750.55
564.41	29830.13
564.57	30005.67
564.74	29773.95
564.90	29823.11
565.07	30185.89
565.23	30085.25
565.39	29874.60
565.56	30286.53
565.72	29977.58
565.88	30148.44
566.05	29977.58
566.21	29743.53
566.38	30132.06
566.54	30153.12
566.70	30473.78
566.87	30462.07
567.03	30221.00
567.19	30623.57
567.36	30298.23
567.52	30197.59
567.68	29998.65
567.85	30110.99
568.01	30298.23
568.17	30094.61
568.34	30195.25
568.50	30331.00
568.66	30176.53
568.83	30188.23
568.99	30574.42
569.15	30103.97
569.32	30424.62
569.48	29944.81
569.64	30122.69
569.81	30010.35
569.97	30162.48
570.13	30543.99
570.30	29890.98
570.46	30632.93
570.62	30611.87
570.78	30071.20
570.95	30611.87
571.11	30394.20
571.27	30050.14
571.43	29886.30
571.60	30583.78
571.76	30316.96
571.92	30499.52
572.09	30555.69
572.25	30684.42
572.41	30663.36
572.57	30506.54
572.74	30424.62
572.90	30405.90
573.06	30572.08
573.22	30534.63
573.38	30300.58
573.55	30656.34
573.71	30852.94
573.87	30670.38
574.03	30590.80
574.20	30522.93
574.36	30370.79
574.52	30405.90
574.68	30429.30
574.84	30256.11
575.01	30813.15
575.17	30377.81
575.33	30256.11
575.49	30096.95
575.65	30590.80
575.82	30719.53
575.98	30326.32
576.14	30288.87
576.30	30464.41
576.46	30349.73
576.62	30543.99
576.79	30637.61
576.95	30555.69
577.11	30405.90
577.27	30628.25
577.43	30691.44
577.59	30646.97
577.75	30529.95
577.92	30909.11
578.08	30389.52
578.24	30553.35
578.40	30396.54
578.56	30831.88
578.72	30494.84
578.88	30890.39
579.04	31077.63
579.21	30834.22
579.37	30735.92
579.53	30749.96
579.69	30705.49
579.85	30387.18
580.01	30426.96
580.17	30291.21
580.33	30771.02
580.49	30586.12
580.65	30614.21
580.82	30632.93
580.98	30862.30
581.14	30675.06
581.30	31007.42
581.46	30459.73
581.62	30656.34
581.78	30625.91
581.94	30656.34
582.10	30632.93
582.26	30672.72
582.42	30511.22
582.58	30888.05
582.74	30813.15
582.90	31028.48
583.06	30785.07
583.22	30679.74
583.38	30815.49
583.54	30792.09
583.70	30888.05
583.86	30300.58
584.02	30625.91
584.18	31040.18
584.34	31133.81
584.50	30874.01
584.66	31330.41
584.82	30810.81
584.98	30799.11
585.14	30836.56
585.30	30366.11
585.46	30714.85
585.62	30691.44
585.78	30881.03
585.94	30513.56
586.10	30953.58
586.26	31161.89
586.42	30923.16
586.58	31110.40
586.74	30859.96
586.90	30649.32
587.06	30567.40
587.22	30740.60
587.38	30866.98
587.54	30843.58
587.70	30801.45
587.86	31129.12
588.02	31133.81
588.18	31168.91
588.34	31164.23
588.49	31164.23
588.65	30579.10
588.81	30883.37
588.97	30918.48
589.13	31000.40
589.29	30682.08
589.45	30682.08
589.61	31197.00
589.77	31468.50
589.93	31192.32
590.08	31049.55
590.24	31473.18
590.40	31414.67
590.56	31491.91
590.72	31122.10
590.88	31096.36
591.04	31021.46
591.20	31501.27
591.35	30883.37
591.51	31264.88
591.67	31475.52
591.83	31681.49
591.99	31419.35
