SpectraSuite Data File
++++++++++++++++++++++++++++++++++++
Date: Fri Oct 18 13:58:35 GMT-05:00 2013
User: bianchi
Dark Spectrum Present: No
Reference Spectrum Present: No
Number of Sampled Component Spectra: 1
Spectrometers: USB2+H05261
Integration Time (usec): 50000 (USB2+H05261)
Spectra Averaged: 1 (USB2+H05261)
Boxcar Smoothing: 0 (USB2+H05261)
Correct for Electrical Dark: No (USB2+H05261)
Strobe/Lamp Enabled: No (USB2+H05261)
Correct for Detector Non-linearity: No (USB2+H05261)
Correct for Stray Light: No (USB2+H05261)
Number of Pixels in Processed Spectrum: 2048
>>>>>Begin Processed Spectral Data<<<<<
365.73	0.00
365.92	0.00
366.12	0.00
366.32	0.00
366.52	0.00
366.72	0.00
366.91	0.00
367.11	0.00
367.31	0.00
367.51	0.00
367.70	0.00
367.90	0.00
368.10	0.00
368.30	0.00
368.49	0.00
368.69	0.00
368.89	0.00
369.09	0.00
369.28	0.00
369.48	0.00
369.68	0.00
369.87	0.00
370.07	0.00
370.27	0.00
370.47	0.00
370.66	65.54
370.86	23.41
371.06	152.13
371.25	161.50
371.45	175.54
371.65	156.82
371.84	163.84
372.04	126.39
372.24	93.62
372.44	177.88
372.63	168.52
372.83	257.46
373.03	168.52
373.22	173.20
373.42	163.84
373.62	140.43
373.81	196.60
374.01	220.01
374.21	243.42
374.40	229.37
374.60	208.31
374.79	222.35
374.99	215.33
375.19	236.39
375.38	304.27
375.58	304.27
375.78	287.89
375.97	322.99
376.17	353.42
376.37	250.44
376.56	250.44
376.76	252.78
376.95	212.99
377.15	278.52
377.35	269.16
377.54	252.78
377.74	283.20
377.93	236.39
378.13	322.99
378.33	306.61
378.52	196.60
378.72	334.70
378.91	266.82
379.11	304.27
379.31	301.93
379.50	257.46
379.70	301.93
379.89	313.63
380.09	318.31
380.28	344.06
380.48	276.18
380.68	266.82
380.87	346.40
381.07	283.20
381.26	205.97
381.46	306.61
381.65	327.68
381.85	383.85
382.04	304.27
382.24	362.78
382.43	435.34
382.63	348.74
382.83	294.91
383.02	358.10
383.22	383.85
383.41	416.62
383.61	390.87
383.80	362.78
384.00	308.95
384.19	425.98
384.39	477.47
384.58	337.04
384.78	411.93
384.97	416.62
385.17	315.97
385.36	386.19
385.56	428.32
385.75	322.99
385.95	407.25
386.14	456.40
386.34	437.68
386.53	437.68
386.72	433.00
386.92	374.49
387.11	442.36
387.31	461.09
387.50	353.42
387.70	449.38
387.89	365.12
388.09	491.51
388.28	421.30
388.48	421.30
388.67	470.45
388.86	386.19
389.06	500.87
389.25	507.90
389.45	407.25
389.64	376.83
389.84	437.68
390.03	475.13
390.22	498.53
390.42	463.43
390.61	559.39
390.81	463.43
391.00	433.00
391.19	507.90
391.39	484.49
391.58	397.89
391.78	547.69
391.97	484.49
392.16	580.45
392.36	531.30
392.55	587.47
392.75	589.82
392.94	517.26
393.13	638.97
393.33	456.40
393.52	606.20
393.71	587.47
393.91	486.83
394.10	582.79
394.29	601.52
394.49	552.37
394.68	587.47
394.88	554.71
395.07	624.92
395.26	622.58
395.46	491.51
395.65	554.71
395.84	566.41
396.04	660.03
396.23	627.26
396.42	601.52
396.62	688.12
396.81	648.33
397.00	664.71
397.19	669.39
397.39	641.31
397.58	716.20
397.77	671.73
397.97	690.46
398.16	704.50
398.35	629.60
398.55	791.10
398.74	683.44
398.93	732.59
399.12	753.65
399.32	650.67
399.51	641.31
399.70	765.36
399.90	681.10
400.09	760.67
400.28	798.12
400.47	791.10
400.67	816.85
400.86	807.48
401.05	734.93
401.24	772.38
401.44	837.91
401.63	854.30
401.82	779.40
402.01	748.97
402.21	873.02
402.40	858.98
402.59	870.68
402.78	798.12
402.97	863.66
403.17	908.13
403.36	896.43
403.55	957.28
403.74	926.85
403.93	936.21
404.13	912.81
404.32	870.68
404.51	922.17
404.70	922.17
404.89	915.15
405.09	990.05
405.28	985.37
405.47	858.98
405.66	959.62
405.85	926.85
406.05	968.98
406.24	961.96
406.43	999.41
406.62	994.73
406.81	1076.65
407.00	1109.41
407.20	980.68
407.39	1015.79
407.58	1062.60
407.77	1114.10
407.96	1004.09
408.15	1071.97
408.34	1144.52
408.54	1114.10
408.73	1114.10
408.92	1088.35
409.11	1125.80
409.30	1032.18
409.49	1118.78
409.68	1130.48
409.87	1116.44
410.07	1186.65
410.26	1247.51
410.45	1177.29
410.64	1224.10
410.83	1203.04
411.02	1069.62
411.21	1226.44
411.40	1315.38
411.59	1369.21
411.78	1327.08
411.98	1287.29
412.17	1294.32
412.36	1343.47
412.55	1336.45
412.74	1362.19
412.93	1249.85
413.12	1336.45
413.31	1364.53
413.50	1313.04
413.69	1387.94
413.88	1446.45
414.07	1458.15
414.26	1369.21
414.45	1488.58
414.64	1425.39
414.83	1584.54
415.02	1584.54
415.22	1535.39
415.41	1565.82
415.60	1633.69
415.79	1504.96
415.98	1659.44
416.17	1528.37
416.36	1619.65
416.55	1661.78
416.74	1633.69
416.93	1666.46
417.12	1633.69
417.31	1783.49
417.50	1713.27
417.69	1685.19
417.88	1699.23
418.07	1624.33
418.26	1739.02
418.45	1722.63
418.64	1909.88
418.83	1774.13
419.02	1764.76
419.21	1886.47
419.39	1923.92
419.58	1762.42
419.77	1753.06
419.96	1905.20
420.15	1916.90
420.34	1799.87
420.53	1858.39
420.72	2008.18
420.91	1851.36
421.10	1928.60
421.29	1963.71
421.48	1846.68
421.67	2033.93
421.86	2022.22
422.05	2003.50
422.24	1982.43
422.43	1834.98
422.61	1907.54
422.80	2078.40
422.99	2022.22
423.18	1914.56
423.37	2113.50
423.56	2040.95
423.75	1935.62
423.94	1942.64
424.13	1926.26
424.32	1987.11
424.50	2122.87
424.69	2059.67
424.88	2059.67
425.07	2012.86
425.26	2087.76
425.45	1991.80
425.64	2024.56
425.83	2111.16
426.01	1968.39
426.20	2008.18
426.39	2008.18
426.58	2001.16
426.77	2080.74
426.96	2125.21
427.15	1973.07
427.33	2083.08
427.52	2087.76
427.71	2087.76
427.90	2200.10
428.09	2136.91
428.28	2267.98
428.46	2279.68
428.65	2221.17
428.84	2270.32
429.03	2097.12
429.22	2169.68
429.40	2078.40
429.59	2291.38
429.78	2120.53
429.97	2150.95
430.16	2176.70
430.34	2209.47
430.53	2300.75
430.72	2291.38
430.91	2359.26
431.10	2251.60
431.28	2385.01
431.47	2403.73
431.66	2520.76
431.85	2389.69
432.03	2385.01
432.22	2525.44
432.41	2417.77
432.60	2537.14
432.79	2361.60
432.97	2380.32
433.16	2455.22
433.35	2516.08
433.54	2487.99
433.72	2523.10
433.91	2352.24
434.10	2459.90
434.28	2457.56
434.47	2534.80
434.66	2469.27
434.85	2600.34
435.03	2602.68
435.22	2677.57
435.41	2693.96
435.59	2649.49
435.78	2663.53
435.97	2651.83
436.16	2574.59
436.34	2588.63
436.53	2656.51
436.72	2764.17
436.90	2658.85
437.09	2752.47
437.28	2738.43
437.46	2754.81
437.65	2860.13
437.84	2803.96
438.02	2743.11
438.21	2787.58
438.40	2846.09
438.58	2895.24
438.77	2923.33
438.96	2860.13
439.14	2949.08
439.33	3059.08
439.52	3007.59
439.70	3005.25
439.89	2967.80
440.08	3166.74
440.26	3012.27
440.45	3007.59
440.63	3108.23
440.82	3028.65
441.01	3073.12
441.19	3248.66
441.38	3311.86
441.57	3077.80
441.75	3269.73
441.94	3281.43
442.12	3201.85
442.31	3391.44
442.50	3265.05
442.68	3243.98
442.87	3335.26
443.05	3194.83
443.24	3471.01
443.43	3468.67
443.61	3356.33
443.80	3543.57
443.98	3384.41
444.17	3220.58
444.35	3494.42
444.54	3452.29
444.73	3480.38
444.91	3419.52
445.10	3609.11
445.28	3459.31
445.47	3328.24
445.65	3445.27
445.84	3585.70
446.02	3548.25
446.21	3459.31
446.39	3391.44
446.58	3461.65
446.77	3414.84
446.95	3456.97
447.14	3487.40
447.32	3527.19
447.51	3562.30
447.69	3569.32
447.88	3552.93
448.06	3559.95
448.25	3536.55
448.43	3623.15
448.62	3630.17
448.80	3590.38
448.99	3548.25
449.17	3684.00
449.36	3616.13
449.54	3637.19
449.73	3571.66
449.91	3627.83
450.10	3606.77
450.28	3822.09
450.46	3658.26
450.65	3709.75
450.83	3782.31
451.02	3662.94
451.20	3721.45
451.39	3777.62
451.57	3667.62
451.76	3733.15
451.94	3777.62
452.13	3971.89
452.31	3859.54
452.49	3878.27
452.68	3934.44
452.86	3826.78
453.05	3995.29
453.23	3871.25
453.42	3735.50
453.60	3763.58
453.78	3925.08
453.97	3882.95
454.15	3985.93
454.34	4032.74
454.52	4093.60
454.70	3843.16
454.89	3976.57
455.07	3953.16
455.26	3985.93
455.44	4166.15
455.62	4081.89
455.81	4030.40
455.99	4229.35
456.17	4081.89
456.36	4070.19
456.54	4252.75
456.73	4294.88
456.91	4362.76
457.09	4304.25
457.28	4322.97
457.46	4372.12
457.64	4348.72
457.83	4205.94
458.01	4304.25
458.19	4568.73
458.38	4194.24
458.56	4421.27
458.74	4435.32
458.93	4381.48
459.11	4325.31
459.29	4510.21
459.48	4526.60
459.66	4442.34
459.84	4528.94
460.03	4521.92
460.21	4566.39
460.39	4550.00
460.57	4580.43
460.76	4580.43
460.94	4596.81
461.12	4512.55
461.31	4699.80
461.49	4606.17
461.67	4723.20
461.85	4858.95
462.04	4720.86
462.22	4875.34
462.40	4730.22
462.59	4695.11
462.77	4695.11
462.95	4732.56
463.13	4786.40
463.32	4933.85
463.50	4784.06
463.68	4837.89
463.86	5083.64
464.05	4713.84
464.23	5013.43
464.41	4945.55
464.59	4880.02
464.78	5013.43
464.96	5008.75
465.14	4964.28
465.32	4990.02
465.50	5067.26
465.69	4933.85
465.87	5053.22
466.05	4898.74
466.23	4973.64
466.41	5060.24
466.60	5174.92
466.78	4933.85
466.96	5097.69
467.14	4975.98
467.32	5137.48
467.51	5090.67
467.69	5128.11
467.87	5076.62
468.05	5081.30
468.23	5043.85
468.41	5116.41
468.60	5174.92
468.78	5270.89
468.96	5198.33
469.14	5233.44
469.32	5156.20
469.50	5172.58
469.69	5362.17
469.87	5446.43
470.05	5497.92
470.23	5284.93
470.41	5303.65
470.59	5507.28
470.77	5530.69
470.95	5516.64
471.14	5549.41
471.32	5540.05
471.50	5561.11
471.68	5589.20
471.86	5607.92
472.04	5790.49
472.22	5802.19
472.40	5706.23
472.58	5661.76
472.77	5746.02
472.95	5731.97
473.13	5916.87
473.31	5699.20
473.49	5858.36
473.67	5912.19
473.85	5879.43
474.03	5959.00
474.21	6022.20
474.39	6127.52
474.57	6052.63
474.75	6312.42
474.93	6045.60
475.12	6132.20
475.30	6263.27
475.48	6183.70
475.66	6300.72
475.84	6431.79
476.02	6464.56
476.20	6253.91
476.38	6384.98
476.56	6668.19
476.74	6665.85
476.92	6672.87
477.10	6530.09
477.28	6616.69
477.46	6710.32
477.64	6729.04
477.82	6850.75
478.00	7052.03
478.18	6651.80
478.36	6801.60
478.54	7213.53
478.72	7295.45
478.90	7262.68
479.08	7258.00
479.26	7293.11
479.44	7255.66
479.62	7424.18
479.80	7335.24
479.98	7569.29
480.16	7541.21
480.34	7515.46
480.52	7552.91
480.70	7620.78
480.88	7506.10
481.06	7836.11
481.24	7613.76
481.41	7894.63
481.59	8100.59
481.77	7997.61
481.95	7990.59
482.13	8046.76
482.31	8030.38
482.49	8285.50
482.67	8166.13
482.85	8519.55
483.03	8585.08
483.21	8533.59
483.39	8622.53
483.57	8557.00
483.74	8744.24
483.92	8748.92
484.10	8833.18
484.28	8856.59
484.46	9233.41
484.64	9207.67
484.82	8870.63
485.00	9263.84
485.18	9427.68
485.35	9394.91
485.53	9273.20
485.71	9523.64
485.89	9577.47
486.07	9458.10
486.25	9600.88
486.43	9577.47
486.61	9717.90
486.78	9877.06
486.96	9851.31
487.14	10099.41
487.32	10204.74
487.50	10076.01
487.68	10195.37
487.85	10258.57
488.03	10635.39
488.21	10539.43
488.39	10499.64
488.57	10459.85
488.75	10745.40
488.92	10867.11
489.10	10913.92
489.28	10993.50
489.46	10995.84
489.64	11108.18
489.81	11178.40
489.99	11232.23
490.17	11276.70
490.35	11470.97
490.53	11473.31
490.70	11728.42
490.88	11700.34
491.06	11721.40
491.24	11690.98
491.41	11693.32
491.59	11932.05
491.77	12072.48
491.95	12271.43
492.13	12142.70
492.30	12238.66
492.48	12402.50
492.66	12236.32
492.84	12367.39
493.01	12449.31
493.19	12283.13
493.37	12802.73
493.54	12702.09
493.72	12943.16
493.90	12882.31
494.08	12896.35
494.25	12966.57
494.43	13121.04
494.61	13334.03
494.79	13275.52
494.96	13355.10
495.14	13296.58
495.32	13394.89
495.49	13598.51
495.67	13837.25
495.85	13666.39
496.02	13809.16
496.20	14003.43
496.38	14075.98
496.55	14029.17
496.73	14478.55
496.91	13975.34
497.09	14396.64
497.26	14448.13
497.44	14368.55
497.62	14415.36
497.79	14686.86
497.97	14691.54
498.14	14670.48
498.32	14731.33
498.50	14764.10
498.67	15246.25
498.85	14850.70
499.03	15009.86
499.20	15204.12
499.38	15105.82
499.56	15321.15
499.73	15218.16
499.91	15227.53
500.08	15342.21
500.26	15367.96
500.44	15180.71
500.61	15470.94
500.79	15337.53
500.97	15693.29
501.14	15955.43
501.32	15974.16
501.49	16060.76
501.67	15578.61
501.84	16262.04
502.02	15719.04
502.20	16116.93
502.37	16365.03
502.55	15934.37
502.72	16311.19
502.90	16280.77
503.07	15981.18
503.25	16465.67
503.43	16435.24
503.60	16636.53
503.78	16521.84
503.95	16475.03
504.13	16498.44
504.30	16741.85
504.48	16833.13
504.65	16877.60
504.83	16996.97
505.01	17078.89
505.18	16767.60
505.36	17121.02
505.53	17006.33
505.71	16982.93
505.88	16996.97
506.06	17078.89
506.23	17142.08
506.41	17268.47
506.58	17598.49
506.76	17472.10
506.93	17507.21
507.11	17436.99
507.28	17539.97
507.46	17638.28
507.63	17790.41
507.81	17935.53
507.98	17942.55
508.16	17387.84
508.33	17998.72
508.50	17671.04
508.68	18335.76
508.85	18132.13
509.03	17951.91
509.20	18377.89
509.38	18663.43
509.55	18644.71
509.73	18031.49
509.90	18310.01
510.08	18431.72
510.25	18424.70
510.42	18508.96
510.60	18740.67
510.77	18785.14
510.95	18544.06
511.12	18492.57
511.30	18593.22
511.47	19098.77
511.64	19112.81
511.82	19365.59
511.99	19122.18
512.17	19094.09
512.34	18752.37
512.51	19082.39
512.69	19564.54
512.86	19442.83
513.04	19503.68
513.21	19730.72
513.38	19510.71
513.56	19761.14
513.73	19550.49
513.90	19960.09
514.08	19374.95
514.25	19936.68
514.43	19845.40
514.60	19522.41
514.77	20191.80
514.95	19882.85
515.12	19899.23
515.29	19674.54
515.47	19674.54
515.64	20238.61
515.81	20163.72
515.99	20271.38
516.16	20498.41
516.33	20444.58
516.51	20592.03
516.68	20423.51
516.85	20458.62
517.03	20467.98
517.20	20702.04
517.37	20615.44
517.54	20599.05
517.72	20795.66
517.89	20610.76
518.06	20547.56
518.24	20704.38
518.41	20489.05
518.58	20601.40
518.75	20809.70
518.93	20908.01
519.10	20753.53
519.27	21214.62
519.45	21167.80
519.62	21076.52
519.79	21156.10
519.96	21326.96
520.14	21394.84
520.31	21006.31
520.48	21324.62
520.65	21301.22
520.83	21474.42
521.00	21308.24
521.17	21359.73
521.34	21642.93
521.52	21373.77
521.69	21593.78
521.86	21790.39
522.03	21741.24
522.20	21586.76
522.38	21907.41
522.55	21764.64
522.72	22068.91
522.89	21579.74
523.07	22260.84
523.24	22106.36
523.41	22279.56
523.58	21958.91
523.75	22185.94
523.92	22272.54
524.10	22057.21
524.27	22253.81
524.44	22539.36
524.61	22572.13
524.78	22567.45
524.96	22422.33
525.13	22207.00
525.30	22766.39
525.47	22731.28
525.64	22766.39
525.81	22794.48
525.98	22700.86
526.16	22813.20
526.33	22953.63
526.50	22782.77
526.67	22843.63
526.84	22904.48
527.01	23035.55
527.18	22958.31
527.36	22911.50
527.53	23063.64
527.70	23419.40
527.87	23384.29
528.04	23501.32
528.21	23204.07
528.38	23136.20
528.55	23288.33
528.72	23400.68
528.89	23454.51
529.07	23498.98
529.24	23419.40
529.41	23908.57
529.58	23632.39
529.75	23735.37
529.92	23625.37
530.09	23679.20
530.26	23828.99
530.43	23775.16
530.60	23627.71
530.77	23981.13
530.94	23730.69
531.11	23931.98
531.28	23974.11
531.46	23426.42
531.63	23672.18
531.80	24056.03
531.97	24156.67
532.14	24126.24
532.31	24187.10
532.48	24219.86
532.65	23733.03
532.82	24140.29
532.99	24006.87
533.16	24142.63
533.33	24313.48
533.50	24720.74
533.67	24549.88
533.84	24446.90
534.01	24603.71
534.18	24608.39
534.35	24727.76
534.52	24449.24
534.69	24636.48
534.86	25020.33
535.03	24528.81
535.20	24816.70
535.37	24882.24
535.54	25010.96
535.71	24950.11
535.88	24889.26
536.05	25202.89
536.22	25221.61
536.38	25326.94
536.55	25228.63
536.72	24875.21
536.89	24765.21
537.06	24746.48
537.23	25111.61
537.40	25013.31
537.57	24980.54
537.74	25343.32
537.91	25198.21
538.08	25364.39
538.25	25184.16
538.42	25181.82
538.59	25586.74
538.75	25455.67
538.92	25064.80
539.09	25565.67
539.26	25399.49
539.43	25228.63
539.60	25778.66
539.77	25514.18
539.94	25469.71
540.11	25434.60
540.28	25872.28
540.44	25553.97
540.61	25525.88
540.78	25469.71
540.95	25514.18
541.12	25633.55
541.29	26024.42
541.46	25830.15
541.62	25724.83
541.79	26094.63
541.96	26043.14
542.13	25876.96
542.30	25790.36
542.47	26319.32
542.63	25916.75
542.80	26312.30
542.97	26169.53
543.14	26305.28
543.31	26237.41
543.48	25940.16
543.64	26490.18
543.81	26171.87
543.98	26813.18
544.15	26698.49
544.32	26445.71
544.48	26871.69
544.65	26565.08
544.82	26480.82
544.99	26288.90
545.16	26843.60
545.32	26476.14
545.49	26862.33
545.66	27164.26
545.83	27260.22
546.00	27075.32
546.16	26511.25
546.33	26661.04
546.50	26022.08
546.67	26712.53
546.83	26895.10
547.00	26820.20
547.17	27133.83
547.34	27033.19
547.50	27201.71
547.67	27105.74
547.84	27302.35
548.00	27065.96
548.17	27346.82
548.34	27002.76
548.51	27344.48
548.67	27117.45
548.84	27424.06
549.01	27213.41
549.18	27391.29
549.34	27243.84
549.51	27152.55
549.68	27740.03
549.84	27356.18
550.01	27178.30
550.18	27379.59
550.34	27328.10
550.51	27824.29
550.68	27716.62
550.84	27360.86
551.01	27704.92
551.18	27857.06
551.34	27524.70
551.51	27248.52
551.68	27456.82
551.84	27564.49
552.01	28032.60
552.18	28004.51
552.34	27852.38
552.51	27779.82
552.68	27751.73
552.84	27824.29
553.01	27929.61
553.18	27590.24
553.34	27775.14
553.51	27903.87
553.67	28070.04
553.84	28261.97
554.01	28187.07
554.17	27817.27
554.34	28163.67
554.51	27798.54
554.67	27920.25
554.84	27765.78
555.00	28336.87
555.17	28168.35
555.33	28048.98
555.50	28233.88
555.67	28114.52
555.83	28266.65
556.00	28168.35
556.16	28081.75
556.33	28191.75
556.50	28465.60
556.66	28793.27
556.83	28332.18
556.99	28402.40
557.16	28720.71
557.32	28659.86
557.49	28741.78
557.65	28259.63
557.82	28313.46
557.98	28489.00
558.15	28694.97
558.32	28694.97
558.48	28760.50
558.65	28968.81
558.81	28748.80
558.98	28875.19
559.14	28877.53
559.31	28491.34
559.47	28732.42
559.64	28856.46
559.80	28460.91
559.97	29074.13
560.13	28828.38
560.30	28931.36
560.46	28800.29
560.63	28687.95
560.79	29139.67
560.96	28872.85
561.12	28701.99
561.29	28701.99
561.45	28751.14
561.61	28706.67
561.78	28828.38
561.94	29064.77
562.11	29085.84
562.27	29439.26
562.44	28968.81
562.60	29441.60
562.77	28655.18
562.93	28905.62
563.10	29102.22
563.26	29104.56
563.42	29558.63
563.59	28753.48
563.75	29097.54
563.92	29202.86
564.08	28886.89
564.24	28957.11
564.41	28907.96
564.57	28807.31
564.74	28945.41
564.90	28980.51
565.07	29677.99
565.23	29151.37
565.39	29102.22
565.56	29542.24
565.72	29277.76
565.88	29488.41
566.05	29125.63
566.21	29252.02
566.38	29553.94
566.54	29792.68
566.70	29355.00
566.87	29263.72
567.03	29385.43
567.19	29720.12
567.36	29390.11
567.52	29244.99
567.68	29778.64
567.85	29256.70
568.01	29565.65
568.17	29497.77
568.34	29226.27
568.50	29355.00
568.66	29507.13
568.83	29549.26
568.99	29256.70
569.15	29659.27
569.32	29221.59
569.48	29266.06
569.64	30061.84
569.81	29827.79
569.97	29558.63
570.13	29549.26
570.30	29434.58
570.46	29717.78
570.62	29572.67
570.78	29305.85
570.95	29116.26
571.11	29345.64
571.27	29493.09
571.43	29404.15
571.60	29254.36
571.76	29483.73
571.92	29633.52
572.09	29282.44
572.25	29993.97
572.41	30146.10
572.57	29362.02
572.74	29734.17
572.90	29488.41
573.06	29776.30
573.22	29474.37
573.38	29528.20
573.55	29654.59
573.71	29949.50
573.87	29949.50
574.03	30022.05
574.20	29905.02
574.36	29397.13
574.52	29762.25
574.68	29514.16
574.84	29603.10
575.01	29883.96
575.17	29958.86
575.33	29692.04
575.49	29621.82
575.65	29731.83
575.82	29642.88
575.98	29481.39
576.14	29638.20
576.30	29820.77
576.46	29795.02
576.62	30043.12
576.79	29465.00
576.95	29804.38
577.11	29706.08
577.27	29858.21
577.43	30139.08
577.59	30155.46
577.75	30029.07
577.92	29675.65
578.08	29319.89
578.24	29394.79
578.40	29717.78
578.56	29944.81
578.72	29462.66
578.88	30040.78
579.04	30026.73
579.21	29837.15
579.37	30096.95
579.53	29783.32
579.69	29806.72
579.85	29685.01
580.01	29713.10
580.17	30146.10
580.33	29345.64
580.49	30008.01
580.65	30398.88
580.82	30162.48
580.98	30188.23
581.14	30087.59
581.30	30045.46
581.46	30059.50
581.62	30040.78
581.78	29799.70
581.94	29895.66
582.10	29970.56
582.26	29715.44
582.42	29956.52
582.58	29951.84
582.74	30129.72
582.90	30110.99
583.06	29989.28
583.22	30176.53
583.38	29708.42
583.54	30085.25
583.70	29708.42
583.86	29928.43
584.02	30094.61
584.18	29876.94
584.34	30019.71
584.50	29865.24
584.66	30192.91
584.82	29680.33
584.98	30092.27
585.14	30141.42
585.30	29645.23
585.46	29937.79
585.62	29935.45
585.78	29867.58
585.94	29872.26
586.10	30066.52
586.26	29942.47
586.42	29972.90
586.58	30291.21
586.74	30031.41
586.90	29858.21
587.06	29640.54
587.22	29610.12
587.38	29785.66
587.54	30513.56
587.70	30003.33
587.86	30300.58
588.02	30249.08
588.18	30305.26
588.34	30169.51
588.49	30106.31
588.65	29759.91
588.81	30274.83
588.97	30424.62
589.13	30298.23
589.29	29720.12
589.45	30256.11
589.61	30127.38
589.77	30583.78
589.93	30345.05
590.08	30635.27
590.24	30586.12
590.40	30213.98
590.56	30831.88
590.72	30232.70
590.88	30132.06
591.04	29965.88
591.20	30541.65
591.35	30277.17
591.51	30888.05
591.67	30672.72
591.83	30738.26
591.99	30649.32
