SpectraSuite Data File
++++++++++++++++++++++++++++++++++++
Date: Fri Oct 18 13:58:22 GMT-05:00 2013
User: bianchi
Dark Spectrum Present: No
Reference Spectrum Present: No
Number of Sampled Component Spectra: 1
Spectrometers: USB2+H05261
Integration Time (usec): 50000 (USB2+H05261)
Spectra Averaged: 1 (USB2+H05261)
Boxcar Smoothing: 0 (USB2+H05261)
Correct for Electrical Dark: No (USB2+H05261)
Strobe/Lamp Enabled: No (USB2+H05261)
Correct for Detector Non-linearity: No (USB2+H05261)
Correct for Stray Light: No (USB2+H05261)
Number of Pixels in Processed Spectrum: 2048
>>>>>Begin Processed Spectral Data<<<<<
365.73	0.00
365.92	0.00
366.12	0.00
366.32	0.00
366.52	0.00
366.72	0.00
366.91	0.00
367.11	0.00
367.31	0.00
367.51	0.00
367.70	0.00
367.90	0.00
368.10	0.00
368.30	0.00
368.49	0.00
368.69	0.00
368.89	0.00
369.09	0.00
369.28	0.00
369.48	0.00
369.68	0.00
369.87	0.00
370.07	0.00
370.27	0.00
370.47	0.00
370.66	86.60
370.86	65.54
371.06	140.43
371.25	161.50
371.45	138.09
371.65	147.45
371.84	189.58
372.04	154.48
372.24	234.05
372.44	177.88
372.63	264.48
372.83	259.80
373.03	105.32
373.22	173.20
373.42	198.95
373.62	224.69
373.81	205.97
374.01	243.42
374.21	220.01
374.40	283.20
374.60	241.08
374.79	205.97
374.99	222.35
375.19	196.60
375.38	220.01
375.58	266.82
375.78	243.42
375.97	283.20
376.17	304.27
376.37	259.80
376.56	283.20
376.76	245.76
376.95	283.20
377.15	266.82
377.35	306.61
377.54	269.16
377.74	264.48
377.93	250.44
378.13	269.16
378.33	257.46
378.52	264.48
378.72	266.82
378.91	322.99
379.11	376.83
379.31	238.73
379.50	269.16
379.70	287.89
379.89	337.04
380.09	245.76
380.28	266.82
380.48	353.42
380.68	271.50
380.87	318.31
381.07	369.80
381.26	393.21
381.46	374.49
381.65	397.89
381.85	393.21
382.04	297.25
382.24	330.02
382.43	320.65
382.63	339.38
382.83	255.12
383.02	332.36
383.22	404.91
383.41	339.38
383.61	376.83
383.80	358.10
384.00	304.27
384.19	294.91
384.39	353.42
384.58	334.70
384.78	273.84
384.97	346.40
385.17	362.78
385.36	416.62
385.56	461.09
385.75	449.38
385.95	397.89
386.14	428.32
386.34	465.77
386.53	402.57
386.72	383.85
386.92	437.68
387.11	376.83
387.31	454.06
387.50	390.87
387.70	433.00
387.89	449.38
388.09	395.55
388.28	411.93
388.48	468.11
388.67	400.23
388.86	400.23
389.06	463.43
389.25	498.53
389.45	458.74
389.64	500.87
389.84	416.62
390.03	468.11
390.22	500.87
390.42	428.32
390.61	491.51
390.81	465.77
391.00	568.75
391.19	538.32
391.39	491.51
391.58	491.51
391.78	496.19
391.97	550.03
392.16	531.30
392.36	578.11
392.55	580.45
392.75	608.54
392.94	475.13
393.13	535.98
393.33	566.41
393.52	526.62
393.71	547.69
393.91	638.97
394.10	528.96
394.29	580.45
394.49	603.86
394.68	559.39
394.88	603.86
395.07	608.54
395.26	601.52
395.46	587.47
395.65	627.26
395.84	610.88
396.04	552.37
396.23	660.03
396.42	617.90
396.62	620.24
396.81	683.44
397.00	634.29
397.19	685.78
397.39	603.86
397.58	573.43
397.77	690.46
397.97	748.97
398.16	655.35
398.35	641.31
398.55	699.82
398.74	704.50
398.93	737.27
399.12	676.41
399.32	688.12
399.51	671.73
399.70	727.91
399.90	737.27
400.09	685.78
400.28	713.86
400.47	734.93
400.67	842.59
400.86	816.85
401.05	781.74
401.24	758.33
401.44	763.01
401.63	837.91
401.82	737.27
402.01	826.21
402.21	763.01
402.40	805.14
402.59	814.51
402.78	823.87
402.97	863.66
403.17	821.53
403.36	903.45
403.55	971.32
403.74	854.30
403.93	903.45
404.13	866.00
404.32	854.30
404.51	908.13
404.70	880.04
404.89	837.91
405.09	851.96
405.28	938.55
405.47	980.68
405.66	940.90
405.85	1018.13
406.05	959.62
406.24	1013.45
406.43	959.62
406.62	978.34
406.81	919.83
407.00	1015.79
407.20	999.41
407.39	964.30
407.58	1109.41
407.77	1043.88
407.96	1121.12
408.15	1036.86
408.34	1123.46
408.54	1174.95
408.73	1151.54
408.92	1074.31
409.11	1153.88
409.30	1132.82
409.49	1135.16
409.68	1100.05
409.87	1135.16
410.07	1172.61
410.26	1146.86
410.45	1146.86
410.64	1100.05
410.83	1242.82
411.02	1277.93
411.21	1296.66
411.40	1121.12
411.59	1287.29
411.78	1247.51
411.98	1174.95
412.17	1177.29
412.36	1224.10
412.55	1240.48
412.74	1387.94
412.93	1320.06
413.12	1266.23
413.31	1327.08
413.50	1409.00
413.69	1331.76
413.88	1504.96
414.07	1446.45
414.26	1364.53
414.45	1418.36
414.64	1409.00
414.83	1394.96
415.02	1392.62
415.22	1528.37
415.41	1526.03
415.60	1643.06
415.79	1575.18
415.98	1586.88
416.17	1563.48
416.36	1561.14
416.55	1607.95
416.74	1617.31
416.93	1612.63
417.12	1650.08
417.31	1659.44
417.50	1668.80
417.69	1748.38
417.88	1654.76
418.07	1750.72
418.26	1732.00
418.45	1776.47
418.64	1856.04
418.83	1811.57
419.02	1781.15
419.21	1774.13
419.39	1650.08
419.58	1820.94
419.77	1804.55
419.96	1813.92
420.15	1830.30
420.34	1914.56
420.53	1816.26
420.72	1921.58
420.91	1902.86
421.10	1966.05
421.29	2087.76
421.48	1881.79
421.67	1856.04
421.86	1842.00
422.05	1933.28
422.24	1881.79
422.43	1907.54
422.61	1970.73
422.80	2017.54
422.99	2043.29
423.18	1989.46
423.37	1949.67
423.56	2019.88
423.75	2076.06
423.94	1963.71
424.13	1849.02
424.32	1944.99
424.50	2031.58
424.69	1966.05
424.88	2108.82
425.07	1881.79
425.26	2003.50
425.45	2026.90
425.64	2076.06
425.83	2033.93
426.01	2073.71
426.20	2120.53
426.39	1970.73
426.58	1991.80
426.77	2040.95
426.96	2097.12
427.15	2064.35
427.33	2125.21
427.52	1982.43
427.71	2143.93
427.90	2115.84
428.09	2052.65
428.28	2181.38
428.46	2256.28
428.65	2188.40
428.84	2321.81
429.03	2223.51
429.22	2181.38
429.40	2303.09
429.59	2237.55
429.78	2204.78
429.97	2165.00
430.16	2150.95
430.34	2277.34
430.53	2256.28
430.72	2312.45
430.91	2275.00
431.10	2230.53
431.28	2298.41
431.47	2363.94
431.66	2396.71
431.85	2345.22
432.03	2415.43
432.22	2392.03
432.41	2368.62
432.60	2485.65
432.79	2452.88
432.97	2473.95
433.16	2492.67
433.35	2342.88
433.54	2455.22
433.72	2499.69
433.91	2504.37
434.10	2541.82
434.28	2466.92
434.47	2523.10
434.66	2471.61
434.85	2480.97
435.03	2537.14
435.22	2628.42
435.41	2689.28
435.59	2642.46
435.78	2633.10
435.97	2670.55
436.16	2558.21
436.34	2590.97
436.53	2654.17
436.72	2906.95
436.90	2693.96
437.09	2768.85
437.28	2668.21
437.46	2595.65
437.65	2778.22
437.84	2771.19
438.02	2803.96
438.21	2810.98
438.40	2736.09
438.58	2820.35
438.77	2789.92
438.96	2897.58
439.14	2918.65
439.33	2988.86
439.52	2963.12
439.70	2949.08
439.89	2995.89
440.08	3042.70
440.26	3021.63
440.45	3063.76
440.63	3045.04
440.82	3141.00
441.01	3159.72
441.19	3007.59
441.38	3239.30
441.57	3173.77
441.75	3126.96
441.94	3215.90
442.12	3276.75
442.31	3302.50
442.50	3187.81
442.68	3255.69
442.87	3330.58
443.05	3452.29
443.24	3321.22
443.43	3407.82
443.61	3384.41
443.80	3506.12
443.98	3363.35
444.17	3286.11
444.35	3330.58
444.54	3447.61
444.73	3506.12
444.91	3396.12
445.10	3480.38
445.28	3384.41
445.47	3578.68
445.65	3510.80
445.84	3501.44
446.02	3405.48
446.21	3459.31
446.39	3368.03
446.58	3424.20
446.77	3435.91
446.95	3499.10
447.14	3543.57
447.32	3494.42
447.51	3307.18
447.69	3442.93
447.88	3445.27
448.06	3365.69
448.25	3566.98
448.43	3522.51
448.62	3581.02
448.80	3545.91
448.99	3574.00
449.17	3590.38
449.36	3618.47
449.54	3548.25
449.73	3534.21
449.91	3627.83
450.10	3861.88
450.28	3688.68
450.46	3723.79
450.65	3786.99
450.83	3808.05
451.02	3620.81
451.20	3737.84
451.39	3796.35
451.57	3705.07
451.76	3712.09
451.94	3730.81
452.13	3915.72
452.31	3754.22
452.49	3789.33
452.68	3908.69
452.86	3833.80
453.05	3712.09
453.23	3838.48
453.42	3833.80
453.60	3822.09
453.78	3840.82
453.97	3833.80
454.15	3999.98
454.34	3866.56
454.52	3974.23
454.70	4042.11
454.89	3946.14
455.07	4032.74
455.26	4070.19
455.44	4091.26
455.62	4168.49
455.81	4037.42
455.99	4067.85
456.17	4201.26
456.36	4276.16
456.54	4109.98
456.73	4224.67
456.91	4269.14
457.09	4299.56
457.28	4334.67
457.46	4280.84
457.64	4301.90
457.83	4465.74
458.01	4208.28
458.19	4245.73
458.38	4294.88
458.56	4395.53
458.74	4468.08
458.93	4435.32
459.11	4423.61
459.29	4379.14
459.48	4372.12
459.66	4559.36
459.84	4650.64
460.03	4526.60
460.21	4517.23
460.39	4592.13
460.57	4671.71
460.76	4699.80
460.94	4437.66
461.12	4599.15
461.31	4615.54
461.49	4524.26
461.67	4671.71
461.85	4601.49
462.04	4531.28
462.22	4858.95
462.40	4777.03
462.59	4770.01
462.77	4746.61
462.95	4926.83
463.13	4788.74
463.32	4844.91
463.50	4837.89
463.68	4779.37
463.86	4793.42
464.05	4695.11
464.23	4992.36
464.41	4837.89
464.59	4826.18
464.78	4922.15
464.96	4985.34
465.14	4884.70
465.32	4905.76
465.50	5048.54
465.69	4936.19
465.87	5013.43
466.05	4908.10
466.23	4940.87
466.41	5008.75
466.60	5217.05
466.78	4990.02
466.96	4915.12
467.14	5055.56
467.32	5085.98
467.51	5125.77
467.69	5102.37
467.87	5334.08
468.05	5188.97
468.23	5093.01
468.41	5135.14
468.60	5149.18
468.78	5214.71
468.96	5308.34
469.14	5116.41
469.32	5303.65
469.50	5130.45
469.69	5233.44
469.87	5212.37
470.05	5210.03
470.23	5430.04
470.41	5308.34
470.59	5479.19
470.77	5387.91
470.95	5387.91
471.14	5528.35
471.32	5511.96
471.50	5486.22
471.68	5490.90
471.86	5518.98
472.04	5502.60
472.22	5825.59
472.40	5554.09
472.58	5544.73
472.77	5647.71
472.95	5771.76
473.13	5802.19
473.31	5809.21
473.49	5593.88
473.67	5816.23
473.85	5818.57
474.03	5921.56
474.21	5788.14
474.39	6085.39
474.57	5966.03
474.75	6228.17
474.93	6230.51
475.12	6132.20
475.30	6373.28
475.48	6054.97
475.66	6305.40
475.84	6162.63
476.02	6291.36
476.20	6331.15
476.38	6441.15
476.56	6537.12
476.74	6663.51
476.92	6406.05
477.10	6614.35
477.28	6747.76
477.46	6525.41
477.64	6565.20
477.82	6782.87
478.00	6930.33
478.18	6913.94
478.36	6920.96
478.54	6988.84
478.72	7180.76
478.90	7370.35
479.08	7016.93
479.26	7262.68
479.44	7152.68
479.62	7461.63
479.80	7550.57
479.98	7382.05
480.16	7428.86
480.34	7353.96
480.52	7646.53
480.70	7784.62
480.88	7461.63
481.06	7681.64
481.24	7616.10
481.41	7868.88
481.59	8081.87
481.77	7950.80
481.95	7990.59
482.13	8067.83
482.31	7948.46
482.49	8294.86
482.67	8236.35
482.85	8397.84
483.03	8461.04
483.21	8446.99
483.39	8451.67
483.57	8421.25
483.74	8547.64
483.92	8624.87
484.10	8704.45
484.28	8800.41
484.46	8908.08
484.64	9163.20
484.82	8884.67
485.00	9036.81
485.18	9315.33
485.35	9055.53
485.53	9413.63
485.71	9516.62
485.89	9413.63
486.07	9610.24
486.25	9458.10
486.43	9591.52
486.61	9694.50
486.78	9769.40
486.96	9734.29
487.14	10015.15
487.32	9802.16
487.50	10228.14
487.68	10155.58
487.85	10368.57
488.03	10406.02
488.21	10677.52
488.39	10413.04
488.57	10782.85
488.75	10604.97
488.92	10766.46
489.10	10803.91
489.28	10981.79
489.46	10911.58
489.64	10944.34
489.81	11215.85
489.99	11199.46
490.17	11199.46
490.35	11382.03
490.53	11466.28
490.70	11522.46
490.88	11616.08
491.06	11831.41
491.24	11571.61
491.41	11698.00
491.59	11805.66
491.77	12255.04
491.95	11913.33
492.13	11936.73
492.30	12084.19
492.48	12182.49
492.66	12241.00
492.84	12360.37
493.01	12519.53
493.19	12627.19
493.37	12786.35
493.54	12870.61
493.72	12692.73
493.90	12945.50
494.08	13006.36
494.25	13200.62
494.43	12870.61
494.61	13111.68
494.79	13432.33
494.96	13050.83
495.14	13345.73
495.32	13327.01
495.49	13582.13
495.67	13479.15
495.85	13518.93
496.02	13781.07
496.20	13799.80
496.38	13525.96
496.55	13811.50
496.73	14139.18
496.91	13998.74
497.09	14029.17
497.26	14375.57
497.44	14394.29
497.62	14347.48
497.79	14457.49
497.97	14508.98
498.14	14541.75
498.32	14640.05
498.50	14766.44
498.67	14918.57
498.85	14600.26
499.03	14913.89
499.20	14925.60
499.38	14817.93
499.56	15293.06
499.73	15082.41
499.91	15239.23
500.08	15269.66
500.26	15119.86
500.44	15328.17
500.61	15594.99
500.79	15410.09
500.97	15573.92
501.14	15925.00
501.32	15831.38
501.49	15625.42
501.67	15662.86
501.84	15838.41
502.02	15962.45
502.20	15887.56
502.37	15852.45
502.55	16070.12
502.72	15953.09
502.90	16318.22
503.07	15962.45
503.25	16315.87
503.43	16161.40
503.60	16517.16
503.78	16666.95
503.95	16409.50
504.13	16332.26
504.30	16582.70
504.48	16755.90
504.65	16678.66
504.83	16858.88
505.01	16905.69
505.18	16800.37
505.36	17020.38
505.53	16889.31
505.71	16957.18
505.88	17296.56
506.06	17064.85
506.23	17027.40
506.41	16938.46
506.58	17235.70
506.76	17420.61
506.93	17315.28
507.11	17387.84
507.28	17465.08
507.46	17544.66
507.63	17633.60
507.81	17972.97
507.98	17614.87
508.16	17839.56
508.33	17874.67
508.50	17645.30
508.68	17816.16
508.85	18197.67
509.03	18019.78
509.20	18120.43
509.38	18298.31
509.55	18265.54
509.73	18015.10
509.90	18118.09
510.08	18054.89
510.25	18157.88
510.42	18541.72
510.60	18630.66
510.77	18431.72
510.95	18567.47
511.12	18263.20
511.30	18523.00
511.47	18389.59
511.64	18588.53
511.82	18974.72
511.99	18801.52
512.17	18979.40
512.34	19187.71
512.51	18897.49
512.69	19066.00
512.86	19136.22
513.04	19068.34
513.21	18984.09
513.38	19503.68
513.56	19325.80
513.73	19255.59
513.90	19412.40
514.08	19620.71
514.25	19421.77
514.43	19445.17
514.60	19676.88
514.77	19583.26
514.95	19616.03
515.12	19585.60
515.29	19810.29
515.47	19592.62
515.64	19793.91
515.81	20023.28
515.99	19831.36
516.16	20126.27
516.33	20072.43
516.51	20346.28
516.68	19941.36
516.85	20175.42
517.03	20114.56
517.20	20372.02
517.37	20491.39
517.54	20325.21
517.72	20662.25
517.89	20306.49
518.06	20456.28
518.24	20402.45
518.41	20355.64
518.58	20540.54
518.75	20556.93
518.93	20753.53
519.10	20737.15
519.27	20886.94
519.45	20552.24
519.62	20727.78
519.79	20676.29
519.96	21015.67
520.14	20947.79
520.31	21245.04
520.48	21252.06
520.65	21102.27
520.83	21247.38
521.00	21252.06
521.17	21263.77
521.34	21310.58
521.52	21310.58
521.69	21434.63
521.86	21422.92
522.03	21451.01
522.20	21944.86
522.38	21659.32
522.55	21532.93
522.72	21530.59
522.89	21647.61
523.07	22066.57
523.24	21659.32
523.41	22169.55
523.58	21977.63
523.75	22097.00
523.92	21907.41
524.10	21921.46
524.27	22038.48
524.44	22230.41
524.61	22520.63
524.78	22560.42
524.96	22347.44
525.13	22539.36
525.30	22312.33
525.47	22459.78
525.64	22354.46
525.81	22817.88
525.98	22766.39
526.16	22405.95
526.33	22754.69
526.50	23005.13
526.67	22595.53
526.84	22682.13
527.01	22632.98
527.18	22885.76
527.36	22815.54
527.53	22876.40
527.70	22958.31
527.87	23531.75
528.04	23014.49
528.21	23012.15
528.38	23157.26
528.55	23281.31
528.72	23358.55
528.89	23166.62
529.07	23012.15
529.24	23058.96
529.41	23133.86
529.58	23293.01
529.75	23316.42
529.92	23271.95
530.09	23513.02
530.26	23484.94
530.43	23475.57
530.60	23271.95
530.77	23749.42
530.94	23665.16
531.11	23573.88
531.28	23470.89
531.46	23293.01
531.63	23852.40
531.80	23934.32
531.97	23934.32
532.14	24500.73
532.31	23953.04
532.48	23857.08
532.65	23976.45
532.82	23714.31
532.99	24245.61
533.16	23985.81
533.33	24147.31
533.50	24538.18
533.67	23906.23
533.84	24177.73
534.01	24175.39
534.18	23791.55
534.35	24334.55
534.52	24428.17
534.69	24484.34
534.86	24435.19
535.03	24489.03
535.20	24386.04
535.37	24730.10
535.54	24919.68
535.71	24584.99
535.88	24503.07
536.05	24933.73
536.22	24606.05
536.38	24662.22
536.55	24755.85
536.72	24758.19
536.89	24620.10
537.06	24540.52
537.23	25069.48
537.40	24727.76
537.57	24716.06
537.74	24952.45
537.91	25366.73
538.08	24994.58
538.25	24840.11
538.42	25184.16
538.59	25191.19
538.75	24713.72
538.92	25006.28
539.09	25425.24
539.26	25259.06
539.43	24950.11
539.60	25326.94
539.77	25502.48
539.94	25560.99
540.11	25205.23
540.28	25614.82
540.44	25268.42
540.61	25394.81
540.78	25411.20
540.95	25481.41
541.12	25722.49
541.29	25708.44
541.46	25408.86
541.62	25350.34
541.79	25710.78
541.96	25146.72
542.13	25584.40
542.30	25553.97
542.47	25706.10
542.63	25867.60
542.80	25956.54
542.97	26001.01
543.14	26057.18
543.31	25872.28
543.48	25930.80
543.64	26267.83
543.81	26272.51
543.98	26551.04
544.15	26319.32
544.32	26396.56
544.48	26293.58
544.65	26125.06
544.82	26391.88
544.99	25900.37
545.16	26518.27
545.32	26368.48
545.49	26871.69
545.66	26576.78
545.83	26480.82
546.00	26808.50
546.16	26529.97
546.33	26462.10
546.50	26263.15
546.67	26661.04
546.83	26602.53
547.00	26623.59
547.17	26897.44
547.34	26567.42
547.50	26721.90
547.67	26869.35
547.84	26911.48
548.00	27168.94
548.17	26859.99
548.34	26845.94
548.51	26731.26
548.67	26806.16
548.84	27070.64
549.01	26988.72
549.18	27105.74
549.34	27105.74
549.51	27412.35
549.68	27384.27
549.84	27211.07
550.01	27278.94
550.18	27082.34
550.34	27747.05
550.51	27337.46
550.68	27302.35
550.84	27248.52
551.01	27372.57
551.18	27328.10
551.34	27072.98
551.51	27604.28
551.68	27845.35
551.84	27634.71
552.01	27424.06
552.18	27690.88
552.34	27431.08
552.51	27754.07
552.68	27461.51
552.84	27480.23
553.01	27938.97
553.18	27491.93
553.34	27662.79
553.51	27637.05
553.67	27562.15
553.84	28133.24
554.01	27873.44
554.17	27569.17
554.34	28002.17
554.51	27948.34
554.67	27974.08
554.84	27838.33
555.00	27962.38
555.17	28123.88
555.33	27868.76
555.50	27807.90
555.67	28044.30
555.83	28163.67
556.00	27941.32
556.16	28395.38
556.33	27936.63
556.50	27910.89
556.66	28414.10
556.83	28060.68
556.99	28402.40
557.16	28699.65
557.32	28121.54
557.49	28034.94
557.65	27943.66
557.82	27828.97
557.98	28107.49
558.15	28383.68
558.32	28542.83
558.48	28182.39
558.65	28292.40
558.81	28163.67
558.98	28538.15
559.14	28196.43
559.31	28367.29
559.47	28086.43
559.64	28287.71
559.80	28414.10
559.97	28664.54
560.13	28393.04
560.30	28568.58
560.46	28678.58
560.63	28156.64
560.79	28793.27
560.96	28535.81
561.12	28404.74
561.29	28479.64
561.45	28582.62
561.61	28599.01
561.78	28872.85
561.94	28957.11
562.11	28706.67
562.27	28833.06
562.44	28727.74
562.60	28355.59
562.77	28811.99
562.93	28680.92
563.10	28755.82
563.26	28346.23
563.42	28936.04
563.59	28968.81
563.75	28671.56
563.92	29235.63
564.08	28613.05
564.24	28622.41
564.41	28570.92
564.57	28709.01
564.74	28753.48
564.90	28556.88
565.07	28849.44
565.23	29053.07
565.39	29046.05
565.56	29357.34
565.72	28919.66
565.88	29130.31
566.05	28706.67
566.21	29188.82
566.38	28823.70
566.54	28912.64
566.70	29172.44
566.87	29355.00
567.03	28854.12
567.19	29371.38
567.36	29188.82
567.52	28954.77
567.68	28996.90
567.85	29123.29
568.01	29242.65
568.17	29036.69
568.34	29359.68
568.50	29097.54
568.66	29116.26
568.83	29387.77
568.99	29259.04
569.15	29053.07
569.32	29071.79
569.48	29266.06
569.64	29514.16
569.81	29376.06
569.97	29624.16
570.13	29371.38
570.30	28914.98
570.46	29076.48
570.62	29394.79
570.78	28819.02
570.95	29027.32
571.11	29003.92
571.27	29146.69
571.43	28994.56
571.60	29125.63
571.76	29233.29
571.92	29530.54
572.09	29310.53
572.25	29567.99
572.41	29312.87
572.57	28992.22
572.74	29638.20
572.90	29326.91
573.06	29343.30
573.22	29055.41
573.38	29436.92
573.55	29214.57
573.71	29715.44
573.87	29500.11
574.03	29392.45
574.20	29771.61
574.36	29408.83
574.52	29912.05
574.68	29170.10
574.84	29404.15
575.01	29343.30
575.17	29394.79
575.33	29364.36
575.49	29799.70
575.65	29771.61
575.82	29338.62
575.98	29315.21
576.14	29219.25
576.30	29387.77
576.46	29474.37
576.62	29195.84
576.79	29628.84
576.95	29460.32
577.11	29727.14
577.27	29722.46
577.43	29757.57
577.59	29598.41
577.75	29432.24
577.92	29429.90
578.08	29535.22
578.24	29509.47
578.40	29916.73
578.56	29289.46
578.72	29317.55
578.88	29507.13
579.04	29982.26
579.21	29495.43
579.37	29401.81
579.53	29701.40
579.69	29523.52
579.85	29518.84
580.01	29310.53
580.17	29062.43
580.33	29537.56
580.49	29560.97
580.65	29146.69
580.82	29954.18
580.98	29713.10
581.14	29614.80
581.30	29738.85
581.46	29233.29
581.62	29289.46
581.78	29397.13
581.94	29617.14
582.10	29617.14
582.26	29483.73
582.42	29778.64
582.58	29670.97
582.74	29837.15
582.90	29759.91
583.06	29649.91
583.22	29895.66
583.38	30043.12
583.54	29603.10
583.70	29575.01
583.86	29598.41
584.02	29516.50
584.18	29804.38
584.34	29813.74
584.50	29825.45
584.66	29682.67
584.82	29408.83
584.98	29802.04
585.14	30015.03
585.30	29198.18
585.46	29504.79
585.62	29607.78
585.78	29654.59
585.94	29621.82
586.10	29895.66
586.26	29998.65
586.42	29844.17
586.58	29687.36
586.74	29706.08
586.90	29317.55
587.06	29544.58
587.22	29881.62
587.38	29851.19
587.54	29841.83
587.70	29888.64
587.86	29633.52
588.02	29867.58
588.18	30169.51
588.34	30024.39
588.49	29869.92
588.65	29692.04
588.81	29563.31
588.97	29823.11
589.13	29600.76
589.29	29862.90
589.45	29867.58
589.61	30022.05
589.77	29909.71
589.93	30113.33
590.08	30501.86
590.24	29963.54
590.40	30258.45
590.56	29942.47
590.72	29982.26
590.88	29951.84
591.04	30101.63
591.20	30209.29
591.35	30174.19
591.51	30192.91
591.67	30094.61
591.83	30176.53
591.99	30167.16
