SpectraSuite Data File
++++++++++++++++++++++++++++++++++++
Date: Fri Oct 18 13:57:56 GMT-05:00 2013
User: bianchi
Dark Spectrum Present: No
Reference Spectrum Present: No
Number of Sampled Component Spectra: 1
Spectrometers: USB2+H05261
Integration Time (usec): 50000 (USB2+H05261)
Spectra Averaged: 1 (USB2+H05261)
Boxcar Smoothing: 0 (USB2+H05261)
Correct for Electrical Dark: No (USB2+H05261)
Strobe/Lamp Enabled: No (USB2+H05261)
Correct for Detector Non-linearity: No (USB2+H05261)
Correct for Stray Light: No (USB2+H05261)
Number of Pixels in Processed Spectrum: 2048
>>>>>Begin Processed Spectral Data<<<<<
365.73	0.00
365.92	0.00
366.12	0.00
366.32	0.00
366.52	0.00
366.72	0.00
366.91	0.00
367.11	0.00
367.31	0.00
367.51	0.00
367.70	0.00
367.90	0.00
368.10	0.00
368.30	0.00
368.49	0.00
368.69	0.00
368.89	0.00
369.09	0.00
369.28	0.00
369.48	0.00
369.68	0.00
369.87	0.00
370.07	0.00
370.27	0.00
370.47	0.00
370.66	16.38
370.86	114.69
371.06	95.96
371.25	74.90
371.45	117.03
371.65	234.05
371.84	159.16
372.04	135.75
372.24	175.54
372.44	107.66
372.63	182.56
372.83	177.88
373.03	224.69
373.22	217.67
373.42	173.20
373.62	177.88
373.81	156.82
374.01	273.84
374.21	264.48
374.40	222.35
374.60	224.69
374.79	243.42
374.99	290.23
375.19	280.86
375.38	234.05
375.58	231.71
375.78	287.89
375.97	276.18
376.17	241.08
376.37	231.71
376.56	266.82
376.76	269.16
376.95	252.78
377.15	252.78
377.35	217.67
377.54	217.67
377.74	271.50
377.93	245.76
378.13	266.82
378.33	334.70
378.52	327.68
378.72	334.70
378.91	248.10
379.11	376.83
379.31	250.44
379.50	241.08
379.70	327.68
379.89	374.49
380.09	327.68
380.28	334.70
380.48	341.72
380.68	245.76
380.87	222.35
381.07	337.04
381.26	252.78
381.46	313.63
381.65	315.97
381.85	381.51
382.04	376.83
382.24	372.15
382.43	409.59
382.63	374.49
382.83	381.51
383.02	416.62
383.22	341.72
383.41	376.83
383.61	379.17
383.80	358.10
384.00	322.99
384.19	444.70
384.39	372.15
384.58	341.72
384.78	397.89
384.97	440.02
385.17	376.83
385.36	358.10
385.56	376.83
385.75	374.49
385.95	353.42
386.14	477.47
386.34	411.93
386.53	430.66
386.72	400.23
386.92	465.77
387.11	465.77
387.31	404.91
387.50	395.55
387.70	444.70
387.89	433.00
388.09	503.22
388.28	531.30
388.48	470.45
388.67	468.11
388.86	433.00
389.06	486.83
389.25	491.51
389.45	503.22
389.64	475.13
389.84	526.62
390.03	519.60
390.22	566.41
390.42	550.03
390.61	472.79
390.81	451.72
391.00	559.39
391.19	517.26
391.39	456.40
391.58	561.73
391.78	608.54
391.97	578.11
392.16	535.98
392.36	627.26
392.55	568.75
392.75	510.24
392.94	566.41
393.13	573.43
393.33	545.34
393.52	552.37
393.71	627.26
393.91	578.11
394.10	603.86
394.29	561.73
394.49	603.86
394.68	648.33
394.88	533.64
395.07	650.67
395.26	624.92
395.46	638.97
395.65	620.24
395.84	606.20
396.04	695.14
396.23	638.97
396.42	664.71
396.62	650.67
396.81	648.33
397.00	660.03
397.19	638.97
397.39	648.33
397.58	748.97
397.77	688.12
397.97	753.65
398.16	713.86
398.35	819.19
398.55	725.57
398.74	718.54
398.93	798.12
399.12	685.78
399.32	725.57
399.51	669.39
399.70	753.65
399.90	812.17
400.09	720.88
400.28	835.57
400.47	730.25
400.67	828.55
400.86	767.70
401.05	823.87
401.24	891.74
401.44	868.34
401.63	901.11
401.82	809.83
402.01	805.14
402.21	800.46
402.40	880.04
402.59	889.40
402.78	821.53
402.97	954.94
403.17	835.57
403.36	851.96
403.55	870.68
403.74	933.87
403.93	898.77
404.13	1041.54
404.32	926.85
404.51	931.53
404.70	961.96
404.89	978.34
405.09	1032.18
405.28	980.68
405.47	1039.20
405.66	980.68
405.85	957.28
406.05	1022.81
406.24	994.73
406.43	1050.90
406.62	1020.47
406.81	1149.20
407.00	1036.86
407.20	1071.97
407.39	1074.31
407.58	1125.80
407.77	1081.33
407.96	1165.59
408.15	1116.44
408.34	1135.16
408.54	1114.10
408.73	1139.84
408.92	1158.57
409.11	1107.07
409.30	1160.91
409.49	1125.80
409.68	1252.19
409.87	1228.78
410.07	1184.31
410.26	1247.51
410.45	1172.61
410.64	1277.93
410.83	1198.35
411.02	1252.19
411.21	1233.46
411.40	1245.16
411.59	1193.67
411.78	1303.68
411.98	1259.21
412.17	1329.42
412.36	1343.47
412.55	1359.85
412.74	1357.51
412.93	1362.19
413.12	1315.38
413.31	1390.28
413.50	1451.13
413.69	1465.18
413.88	1462.83
414.07	1488.58
414.26	1540.07
414.45	1511.99
414.64	1432.41
414.83	1568.16
415.02	1596.25
415.22	1577.52
415.41	1717.95
415.60	1568.16
415.79	1575.18
415.98	1591.56
416.17	1563.48
416.36	1713.27
416.55	1675.82
416.74	1668.80
416.93	1706.25
417.12	1746.04
417.31	1657.10
417.50	1708.59
417.69	1741.36
417.88	1783.49
418.07	1823.28
418.26	1858.39
418.45	1825.62
418.64	1785.83
418.83	1870.09
419.02	1874.77
419.21	1851.36
419.39	1792.85
419.58	1788.17
419.77	1853.70
419.96	1863.07
420.15	1895.83
420.34	1947.33
420.53	1884.13
420.72	1959.03
420.91	1977.75
421.10	2057.33
421.29	2080.74
421.48	1984.77
421.67	2029.24
421.86	1926.26
422.05	1989.46
422.24	2087.76
422.43	2029.24
422.61	2071.37
422.80	2080.74
422.99	2078.40
423.18	2052.65
423.37	2176.70
423.56	2045.63
423.75	2022.22
423.94	1973.07
424.13	1853.70
424.32	2045.63
424.50	2172.02
424.69	2038.61
424.88	2148.61
425.07	2080.74
425.26	2080.74
425.45	2059.67
425.64	2031.58
425.83	2017.54
426.01	2003.50
426.20	2099.46
426.39	2104.14
426.58	2122.87
426.77	2115.84
426.96	2267.98
427.15	2167.34
427.33	2209.47
427.52	2225.85
427.71	2244.57
427.90	2150.95
428.09	2193.08
428.28	2153.29
428.46	2300.75
428.65	2256.28
428.84	2303.09
429.03	2345.22
429.22	2146.27
429.40	2291.38
429.59	2298.41
429.78	2298.41
429.97	2239.89
430.16	2253.94
430.34	2478.63
430.53	2452.88
430.72	2359.26
430.91	2450.54
431.10	2429.48
431.28	2410.75
431.47	2459.90
431.66	2464.58
431.85	2483.31
432.03	2436.50
432.22	2396.71
432.41	2382.67
432.60	2541.82
432.79	2406.07
432.97	2588.63
433.16	2506.71
433.35	2525.44
433.54	2642.46
433.72	2605.02
433.91	2605.02
434.10	2597.99
434.28	2581.61
434.47	2679.91
434.66	2684.59
434.85	2724.38
435.03	2672.89
435.22	2719.70
435.41	2757.15
435.59	2665.87
435.78	2682.25
435.97	2654.17
436.16	2602.68
436.34	2700.98
436.53	2789.92
436.72	2897.58
436.90	2710.34
437.09	2806.30
437.28	2682.25
437.46	2661.19
437.65	2773.53
437.84	2850.77
438.02	2902.26
438.21	2899.92
438.40	2773.53
438.58	2918.65
438.77	2932.69
438.96	2885.88
439.14	3087.17
439.33	2998.23
439.52	2967.80
439.70	3054.40
439.89	3180.79
440.08	3169.09
440.26	3094.19
440.45	3215.90
440.63	3185.47
440.82	3213.56
441.01	3138.66
441.19	3218.24
441.38	3309.52
441.57	3325.90
441.75	3361.01
441.94	3365.69
442.12	3346.97
442.31	3496.76
442.50	3517.83
442.68	3389.10
442.87	3351.65
443.05	3342.28
443.24	3424.20
443.43	3438.25
443.61	3389.10
443.80	3602.08
443.98	3398.46
444.17	3370.37
444.35	3492.08
444.54	3536.55
444.73	3590.38
444.91	3581.02
445.10	3606.77
445.28	3454.63
445.47	3653.58
445.65	3548.25
445.84	3517.83
446.02	3571.66
446.21	3524.85
446.39	3513.14
446.58	3737.84
446.77	3611.45
446.95	3581.02
447.14	3527.19
447.32	3557.61
447.51	3583.36
447.69	3637.19
447.88	3658.26
448.06	3552.93
448.25	3616.13
448.43	3595.06
448.62	3674.64
448.80	3609.11
448.99	3686.34
449.17	3679.32
449.36	3578.68
449.54	3810.39
449.73	3782.31
449.91	3836.14
450.10	3660.60
450.28	3904.01
450.46	3819.75
450.65	3847.84
450.83	3920.40
451.02	3859.54
451.20	3978.91
451.39	4056.15
451.57	3861.88
451.76	3941.46
451.94	4004.66
452.13	3992.95
452.31	3906.35
452.49	3962.53
452.68	3857.20
452.86	3868.91
453.05	3999.98
453.23	4009.34
453.42	4109.98
453.60	4058.49
453.78	4126.36
453.97	3882.95
454.15	4077.21
454.34	4079.55
454.52	4147.43
454.70	4163.81
454.89	4088.92
455.07	4215.30
455.26	4145.09
455.44	4138.07
455.62	4189.56
455.81	4257.43
455.99	4203.60
456.17	4241.05
456.36	4278.50
456.54	4409.57
456.73	4440.00
456.91	4432.97
457.09	4400.21
457.28	4559.36
457.46	4444.68
457.64	4526.60
457.83	4341.69
458.01	4400.21
458.19	4465.74
458.38	4531.28
458.56	4475.10
458.74	4557.02
458.93	4517.23
459.11	4667.03
459.29	4669.37
459.48	4568.73
459.66	4627.24
459.84	4798.10
460.03	4592.13
460.21	4812.14
460.39	4704.48
460.57	4559.36
460.76	4636.60
460.94	4819.16
461.12	4762.99
461.31	4704.48
461.49	4767.67
461.67	4748.95
461.85	4751.29
462.04	4950.23
462.22	5097.69
462.40	4903.42
462.59	4727.88
462.77	4999.38
462.95	4961.94
463.13	4816.82
463.32	5032.15
463.50	5041.51
463.68	4983.00
463.86	5060.24
464.05	4985.34
464.23	5139.82
464.41	4917.47
464.59	4980.66
464.78	5231.10
464.96	5048.54
465.14	4980.66
465.32	5123.43
465.50	5036.83
465.69	5357.49
465.87	5282.59
466.05	5205.35
466.23	5055.56
466.41	5188.97
466.60	5334.08
466.78	5212.37
466.96	5226.42
467.14	5188.97
467.32	5221.74
467.51	5373.87
467.69	5167.90
467.87	5373.87
468.05	5458.13
468.23	5359.83
468.41	5369.19
468.60	5296.63
468.78	5636.01
468.96	5308.34
469.14	5420.68
469.32	5432.38
469.50	5434.72
469.69	5589.20
469.87	5600.90
470.05	5500.26
470.23	5645.37
470.41	5626.65
470.59	5710.91
470.77	5650.05
470.95	5703.89
471.14	5804.53
471.32	5638.35
471.50	5930.92
471.68	5769.42
471.86	5900.49
472.04	5879.43
472.22	5940.28
472.40	5884.11
472.58	5788.14
472.77	5919.21
472.95	5989.43
473.13	6195.40
473.31	6019.86
473.49	5841.98
473.67	6083.05
473.85	6216.46
474.03	6223.48
474.21	6064.33
474.39	6326.47
474.57	6225.82
474.75	6347.53
474.93	6293.70
475.12	6328.81
475.30	6530.09
475.48	6569.88
475.66	6429.45
475.84	6422.43
476.02	6546.48
476.20	6546.48
476.38	6661.16
476.56	6913.94
476.74	6640.10
476.92	6747.76
477.10	6647.12
477.28	6820.32
477.46	6829.68
477.64	6815.64
477.82	6981.82
478.00	7129.27
478.18	7295.45
478.36	7122.25
478.54	7377.37
478.72	7419.50
478.90	7349.28
479.08	7255.66
479.26	7559.93
479.44	7562.27
479.62	7407.80
479.80	7550.57
479.98	7688.66
480.16	7918.03
480.34	7805.69
480.52	7775.26
480.70	7934.42
480.88	7880.58
481.06	7974.21
481.24	8067.83
481.41	8128.68
481.59	8210.60
481.77	8226.98
481.95	8346.35
482.13	8461.04
482.31	8521.89
482.49	8439.97
482.67	8676.37
482.85	8807.44
483.03	8690.41
483.21	8692.75
483.39	8798.07
483.57	8889.35
483.74	8898.72
483.92	9027.45
484.10	8990.00
484.28	9214.69
484.46	9315.33
484.64	9437.04
484.82	9437.04
485.00	9390.23
485.18	9500.23
485.35	9734.29
485.53	9764.72
485.71	9713.22
485.89	10024.51
486.07	9886.42
486.25	9937.91
486.43	9977.70
486.61	9958.98
486.78	10237.50
486.96	10310.06
487.14	10569.86
487.32	10630.71
487.50	10434.11
487.68	10462.19
487.85	10754.76
488.03	10918.60
488.21	10911.58
488.39	10930.30
488.57	11061.37
488.75	11089.46
488.92	11351.60
489.10	11290.74
489.28	11157.33
489.46	11403.09
489.64	11365.64
489.81	11585.65
489.99	11693.32
490.17	11625.44
490.35	11843.11
490.53	12030.35
490.70	12013.97
490.88	11908.65
491.06	12212.92
491.24	12217.60
491.41	12243.34
491.59	12404.84
491.77	12367.39
491.95	12674.00
492.13	12631.87
492.30	12638.89
492.48	12517.18
492.66	12772.30
492.84	12652.94
493.01	12919.76
493.19	12999.34
493.37	13156.15
493.54	13179.56
493.72	13142.11
493.90	13387.86
494.08	13359.78
494.25	13425.31
494.43	13570.43
494.61	13715.54
494.79	13778.73
494.96	13914.48
495.14	14036.19
495.32	13729.58
495.49	14157.90
495.67	13872.36
495.85	14195.35
496.02	14331.10
496.20	14579.20
496.38	14569.83
496.55	14450.47
496.73	14691.54
496.91	14766.44
497.09	14700.90
497.26	14986.45
497.44	14604.94
497.62	15019.22
497.79	15087.09
497.97	14974.75
498.14	15435.83
498.32	15302.42
498.50	15377.32
498.67	15611.37
498.85	15356.25
499.03	15384.34
499.20	15543.50
499.38	15620.74
499.56	15798.62
499.73	15733.08
499.91	15627.76
500.08	15925.00
500.26	15686.27
500.44	15957.77
500.61	16107.57
500.79	16184.80
500.97	16411.84
501.14	16329.92
501.32	16386.09
501.49	16358.00
501.67	16381.41
501.84	16425.88
502.02	16334.60
502.20	16718.45
502.37	16840.15
502.55	16732.49
502.72	16851.86
502.90	16781.64
503.07	16594.40
503.25	16858.88
503.43	16767.60
503.60	16842.50
503.78	17516.57
503.95	17177.19
504.13	17312.94
504.30	17500.19
504.48	17202.94
504.65	17376.14
504.83	17462.74
505.01	17734.24
505.18	17614.87
505.36	17563.38
505.53	17537.63
505.71	17577.42
505.88	17755.30
506.06	17708.49
506.23	17673.39
506.41	17736.58
506.58	17886.37
506.76	18012.76
506.93	18333.42
507.11	18066.60
507.28	17965.95
507.46	18075.96
507.63	18045.53
507.81	18560.45
507.98	18267.88
508.16	18373.21
508.33	18703.22
508.50	18724.29
508.68	18661.09
508.85	18843.65
509.03	18813.23
509.20	18665.77
509.38	19204.10
509.55	18944.30
509.73	18991.11
509.90	19199.41
510.08	19138.56
510.25	18963.02
510.42	18897.49
510.60	19286.01
510.77	19300.06
510.95	19356.23
511.12	19271.97
511.30	19304.74
511.47	19489.64
511.64	19412.40
511.82	19789.23
511.99	19461.55
512.17	19744.76
512.34	19873.49
512.51	19899.23
512.69	19948.39
512.86	20086.48
513.04	20266.70
513.21	20058.39
513.38	20060.73
513.56	20133.29
513.73	19854.76
513.90	20208.19
514.08	20121.59
514.25	20376.70
514.43	20479.69
514.60	20585.01
514.77	20688.00
514.95	20460.96
515.12	20475.01
515.29	20475.01
515.47	20683.31
515.64	20903.32
515.81	20360.32
515.99	20709.06
516.16	21256.75
516.33	21200.57
516.51	21048.44
516.68	21078.86
516.85	20872.90
517.03	21451.01
517.20	20819.07
517.37	21355.05
517.54	21326.96
517.72	21605.49
517.89	21399.52
518.06	21355.05
518.24	21376.11
518.41	21116.31
518.58	21465.05
518.75	21722.51
518.93	21612.51
519.10	21645.27
519.27	21678.04
519.45	21802.09
519.62	21776.34
519.79	21661.66
519.96	22216.36
520.14	22218.71
520.31	22040.82
520.48	22211.68
520.65	22211.68
520.83	22157.85
521.00	21799.75
521.17	22160.19
521.34	22204.66
521.52	22677.45
521.69	22490.21
521.86	22710.22
522.03	22679.79
522.20	22761.71
522.38	22869.37
522.55	22375.52
522.72	22576.81
522.89	22728.94
523.07	22843.63
523.24	23080.02
523.41	23042.57
523.58	22899.80
523.75	22974.70
523.92	23056.62
524.10	23063.64
524.27	23084.70
524.44	23133.86
524.61	23271.95
524.78	23190.03
524.96	23288.33
525.13	23433.44
525.30	23255.56
525.47	23414.72
525.64	23545.79
525.81	23449.83
525.98	24006.87
526.16	23758.78
526.33	23744.73
526.50	23962.40
526.67	23644.09
526.84	23791.55
527.01	23491.96
527.18	23981.13
527.36	24156.67
527.53	23929.64
527.70	24229.23
527.87	24388.38
528.04	24151.99
528.21	24056.03
528.38	23852.40
528.55	23882.83
528.72	24173.05
528.89	23866.44
529.07	24126.24
529.24	23960.06
529.41	24535.84
529.58	24407.11
529.75	24212.84
529.92	24617.75
530.09	24327.53
530.26	24414.13
530.43	24915.00
530.60	24493.71
530.77	24283.06
530.94	24662.22
531.11	24720.74
531.28	24741.80
531.46	24849.47
531.63	24755.85
531.80	24973.52
531.97	24971.18
532.14	25104.59
532.31	24776.91
532.48	25202.89
532.65	25263.74
532.82	24989.90
532.99	25006.28
533.16	25153.74
533.33	25069.48
533.50	25326.94
533.67	25282.47
533.84	25088.20
534.01	24954.79
534.18	25502.48
534.35	25380.77
534.52	25090.54
534.69	25703.76
534.86	25582.06
535.03	25504.82
535.20	25802.07
535.37	25490.77
535.54	25685.04
535.71	26019.74
535.88	25804.41
536.05	25443.96
536.22	25869.94
536.38	25797.38
536.55	25806.75
536.72	26096.97
536.89	25631.21
537.06	25998.67
537.23	26115.70
537.40	25954.20
537.57	26029.10
537.74	26160.17
537.91	26593.17
538.08	26551.04
538.25	25869.94
538.42	26188.25
538.59	26513.59
538.75	26281.88
538.92	26204.64
539.09	26281.88
539.26	26492.52
539.43	26335.71
539.60	26398.90
539.77	26111.02
539.94	26370.82
540.11	26684.45
540.28	26930.20
540.44	26607.21
540.61	26560.40
540.78	26375.50
540.95	27047.23
541.12	26668.06
541.29	26789.77
541.46	27051.91
541.62	26600.19
541.79	26700.83
541.96	26649.34
542.13	26808.50
542.30	27372.57
542.47	27012.12
542.63	27075.32
542.80	27218.09
542.97	27761.09
543.14	27218.09
543.31	27583.21
543.48	27527.04
543.64	27522.36
543.81	27538.74
543.98	27704.92
544.15	27824.29
544.32	27292.99
544.48	27632.36
544.65	27655.77
544.82	27545.76
544.99	27711.94
545.16	27906.21
545.32	27428.74
545.49	28009.19
545.66	27665.13
545.83	27541.08
546.00	27957.70
546.16	27707.26
546.33	27784.50
546.50	27496.61
546.67	28048.98
546.83	27737.69
547.00	28025.57
547.17	27672.15
547.34	28074.73
547.50	28273.67
547.67	28105.15
547.84	28285.37
548.00	28233.88
548.17	28322.82
548.34	28325.16
548.51	28793.27
548.67	28582.62
548.84	28100.47
549.01	27953.02
549.18	28196.43
549.34	28306.44
549.51	28400.06
549.68	28444.53
549.84	28144.94
550.01	28641.14
550.18	28863.49
550.34	28870.51
550.51	28631.77
550.68	28669.22
550.84	28163.67
551.01	28648.16
551.18	28769.86
551.34	28561.56
551.51	28737.10
551.68	28554.54
551.84	28421.13
552.01	28823.70
552.18	28945.41
552.34	28762.84
552.51	28800.29
552.68	28769.86
552.84	28858.81
553.01	29158.39
553.18	28788.59
553.34	28964.13
553.51	28996.90
553.67	29223.93
553.84	29191.16
554.01	29427.56
554.17	29160.73
554.34	29221.59
554.51	29109.24
554.67	29359.68
554.84	29303.51
555.00	29233.29
555.17	29457.98
555.33	29497.77
555.50	29067.11
555.67	28964.13
555.83	29476.71
556.00	29390.11
556.16	29619.48
556.33	29366.70
556.50	29645.23
556.66	29373.72
556.83	29869.92
556.99	29441.60
557.16	29378.40
557.32	29895.66
557.49	29820.77
557.65	29099.88
557.82	29455.64
557.98	29518.84
558.15	29724.80
558.32	29846.51
558.48	29383.09
558.65	29652.25
558.81	29645.23
558.98	29631.18
559.14	29675.65
559.31	29626.50
559.47	29607.78
559.64	29579.69
559.80	30015.03
559.97	29528.20
560.13	29853.53
560.30	29853.53
560.46	29898.00
560.63	29905.02
560.79	30099.29
560.96	29745.87
561.12	30057.16
561.29	29905.02
561.45	29947.15
561.61	29748.21
561.78	30120.35
561.94	30618.89
562.11	30195.25
562.27	29923.75
562.44	30078.22
562.60	29982.26
562.77	30340.36
562.93	29785.66
563.10	30195.25
563.26	30223.34
563.42	30225.68
563.59	30284.19
563.75	29902.68
563.92	30438.67
564.08	30057.16
564.24	30134.40
564.41	30132.06
564.57	30539.31
564.74	30263.13
564.90	30377.81
565.07	30064.18
565.23	30625.91
565.39	30288.87
565.56	30558.03
565.72	30052.48
565.88	30555.69
566.05	30258.45
566.21	30293.55
566.38	30436.33
566.54	29947.15
566.70	30731.23
566.87	30754.64
567.03	30621.23
567.19	30740.60
567.36	30810.81
567.52	30361.43
567.68	30731.23
567.85	30415.26
568.01	30508.88
568.17	30689.10
568.34	30902.09
568.50	30756.98
568.66	30469.09
568.83	31035.50
568.99	30394.20
569.15	30284.19
569.32	30522.93
569.48	30459.73
569.64	30696.13
569.81	30551.01
569.97	30630.59
570.13	30625.91
570.30	30558.03
570.46	30567.40
570.62	30822.51
570.78	30705.49
570.95	30665.70
571.11	30775.70
571.27	30621.23
571.43	30656.34
571.60	30665.70
571.76	30752.30
571.92	30998.06
572.09	30775.70
572.25	30632.93
572.41	30792.09
572.57	30918.48
572.74	30817.83
572.90	30778.04
573.06	30838.90
573.22	30768.68
573.38	30881.03
573.55	31077.63
573.71	30892.73
573.87	31424.03
574.03	30958.27
574.20	31147.85
574.36	31452.12
574.52	30932.52
574.68	30918.48
574.84	30988.69
575.01	31091.68
575.17	30991.03
575.33	30909.11
575.49	31002.74
575.65	31152.53
575.82	31138.49
575.98	30789.75
576.14	31028.48
576.30	30995.71
576.46	30555.69
576.62	30735.92
576.79	30864.64
576.95	30925.50
577.11	31126.78
577.27	30820.17
577.43	30888.05
577.59	31208.70
577.75	30904.43
577.92	30775.70
578.08	30525.27
578.24	31182.96
578.40	30869.33
578.56	31178.28
578.72	31065.93
578.88	31676.81
579.04	31445.10
579.21	31131.47
579.37	31211.04
579.53	31440.42
579.69	30948.90
579.85	30508.88
580.01	31126.78
580.17	30682.08
580.33	31075.29
580.49	30836.56
580.65	31290.62
580.82	31189.98
580.98	31379.56
581.14	31161.89
581.30	31278.92
581.46	31124.44
581.62	30920.82
581.78	31112.74
581.94	31154.87
582.10	31035.50
582.26	30834.22
582.42	30820.17
582.58	30920.82
582.74	31353.82
582.90	31150.19
583.06	31154.87
583.22	31407.65
583.38	31082.31
583.54	31555.10
583.70	31026.14
583.86	31061.25
584.02	31049.55
584.18	31466.16
584.34	31466.16
584.50	31672.13
584.66	30991.03
584.82	31377.22
584.98	31129.12
585.14	31157.21
585.30	30822.51
585.46	31290.62
585.62	31157.21
585.78	31381.90
585.94	30925.50
586.10	31456.80
586.26	31260.20
586.42	31536.38
586.58	31470.84
586.74	31159.55
586.90	31075.29
587.06	30848.26
587.22	31360.84
587.38	31208.70
587.54	31154.87
587.70	31496.59
587.86	31281.26
588.02	31800.86
588.18	32051.30
588.34	31660.43
588.49	31131.47
588.65	31009.76
588.81	31023.80
588.97	31351.48
589.13	31519.99
589.29	30974.65
589.45	31613.62
589.61	31754.05
589.77	31770.43
589.93	31618.30
590.08	31419.35
590.24	32051.30
590.40	31662.77
590.56	31814.90
590.72	31503.61
590.88	31711.92
591.04	31536.38
591.20	31821.92
591.35	31852.35
591.51	31955.33
591.67	32109.81
591.83	32013.85
