SpectraSuite Data File
++++++++++++++++++++++++++++++++++++
Date: Fri Oct 18 13:58:29 GMT-05:00 2013
User: bianchi
Dark Spectrum Present: No
Reference Spectrum Present: No
Number of Sampled Component Spectra: 1
Spectrometers: USB2+H05261
Integration Time (usec): 50000 (USB2+H05261)
Spectra Averaged: 1 (USB2+H05261)
Boxcar Smoothing: 0 (USB2+H05261)
Correct for Electrical Dark: No (USB2+H05261)
Strobe/Lamp Enabled: No (USB2+H05261)
Correct for Detector Non-linearity: No (USB2+H05261)
Correct for Stray Light: No (USB2+H05261)
Number of Pixels in Processed Spectrum: 2048
>>>>>Begin Processed Spectral Data<<<<<
365.73	0.00
365.92	0.00
366.12	0.00
366.32	0.00
366.52	0.00
366.72	0.00
366.91	0.00
367.11	0.00
367.31	0.00
367.51	0.00
367.70	0.00
367.90	0.00
368.10	0.00
368.30	0.00
368.49	0.00
368.69	0.00
368.89	0.00
369.09	0.00
369.28	0.00
369.48	0.00
369.68	0.00
369.87	0.00
370.07	0.00
370.27	0.00
370.47	0.00
370.66	121.71
370.86	53.83
371.06	84.26
371.25	191.92
371.45	77.24
371.65	182.56
371.84	182.56
372.04	220.01
372.24	124.05
372.44	215.33
372.63	159.16
372.83	194.26
373.03	182.56
373.22	248.10
373.42	215.33
373.62	191.92
373.81	248.10
374.01	210.65
374.21	236.39
374.40	212.99
374.60	318.31
374.79	255.12
374.99	222.35
375.19	215.33
375.38	229.37
375.58	271.50
375.78	205.97
375.97	301.93
376.17	271.50
376.37	198.95
376.56	294.91
376.76	306.61
376.95	280.86
377.15	315.97
377.35	229.37
377.54	283.20
377.74	238.73
377.93	330.02
378.13	205.97
378.33	259.80
378.52	290.23
378.72	294.91
378.91	290.23
379.11	318.31
379.31	311.29
379.50	320.65
379.70	346.40
379.89	346.40
380.09	220.01
380.28	327.68
380.48	315.97
380.68	222.35
380.87	287.89
381.07	212.99
381.26	327.68
381.46	367.46
381.65	315.97
381.85	369.80
382.04	353.42
382.24	220.01
382.43	285.55
382.63	273.84
382.83	330.02
383.02	346.40
383.22	444.70
383.41	344.06
383.61	346.40
383.80	330.02
384.00	381.51
384.19	327.68
384.39	379.17
384.58	294.91
384.78	435.34
384.97	341.72
385.17	353.42
385.36	294.91
385.56	269.16
385.75	358.10
385.95	416.62
386.14	416.62
386.34	355.76
386.53	407.25
386.72	383.85
386.92	404.91
387.11	507.90
387.31	442.36
387.50	451.72
387.70	362.78
387.89	414.27
388.09	337.04
388.28	351.08
388.48	397.89
388.67	517.26
388.86	531.30
389.06	475.13
389.25	428.32
389.45	486.83
389.64	491.51
389.84	472.79
390.03	447.04
390.22	360.44
390.42	538.32
390.61	482.15
390.81	433.00
391.00	538.32
391.19	528.96
391.39	545.34
391.58	465.77
391.78	512.58
391.97	524.28
392.16	514.92
392.36	552.37
392.55	592.16
392.75	505.56
392.94	524.28
393.13	514.92
393.33	550.03
393.52	620.24
393.71	561.73
393.91	496.19
394.10	559.39
394.29	589.82
394.49	653.01
394.68	594.50
394.88	573.43
395.07	634.29
395.26	566.41
395.46	582.79
395.65	613.22
395.84	606.20
396.04	704.50
396.23	606.20
396.42	678.76
396.62	599.18
396.81	622.58
397.00	615.56
397.19	688.12
397.39	631.94
397.58	695.14
397.77	664.71
397.97	667.05
398.16	674.07
398.35	702.16
398.55	704.50
398.74	711.52
398.93	702.16
399.12	702.16
399.32	699.82
399.51	725.57
399.70	739.61
399.90	676.41
400.09	643.65
400.28	746.63
400.47	727.91
400.67	753.65
400.86	748.97
401.05	760.67
401.24	765.36
401.44	793.44
401.63	748.97
401.82	807.48
402.01	723.23
402.21	816.85
402.40	812.17
402.59	786.42
402.78	856.64
402.97	793.44
403.17	746.63
403.36	863.66
403.55	795.78
403.74	933.87
403.93	894.08
404.13	861.32
404.32	877.70
404.51	849.61
404.70	938.55
404.89	922.17
405.09	938.55
405.28	889.40
405.47	887.06
405.66	940.90
405.85	933.87
406.05	940.90
406.24	957.28
406.43	1006.43
406.62	959.62
406.81	1071.97
407.00	905.79
407.20	1043.88
407.39	1048.56
407.58	968.98
407.77	1076.65
407.96	1064.94
408.15	1121.12
408.34	1039.20
408.54	1041.54
408.73	1095.37
408.92	1121.12
409.11	1109.41
409.30	1086.01
409.49	1055.58
409.68	1034.52
409.87	1074.31
410.07	1160.91
410.26	1181.97
410.45	1184.31
410.64	1144.52
410.83	1231.12
411.02	1233.46
411.21	1228.78
411.40	1198.35
411.59	1348.15
411.78	1289.64
411.98	1228.78
412.17	1306.02
412.36	1217.08
412.55	1299.00
412.74	1217.08
412.93	1383.26
413.12	1446.45
413.31	1341.13
413.50	1315.38
413.69	1401.98
413.88	1355.17
414.07	1439.43
414.26	1385.60
414.45	1409.00
414.64	1366.87
414.83	1514.33
415.02	1509.65
415.22	1481.56
415.41	1526.03
415.60	1535.39
415.79	1535.39
415.98	1404.32
416.17	1600.93
416.36	1572.84
416.55	1596.25
416.74	1666.46
416.93	1523.69
417.12	1603.27
417.31	1626.67
417.50	1671.14
417.69	1724.97
417.88	1750.72
418.07	1605.61
418.26	1720.29
418.45	1713.27
418.64	1811.57
418.83	1837.32
419.02	1746.04
419.21	1713.27
419.39	1741.36
419.58	1753.06
419.77	1783.49
419.96	1811.57
420.15	1963.71
420.34	1806.89
420.53	1956.69
420.72	1830.30
420.91	1980.09
421.10	1933.28
421.29	1942.64
421.48	1865.41
421.67	2003.50
421.86	1977.75
422.05	1919.24
422.24	1942.64
422.43	1987.11
422.61	1926.26
422.80	2038.61
422.99	1968.39
423.18	1949.67
423.37	2003.50
423.56	2045.63
423.75	2106.48
423.94	2136.91
424.13	1870.09
424.32	1865.41
424.50	2101.80
424.69	2059.67
424.88	2010.52
425.07	2022.22
425.26	1954.35
425.45	1977.75
425.64	2001.16
425.83	2024.56
426.01	2052.65
426.20	2029.24
426.39	2038.61
426.58	2040.95
426.77	2090.10
426.96	1956.69
427.15	2106.48
427.33	2097.12
427.52	2148.61
427.71	2153.29
427.90	2073.71
428.09	2087.76
428.28	2141.59
428.46	2172.02
428.65	2211.81
428.84	2216.49
429.03	2195.42
429.22	2188.40
429.40	2256.28
429.59	2160.31
429.78	2139.25
429.97	2094.78
430.16	2218.83
430.34	2218.83
430.53	2342.88
430.72	2389.69
430.91	2132.23
431.10	2132.23
431.28	2260.96
431.47	2291.38
431.66	2321.81
431.85	2415.43
432.03	2403.73
432.22	2452.88
432.41	2469.27
432.60	2443.52
432.79	2436.50
432.97	2504.37
433.16	2375.64
433.35	2527.78
433.54	2520.76
433.72	2607.36
433.91	2576.93
434.10	2478.63
434.28	2445.86
434.47	2523.10
434.66	2450.54
434.85	2595.65
435.03	2576.93
435.22	2544.16
435.41	2717.36
435.59	2616.72
435.78	2614.38
435.97	2530.12
436.16	2705.66
436.34	2740.77
436.53	2553.52
436.72	2715.02
436.90	2787.58
437.09	2719.70
437.28	2766.51
437.46	2626.08
437.65	2649.49
437.84	2745.45
438.02	2654.17
438.21	2806.30
438.40	2766.51
438.58	2834.39
438.77	2810.98
438.96	2920.99
439.14	2897.58
439.33	2888.22
439.52	3002.91
439.70	2977.16
439.89	2911.63
440.08	2998.23
440.26	3016.95
440.45	2995.89
440.63	3101.21
440.82	3155.04
441.01	3059.08
441.19	3131.64
441.38	3117.59
441.57	3094.19
441.75	3171.43
441.94	3225.26
442.12	3183.13
442.31	3222.92
442.50	3183.13
442.68	3229.94
442.87	3229.94
443.05	3375.05
443.24	3384.41
443.43	3258.03
443.61	3375.05
443.80	3489.74
443.98	3346.97
444.17	3288.45
444.35	3386.76
444.54	3449.95
444.73	3471.01
444.91	3295.47
445.10	3358.67
445.28	3389.10
445.47	3412.50
445.65	3424.20
445.84	3386.76
446.02	3482.72
446.21	3543.57
446.39	3421.86
446.58	3440.59
446.77	3478.04
446.95	3361.01
447.14	3461.65
447.32	3454.63
447.51	3417.18
447.69	3438.25
447.88	3393.78
448.06	3501.44
448.25	3407.82
448.43	3529.53
448.62	3620.81
448.80	3377.39
448.99	3552.93
449.17	3632.51
449.36	3669.96
449.54	3662.94
449.73	3602.08
449.91	3632.51
450.10	3604.42
450.28	3786.99
450.46	3660.60
450.65	3758.90
450.83	3826.78
451.02	3777.62
451.20	3714.43
451.39	3674.64
451.57	3744.86
451.76	3721.45
451.94	3758.90
452.13	3859.54
452.31	3808.05
452.49	3611.45
452.68	3794.01
452.86	3735.50
453.05	3859.54
453.23	3939.12
453.42	3871.25
453.60	3878.27
453.78	3997.64
453.97	3831.46
454.15	3908.69
454.34	3936.78
454.52	4077.21
454.70	4063.17
454.89	4007.00
455.07	4016.36
455.26	4035.08
455.44	4086.58
455.62	4030.40
455.81	4025.72
455.99	4079.55
456.17	4049.13
456.36	4156.79
456.54	4119.34
456.73	4154.45
456.91	4248.07
457.09	4215.30
457.28	4351.06
457.46	4224.67
457.64	4315.95
457.83	4325.31
458.01	4351.06
458.19	4454.04
458.38	4231.69
458.56	4528.94
458.74	4386.16
458.93	4290.20
459.11	4386.16
459.29	4322.97
459.48	4491.49
459.66	4470.42
459.84	4533.62
460.03	4475.10
460.21	4472.76
460.39	4456.38
460.57	4505.53
460.76	4547.66
460.94	4674.05
461.12	4535.96
461.31	4580.43
461.49	4564.04
461.67	4386.16
461.85	4636.60
462.04	4528.94
462.22	4559.36
462.40	4636.60
462.59	4608.51
462.77	4667.03
462.95	4718.52
463.13	4753.63
463.32	4823.84
463.50	4709.16
463.68	4706.82
463.86	4713.84
464.05	4669.37
464.23	4692.77
464.41	4840.23
464.59	4620.22
464.78	4961.94
464.96	4788.74
465.14	4985.34
465.32	4877.68
465.50	4896.40
465.69	4975.98
465.87	5004.07
466.05	4861.29
466.23	5011.09
466.41	4971.30
466.60	5018.11
466.78	4868.31
466.96	4917.47
467.14	4992.36
467.32	5041.51
467.51	4973.64
467.69	4968.96
467.87	4884.70
468.05	5181.95
468.23	5158.54
468.41	5053.22
468.60	5193.65
468.78	5135.14
468.96	5146.84
469.14	5210.03
469.32	5111.73
469.50	4987.68
469.69	5090.67
469.87	5369.19
470.05	5350.46
470.23	5404.30
470.41	5373.87
470.59	5287.27
470.77	5350.46
470.95	5528.35
471.14	5399.62
471.32	5511.96
471.50	5600.90
471.68	5636.01
471.86	5497.92
472.04	5614.95
472.22	5724.95
472.40	5526.00
472.58	5710.91
472.77	5589.20
472.95	5731.97
473.13	5954.32
473.31	5809.21
473.49	5685.16
473.67	5860.70
473.85	5790.49
474.03	5989.43
474.21	5898.15
474.39	6106.46
474.57	5987.09
474.75	5954.32
474.93	5987.09
475.12	6047.94
475.30	6167.31
475.48	6253.91
475.66	6225.82
475.84	6101.78
476.02	6282.00
476.20	6417.75
476.38	6377.96
476.56	6476.26
476.74	6462.22
476.92	6607.33
477.10	6410.73
477.28	6593.29
477.46	6509.03
477.64	6576.91
477.82	6621.38
478.00	6860.11
478.18	7089.48
478.36	6820.32
478.54	6876.49
478.72	7068.42
478.90	7014.59
479.08	6946.71
479.26	7302.47
479.44	7250.98
479.62	7164.38
479.80	7360.98
479.98	7272.04
480.16	7356.30
480.34	7335.24
480.52	7403.11
480.70	7653.55
480.88	7414.82
481.06	7555.25
481.24	7702.70
481.41	7630.15
481.59	7929.74
481.77	7950.80
481.95	8039.74
482.13	7985.91
482.31	8102.93
482.49	8135.70
482.67	8074.85
482.85	8173.15
483.03	8454.02
483.21	8514.87
483.39	8578.06
483.57	8435.29
483.74	8650.62
483.92	8681.05
484.10	8769.99
484.28	8868.29
484.46	8774.67
484.64	9036.81
484.82	8959.57
485.00	9188.94
485.18	9254.48
485.35	9217.03
485.53	9142.13
485.71	9324.69
485.89	9413.63
486.07	9589.17
486.25	9359.80
486.43	9273.20
486.61	9715.56
486.78	9727.27
486.96	9448.74
487.14	10141.54
487.32	9888.76
487.50	9884.08
487.68	9916.85
487.85	10239.84
488.03	10361.55
488.21	10506.66
488.39	10188.35
488.57	10370.91
488.75	10487.94
488.92	10934.98
489.10	10724.33
489.28	10693.91
489.46	10965.41
489.64	10991.16
489.81	11201.80
489.99	11098.82
490.17	11283.72
490.35	11517.78
490.53	11375.00
490.70	11335.21
490.88	11606.72
491.06	11712.04
491.24	11548.20
491.41	11679.27
491.59	11784.60
491.77	11520.12
491.95	12093.55
492.13	12102.91
492.30	12105.25
492.48	12121.63
492.66	12142.70
492.84	12173.13
493.01	12313.56
493.19	12531.23
493.37	12587.40
493.54	12535.91
493.72	12765.28
493.90	12966.57
494.08	12734.85
494.25	12980.61
494.43	12959.55
494.61	12987.63
494.79	13387.86
494.96	13369.14
495.14	13350.42
495.32	13446.38
495.49	13596.17
495.67	13614.90
495.85	13687.45
496.02	13692.13
496.20	13818.52
496.38	13820.86
496.55	13703.84
496.73	13951.93
496.91	13912.14
497.09	14052.58
497.26	14244.50
497.44	14438.76
497.62	14298.33
497.79	14644.73
497.97	14204.71
498.14	14497.28
498.32	14651.75
498.50	14803.89
498.67	15002.83
498.85	14892.83
499.03	14675.16
499.20	14794.53
499.38	14691.54
499.56	15159.65
499.73	15054.33
499.91	15080.07
500.08	15393.70
500.26	15063.69
500.44	15232.21
500.61	15227.53
500.79	15117.52
500.97	15484.98
501.14	15805.64
501.32	15908.62
501.49	15742.44
501.67	15704.99
501.84	15995.22
502.02	15829.04
502.20	15990.54
502.37	16233.96
502.55	15946.07
502.72	16240.98
502.90	16039.69
503.07	16081.82
503.25	15805.64
503.43	16262.04
503.60	16126.29
503.78	16453.97
503.95	16388.43
504.13	16453.97
504.30	16430.56
504.48	16538.23
504.65	16561.63
504.83	16671.64
505.01	16893.99
505.18	16830.79
505.36	16919.73
505.53	16809.73
505.71	16833.13
505.88	16971.22
506.06	16741.85
506.23	17331.67
506.41	17476.78
506.58	17355.07
506.76	17322.30
506.93	17048.46
507.11	17053.14
507.28	17067.19
507.46	17610.19
507.63	17434.65
507.81	17577.42
507.98	17717.86
508.16	17474.44
508.33	17544.66
508.50	17830.20
508.68	18050.21
508.85	17977.65
509.03	17902.76
509.20	18230.43
509.38	18202.35
509.55	18317.03
509.73	18331.08
509.90	18085.32
510.08	18302.99
510.25	18167.24
510.42	18553.43
510.60	18251.50
510.77	18424.70
510.95	18813.23
511.12	18429.38
511.30	18834.29
511.47	18499.59
511.64	18745.35
511.82	18984.09
511.99	18745.35
512.17	18640.03
512.34	18895.14
512.51	18944.30
512.69	18963.02
512.86	19019.19
513.04	19047.28
513.21	19002.81
513.38	19337.51
513.56	19318.78
513.73	19358.57
513.90	19030.90
514.08	19421.77
514.25	19424.11
514.43	19248.57
514.60	19590.28
514.77	19688.59
514.95	19786.89
515.12	19431.13
515.29	19594.96
515.47	19953.07
515.64	19690.93
515.81	19611.35
515.99	19894.55
516.16	20346.28
516.33	20023.28
516.51	20318.19
516.68	20123.93
516.85	20100.52
517.03	20264.36
517.20	20395.43
517.37	20680.97
517.54	20489.05
517.72	20191.80
517.89	20341.60
518.06	20641.18
518.24	20299.47
518.41	20486.71
518.58	20430.54
518.75	20519.48
518.93	20835.45
519.10	20524.16
519.27	20926.73
519.45	20704.38
519.62	20823.75
519.79	20823.75
519.96	20776.94
520.14	21078.86
520.31	20961.84
520.48	21259.09
520.65	20912.69
520.83	21132.70
521.00	21055.46
521.17	21128.02
521.34	21209.93
521.52	21308.24
521.69	21301.22
521.86	21546.97
522.03	21404.20
522.20	21245.04
522.38	21778.68
522.55	21336.32
522.72	21832.52
522.89	21905.07
523.07	21565.70
523.24	22078.27
523.41	21951.88
523.58	21664.00
523.75	21781.03
523.92	21813.79
524.10	21902.73
524.27	22230.41
524.44	22045.51
524.61	22300.62
524.78	22384.88
524.96	22225.73
525.13	21956.57
525.30	22373.18
525.47	22286.58
525.64	22483.19
525.81	22654.05
525.98	22333.39
526.16	22335.73
526.33	22352.12
526.50	22764.05
526.67	22588.51
526.84	22637.66
527.01	22621.28
527.18	22527.66
527.36	22534.68
527.53	22986.40
527.70	23225.14
527.87	23171.30
528.04	23012.15
528.21	23138.54
528.38	22958.31
528.55	23044.91
528.72	23215.77
528.89	23285.99
529.07	23068.32
529.24	23140.88
529.41	23278.97
529.58	23255.56
529.75	23337.48
529.92	23269.61
530.09	23105.77
530.26	23363.23
530.43	23559.83
530.60	23161.94
530.77	23267.27
530.94	23435.78
531.11	23367.91
531.28	23482.59
531.46	23646.43
531.63	23779.84
531.80	23779.84
531.97	23838.36
532.14	23810.27
532.31	24159.01
532.48	23810.27
532.65	23983.47
532.82	23660.48
532.99	23405.36
533.16	24039.64
533.33	23836.02
533.50	24444.56
533.67	24173.05
533.84	23793.89
534.01	24102.84
534.18	23861.76
534.35	24531.15
534.52	24238.59
534.69	24063.05
534.86	24505.41
535.03	24151.99
535.20	24559.24
535.37	24376.68
535.54	24315.83
535.71	24339.23
535.88	24355.61
536.05	24538.18
536.22	24828.40
536.38	24629.46
536.55	24685.63
536.72	24442.21
536.89	24542.86
537.06	24872.87
537.23	24634.14
537.40	24563.92
537.57	24498.39
537.74	24929.05
537.91	24940.75
538.08	25125.65
538.25	24854.15
538.42	24898.62
538.59	24919.68
538.75	25048.41
538.92	25027.35
539.09	25308.21
539.26	25186.50
539.43	25273.10
539.60	25453.33
539.77	25242.68
539.94	25790.36
540.11	24987.56
540.28	25355.02
540.44	25113.95
540.61	25137.35
540.78	25015.65
540.95	25579.71
541.12	25425.24
541.29	25539.93
541.46	25586.74
541.62	25532.90
541.79	25530.56
541.96	25406.52
542.13	25486.09
542.30	25553.97
542.47	25584.40
542.63	25612.48
542.80	26244.43
542.97	26122.72
543.14	26195.28
543.31	25729.51
543.48	26050.16
543.64	26522.95
543.81	26522.95
543.98	26239.75
544.15	26319.32
544.32	26263.15
544.48	26431.67
544.65	26125.06
544.82	26054.84
544.99	26022.08
545.16	26146.12
545.32	26244.43
545.49	26506.57
545.66	26562.74
545.83	26197.62
546.00	26616.57
546.16	26384.86
546.33	26253.79
546.50	26441.03
546.67	26436.35
546.83	26431.67
547.00	26733.60
547.17	26597.85
547.34	26637.64
547.50	26831.90
547.67	26911.48
547.84	26696.15
548.00	26700.83
548.17	26962.97
548.34	26754.66
548.51	27021.48
548.67	27072.98
548.84	26754.66
549.01	26909.14
549.18	26984.04
549.34	27075.32
549.51	27211.07
549.68	26780.41
549.84	26864.67
550.01	27087.02
550.18	26986.38
550.34	27220.43
550.51	26927.86
550.68	27410.01
550.84	27140.85
551.01	27030.85
551.18	27211.07
551.34	27082.34
551.51	27520.02
551.68	27133.83
551.84	27283.62
552.01	27215.75
552.18	27562.15
552.34	27604.28
552.51	27901.53
552.68	27314.05
552.84	27711.94
553.01	27527.04
553.18	27562.15
553.34	27730.67
553.51	27513.00
553.67	27924.93
553.84	28011.53
554.01	27751.73
554.17	27587.89
554.34	27491.93
554.51	27814.93
554.67	27686.20
554.84	27695.56
555.00	27791.52
555.17	27793.86
555.33	27592.58
555.50	27821.95
555.67	27716.62
555.83	27903.87
556.00	27690.88
556.16	28360.27
556.33	27627.68
556.50	27679.18
556.66	28313.46
556.83	27559.81
556.99	28556.88
557.16	28467.94
557.32	28088.77
557.49	28135.58
557.65	28095.79
557.82	27964.72
557.98	28013.87
558.15	27999.83
558.32	27873.44
558.48	28290.06
558.65	28266.65
558.81	28423.47
558.98	28521.77
559.14	28142.60
559.31	28435.17
559.47	28381.34
559.64	28217.50
559.80	28381.34
559.97	28133.24
560.13	27981.10
560.30	28095.79
560.46	28247.93
560.63	28341.55
560.79	28601.35
560.96	28465.60
561.12	28327.50
561.29	28559.22
561.45	28638.80
561.61	28552.20
561.78	28526.45
561.94	28591.98
562.11	28999.24
562.27	28568.58
562.44	28374.31
562.60	28395.38
562.77	28219.84
562.93	28606.03
563.10	28809.65
563.26	28393.04
563.42	28933.70
563.59	28746.46
563.75	28713.69
563.92	28709.01
564.08	28821.36
564.24	28610.71
564.41	28582.62
564.57	28460.91
564.74	28521.77
564.90	28898.59
565.07	28552.20
565.23	28851.78
565.39	28755.82
565.56	29076.48
565.72	28774.55
565.88	28966.47
566.05	28489.00
566.21	28671.56
566.38	28879.87
566.54	28662.20
566.70	29153.71
566.87	29256.70
567.03	29003.92
567.19	29198.18
567.36	29092.86
567.52	29099.88
567.68	29032.00
567.85	29006.26
568.01	28980.51
568.17	28795.61
568.34	28755.82
568.50	29310.53
568.66	28793.27
568.83	29366.70
568.99	29010.94
569.15	29057.75
569.32	29102.22
569.48	28744.12
569.64	28844.76
569.81	29127.97
569.97	29249.67
570.13	29090.52
570.30	29029.66
570.46	29343.30
570.62	29015.62
570.78	28947.75
570.95	28833.06
571.11	28971.15
571.27	28617.73
571.43	29055.41
571.60	29188.82
571.76	29050.73
571.92	29219.25
572.09	29106.90
572.25	29392.45
572.41	29127.97
572.57	29244.99
572.74	29296.49
572.90	29050.73
573.06	29497.77
573.22	29479.05
573.38	29287.12
573.55	29149.03
573.71	29413.51
573.87	29439.26
574.03	29340.96
574.20	29453.30
574.36	29378.40
574.52	29060.09
574.68	28982.85
574.84	29230.95
575.01	29338.62
575.17	29177.12
575.33	29324.57
575.49	29237.97
575.65	29479.05
575.82	29635.86
575.98	29127.97
576.14	29294.14
576.30	29303.51
576.46	29195.84
576.62	29523.52
576.79	29687.36
576.95	29048.39
577.11	29577.35
577.27	29371.38
577.43	29575.01
577.59	29338.62
577.75	29418.19
577.92	29385.43
578.08	29738.85
578.24	28994.56
578.40	29347.98
578.56	29347.98
578.72	29284.78
578.88	29799.70
579.04	29596.07
579.21	29504.79
579.37	29680.33
579.53	29759.91
579.69	29273.08
579.85	29280.10
580.01	29645.23
580.17	29383.09
580.33	29305.85
580.49	29427.56
580.65	29523.52
580.82	29123.29
580.98	29788.00
581.14	29476.71
581.30	29497.77
581.46	29015.62
581.62	29546.92
581.78	29481.39
581.94	29537.56
582.10	29333.93
582.26	29244.99
582.42	29898.00
582.58	29394.79
582.74	29268.40
582.90	29565.65
583.06	29434.58
583.22	29542.24
583.38	29502.45
583.54	29462.66
583.70	29593.73
583.86	29132.65
584.02	29308.19
584.18	29797.36
584.34	29460.32
584.50	29572.67
584.66	29631.18
584.82	29434.58
584.98	29909.71
585.14	29949.50
585.30	29483.73
585.46	29656.93
585.62	29455.64
585.78	29549.26
585.94	29343.30
586.10	29830.13
586.26	29633.52
586.42	29645.23
586.58	29937.79
586.74	29432.24
586.90	29570.33
587.06	29439.26
587.22	29635.86
587.38	29221.59
587.54	29979.92
587.70	29567.99
587.86	29949.50
588.02	29874.60
588.18	29898.00
588.34	30143.76
588.49	29530.54
588.65	29645.23
588.81	29773.95
588.97	29654.59
589.13	29582.03
589.29	29802.04
589.45	30150.78
589.61	29972.90
589.77	30235.04
589.93	29862.90
590.08	30059.50
590.24	29914.39
590.40	30000.99
590.56	29907.37
590.72	29647.57
590.88	29460.32
591.04	29769.27
591.20	30075.88
591.35	29905.02
591.51	30176.53
591.67	30443.35
591.83	29972.90
591.99	30012.69
