SpectraSuite Data File
++++++++++++++++++++++++++++++++++++
Date: Fri Oct 18 13:58:20 GMT-05:00 2013
User: bianchi
Dark Spectrum Present: No
Reference Spectrum Present: No
Number of Sampled Component Spectra: 1
Spectrometers: USB2+H05261
Integration Time (usec): 50000 (USB2+H05261)
Spectra Averaged: 1 (USB2+H05261)
Boxcar Smoothing: 0 (USB2+H05261)
Correct for Electrical Dark: No (USB2+H05261)
Strobe/Lamp Enabled: No (USB2+H05261)
Correct for Detector Non-linearity: No (USB2+H05261)
Correct for Stray Light: No (USB2+H05261)
Number of Pixels in Processed Spectrum: 2048
>>>>>Begin Processed Spectral Data<<<<<
365.73	21.06
365.92	21.06
366.12	21.06
366.32	0.00
366.52	0.00
366.72	0.00
366.91	0.00
367.11	0.00
367.31	0.00
367.51	0.00
367.70	0.00
367.90	0.00
368.10	0.00
368.30	0.00
368.49	0.00
368.69	0.00
368.89	0.00
369.09	0.00
369.28	0.00
369.48	0.00
369.68	0.00
369.87	0.00
370.07	0.00
370.27	0.00
370.47	0.00
370.66	98.30
370.86	182.56
371.06	102.98
371.25	95.96
371.45	72.56
371.65	110.01
371.84	184.90
372.04	168.52
372.24	208.31
372.44	227.03
372.63	156.82
372.83	145.11
373.03	131.07
373.22	196.60
373.42	154.48
373.62	238.73
373.81	304.27
374.01	210.65
374.21	262.14
374.40	217.67
374.60	189.58
374.79	276.18
374.99	318.31
375.19	224.69
375.38	287.89
375.58	243.42
375.78	290.23
375.97	294.91
376.17	285.55
376.37	145.11
376.56	313.63
376.76	250.44
376.95	287.89
377.15	339.38
377.35	358.10
377.54	337.04
377.74	313.63
377.93	299.59
378.13	353.42
378.33	325.33
378.52	308.95
378.72	252.78
378.91	322.99
379.11	241.08
379.31	175.54
379.50	299.59
379.70	290.23
379.89	294.91
380.09	280.86
380.28	322.99
380.48	273.84
380.68	327.68
380.87	245.76
381.07	287.89
381.26	255.12
381.46	341.72
381.65	252.78
381.85	262.14
382.04	304.27
382.24	369.80
382.43	407.25
382.63	332.36
382.83	330.02
383.02	355.76
383.22	372.15
383.41	383.85
383.61	297.25
383.80	395.55
384.00	358.10
384.19	325.33
384.39	339.38
384.58	355.76
384.78	374.49
384.97	402.57
385.17	379.17
385.36	395.55
385.56	407.25
385.75	280.86
385.95	280.86
386.14	390.87
386.34	470.45
386.53	337.04
386.72	416.62
386.92	456.40
387.11	334.70
387.31	430.66
387.50	376.83
387.70	493.85
387.89	442.36
388.09	484.49
388.28	461.09
388.48	383.85
388.67	449.38
388.86	416.62
389.06	449.38
389.25	489.17
389.45	451.72
389.64	531.30
389.84	454.06
390.03	505.56
390.22	465.77
390.42	528.96
390.61	454.06
390.81	503.22
391.00	568.75
391.19	465.77
391.39	538.32
391.58	482.15
391.78	477.47
391.97	510.24
392.16	606.20
392.36	507.90
392.55	491.51
392.75	521.94
392.94	557.05
393.13	582.79
393.33	547.69
393.52	620.24
393.71	615.56
393.91	535.98
394.10	538.32
394.29	582.79
394.49	540.66
394.68	613.22
394.88	638.97
395.07	606.20
395.26	671.73
395.46	524.28
395.65	603.86
395.84	615.56
396.04	653.01
396.23	645.99
396.42	643.65
396.62	631.94
396.81	641.31
397.00	662.37
397.19	669.39
397.39	641.31
397.58	711.52
397.77	664.71
397.97	688.12
398.16	655.35
398.35	645.99
398.55	716.20
398.74	716.20
398.93	730.25
399.12	748.97
399.32	748.97
399.51	713.86
399.70	765.36
399.90	683.44
400.09	748.97
400.28	849.61
400.47	793.44
400.67	833.23
400.86	816.85
401.05	770.04
401.24	767.70
401.44	821.53
401.63	791.10
401.82	784.08
402.01	791.10
402.21	758.33
402.40	837.91
402.59	758.33
402.78	814.51
402.97	753.65
403.17	889.40
403.36	840.25
403.55	826.21
403.74	819.19
403.93	905.79
404.13	814.51
404.32	915.15
404.51	945.58
404.70	980.68
404.89	999.41
405.09	877.70
405.28	957.28
405.47	978.34
405.66	931.53
405.85	957.28
406.05	971.32
406.24	1057.92
406.43	903.45
406.62	964.30
406.81	1090.69
407.00	938.55
407.20	1055.58
407.39	978.34
407.58	1011.11
407.77	1018.13
407.96	1158.57
408.15	1083.67
408.34	1104.73
408.54	1069.62
408.73	1053.24
408.92	1022.81
409.11	1132.82
409.30	1184.31
409.49	1174.95
409.68	1249.85
409.87	1111.75
410.07	1198.35
410.26	1217.08
410.45	1221.76
410.64	1149.20
410.83	1212.40
411.02	1144.52
411.21	1212.40
411.40	1273.25
411.59	1177.29
411.78	1214.74
411.98	1315.38
412.17	1270.91
412.36	1348.15
412.55	1294.32
412.74	1301.34
412.93	1366.87
413.12	1390.28
413.31	1380.92
413.50	1387.94
413.69	1411.34
413.88	1390.28
414.07	1441.77
414.26	1418.36
414.45	1401.98
414.64	1359.85
414.83	1481.56
415.02	1514.33
415.22	1598.59
415.41	1607.95
415.60	1598.59
415.79	1596.25
415.98	1661.78
416.17	1614.97
416.36	1537.73
416.55	1603.27
416.74	1629.01
416.93	1666.46
417.12	1650.08
417.31	1727.32
417.50	1696.89
417.69	1802.21
417.88	1781.15
418.07	1750.72
418.26	1839.66
418.45	1804.55
418.64	1813.92
418.83	1699.23
419.02	1823.28
419.21	1797.53
419.39	1881.79
419.58	1722.63
419.77	1849.02
419.96	1811.57
420.15	1844.34
420.34	1872.43
420.53	1853.70
420.72	1898.17
420.91	1909.88
421.10	1877.11
421.29	1888.81
421.48	1937.96
421.67	2083.08
421.86	1849.02
422.05	1902.86
422.24	1954.35
422.43	1956.69
422.61	1963.71
422.80	1912.22
422.99	2029.24
423.18	2052.65
423.37	2148.61
423.56	2038.61
423.75	2078.40
423.94	2078.40
424.13	1830.30
424.32	1956.69
424.50	2099.46
424.69	2052.65
424.88	2106.48
425.07	2052.65
425.26	2033.93
425.45	2087.76
425.64	1989.46
425.83	1977.75
426.01	2136.91
426.20	2155.63
426.39	2104.14
426.58	2050.31
426.77	2076.06
426.96	2080.74
427.15	2099.46
427.33	2169.68
427.52	2129.89
427.71	2099.46
427.90	2223.51
428.09	2150.95
428.28	2127.55
428.46	2200.10
428.65	2225.85
428.84	2183.72
429.03	2214.15
429.22	2190.74
429.40	2312.45
429.59	2242.23
429.78	2200.10
429.97	2167.34
430.16	2183.72
430.34	2258.62
430.53	2310.11
430.72	2324.15
430.91	2352.24
431.10	2347.56
431.28	2342.88
431.47	2377.98
431.66	2394.37
431.85	2380.32
432.03	2389.69
432.22	2626.08
432.41	2485.65
432.60	2476.29
432.79	2520.76
432.97	2445.86
433.16	2572.25
433.35	2471.61
433.54	2480.97
433.72	2600.34
433.91	2525.44
434.10	2513.74
434.28	2497.35
434.47	2626.08
434.66	2572.25
434.85	2527.78
435.03	2560.55
435.22	2434.16
435.41	2810.98
435.59	2616.72
435.78	2668.21
435.97	2630.76
436.16	2726.72
436.34	2612.04
436.53	2658.85
436.72	2792.26
436.90	2686.94
437.09	2731.41
437.28	2693.96
437.46	2815.66
437.65	2703.32
437.84	2747.79
438.02	2801.62
438.21	2771.19
438.40	2853.11
438.58	2986.52
438.77	2810.98
438.96	2834.39
439.14	2953.76
439.33	2942.05
439.52	2963.12
439.70	3145.68
439.89	3021.63
440.08	3033.33
440.26	3073.12
440.45	3091.85
440.63	2979.50
440.82	3185.47
441.01	3187.81
441.19	3208.87
441.38	3300.16
441.57	3307.18
441.75	3215.90
441.94	3286.11
442.12	3330.58
442.31	3349.31
442.50	3307.18
442.68	3339.94
442.87	3309.52
443.05	3375.05
443.24	3344.63
443.43	3454.63
443.61	3503.78
443.80	3623.15
443.98	3297.81
444.17	3300.16
444.35	3454.63
444.54	3520.17
444.73	3431.23
444.91	3449.95
445.10	3503.78
445.28	3456.97
445.47	3405.48
445.65	3431.23
445.84	3489.74
446.02	3555.27
446.21	3337.60
446.39	3454.63
446.58	3407.82
446.77	3550.59
446.95	3478.04
447.14	3482.72
447.32	3548.25
447.51	3494.42
447.69	3552.93
447.88	3639.53
448.06	3510.80
448.25	3517.83
448.43	3555.27
448.62	3487.40
448.80	3569.32
448.99	3623.15
449.17	3590.38
449.36	3597.40
449.54	3698.05
449.73	3637.19
449.91	3632.51
450.10	3618.47
450.28	3857.20
450.46	3826.78
450.65	3836.14
450.83	3707.41
451.02	3737.84
451.20	3679.32
451.39	3833.80
451.57	3770.60
451.76	3709.75
451.94	3698.05
452.13	3801.03
452.31	3908.69
452.49	3688.68
452.68	3920.40
452.86	3817.41
453.05	3990.61
453.23	4002.32
453.42	3948.48
453.60	3728.47
453.78	4023.38
453.97	3915.72
454.15	4028.06
454.34	4025.72
454.52	4018.70
454.70	3829.12
454.89	4149.77
455.07	3983.59
455.26	4039.76
455.44	4114.66
455.62	4063.17
455.81	4131.05
455.99	4070.19
456.17	4175.52
456.36	4180.20
456.54	4168.49
456.73	4306.59
456.91	4311.27
457.09	4273.82
457.28	4442.34
457.46	4189.56
457.64	4432.97
457.83	4299.56
458.01	4301.90
458.19	4505.53
458.38	4301.90
458.56	4564.04
458.74	4353.40
458.93	4461.06
459.11	4430.63
459.29	4376.80
459.48	4519.57
459.66	4575.75
459.84	4613.20
460.03	4472.76
460.21	4507.87
460.39	4542.98
460.57	4496.17
460.76	4531.28
460.94	4695.11
461.12	4737.24
461.31	4784.06
461.49	4662.35
461.67	4753.63
461.85	4755.97
462.04	4582.77
462.22	5104.71
462.40	4737.24
462.59	4791.08
462.77	4936.19
462.95	4901.08
463.13	4786.40
463.32	4678.73
463.50	4781.71
463.68	4926.83
463.86	4688.09
464.05	4833.21
464.23	4812.14
464.41	5008.75
464.59	4894.06
464.78	5032.15
464.96	4917.47
465.14	4830.87
465.32	4929.17
465.50	5083.64
465.69	5055.56
465.87	5027.47
466.05	4980.66
466.23	5116.41
466.41	4945.55
466.60	5324.72
466.78	5001.72
466.96	4990.02
467.14	5123.43
467.32	5011.09
467.51	5205.35
467.69	5036.83
467.87	5203.01
468.05	5165.56
468.23	5083.64
468.41	5053.22
468.60	5270.89
468.78	5277.91
468.96	5158.54
469.14	5238.12
469.32	5273.23
469.50	5193.65
469.69	5394.93
469.87	5301.31
470.05	5420.68
470.23	5507.28
470.41	5369.19
470.59	5516.64
470.77	5500.26
470.95	5490.90
471.14	5561.11
471.32	5413.66
471.50	5628.99
471.68	5713.25
471.86	5600.90
472.04	5696.86
472.22	5703.89
472.40	5689.84
472.58	5743.67
472.77	5928.58
472.95	5977.73
473.13	5937.94
473.31	6022.20
473.49	5970.71
473.67	5954.32
473.85	5935.60
474.03	5994.11
474.21	6022.20
474.39	6139.23
474.57	6139.23
474.75	6188.38
474.93	6174.33
475.12	6207.10
475.30	6420.09
475.48	6118.16
475.66	6157.95
475.84	6300.72
476.02	6431.79
476.20	6356.90
476.38	6478.60
476.56	6656.48
476.74	6487.96
476.92	6612.01
477.10	6478.60
477.28	6827.34
477.46	6761.81
477.64	6700.95
477.82	6635.42
478.00	6946.71
478.18	7042.67
478.36	7162.04
478.54	7171.40
478.72	7148.00
478.90	7258.00
479.08	7435.88
479.26	7363.33
479.44	7496.74
479.62	7260.34
479.80	7248.64
479.98	7552.91
480.16	7721.43
480.34	7578.65
480.52	7698.02
480.70	7648.87
480.88	7723.77
481.06	7801.01
481.24	7838.45
481.41	7843.14
481.59	7978.89
481.77	8021.02
481.95	8121.66
482.13	8226.98
482.31	8086.55
482.49	8266.77
482.67	8327.63
482.85	8329.97
483.03	8683.39
483.21	8746.58
483.39	8716.16
483.57	8545.30
483.74	8636.58
483.92	8887.01
484.10	8798.07
484.28	8837.86
484.46	9174.90
484.64	9160.86
484.82	9029.79
485.00	9116.39
485.18	9441.72
485.35	9373.85
485.53	9249.80
485.71	9446.40
485.89	9837.27
486.07	9525.98
486.25	9736.63
486.43	9687.48
486.61	9668.75
486.78	9900.47
486.96	9923.87
487.14	9984.73
487.32	10113.45
487.50	10211.76
487.68	10150.90
487.85	10293.68
488.03	10607.31
488.21	10733.70
488.39	10672.84
488.57	10773.49
488.75	10785.19
488.92	11138.61
489.10	11061.37
489.28	11021.58
489.46	11314.15
489.64	11346.92
489.81	11428.84
489.99	11248.61
490.17	11328.19
490.35	11559.91
490.53	11527.14
490.70	11915.67
490.88	11716.72
491.06	11845.45
491.24	11683.95
491.41	11946.09
491.59	11948.43
491.77	12159.08
491.95	12299.52
492.13	12149.72
492.30	12423.56
492.48	12273.77
492.66	12610.81
492.84	12381.43
493.01	12601.44
493.19	12655.28
493.37	12863.58
493.54	12805.07
493.72	12891.67
493.90	12987.63
494.08	12872.95
494.25	12966.57
494.43	13277.86
494.61	13434.68
494.79	13317.65
494.96	13371.48
495.14	13434.68
495.32	13708.52
495.49	13614.90
495.67	13736.60
495.85	13998.74
496.02	13970.66
496.20	14029.17
496.38	13785.76
496.55	14260.88
496.73	14492.60
496.91	14492.60
497.09	14338.12
497.26	14670.48
497.44	14516.00
497.62	14457.49
497.79	14721.97
497.97	14567.49
498.14	14621.33
498.32	14806.23
498.50	15180.71
498.67	15218.16
498.85	15101.14
499.03	15051.99
499.20	14892.83
499.38	15178.37
499.56	15140.93
499.73	15185.40
499.91	15286.04
500.08	15555.20
500.26	15316.47
500.44	15522.43
500.61	15772.87
500.79	15695.63
500.97	15737.76
501.14	15838.41
501.32	15871.17
501.49	15934.37
501.67	15800.96
501.84	16170.76
502.02	16348.64
502.20	16294.81
502.37	16404.81
502.55	15964.79
502.72	16559.29
502.90	16128.63
503.07	16013.95
503.25	16437.58
503.43	16620.14
503.60	16608.44
503.78	16533.54
503.95	16634.19
504.13	16629.51
504.30	16699.72
504.48	16711.42
504.65	16865.90
504.83	17102.29
505.01	17160.81
505.18	17493.16
505.36	17397.20
505.53	17149.11
505.71	16833.13
505.88	17259.11
506.06	17085.91
506.23	17378.48
506.41	17282.52
506.58	17547.00
506.76	17689.77
506.93	17523.59
507.11	17500.19
507.28	17703.81
507.46	17539.97
507.63	17830.20
507.81	17928.50
507.98	17940.21
508.16	17923.82
508.33	17933.18
508.50	17956.59
508.68	18045.53
508.85	18162.56
509.03	18347.46
509.20	18483.21
509.38	18485.55
509.55	18422.36
509.73	18462.15
509.90	18370.86
510.08	18518.32
510.25	18370.86
510.42	18696.20
510.60	18703.22
510.77	18757.05
510.95	18698.54
511.12	18515.98
511.30	18761.73
511.47	18698.54
511.64	18956.00
511.82	18995.79
511.99	19066.00
512.17	19428.79
512.34	19349.21
512.51	19557.52
512.69	19445.17
512.86	19133.88
513.04	19679.22
513.21	19597.31
513.38	19651.14
513.56	19625.39
513.73	19655.82
513.90	19557.52
514.08	19569.22
514.25	19957.75
514.43	19529.43
514.60	19964.77
514.77	19981.15
514.95	19896.89
515.12	19836.04
515.29	19730.72
515.47	20112.22
515.64	20184.78
515.81	20350.96
515.99	20215.21
516.16	20418.83
516.33	20439.90
516.51	20301.81
516.68	20201.16
516.85	20287.76
517.03	20507.77
517.20	20697.36
517.37	20807.36
517.54	20812.04
517.72	20774.60
517.89	21010.99
518.06	21193.55
518.24	20945.45
518.41	20486.71
518.58	20950.14
518.75	20737.15
518.93	21212.28
519.10	21029.71
519.27	21420.58
519.45	21104.61
519.62	20938.43
519.79	21099.93
519.96	21057.80
520.14	21261.43
520.31	21301.22
520.48	21605.49
520.65	21476.76
520.83	21535.27
521.00	21748.26
521.17	21671.02
521.34	21252.06
521.52	21558.67
521.69	21912.10
521.86	21891.03
522.03	21968.27
522.20	22221.05
522.38	22038.48
522.55	22125.08
522.72	21900.39
522.89	22246.79
523.07	22366.16
523.24	22082.95
523.41	22698.52
523.58	22005.72
523.75	22347.44
523.92	22169.55
524.10	22211.68
524.27	22438.72
524.44	22607.23
524.61	22576.81
524.78	22719.58
524.96	22707.88
525.13	22820.22
525.30	22768.73
525.47	22888.10
525.64	23124.49
525.81	23157.26
525.98	22974.70
526.16	22995.76
526.33	22817.88
526.50	23260.24
526.67	22927.89
526.84	22806.18
527.01	23154.92
527.18	23080.02
527.36	23290.67
527.53	23538.77
527.70	23585.58
527.87	23260.24
528.04	23447.49
528.21	23323.44
528.38	23601.96
528.55	23192.37
528.72	23192.37
528.89	23730.69
529.07	23503.66
529.24	23756.44
529.41	23941.34
529.58	23555.15
529.75	23765.80
529.92	23648.77
530.09	23658.14
530.26	23545.79
530.43	23913.25
530.60	23969.43
530.77	23828.99
530.94	23875.80
531.11	23763.46
531.28	23957.72
531.46	24088.79
531.63	24006.87
531.80	24046.66
531.97	24467.96
532.14	24505.41
532.31	24362.64
532.48	24474.98
532.65	24355.61
532.82	24151.99
532.99	24254.97
533.16	24540.52
533.33	24781.59
533.50	24669.25
533.67	24744.14
533.84	24343.91
534.01	24477.32
534.18	24393.06
534.35	24690.31
534.52	24493.71
534.69	24655.20
534.86	24872.87
535.03	24737.12
535.20	25135.01
535.37	24973.52
535.54	25116.29
535.71	24889.26
535.88	25062.46
536.05	24982.88
536.22	25209.91
536.38	24870.53
536.55	25207.57
536.72	24699.67
536.89	25041.39
537.06	25067.14
537.23	25308.21
537.40	25064.80
537.57	25383.11
537.74	25116.29
537.91	25617.16
538.08	25544.61
538.25	25528.22
538.42	24926.71
538.59	25792.70
538.75	24985.22
538.92	25539.93
539.09	25460.35
539.26	25436.94
539.43	25514.18
539.60	26061.87
539.77	25956.54
539.94	25832.49
540.11	25671.00
540.28	25668.66
540.44	25759.94
540.61	25713.13
540.78	25823.13
540.95	25708.44
541.12	25986.97
541.29	25816.11
541.46	25876.96
541.62	25795.04
541.79	26080.59
541.96	26019.74
542.13	25998.67
542.30	26012.71
542.47	26132.08
542.63	26487.84
542.80	26256.13
542.97	26611.89
543.14	26581.46
543.31	26335.71
543.48	25942.50
543.64	26656.36
543.81	26916.16
543.98	26883.39
544.15	26689.13
544.32	27030.85
544.48	26864.67
544.65	26518.27
544.82	26668.06
544.99	26536.99
545.16	26600.19
545.32	27044.89
545.49	27119.79
545.66	27601.94
545.83	27220.43
546.00	27365.54
546.16	26684.45
546.33	26731.26
546.50	26473.80
546.67	26977.01
546.83	26799.13
547.00	27089.36
547.17	27089.36
547.34	27030.85
547.50	27480.23
547.67	27545.76
547.84	27129.15
548.00	27311.71
548.17	27433.42
548.34	27274.26
548.51	27597.26
548.67	27470.87
548.84	27775.14
549.01	27271.92
549.18	27571.51
549.34	27381.93
549.51	27524.70
549.68	27255.54
549.84	27264.90
550.01	27435.76
550.18	27632.36
550.34	27697.90
550.51	27686.20
550.68	27913.23
550.84	27948.34
551.01	27765.78
551.18	27440.44
551.34	27800.88
551.51	27821.95
551.68	27737.69
551.84	27913.23
552.01	27627.68
552.18	28587.30
552.34	27828.97
552.51	27672.15
552.68	28187.07
552.84	27714.28
553.01	28411.76
553.18	28273.67
553.34	27927.27
553.51	28086.43
553.67	28507.72
553.84	28465.60
554.01	28301.76
554.17	28144.94
554.34	28025.57
554.51	28166.01
554.67	28542.83
554.84	28393.04
555.00	28081.75
555.17	28559.22
555.33	28404.74
555.50	28215.16
555.67	28606.03
555.83	28381.34
556.00	28526.45
556.16	28472.62
556.33	28566.24
556.50	28802.63
556.66	28814.34
556.83	28577.94
556.99	29050.73
557.16	28521.77
557.32	28950.09
557.49	28790.93
557.65	28423.47
557.82	28460.91
557.98	28741.78
558.15	28751.14
558.32	28748.80
558.48	28610.71
558.65	28561.56
558.81	28940.72
558.98	28996.90
559.14	28535.81
559.31	28631.77
559.47	28641.14
559.64	28842.42
559.80	28727.74
559.97	29221.59
560.13	28753.48
560.30	28996.90
560.46	28924.34
560.63	29174.78
560.79	29429.90
560.96	29209.89
561.12	28886.89
561.29	28814.34
561.45	28634.11
561.61	29134.99
561.78	29013.28
561.94	29027.32
562.11	29359.68
562.27	29282.44
562.44	28903.28
562.60	29139.67
562.77	29383.09
562.93	29099.88
563.10	29322.23
563.26	29350.32
563.42	29614.80
563.59	29355.00
563.75	29294.14
563.92	29462.66
564.08	29177.12
564.24	29287.12
564.41	29116.26
564.57	29472.03
564.74	29413.51
564.90	29273.08
565.07	29198.18
565.23	29638.20
565.39	29284.78
565.56	29699.06
565.72	29434.58
565.88	29095.20
566.05	29591.39
566.21	29078.82
566.38	29465.00
566.54	29413.51
566.70	29752.89
566.87	29792.68
567.03	29771.61
567.19	29638.20
567.36	29567.99
567.52	29668.63
567.68	30106.31
567.85	29357.34
568.01	29497.77
568.17	29589.05
568.34	29670.97
568.50	29788.00
568.66	29727.14
568.83	29741.19
568.99	29902.68
569.15	29673.31
569.32	29839.49
569.48	29743.53
569.64	29883.96
569.81	29413.51
569.97	29940.13
570.13	29837.15
570.30	29689.70
570.46	29757.57
570.62	29706.08
570.78	29713.10
570.95	29549.26
571.11	29523.52
571.27	29607.78
571.43	29209.89
571.60	29500.11
571.76	29420.53
571.92	29926.09
572.09	29493.09
572.25	29675.65
572.41	29839.49
572.57	29633.52
572.74	29778.64
572.90	29813.74
573.06	29610.12
573.22	29579.69
573.38	29600.76
573.55	29755.23
573.71	30040.78
573.87	29989.28
574.03	29750.55
574.20	29647.57
574.36	29680.33
574.52	30150.78
574.68	29940.13
574.84	29764.59
575.01	29963.54
575.17	29930.77
575.33	29874.60
575.49	29996.31
575.65	30099.29
575.82	30213.98
575.98	29956.52
576.14	30178.87
576.30	30120.35
576.46	30024.39
576.62	29640.54
576.79	30019.71
576.95	29788.00
577.11	29923.75
577.27	29935.45
577.43	30103.97
577.59	29975.24
577.75	30005.67
577.92	29909.71
578.08	29816.08
578.24	29986.94
578.40	30120.35
578.56	30314.62
578.72	29776.30
578.88	30190.57
579.04	30618.89
579.21	30387.18
579.37	30239.72
579.53	30574.42
579.69	29841.83
579.85	29605.44
580.01	29647.57
580.17	29551.60
580.33	29696.72
580.49	30375.47
580.65	29968.22
580.82	30162.48
580.98	30085.25
581.14	29886.30
581.30	30267.81
581.46	29912.05
581.62	29949.50
581.78	29865.24
581.94	29848.85
582.10	29792.68
582.26	30323.98
582.42	30335.68
582.58	29832.47
582.74	30326.32
582.90	30136.74
583.06	30267.81
583.22	29855.87
583.38	29872.26
583.54	30143.76
583.70	30129.72
583.86	29993.97
584.02	29717.78
584.18	30558.03
584.34	30267.81
584.50	30302.92
584.66	30134.40
584.82	29890.98
584.98	30150.78
585.14	30242.06
585.30	30043.12
585.46	30429.30
585.62	30242.06
585.78	30019.71
585.94	30162.48
586.10	30246.74
586.26	30092.27
586.42	30567.40
586.58	30394.20
586.74	30031.41
586.90	30319.30
587.06	30005.67
587.22	30391.86
587.38	29975.24
587.54	30314.62
587.70	30213.98
587.86	30401.22
588.02	30644.63
588.18	30642.29
588.34	30338.02
588.49	30794.43
588.65	30565.06
588.81	30586.12
588.97	30368.45
589.13	30429.30
589.29	30267.81
589.45	30459.73
589.61	30749.96
589.77	30857.62
589.93	30621.23
590.08	30630.59
590.24	30316.96
590.40	30384.83
590.56	30906.77
590.72	30429.30
590.88	30309.94
591.04	30576.76
591.20	30408.24
591.35	30579.10
591.51	30969.97
591.67	30675.06
591.83	31227.43
591.99	30562.72
