SpectraSuite Data File
++++++++++++++++++++++++++++++++++++
Date: Fri Oct 18 13:58:02 GMT-05:00 2013
User: bianchi
Dark Spectrum Present: No
Reference Spectrum Present: No
Number of Sampled Component Spectra: 1
Spectrometers: USB2+H05261
Integration Time (usec): 50000 (USB2+H05261)
Spectra Averaged: 1 (USB2+H05261)
Boxcar Smoothing: 0 (USB2+H05261)
Correct for Electrical Dark: No (USB2+H05261)
Strobe/Lamp Enabled: No (USB2+H05261)
Correct for Detector Non-linearity: No (USB2+H05261)
Correct for Stray Light: No (USB2+H05261)
Number of Pixels in Processed Spectrum: 2048
>>>>>Begin Processed Spectral Data<<<<<
365.73	0.00
365.92	0.00
366.12	0.00
366.32	0.00
366.52	0.00
366.72	0.00
366.91	0.00
367.11	0.00
367.31	0.00
367.51	0.00
367.70	0.00
367.90	0.00
368.10	0.00
368.30	0.00
368.49	0.00
368.69	0.00
368.89	0.00
369.09	0.00
369.28	0.00
369.48	0.00
369.68	0.00
369.87	0.00
370.07	0.00
370.27	0.00
370.47	0.00
370.66	51.49
370.86	70.22
371.06	191.92
371.25	166.18
371.45	154.48
371.65	180.22
371.84	128.73
372.04	154.48
372.24	194.26
372.44	236.39
372.63	191.92
372.83	215.33
373.03	180.22
373.22	189.58
373.42	212.99
373.62	266.82
373.81	222.35
374.01	208.31
374.21	198.95
374.40	259.80
374.60	236.39
374.79	212.99
374.99	198.95
375.19	264.48
375.38	205.97
375.58	177.88
375.78	283.20
375.97	222.35
376.17	257.46
376.37	243.42
376.56	294.91
376.76	271.50
376.95	170.86
377.15	257.46
377.35	278.52
377.54	327.68
377.74	325.33
377.93	280.86
378.13	273.84
378.33	313.63
378.52	360.44
378.72	271.50
378.91	273.84
379.11	278.52
379.31	339.38
379.50	294.91
379.70	358.10
379.89	367.46
380.09	341.72
380.28	264.48
380.48	227.03
380.68	301.93
380.87	374.49
381.07	276.18
381.26	278.52
381.46	311.29
381.65	365.12
381.85	381.51
382.04	299.59
382.24	346.40
382.43	386.19
382.63	386.19
382.83	318.31
383.02	423.64
383.22	337.04
383.41	341.72
383.61	292.57
383.80	386.19
384.00	294.91
384.19	348.74
384.39	355.76
384.58	311.29
384.78	348.74
384.97	325.33
385.17	339.38
385.36	325.33
385.56	400.23
385.75	428.32
385.95	421.30
386.14	383.85
386.34	421.30
386.53	423.64
386.72	397.89
386.92	421.30
387.11	395.55
387.31	409.59
387.50	475.13
387.70	390.87
387.89	423.64
388.09	503.22
388.28	433.00
388.48	407.25
388.67	496.19
388.86	433.00
389.06	533.64
389.25	524.28
389.45	521.94
389.64	465.77
389.84	470.45
390.03	514.92
390.22	545.34
390.42	489.17
390.61	489.17
390.81	447.04
391.00	573.43
391.19	475.13
391.39	580.45
391.58	440.02
391.78	498.53
391.97	465.77
392.16	407.25
392.36	571.09
392.55	631.94
392.75	505.56
392.94	510.24
393.13	514.92
393.33	610.88
393.52	599.18
393.71	561.73
393.91	568.75
394.10	615.56
394.29	575.77
394.49	645.99
394.68	610.88
394.88	587.47
395.07	634.29
395.26	596.84
395.46	594.50
395.65	690.46
395.84	699.82
396.04	690.46
396.23	657.69
396.42	601.52
396.62	606.20
396.81	603.86
397.00	641.31
397.19	578.11
397.39	585.13
397.58	676.41
397.77	608.54
397.97	676.41
398.16	660.03
398.35	753.65
398.55	765.36
398.74	730.25
398.93	849.61
399.12	676.41
399.32	669.39
399.51	667.05
399.70	723.23
399.90	795.78
400.09	744.29
400.28	739.61
400.47	767.70
400.67	816.85
400.86	770.04
401.05	758.33
401.24	781.74
401.44	781.74
401.63	842.59
401.82	847.27
402.01	802.80
402.21	849.61
402.40	922.17
402.59	805.14
402.78	819.19
402.97	814.51
403.17	835.57
403.36	795.78
403.55	926.85
403.74	887.06
403.93	854.30
404.13	819.19
404.32	929.19
404.51	847.27
404.70	1029.84
404.89	894.08
405.09	1001.75
405.28	908.13
405.47	849.61
405.66	1029.84
405.85	912.81
406.05	922.17
406.24	983.02
406.43	912.81
406.62	966.64
406.81	1093.03
407.00	999.41
407.20	1060.26
407.39	985.37
407.58	1053.24
407.77	1144.52
407.96	1069.62
408.15	1196.01
408.34	1078.99
408.54	1128.14
408.73	1146.86
408.92	1160.91
409.11	1057.92
409.30	1100.05
409.49	1067.28
409.68	1093.03
409.87	1186.65
410.07	1181.97
410.26	1174.95
410.45	1294.32
410.64	1212.40
410.83	1196.01
411.02	1135.16
411.21	1270.91
411.40	1348.15
411.59	1231.12
411.78	1228.78
411.98	1247.51
412.17	1324.74
412.36	1397.30
412.55	1383.26
412.74	1432.41
412.93	1291.98
413.12	1343.47
413.31	1430.07
413.50	1425.39
413.69	1401.98
413.88	1411.34
414.07	1497.94
414.26	1533.05
414.45	1444.11
414.64	1409.00
414.83	1593.90
415.02	1441.77
415.22	1568.16
415.41	1556.46
415.60	1511.99
415.79	1600.93
415.98	1619.65
416.17	1743.70
416.36	1462.83
416.55	1671.14
416.74	1582.20
416.93	1596.25
417.12	1675.82
417.31	1685.19
417.50	1633.69
417.69	1717.95
417.88	1746.04
418.07	1790.51
418.26	1774.13
418.45	1701.57
418.64	1795.19
418.83	1839.66
419.02	1856.04
419.21	1764.76
419.39	1865.41
419.58	1783.49
419.77	1804.55
419.96	1954.35
420.15	1893.49
420.34	1963.71
420.53	2001.16
420.72	1856.04
420.91	1947.33
421.10	1909.88
421.29	1909.88
421.48	1921.58
421.67	1996.48
421.86	1879.45
422.05	1877.11
422.24	1947.33
422.43	1952.01
422.61	2076.06
422.80	2033.93
422.99	2057.33
423.18	2057.33
423.37	2010.52
423.56	2069.03
423.75	1949.67
423.94	2033.93
424.13	1905.20
424.32	1879.45
424.50	2047.97
424.69	2078.40
424.88	2069.03
425.07	1994.14
425.26	1935.62
425.45	2050.31
425.64	2157.97
425.83	2108.82
426.01	2179.04
426.20	2080.74
426.39	2010.52
426.58	2090.10
426.77	2153.29
426.96	2064.35
427.15	2099.46
427.33	2172.02
427.52	2157.97
427.71	2195.42
427.90	2165.00
428.09	2235.21
428.28	2134.57
428.46	2277.34
428.65	2235.21
428.84	2289.04
429.03	2286.70
429.22	2190.74
429.40	2298.41
429.59	2256.28
429.78	2169.68
429.97	2251.60
430.16	2260.96
430.34	2347.56
430.53	2300.75
430.72	2324.15
430.91	2324.15
431.10	2270.32
431.28	2303.09
431.47	2483.31
431.66	2443.52
431.85	2464.58
432.03	2518.42
432.22	2415.43
432.41	2438.84
432.60	2567.57
432.79	2401.39
432.97	2495.01
433.16	2513.74
433.35	2600.34
433.54	2527.78
433.72	2375.64
433.91	2647.15
434.10	2473.95
434.28	2487.99
434.47	2509.05
434.66	2579.27
434.85	2548.84
435.03	2644.81
435.22	2607.36
435.41	2717.36
435.59	2581.61
435.78	2703.32
435.97	2684.59
436.16	2799.28
436.34	2686.94
436.53	2841.41
436.72	2871.84
436.90	2726.72
437.09	2799.28
437.28	2623.74
437.46	2738.43
437.65	2745.45
437.84	2829.71
438.02	2771.19
438.21	2871.84
438.40	2841.41
438.58	2853.11
438.77	2902.26
438.96	2993.55
439.14	2888.22
439.33	3101.21
439.52	2965.46
439.70	3033.33
439.89	3040.36
440.08	3138.66
440.26	2972.48
440.45	3110.57
440.63	3185.47
440.82	3171.43
441.01	3122.27
441.19	3133.98
441.38	3323.56
441.57	3267.39
441.75	3173.77
441.94	3349.31
442.12	3304.84
442.31	3302.50
442.50	3344.63
442.68	3274.41
442.87	3405.48
443.05	3335.26
443.24	3349.31
443.43	3323.56
443.61	3527.19
443.80	3463.99
443.98	3468.67
444.17	3377.39
444.35	3426.54
444.54	3606.77
444.73	3449.95
444.91	3473.36
445.10	3604.42
445.28	3456.97
445.47	3480.38
445.65	3515.48
445.84	3496.76
446.02	3522.51
446.21	3583.36
446.39	3571.66
446.58	3473.36
446.77	3485.06
446.95	3426.54
447.14	3543.57
447.32	3503.78
447.51	3459.31
447.69	3555.27
447.88	3508.46
448.06	3609.11
448.25	3557.61
448.43	3513.14
448.62	3566.98
448.80	3648.90
448.99	3630.17
449.17	3716.77
449.36	3620.81
449.54	3597.40
449.73	3672.30
449.91	3775.28
450.10	3803.37
450.28	3768.26
450.46	3765.92
450.65	3763.58
450.83	3761.24
451.02	3702.73
451.20	3805.71
451.39	3707.41
451.57	3571.66
451.76	3822.09
451.94	3838.48
452.13	3829.12
452.31	3889.97
452.49	3754.22
452.68	3946.14
452.86	3796.35
453.05	3971.89
453.23	3946.14
453.42	3920.40
453.60	3805.71
453.78	3920.40
453.97	3889.97
454.15	3950.82
454.34	3824.44
454.52	4091.26
454.70	3981.25
454.89	4039.76
455.07	4114.66
455.26	4124.02
455.44	3950.82
455.62	3983.59
455.81	4018.70
455.99	4131.05
456.17	4191.90
456.36	4203.60
456.54	4311.27
456.73	4311.27
456.91	4173.18
457.09	4311.27
457.28	4400.21
457.46	4320.63
457.64	4465.74
457.83	4465.74
458.01	4311.27
458.19	4482.13
458.38	4297.22
458.56	4440.00
458.74	4496.17
458.93	4435.32
459.11	4449.36
459.29	4465.74
459.48	4489.15
459.66	4397.87
459.84	4645.96
460.03	4709.16
460.21	4484.47
460.39	4489.15
460.57	4664.69
460.76	4685.75
460.94	4664.69
461.12	4648.30
461.31	4641.28
461.49	4690.43
461.67	4657.67
461.85	4854.27
462.04	4875.34
462.22	4999.38
462.40	4741.93
462.59	4905.76
462.77	4816.82
462.95	4837.89
463.13	4795.76
463.32	4781.71
463.50	4873.00
463.68	5090.67
463.86	4725.54
464.05	4849.59
464.23	4889.38
464.41	4985.34
464.59	4835.55
464.78	5013.43
464.96	4931.51
465.14	4964.28
465.32	5041.51
465.50	5053.22
465.69	5097.69
465.87	4990.02
466.05	5081.30
466.23	5022.79
466.41	5067.26
466.60	5160.88
466.78	5027.47
466.96	5074.28
467.14	4964.28
467.32	5144.50
467.51	5245.14
467.69	5198.33
467.87	5193.65
468.05	5224.08
468.23	5114.07
468.41	5247.48
468.60	5289.61
468.78	5301.31
468.96	5327.06
469.14	5411.32
469.32	5296.63
469.50	5074.28
469.69	5434.72
469.87	5504.94
470.05	5476.85
470.23	5509.62
470.41	5472.17
470.59	5617.29
470.77	5521.32
470.95	5619.63
471.14	5671.12
471.32	5675.80
471.50	5785.80
471.68	5593.88
471.86	5612.60
472.04	5647.71
472.22	5874.74
472.40	5841.98
472.58	5795.17
472.77	5778.78
472.95	5757.72
473.13	6022.20
473.31	5879.43
473.49	5830.27
473.67	5839.64
473.85	5912.19
474.03	6033.90
474.21	6108.80
474.39	6029.22
474.57	6026.88
474.75	6008.16
474.93	6200.08
475.12	6359.24
475.30	6246.89
475.48	6253.91
475.66	6312.42
475.84	6340.51
476.02	6546.48
476.20	6473.92
476.38	6473.92
476.56	6567.54
476.74	6544.14
476.92	6707.98
477.10	6778.19
477.28	6789.89
477.46	6909.26
477.64	6602.65
477.82	6724.36
478.00	7021.61
478.18	6932.67
478.36	7035.65
478.54	7208.85
478.72	7133.95
478.90	7265.02
479.08	7314.17
479.26	7265.02
479.44	7332.90
479.62	7421.84
479.80	7564.61
479.98	7538.87
480.16	7632.49
480.34	7726.11
480.52	7733.13
480.70	7599.72
480.88	7492.05
481.06	7709.72
481.24	7899.31
481.41	7801.01
481.59	8028.04
481.77	8102.93
481.95	8098.25
482.13	8255.07
482.31	8229.32
482.49	8334.65
482.67	8332.31
482.85	8397.84
483.03	8557.00
483.21	8793.39
483.39	8678.71
483.57	8821.48
483.74	8596.79
483.92	8947.87
484.10	9034.47
484.28	8964.25
484.46	9315.33
484.64	9191.28
484.82	9057.87
485.00	9053.19
485.18	9371.50
485.35	9598.54
485.53	9540.02
485.71	9528.32
485.89	9682.80
486.07	9795.14
486.25	9708.54
486.43	9870.04
486.61	9867.70
486.78	9951.96
486.96	10061.96
487.14	10338.15
487.32	10092.39
487.50	10345.17
487.68	10424.75
487.85	10429.43
488.03	10511.35
488.21	10827.32
488.39	10583.90
488.57	10705.61
488.75	10677.52
488.92	10803.91
489.10	11063.71
489.28	11232.23
489.46	11255.64
489.64	11019.24
489.81	11384.37
489.99	11108.18
490.17	11332.87
490.35	11590.33
490.53	11583.31
490.70	11747.15
490.88	11658.21
491.06	12077.16
491.24	11716.72
491.41	11861.84
491.59	12184.83
491.77	12044.40
491.95	12411.86
492.13	12369.73
492.30	12325.26
492.48	12390.80
492.66	12493.78
492.84	12538.25
493.01	12491.44
493.19	12636.55
493.37	13011.04
493.54	13041.46
493.72	12851.88
493.90	12957.21
494.08	13088.28
494.25	13298.92
494.43	13380.84
494.61	13500.21
494.79	13596.17
494.96	13610.22
495.14	13516.59
495.32	13738.94
495.49	13673.41
495.67	13987.04
495.85	13895.76
496.02	13736.60
496.20	14157.90
496.38	14204.71
496.55	14209.39
496.73	14394.29
496.91	14232.80
497.09	14361.53
497.26	14122.79
497.44	14288.97
497.62	14478.55
497.79	14750.06
497.97	14803.89
498.14	15023.90
498.32	15178.37
498.50	14972.41
498.67	15122.20
498.85	15101.14
499.03	15393.70
499.20	15126.88
499.38	15229.87
499.56	15367.96
499.73	15475.62
499.91	15592.65
500.08	15903.94
500.26	15400.72
500.44	15850.11
500.61	16009.26
500.79	15632.44
500.97	15789.25
501.14	16079.48
501.32	15962.45
501.49	16009.26
501.67	15946.07
501.84	16149.70
502.02	16037.35
502.20	15906.28
502.37	16257.36
502.55	16369.71
502.72	16198.85
502.90	16683.34
503.07	16451.63
503.25	16840.15
503.43	16269.06
503.60	16526.52
503.78	16807.39
503.95	16788.66
504.13	16840.15
504.30	16936.12
504.48	16938.46
504.65	16842.50
504.83	17032.08
505.01	17186.55
505.18	16950.16
505.36	17284.86
505.53	17233.36
505.71	17219.32
505.88	17439.33
506.06	17146.76
506.23	17441.67
506.41	17362.09
506.58	17734.24
506.76	17685.09
506.93	17781.05
507.11	17642.96
507.28	17659.34
507.46	17633.60
507.63	17937.87
507.81	18113.41
507.98	18033.83
508.16	18082.98
508.33	18068.94
508.50	18164.90
508.68	17935.53
508.85	18448.10
509.03	18033.83
509.20	18274.90
509.38	18649.39
509.55	18618.96
509.73	18415.34
509.90	18946.64
510.08	18377.89
510.25	18651.73
510.42	18768.76
510.60	19154.94
510.77	19089.41
510.95	18984.09
511.12	18754.71
511.30	18972.38
511.47	18960.68
511.64	19337.51
511.82	19185.37
511.99	19030.90
512.17	19433.47
512.34	19309.42
512.51	19447.51
512.69	19367.93
512.86	19529.43
513.04	19529.43
513.21	19569.22
513.38	19648.80
513.56	19761.14
513.73	19618.37
513.90	19515.39
514.08	19616.03
514.25	19840.72
514.43	19981.15
514.60	19875.83
514.77	20126.27
514.95	20297.13
515.12	19932.00
515.29	20011.58
515.47	20203.50
515.64	20498.41
515.81	20128.61
515.99	20510.11
516.16	20570.97
516.33	20582.67
516.51	20437.56
516.68	20383.73
516.85	20407.13
517.03	20730.12
517.20	20861.19
517.37	20959.50
517.54	20842.47
517.72	21085.89
517.89	20697.36
518.06	20908.01
518.24	20992.26
518.41	21008.65
518.58	21289.51
518.75	21312.92
518.93	21116.31
519.10	21003.97
519.27	21507.18
519.45	21561.02
519.62	21521.23
519.79	21071.84
519.96	21474.42
520.14	21472.07
520.31	21443.99
520.48	21451.01
520.65	21399.52
520.83	22045.51
521.00	21671.02
521.17	21701.45
521.34	21895.71
521.52	21797.41
521.69	22073.59
521.86	22111.04
522.03	22111.04
522.20	22197.64
522.38	22434.03
522.55	22319.35
522.72	21968.27
522.89	22225.73
523.07	22274.88
523.24	22349.78
523.41	22628.30
523.58	22129.77
523.75	22459.78
523.92	22258.49
524.10	22424.67
524.27	22300.62
524.44	22544.04
524.61	22644.68
524.78	22665.75
524.96	22747.67
525.13	22937.25
525.30	23108.11
525.47	22881.08
525.64	22972.36
525.81	22787.46
525.98	22794.48
526.16	23080.02
526.33	23019.17
526.50	23786.86
526.67	23365.57
526.84	22792.14
527.01	23119.81
527.18	23353.87
527.36	23344.50
527.53	23295.35
527.70	23660.48
527.87	23985.81
528.04	23831.33
528.21	23510.68
528.38	23728.35
528.55	23749.42
528.72	23782.18
528.89	23513.02
529.07	23845.38
529.24	23913.25
529.41	23845.38
529.58	23728.35
529.75	23955.38
529.92	23887.51
530.09	23924.96
530.26	24233.91
530.43	23735.37
530.60	23836.02
530.77	24023.26
530.94	24163.69
531.11	24051.34
531.28	23873.46
531.46	24006.87
531.63	24238.59
531.80	24467.96
531.97	24418.81
532.14	24119.22
532.31	24226.89
532.48	24219.86
532.65	24362.64
532.82	24570.94
532.99	24753.51
533.16	24783.93
533.33	24772.23
533.50	24627.12
533.67	24769.89
533.84	24657.54
534.01	24615.41
534.18	24329.87
534.35	25238.00
534.52	24875.21
534.69	25184.16
534.86	24786.27
535.03	25055.43
535.20	25036.71
535.37	24870.53
535.54	25560.99
535.71	24687.97
535.88	24903.30
536.05	24933.73
536.22	25502.48
536.38	25340.98
536.55	25348.00
536.72	25404.17
536.89	25181.82
537.06	25537.59
537.23	25436.94
537.40	24975.86
537.57	25560.99
537.74	25537.59
537.91	25570.35
538.08	25834.83
538.25	25514.18
538.42	25483.75
538.59	25713.13
538.75	25495.46
538.92	25603.12
539.09	25579.71
539.26	26183.57
539.43	25902.71
539.60	26195.28
539.77	25708.44
539.94	26139.10
540.11	26284.22
540.28	26162.51
540.44	26012.71
540.61	25738.87
540.78	25968.24
540.95	26253.79
541.12	25996.33
541.29	26111.02
541.46	26146.12
541.62	25928.45
541.79	26087.61
541.96	25809.09
542.13	26188.25
542.30	26111.02
542.47	26534.65
542.63	26253.79
542.80	26347.41
542.97	26721.90
543.14	26813.18
543.31	26761.69
543.48	26864.67
543.64	26693.81
543.81	27054.25
543.98	26824.88
544.15	26714.87
544.32	26586.15
544.48	27199.37
544.65	26757.00
544.82	26899.78
544.99	26354.43
545.16	27070.64
545.32	26937.23
545.49	27178.30
545.66	27419.38
545.83	27405.33
546.00	27154.90
546.16	27342.14
546.33	27068.30
546.50	26981.70
546.67	27145.53
546.83	26934.88
547.00	27531.72
547.17	27250.86
547.34	27314.05
547.50	27040.21
547.67	27571.51
547.84	27637.05
548.00	27627.68
548.17	27824.29
548.34	27503.64
548.51	27653.43
548.67	27908.55
548.84	27679.18
549.01	27335.12
549.18	27627.68
549.34	27370.22
549.51	27625.34
549.68	27847.69
549.84	27655.77
550.01	27681.52
550.18	27395.97
550.34	27850.03
550.51	27852.38
550.68	28151.96
550.84	27503.64
551.01	28065.36
551.18	27901.53
551.34	27606.62
551.51	27709.60
551.68	27974.08
551.84	28025.57
552.01	28018.55
552.18	28112.17
552.34	27779.82
552.51	28180.05
552.68	28060.68
552.84	28226.86
553.01	28308.78
553.18	28196.43
553.34	28320.48
553.51	28446.87
553.67	28575.60
553.84	28624.75
554.01	28795.61
554.17	28425.81
554.34	28496.02
554.51	28430.49
554.67	28428.15
554.84	28332.18
555.00	28299.42
555.17	28388.36
555.33	28540.49
555.50	28273.67
555.67	28800.29
555.83	28474.96
556.00	28474.96
556.16	28800.29
556.33	28390.70
556.50	28919.66
556.66	28868.17
556.83	28596.67
556.99	28917.32
557.16	29132.65
557.32	28655.18
557.49	29106.90
557.65	28711.35
557.82	28854.12
557.98	28886.89
558.15	28929.02
558.32	28964.13
558.48	28837.74
558.65	29055.41
558.81	28802.63
558.98	29244.99
559.14	28938.38
559.31	29113.92
559.47	28938.38
559.64	29347.98
559.80	29422.87
559.97	29291.80
560.13	29071.79
560.30	29244.99
560.46	29305.85
560.63	28982.85
560.79	29387.77
560.96	29408.83
561.12	29319.89
561.29	28868.17
561.45	29181.80
561.61	29575.01
561.78	29371.38
561.94	29259.04
562.11	29418.19
562.27	29661.61
562.44	29046.05
562.60	29567.99
562.77	29408.83
562.93	29296.49
563.10	29792.68
563.26	29247.33
563.42	29607.78
563.59	29642.88
563.75	29249.67
563.92	29734.17
564.08	29603.10
564.24	29221.59
564.41	29387.77
564.57	29497.77
564.74	29502.45
564.90	29694.38
565.07	29773.95
565.23	29717.78
565.39	29457.98
565.56	29628.84
565.72	29631.18
565.88	29771.61
566.05	29682.67
566.21	29507.13
566.38	29324.57
566.54	29579.69
566.70	29776.30
566.87	30277.17
567.03	29869.92
567.19	29970.56
567.36	29893.32
567.52	29780.98
567.68	29762.25
567.85	29605.44
568.01	29624.16
568.17	29474.37
568.34	29930.77
568.50	29839.49
568.66	29972.90
568.83	29909.71
568.99	30110.99
569.15	29846.51
569.32	29820.77
569.48	29741.19
569.64	30113.33
569.81	29998.65
569.97	30043.12
570.13	29839.49
570.30	29717.78
570.46	30003.33
570.62	29898.00
570.78	29682.67
570.95	29811.40
571.11	29916.73
571.27	30078.22
571.43	29717.78
571.60	30265.47
571.76	29989.28
571.92	30178.87
572.09	30010.35
572.25	30441.01
572.41	29649.91
572.57	30494.84
572.74	30153.12
572.90	30349.73
573.06	30176.53
573.22	30099.29
573.38	30008.01
573.55	29951.84
573.71	30501.86
573.87	30015.03
574.03	29977.58
574.20	30008.01
574.36	30195.25
574.52	30267.81
574.68	30174.19
574.84	29741.19
575.01	30541.65
575.17	30274.83
575.33	30103.97
575.49	30127.38
575.65	30560.37
575.82	30487.82
575.98	30312.28
576.14	30309.94
576.30	30066.52
576.46	30036.09
576.62	29944.81
576.79	30143.76
576.95	30099.29
577.11	30396.54
577.27	30600.16
577.43	29970.56
577.59	30471.43
577.75	30389.52
577.92	29916.73
578.08	30125.04
578.24	30312.28
578.40	29886.30
578.56	30038.44
578.72	30499.52
578.88	30464.41
579.04	30167.16
579.21	30012.69
579.37	30043.12
579.53	30532.29
579.69	30391.86
579.85	30237.38
580.01	30431.65
580.17	29647.57
580.33	30700.81
580.49	30204.61
580.65	30223.34
580.82	30651.66
580.98	30499.52
581.14	30616.55
581.30	30487.82
581.46	30558.03
581.62	30204.61
581.78	30146.10
581.94	30546.33
582.10	30188.23
582.26	30284.19
582.42	30520.59
582.58	30756.98
582.74	30710.17
582.90	30244.40
583.06	30466.75
583.22	30478.46
583.38	30698.47
583.54	30490.16
583.70	30295.89
583.86	30658.68
584.02	30398.88
584.18	30253.76
584.34	30277.17
584.50	30775.70
584.66	30485.48
584.82	30108.65
584.98	30455.05
585.14	30206.95
585.30	30345.05
585.46	30118.01
585.62	30471.43
585.78	30850.60
585.94	30443.35
586.10	30609.53
586.26	30728.89
586.42	31049.55
586.58	30656.34
586.74	30436.33
586.90	30213.98
587.06	30134.40
587.22	30747.62
587.38	30366.11
587.54	30445.69
587.70	30859.96
587.86	30969.97
588.02	30574.42
588.18	30859.96
588.34	30745.28
588.49	30871.67
588.65	30506.54
588.81	30593.14
588.97	30637.61
589.13	30445.69
589.29	30719.53
589.45	30583.78
589.61	30291.21
589.77	31082.31
589.93	30995.71
590.08	31082.31
590.24	30834.22
590.40	30810.81
590.56	30775.70
590.72	30668.04
590.88	30703.15
591.04	30384.83
591.20	31021.46
591.35	31012.10
591.51	30988.69
591.67	30979.33
591.83	31035.50
591.99	31192.32
