SpectraSuite Data File
++++++++++++++++++++++++++++++++++++
Date: Fri Oct 18 13:58:07 GMT-05:00 2013
User: bianchi
Dark Spectrum Present: No
Reference Spectrum Present: No
Number of Sampled Component Spectra: 1
Spectrometers: USB2+H05261
Integration Time (usec): 50000 (USB2+H05261)
Spectra Averaged: 1 (USB2+H05261)
Boxcar Smoothing: 0 (USB2+H05261)
Correct for Electrical Dark: No (USB2+H05261)
Strobe/Lamp Enabled: No (USB2+H05261)
Correct for Detector Non-linearity: No (USB2+H05261)
Correct for Stray Light: No (USB2+H05261)
Number of Pixels in Processed Spectrum: 2048
>>>>>Begin Processed Spectral Data<<<<<
365.73	0.00
365.92	0.00
366.12	0.00
366.32	0.00
366.52	0.00
366.72	0.00
366.91	0.00
367.11	0.00
367.31	0.00
367.51	0.00
367.70	0.00
367.90	0.00
368.10	0.00
368.30	0.00
368.49	0.00
368.69	0.00
368.89	0.00
369.09	0.00
369.28	0.00
369.48	0.00
369.68	0.00
369.87	0.00
370.07	0.00
370.27	0.00
370.47	0.00
370.66	84.26
370.86	84.26
371.06	184.90
371.25	121.71
371.45	189.58
371.65	182.56
371.84	177.88
372.04	203.63
372.24	145.11
372.44	257.46
372.63	163.84
372.83	257.46
373.03	191.92
373.22	215.33
373.42	121.71
373.62	182.56
373.81	217.67
374.01	187.24
374.21	250.44
374.40	255.12
374.60	229.37
374.79	208.31
374.99	177.88
375.19	259.80
375.38	318.31
375.58	194.26
375.78	198.95
375.97	269.16
376.17	257.46
376.37	285.55
376.56	266.82
376.76	292.57
376.95	290.23
377.15	292.57
377.35	234.05
377.54	325.33
377.74	285.55
377.93	276.18
378.13	269.16
378.33	320.65
378.52	346.40
378.72	243.42
378.91	257.46
379.11	250.44
379.31	252.78
379.50	229.37
379.70	285.55
379.89	334.70
380.09	255.12
380.28	330.02
380.48	325.33
380.68	315.97
380.87	301.93
381.07	320.65
381.26	306.61
381.46	330.02
381.65	271.50
381.85	255.12
382.04	290.23
382.24	362.78
382.43	355.76
382.63	362.78
382.83	292.57
383.02	355.76
383.22	383.85
383.41	337.04
383.61	283.20
383.80	395.55
384.00	449.38
384.19	372.15
384.39	344.06
384.58	339.38
384.78	402.57
384.97	440.02
385.17	344.06
385.36	402.57
385.56	390.87
385.75	376.83
385.95	484.49
386.14	397.89
386.34	437.68
386.53	451.72
386.72	388.53
386.92	418.96
387.11	507.90
387.31	376.83
387.50	440.02
387.70	423.64
387.89	454.06
388.09	444.70
388.28	393.21
388.48	496.19
388.67	468.11
388.86	402.57
389.06	409.59
389.25	435.34
389.45	423.64
389.64	425.98
389.84	454.06
390.03	447.04
390.22	447.04
390.42	444.70
390.61	468.11
390.81	470.45
391.00	433.00
391.19	531.30
391.39	498.53
391.58	573.43
391.78	545.34
391.97	564.07
392.16	526.62
392.36	528.96
392.55	442.36
392.75	547.69
392.94	531.30
393.13	582.79
393.33	543.00
393.52	545.34
393.71	482.15
393.91	535.98
394.10	589.82
394.29	550.03
394.49	587.47
394.68	699.82
394.88	613.22
395.07	575.77
395.26	554.71
395.46	543.00
395.65	650.67
395.84	636.63
396.04	641.31
396.23	676.41
396.42	695.14
396.62	624.92
396.81	667.05
397.00	697.48
397.19	587.47
397.39	657.69
397.58	683.44
397.77	660.03
397.97	725.57
398.16	695.14
398.35	716.20
398.55	781.74
398.74	692.80
398.93	746.63
399.12	667.05
399.32	798.12
399.51	734.93
399.70	812.17
399.90	744.29
400.09	748.97
400.28	786.42
400.47	791.10
400.67	830.89
400.86	877.70
401.05	758.33
401.24	809.83
401.44	807.48
401.63	819.19
401.82	821.53
402.01	809.83
402.21	898.77
402.40	809.83
402.59	898.77
402.78	858.98
402.97	889.40
403.17	784.08
403.36	758.33
403.55	901.11
403.74	990.05
403.93	875.36
404.13	898.77
404.32	961.96
404.51	922.17
404.70	987.71
404.89	952.60
405.09	884.72
405.28	1013.45
405.47	830.89
405.66	931.53
405.85	964.30
406.05	973.66
406.24	1041.54
406.43	1093.03
406.62	987.71
406.81	1086.01
407.00	978.34
407.20	1029.84
407.39	1022.81
407.58	1081.33
407.77	1071.97
407.96	1048.56
408.15	1081.33
408.34	1086.01
408.54	1095.37
408.73	1018.13
408.92	997.07
409.11	1050.90
409.30	1146.86
409.49	1139.84
409.68	1167.93
409.87	1156.22
410.07	1160.91
410.26	1196.01
410.45	1158.57
410.64	1200.69
410.83	1289.64
411.02	1196.01
411.21	1273.25
411.40	1245.16
411.59	1282.61
411.78	1366.87
411.98	1184.31
412.17	1226.44
412.36	1341.13
412.55	1214.74
412.74	1380.92
412.93	1315.38
413.12	1322.40
413.31	1455.81
413.50	1444.11
413.69	1439.43
413.88	1476.88
414.07	1369.21
414.26	1352.83
414.45	1397.30
414.64	1423.05
414.83	1411.34
415.02	1561.14
415.22	1544.75
415.41	1563.48
415.60	1554.12
415.79	1621.99
415.98	1610.29
416.17	1638.38
416.36	1533.05
416.55	1629.01
416.74	1624.33
416.93	1610.29
417.12	1680.50
417.31	1757.74
417.50	1778.81
417.69	1734.34
417.88	1797.53
418.07	1713.27
418.26	1746.04
418.45	1797.53
418.64	1846.68
418.83	1701.57
419.02	1809.23
419.21	1825.62
419.39	1839.66
419.58	1708.59
419.77	1790.51
419.96	1816.26
420.15	1975.41
420.34	1856.04
420.53	1952.01
420.72	1827.96
420.91	1834.98
421.10	1849.02
421.29	2012.86
421.48	1867.75
421.67	2003.50
421.86	1895.83
422.05	1949.67
422.24	2043.29
422.43	1853.70
422.61	1998.82
422.80	2047.97
422.99	2047.97
423.18	2066.69
423.37	1970.73
423.56	1998.82
423.75	1895.83
423.94	2047.97
424.13	1797.53
424.32	1921.58
424.50	1977.75
424.69	2080.74
424.88	2045.63
425.07	1959.03
425.26	2069.03
425.45	1994.14
425.64	2066.69
425.83	2038.61
426.01	2083.08
426.20	2052.65
426.39	2097.12
426.58	2083.08
426.77	2033.93
426.96	2136.91
427.15	2050.31
427.33	2223.51
427.52	1987.11
427.71	2078.40
427.90	2160.31
428.09	2165.00
428.28	2225.85
428.46	2209.47
428.65	2253.94
428.84	2197.76
429.03	2118.18
429.22	2155.63
429.40	2246.91
429.59	2200.10
429.78	2188.40
429.97	2150.95
430.16	2246.91
430.34	2251.60
430.53	2349.90
430.72	2342.88
430.91	2373.30
431.10	2307.77
431.28	2349.90
431.47	2359.26
431.66	2443.52
431.85	2326.49
432.03	2473.95
432.22	2476.29
432.41	2452.88
432.60	2415.43
432.79	2363.94
432.97	2464.58
433.16	2431.82
433.35	2410.75
433.54	2532.46
433.72	2441.18
433.91	2614.38
434.10	2485.65
434.28	2565.23
434.47	2569.91
434.66	2551.18
434.85	2595.65
435.03	2548.84
435.22	2537.14
435.41	2626.08
435.59	2693.96
435.78	2682.25
435.97	2644.81
436.16	2736.09
436.34	2600.34
436.53	2703.32
436.72	2782.90
436.90	2609.70
437.09	2747.79
437.28	2808.64
437.46	2724.38
437.65	2661.19
437.84	2813.32
438.02	2799.28
438.21	2691.62
438.40	2715.02
438.58	3002.91
438.77	2883.54
438.96	2803.96
439.14	2909.29
439.33	2991.20
439.52	2946.73
439.70	2977.16
439.89	3014.61
440.08	2974.82
440.26	2942.05
440.45	3094.19
440.63	3094.19
440.82	3068.44
441.01	3082.49
441.19	3042.70
441.38	3208.87
441.57	3248.66
441.75	3211.22
441.94	3243.98
442.12	3276.75
442.31	3246.32
442.50	3323.56
442.68	3274.41
442.87	3398.46
443.05	3309.52
443.24	3405.48
443.43	3494.42
443.61	3290.79
443.80	3541.23
443.98	3356.33
444.17	3274.41
444.35	3428.88
444.54	3517.83
444.73	3349.31
444.91	3508.46
445.10	3471.01
445.28	3424.20
445.47	3382.07
445.65	3529.53
445.84	3520.17
446.02	3578.68
446.21	3536.55
446.39	3396.12
446.58	3550.59
446.77	3543.57
446.95	3480.38
447.14	3433.57
447.32	3499.10
447.51	3616.13
447.69	3583.36
447.88	3566.98
448.06	3522.51
448.25	3515.48
448.43	3487.40
448.62	3674.64
448.80	3524.85
448.99	3693.37
449.17	3653.58
449.36	3592.72
449.54	3798.69
449.73	3693.37
449.91	3574.00
450.10	3555.27
450.28	3765.92
450.46	3691.02
450.65	3754.22
450.83	3845.50
451.02	3765.92
451.20	3669.96
451.39	3747.20
451.57	3796.35
451.76	3737.84
451.94	3733.15
452.13	3777.62
452.31	3779.97
452.49	3798.69
452.68	3915.72
452.86	3896.99
453.05	4072.53
453.23	4067.85
453.42	3829.12
453.60	3880.61
453.78	3999.98
453.97	3871.25
454.15	3941.46
454.34	3899.33
454.52	4091.26
454.70	3999.98
454.89	4147.43
455.07	4187.22
455.26	4086.58
455.44	4180.20
455.62	4215.30
455.81	3932.10
455.99	3985.93
456.17	4273.82
456.36	4276.16
456.54	4212.96
456.73	4269.14
456.91	4339.35
457.09	4362.76
457.28	4402.55
457.46	4395.53
457.64	4402.55
457.83	4383.82
458.01	4236.37
458.19	4425.95
458.38	4454.04
458.56	4341.69
458.74	4369.78
458.93	4318.29
459.11	4329.99
459.29	4362.76
459.48	4610.86
459.66	4582.77
459.84	4643.62
460.03	4507.87
460.21	4416.59
460.39	4512.55
460.57	4554.68
460.76	4610.86
460.94	4540.64
461.12	4737.24
461.31	4610.86
461.49	4765.33
461.67	4711.50
461.85	4638.94
462.04	4683.41
462.22	5006.41
462.40	4664.69
462.59	4674.05
462.77	4762.99
462.95	4940.87
463.13	4631.92
463.32	4634.26
463.50	4997.04
463.68	4805.12
463.86	4819.16
464.05	4751.29
464.23	4821.50
464.41	4910.44
464.59	4662.35
464.78	4990.02
464.96	4985.34
465.14	4849.59
465.32	5015.77
465.50	4954.91
465.69	4975.98
465.87	4945.55
466.05	5020.45
466.23	5013.43
466.41	5163.22
466.60	5259.18
466.78	5039.17
466.96	5034.49
467.14	4858.95
467.32	5245.14
467.51	5125.77
467.69	4903.42
467.87	5186.63
468.05	5203.01
468.23	5020.45
468.41	5050.88
468.60	5139.82
468.78	5163.22
468.96	5107.05
469.14	5198.33
469.32	5425.36
469.50	5343.44
469.69	5177.26
469.87	5362.17
470.05	5509.62
470.23	5462.81
470.41	5352.81
470.59	5296.63
470.77	5390.25
470.95	5526.00
471.14	5598.56
471.32	5462.81
471.50	5715.59
471.68	5647.71
471.86	5376.21
472.04	5628.99
472.22	5591.54
472.40	5645.37
472.58	5626.65
472.77	5748.36
472.95	5844.32
473.13	6003.47
473.31	5797.51
473.49	5746.02
473.67	5799.85
473.85	5841.98
474.03	6047.94
474.21	6003.47
474.39	6090.07
474.57	6150.93
474.75	6136.88
474.93	6183.70
475.12	6143.91
475.30	6118.16
475.48	6321.79
475.66	6139.23
475.84	6413.07
476.02	6436.47
476.20	6228.17
476.38	6544.14
476.56	6609.67
476.74	6567.54
476.92	6497.33
477.10	6469.24
477.28	6698.61
477.46	6595.63
477.64	6853.09
477.82	6874.15
478.00	6832.02
478.18	6827.34
478.36	7087.14
478.54	7091.82
478.72	7091.82
478.90	7140.97
479.08	7321.20
479.26	7346.94
479.44	7290.77
479.62	7585.68
479.80	7454.61
479.98	7487.37
480.16	7655.89
480.34	7653.55
480.52	7674.62
480.70	7793.98
480.88	7676.96
481.06	7735.47
481.24	7627.81
481.41	7742.49
481.59	8072.51
481.77	8084.21
481.95	8032.72
482.13	8320.60
482.31	8009.31
482.49	8280.82
482.67	8313.58
482.85	8510.19
483.03	8468.06
483.21	8596.79
483.39	8592.11
483.57	8531.25
483.74	8723.18
483.92	8723.18
484.10	8589.77
484.28	8968.93
484.46	8975.95
484.64	9238.09
484.82	9043.83
485.00	9289.59
485.18	9238.09
485.35	9584.49
485.53	9495.55
485.71	9516.62
485.89	9661.73
486.07	9678.12
486.25	9640.67
486.43	9825.57
486.61	9816.21
486.78	9753.01
486.96	10052.60
487.14	10202.40
487.32	10160.27
487.50	10214.10
487.68	10319.42
487.85	10520.71
488.03	10539.43
488.21	10555.82
488.39	10628.37
488.57	10867.11
488.75	10853.06
488.92	10815.62
489.10	10892.85
489.28	11194.78
489.46	11201.80
489.64	11183.08
489.81	11248.61
489.99	11213.51
490.17	11328.19
490.35	11590.33
490.53	11775.24
490.70	11536.50
490.88	11672.25
491.06	11585.65
491.24	11878.22
491.41	11976.52
491.59	11611.40
491.77	11812.68
491.95	12121.63
492.13	12280.79
492.30	12205.89
492.48	12250.36
492.66	12439.95
492.84	12093.55
493.01	12470.37
493.19	12603.78
493.37	12879.97
493.54	12940.82
493.72	12919.76
493.90	13048.49
494.08	13015.72
494.25	13067.21
494.43	13174.88
494.61	13397.23
494.79	13327.01
494.96	13319.99
495.14	13577.45
495.32	13343.39
495.49	13490.85
495.67	13577.45
495.85	13933.21
496.02	14031.51
496.20	14284.29
496.38	14321.74
496.55	14033.85
496.73	14338.12
496.91	14230.46
497.09	14331.10
497.26	14537.07
497.44	14340.46
497.62	14347.48
497.79	14590.90
497.97	14792.19
498.14	14916.23
498.32	15075.39
498.50	15087.09
498.67	15084.75
498.85	14981.77
499.03	15042.62
499.20	15243.91
499.38	15321.15
499.56	15817.34
499.73	15424.13
499.91	15517.75
500.08	15293.06
500.26	15482.64
500.44	15302.42
500.61	15800.96
500.79	15538.82
500.97	15747.12
501.14	15882.88
501.32	15875.85
501.49	15735.42
501.67	16147.36
501.84	16210.55
502.02	15988.20
502.20	16273.74
502.37	16154.38
502.55	16292.47
502.72	16231.62
502.90	16470.35
503.07	16336.94
503.25	16240.98
503.43	16343.96
503.60	16535.88
503.78	16521.84
503.95	16776.96
504.13	16755.90
504.30	16512.48
504.48	16608.44
504.65	16805.05
504.83	17032.08
505.01	17200.60
505.18	17067.19
505.36	17188.89
505.53	17123.36
505.71	17041.44
505.88	17013.35
506.06	17179.53
506.23	17680.41
506.41	17254.43
506.58	17380.82
506.76	17446.35
506.93	17432.31
507.11	17317.62
507.28	17771.69
507.46	17734.24
507.63	17951.91
507.81	18075.96
507.98	17659.34
508.16	17865.31
508.33	18024.47
508.50	18038.51
508.68	18242.14
508.85	18405.97
509.03	18015.10
509.20	18192.98
509.38	18211.71
509.55	18398.95
509.73	18471.51
509.90	18417.68
510.08	18427.04
510.25	18424.70
510.42	18834.29
510.60	18820.25
510.77	18946.64
510.95	18864.72
511.12	18799.18
511.30	18780.46
511.47	18986.43
511.64	18958.34
511.82	19042.60
511.99	19138.56
512.17	19213.46
512.34	19264.95
512.51	19105.79
512.69	19672.20
512.86	19480.28
513.04	19517.73
513.21	19463.90
513.38	19646.46
513.56	19580.92
513.73	19702.63
513.90	19480.28
514.08	19606.67
514.25	19576.24
514.43	19934.34
514.60	19964.77
514.77	19974.13
514.95	19714.33
515.12	20166.06
515.29	19859.45
515.47	20154.35
515.64	19976.47
515.81	20166.06
515.99	20456.28
516.16	20645.87
516.33	20393.09
516.51	20170.74
516.68	20212.87
516.85	20533.52
517.03	20355.64
517.20	20538.20
517.37	20805.02
517.54	20704.38
517.72	21104.61
517.89	20577.99
518.06	20959.50
518.24	20795.66
518.41	20802.68
518.58	21329.30
518.75	21036.74
518.93	21275.47
519.10	21116.31
519.27	21165.46
519.45	21151.42
519.62	21191.21
519.79	21331.64
519.96	21254.40
520.14	21373.77
520.31	21062.48
520.48	21532.93
520.65	21451.01
520.83	21343.35
521.00	21488.46
521.17	21390.16
521.34	21495.48
521.52	21795.07
521.69	21558.67
521.86	21818.47
522.03	22057.21
522.20	21764.64
522.38	22019.76
522.55	21923.80
522.72	21951.88
522.89	21806.77
523.07	22015.08
523.24	22319.35
523.41	22513.61
523.58	22270.20
523.75	22452.76
523.92	22118.06
524.10	22441.06
524.27	22398.93
524.44	22679.79
524.61	22375.52
524.78	22513.61
524.96	22504.25
525.13	22780.43
525.30	22686.81
525.47	22607.23
525.64	22782.77
525.81	23005.13
525.98	22878.74
526.16	22988.74
526.33	22909.16
526.50	22780.43
526.67	22757.03
526.84	22995.76
527.01	23234.50
527.18	23321.10
527.36	23227.48
527.53	23255.56
527.70	23379.61
527.87	23803.25
528.04	23358.55
528.21	23372.59
528.38	23267.27
528.55	23463.87
528.72	23531.75
528.89	23639.41
529.07	23260.24
529.24	23513.02
529.41	23723.67
529.58	23763.46
529.75	23651.11
529.92	23513.02
530.09	23726.01
530.26	24294.76
530.43	24067.73
530.60	23922.62
530.77	24116.88
530.94	24093.47
531.11	23836.02
531.28	23775.16
531.46	24023.26
531.63	24229.23
531.80	24112.20
531.97	24362.64
532.14	24219.86
532.31	24346.25
532.48	24283.06
532.65	24250.29
532.82	24353.27
532.99	24507.75
533.16	24264.33
533.33	24449.24
533.50	24549.88
533.67	24421.15
533.84	24315.83
534.01	24666.91
534.18	24720.74
534.35	24889.26
534.52	24655.20
534.69	24828.40
534.86	25010.96
535.03	24753.51
535.20	24889.26
535.37	24900.96
535.54	25266.08
535.71	24739.46
535.88	25006.28
536.05	24849.47
536.22	25242.68
536.38	25230.98
536.55	25144.38
536.72	25495.46
536.89	25137.35
537.06	25385.45
537.23	25610.14
537.40	25521.20
537.57	25137.35
537.74	25153.74
537.91	25500.14
538.08	25598.44
538.25	25425.24
538.42	25544.61
538.59	25593.76
538.75	25085.86
538.92	25558.65
539.09	25467.37
539.26	25757.60
539.43	25752.91
539.60	25752.91
539.77	25883.98
539.94	25937.82
540.11	25781.00
540.28	25823.13
540.44	26001.01
540.61	25671.00
540.78	25813.77
540.95	26061.87
541.12	25914.41
541.29	25888.67
541.46	25998.67
541.62	26206.98
541.79	26169.53
541.96	25638.23
542.13	25769.30
542.30	26214.00
542.47	26485.50
542.63	26354.43
542.80	26511.25
542.97	26740.62
543.14	27056.59
543.31	26426.99
543.48	26384.86
543.64	27051.91
543.81	26995.74
543.98	26703.17
544.15	26644.66
544.32	26951.27
544.48	27201.71
544.65	26815.52
544.82	26838.92
544.99	26675.09
545.16	27026.17
545.32	26867.01
545.49	27246.18
545.66	27267.24
545.83	26801.47
546.00	27370.22
546.16	27094.04
546.33	26953.61
546.50	26651.68
546.67	27136.17
546.83	26780.41
547.00	26965.31
547.17	27040.21
547.34	27353.84
547.50	27431.08
547.67	27522.36
547.84	26913.82
548.00	27388.95
548.17	27828.97
548.34	27019.14
548.51	27407.67
548.67	27709.60
548.84	27363.20
549.01	27688.54
549.18	27381.93
549.34	27239.15
549.51	27454.48
549.68	27484.91
549.84	27358.52
550.01	27566.83
550.18	27601.94
550.34	27840.67
550.51	27934.29
550.68	28109.83
550.84	27541.08
551.01	27880.46
551.18	27718.96
551.34	27672.15
551.51	27768.12
551.68	27711.94
551.84	28276.01
552.01	27723.65
552.18	28086.43
552.34	28025.57
552.51	28063.02
552.68	28142.60
552.84	28273.67
553.01	28231.54
553.18	28163.67
553.34	28395.38
553.51	27964.72
553.67	28112.17
553.84	28479.64
554.01	28149.62
554.17	28081.75
554.34	28414.10
554.51	28151.96
554.67	28229.20
554.84	28254.95
555.00	28212.82
555.17	28414.10
555.33	28460.91
555.50	28308.78
555.67	28491.34
555.83	28360.27
556.00	28570.92
556.16	28779.23
556.33	28491.34
556.50	28545.17
556.66	28851.78
556.83	28400.06
556.99	28793.27
557.16	28840.08
557.32	28500.70
557.49	29076.48
557.65	28622.41
557.82	28701.99
557.98	28379.00
558.15	29008.60
558.32	28683.27
558.48	28781.57
558.65	28905.62
558.81	29085.84
558.98	28999.24
559.14	28802.63
559.31	28751.14
559.47	28893.91
559.64	28945.41
559.80	28943.06
559.97	29032.00
560.13	29097.54
560.30	29123.29
560.46	29036.69
560.63	29130.31
560.79	28912.64
560.96	29090.52
561.12	28971.15
561.29	29046.05
561.45	28819.02
561.61	29439.26
561.78	29216.91
561.94	29556.28
562.11	29219.25
562.27	29434.58
562.44	29296.49
562.60	29326.91
562.77	29256.70
562.93	28929.02
563.10	29329.25
563.26	29467.34
563.42	29687.36
563.59	29479.05
563.75	29509.47
563.92	29193.50
564.08	29436.92
564.24	28931.36
564.41	29153.71
564.57	29415.85
564.74	29350.32
564.90	29439.26
565.07	29584.37
565.23	29294.14
565.39	29223.93
565.56	29909.71
565.72	29240.31
565.88	29242.65
566.05	29544.58
566.21	29006.26
566.38	29680.33
566.54	29759.91
566.70	29628.84
566.87	29710.76
567.03	29708.42
567.19	30022.05
567.36	29699.06
567.52	29551.60
567.68	29516.50
567.85	29563.31
568.01	29357.34
568.17	29612.46
568.34	29759.91
568.50	29862.90
568.66	29528.20
568.83	30246.74
568.99	29429.90
569.15	29507.13
569.32	29647.57
569.48	29502.45
569.64	29846.51
569.81	29593.73
569.97	29518.84
570.13	29923.75
570.30	29883.96
570.46	29937.79
570.62	29816.08
570.78	29692.04
570.95	29448.62
571.11	29717.78
571.27	29289.46
571.43	29532.88
571.60	29907.37
571.76	29743.53
571.92	29670.97
572.09	29832.47
572.25	30136.74
572.41	30038.44
572.57	29624.16
572.74	29785.66
572.90	29839.49
573.06	29989.28
573.22	29848.85
573.38	29582.03
573.55	30118.01
573.71	30284.19
573.87	30029.07
574.03	30115.67
574.20	30228.02
574.36	29563.31
574.52	30015.03
574.68	29598.41
574.84	30103.97
575.01	29989.28
575.17	29783.32
575.33	30036.09
575.49	30164.82
575.65	30464.41
575.82	30118.01
575.98	29890.98
576.14	30546.33
576.30	30134.40
576.46	29734.17
576.62	29780.98
576.79	29722.46
576.95	29764.59
577.11	29921.41
577.27	29944.81
577.43	30485.48
577.59	30192.91
577.75	30045.46
577.92	29830.13
578.08	29235.63
578.24	29862.90
578.40	30221.00
578.56	30176.53
578.72	30092.27
578.88	30834.22
579.04	30403.56
579.21	30078.22
579.37	30211.64
579.53	30148.44
579.69	30178.87
579.85	30338.02
580.01	30218.66
580.17	30309.94
580.33	30103.97
580.49	30181.21
580.65	30436.33
580.82	30359.09
580.98	30380.15
581.14	30300.58
581.30	30265.47
581.46	30089.93
581.62	30169.51
581.78	29914.39
581.94	30256.11
582.10	29968.22
582.26	30293.55
582.42	30019.71
582.58	30295.89
582.74	30204.61
582.90	30239.72
583.06	30654.00
583.22	30160.14
583.38	30141.42
583.54	29841.83
583.70	30036.09
583.86	30127.38
584.02	30157.80
584.18	30445.69
584.34	29993.97
584.50	30644.63
584.66	30511.22
584.82	30253.76
584.98	29930.77
585.14	29823.11
585.30	30141.42
585.46	30319.30
585.62	30249.08
585.78	30221.00
585.94	30141.42
586.10	30518.25
586.26	30525.27
586.42	30230.36
586.58	30787.41
586.74	30485.48
586.90	30071.20
587.06	30309.94
587.22	30286.53
587.38	30389.52
587.54	30897.41
587.70	30368.45
587.86	30410.58
588.02	30534.63
588.18	30677.40
588.34	30225.68
588.49	30307.60
588.65	30066.52
588.81	30286.53
588.97	30429.30
589.13	30141.42
589.29	30300.58
589.45	30125.04
589.61	30630.59
589.77	30436.33
589.93	30567.40
590.08	30984.01
590.24	30852.94
590.40	30974.65
590.56	30588.46
590.72	30410.58
590.88	30129.72
591.04	30518.25
591.20	30787.41
591.35	30881.03
591.51	31129.12
591.67	30866.98
591.83	30663.36
591.99	30759.32
