SpectraSuite Data File
++++++++++++++++++++++++++++++++++++
Date: Fri Oct 18 13:58:03 GMT-05:00 2013
User: bianchi
Dark Spectrum Present: No
Reference Spectrum Present: No
Number of Sampled Component Spectra: 1
Spectrometers: USB2+H05261
Integration Time (usec): 50000 (USB2+H05261)
Spectra Averaged: 1 (USB2+H05261)
Boxcar Smoothing: 0 (USB2+H05261)
Correct for Electrical Dark: No (USB2+H05261)
Strobe/Lamp Enabled: No (USB2+H05261)
Correct for Detector Non-linearity: No (USB2+H05261)
Correct for Stray Light: No (USB2+H05261)
Number of Pixels in Processed Spectrum: 2048
>>>>>Begin Processed Spectral Data<<<<<
365.73	0.00
365.92	0.00
366.12	0.00
366.32	0.00
366.52	0.00
366.72	0.00
366.91	0.00
367.11	0.00
367.31	0.00
367.51	0.00
367.70	0.00
367.90	0.00
368.10	0.00
368.30	0.00
368.49	0.00
368.69	0.00
368.89	0.00
369.09	0.00
369.28	0.00
369.48	0.00
369.68	0.00
369.87	0.00
370.07	0.00
370.27	0.00
370.47	0.00
370.66	28.09
370.86	91.28
371.06	177.88
371.25	135.75
371.45	84.26
371.65	163.84
371.84	110.01
372.04	117.03
372.24	175.54
372.44	161.50
372.63	227.03
372.83	166.18
373.03	203.63
373.22	222.35
373.42	243.42
373.62	224.69
373.81	194.26
374.01	215.33
374.21	222.35
374.40	203.63
374.60	205.97
374.79	245.76
374.99	290.23
375.19	318.31
375.38	273.84
375.58	264.48
375.78	315.97
375.97	248.10
376.17	301.93
376.37	348.74
376.56	187.24
376.76	234.05
376.95	278.52
377.15	276.18
377.35	283.20
377.54	269.16
377.74	210.65
377.93	269.16
378.13	301.93
378.33	280.86
378.52	266.82
378.72	273.84
378.91	259.80
379.11	322.99
379.31	325.33
379.50	280.86
379.70	344.06
379.89	330.02
380.09	311.29
380.28	273.84
380.48	332.36
380.68	285.55
380.87	341.72
381.07	332.36
381.26	360.44
381.46	297.25
381.65	339.38
381.85	348.74
382.04	339.38
382.24	285.55
382.43	322.99
382.63	351.08
382.83	353.42
383.02	292.57
383.22	428.32
383.41	367.46
383.61	299.59
383.80	362.78
384.00	320.65
384.19	283.20
384.39	430.66
384.58	463.43
384.78	390.87
384.97	383.85
385.17	369.80
385.36	358.10
385.56	355.76
385.75	360.44
385.95	313.63
386.14	395.55
386.34	327.68
386.53	351.08
386.72	341.72
386.92	365.12
387.11	369.80
387.31	390.87
387.50	465.77
387.70	402.57
387.89	423.64
388.09	430.66
388.28	484.49
388.48	456.40
388.67	479.81
388.86	521.94
389.06	409.59
389.25	404.91
389.45	461.09
389.64	507.90
389.84	463.43
390.03	524.28
390.22	433.00
390.42	372.15
390.61	418.96
390.81	503.22
391.00	519.60
391.19	468.11
391.39	479.81
391.58	500.87
391.78	451.72
391.97	454.06
392.16	547.69
392.36	535.98
392.55	512.58
392.75	543.00
392.94	587.47
393.13	571.09
393.33	498.53
393.52	561.73
393.71	540.66
393.91	571.09
394.10	550.03
394.29	610.88
394.49	510.24
394.68	564.07
394.88	704.50
395.07	571.09
395.26	645.99
395.46	592.16
395.65	648.33
395.84	617.90
396.04	683.44
396.23	631.94
396.42	653.01
396.62	538.32
396.81	671.73
397.00	688.12
397.19	559.39
397.39	683.44
397.58	657.69
397.77	610.88
397.97	615.56
398.16	692.80
398.35	688.12
398.55	650.67
398.74	730.25
398.93	779.40
399.12	770.04
399.32	795.78
399.51	748.97
399.70	816.85
399.90	730.25
400.09	737.27
400.28	781.74
400.47	828.55
400.67	809.83
400.86	786.42
401.05	716.20
401.24	662.37
401.44	809.83
401.63	788.76
401.82	828.55
402.01	851.96
402.21	847.27
402.40	807.48
402.59	802.80
402.78	866.00
402.97	793.44
403.17	828.55
403.36	800.46
403.55	873.02
403.74	950.26
403.93	903.45
404.13	954.94
404.32	1034.52
404.51	858.98
404.70	870.68
404.89	968.98
405.09	936.21
405.28	915.15
405.47	929.19
405.66	1055.58
405.85	1006.43
406.05	910.47
406.24	961.96
406.43	945.58
406.62	1022.81
406.81	1048.56
407.00	1055.58
407.20	929.19
407.39	1078.99
407.58	1022.81
407.77	1048.56
407.96	1111.75
408.15	1064.94
408.34	978.34
408.54	1111.75
408.73	1081.33
408.92	1184.31
409.11	1114.10
409.30	1097.71
409.49	1170.27
409.68	1156.22
409.87	1203.04
410.07	1156.22
410.26	1214.74
410.45	1210.06
410.64	1170.27
410.83	1191.33
411.02	1200.69
411.21	1219.42
411.40	1172.61
411.59	1156.22
411.78	1254.53
411.98	1277.93
412.17	1210.06
412.36	1224.10
412.55	1338.79
412.74	1343.47
412.93	1392.62
413.12	1273.25
413.31	1355.17
413.50	1306.02
413.69	1411.34
413.88	1401.98
414.07	1495.60
414.26	1394.96
414.45	1472.20
414.64	1446.45
414.83	1418.36
415.02	1556.46
415.22	1526.03
415.41	1647.74
415.60	1537.73
415.79	1467.52
415.98	1661.78
416.17	1519.01
416.36	1554.12
416.55	1678.16
416.74	1694.55
416.93	1640.72
417.12	1652.42
417.31	1678.16
417.50	1764.76
417.69	1816.26
417.88	1727.32
418.07	1809.23
418.26	1769.44
418.45	1764.76
418.64	1795.19
418.83	1717.95
419.02	1781.15
419.21	1760.08
419.39	1842.00
419.58	1832.64
419.77	1879.45
419.96	1902.86
420.15	1928.60
420.34	1877.11
420.53	1898.17
420.72	1886.47
420.91	1888.81
421.10	1834.98
421.29	1907.54
421.48	1956.69
421.67	1996.48
421.86	2059.67
422.05	2031.58
422.24	1977.75
422.43	1977.75
422.61	1980.09
422.80	2052.65
422.99	2099.46
423.18	2052.65
423.37	2115.84
423.56	2031.58
423.75	2059.67
423.94	2022.22
424.13	1907.54
424.32	1916.90
424.50	2043.29
424.69	2176.70
424.88	2076.06
425.07	2104.14
425.26	1937.96
425.45	2118.18
425.64	1959.03
425.83	2078.40
426.01	2106.48
426.20	2038.61
426.39	2071.37
426.58	2062.01
426.77	2118.18
426.96	2094.78
427.15	2125.21
427.33	2134.57
427.52	2104.14
427.71	2125.21
427.90	2069.03
428.09	2186.06
428.28	2186.06
428.46	2270.32
428.65	2218.83
428.84	2174.36
429.03	2368.62
429.22	2218.83
429.40	2176.70
429.59	2263.30
429.78	2062.01
429.97	2169.68
430.16	2232.87
430.34	2270.32
430.53	2279.68
430.72	2403.73
430.91	2253.94
431.10	2310.11
431.28	2340.54
431.47	2504.37
431.66	2541.82
431.85	2314.79
432.03	2424.80
432.22	2450.54
432.41	2466.92
432.60	2373.30
432.79	2392.03
432.97	2469.27
433.16	2429.48
433.35	2466.92
433.54	2476.29
433.72	2476.29
433.91	2572.25
434.10	2633.10
434.28	2459.90
434.47	2464.58
434.66	2588.63
434.85	2513.74
435.03	2539.48
435.22	2663.53
435.41	2609.70
435.59	2686.94
435.78	2609.70
435.97	2628.42
436.16	2644.81
436.34	2722.04
436.53	2658.85
436.72	2864.82
436.90	2626.08
437.09	2764.17
437.28	2712.68
437.46	2612.04
437.65	2649.49
437.84	2780.56
438.02	2785.24
438.21	2754.81
438.40	2768.85
438.58	2904.60
438.77	2916.31
438.96	2745.45
439.14	2993.55
439.33	2977.16
439.52	2885.88
439.70	2956.10
439.89	2981.84
440.08	3045.04
440.26	3054.40
440.45	2993.55
440.63	3059.08
440.82	3215.90
441.01	3101.21
441.19	3197.17
441.38	3157.38
441.57	3232.28
441.75	3332.92
441.94	3208.87
442.12	3236.96
442.31	3220.58
442.50	3304.84
442.68	3337.60
442.87	3346.97
443.05	3407.82
443.24	3372.71
443.43	3410.16
443.61	3478.04
443.80	3421.86
443.98	3421.86
444.17	3377.39
444.35	3269.73
444.54	3515.48
444.73	3435.91
444.91	3440.59
445.10	3459.31
445.28	3412.50
445.47	3559.95
445.65	3400.80
445.84	3459.31
446.02	3592.72
446.21	3503.78
446.39	3361.01
446.58	3545.91
446.77	3393.78
446.95	3545.91
447.14	3487.40
447.32	3618.47
447.51	3480.38
447.69	3426.54
447.88	3520.17
448.06	3471.01
448.25	3412.50
448.43	3648.90
448.62	3555.27
448.80	3442.93
448.99	3564.64
449.17	3571.66
449.36	3517.83
449.54	3702.73
449.73	3709.75
449.91	3555.27
450.10	3791.67
450.28	3847.84
450.46	3756.56
450.65	3686.34
450.83	3836.14
451.02	3709.75
451.20	3679.32
451.39	3808.05
451.57	3798.69
451.76	3761.24
451.94	3805.71
452.13	3946.14
452.31	3976.57
452.49	3709.75
452.68	3871.25
452.86	3843.16
453.05	3939.12
453.23	3936.78
453.42	3875.93
453.60	3864.22
453.78	3850.18
453.97	3850.18
454.15	3988.27
454.34	3847.84
454.52	4128.70
454.70	3908.69
454.89	3964.87
455.07	4042.11
455.26	3871.25
455.44	4133.39
455.62	4060.83
455.81	4128.70
455.99	4098.28
456.17	4152.11
456.36	4079.55
456.54	4189.56
456.73	4264.46
456.91	4348.72
457.09	4407.23
457.28	4351.06
457.46	4301.90
457.64	4425.95
457.83	4278.50
458.01	4269.14
458.19	4278.50
458.38	4430.63
458.56	4552.34
458.74	4557.02
458.93	4428.29
459.11	4461.06
459.29	4355.74
459.48	4421.27
459.66	4409.57
459.84	4566.39
460.03	4660.01
460.21	4573.41
460.39	4425.95
460.57	4512.55
460.76	4601.49
460.94	4720.86
461.12	4580.43
461.31	4629.58
461.49	4615.54
461.67	4669.37
461.85	4599.15
462.04	4688.09
462.22	5004.07
462.40	4870.65
462.59	4723.20
462.77	4784.06
462.95	4748.95
463.13	4805.12
463.32	4882.36
463.50	4727.88
463.68	4868.31
463.86	4978.32
464.05	4849.59
464.23	5032.15
464.41	4964.28
464.59	4830.87
464.78	5018.11
464.96	4994.70
465.14	4894.06
465.32	5114.07
465.50	5008.75
465.69	5041.51
465.87	4957.25
466.05	4968.96
466.23	5020.45
466.41	5104.71
466.60	5158.54
466.78	4936.19
466.96	4952.57
467.14	5102.37
467.32	5090.67
467.51	5188.97
467.69	5048.54
467.87	5050.88
468.05	5062.58
468.23	5060.24
468.41	5095.35
468.60	5280.25
468.78	5277.91
468.96	5090.67
469.14	5268.55
469.32	5282.59
469.50	5261.52
469.69	5310.68
469.87	5446.43
470.05	5542.39
470.23	5423.02
470.41	5219.39
470.59	5357.49
470.77	5565.79
470.95	5500.26
471.14	5481.53
471.32	5357.49
471.50	5631.33
471.68	5668.78
471.86	5703.89
472.04	5516.64
472.22	5769.42
472.40	5586.86
472.58	5783.46
472.77	5678.14
472.95	5650.05
473.13	6083.05
473.31	5743.67
473.49	5788.14
473.67	5736.65
473.85	5783.46
474.03	6026.88
474.21	6064.33
474.39	5982.41
474.57	6150.93
474.75	6157.95
474.93	6190.72
475.12	6141.57
475.30	6305.40
475.48	6265.61
475.66	6321.79
475.84	6401.37
476.02	6256.25
476.20	6392.00
476.38	6408.39
476.56	6462.22
476.74	6633.08
476.92	6420.09
477.10	6520.73
477.28	6675.21
477.46	6764.15
477.64	6693.93
477.82	6764.15
478.00	6899.90
478.18	6932.67
478.36	6995.86
478.54	7056.72
478.72	7159.70
478.90	7045.01
479.08	7148.00
479.26	7155.02
479.44	7124.59
479.62	7332.90
479.80	7520.14
479.98	7449.93
480.16	7452.27
480.34	7604.40
480.52	7737.81
480.70	7590.36
480.88	7590.36
481.06	7698.02
481.24	7765.90
481.41	7726.11
481.59	8021.02
481.77	8013.99
481.95	7971.86
482.13	8168.47
482.31	7971.86
482.49	8367.42
482.67	8245.71
482.85	8262.09
483.03	8491.46
483.21	8402.52
483.39	8685.73
483.57	8758.28
483.74	8519.55
483.92	8912.76
484.10	8887.01
484.28	8943.19
484.46	8985.32
484.64	9043.83
484.82	8990.00
485.00	9240.44
485.18	9240.44
485.35	9720.24
485.53	9472.15
485.71	9657.05
485.89	9736.63
486.07	9673.43
486.25	9556.41
486.43	9781.10
486.61	9846.63
486.78	10101.75
486.96	9921.53
487.14	10375.59
487.32	10143.88
487.50	10155.58
487.68	10258.57
487.85	10303.04
488.03	10422.41
488.21	10705.61
488.39	10574.54
488.57	10658.80
488.75	10717.31
488.92	10677.52
489.10	11068.39
489.28	10974.77
489.46	10944.34
489.64	11122.23
489.81	11384.37
489.99	11330.53
490.17	11410.11
490.35	11754.17
490.53	11414.79
490.70	11882.90
490.88	11698.00
491.06	11634.80
491.24	11831.41
491.41	11782.26
491.59	11742.47
491.77	11967.16
491.95	12266.75
492.13	12184.83
492.30	12276.11
492.48	12453.99
492.66	12315.90
492.84	12432.93
493.01	12631.87
493.19	12397.82
493.37	12648.26
493.54	12704.43
493.72	12760.60
493.90	12947.84
494.08	12957.21
494.25	13312.97
494.43	13057.85
494.61	13174.88
494.79	13259.13
494.96	13366.80
495.14	13516.59
495.32	13703.84
495.49	13509.57
495.67	13586.81
495.85	13851.29
496.02	13865.33
496.20	13678.09
496.38	13989.38
496.55	14132.15
496.73	14499.62
496.91	14008.11
497.09	14410.68
497.26	14202.37
497.44	14410.68
497.62	14626.01
497.79	14649.41
497.97	14434.08
498.14	14520.68
498.32	14707.93
498.50	14740.69
498.67	15082.41
498.85	14904.53
499.03	15206.46
499.20	15241.57
499.38	15346.89
499.56	15241.57
499.73	15482.64
499.91	15452.22
500.08	15756.49
500.26	15424.13
500.44	15669.89
500.61	15517.75
500.79	15676.91
500.97	15765.85
501.14	15445.20
501.32	15754.15
501.49	15735.42
501.67	15719.04
501.84	15679.25
502.02	16255.02
502.20	16358.00
502.37	16210.55
502.55	15988.20
502.72	16568.65
502.90	16159.06
503.07	16098.20
503.25	16252.68
503.43	16262.04
503.60	16627.17
503.78	16641.21
503.95	16716.11
504.13	16627.17
504.30	16627.17
504.48	16657.59
504.65	16893.99
504.83	16842.50
505.01	17034.42
505.18	17273.15
505.36	17153.79
505.53	17060.16
505.71	16973.56
505.88	17282.52
506.06	17137.40
506.23	17404.22
506.41	17392.52
506.58	17589.13
506.76	17565.72
506.93	17242.73
507.11	17509.55
507.28	17743.60
507.46	17504.87
507.63	17846.58
507.81	17692.11
507.98	17778.71
508.16	18061.91
508.33	17874.67
508.50	17858.29
508.68	17998.72
508.85	18160.22
509.03	18267.88
509.20	18150.85
509.38	18169.58
509.55	18590.88
509.73	18637.69
509.90	18459.81
510.08	18349.80
510.25	18700.88
510.42	18726.63
510.60	18848.33
510.77	18824.93
510.95	18890.46
511.12	18614.28
511.30	18820.25
511.47	18939.62
511.64	19096.43
511.82	18822.59
511.99	19206.44
512.17	18974.72
512.34	18920.89
512.51	19110.47
512.69	19197.07
512.86	19187.71
513.04	19812.63
513.21	19403.04
513.38	19520.07
513.56	19803.27
513.73	19676.88
513.90	19894.55
514.08	19625.39
514.25	19709.65
514.43	19632.41
514.60	19946.05
514.77	19831.36
514.95	19978.81
515.12	19875.83
515.29	20018.60
515.47	20128.61
515.64	20180.10
515.81	20287.76
515.99	20074.77
516.16	20465.64
516.33	20491.39
516.51	20688.00
516.68	20535.86
516.85	20233.93
517.03	20400.11
517.20	20765.23
517.37	20615.44
517.54	20856.51
517.72	20713.74
517.89	20823.75
518.06	20678.63
518.24	20505.43
518.41	20467.98
518.58	20844.81
518.75	20849.49
518.93	20821.41
519.10	20980.56
519.27	21039.08
519.45	21099.93
519.62	21207.59
519.79	21212.28
519.96	21207.59
520.14	21125.68
520.31	21411.22
520.48	21446.33
520.65	21418.24
520.83	21408.88
521.00	21385.47
521.17	21619.53
521.34	21207.59
521.52	21532.93
521.69	21839.54
521.86	21743.58
522.03	22281.90
522.20	22036.14
522.38	21984.65
522.55	22010.40
522.72	21949.54
522.89	22052.53
523.07	22321.69
523.24	21977.63
523.41	22483.19
523.58	21825.50
523.75	22312.33
523.92	22031.46
524.10	22466.80
524.27	22595.53
524.44	22354.46
524.61	22932.57
524.78	22855.33
524.96	22628.30
525.13	22441.06
525.30	22696.17
525.47	22548.72
525.64	22782.77
525.81	22764.05
525.98	22890.44
526.16	22780.43
526.33	22794.48
526.50	23040.23
526.67	22752.35
526.84	22890.44
527.01	23154.92
527.18	23115.13
527.36	23353.87
527.53	23398.34
527.70	23487.28
527.87	23452.17
528.04	23449.83
528.21	23445.15
528.38	23318.76
528.55	23227.48
528.72	23335.14
528.89	23779.84
529.07	23435.78
529.24	23590.26
529.41	23803.25
529.58	23644.09
529.75	23534.09
529.92	23616.01
530.09	23592.60
530.26	23740.05
530.43	24058.37
530.60	23782.18
530.77	23611.32
530.94	23714.31
531.11	23765.80
531.28	23772.82
531.46	23814.95
531.63	23896.87
531.80	24049.00
531.97	24114.54
532.14	24409.45
532.31	24360.30
532.48	24161.35
532.65	24676.27
532.82	24299.44
532.99	24278.38
533.16	24669.25
533.33	24294.76
533.50	25032.03
533.67	24797.98
533.84	24329.87
534.01	24339.23
534.18	24278.38
534.35	25055.43
534.52	24357.96
534.69	24790.95
534.86	25219.27
535.03	24837.76
535.20	24933.73
535.37	24711.38
535.54	24807.34
535.71	24545.20
535.88	25156.08
536.05	25003.94
536.22	24966.49
536.38	24978.20
536.55	25181.82
536.72	25153.74
536.89	24882.24
537.06	25481.41
537.23	25111.61
537.40	25083.52
537.57	25160.76
537.74	25455.67
537.91	25551.63
538.08	25532.90
538.25	24858.83
538.42	25369.07
538.59	25563.33
538.75	25242.68
538.92	25179.48
539.09	25366.73
539.26	25701.42
539.43	25465.03
539.60	25708.44
539.77	25596.10
539.94	25621.84
540.11	25551.63
540.28	25666.31
540.44	25682.70
540.61	25535.24
540.78	25472.05
540.95	25855.90
541.12	25776.32
541.29	25961.22
541.46	25951.86
541.62	25979.95
541.79	26202.30
541.96	25750.57
542.13	26338.05
542.30	25806.75
542.47	26174.21
542.63	26040.80
542.80	26316.98
542.97	26691.47
543.14	26412.95
543.31	26267.83
543.48	26544.02
543.64	26785.09
543.81	26628.27
543.98	27016.80
544.15	26558.06
544.32	26696.15
544.48	26569.76
544.65	26937.23
544.82	26787.43
544.99	26321.66
545.16	26780.41
545.32	26600.19
545.49	27110.43
545.66	27012.12
545.83	26796.79
546.00	27367.88
546.16	26986.38
546.33	26682.11
546.50	26939.57
546.67	26757.00
546.83	27047.23
547.00	27182.98
547.17	26813.18
547.34	26948.93
547.50	27152.55
547.67	27185.32
547.84	27470.87
548.00	27094.04
548.17	27513.00
548.34	27386.61
548.51	27388.95
548.67	27431.08
548.84	27807.90
549.01	27625.34
549.18	27381.93
549.34	27255.54
549.51	27379.59
549.68	27232.13
549.84	27276.60
550.01	27529.38
550.18	27402.99
550.34	27660.45
550.51	27534.06
550.68	27339.80
550.84	27690.88
551.01	27545.76
551.18	27225.11
551.34	27370.22
551.51	27407.67
551.68	27758.75
551.84	27536.40
552.01	27978.76
552.18	27917.91
552.34	27833.65
552.51	27667.47
552.68	27962.38
552.84	28072.39
553.01	28250.27
553.18	28081.75
553.34	28027.92
553.51	27906.21
553.67	28362.61
553.84	28025.57
554.01	28542.83
554.17	28166.01
554.34	28374.31
554.51	28121.54
554.67	28198.77
554.84	28191.75
555.00	28063.02
555.17	28240.90
555.33	28334.53
555.50	28308.78
555.67	28332.18
555.83	27995.15
556.00	28332.18
556.16	28503.04
556.33	28250.27
556.50	28383.68
556.66	28697.31
556.83	28346.23
556.99	28940.72
557.16	28744.12
557.32	28776.89
557.49	28861.15
557.65	28077.07
557.82	28694.97
557.98	28755.82
558.15	28797.95
558.32	28704.33
558.48	28556.88
558.65	28701.99
558.81	28713.69
558.98	28804.97
559.14	28999.24
559.31	28594.32
559.47	28744.12
559.64	28936.04
559.80	28947.75
559.97	28793.27
560.13	28907.96
560.30	28638.80
560.46	28734.76
560.63	29113.92
560.79	28833.06
560.96	29317.55
561.12	29174.78
561.29	28725.39
561.45	28720.71
561.61	29039.03
561.78	29090.52
561.94	29472.03
562.11	29240.31
562.27	28940.72
562.44	28854.12
562.60	29127.97
562.77	29214.57
562.93	29490.75
563.10	29333.93
563.26	29483.73
563.42	29626.50
563.59	29254.36
563.75	28945.41
563.92	29156.05
564.08	29078.82
564.24	28856.46
564.41	29240.31
564.57	28828.38
564.74	29036.69
564.90	29252.02
565.07	29434.58
565.23	29780.98
565.39	29383.09
565.56	29663.95
565.72	29202.86
565.88	29212.23
566.05	28989.88
566.21	29259.04
566.38	29261.38
566.54	29392.45
566.70	29439.26
566.87	29869.92
567.03	29642.88
567.19	29659.27
567.36	29432.24
567.52	29521.18
567.68	29738.85
567.85	29441.60
568.01	29436.92
568.17	29310.53
568.34	29591.39
568.50	29638.20
568.66	29762.25
568.83	29935.45
568.99	29539.90
569.15	29413.51
569.32	29425.22
569.48	29603.10
569.64	29736.51
569.81	29570.33
569.97	29287.12
570.13	29773.95
570.30	29490.75
570.46	30082.91
570.62	29429.90
570.78	29397.13
570.95	29219.25
571.11	29876.94
571.27	29455.64
571.43	29439.26
571.60	30174.19
571.76	29432.24
571.92	29968.22
572.09	29813.74
572.25	29788.00
572.41	29963.54
572.57	29872.26
572.74	29914.39
572.90	29654.59
573.06	30089.93
573.22	29486.07
573.38	29502.45
573.55	29827.79
573.71	29809.06
573.87	30050.14
574.03	29771.61
574.20	29823.11
574.36	29830.13
574.52	29893.32
574.68	29860.55
574.84	29762.25
575.01	30181.21
575.17	29872.26
575.33	29582.03
575.49	29762.25
575.65	29996.31
575.82	29972.90
575.98	29532.88
576.14	29837.15
576.30	29993.97
576.46	29806.72
576.62	29633.52
576.79	29965.88
576.95	29830.13
577.11	30366.11
577.27	29862.90
577.43	30031.41
577.59	29762.25
577.75	30019.71
577.92	29549.26
578.08	29638.20
578.24	29659.27
578.40	30012.69
578.56	30132.06
578.72	30096.95
578.88	30331.00
579.04	29806.72
579.21	30050.14
579.37	29958.86
579.53	30410.58
579.69	29771.61
579.85	30050.14
580.01	30436.33
580.17	29558.63
580.33	30192.91
580.49	29759.91
580.65	29832.47
580.82	29993.97
580.98	30237.38
581.14	29993.97
581.30	30204.61
581.46	30216.32
581.62	29694.38
581.78	29820.77
581.94	29961.20
582.10	29766.93
582.26	30188.23
582.42	30099.29
582.58	30246.74
582.74	30237.38
582.90	29993.97
583.06	30012.69
583.22	29991.62
583.38	30103.97
583.54	29715.44
583.70	30471.43
583.86	30239.72
584.02	30209.29
584.18	30305.26
584.34	30122.69
584.50	30139.08
584.66	30003.33
584.82	30052.48
584.98	30174.19
585.14	30218.66
585.30	29773.95
585.46	30366.11
585.62	29954.18
585.78	30284.19
585.94	29912.05
586.10	30611.87
586.26	29989.28
586.42	30075.88
586.58	30466.75
586.74	30087.59
586.90	29977.58
587.06	30204.61
587.22	30459.73
587.38	30305.26
587.54	30106.31
587.70	30646.97
587.86	30569.74
588.02	30684.42
588.18	30396.54
588.34	30178.87
588.49	30216.32
588.65	30202.27
588.81	29867.58
588.97	30464.41
589.13	30293.55
589.29	30316.96
589.45	30560.37
589.61	30581.44
589.77	30239.72
589.93	30286.53
590.08	30724.21
590.24	30265.47
590.40	30525.27
590.56	30536.97
590.72	30300.58
590.88	30061.84
591.04	30354.41
591.20	30836.56
591.35	30614.21
591.51	30611.87
591.67	30906.77
591.83	30838.90
591.99	30515.90
