SpectraSuite Data File
++++++++++++++++++++++++++++++++++++
Date: Fri Oct 18 13:57:54 GMT-05:00 2013
User: bianchi
Dark Spectrum Present: No
Reference Spectrum Present: No
Number of Sampled Component Spectra: 1
Spectrometers: USB2+H05261
Integration Time (usec): 50000 (USB2+H05261)
Spectra Averaged: 1 (USB2+H05261)
Boxcar Smoothing: 0 (USB2+H05261)
Correct for Electrical Dark: No (USB2+H05261)
Strobe/Lamp Enabled: No (USB2+H05261)
Correct for Detector Non-linearity: No (USB2+H05261)
Correct for Stray Light: No (USB2+H05261)
Number of Pixels in Processed Spectrum: 2048
>>>>>Begin Processed Spectral Data<<<<<
365.73	0.00
365.92	0.00
366.12	0.00
366.32	0.00
366.52	0.00
366.72	0.00
366.91	0.00
367.11	0.00
367.31	0.00
367.51	0.00
367.70	0.00
367.90	0.00
368.10	0.00
368.30	0.00
368.49	0.00
368.69	0.00
368.89	0.00
369.09	0.00
369.28	0.00
369.48	0.00
369.68	0.00
369.87	0.00
370.07	0.00
370.27	0.00
370.47	0.00
370.66	114.69
370.86	91.28
371.06	102.98
371.25	189.58
371.45	142.77
371.65	191.92
371.84	112.35
372.04	53.83
372.24	217.67
372.44	243.42
372.63	203.63
372.83	166.18
373.03	152.13
373.22	224.69
373.42	194.26
373.62	227.03
373.81	196.60
374.01	215.33
374.21	166.18
374.40	245.76
374.60	229.37
374.79	245.76
374.99	294.91
375.19	285.55
375.38	252.78
375.58	285.55
375.78	283.20
375.97	283.20
376.17	283.20
376.37	320.65
376.56	264.48
376.76	224.69
376.95	283.20
377.15	252.78
377.35	304.27
377.54	224.69
377.74	234.05
377.93	325.33
378.13	227.03
378.33	297.25
378.52	297.25
378.72	334.70
378.91	227.03
379.11	327.68
379.31	355.76
379.50	311.29
379.70	365.12
379.89	301.93
380.09	285.55
380.28	348.74
380.48	257.46
380.68	346.40
380.87	269.16
381.07	297.25
381.26	304.27
381.46	280.86
381.65	301.93
381.85	278.52
382.04	322.99
382.24	367.46
382.43	351.08
382.63	421.30
382.83	337.04
383.02	365.12
383.22	416.62
383.41	362.78
383.61	351.08
383.80	449.38
384.00	440.02
384.19	444.70
384.39	411.93
384.58	381.51
384.78	433.00
384.97	433.00
385.17	411.93
385.36	442.36
385.56	379.17
385.75	339.38
385.95	400.23
386.14	397.89
386.34	449.38
386.53	409.59
386.72	433.00
386.92	397.89
387.11	451.72
387.31	414.27
387.50	402.57
387.70	470.45
387.89	383.85
388.09	454.06
388.28	421.30
388.48	521.94
388.67	484.49
388.86	414.27
389.06	496.19
389.25	500.87
389.45	498.53
389.64	521.94
389.84	428.32
390.03	521.94
390.22	475.13
390.42	435.34
390.61	514.92
390.81	461.09
391.00	489.17
391.19	557.05
391.39	575.77
391.58	470.45
391.78	573.43
391.97	557.05
392.16	519.60
392.36	582.79
392.55	561.73
392.75	461.09
392.94	613.22
393.13	561.73
393.33	533.64
393.52	533.64
393.71	603.86
393.91	645.99
394.10	638.97
394.29	650.67
394.49	589.82
394.68	620.24
394.88	603.86
395.07	695.14
395.26	627.26
395.46	627.26
395.65	603.86
395.84	617.90
396.04	622.58
396.23	653.01
396.42	699.82
396.62	601.52
396.81	636.63
397.00	662.37
397.19	699.82
397.39	753.65
397.58	753.65
397.77	667.05
397.97	683.44
398.16	739.61
398.35	718.54
398.55	709.18
398.74	758.33
398.93	823.87
399.12	683.44
399.32	732.59
399.51	793.44
399.70	842.59
399.90	763.01
400.09	744.29
400.28	809.83
400.47	770.04
400.67	763.01
400.86	851.96
401.05	849.61
401.24	840.25
401.44	802.80
401.63	842.59
401.82	819.19
402.01	800.46
402.21	842.59
402.40	882.38
402.59	774.72
402.78	910.47
402.97	898.77
403.17	894.08
403.36	903.45
403.55	924.51
403.74	943.24
403.93	929.19
404.13	922.17
404.32	952.60
404.51	915.15
404.70	912.81
404.89	971.32
405.09	987.71
405.28	947.92
405.47	978.34
405.66	1043.88
405.85	1060.26
406.05	1069.62
406.24	968.98
406.43	954.94
406.62	1013.45
406.81	1011.11
407.00	1046.22
407.20	1111.75
407.39	994.73
407.58	1125.80
407.77	1137.50
407.96	1034.52
408.15	1128.14
408.34	1109.41
408.54	1086.01
408.73	1172.61
408.92	1107.07
409.11	1167.93
409.30	1205.38
409.49	1184.31
409.68	1146.86
409.87	1100.05
410.07	1303.68
410.26	1217.08
410.45	1200.69
410.64	1261.55
410.83	1240.48
411.02	1221.76
411.21	1188.99
411.40	1301.34
411.59	1327.08
411.78	1350.49
411.98	1254.53
412.17	1303.68
412.36	1336.45
412.55	1317.72
412.74	1409.00
412.93	1329.42
413.12	1280.27
413.31	1476.88
413.50	1343.47
413.69	1423.05
413.88	1371.55
414.07	1502.62
414.26	1406.66
414.45	1432.41
414.64	1476.88
414.83	1455.81
415.02	1469.86
415.22	1533.05
415.41	1696.89
415.60	1589.22
415.79	1612.63
415.98	1624.33
416.17	1727.32
416.36	1640.72
416.55	1668.80
416.74	1699.23
416.93	1603.27
417.12	1750.72
417.31	1685.19
417.50	1699.23
417.69	1816.26
417.88	1774.13
418.07	1734.34
418.26	1732.00
418.45	1837.32
418.64	1792.85
418.83	1849.02
419.02	1827.96
419.21	1900.52
419.39	1860.73
419.58	1732.00
419.77	1825.62
419.96	1886.47
420.15	1884.13
420.34	1809.23
420.53	1998.82
420.72	1966.05
420.91	1998.82
421.10	1959.03
421.29	2106.48
421.48	1844.34
421.67	1912.22
421.86	1928.60
422.05	2038.61
422.24	2017.54
422.43	2033.93
422.61	2134.57
422.80	2134.57
422.99	2069.03
423.18	2188.40
423.37	2083.08
423.56	2111.16
423.75	2012.86
423.94	2008.18
424.13	1870.09
424.32	1909.88
424.50	2092.44
424.69	2207.13
424.88	2204.78
425.07	2092.44
425.26	1996.48
425.45	2050.31
425.64	2073.71
425.83	2157.97
426.01	2083.08
426.20	2120.53
426.39	2090.10
426.58	2172.02
426.77	2087.76
426.96	2160.31
427.15	2165.00
427.33	2214.15
427.52	2188.40
427.71	2228.19
427.90	2218.83
428.09	2296.07
428.28	2193.08
428.46	2291.38
428.65	2232.87
428.84	2286.70
429.03	2382.67
429.22	2197.76
429.40	2448.20
429.59	2415.43
429.78	2216.49
429.97	2174.36
430.16	2340.54
430.34	2356.92
430.53	2422.45
430.72	2293.72
430.91	2321.81
431.10	2363.94
431.28	2417.77
431.47	2450.54
431.66	2389.69
431.85	2448.20
432.03	2546.50
432.22	2466.92
432.41	2480.97
432.60	2406.07
432.79	2459.90
432.97	2551.18
433.16	2548.84
433.35	2560.55
433.54	2525.44
433.72	2567.57
433.91	2579.27
434.10	2565.23
434.28	2703.32
434.47	2605.02
434.66	2656.51
434.85	2693.96
435.03	2705.66
435.22	2724.38
435.41	2813.32
435.59	2827.37
435.78	2651.83
435.97	2796.94
436.16	2661.19
436.34	2752.47
436.53	2766.51
436.72	2897.58
436.90	2787.58
437.09	2864.82
437.28	2703.32
437.46	2708.00
437.65	2825.03
437.84	2897.58
438.02	2853.11
438.21	2855.45
438.40	2810.98
438.58	2977.16
438.77	2972.48
438.96	2869.50
439.14	3045.04
439.33	3019.29
439.52	3000.57
439.70	3042.70
439.89	3119.93
440.08	3180.79
440.26	3052.06
440.45	3164.40
440.63	3185.47
440.82	3267.39
441.01	3225.26
441.19	3346.97
441.38	3290.79
441.57	3297.81
441.75	3314.20
441.94	3297.81
442.12	3304.84
442.31	3382.07
442.50	3440.59
442.68	3346.97
442.87	3346.97
443.05	3471.01
443.24	3478.04
443.43	3517.83
443.61	3550.59
443.80	3435.91
443.98	3435.91
444.17	3365.69
444.35	3639.53
444.54	3548.25
444.73	3398.46
444.91	3585.70
445.10	3630.17
445.28	3454.63
445.47	3506.12
445.65	3543.57
445.84	3616.13
446.02	3496.76
446.21	3562.30
446.39	3529.53
446.58	3770.60
446.77	3583.36
446.95	3421.86
447.14	3691.02
447.32	3581.02
447.51	3669.96
447.69	3566.98
447.88	3637.19
448.06	3578.68
448.25	3482.72
448.43	3566.98
448.62	3562.30
448.80	3597.40
448.99	3637.19
449.17	3676.98
449.36	3742.52
449.54	3751.88
449.73	3871.25
449.91	3740.18
450.10	3566.98
450.28	3922.74
450.46	3875.93
450.65	3765.92
450.83	3889.97
451.02	3908.69
451.20	3850.18
451.39	3964.87
451.57	3911.04
451.76	3906.35
451.94	3836.14
452.13	3943.80
452.31	3904.01
452.49	3817.41
452.68	3990.61
452.86	3943.80
453.05	4135.73
453.23	4081.89
453.42	3969.55
453.60	3995.29
453.78	4051.47
453.97	3936.78
454.15	4035.08
454.34	4002.32
454.52	4053.81
454.70	3985.93
454.89	4142.75
455.07	4245.73
455.26	4163.81
455.44	4180.20
455.62	4121.68
455.81	4210.62
455.99	4142.75
456.17	4224.67
456.36	4353.40
456.54	4318.29
456.73	4236.37
456.91	4444.68
457.09	4418.93
457.28	4498.51
457.46	4475.10
457.64	4535.96
457.83	4418.93
458.01	4404.89
458.19	4617.88
458.38	4535.96
458.56	4610.86
458.74	4734.90
458.93	4664.69
459.11	4447.02
459.29	4519.57
459.48	4683.41
459.66	4575.75
459.84	4683.41
460.03	4610.86
460.21	4645.96
460.39	4627.24
460.57	4645.96
460.76	4690.43
460.94	4891.72
461.12	4692.77
461.31	4676.39
461.49	4772.35
461.67	4674.05
461.85	4880.02
462.04	4793.42
462.22	5146.84
462.40	4887.04
462.59	4898.74
462.77	4805.12
462.95	4877.68
463.13	4753.63
463.32	4884.70
463.50	5062.58
463.68	5111.73
463.86	4973.64
464.05	4975.98
464.23	4924.49
464.41	5205.35
464.59	5020.45
464.78	5195.99
464.96	5083.64
465.14	5060.24
465.32	5160.88
465.50	5245.14
465.69	5125.77
465.87	5139.82
466.05	5071.94
466.23	5170.24
466.41	5188.97
466.60	5329.40
466.78	5130.45
466.96	5128.11
467.14	5317.70
467.32	5291.95
467.51	5383.23
467.69	5128.11
467.87	5238.12
468.05	5355.15
468.23	5205.35
468.41	5313.02
468.60	5259.18
468.78	5394.93
468.96	5273.23
469.14	5568.13
469.32	5446.43
469.50	5308.34
469.69	5621.97
469.87	5774.10
470.05	5540.05
470.23	5523.66
470.41	5551.75
470.59	5500.26
470.77	5551.75
470.95	5659.42
471.14	5589.20
471.32	5607.92
471.50	5811.55
471.68	5710.91
471.86	5809.21
472.04	5776.44
472.22	5944.96
472.40	5678.14
472.58	5930.92
472.77	5856.02
472.95	6010.50
473.13	6305.40
473.31	5973.05
473.49	6115.82
473.67	6195.40
473.85	6022.20
474.03	6167.31
474.21	6272.64
474.39	6279.66
474.57	6321.79
474.75	6399.02
474.93	6509.03
475.12	6286.68
475.30	6600.31
475.48	6237.53
475.66	6670.53
475.84	6502.01
476.02	6464.56
476.20	6574.56
476.38	6590.95
476.56	6717.34
476.74	6700.95
476.92	6698.61
477.10	6935.01
477.28	6773.51
477.46	6672.87
477.64	6885.86
477.82	7112.89
478.00	7019.27
478.18	7173.74
478.36	7363.33
478.54	7250.98
478.72	7449.93
478.90	7255.66
479.08	7379.71
479.26	7454.61
479.44	7557.59
479.62	7588.02
479.80	7658.23
479.98	7726.11
480.16	7941.44
480.34	7742.49
480.52	7777.60
480.70	7948.46
480.88	7901.65
481.06	7936.76
481.24	7784.62
481.41	7999.95
481.59	8217.62
481.77	8418.91
481.95	8215.28
482.13	8276.13
482.31	8416.57
482.49	8491.46
482.67	8741.90
482.85	8713.81
483.03	8468.06
483.21	8964.25
483.39	8889.35
483.57	8727.86
483.74	8896.38
483.92	8854.25
484.10	9015.74
484.28	9231.07
484.46	9465.13
484.64	9275.54
484.82	9394.91
485.00	9432.36
485.18	9563.43
485.35	9603.22
485.53	9872.38
485.71	9928.55
485.89	9839.61
486.07	9797.48
486.25	9809.19
486.43	10071.33
486.61	10019.83
486.78	10017.49
486.96	10335.81
487.14	10249.21
487.32	10565.18
487.50	10356.87
487.68	10504.32
487.85	10747.74
488.03	10832.00
488.21	10913.92
488.39	10953.71
488.57	10836.68
488.75	11080.10
488.92	11269.68
489.10	11176.06
489.28	11157.33
489.46	11410.11
489.64	11482.67
489.81	11777.58
489.99	11571.61
490.17	11672.25
490.35	11918.01
490.53	11751.83
490.70	11974.18
490.88	12149.72
491.06	12343.99
491.24	12180.15
491.41	12016.31
491.59	12107.59
491.77	12521.87
491.95	12622.51
492.13	12468.03
492.30	12514.84
492.48	12636.55
492.66	12779.32
492.84	13121.04
493.01	13074.23
493.19	12989.97
493.37	13303.60
493.54	13275.52
493.72	13322.33
493.90	13334.03
494.08	13460.42
494.25	13563.40
494.43	13547.02
494.61	13460.42
494.79	13650.00
494.96	13752.99
495.14	13839.59
495.32	14029.17
495.49	13975.34
495.67	14183.65
495.85	14319.40
496.02	14085.34
496.20	14232.80
496.38	14281.95
496.55	14225.78
496.73	14839.00
496.91	14544.09
497.09	14862.40
497.26	14721.97
497.44	14822.61
497.62	14860.06
497.79	14850.70
497.97	14906.87
498.14	15108.16
498.32	15136.24
498.50	15515.41
498.67	15527.11
498.85	15183.06
499.03	15470.94
499.20	15637.12
499.38	15513.07
499.56	15683.93
499.73	15866.49
499.91	15908.62
500.08	15929.69
500.26	15861.81
500.44	15878.19
500.61	15901.60
500.79	15960.11
500.97	16147.36
501.14	16362.69
501.32	16318.22
501.49	16140.33
501.67	16219.91
501.84	16678.66
502.02	16589.72
502.20	16650.57
502.37	16641.21
502.55	16482.05
502.72	16791.00
502.90	16936.12
503.07	16884.62
503.25	16622.48
503.43	16931.44
503.60	17062.51
503.78	17015.69
503.95	17048.46
504.13	17144.42
504.30	17348.05
504.48	16982.93
504.65	17345.71
504.83	17687.43
505.01	17905.10
505.18	17600.83
505.36	17649.98
505.53	17685.09
505.71	17631.26
505.88	17759.98
506.06	17596.15
506.23	17795.09
506.41	17921.48
506.58	18169.58
506.76	17774.03
506.93	18171.92
507.11	18195.32
507.28	18157.88
507.46	17996.38
507.63	18120.43
507.81	18494.91
507.98	18277.24
508.16	18574.49
508.33	18630.66
508.50	18497.25
508.68	18511.30
508.85	18717.26
509.03	18764.07
509.20	18778.12
509.38	18897.49
509.55	19323.46
509.73	18813.23
509.90	19171.33
510.08	19037.92
510.25	19105.79
510.42	19435.81
510.60	19302.40
510.77	19220.48
510.95	19459.21
511.12	19363.25
511.30	19180.69
511.47	19190.05
511.64	19501.34
511.82	19424.11
511.99	19466.24
512.17	19634.75
512.34	19744.76
512.51	19852.42
512.69	20053.71
512.86	20025.62
513.04	19941.36
513.21	19974.13
513.38	20203.50
513.56	19700.29
513.73	20257.34
513.90	20341.60
514.08	20086.48
514.25	20308.83
514.43	20475.01
514.60	20327.55
514.77	20395.43
514.95	20669.27
515.12	20470.33
515.29	20212.87
515.47	20840.13
515.64	20783.96
515.81	20933.75
515.99	21109.29
516.16	20861.19
516.33	21083.55
516.51	21095.25
516.68	21177.17
516.85	21027.37
517.03	21092.91
517.20	21027.37
517.37	21130.36
517.54	21284.83
517.72	21443.99
517.89	21612.51
518.06	21165.46
518.24	21156.10
518.41	21193.55
518.58	21303.56
518.75	21362.07
518.93	21605.49
519.10	21689.74
519.27	21977.63
519.45	21741.24
519.62	21635.91
519.79	21647.61
519.96	21933.16
520.14	21947.20
520.31	22057.21
520.48	22001.04
520.65	21706.13
520.83	22408.29
521.00	21977.63
521.17	22012.74
521.34	22436.38
521.52	22286.58
521.69	22583.83
521.86	22412.97
522.03	22520.63
522.20	22469.14
522.38	22595.53
522.55	22441.06
522.72	22600.21
522.89	22932.57
523.07	22869.37
523.24	22684.47
523.41	23267.27
523.58	22562.76
523.75	22953.63
523.92	23012.15
524.10	22705.54
524.27	22941.93
524.44	23173.64
524.61	23653.45
524.78	23372.59
524.96	23367.91
525.13	23103.43
525.30	23227.48
525.47	23749.42
525.64	23232.16
525.81	23564.51
525.98	23426.42
526.16	23611.32
526.33	23435.78
526.50	23789.20
526.67	23559.83
526.84	23775.16
527.01	23826.65
527.18	23676.86
527.36	23974.11
527.53	23857.08
527.70	24226.89
527.87	23988.15
528.04	24109.86
528.21	24292.42
528.38	24027.94
528.55	24311.14
528.72	23985.81
528.89	24460.94
529.07	24217.52
529.24	24257.31
529.41	24477.32
529.58	24144.97
529.75	24210.50
529.92	23917.93
530.09	24194.12
530.26	24526.47
530.43	24430.51
530.60	24411.79
530.77	24570.94
530.94	24774.57
531.11	24374.34
531.28	24837.76
531.46	24341.57
531.63	24863.51
531.80	25083.52
531.97	25165.44
532.14	25132.67
532.31	24957.13
532.48	24833.08
532.65	24994.58
532.82	24725.42
532.99	24957.13
533.16	24982.88
533.33	25530.56
533.50	25296.51
533.67	25165.44
533.84	24858.83
534.01	25186.50
534.18	24973.52
534.35	25333.96
534.52	25399.49
534.69	25333.96
534.86	25968.24
535.03	25507.16
535.20	25621.84
535.37	25500.14
535.54	25570.35
535.71	25481.41
535.88	25553.97
536.05	25556.31
536.22	26015.05
536.38	25687.38
536.55	25928.45
536.72	25930.80
536.89	25692.06
537.06	25820.79
537.23	26139.10
537.40	25809.09
537.57	25881.64
537.74	26162.51
537.91	26426.99
538.08	26228.04
538.25	26050.16
538.42	26279.54
538.59	26190.59
538.75	25834.83
538.92	26281.88
539.09	26422.31
539.26	26377.84
539.43	26169.53
539.60	26590.83
539.77	26473.80
539.94	26780.41
540.11	26347.41
540.28	26419.97
540.44	26675.09
540.61	26333.37
540.78	26368.48
540.95	26799.13
541.12	26415.29
541.29	26567.42
541.46	26600.19
541.62	26572.10
541.79	26876.37
541.96	26778.07
542.13	26789.77
542.30	27208.73
542.47	27028.51
542.63	27300.01
542.80	26932.54
542.97	27285.97
543.14	27407.67
543.31	27239.15
543.48	27094.04
543.64	27246.18
543.81	27386.61
543.98	27857.06
544.15	27473.21
544.32	27449.80
544.48	27452.14
544.65	27585.55
544.82	27204.05
544.99	27487.25
545.16	27702.58
545.32	27522.36
545.49	27999.83
545.66	27999.83
545.83	27756.41
546.00	28023.23
546.16	27524.70
546.33	27599.60
546.50	27440.44
546.67	27857.06
546.83	27615.98
547.00	27761.09
547.17	27913.23
547.34	28037.28
547.50	28058.34
547.67	27887.48
547.84	27950.68
548.00	28276.01
548.17	28196.43
548.34	27981.10
548.51	28261.97
548.67	28123.88
548.84	28088.77
549.01	28198.77
549.18	28067.70
549.34	28161.33
549.51	28210.48
549.68	28411.76
549.84	28489.00
550.01	28360.27
550.18	28554.54
550.34	28381.34
550.51	28767.52
550.68	28439.85
550.84	28781.57
551.01	28243.24
551.18	28311.12
551.34	28231.54
551.51	28657.52
551.68	28830.72
551.84	28620.07
552.01	28814.34
552.18	28917.32
552.34	28790.93
552.51	28697.31
552.68	28980.51
552.84	28914.98
553.01	29177.12
553.18	28704.33
553.34	29212.23
553.51	28683.27
553.67	29289.46
553.84	29654.59
554.01	28996.90
554.17	29329.25
554.34	28943.06
554.51	29184.14
554.67	28994.56
554.84	29020.30
555.00	29214.57
555.17	29355.00
555.33	29146.69
555.50	29282.44
555.67	29088.18
555.83	29022.64
556.00	29537.56
556.16	29710.76
556.33	29511.81
556.50	29607.78
556.66	29383.09
556.83	29965.88
556.99	29724.80
557.16	29862.90
557.32	29710.76
557.49	29483.73
557.65	29291.80
557.82	29355.00
557.98	29579.69
558.15	30036.09
558.32	29160.73
558.48	29369.04
558.65	30038.44
558.81	29663.95
558.98	29813.74
559.14	29483.73
559.31	29673.31
559.47	29860.55
559.64	30057.16
559.80	29792.68
559.97	29977.58
560.13	29905.02
560.30	29582.03
560.46	29846.51
560.63	29989.28
560.79	30146.10
560.96	29855.87
561.12	29879.28
561.29	30256.11
561.45	29460.32
561.61	30008.01
561.78	30132.06
561.94	30054.82
562.11	29876.94
562.27	29916.73
562.44	30197.59
562.60	30019.71
562.77	29951.84
562.93	29914.39
563.10	30331.00
563.26	30099.29
563.42	30328.66
563.59	29792.68
563.75	29752.89
563.92	29968.22
564.08	30061.84
564.24	30333.34
564.41	29687.36
564.57	30274.83
564.74	30176.53
564.90	30766.34
565.07	30731.23
565.23	30380.15
565.39	30576.76
565.56	30274.83
565.72	30403.56
565.88	30462.07
566.05	30066.52
566.21	30298.23
566.38	30246.74
566.54	30515.90
566.70	30951.24
566.87	30644.63
567.03	30656.34
567.19	30883.37
567.36	30436.33
567.52	30600.16
567.68	30555.69
567.85	30298.23
568.01	30661.02
568.17	30508.88
568.34	30321.64
568.50	30984.01
568.66	30513.56
568.83	30646.97
568.99	30438.67
569.15	30349.73
569.32	30415.26
569.48	30244.40
569.64	30368.45
569.81	30569.74
569.97	31159.55
570.13	30726.55
570.30	30380.15
570.46	30869.33
570.62	30906.77
570.78	30373.13
570.95	30534.63
571.11	30698.47
571.27	30237.38
571.43	30670.38
571.60	30925.50
571.76	30979.33
571.92	30696.13
572.09	30960.61
572.25	30733.57
572.41	31002.74
572.57	30916.14
572.74	30703.15
572.90	30539.31
573.06	30848.26
573.22	30536.97
573.38	30810.81
573.55	30686.76
573.71	31007.42
573.87	31356.16
574.03	31028.48
574.20	31115.08
574.36	30658.68
574.52	30822.51
574.68	30731.23
574.84	30719.53
575.01	30986.35
575.17	31096.36
575.33	30338.02
575.49	30735.92
575.65	31058.91
575.82	30998.06
575.98	30635.27
576.14	30866.98
576.30	30588.46
576.46	30611.87
576.62	30754.64
576.79	30984.01
576.95	30845.92
577.11	30955.93
577.27	31529.36
577.43	30941.88
577.59	31150.19
577.75	31292.96
577.92	30621.23
578.08	31166.57
578.24	30639.95
578.40	31241.47
578.56	31215.72
578.72	30782.73
578.88	31197.00
579.04	31140.83
579.21	30637.61
579.37	31222.75
579.53	31257.85
579.69	30974.65
579.85	30944.22
580.01	31154.87
580.17	30806.13
580.33	30953.58
580.49	31370.20
580.65	31105.72
580.82	31278.92
580.98	31393.61
581.14	30951.24
581.30	31122.10
581.46	31000.40
581.62	30855.28
581.78	30920.82
581.94	30803.79
582.10	30953.58
582.26	30768.68
582.42	31367.86
582.58	31386.58
582.74	31140.83
582.90	31033.16
583.06	31152.53
583.22	31124.44
583.38	31051.89
583.54	31253.17
583.70	31173.60
583.86	31101.04
584.02	31112.74
584.18	31578.51
584.34	31716.60
584.50	31241.47
584.66	31187.64
584.82	30976.99
584.98	31168.91
585.14	31199.34
585.30	30871.67
585.46	31152.53
585.62	31021.46
585.78	31094.02
585.94	31267.22
586.10	31433.39
586.26	31150.19
586.42	31208.70
586.58	31311.69
586.74	31044.87
586.90	30979.33
587.06	31206.36
587.22	31489.57
587.38	31098.70
587.54	31168.91
587.70	30972.31
587.86	31264.88
588.02	31363.18
588.18	31711.92
588.34	31534.04
588.49	31454.46
588.65	30979.33
588.81	31236.79
588.97	31477.86
589.13	31309.35
589.29	31051.89
589.45	31267.22
589.61	31536.38
589.77	31639.36
589.93	31620.64
590.08	31737.66
590.24	31496.59
590.40	31770.43
590.56	31655.75
590.72	31662.77
590.88	31302.32
591.04	31992.78
591.20	31658.09
591.35	31433.39
591.51	32133.21
591.67	31967.04
591.83	32032.57
