SpectraSuite Data File
++++++++++++++++++++++++++++++++++++
Date: Fri Oct 18 13:57:53 GMT-05:00 2013
User: bianchi
Dark Spectrum Present: No
Reference Spectrum Present: No
Number of Sampled Component Spectra: 1
Spectrometers: USB2+H05261
Integration Time (usec): 50000 (USB2+H05261)
Spectra Averaged: 1 (USB2+H05261)
Boxcar Smoothing: 0 (USB2+H05261)
Correct for Electrical Dark: No (USB2+H05261)
Strobe/Lamp Enabled: No (USB2+H05261)
Correct for Detector Non-linearity: No (USB2+H05261)
Correct for Stray Light: No (USB2+H05261)
Number of Pixels in Processed Spectrum: 2048
>>>>>Begin Processed Spectral Data<<<<<
365.73	0.00
365.92	0.00
366.12	0.00
366.32	0.00
366.52	0.00
366.72	0.00
366.91	0.00
367.11	0.00
367.31	0.00
367.51	0.00
367.70	0.00
367.90	0.00
368.10	0.00
368.30	0.00
368.49	0.00
368.69	0.00
368.89	0.00
369.09	0.00
369.28	0.00
369.48	0.00
369.68	0.00
369.87	0.00
370.07	0.00
370.27	0.00
370.47	0.00
370.66	44.47
370.86	107.66
371.06	147.45
371.25	128.73
371.45	154.48
371.65	145.11
371.84	124.05
372.04	117.03
372.24	145.11
372.44	180.22
372.63	191.92
372.83	203.63
373.03	205.97
373.22	203.63
373.42	191.92
373.62	140.43
373.81	126.39
374.01	208.31
374.21	177.88
374.40	156.82
374.60	210.65
374.79	255.12
374.99	262.14
375.19	224.69
375.38	327.68
375.58	278.52
375.78	229.37
375.97	299.59
376.17	243.42
376.37	280.86
376.56	222.35
376.76	241.08
376.95	337.04
377.15	224.69
377.35	283.20
377.54	229.37
377.74	184.90
377.93	301.93
378.13	304.27
378.33	320.65
378.52	306.61
378.72	351.08
378.91	292.57
379.11	311.29
379.31	208.31
379.50	332.36
379.70	376.83
379.89	285.55
380.09	320.65
380.28	262.14
380.48	299.59
380.68	287.89
380.87	308.95
381.07	360.44
381.26	301.93
381.46	231.71
381.65	292.57
381.85	348.74
382.04	313.63
382.24	355.76
382.43	341.72
382.63	430.66
382.83	353.42
383.02	325.33
383.22	381.51
383.41	390.87
383.61	337.04
383.80	421.30
384.00	374.49
384.19	383.85
384.39	346.40
384.58	393.21
384.78	416.62
384.97	318.31
385.17	379.17
385.36	428.32
385.56	428.32
385.75	489.17
385.95	351.08
386.14	397.89
386.34	397.89
386.53	444.70
386.72	416.62
386.92	414.27
387.11	440.02
387.31	374.49
387.50	512.58
387.70	386.19
387.89	404.91
388.09	456.40
388.28	465.77
388.48	503.22
388.67	507.90
388.86	421.30
389.06	444.70
389.25	505.56
389.45	437.68
389.64	444.70
389.84	496.19
390.03	479.81
390.22	566.41
390.42	517.26
390.61	449.38
390.81	517.26
391.00	489.17
391.19	538.32
391.39	550.03
391.58	580.45
391.78	505.56
391.97	547.69
392.16	594.50
392.36	517.26
392.55	482.15
392.75	500.87
392.94	615.56
393.13	545.34
393.33	519.60
393.52	599.18
393.71	615.56
393.91	566.41
394.10	620.24
394.29	540.66
394.49	517.26
394.68	636.63
394.88	617.90
395.07	620.24
395.26	650.67
395.46	629.60
395.65	617.90
395.84	638.97
396.04	566.41
396.23	636.63
396.42	599.18
396.62	662.37
396.81	667.05
397.00	578.11
397.19	645.99
397.39	669.39
397.58	648.33
397.77	535.98
397.97	706.84
398.16	695.14
398.35	669.39
398.55	653.01
398.74	688.12
398.93	748.97
399.12	835.57
399.32	706.84
399.51	774.72
399.70	741.95
399.90	660.03
400.09	718.54
400.28	767.70
400.47	795.78
400.67	777.06
400.86	758.33
401.05	755.99
401.24	858.98
401.44	889.40
401.63	809.83
401.82	828.55
402.01	837.91
402.21	877.70
402.40	877.70
402.59	814.51
402.78	851.96
402.97	786.42
403.17	840.25
403.36	809.83
403.55	929.19
403.74	891.74
403.93	947.92
404.13	924.51
404.32	851.96
404.51	887.06
404.70	987.71
404.89	844.93
405.09	903.45
405.28	936.21
405.47	901.11
405.66	875.36
405.85	1004.09
406.05	856.64
406.24	1078.99
406.43	1020.47
406.62	997.07
406.81	1032.18
407.00	1067.28
407.20	983.02
407.39	1004.09
407.58	1053.24
407.77	990.05
407.96	1128.14
408.15	1008.77
408.34	1015.79
408.54	1048.56
408.73	1144.52
408.92	1177.29
409.11	1193.67
409.30	1221.76
409.49	1198.35
409.68	1104.73
409.87	1114.10
410.07	1139.84
410.26	1226.44
410.45	1156.22
410.64	1167.93
410.83	1121.12
411.02	1287.29
411.21	1249.85
411.40	1191.33
411.59	1289.64
411.78	1343.47
411.98	1308.36
412.17	1369.21
412.36	1308.36
412.55	1294.32
412.74	1432.41
412.93	1364.53
413.12	1313.04
413.31	1350.49
413.50	1394.96
413.69	1469.86
413.88	1359.85
414.07	1416.02
414.26	1514.33
414.45	1474.54
414.64	1474.54
414.83	1598.59
415.02	1474.54
415.22	1526.03
415.41	1549.43
415.60	1568.16
415.79	1577.52
415.98	1577.52
416.17	1519.01
416.36	1629.01
416.55	1589.22
416.74	1685.19
416.93	1643.06
417.12	1696.89
417.31	1631.35
417.50	1654.76
417.69	1706.25
417.88	1701.57
418.07	1753.06
418.26	1701.57
418.45	1703.91
418.64	1923.92
418.83	1858.39
419.02	1764.76
419.21	1846.68
419.39	1902.86
419.58	1774.13
419.77	1734.34
419.96	1846.68
420.15	1844.34
420.34	1909.88
420.53	1921.58
420.72	1956.69
420.91	1907.54
421.10	1998.82
421.29	2017.54
421.48	1935.62
421.67	2022.22
421.86	1891.15
422.05	1952.01
422.24	1830.30
422.43	1980.09
422.61	1982.43
422.80	2092.44
422.99	1973.07
423.18	2022.22
423.37	2106.48
423.56	1966.05
423.75	2076.06
423.94	1975.41
424.13	1919.24
424.32	1849.02
424.50	2104.14
424.69	2080.74
424.88	2169.68
425.07	2019.88
425.26	2097.12
425.45	1982.43
425.64	1970.73
425.83	1996.48
426.01	2097.12
426.20	2115.84
426.39	2106.48
426.58	1970.73
426.77	2033.93
426.96	2101.80
427.15	2132.23
427.33	2026.90
427.52	2179.04
427.71	2162.66
427.90	2218.83
428.09	2064.35
428.28	2197.76
428.46	2186.06
428.65	2129.89
428.84	2307.77
429.03	2289.04
429.22	2073.71
429.40	2312.45
429.59	2377.98
429.78	2263.30
429.97	2127.55
430.16	2282.02
430.34	2160.31
430.53	2289.04
430.72	2415.43
430.91	2305.43
431.10	2242.23
431.28	2298.41
431.47	2413.09
431.66	2387.35
431.85	2333.51
432.03	2471.61
432.22	2490.33
432.41	2480.97
432.60	2312.45
432.79	2340.54
432.97	2375.64
433.16	2417.77
433.35	2406.07
433.54	2518.42
433.72	2476.29
433.91	2523.10
434.10	2424.80
434.28	2544.16
434.47	2609.70
434.66	2586.29
434.85	2628.42
435.03	2569.91
435.22	2572.25
435.41	2637.78
435.59	2637.78
435.78	2619.06
435.97	2766.51
436.16	2686.94
436.34	2616.72
436.53	2677.57
436.72	2818.00
436.90	2576.93
437.09	2747.79
437.28	2708.00
437.46	2729.06
437.65	2958.44
437.84	2864.82
438.02	2787.58
438.21	2906.95
438.40	2843.75
438.58	2815.66
438.77	2986.52
438.96	2841.41
439.14	2836.73
439.33	3000.57
439.52	2918.65
439.70	2977.16
439.89	3117.59
440.08	2867.16
440.26	3084.83
440.45	2972.48
440.63	2993.55
440.82	3131.64
441.01	3084.83
441.19	3293.13
441.38	3220.58
441.57	3171.43
441.75	3316.54
441.94	3344.63
442.12	3328.24
442.31	3297.81
442.50	3351.65
442.68	3358.67
442.87	3290.79
443.05	3286.11
443.24	3311.86
443.43	3478.04
443.61	3454.63
443.80	3384.41
443.98	3459.31
444.17	3253.34
444.35	3435.91
444.54	3463.99
444.73	3459.31
444.91	3349.31
445.10	3456.97
445.28	3407.82
445.47	3428.88
445.65	3311.86
445.84	3562.30
446.02	3503.78
446.21	3468.67
446.39	3557.61
446.58	3541.23
446.77	3459.31
446.95	3461.65
447.14	3501.44
447.32	3499.10
447.51	3428.88
447.69	3435.91
447.88	3611.45
448.06	3494.42
448.25	3503.78
448.43	3627.83
448.62	3438.25
448.80	3485.06
448.99	3691.02
449.17	3693.37
449.36	3503.78
449.54	3581.02
449.73	3634.85
449.91	3744.86
450.10	3712.09
450.28	3728.47
450.46	3630.17
450.65	3803.37
450.83	3772.94
451.02	3782.31
451.20	3803.37
451.39	3691.02
451.57	3758.90
451.76	3798.69
451.94	3831.46
452.13	3859.54
452.31	3864.22
452.49	3894.65
452.68	3901.67
452.86	3826.78
453.05	3875.93
453.23	3988.27
453.42	3873.59
453.60	3866.56
453.78	3878.27
453.97	3911.04
454.15	3988.27
454.34	3981.25
454.52	4014.02
454.70	4011.68
454.89	4086.58
455.07	4098.28
455.26	4098.28
455.44	4219.99
455.62	4161.47
455.81	4086.58
455.99	4056.15
456.17	4121.68
456.36	4273.82
456.54	4332.33
456.73	4447.02
456.91	4388.50
457.09	4353.40
457.28	4353.40
457.46	4358.08
457.64	4346.37
457.83	4196.58
458.01	4287.86
458.19	4252.75
458.38	4367.44
458.56	4507.87
458.74	4432.97
458.93	4397.87
459.11	4435.32
459.29	4369.78
459.48	4498.51
459.66	4561.70
459.84	4512.55
460.03	4524.26
460.21	4489.15
460.39	4582.77
460.57	4465.74
460.76	4500.85
460.94	4587.45
461.12	4503.19
461.31	4629.58
461.49	4547.66
461.67	4510.21
461.85	4716.18
462.04	4697.46
462.22	4821.50
462.40	4858.95
462.59	4699.80
462.77	4692.77
462.95	4840.23
463.13	4746.61
463.32	4758.31
463.50	4868.31
463.68	4905.76
463.86	4758.31
464.05	4917.47
464.23	4737.24
464.41	5025.13
464.59	4865.97
464.78	4952.57
464.96	5018.11
465.14	4938.53
465.32	4896.40
465.50	4980.66
465.69	4959.60
465.87	4894.06
466.05	4968.96
466.23	4992.36
466.41	5219.39
466.60	5263.86
466.78	5076.62
466.96	5022.79
467.14	4961.94
467.32	5172.58
467.51	5184.29
467.69	5139.82
467.87	5298.97
468.05	5188.97
468.23	5195.99
468.41	5247.48
468.60	5125.77
468.78	5200.67
468.96	5256.84
469.14	5273.23
469.32	5364.51
469.50	5128.11
469.69	5291.95
469.87	5383.23
470.05	5483.88
470.23	5556.43
470.41	5406.64
470.59	5589.20
470.77	5416.00
470.95	5558.77
471.14	5577.50
471.32	5465.15
471.50	5591.54
471.68	5521.32
471.86	5474.51
472.04	5530.69
472.22	5837.30
472.40	5771.76
472.58	5692.18
472.77	5675.80
472.95	5706.23
473.13	6047.94
473.31	5834.96
473.49	5701.54
473.67	5834.96
473.85	5921.56
474.03	5907.51
474.21	5919.21
474.39	5991.77
474.57	6186.04
474.75	6115.82
474.93	6190.72
475.12	6029.22
475.30	6132.20
475.48	6190.72
475.66	6328.81
475.84	6363.92
476.02	6436.47
476.20	6506.69
476.38	6272.64
476.56	6682.23
476.74	6679.89
476.92	6502.01
477.10	6656.48
477.28	6878.83
477.46	6532.44
477.64	6780.53
477.82	6808.62
478.00	6956.07
478.18	6895.22
478.36	7052.03
478.54	6874.15
478.72	7129.27
478.90	7213.53
479.08	7005.22
479.26	7250.98
479.44	7171.40
479.62	7494.40
479.80	7531.84
479.98	7452.27
480.16	7517.80
480.34	7583.34
480.52	7669.94
480.70	7595.04
480.88	7606.74
481.06	7918.03
481.24	7850.16
481.41	7810.37
481.59	7974.21
481.77	7964.84
481.95	8070.17
482.13	8116.98
482.31	8028.04
482.49	8313.58
482.67	8308.90
482.85	8463.38
483.03	8454.02
483.21	8557.00
483.39	8615.51
483.57	8681.05
483.74	8788.71
483.92	8671.68
484.10	8751.26
484.28	8915.10
484.46	8982.98
484.64	9275.54
484.82	9320.01
485.00	9224.05
485.18	9392.57
485.35	9493.21
485.53	9476.83
485.71	9462.79
485.89	9788.12
486.07	9701.52
486.25	9612.58
486.43	9657.05
486.61	9767.06
486.78	10111.11
486.96	10094.73
487.14	10279.63
487.32	10129.84
487.50	10494.96
487.68	10099.41
487.85	10218.78
488.03	10672.84
488.21	10602.63
488.39	10717.31
488.57	10637.73
488.75	10911.58
488.92	10892.85
489.10	10846.04
489.28	11272.02
489.46	11248.61
489.64	11037.97
489.81	11524.80
489.99	11375.00
490.17	11433.52
490.35	11779.92
490.53	11562.25
490.70	11660.55
490.88	11784.60
491.06	11833.75
491.24	11847.79
491.41	11756.51
491.59	11955.46
491.77	11831.41
491.95	12222.28
492.13	12301.86
492.30	12351.01
492.48	12472.71
492.66	12194.19
492.84	12451.65
493.01	12713.79
493.19	12688.04
493.37	12858.90
493.54	12814.43
493.72	13167.85
493.90	12903.37
494.08	12835.50
494.25	13219.35
494.43	13411.27
494.61	13425.31
494.79	13460.42
494.96	13650.00
495.14	13596.17
495.32	13535.32
495.49	13661.71
495.67	13399.57
495.85	13851.29
496.02	13902.78
496.20	13968.32
496.38	14134.50
496.55	13909.80
496.73	14626.01
496.91	14333.44
497.09	14342.80
497.26	14621.33
497.44	14303.01
497.62	14193.01
497.79	14841.34
497.97	14616.65
498.14	14925.60
498.32	14820.27
498.50	15033.26
498.67	15222.84
498.85	15012.20
499.03	15250.93
499.20	14902.19
499.38	15325.83
499.56	15283.70
499.73	15527.11
499.91	15520.09
500.08	15414.77
500.26	15192.42
500.44	15435.83
500.61	15536.48
500.79	15630.10
500.97	15681.59
501.14	16067.78
501.32	15988.20
501.49	15854.79
501.67	15960.11
501.84	15782.23
502.02	16037.35
502.20	16318.22
502.37	16306.51
502.55	16049.05
502.72	16278.43
502.90	16173.10
503.07	16079.48
503.25	16362.69
503.43	16622.48
503.60	16617.80
503.78	16762.92
503.95	16734.83
504.13	16676.32
504.30	16755.90
504.48	16828.45
504.65	16893.99
504.83	17078.89
505.01	17104.64
505.18	17385.50
505.36	17387.84
505.53	17118.68
505.71	17149.11
505.88	16945.48
506.06	17282.52
506.23	17500.19
506.41	17259.11
506.58	17556.36
506.76	17408.90
506.93	17783.39
507.11	17289.54
507.28	17785.73
507.46	17778.71
507.63	18068.94
507.81	18038.51
507.98	17687.43
508.16	17792.75
508.33	17867.65
508.50	18111.07
508.68	18087.66
508.85	18097.02
509.03	18141.49
509.20	18429.38
509.38	18436.40
509.55	18310.01
509.73	18361.50
509.90	18478.53
510.08	18616.62
510.25	18494.91
510.42	18803.86
510.60	18925.57
510.77	18899.83
510.95	18881.10
511.12	18937.27
511.30	18909.19
511.47	18843.65
511.64	19026.21
511.82	19152.60
511.99	19241.54
512.17	19318.78
512.34	19030.90
512.51	19035.58
512.69	19208.78
512.86	19426.45
513.04	19459.21
513.21	19386.66
513.38	19707.31
513.56	19962.43
513.73	19573.90
513.90	19587.94
514.08	19775.19
514.25	19690.93
514.43	19981.15
514.60	19922.64
514.77	19573.90
514.95	20191.80
515.12	19978.81
515.29	19803.27
515.47	20236.27
515.64	20128.61
515.81	19894.55
515.99	20467.98
516.16	20666.93
516.33	20510.11
516.51	20369.68
516.68	20648.21
516.85	20528.84
517.03	20662.25
517.20	20666.93
517.37	20629.48
517.54	20636.50
517.72	20348.62
517.89	20821.41
518.06	20657.57
518.24	20788.64
518.41	20730.12
518.58	20865.88
518.75	21088.23
518.93	21142.06
519.10	20835.45
519.27	21216.96
519.45	21399.52
519.62	21036.74
519.79	21404.20
519.96	21270.79
520.14	21481.44
520.31	21511.86
520.48	21202.91
520.65	21523.57
520.83	21804.43
521.00	21706.13
521.17	21448.67
521.34	21748.26
521.52	21820.81
521.69	21884.01
521.86	21638.25
522.03	21827.84
522.20	21893.37
522.38	21972.95
522.55	22141.47
522.72	21881.67
522.89	22078.27
523.07	22192.96
523.24	22307.65
523.41	22424.67
523.58	22427.01
523.75	22178.92
523.92	22265.52
524.10	22080.61
524.27	22441.06
524.44	22396.59
524.61	22705.54
524.78	22356.80
524.96	22546.38
525.13	22588.51
525.30	22852.99
525.47	22867.03
525.64	22689.15
525.81	22672.77
525.98	23087.04
526.16	23082.36
526.33	22761.71
526.50	23168.96
526.67	22513.61
526.84	22759.37
527.01	22623.62
527.18	22939.59
527.36	23248.54
527.53	23293.01
527.70	23321.10
527.87	23381.95
528.04	23187.69
528.21	23309.40
528.38	23693.24
528.55	23569.19
528.72	23215.77
528.89	23826.65
529.07	23428.76
529.24	23590.26
529.41	23718.99
529.58	23709.63
529.75	23648.77
529.92	23723.67
530.09	23580.90
530.26	23564.51
530.43	23864.10
530.60	23768.14
530.77	23440.47
530.94	23847.72
531.11	24060.71
531.28	23587.92
531.46	24098.16
531.63	24458.60
531.80	24233.91
531.97	24229.23
532.14	24257.31
532.31	24332.21
532.48	24306.46
532.65	24318.17
532.82	24266.67
532.99	24133.26
533.16	24133.26
533.33	24549.88
533.50	24797.98
533.67	24851.81
533.84	24332.21
534.01	24432.85
534.18	24482.00
534.35	24891.60
534.52	24528.81
534.69	24973.52
534.86	24797.98
535.03	24599.03
535.20	24837.76
535.37	25109.27
535.54	24879.89
535.71	24737.12
535.88	24666.91
536.05	25034.37
536.22	24819.04
536.38	25146.72
536.55	25303.53
536.72	24945.43
536.89	24947.77
537.06	25158.42
537.23	25111.61
537.40	25165.44
537.57	25420.56
537.74	25493.12
537.91	25546.95
538.08	25369.07
538.25	25507.16
538.42	25345.66
538.59	25305.87
538.75	25553.97
538.92	25755.26
539.09	25619.50
539.26	25502.48
539.43	25659.29
539.60	25783.34
539.77	25369.07
539.94	25727.17
540.11	25516.52
540.28	25926.11
540.44	25898.03
540.61	25720.15
540.78	25516.52
540.95	26008.03
541.12	25834.83
541.29	25802.07
541.46	26043.14
541.62	26202.30
541.79	26031.44
541.96	25991.65
542.13	25834.83
542.30	26125.06
542.47	26096.97
542.63	26576.78
542.80	26347.41
542.97	26214.00
543.14	26555.72
543.31	26150.81
543.48	26340.39
543.64	26366.13
543.81	26632.96
543.98	27016.80
544.15	26492.52
544.32	26764.03
544.48	26745.30
544.65	26675.09
544.82	26714.87
544.99	26820.20
545.16	26855.31
545.32	26710.19
545.49	26703.17
545.66	27307.03
545.83	27075.32
546.00	26969.99
546.16	27182.98
546.33	26780.41
546.50	26560.40
546.67	26885.73
546.83	26728.92
547.00	27234.47
547.17	27253.20
547.34	27105.74
547.50	27117.45
547.67	27412.35
547.84	27033.19
548.00	27718.96
548.17	27166.60
548.34	27309.37
548.51	27480.23
548.67	27978.76
548.84	27587.89
549.01	27367.88
549.18	27147.87
549.34	27159.58
549.51	27611.30
549.68	27402.99
549.84	27728.33
550.01	27417.04
550.18	27424.06
550.34	27861.74
550.51	27644.07
550.68	27838.33
550.84	27515.34
551.01	27681.52
551.18	27658.11
551.34	27360.86
551.51	27548.11
551.68	27843.01
551.84	27943.66
552.01	27854.72
552.18	28093.45
552.34	28400.06
552.51	28163.67
552.68	28016.21
552.84	27854.72
553.01	28114.52
553.18	27894.50
553.34	27850.03
553.51	27730.67
553.67	28259.63
553.84	28233.88
554.01	28276.01
554.17	28259.63
554.34	28601.35
554.51	28514.75
554.67	28259.63
554.84	28041.96
555.00	28442.19
555.17	28503.04
555.33	28524.11
555.50	28360.27
555.67	28360.27
555.83	28716.03
556.00	28056.00
556.16	28507.72
556.33	28463.25
556.50	28645.82
556.66	28521.77
556.83	28540.49
556.99	28821.36
557.16	29006.26
557.32	28907.96
557.49	29003.92
557.65	28718.37
557.82	28980.51
557.98	28882.21
558.15	28477.30
558.32	28470.28
558.48	28823.70
558.65	29104.56
558.81	28833.06
558.98	29048.39
559.14	29216.91
559.31	28774.55
559.47	29036.69
559.64	29226.27
559.80	29181.80
559.97	29235.63
560.13	28940.72
560.30	28971.15
560.46	28830.72
560.63	29120.95
560.79	29200.52
560.96	29193.50
561.12	28734.76
561.29	29186.48
561.45	29003.92
561.61	29053.07
561.78	29273.08
561.94	28786.25
562.11	29055.41
562.27	29319.89
562.44	29102.22
562.60	29144.35
562.77	29266.06
562.93	28835.40
563.10	29305.85
563.26	29165.42
563.42	29687.36
563.59	29273.08
563.75	28957.11
563.92	29399.47
564.08	29127.97
564.24	29486.07
564.41	29057.75
564.57	29092.86
564.74	29553.94
564.90	29490.75
565.07	29139.67
565.23	29502.45
565.39	29654.59
565.56	29614.80
565.72	29181.80
565.88	29418.19
566.05	29202.86
566.21	29322.23
566.38	29266.06
566.54	29233.29
566.70	29493.09
566.87	29750.55
567.03	29762.25
567.19	29825.45
567.36	29647.57
567.52	29621.82
567.68	29404.15
567.85	29095.20
568.01	29598.41
568.17	29567.99
568.34	29638.20
568.50	29998.65
568.66	29607.78
568.83	29773.95
568.99	29640.54
569.15	29551.60
569.32	29589.05
569.48	29104.56
569.64	29888.64
569.81	30164.82
569.97	29532.88
570.13	30078.22
570.30	29336.27
570.46	29434.58
570.62	29687.36
570.78	29876.94
570.95	29626.50
571.11	29883.96
571.27	29137.33
571.43	29326.91
571.60	29790.34
571.76	29261.38
571.92	29858.21
572.09	29869.92
572.25	29652.25
572.41	29713.10
572.57	29935.45
572.74	30118.01
572.90	29483.73
573.06	29687.36
573.22	30066.52
573.38	30309.94
573.55	29968.22
573.71	30068.86
573.87	30174.19
574.03	29890.98
574.20	30309.94
574.36	29886.30
574.52	29921.41
574.68	30164.82
574.84	29926.09
575.01	29853.53
575.17	29979.92
575.33	30118.01
575.49	30155.46
575.65	30387.18
575.82	30387.18
575.98	29926.09
576.14	29902.68
576.30	30293.55
576.46	30286.53
576.62	30082.91
576.79	29750.55
576.95	29727.14
577.11	29914.39
577.27	29947.15
577.43	30307.60
577.59	30040.78
577.75	29998.65
577.92	29858.21
578.08	29668.63
578.24	29881.62
578.40	29921.41
578.56	30302.92
578.72	30143.76
578.88	30450.37
579.04	30211.64
579.21	29972.90
579.37	29617.14
579.53	30480.80
579.69	30092.27
579.85	29799.70
580.01	29872.26
580.17	30059.50
580.33	29862.90
580.49	30244.40
580.65	30096.95
580.82	30012.69
580.98	30213.98
581.14	30319.30
581.30	30258.45
581.46	30080.56
581.62	30244.40
581.78	30122.69
581.94	29954.18
582.10	29853.53
582.26	29977.58
582.42	30171.85
582.58	30366.11
582.74	30246.74
582.90	30576.76
583.06	30073.54
583.22	30108.65
583.38	30223.34
583.54	30057.16
583.70	30286.53
583.86	30089.93
584.02	30192.91
584.18	30340.36
584.34	29991.62
584.50	30288.87
584.66	29759.91
584.82	30209.29
584.98	29848.85
585.14	30036.09
585.30	30012.69
585.46	30113.33
585.62	30221.00
585.78	30368.45
585.94	30251.42
586.10	30295.89
586.26	30684.42
586.42	30267.81
586.58	30368.45
586.74	30258.45
586.90	29949.50
587.06	30132.06
587.22	30185.89
587.38	30153.12
587.54	30473.78
587.70	30426.96
587.86	30342.70
588.02	30441.01
588.18	30558.03
588.34	30356.75
588.49	30284.19
588.65	30562.72
588.81	29949.50
588.97	30672.72
589.13	30237.38
589.29	30700.81
589.45	30094.61
589.61	30366.11
589.77	30607.19
589.93	30405.90
590.08	30441.01
590.24	30539.31
590.40	30909.11
590.56	30775.70
590.72	30738.26
590.88	30815.49
591.04	30632.93
591.20	30235.04
591.35	30518.25
591.51	31096.36
591.67	30874.01
591.83	30700.81
591.99	30567.40
