SpectraSuite Data File
++++++++++++++++++++++++++++++++++++
Date: Fri Oct 18 13:57:59 GMT-05:00 2013
User: bianchi
Dark Spectrum Present: No
Reference Spectrum Present: No
Number of Sampled Component Spectra: 1
Spectrometers: USB2+H05261
Integration Time (usec): 50000 (USB2+H05261)
Spectra Averaged: 1 (USB2+H05261)
Boxcar Smoothing: 0 (USB2+H05261)
Correct for Electrical Dark: No (USB2+H05261)
Strobe/Lamp Enabled: No (USB2+H05261)
Correct for Detector Non-linearity: No (USB2+H05261)
Correct for Stray Light: No (USB2+H05261)
Number of Pixels in Processed Spectrum: 2048
>>>>>Begin Processed Spectral Data<<<<<
365.73	0.00
365.92	0.00
366.12	0.00
366.32	0.00
366.52	0.00
366.72	0.00
366.91	0.00
367.11	0.00
367.31	0.00
367.51	0.00
367.70	0.00
367.90	0.00
368.10	0.00
368.30	0.00
368.49	0.00
368.69	0.00
368.89	0.00
369.09	0.00
369.28	0.00
369.48	0.00
369.68	0.00
369.87	0.00
370.07	0.00
370.27	0.00
370.47	0.00
370.66	159.16
370.86	217.67
371.06	63.19
371.25	156.82
371.45	121.71
371.65	133.41
371.84	114.69
372.04	142.77
372.24	135.75
372.44	149.79
372.63	142.77
372.83	229.37
373.03	196.60
373.22	138.09
373.42	161.50
373.62	147.45
373.81	257.46
374.01	231.71
374.21	308.95
374.40	273.84
374.60	245.76
374.79	278.52
374.99	259.80
375.19	215.33
375.38	224.69
375.58	241.08
375.78	241.08
375.97	196.60
376.17	266.82
376.37	278.52
376.56	255.12
376.76	210.65
376.95	220.01
377.15	334.70
377.35	266.82
377.54	262.14
377.74	198.95
377.93	220.01
378.13	222.35
378.33	337.04
378.52	243.42
378.72	346.40
378.91	297.25
379.11	322.99
379.31	346.40
379.50	299.59
379.70	255.12
379.89	311.29
380.09	318.31
380.28	365.12
380.48	210.65
380.68	330.02
380.87	311.29
381.07	372.15
381.26	411.93
381.46	287.89
381.65	346.40
381.85	332.36
382.04	283.20
382.24	325.33
382.43	266.82
382.63	381.51
382.83	386.19
383.02	351.08
383.22	393.21
383.41	404.91
383.61	435.34
383.80	365.12
384.00	325.33
384.19	355.76
384.39	353.42
384.58	358.10
384.78	374.49
384.97	402.57
385.17	423.64
385.36	383.85
385.56	297.25
385.75	362.78
385.95	367.46
386.14	414.27
386.34	519.60
386.53	500.87
386.72	498.53
386.92	461.09
387.11	433.00
387.31	367.46
387.50	486.83
387.70	451.72
387.89	451.72
388.09	411.93
388.28	404.91
388.48	479.81
388.67	465.77
388.86	458.74
389.06	423.64
389.25	486.83
389.45	440.02
389.64	400.23
389.84	573.43
390.03	493.85
390.22	510.24
390.42	421.30
390.61	451.72
390.81	472.79
391.00	491.51
391.19	594.50
391.39	510.24
391.58	571.09
391.78	559.39
391.97	472.79
392.16	521.94
392.36	543.00
392.55	540.66
392.75	552.37
392.94	566.41
393.13	638.97
393.33	599.18
393.52	503.22
393.71	676.41
393.91	688.12
394.10	578.11
394.29	505.56
394.49	535.98
394.68	622.58
394.88	568.75
395.07	648.33
395.26	613.22
395.46	585.13
395.65	557.05
395.84	688.12
396.04	709.18
396.23	575.77
396.42	657.69
396.62	624.92
396.81	702.16
397.00	608.54
397.19	741.95
397.39	699.82
397.58	758.33
397.77	685.78
397.97	685.78
398.16	734.93
398.35	798.12
398.55	685.78
398.74	737.27
398.93	638.97
399.12	723.23
399.32	681.10
399.51	772.38
399.70	770.04
399.90	819.19
400.09	748.97
400.28	779.40
400.47	737.27
400.67	788.76
400.86	788.76
401.05	739.61
401.24	781.74
401.44	685.78
401.63	784.08
401.82	854.30
402.01	826.21
402.21	805.14
402.40	774.72
402.59	793.44
402.78	819.19
402.97	816.85
403.17	887.06
403.36	851.96
403.55	866.00
403.74	903.45
403.93	936.21
404.13	1008.77
404.32	877.70
404.51	924.51
404.70	959.62
404.89	870.68
405.09	950.26
405.28	954.94
405.47	1015.79
405.66	1062.60
405.85	968.98
406.05	980.68
406.24	992.39
406.43	1093.03
406.62	1076.65
406.81	1022.81
407.00	1053.24
407.20	987.71
407.39	1006.43
407.58	1046.22
407.77	1053.24
407.96	1076.65
408.15	1102.39
408.34	1025.15
408.54	1074.31
408.73	1060.26
408.92	1156.22
409.11	1128.14
409.30	1095.37
409.49	1064.94
409.68	1188.99
409.87	1165.59
410.07	1261.55
410.26	1247.51
410.45	1238.14
410.64	1210.06
410.83	1226.44
411.02	1174.95
411.21	1207.72
411.40	1233.46
411.59	1284.95
411.78	1273.25
411.98	1261.55
412.17	1320.06
412.36	1289.64
412.55	1294.32
412.74	1406.66
412.93	1350.49
413.12	1352.83
413.31	1413.68
413.50	1406.66
413.69	1516.67
413.88	1551.78
414.07	1380.92
414.26	1481.56
414.45	1411.34
414.64	1453.47
414.83	1549.43
415.02	1530.71
415.22	1610.29
415.41	1664.12
415.60	1561.14
415.79	1582.20
415.98	1605.61
416.17	1593.90
416.36	1645.40
416.55	1629.01
416.74	1710.93
416.93	1678.16
417.12	1657.10
417.31	1727.32
417.50	1647.74
417.69	1834.98
417.88	1799.87
418.07	1774.13
418.26	1708.59
418.45	1701.57
418.64	1816.26
418.83	1792.85
419.02	1837.32
419.21	1834.98
419.39	1696.89
419.58	1809.23
419.77	1806.89
419.96	1849.02
420.15	1860.73
420.34	1820.94
420.53	1956.69
420.72	1947.33
420.91	2008.18
421.10	1996.48
421.29	2033.93
421.48	1846.68
421.67	1926.26
421.86	1820.94
422.05	1973.07
422.24	1858.39
422.43	1956.69
422.61	2015.20
422.80	1942.64
422.99	1970.73
423.18	1996.48
423.37	2026.90
423.56	2094.78
423.75	2080.74
423.94	1940.30
424.13	1900.52
424.32	1989.46
424.50	2057.33
424.69	1963.71
424.88	1970.73
425.07	2003.50
425.26	1963.71
425.45	1961.37
425.64	2069.03
425.83	2113.50
426.01	2162.66
426.20	2167.34
426.39	2019.88
426.58	2115.84
426.77	2078.40
426.96	2092.44
427.15	2204.78
427.33	1991.80
427.52	2179.04
427.71	2305.43
427.90	2150.95
428.09	2218.83
428.28	2300.75
428.46	2214.15
428.65	2277.34
428.84	2267.98
429.03	2249.25
429.22	2221.17
429.40	2242.23
429.59	2340.54
429.78	2186.06
429.97	2155.63
430.16	2282.02
430.34	2408.41
430.53	2303.09
430.72	2394.37
430.91	2382.67
431.10	2408.41
431.28	2366.28
431.47	2408.41
431.66	2441.18
431.85	2403.73
432.03	2403.73
432.22	2586.29
432.41	2457.56
432.60	2539.48
432.79	2452.88
432.97	2560.55
433.16	2502.03
433.35	2565.23
433.54	2499.69
433.72	2431.82
433.91	2607.36
434.10	2558.21
434.28	2562.89
434.47	2555.86
434.66	2651.83
434.85	2630.76
435.03	2616.72
435.22	2675.23
435.41	2717.36
435.59	2633.10
435.78	2675.23
435.97	2710.34
436.16	2637.78
436.34	2785.24
436.53	2799.28
436.72	2818.00
436.90	2764.17
437.09	2719.70
437.28	2726.72
437.46	2841.41
437.65	2750.13
437.84	2820.35
438.02	2754.81
438.21	2904.60
438.40	2803.96
438.58	2970.14
438.77	2977.16
438.96	2972.48
439.14	3150.36
439.33	3023.97
439.52	2942.05
439.70	2977.16
439.89	2974.82
440.08	3061.42
440.26	3002.91
440.45	3136.32
440.63	3187.81
440.82	3098.87
441.01	3199.51
441.19	3222.92
441.38	3269.73
441.57	3192.49
441.75	3424.20
441.94	3353.99
442.12	3325.90
442.31	3356.33
442.50	3506.12
442.68	3456.97
442.87	3323.56
443.05	3286.11
443.24	3361.01
443.43	3389.10
443.61	3501.44
443.80	3506.12
443.98	3337.60
444.17	3232.28
444.35	3499.10
444.54	3630.17
444.73	3674.64
444.91	3456.97
445.10	3562.30
445.28	3492.08
445.47	3384.41
445.65	3529.53
445.84	3559.95
446.02	3552.93
446.21	3431.23
446.39	3524.85
446.58	3513.14
446.77	3506.12
446.95	3510.80
447.14	3494.42
447.32	3627.83
447.51	3538.89
447.69	3407.82
447.88	3524.85
448.06	3499.10
448.25	3609.11
448.43	3616.13
448.62	3672.30
448.80	3627.83
448.99	3714.43
449.17	3665.28
449.36	3592.72
449.54	3658.26
449.73	3850.18
449.91	3892.31
450.10	3705.07
450.28	3730.81
450.46	3854.86
450.65	3777.62
450.83	3868.91
451.02	3859.54
451.20	3882.95
451.39	3915.72
451.57	3911.04
451.76	3758.90
451.94	3850.18
452.13	3995.29
452.31	3955.51
452.49	3747.20
452.68	4053.81
452.86	3861.88
453.05	3955.51
453.23	4025.72
453.42	3974.23
453.60	3908.69
453.78	3992.95
453.97	3904.01
454.15	3908.69
454.34	3971.89
454.52	4079.55
454.70	4147.43
454.89	4126.36
455.07	4074.87
455.26	4205.94
455.44	4126.36
455.62	4147.43
455.81	4065.51
455.99	4269.14
456.17	4301.90
456.36	4243.39
456.54	4292.54
456.73	4187.22
456.91	4472.76
457.09	4395.53
457.28	4414.25
457.46	4421.27
457.64	4428.29
457.83	4542.98
458.01	4402.55
458.19	4564.04
458.38	4337.01
458.56	4624.90
458.74	4454.04
458.93	4458.72
459.11	4496.17
459.29	4575.75
459.48	4571.07
459.66	4547.66
459.84	4706.82
460.03	4744.27
460.21	4564.04
460.39	4559.36
460.57	4610.86
460.76	4627.24
460.94	4695.11
461.12	4578.09
461.31	4767.67
461.49	4746.61
461.67	4627.24
461.85	4844.91
462.04	4898.74
462.22	5114.07
462.40	4943.21
462.59	4964.28
462.77	4870.65
462.95	4940.87
463.13	4929.17
463.32	4926.83
463.50	4952.57
463.68	4898.74
463.86	4781.71
464.05	4887.04
464.23	4873.00
464.41	4877.68
464.59	5027.47
464.78	5156.20
464.96	4898.74
465.14	4884.70
465.32	4994.70
465.50	5085.98
465.69	5195.99
465.87	5039.17
466.05	5130.45
466.23	5055.56
466.41	5074.28
466.60	5298.97
466.78	5158.54
466.96	5263.86
467.14	5088.32
467.32	5298.97
467.51	5277.91
467.69	5163.22
467.87	5085.98
468.05	5355.15
468.23	5135.14
468.41	5313.02
468.60	5366.85
468.78	5334.08
468.96	5404.30
469.14	5259.18
469.32	5364.51
469.50	5359.83
469.69	5533.03
469.87	5458.13
470.05	5411.32
470.23	5593.88
470.41	5579.84
470.59	5589.20
470.77	5376.21
470.95	5544.73
471.14	5657.07
471.32	5432.38
471.50	5598.56
471.68	5675.80
471.86	5624.31
472.04	5804.53
472.22	5764.74
472.40	5729.63
472.58	5905.17
472.77	5799.85
472.95	5872.40
473.13	6183.70
473.31	6047.94
473.49	5928.58
473.67	5916.87
473.85	6022.20
474.03	6080.71
474.21	6214.12
474.39	6047.94
474.57	6125.18
474.75	6225.82
474.93	6263.27
475.12	6321.79
475.30	6422.43
475.48	6291.36
475.66	6253.91
475.84	6284.34
476.02	6422.43
476.20	6628.40
476.38	6523.07
476.56	6761.81
476.74	6700.95
476.92	6588.61
477.10	6658.82
477.28	6754.79
477.46	6630.74
477.64	6757.13
477.82	6848.41
478.00	7096.50
478.18	6998.20
478.36	7258.00
478.54	7124.59
478.72	7215.87
478.90	7274.38
479.08	7344.60
479.26	7534.18
479.44	7447.58
479.62	7417.16
479.80	7693.34
479.98	7756.54
480.16	7829.09
480.34	7742.49
480.52	7808.03
480.70	7705.04
480.88	7721.43
481.06	7707.38
481.24	7934.42
481.41	7967.18
481.59	8030.38
481.77	8154.43
481.95	8234.00
482.13	8369.76
482.31	8325.29
482.49	8571.04
482.67	8353.37
482.85	8524.23
483.03	8765.31
483.21	8863.61
483.39	8732.54
483.57	8695.09
483.74	8844.88
483.92	8805.10
484.10	8711.47
484.28	9046.17
484.46	9242.78
484.64	9032.13
484.82	9217.03
485.00	9226.39
485.18	9404.27
485.35	9671.09
485.53	9385.55
485.71	9514.28
485.89	9755.35
486.07	9708.54
486.25	9745.99
486.43	9753.01
486.61	9949.62
486.78	10010.47
486.96	10389.64
487.14	10312.40
487.32	10347.51
487.50	10511.35
487.68	10281.97
487.85	10436.45
488.03	10782.85
488.21	10775.83
488.39	10719.65
488.57	10843.70
488.75	10953.71
488.92	11136.27
489.10	11096.48
489.28	11379.68
489.46	11091.80
489.64	11309.47
489.81	11557.57
489.99	11468.62
490.17	11639.48
490.35	11679.27
490.53	11695.66
490.70	11896.94
490.88	12004.61
491.06	11779.92
491.24	11922.69
491.41	12116.95
491.59	12264.41
491.77	12191.85
491.95	12416.54
492.13	12505.48
492.30	12615.49
492.48	12716.13
492.66	12697.41
492.84	12631.87
493.01	12762.94
493.19	12751.24
493.37	12875.29
493.54	12968.91
493.72	13165.51
493.90	13226.37
494.08	13245.09
494.25	13699.16
494.43	13158.49
494.61	13638.30
494.79	13612.56
494.96	13401.91
495.14	13715.54
495.32	13764.69
495.49	14073.64
495.67	13862.99
495.85	13965.98
496.02	14171.94
496.20	14335.78
496.38	14291.31
496.55	14087.68
496.73	14413.02
496.91	14249.18
497.09	14602.60
497.26	14436.42
497.44	14672.82
497.62	14675.16
497.79	14860.06
497.97	14965.39
498.14	14988.79
498.32	14974.75
498.50	15206.46
498.67	15318.81
498.85	15056.67
499.03	15583.29
499.20	15236.89
499.38	15323.49
499.56	15459.24
499.73	15489.67
499.91	15573.92
500.08	15889.90
500.26	15534.14
500.44	15704.99
500.61	15847.77
500.79	15894.58
500.97	15789.25
501.14	16290.13
501.32	16123.95
501.49	16133.31
501.67	15974.16
501.84	16409.50
502.02	16353.32
502.20	16673.98
502.37	16475.03
502.55	16486.73
502.72	16779.30
502.90	16704.40
503.07	16404.81
503.25	16833.13
503.43	16512.48
503.60	16821.43
503.78	17088.25
503.95	16945.48
504.13	16891.65
504.30	16879.94
504.48	17118.68
504.65	17067.19
504.83	17362.09
505.01	17408.90
505.18	17273.15
505.36	17563.38
505.53	17301.24
505.71	17242.73
505.88	17434.65
506.06	17029.74
506.23	17879.35
506.41	17713.17
506.58	17767.01
506.76	17846.58
506.93	17818.50
507.11	17717.86
507.28	17972.97
507.46	17898.08
507.63	18085.32
507.81	18272.56
507.98	18200.01
508.16	18059.57
508.33	18305.33
508.50	18153.20
508.68	18286.61
508.85	18600.24
509.03	18326.39
509.20	18492.57
509.38	18593.22
509.55	18956.00
509.73	18602.58
509.90	18916.21
510.08	18817.91
510.25	19075.37
510.42	18948.98
510.60	18766.42
510.77	18965.36
510.95	19056.64
511.12	19396.02
511.30	19271.97
511.47	19056.64
511.64	19389.00
511.82	19257.93
511.99	19314.10
512.17	19487.30
512.34	19381.98
512.51	19454.53
512.69	19381.98
512.86	19484.96
513.04	19634.75
513.21	19613.69
513.38	20016.26
513.56	19665.18
513.73	19758.80
513.90	19995.20
514.08	19735.40
514.25	20077.12
514.43	20159.03
514.60	20126.27
514.77	20306.49
514.95	20184.78
515.12	20056.05
515.29	19936.68
515.47	20386.07
515.64	20636.50
515.81	20673.95
515.99	20704.38
516.16	20624.80
516.33	20357.98
516.51	20905.66
516.68	20734.81
516.85	20580.33
517.03	21060.14
517.20	20613.10
517.37	20926.73
517.54	21010.99
517.72	21165.46
517.89	21397.18
518.06	20793.32
518.24	20917.37
518.41	21191.21
518.58	21013.33
518.75	21322.28
518.93	21350.37
519.10	21345.69
519.27	21366.75
519.45	21575.06
519.62	21502.50
519.79	21488.46
519.96	21521.23
520.14	21876.99
520.31	21696.77
520.48	22228.07
520.65	21781.03
520.83	21846.56
521.00	21881.67
521.17	21872.31
521.34	22094.66
521.52	21792.73
521.69	21844.22
521.86	22342.75
522.03	22398.93
522.20	22216.36
522.38	22265.52
522.55	22136.79
522.72	22295.94
522.89	22249.13
523.07	22466.80
523.24	22923.21
523.41	22670.43
523.58	22347.44
523.75	22616.60
523.92	22541.70
524.10	22675.11
524.27	23089.38
524.44	22735.96
524.61	23082.36
524.78	23173.64
524.96	22958.31
525.13	22654.05
525.30	23168.96
525.47	23012.15
525.64	23269.61
525.81	23164.28
525.98	23253.22
526.16	23157.26
526.33	23449.83
526.50	23812.61
526.67	23239.18
526.84	23229.82
527.01	23304.71
527.18	23384.29
527.36	23871.12
527.53	23431.10
527.70	23644.09
527.87	23718.99
528.04	23803.25
528.21	24091.13
528.38	23768.14
528.55	23716.65
528.72	23894.53
528.89	23878.15
529.07	23882.83
529.24	23751.76
529.41	24027.94
529.58	23974.11
529.75	23974.11
529.92	24226.89
530.09	24011.56
530.26	24159.01
530.43	23917.93
530.60	23903.89
530.77	24212.84
530.94	24367.32
531.11	24114.54
531.28	24507.75
531.46	23917.93
531.63	24514.77
531.80	24259.65
531.97	24692.65
532.14	24683.29
532.31	24570.94
532.48	24357.96
532.65	24872.87
532.82	24547.54
532.99	24732.44
533.16	24372.00
533.33	24704.35
533.50	24992.24
533.67	25001.60
533.84	24673.93
534.01	24982.88
534.18	25071.82
534.35	24929.05
534.52	24753.51
534.69	24992.24
534.86	25125.65
535.03	25010.96
535.20	25427.58
535.37	25198.21
535.54	25165.44
535.71	25083.52
535.88	25226.29
536.05	25308.21
536.22	25984.63
536.38	25467.37
536.55	25603.12
536.72	25537.59
536.89	25502.48
537.06	25338.64
537.23	25682.70
537.40	25923.77
537.57	25963.56
537.74	25916.75
537.91	25811.43
538.08	25518.86
538.25	25647.59
538.42	25792.70
538.59	25933.14
538.75	25759.94
538.92	26132.08
539.09	26005.69
539.26	26199.96
539.43	25930.80
539.60	26059.52
539.77	26167.19
539.94	26073.57
540.11	26204.64
540.28	26087.61
540.44	26015.05
540.61	26199.96
540.78	26134.42
540.95	26438.69
541.12	26319.32
541.29	26473.80
541.46	26260.81
541.62	26347.41
541.79	26129.74
541.96	25968.24
542.13	26277.19
542.30	26831.90
542.47	26621.25
542.63	26731.26
542.80	26625.93
542.97	26937.23
543.14	26969.99
543.31	26665.72
543.48	26895.10
543.64	26789.77
543.81	27187.66
543.98	27239.15
544.15	26897.44
544.32	26782.75
544.48	27101.06
544.65	27009.78
544.82	27190.00
544.99	27061.27
545.16	27175.96
545.32	27171.28
545.49	27679.18
545.66	27524.70
545.83	27150.21
546.00	27510.66
546.16	27520.02
546.33	27271.92
546.50	27072.98
546.67	27573.85
546.83	27042.55
547.00	27236.81
547.17	27587.89
547.34	27585.55
547.50	27681.52
547.67	27798.54
547.84	27463.85
548.00	27807.90
548.17	27995.15
548.34	27716.62
548.51	28154.30
548.67	28004.51
548.84	28180.05
549.01	27632.36
549.18	27709.60
549.34	27978.76
549.51	27784.50
549.68	27672.15
549.84	27524.70
550.01	28088.77
550.18	28144.94
550.34	28034.94
550.51	27985.79
550.68	28507.72
550.84	27828.97
551.01	28552.20
551.18	28016.21
551.34	28130.90
551.51	28182.39
551.68	28301.76
551.84	28479.64
552.01	28407.08
552.18	28285.37
552.34	28505.38
552.51	28409.42
552.68	28521.77
552.84	28528.79
553.01	28538.15
553.18	28507.72
553.34	28568.58
553.51	28397.72
553.67	28716.03
553.84	28561.56
554.01	28877.53
554.17	28573.26
554.34	28510.07
554.51	28737.10
554.67	28828.38
554.84	28493.68
555.00	28561.56
555.17	28914.98
555.33	29022.64
555.50	28907.96
555.67	28933.70
555.83	28552.20
556.00	28744.12
556.16	28924.34
556.33	29039.03
556.50	29144.35
556.66	29029.66
556.83	29074.13
556.99	29413.51
557.16	29125.63
557.32	29340.96
557.49	29404.15
557.65	29369.04
557.82	28982.85
557.98	29055.41
558.15	29514.16
558.32	29032.00
558.48	29151.37
558.65	29315.21
558.81	29326.91
558.98	29188.82
559.14	29142.01
559.31	29216.91
559.47	29603.10
559.64	29214.57
559.80	28840.08
559.97	29422.87
560.13	29603.10
560.30	29645.23
560.46	29343.30
560.63	29553.94
560.79	29631.18
560.96	29607.78
561.12	29500.11
561.29	29230.95
561.45	29163.08
561.61	29621.82
561.78	29528.20
561.94	29757.57
562.11	29404.15
562.27	29596.07
562.44	29862.90
562.60	29785.66
562.77	29738.85
562.93	29549.26
563.10	30057.16
563.26	29420.53
563.42	29996.31
563.59	30000.99
563.75	29706.08
563.92	30047.80
564.08	30054.82
564.24	29729.48
564.41	29420.53
564.57	29633.52
564.74	29755.23
564.90	30113.33
565.07	29785.66
565.23	30143.76
565.39	29806.72
565.56	30174.19
565.72	29390.11
565.88	29701.40
566.05	29696.72
566.21	29860.55
566.38	29493.09
566.54	29872.26
566.70	30375.47
566.87	29914.39
567.03	30228.02
567.19	30415.26
567.36	30342.70
567.52	30031.41
567.68	29928.43
567.85	29944.81
568.01	30160.14
568.17	29703.74
568.34	30382.49
568.50	30118.01
568.66	29757.57
568.83	29820.77
568.99	30293.55
569.15	30473.78
569.32	30082.91
569.48	29923.75
569.64	30096.95
569.81	30073.54
569.97	30092.27
570.13	29951.84
570.30	29975.24
570.46	29872.26
570.62	29755.23
570.78	30221.00
570.95	30174.19
571.11	30108.65
571.27	30195.25
571.43	30005.67
571.60	30253.76
571.76	30073.54
571.92	30993.37
572.09	30572.08
572.25	30382.49
572.41	30480.80
572.57	30471.43
572.74	30473.78
572.90	30162.48
573.06	30082.91
573.22	30249.08
573.38	30251.42
573.55	30235.04
573.71	30829.54
573.87	30859.96
574.03	30529.95
574.20	30019.71
574.36	30143.76
574.52	30497.18
574.68	30249.08
574.84	30642.29
575.01	30429.30
575.17	30469.09
575.33	30445.69
575.49	30120.35
575.65	30438.67
575.82	30810.81
575.98	30176.53
576.14	30569.74
576.30	30511.22
576.46	30642.29
576.62	30424.62
576.79	30539.31
576.95	30368.45
577.11	30590.80
577.27	30721.87
577.43	30499.52
577.59	30398.88
577.75	30548.67
577.92	30487.82
578.08	30614.21
578.24	30415.26
578.40	30314.62
578.56	30600.16
578.72	30333.34
578.88	30944.22
579.04	30459.73
579.21	30885.71
579.37	30682.08
579.53	30543.99
579.69	30871.67
579.85	30298.23
580.01	30403.56
580.17	30384.83
580.33	30370.79
580.49	30534.63
580.65	30707.83
580.82	30771.02
580.98	30567.40
581.14	30728.89
581.30	30469.09
581.46	30789.75
581.62	30724.21
581.78	30525.27
581.94	30696.13
582.10	30349.73
582.26	30426.96
582.42	30567.40
582.58	30939.54
582.74	30689.10
582.90	30939.54
583.06	30684.42
583.22	30532.29
583.38	30682.08
583.54	30806.13
583.70	30635.27
583.86	30796.77
584.02	30293.55
584.18	30911.46
584.34	31072.95
584.50	30881.03
584.66	31131.47
584.82	30485.48
584.98	30445.69
585.14	30682.08
585.30	30513.56
585.46	30590.80
585.62	30525.27
585.78	30979.33
585.94	30436.33
586.10	30799.11
586.26	30756.98
586.42	31283.60
586.58	31044.87
586.74	30803.79
586.90	30375.47
587.06	30347.39
587.22	30387.18
587.38	30529.95
587.54	30719.53
587.70	31501.27
587.86	30745.28
588.02	31037.84
588.18	31000.40
588.34	30782.73
588.49	31068.27
588.65	30691.44
588.81	30822.51
588.97	30888.05
589.13	30274.83
589.29	30668.04
589.45	31042.53
589.61	30906.77
589.77	31253.17
589.93	31140.83
590.08	30948.90
590.24	31522.34
590.40	30946.56
590.56	31318.71
590.72	30766.34
590.88	30707.83
591.04	30733.57
591.20	31138.49
591.35	31276.58
591.51	31168.91
591.67	31126.78
591.83	31040.18
