SpectraSuite Data File
++++++++++++++++++++++++++++++++++++
Date: Fri Oct 18 13:58:26 GMT-05:00 2013
User: bianchi
Dark Spectrum Present: No
Reference Spectrum Present: No
Number of Sampled Component Spectra: 1
Spectrometers: USB2+H05261
Integration Time (usec): 50000 (USB2+H05261)
Spectra Averaged: 1 (USB2+H05261)
Boxcar Smoothing: 0 (USB2+H05261)
Correct for Electrical Dark: No (USB2+H05261)
Strobe/Lamp Enabled: No (USB2+H05261)
Correct for Detector Non-linearity: No (USB2+H05261)
Correct for Stray Light: No (USB2+H05261)
Number of Pixels in Processed Spectrum: 2048
>>>>>Begin Processed Spectral Data<<<<<
365.73	0.00
365.92	0.00
366.12	0.00
366.32	0.00
366.52	0.00
366.72	0.00
366.91	0.00
367.11	0.00
367.31	0.00
367.51	0.00
367.70	0.00
367.90	0.00
368.10	0.00
368.30	0.00
368.49	0.00
368.69	0.00
368.89	0.00
369.09	0.00
369.28	0.00
369.48	0.00
369.68	0.00
369.87	0.00
370.07	0.00
370.27	0.00
370.47	9.36
370.66	114.69
370.86	124.05
371.06	93.62
371.25	60.85
371.45	126.39
371.65	145.11
371.84	161.50
372.04	131.07
372.24	149.79
372.44	88.94
372.63	163.84
372.83	212.99
373.03	201.29
373.22	196.60
373.42	182.56
373.62	264.48
373.81	259.80
374.01	255.12
374.21	196.60
374.40	215.33
374.60	266.82
374.79	248.10
374.99	210.65
375.19	262.14
375.38	259.80
375.58	156.82
375.78	287.89
375.97	177.88
376.17	266.82
376.37	262.14
376.56	212.99
376.76	264.48
376.95	229.37
377.15	212.99
377.35	262.14
377.54	269.16
377.74	297.25
377.93	234.05
378.13	285.55
378.33	292.57
378.52	257.46
378.72	301.93
378.91	299.59
379.11	208.31
379.31	308.95
379.50	322.99
379.70	332.36
379.89	227.03
380.09	301.93
380.28	299.59
380.48	348.74
380.68	332.36
380.87	271.50
381.07	315.97
381.26	325.33
381.46	243.42
381.65	243.42
381.85	337.04
382.04	320.65
382.24	322.99
382.43	393.21
382.63	360.44
382.83	285.55
383.02	369.80
383.22	433.00
383.41	248.10
383.61	304.27
383.80	367.46
384.00	365.12
384.19	362.78
384.39	404.91
384.58	344.06
384.78	346.40
384.97	400.23
385.17	327.68
385.36	372.15
385.56	409.59
385.75	430.66
385.95	484.49
386.14	416.62
386.34	311.29
386.53	381.51
386.72	390.87
386.92	472.79
387.11	395.55
387.31	388.53
387.50	395.55
387.70	447.04
387.89	437.68
388.09	409.59
388.28	447.04
388.48	379.17
388.67	479.81
388.86	444.70
389.06	449.38
389.25	503.22
389.45	514.92
389.64	440.02
389.84	440.02
390.03	566.41
390.22	461.09
390.42	496.19
390.61	528.96
390.81	475.13
391.00	496.19
391.19	526.62
391.39	484.49
391.58	566.41
391.78	444.70
391.97	437.68
392.16	437.68
392.36	533.64
392.55	519.60
392.75	517.26
392.94	533.64
393.13	535.98
393.33	615.56
393.52	568.75
393.71	564.07
393.91	535.98
394.10	550.03
394.29	552.37
394.49	545.34
394.68	613.22
394.88	526.62
395.07	615.56
395.26	624.92
395.46	617.90
395.65	566.41
395.84	580.45
396.04	690.46
396.23	638.97
396.42	603.86
396.62	610.88
396.81	748.97
397.00	655.35
397.19	660.03
397.39	603.86
397.58	704.50
397.77	641.31
397.97	648.33
398.16	624.92
398.35	709.18
398.55	704.50
398.74	631.94
398.93	706.84
399.12	723.23
399.32	730.25
399.51	709.18
399.70	723.23
399.90	741.95
400.09	772.38
400.28	833.23
400.47	662.37
400.67	784.08
400.86	809.83
401.05	833.23
401.24	816.85
401.44	924.51
401.63	861.32
401.82	828.55
402.01	741.95
402.21	800.46
402.40	774.72
402.59	877.70
402.78	858.98
402.97	814.51
403.17	854.30
403.36	823.87
403.55	837.91
403.74	844.93
403.93	873.02
404.13	882.38
404.32	950.26
404.51	973.66
404.70	919.83
404.89	936.21
405.09	954.94
405.28	877.70
405.47	877.70
405.66	954.94
405.85	898.77
406.05	1011.11
406.24	875.36
406.43	1018.13
406.62	961.96
406.81	1064.94
407.00	889.40
407.20	903.45
407.39	919.83
407.58	999.41
407.77	1123.46
407.96	1121.12
408.15	1069.62
408.34	1053.24
408.54	1034.52
408.73	990.05
408.92	1069.62
409.11	1081.33
409.30	1132.82
409.49	1128.14
409.68	1153.88
409.87	1186.65
410.07	1179.63
410.26	1053.24
410.45	1128.14
410.64	1212.40
410.83	1158.57
411.02	1254.53
411.21	1261.55
411.40	1153.88
411.59	1252.19
411.78	1198.35
411.98	1240.48
412.17	1233.46
412.36	1266.23
412.55	1348.15
412.74	1324.74
412.93	1338.79
413.12	1383.26
413.31	1334.11
413.50	1282.61
413.69	1406.66
413.88	1497.94
414.07	1418.36
414.26	1423.05
414.45	1535.39
414.64	1427.73
414.83	1519.01
415.02	1425.39
415.22	1561.14
415.41	1643.06
415.60	1607.95
415.79	1584.54
415.98	1619.65
416.17	1530.71
416.36	1488.58
416.55	1558.80
416.74	1678.16
416.93	1551.78
417.12	1593.90
417.31	1638.38
417.50	1598.59
417.69	1678.16
417.88	1694.55
418.07	1811.57
418.26	1600.93
418.45	1732.00
418.64	1825.62
418.83	1790.51
419.02	1778.81
419.21	1727.32
419.39	1874.77
419.58	1809.23
419.77	1827.96
419.96	1914.56
420.15	1870.09
420.34	1802.21
420.53	1959.03
420.72	1935.62
420.91	1806.89
421.10	1900.52
421.29	1933.28
421.48	1818.60
421.67	1982.43
421.86	1893.49
422.05	1952.01
422.24	1865.41
422.43	1994.14
422.61	2019.88
422.80	2036.27
422.99	1905.20
423.18	1989.46
423.37	1998.82
423.56	2083.08
423.75	1860.73
423.94	1933.28
424.13	1898.17
424.32	1879.45
424.50	2094.78
424.69	2050.31
424.88	2001.16
425.07	2003.50
425.26	1944.99
425.45	2026.90
425.64	2012.86
425.83	2174.36
426.01	2085.42
426.20	2059.67
426.39	2071.37
426.58	2125.21
426.77	2078.40
426.96	2174.36
427.15	2050.31
427.33	2080.74
427.52	2052.65
427.71	2120.53
427.90	2031.58
428.09	2062.01
428.28	2181.38
428.46	2073.71
428.65	2099.46
428.84	2347.56
429.03	2188.40
429.22	2174.36
429.40	2260.96
429.59	2303.09
429.78	2230.53
429.97	2146.27
430.16	2242.23
430.34	2172.02
430.53	2342.88
430.72	2359.26
430.91	2277.34
431.10	2307.77
431.28	2352.24
431.47	2293.72
431.66	2317.13
431.85	2293.72
432.03	2396.71
432.22	2452.88
432.41	2406.07
432.60	2506.71
432.79	2363.94
432.97	2546.50
433.16	2469.27
433.35	2385.01
433.54	2438.84
433.72	2429.48
433.91	2476.29
434.10	2504.37
434.28	2534.80
434.47	2595.65
434.66	2424.80
434.85	2487.99
435.03	2593.31
435.22	2637.78
435.41	2630.76
435.59	2530.12
435.78	2715.02
435.97	2637.78
436.16	2600.34
436.34	2635.44
436.53	2628.42
436.72	2764.17
436.90	2717.36
437.09	2719.70
437.28	2682.25
437.46	2750.13
437.65	2780.56
437.84	2855.45
438.02	2867.16
438.21	2710.34
438.40	2672.89
438.58	2864.82
438.77	2808.64
438.96	2757.15
439.14	2967.80
439.33	2902.26
439.52	2972.48
439.70	3159.72
439.89	3101.21
440.08	2958.44
440.26	3108.23
440.45	3007.59
440.63	3089.51
440.82	3070.78
441.01	3108.23
441.19	3180.79
441.38	3192.49
441.57	3194.83
441.75	3321.22
441.94	3141.00
442.12	3178.45
442.31	3365.69
442.50	3335.26
442.68	3206.53
442.87	3410.16
443.05	3325.90
443.24	3508.46
443.43	3337.60
443.61	3382.07
443.80	3566.98
443.98	3330.58
444.17	3269.73
444.35	3442.93
444.54	3478.04
444.73	3349.31
444.91	3318.88
445.10	3463.99
445.28	3461.65
445.47	3405.48
445.65	3356.33
445.84	3405.48
446.02	3391.44
446.21	3487.40
446.39	3325.90
446.58	3506.12
446.77	3466.33
446.95	3487.40
447.14	3375.05
447.32	3517.83
447.51	3489.74
447.69	3447.61
447.88	3566.98
448.06	3449.95
448.25	3508.46
448.43	3597.40
448.62	3576.34
448.80	3590.38
448.99	3496.76
449.17	3588.04
449.36	3524.85
449.54	3566.98
449.73	3609.11
449.91	3709.75
450.10	3655.92
450.28	3541.23
450.46	3625.49
450.65	3679.32
450.83	3702.73
451.02	3625.49
451.20	3866.56
451.39	3747.20
451.57	3679.32
451.76	3794.01
451.94	3801.03
452.13	3847.84
452.31	3669.96
452.49	3796.35
452.68	3875.93
452.86	3749.54
453.05	3882.95
453.23	4070.19
453.42	3892.31
453.60	3801.03
453.78	3922.74
453.97	3772.94
454.15	3847.84
454.34	3864.22
454.52	4086.58
454.70	3988.27
454.89	3946.14
455.07	4042.11
455.26	4142.75
455.44	4177.86
455.62	4025.72
455.81	4241.05
455.99	4117.00
456.17	4168.49
456.36	4135.73
456.54	4351.06
456.73	4217.65
456.91	4421.27
457.09	4301.90
457.28	4435.32
457.46	4234.03
457.64	4299.56
457.83	4358.08
458.01	4266.80
458.19	4386.16
458.38	4297.22
458.56	4421.27
458.74	4217.65
458.93	4372.12
459.11	4379.14
459.29	4489.15
459.48	4404.89
459.66	4447.02
459.84	4421.27
460.03	4528.94
460.21	4477.44
460.39	4496.17
460.57	4491.49
460.76	4542.98
460.94	4610.86
461.12	4547.66
461.31	4496.17
461.49	4444.68
461.67	4545.32
461.85	4798.10
462.04	4748.95
462.22	4681.07
462.40	4716.18
462.59	4821.50
462.77	4636.60
462.95	4821.50
463.13	4751.29
463.32	4788.74
463.50	4823.84
463.68	4898.74
463.86	4933.85
464.05	4823.84
464.23	4891.72
464.41	4802.78
464.59	4847.25
464.78	4865.97
464.96	4870.65
465.14	4903.42
465.32	4947.89
465.50	4997.04
465.69	5104.71
465.87	4898.74
466.05	5069.60
466.23	4954.91
466.41	5039.17
466.60	5245.14
466.78	4980.66
466.96	5046.20
467.14	4873.00
467.32	4891.72
467.51	5130.45
467.69	4889.38
467.87	5118.75
468.05	5301.31
468.23	5100.03
468.41	5107.05
468.60	5139.82
468.78	5275.57
468.96	5135.14
469.14	5177.26
469.32	5371.53
469.50	5123.43
469.69	5259.18
469.87	5294.29
470.05	5533.03
470.23	5481.53
470.41	5472.17
470.59	5369.19
470.77	5399.62
470.95	5324.72
471.14	5441.75
471.32	5490.90
471.50	5586.86
471.68	5675.80
471.86	5406.64
472.04	5607.92
472.22	5753.04
472.40	5797.51
472.58	5746.02
472.77	5692.18
472.95	5856.02
473.13	5722.61
473.31	5867.72
473.49	5600.90
473.67	5708.57
473.85	5900.49
474.03	6015.18
474.21	5849.00
474.39	6097.10
474.57	5994.11
474.75	6122.84
474.93	6183.70
475.12	6150.93
475.30	6118.16
475.48	6188.38
475.66	6319.45
475.84	6340.51
476.02	6129.86
476.20	6361.58
476.38	6499.67
476.56	6424.77
476.74	6408.39
476.92	6427.11
477.10	6399.02
477.28	6590.95
477.46	6693.93
477.64	6569.88
477.82	6738.40
478.00	6815.64
478.18	6827.34
478.36	6913.94
478.54	7019.27
478.72	7110.55
478.90	6911.60
479.08	7286.09
479.26	7159.70
479.44	7094.16
479.62	7103.53
479.80	7328.22
479.98	7309.49
480.16	7566.95
480.34	7485.03
480.52	7417.16
480.70	7672.28
480.88	7559.93
481.06	7602.06
481.24	7616.10
481.41	7786.96
481.59	7885.26
481.77	7988.25
481.95	7927.39
482.13	7985.91
482.31	8067.83
482.49	8189.53
482.67	8095.91
482.85	8266.77
483.03	8362.73
483.21	8304.22
483.39	8610.83
483.57	8362.73
483.74	8493.80
483.92	8542.96
484.10	8650.62
484.28	8828.50
484.46	9011.06
484.64	9238.09
484.82	9100.00
485.00	9060.21
485.18	9341.08
485.35	9261.50
485.53	9198.31
485.71	9420.66
485.89	9689.82
486.07	9544.70
486.25	9336.40
486.43	9500.23
486.61	9500.23
486.78	9816.21
486.96	9954.30
487.14	10106.43
487.32	10008.13
487.50	10073.67
487.68	10174.31
487.85	10209.42
488.03	10455.17
488.21	10501.98
488.39	10616.67
488.57	10621.35
488.75	10602.63
488.92	10942.00
489.10	10813.28
489.28	10960.73
489.46	11066.05
489.64	11110.52
489.81	11391.39
489.99	11215.85
490.17	11234.57
490.35	11417.13
490.53	11459.26
490.70	11632.46
490.88	11309.47
491.06	11791.62
491.24	11623.10
491.41	11543.52
491.59	11988.22
491.77	11990.56
491.95	12409.52
492.13	12262.07
492.30	12299.52
492.48	12264.41
492.66	12250.36
492.84	12444.63
493.01	12580.38
493.19	12554.63
493.37	12685.70
493.54	12940.82
493.72	12666.98
493.90	12758.26
494.08	12872.95
494.25	12945.50
494.43	13008.70
494.61	13034.44
494.79	12982.95
494.96	13362.12
495.14	13076.57
495.32	13544.68
495.49	13561.06
495.67	13645.32
495.85	13535.32
496.02	13851.29
496.20	13743.63
496.38	13565.74
496.55	13781.07
496.73	14200.03
496.91	14333.44
497.09	14012.79
497.26	14274.93
497.44	14115.77
497.62	14258.54
497.79	14623.67
497.97	14370.89
498.14	14661.12
498.32	14869.42
498.50	14707.93
498.67	14951.34
498.85	14808.57
499.03	14953.68
499.20	15030.92
499.38	14963.04
499.56	15384.34
499.73	15112.84
499.91	15220.50
500.08	15377.32
500.26	15014.54
500.44	15428.81
500.61	15496.69
500.79	15594.99
500.97	15646.48
501.14	15854.79
501.32	15786.91
501.49	15527.11
501.67	15749.46
501.84	16035.01
502.02	15978.84
502.20	15917.98
502.37	16109.91
502.55	16077.14
502.72	16224.59
502.90	16189.49
503.07	16011.60
503.25	15981.18
503.43	16329.92
503.60	16599.08
503.78	16348.64
503.95	16472.69
504.13	16226.93
504.30	16706.74
504.48	16798.02
504.65	16730.15
504.83	16652.91
505.01	16938.46
505.18	16788.66
505.36	17025.06
505.53	16676.32
505.71	17043.78
505.88	17301.24
506.06	17181.87
506.23	17151.45
506.41	17114.00
506.58	17341.03
506.76	17561.04
506.93	17397.20
507.11	17078.89
507.28	17254.43
507.46	17352.73
507.63	17476.78
507.81	17930.84
507.98	17556.36
508.16	17804.46
508.33	17888.71
508.50	18150.85
508.68	17954.25
508.85	18087.66
509.03	17692.11
509.20	17895.74
509.38	18310.01
509.55	18293.63
509.73	18218.73
509.90	18328.74
510.08	18059.57
510.25	18310.01
510.42	18518.32
510.60	18405.97
510.77	18848.33
510.95	18546.40
511.12	18565.13
511.30	18689.18
511.47	18604.92
511.64	18361.50
511.82	19075.37
511.99	18867.06
512.17	19030.90
512.34	19119.84
512.51	18899.83
512.69	19206.44
512.86	19227.50
513.04	19145.58
513.21	19426.45
513.38	19229.84
513.56	19431.13
513.73	19630.07
513.90	19541.13
514.08	19374.95
514.25	19527.09
514.43	19274.31
514.60	19536.45
514.77	19585.60
514.95	19609.01
515.12	19967.11
515.29	19461.55
515.47	20013.92
515.64	19924.98
515.81	19910.94
515.99	20196.48
516.16	20182.44
516.33	20187.12
516.51	20126.27
516.68	20217.55
516.85	20290.10
517.03	19953.07
517.20	20554.58
517.37	20407.13
517.54	20325.21
517.72	20655.23
517.89	20236.27
518.06	20369.68
518.24	20451.60
518.41	20716.08
518.58	20519.48
518.75	20727.78
518.93	20624.80
519.10	20809.70
519.27	20908.01
519.45	21027.37
519.62	20847.15
519.79	20725.44
519.96	20898.64
520.14	21193.55
520.31	21001.63
520.48	21261.43
520.65	21273.13
520.83	21310.58
521.00	21376.11
521.17	21123.33
521.34	21315.26
521.52	21766.98
521.69	21500.16
521.86	21687.40
522.03	21546.97
522.20	21762.30
522.38	21546.97
522.55	21748.26
522.72	21577.40
522.89	22108.70
523.07	21872.31
523.24	22125.08
523.41	22045.51
523.58	21806.77
523.75	22113.38
523.92	22216.36
524.10	21991.67
524.27	22167.21
524.44	22202.32
524.61	22831.93
524.78	22469.14
524.96	22253.81
525.13	22237.43
525.30	22677.45
525.47	22665.75
525.64	22412.97
525.81	22419.99
525.98	22712.56
526.16	22602.55
526.33	22270.20
526.50	22808.52
526.67	22258.49
526.84	22944.27
527.01	22801.50
527.18	22874.06
527.36	22787.46
527.53	22794.48
527.70	23009.81
527.87	23330.46
528.04	23122.15
528.21	22852.99
528.38	23126.83
528.55	23122.15
528.72	23073.00
528.89	23180.67
529.07	23084.70
529.24	23145.56
529.41	23498.98
529.58	23304.71
529.75	23180.67
529.92	23026.19
530.09	23379.61
530.26	23449.83
530.43	23709.63
530.60	23360.89
530.77	23594.94
530.94	23714.31
531.11	23590.26
531.28	23690.90
531.46	23660.48
531.63	23779.84
531.80	23669.84
531.97	23580.90
532.14	23880.49
532.31	23821.97
532.48	23859.42
532.65	24243.27
532.82	23819.63
532.99	23950.70
533.16	24004.53
533.33	24320.51
533.50	24308.80
533.67	24460.94
533.84	24119.22
534.01	24369.66
534.18	24449.24
534.35	24341.57
534.52	24383.70
534.69	24528.81
534.86	24367.32
535.03	24329.87
535.20	24294.76
535.37	24507.75
535.54	24397.74
535.71	24657.54
535.88	24678.61
536.05	24341.57
536.22	24744.14
536.38	24662.22
536.55	24828.40
536.72	24982.88
536.89	24636.48
537.06	25034.37
537.23	25170.12
537.40	24601.37
537.57	24858.83
537.74	25186.50
537.91	25476.73
538.08	25628.87
538.25	25179.48
538.42	24975.86
538.59	25104.59
538.75	25025.01
538.92	25032.03
539.09	25259.06
539.26	25186.50
539.43	25067.14
539.60	25259.06
539.77	25448.64
539.94	25312.89
540.11	25429.92
540.28	25589.08
540.44	25560.99
540.61	25364.39
540.78	24994.58
540.95	25275.45
541.12	25429.92
541.29	25792.70
541.46	25436.94
541.62	25521.20
541.79	25359.70
541.96	25273.10
542.13	25308.21
542.30	25736.53
542.47	25680.36
542.63	26096.97
542.80	26244.43
542.97	25895.69
543.14	26181.23
543.31	26321.66
543.48	26225.70
543.64	26511.25
543.81	26087.61
543.98	26108.68
544.15	26499.55
544.32	26153.15
544.48	26698.49
544.65	26218.68
544.82	26143.78
544.99	26143.78
545.16	26059.52
545.32	26445.71
545.49	26773.39
545.66	26843.60
545.83	27101.06
546.00	26614.23
546.16	26342.73
546.33	26600.19
546.50	26448.05
546.67	26101.65
546.83	26497.20
547.00	26611.89
547.17	26625.93
547.34	27042.55
547.50	27000.42
547.67	27264.90
547.84	26501.89
548.00	26768.71
548.17	26824.88
548.34	27012.12
548.51	27000.42
548.67	27068.30
548.84	26792.11
549.01	27377.25
549.18	26939.57
549.34	27068.30
549.51	27044.89
549.68	27384.27
549.84	26766.37
550.01	27264.90
550.18	27185.32
550.34	27115.11
550.51	27503.64
550.68	27454.48
550.84	27215.75
551.01	27150.21
551.18	27318.73
551.34	27206.39
551.51	27119.79
551.68	27295.33
551.84	27501.29
552.01	27091.70
552.18	27690.88
552.34	27098.72
552.51	27491.93
552.68	27185.32
552.84	27431.08
553.01	27775.14
553.18	27487.25
553.34	27725.99
553.51	27594.92
553.67	27908.55
553.84	28056.00
554.01	27590.24
554.17	27747.05
554.34	27618.32
554.51	27892.16
554.67	28203.46
554.84	28175.37
555.00	27978.76
555.17	27857.06
555.33	28032.60
555.50	27850.03
555.67	27922.59
555.83	27950.68
556.00	27936.63
556.16	28315.80
556.33	27981.10
556.50	27927.27
556.66	28409.42
556.83	28425.81
556.99	28608.37
557.16	28400.06
557.32	28114.52
557.49	28428.15
557.65	28327.50
557.82	28315.80
557.98	28346.23
558.15	28304.10
558.32	28460.91
558.48	28535.81
558.65	28531.13
558.81	28563.90
558.98	28130.90
559.14	28411.76
559.31	28196.43
559.47	28123.88
559.64	28247.93
559.80	28428.15
559.97	28662.20
560.13	28371.97
560.30	28533.47
560.46	28346.23
560.63	28409.42
560.79	28449.21
560.96	28692.63
561.12	28613.05
561.29	28390.70
561.45	28500.70
561.61	28472.62
561.78	28807.31
561.94	28278.35
562.11	28926.68
562.27	28879.87
562.44	28699.65
562.60	28765.18
562.77	28748.80
562.93	28498.36
563.10	28779.23
563.26	28982.85
563.42	29219.25
563.59	28807.31
563.75	28739.44
563.92	29015.62
564.08	28477.30
564.24	28886.89
564.41	28610.71
564.57	28699.65
564.74	28919.66
564.90	29043.71
565.07	29050.73
565.23	28933.70
565.39	29062.43
565.56	29172.44
565.72	28699.65
565.88	29013.28
566.05	29163.08
566.21	28503.04
566.38	29134.99
566.54	28985.19
566.70	29064.77
566.87	29259.04
567.03	29039.03
567.19	29081.16
567.36	29132.65
567.52	29188.82
567.68	29139.67
567.85	29039.03
568.01	29280.10
568.17	28938.38
568.34	29392.45
568.50	29411.17
568.66	29289.46
568.83	29560.97
568.99	29205.20
569.15	28872.85
569.32	29163.08
569.48	29032.00
569.64	29200.52
569.81	29137.33
569.97	29565.65
570.13	29401.81
570.30	29202.86
570.46	29097.54
570.62	29280.10
570.78	29275.42
570.95	29165.42
571.11	28914.98
571.27	29336.27
571.43	28804.97
571.60	29249.67
571.76	29516.50
571.92	29266.06
572.09	29584.37
572.25	29710.76
572.41	29479.05
572.57	29266.06
572.74	29888.64
572.90	29050.73
573.06	29495.43
573.22	29490.75
573.38	29404.15
573.55	29268.40
573.71	29722.46
573.87	29345.64
574.03	29441.60
574.20	29579.69
574.36	29261.38
574.52	29535.22
574.68	29432.24
574.84	29497.77
575.01	29401.81
575.17	29366.70
575.33	29298.83
575.49	29479.05
575.65	29326.91
575.82	29493.09
575.98	29195.84
576.14	29755.23
576.30	29085.84
576.46	29530.54
576.62	29570.33
576.79	29385.43
576.95	29766.93
577.11	29521.18
577.27	29350.32
577.43	29907.37
577.59	29474.37
577.75	29673.31
577.92	29860.55
578.08	29448.62
578.24	29748.21
578.40	29450.96
578.56	29766.93
578.72	29507.13
578.88	29509.47
579.04	29813.74
579.21	29455.64
579.37	29645.23
579.53	29680.33
579.69	29277.76
579.85	29347.98
580.01	29635.86
580.17	29621.82
580.33	29137.33
580.49	29989.28
580.65	29373.72
580.82	29614.80
580.98	29535.22
581.14	29975.24
581.30	29851.19
581.46	29399.47
581.62	29724.80
581.78	29434.58
581.94	29553.94
582.10	29429.90
582.26	29539.90
582.42	29736.51
582.58	29844.17
582.74	29500.11
582.90	29685.01
583.06	29867.58
583.22	29467.34
583.38	29916.73
583.54	29773.95
583.70	29806.72
583.86	29577.35
584.02	29266.06
584.18	29785.66
584.34	29951.84
584.50	29748.21
584.66	29834.81
584.82	29607.78
584.98	30031.41
585.14	29507.13
585.30	29516.50
585.46	29963.54
585.62	29729.48
585.78	29677.99
585.94	29898.00
586.10	29486.07
586.26	29958.86
586.42	30146.10
586.58	29617.14
586.74	29656.93
586.90	29404.15
587.06	30103.97
587.22	29766.93
587.38	29455.64
587.54	30120.35
587.70	29851.19
587.86	30068.86
588.02	30176.53
588.18	29886.30
588.34	29883.96
588.49	29949.50
588.65	29919.07
588.81	29659.27
588.97	29825.45
589.13	29692.04
589.29	29986.94
589.45	29961.20
589.61	29986.94
589.77	30326.32
589.93	30464.41
590.08	30132.06
590.24	30132.06
590.40	29933.11
590.56	30293.55
590.72	29886.30
590.88	29673.31
591.04	30008.01
591.20	30316.96
591.35	30197.59
591.51	30394.20
591.67	30263.13
591.83	29956.52
591.99	29741.19
