SpectraSuite Data File
++++++++++++++++++++++++++++++++++++
Date: Fri Oct 18 13:58:06 GMT-05:00 2013
User: bianchi
Dark Spectrum Present: No
Reference Spectrum Present: No
Number of Sampled Component Spectra: 1
Spectrometers: USB2+H05261
Integration Time (usec): 50000 (USB2+H05261)
Spectra Averaged: 1 (USB2+H05261)
Boxcar Smoothing: 0 (USB2+H05261)
Correct for Electrical Dark: No (USB2+H05261)
Strobe/Lamp Enabled: No (USB2+H05261)
Correct for Detector Non-linearity: No (USB2+H05261)
Correct for Stray Light: No (USB2+H05261)
Number of Pixels in Processed Spectrum: 2048
>>>>>Begin Processed Spectral Data<<<<<
365.73	0.00
365.92	0.00
366.12	0.00
366.32	0.00
366.52	0.00
366.72	0.00
366.91	0.00
367.11	0.00
367.31	0.00
367.51	0.00
367.70	0.00
367.90	0.00
368.10	0.00
368.30	0.00
368.49	0.00
368.69	0.00
368.89	0.00
369.09	0.00
369.28	0.00
369.48	0.00
369.68	0.00
369.87	0.00
370.07	0.00
370.27	0.00
370.47	0.00
370.66	100.64
370.86	95.96
371.06	177.88
371.25	159.16
371.45	138.09
371.65	177.88
371.84	156.82
372.04	72.56
372.24	114.69
372.44	173.20
372.63	156.82
372.83	220.01
373.03	245.76
373.22	229.37
373.42	187.24
373.62	212.99
373.81	264.48
374.01	210.65
374.21	287.89
374.40	234.05
374.60	241.08
374.79	273.84
374.99	224.69
375.19	264.48
375.38	292.57
375.58	273.84
375.78	276.18
375.97	250.44
376.17	231.71
376.37	266.82
376.56	264.48
376.76	255.12
376.95	262.14
377.15	259.80
377.35	315.97
377.54	259.80
377.74	280.86
377.93	252.78
378.13	372.15
378.33	287.89
378.52	262.14
378.72	299.59
378.91	299.59
379.11	327.68
379.31	287.89
379.50	353.42
379.70	346.40
379.89	294.91
380.09	259.80
380.28	276.18
380.48	358.10
380.68	299.59
380.87	245.76
381.07	318.31
381.26	320.65
381.46	409.59
381.65	269.16
381.85	360.44
382.04	346.40
382.24	353.42
382.43	304.27
382.63	322.99
382.83	287.89
383.02	430.66
383.22	250.44
383.41	372.15
383.61	365.12
383.80	337.04
384.00	355.76
384.19	292.57
384.39	383.85
384.58	344.06
384.78	369.80
384.97	369.80
385.17	369.80
385.36	360.44
385.56	430.66
385.75	409.59
385.95	418.96
386.14	477.47
386.34	435.34
386.53	421.30
386.72	388.53
386.92	418.96
387.11	341.72
387.31	421.30
387.50	470.45
387.70	369.80
387.89	449.38
388.09	505.56
388.28	528.96
388.48	388.53
388.67	388.53
388.86	442.36
389.06	390.87
389.25	528.96
389.45	528.96
389.64	430.66
389.84	538.32
390.03	528.96
390.22	571.09
390.42	475.13
390.61	491.51
390.81	500.87
391.00	592.16
391.19	524.28
391.39	479.81
391.58	507.90
391.78	484.49
391.97	592.16
392.16	507.90
392.36	645.99
392.55	582.79
392.75	505.56
392.94	566.41
393.13	547.69
393.33	582.79
393.52	538.32
393.71	512.58
393.91	568.75
394.10	559.39
394.29	575.77
394.49	601.52
394.68	660.03
394.88	575.77
395.07	617.90
395.26	580.45
395.46	615.56
395.65	603.86
395.84	622.58
396.04	615.56
396.23	718.54
396.42	592.16
396.62	634.29
396.81	634.29
397.00	606.20
397.19	695.14
397.39	671.73
397.58	657.69
397.77	634.29
397.97	795.78
398.16	664.71
398.35	723.23
398.55	692.80
398.74	730.25
398.93	751.31
399.12	826.21
399.32	755.99
399.51	737.27
399.70	748.97
399.90	765.36
400.09	706.84
400.28	833.23
400.47	774.72
400.67	702.16
400.86	851.96
401.05	877.70
401.24	847.27
401.44	828.55
401.63	830.89
401.82	755.99
402.01	739.61
402.21	777.06
402.40	758.33
402.59	854.30
402.78	814.51
402.97	896.43
403.17	875.36
403.36	884.72
403.55	922.17
403.74	908.13
403.93	854.30
404.13	882.38
404.32	774.72
404.51	908.13
404.70	924.51
404.89	938.55
405.09	863.66
405.28	994.73
405.47	1053.24
405.66	959.62
405.85	1001.75
406.05	1004.09
406.24	1083.67
406.43	931.53
406.62	1050.90
406.81	1083.67
407.00	1022.81
407.20	961.96
407.39	1048.56
407.58	1076.65
407.77	1029.84
407.96	1076.65
408.15	1078.99
408.34	1039.20
408.54	1041.54
408.73	1160.91
408.92	1107.07
409.11	1100.05
409.30	1210.06
409.49	1205.38
409.68	1156.22
409.87	1198.35
410.07	1156.22
410.26	1261.55
410.45	1086.01
410.64	1163.25
410.83	1130.48
411.02	1172.61
411.21	1249.85
411.40	1240.48
411.59	1203.04
411.78	1308.36
411.98	1214.74
412.17	1322.40
412.36	1277.93
412.55	1315.38
412.74	1280.27
412.93	1345.81
413.12	1299.00
413.31	1413.68
413.50	1397.30
413.69	1273.25
413.88	1322.40
414.07	1423.05
414.26	1458.15
414.45	1430.07
414.64	1561.14
414.83	1511.99
415.02	1565.82
415.22	1502.62
415.41	1565.82
415.60	1519.01
415.79	1652.42
415.98	1563.48
416.17	1678.16
416.36	1535.39
416.55	1696.89
416.74	1640.72
416.93	1607.95
417.12	1680.50
417.31	1701.57
417.50	1748.38
417.69	1694.55
417.88	1689.87
418.07	1713.27
418.26	1736.68
418.45	1734.34
418.64	1764.76
418.83	1834.98
419.02	1804.55
419.21	1942.64
419.39	1776.47
419.58	1783.49
419.77	1729.66
419.96	1944.99
420.15	1909.88
420.34	1764.76
420.53	1968.39
420.72	1916.90
420.91	1963.71
421.10	2010.52
421.29	1905.20
421.48	1881.79
421.67	1877.11
421.86	1926.26
422.05	1984.77
422.24	1970.73
422.43	1888.81
422.61	2047.97
422.80	1949.67
422.99	2052.65
423.18	1982.43
423.37	1996.48
423.56	1935.62
423.75	2045.63
423.94	1987.11
424.13	1865.41
424.32	1947.33
424.50	1998.82
424.69	2069.03
424.88	2076.06
425.07	2010.52
425.26	2078.40
425.45	2165.00
425.64	1944.99
425.83	2076.06
426.01	2038.61
426.20	1942.64
426.39	2019.88
426.58	2057.33
426.77	2071.37
426.96	2029.24
427.15	2050.31
427.33	2167.34
427.52	2136.91
427.71	2195.42
427.90	2195.42
428.09	2197.76
428.28	2157.97
428.46	2230.53
428.65	2270.32
428.84	2312.45
429.03	2464.58
429.22	2263.30
429.40	2244.57
429.59	2324.15
429.78	2249.25
429.97	2153.29
430.16	2349.90
430.34	2246.91
430.53	2420.11
430.72	2347.56
430.91	2296.07
431.10	2307.77
431.28	2347.56
431.47	2373.30
431.66	2415.43
431.85	2455.22
432.03	2572.25
432.22	2513.74
432.41	2392.03
432.60	2455.22
432.79	2518.42
432.97	2490.33
433.16	2450.54
433.35	2583.95
433.54	2548.84
433.72	2614.38
433.91	2387.35
434.10	2539.48
434.28	2511.39
434.47	2504.37
434.66	2635.44
434.85	2513.74
435.03	2499.69
435.22	2630.76
435.41	2726.72
435.59	2658.85
435.78	2605.02
435.97	2745.45
436.16	2656.51
436.34	2672.89
436.53	2717.36
436.72	2663.53
436.90	2586.29
437.09	2724.38
437.28	2773.53
437.46	2600.34
437.65	2799.28
437.84	2700.98
438.02	2815.66
438.21	2738.43
438.40	2733.75
438.58	2885.88
438.77	2930.35
438.96	2818.00
439.14	2860.13
439.33	2902.26
439.52	2998.23
439.70	3082.49
439.89	3138.66
440.08	3019.29
440.26	3152.70
440.45	3103.55
440.63	3052.06
440.82	3133.98
441.01	3082.49
441.19	3112.91
441.38	3129.30
441.57	3386.76
441.75	3241.64
441.94	3356.33
442.12	3351.65
442.31	3442.93
442.50	3449.95
442.68	3330.58
442.87	3353.99
443.05	3253.34
443.24	3431.23
443.43	3391.44
443.61	3382.07
443.80	3555.27
443.98	3428.88
444.17	3307.18
444.35	3492.08
444.54	3552.93
444.73	3389.10
444.91	3644.21
445.10	3538.89
445.28	3410.16
445.47	3414.84
445.65	3471.01
445.84	3524.85
446.02	3459.31
446.21	3431.23
446.39	3461.65
446.58	3538.89
446.77	3550.59
446.95	3501.44
447.14	3571.66
447.32	3452.29
447.51	3543.57
447.69	3566.98
447.88	3588.04
448.06	3538.89
448.25	3595.06
448.43	3585.70
448.62	3581.02
448.80	3669.96
448.99	3541.23
449.17	3688.68
449.36	3508.46
449.54	3625.49
449.73	3688.68
449.91	3770.60
450.10	3623.15
450.28	3840.82
450.46	3770.60
450.65	3810.39
450.83	3796.35
451.02	3758.90
451.20	3744.86
451.39	3801.03
451.57	3756.56
451.76	3761.24
451.94	3922.74
452.13	3850.18
452.31	3992.95
452.49	3655.92
452.68	3878.27
452.86	3719.11
453.05	3840.82
453.23	4046.79
453.42	3955.51
453.60	3712.09
453.78	4070.19
453.97	3999.98
454.15	3997.64
454.34	4067.85
454.52	4121.68
454.70	4058.49
454.89	4159.13
455.07	3999.98
455.26	4128.70
455.44	4147.43
455.62	3992.95
455.81	4021.04
455.99	4182.54
456.17	4259.78
456.36	4219.99
456.54	4145.09
456.73	4280.84
456.91	4404.89
457.09	4344.03
457.28	4393.19
457.46	4269.14
457.64	4568.73
457.83	4322.97
458.01	4278.50
458.19	4472.76
458.38	4437.66
458.56	4411.91
458.74	4381.48
458.93	4489.15
459.11	4329.99
459.29	4444.68
459.48	4557.02
459.66	4573.41
459.84	4622.56
460.03	4571.07
460.21	4613.20
460.39	4704.48
460.57	4414.25
460.76	4535.96
460.94	4615.54
461.12	4578.09
461.31	4652.98
461.49	4582.77
461.67	4526.60
461.85	4802.78
462.04	4732.56
462.22	5015.77
462.40	4720.86
462.59	4652.98
462.77	4851.93
462.95	4861.29
463.13	4751.29
463.32	4697.46
463.50	4800.44
463.68	4954.91
463.86	4851.93
464.05	4795.76
464.23	4807.46
464.41	5006.41
464.59	4924.49
464.78	4975.98
464.96	4952.57
465.14	5057.90
465.32	4938.53
465.50	4992.36
465.69	5130.45
465.87	4959.60
466.05	5069.60
466.23	4908.10
466.41	5048.54
466.60	5221.74
466.78	5081.30
466.96	5095.35
467.14	5027.47
467.32	5238.12
467.51	5132.79
467.69	5013.43
467.87	5233.44
468.05	5181.95
468.23	5135.14
468.41	5097.69
468.60	5231.10
468.78	5373.87
468.96	5242.80
469.14	5329.40
469.32	5423.02
469.50	5284.93
469.69	5434.72
469.87	5488.56
470.05	5483.88
470.23	5544.73
470.41	5626.65
470.59	5490.90
470.77	5526.00
470.95	5535.37
471.14	5703.89
471.32	5441.75
471.50	5654.73
471.68	5626.65
471.86	5596.22
472.04	5844.32
472.22	5841.98
472.40	5762.40
472.58	5652.39
472.77	5738.99
472.95	5933.26
473.13	5832.62
473.31	5851.34
473.49	5930.92
473.67	5942.62
473.85	5860.70
474.03	6026.88
474.21	6003.47
474.39	6132.20
474.57	6207.10
474.75	6209.44
474.93	6216.46
475.12	6314.77
475.30	6263.27
475.48	6239.87
475.66	6370.94
475.84	6347.53
476.02	6441.15
476.20	6289.02
476.38	6642.44
476.56	6487.96
476.74	6731.38
476.92	6459.88
477.10	6752.45
477.28	6675.21
477.46	6672.87
477.64	6684.57
477.82	6707.98
478.00	7014.59
478.18	7042.67
478.36	6956.07
478.54	7122.25
478.72	7192.47
478.90	7283.75
479.08	7194.81
479.26	7344.60
479.44	7356.30
479.62	7412.48
479.80	7419.50
479.98	7414.82
480.16	7641.85
480.34	7592.70
480.52	7728.45
480.70	7756.54
480.88	7447.58
481.06	7712.07
481.24	7693.34
481.41	7793.98
481.59	8121.66
481.77	8037.40
481.95	8142.72
482.13	8135.70
482.31	8215.28
482.49	8393.16
482.67	8372.10
482.85	8500.83
483.03	8400.18
483.21	8657.64
483.39	8681.05
483.57	8439.97
483.74	8739.56
483.92	8929.14
484.10	8903.40
484.28	8994.68
484.46	8940.85
484.64	9142.13
484.82	9179.58
485.00	9275.54
485.18	9327.03
485.35	9647.69
485.53	9397.25
485.71	9495.55
485.89	9671.09
486.07	9563.43
486.25	9701.52
486.43	9825.57
486.61	9694.50
486.78	10024.51
486.96	10139.20
487.14	10101.75
487.32	10097.07
487.50	10186.01
487.68	10099.41
487.85	10328.78
488.03	10703.27
488.21	10705.61
488.39	10799.23
488.57	10707.95
488.75	10733.70
488.92	10960.73
489.10	10953.71
489.28	11035.63
489.46	11194.78
489.64	11098.82
489.81	11197.12
489.99	11262.66
490.17	11382.03
490.35	11618.42
490.53	11843.11
490.70	11910.99
490.88	11686.29
491.06	11878.22
491.24	12013.97
491.41	12049.08
491.59	12135.68
491.77	11974.18
491.95	12217.60
492.13	12496.12
492.30	12299.52
492.48	12402.50
492.66	12596.76
492.84	12702.09
493.01	12917.42
493.19	12484.42
493.37	12957.21
493.54	12526.55
493.72	12774.64
493.90	12922.10
494.08	13434.68
494.25	13401.91
494.43	13530.64
494.61	13371.48
494.79	13682.77
494.96	13483.83
495.14	13565.74
495.32	13752.99
495.49	13825.54
495.67	13781.07
495.85	13942.57
496.02	14193.01
496.20	14113.43
496.38	14043.21
496.55	14122.79
496.73	14366.21
496.91	14202.37
497.09	14597.92
497.26	14544.09
497.44	14485.58
497.62	14356.85
497.79	14841.34
497.97	14752.40
498.14	14925.60
498.32	15016.88
498.50	14752.40
498.67	15328.17
498.85	15061.35
499.03	14960.70
499.20	15297.74
499.38	15288.38
499.56	15241.57
499.73	15323.49
499.91	15419.45
500.08	15831.38
500.26	15641.80
500.44	15768.19
500.61	15756.49
500.79	15468.60
500.97	15606.69
501.14	15887.56
501.32	16252.68
501.49	15751.81
501.67	16032.67
501.84	16123.95
502.02	16114.59
502.20	16358.00
502.37	16507.80
502.55	16226.93
502.72	16585.04
502.90	16325.24
503.07	16428.22
503.25	16627.17
503.43	16491.41
503.60	16615.46
503.78	17067.19
503.95	16631.85
504.13	16924.41
504.30	16999.31
504.48	16713.77
504.65	17085.91
504.83	17259.11
505.01	17074.21
505.18	17448.69
505.36	17434.65
505.53	17034.42
505.71	17298.90
505.88	17451.03
506.06	17266.13
506.23	17635.94
506.41	17563.38
506.58	17853.61
506.76	17481.46
506.93	17657.00
507.11	17579.76
507.28	17598.49
507.46	17825.52
507.63	18223.41
507.81	18239.79
507.98	17872.33
508.16	17699.13
508.33	18160.22
508.50	18050.21
508.68	18221.07
508.85	18338.10
509.03	18274.90
509.20	18501.93
509.38	18420.02
509.55	18469.17
509.73	18691.52
509.90	18806.20
510.08	18764.07
510.25	18333.42
510.42	18462.15
510.60	18834.29
510.77	18932.59
510.95	18897.49
511.12	18778.12
511.30	18717.26
511.47	18913.87
511.64	19339.85
511.82	19140.90
511.99	19293.04
512.17	19290.70
512.34	19337.51
512.51	19452.19
512.69	19428.79
512.86	19389.00
513.04	19297.72
513.21	19573.90
513.38	19473.26
513.56	19496.66
513.73	19344.53
513.90	19840.72
514.08	19475.60
514.25	20056.05
514.43	19955.41
514.60	19857.10
514.77	20025.62
514.95	20269.04
515.12	20175.42
515.29	19882.85
515.47	20643.52
515.64	20255.00
515.81	20042.01
515.99	20484.37
516.16	20301.81
516.33	20402.45
516.51	20774.60
516.68	20444.58
516.85	20421.17
517.03	20718.42
517.20	20577.99
517.37	20706.72
517.54	21003.97
517.72	20975.88
517.89	20844.81
518.06	20854.17
518.24	20884.60
518.41	20896.30
518.58	21008.65
518.75	21209.93
518.93	21429.94
519.10	21289.51
519.27	21460.37
519.45	21144.40
519.62	21263.77
519.79	21331.64
519.96	21238.02
520.14	21542.29
520.31	21465.05
520.48	21834.86
520.65	21191.21
520.83	21572.72
521.00	21792.73
521.17	21523.57
521.34	21788.05
521.52	21689.74
521.69	21771.66
521.86	21757.62
522.03	22342.75
522.20	22321.69
522.38	22108.70
522.55	21961.25
522.72	22167.21
522.89	22251.47
523.07	22305.31
523.24	21968.27
523.41	22387.22
523.58	22143.81
523.75	22178.92
523.92	22199.98
524.10	22394.25
524.27	22836.61
524.44	22829.59
524.61	22806.18
524.78	22993.42
524.96	23077.68
525.13	22611.92
525.30	22614.26
525.47	22459.78
525.64	22625.96
525.81	23040.23
525.98	22885.76
526.16	22855.33
526.33	23201.73
526.50	23250.88
526.67	23124.49
526.84	23248.54
527.01	22904.48
527.18	23424.08
527.36	23328.12
527.53	23187.69
527.70	23515.36
527.87	23765.80
528.04	23630.05
528.21	23660.48
528.38	23578.56
528.55	23503.66
528.72	23571.54
528.89	23559.83
529.07	23248.54
529.24	23772.82
529.41	23665.16
529.58	24009.22
529.75	23756.44
529.92	23852.40
530.09	23899.21
530.26	23985.81
530.43	24137.94
530.60	23716.65
530.77	23735.37
530.94	23943.68
531.11	24006.87
531.28	24025.60
531.46	23960.06
531.63	24269.01
531.80	24240.93
531.97	24184.76
532.14	24482.00
532.31	24203.48
532.48	24659.88
532.65	24320.51
532.82	24561.58
532.99	24652.86
533.16	24346.25
533.33	24774.57
533.50	24926.71
533.67	24692.65
533.84	24514.77
534.01	24762.87
534.18	24503.07
534.35	24549.88
534.52	24645.84
534.69	25046.07
534.86	25432.26
535.03	24582.65
535.20	25123.31
535.37	25202.89
535.54	25142.03
535.71	24868.19
535.88	25067.14
536.05	25184.16
536.22	25050.75
536.38	25202.89
536.55	25741.21
536.72	25228.63
536.89	25153.74
537.06	24994.58
537.23	25626.53
537.40	25294.17
537.57	25467.37
537.74	25511.84
537.91	25839.51
538.08	25195.87
538.25	25579.71
538.42	25652.27
538.59	25703.76
538.75	25521.20
538.92	25795.04
539.09	25799.73
539.26	25893.35
539.43	25722.49
539.60	25727.17
539.77	25923.77
539.94	26188.25
540.11	25942.50
540.28	25614.82
540.44	25811.43
540.61	26024.42
540.78	25912.07
540.95	25928.45
541.12	26064.21
541.29	26246.77
541.46	26054.84
541.62	25909.73
541.79	25984.63
541.96	25797.38
542.13	26223.36
542.30	26295.92
542.47	26281.88
542.63	26192.94
542.80	26242.09
542.97	26501.89
543.14	26501.89
543.31	26398.90
543.48	26937.23
543.64	27026.17
543.81	26799.13
543.98	26864.67
544.15	26890.41
544.32	26953.61
544.48	27213.41
544.65	27028.51
544.82	26892.76
544.99	26836.58
545.16	26817.86
545.32	26934.88
545.49	27033.19
545.66	27274.26
545.83	27035.53
546.00	27108.08
546.16	27016.80
546.33	26998.08
546.50	27143.19
546.67	26995.74
546.83	27131.49
547.00	27447.46
547.17	27016.80
547.34	27381.93
547.50	27365.54
547.67	27702.58
547.84	27222.77
548.00	27683.86
548.17	27852.38
548.34	27484.91
548.51	27995.15
548.67	27861.74
548.84	27711.94
549.01	27557.47
549.18	27742.37
549.34	27821.95
549.51	27667.47
549.68	27669.81
549.84	27843.01
550.01	27948.34
550.18	27583.21
550.34	27819.61
550.51	27871.10
550.68	27969.40
550.84	27693.22
551.01	27960.04
551.18	27953.02
551.34	27548.11
551.51	27807.90
551.68	28081.75
551.84	28002.17
552.01	27938.97
552.18	28336.87
552.34	28093.45
552.51	28451.55
552.68	28079.41
552.84	28074.73
553.01	28301.76
553.18	28070.04
553.34	28556.88
553.51	28266.65
553.67	28804.97
553.84	28664.54
554.01	28364.95
554.17	28184.73
554.34	28357.93
554.51	28264.31
554.67	28603.69
554.84	28491.34
555.00	28723.05
555.17	28549.85
555.33	28451.55
555.50	28570.92
555.67	28893.91
555.83	28393.04
556.00	28685.61
556.16	28879.87
556.33	28524.11
556.50	28709.01
556.66	28753.48
556.83	28680.92
556.99	28912.64
557.16	28811.99
557.32	28898.59
557.49	28992.22
557.65	28484.32
557.82	28563.90
557.98	28671.56
558.15	28800.29
558.32	29020.30
558.48	28912.64
558.65	29181.80
558.81	29167.76
558.98	29113.92
559.14	28851.78
559.31	28842.42
559.47	29032.00
559.64	28950.09
559.80	29039.03
559.97	28893.91
560.13	29046.05
560.30	28835.40
560.46	29034.35
560.63	29205.20
560.79	29280.10
560.96	29385.43
561.12	29118.60
561.29	29212.23
561.45	29010.94
561.61	29181.80
561.78	29603.10
561.94	29350.32
562.11	29270.74
562.27	29532.88
562.44	29425.22
562.60	29116.26
562.77	29635.86
562.93	29142.01
563.10	29270.74
563.26	29371.38
563.42	29727.14
563.59	29436.92
563.75	29371.38
563.92	29397.13
564.08	29434.58
564.24	29331.59
564.41	29521.18
564.57	29509.47
564.74	29291.80
564.90	29345.64
565.07	29600.76
565.23	29635.86
565.39	29556.28
565.56	29579.69
565.72	29476.71
565.88	29357.34
566.05	29340.96
566.21	29273.08
566.38	29692.04
566.54	29465.00
566.70	29851.19
566.87	29759.91
567.03	29961.20
567.19	30321.64
567.36	29832.47
567.52	29617.14
567.68	29902.68
567.85	29518.84
568.01	29972.90
568.17	29912.05
568.34	30008.01
568.50	29628.84
568.66	29855.87
568.83	29930.77
568.99	29818.42
569.15	29804.38
569.32	29816.08
569.48	29427.56
569.64	29633.52
569.81	30127.38
569.97	29797.36
570.13	30218.66
570.30	29853.53
570.46	29766.93
570.62	30054.82
570.78	29855.87
570.95	29607.78
571.11	29890.98
571.27	29907.37
571.43	29521.18
571.60	29788.00
571.76	30115.67
571.92	29748.21
572.09	29951.84
572.25	30405.90
572.41	30094.61
572.57	30270.15
572.74	30211.64
572.90	29989.28
573.06	29783.32
573.22	29867.58
573.38	29603.10
573.55	29727.14
573.71	30295.89
573.87	30239.72
574.03	29928.43
574.20	29982.26
574.36	30202.27
574.52	29975.24
574.68	29902.68
574.84	30043.12
575.01	29979.92
575.17	29795.02
575.33	30340.36
575.49	30394.20
575.65	30415.26
575.82	30307.60
575.98	29900.34
576.14	30263.13
576.30	29853.53
576.46	29710.76
576.62	30012.69
576.79	29949.50
576.95	29942.47
577.11	29949.50
577.27	30068.86
577.43	30043.12
577.59	30274.83
577.75	30527.61
577.92	30235.04
578.08	29731.83
578.24	30171.85
578.40	30263.13
578.56	29972.90
578.72	30204.61
578.88	30174.19
579.04	30476.12
579.21	30302.92
579.37	30279.51
579.53	30455.05
579.69	30115.67
579.85	30169.51
580.01	30160.14
580.17	30312.28
580.33	29961.20
580.49	30345.05
580.65	30455.05
580.82	30391.86
580.98	30228.02
581.14	30134.40
581.30	30244.40
581.46	30288.87
581.62	30132.06
581.78	29839.49
581.94	29902.68
582.10	30120.35
582.26	30237.38
582.42	29977.58
582.58	30443.35
582.74	30426.96
582.90	30588.46
583.06	30359.09
583.22	30150.78
583.38	30574.42
583.54	30408.24
583.70	30778.04
583.86	30668.04
584.02	30347.39
584.18	30309.94
584.34	30101.63
584.50	30625.91
584.66	30480.80
584.82	30164.82
584.98	30209.29
585.14	30288.87
585.30	30373.13
585.46	30242.06
585.62	30197.59
585.78	30518.25
585.94	30005.67
586.10	30228.02
586.26	30316.96
586.42	30588.46
586.58	30806.13
586.74	30476.12
586.90	30319.30
587.06	30171.85
587.22	30632.93
587.38	29900.34
587.54	30487.82
587.70	30810.81
587.86	30600.16
588.02	30745.28
588.18	30445.69
588.34	30780.39
588.49	30555.69
588.65	30501.86
588.81	30452.71
588.97	30473.78
589.13	30511.22
589.29	30562.72
589.45	30855.28
589.61	30380.15
589.77	30962.95
589.93	30459.73
590.08	30749.96
590.24	30834.22
590.40	30691.44
590.56	30717.19
590.72	30764.00
590.88	30375.47
591.04	30590.80
591.20	30993.37
591.35	31000.40
591.51	31117.42
591.67	30813.15
591.83	30644.63
