SpectraSuite Data File
++++++++++++++++++++++++++++++++++++
Date: Fri Oct 18 13:58:43 GMT-05:00 2013
User: bianchi
Dark Spectrum Present: No
Reference Spectrum Present: No
Number of Sampled Component Spectra: 1
Spectrometers: USB2+H05261
Integration Time (usec): 50000 (USB2+H05261)
Spectra Averaged: 1 (USB2+H05261)
Boxcar Smoothing: 0 (USB2+H05261)
Correct for Electrical Dark: No (USB2+H05261)
Strobe/Lamp Enabled: No (USB2+H05261)
Correct for Detector Non-linearity: No (USB2+H05261)
Correct for Stray Light: No (USB2+H05261)
Number of Pixels in Processed Spectrum: 2048
>>>>>Begin Processed Spectral Data<<<<<
365.73	0.00
365.92	0.00
366.12	0.00
366.32	0.00
366.52	0.00
366.72	0.00
366.91	0.00
367.11	0.00
367.31	0.00
367.51	0.00
367.70	0.00
367.90	0.00
368.10	0.00
368.30	0.00
368.49	0.00
368.69	0.00
368.89	0.00
369.09	0.00
369.28	0.00
369.48	0.00
369.68	0.00
369.87	0.00
370.07	0.00
370.27	0.00
370.47	0.00
370.66	70.22
370.86	126.39
371.06	135.75
371.25	147.45
371.45	102.98
371.65	126.39
371.84	95.96
372.04	170.86
372.24	173.20
372.44	196.60
372.63	152.13
372.83	177.88
373.03	194.26
373.22	245.76
373.42	163.84
373.62	243.42
373.81	191.92
374.01	210.65
374.21	269.16
374.40	177.88
374.60	257.46
374.79	236.39
374.99	212.99
375.19	248.10
375.38	203.63
375.58	306.61
375.78	264.48
375.97	276.18
376.17	280.86
376.37	175.54
376.56	250.44
376.76	252.78
376.95	269.16
377.15	325.33
377.35	306.61
377.54	248.10
377.74	224.69
377.93	280.86
378.13	304.27
378.33	227.03
378.52	208.31
378.72	203.63
378.91	278.52
379.11	311.29
379.31	334.70
379.50	304.27
379.70	285.55
379.89	273.84
380.09	367.46
380.28	271.50
380.48	325.33
380.68	304.27
380.87	220.01
381.07	365.12
381.26	264.48
381.46	341.72
381.65	348.74
381.85	313.63
382.04	280.86
382.24	365.12
382.43	367.46
382.63	334.70
382.83	367.46
383.02	344.06
383.22	418.96
383.41	428.32
383.61	297.25
383.80	402.57
384.00	318.31
384.19	360.44
384.39	407.25
384.58	390.87
384.78	376.83
384.97	315.97
385.17	409.59
385.36	379.17
385.56	496.19
385.75	301.93
385.95	334.70
386.14	400.23
386.34	372.15
386.53	491.51
386.72	454.06
386.92	339.38
387.11	472.79
387.31	383.85
387.50	339.38
387.70	390.87
387.89	369.80
388.09	428.32
388.28	440.02
388.48	397.89
388.67	533.64
388.86	463.43
389.06	437.68
389.25	444.70
389.45	442.36
389.64	425.98
389.84	543.00
390.03	475.13
390.22	533.64
390.42	475.13
390.61	491.51
390.81	524.28
391.00	421.30
391.19	557.05
391.39	496.19
391.58	505.56
391.78	470.45
391.97	507.90
392.16	458.74
392.36	545.34
392.55	517.26
392.75	580.45
392.94	526.62
393.13	538.32
393.33	526.62
393.52	552.37
393.71	496.19
393.91	547.69
394.10	531.30
394.29	519.60
394.49	547.69
394.68	608.54
394.88	617.90
395.07	636.63
395.26	582.79
395.46	589.82
395.65	669.39
395.84	636.63
396.04	678.76
396.23	638.97
396.42	573.43
396.62	685.78
396.81	655.35
397.00	610.88
397.19	648.33
397.39	655.35
397.58	641.31
397.77	699.82
397.97	671.73
398.16	702.16
398.35	741.95
398.55	653.01
398.74	718.54
398.93	809.83
399.12	748.97
399.32	711.52
399.51	732.59
399.70	741.95
399.90	793.44
400.09	760.67
400.28	699.82
400.47	704.50
400.67	730.25
400.86	765.36
401.05	772.38
401.24	702.16
401.44	816.85
401.63	807.48
401.82	741.95
402.01	788.76
402.21	800.46
402.40	847.27
402.59	781.74
402.78	809.83
402.97	826.21
403.17	887.06
403.36	821.53
403.55	849.61
403.74	940.90
403.93	828.55
404.13	959.62
404.32	940.90
404.51	889.40
404.70	945.58
404.89	924.51
405.09	945.58
405.28	889.40
405.47	966.64
405.66	1036.86
405.85	999.41
406.05	938.55
406.24	1116.44
406.43	950.26
406.62	978.34
406.81	1013.45
407.00	1013.45
407.20	1013.45
407.39	1050.90
407.58	968.98
407.77	1071.97
407.96	1027.50
408.15	971.32
408.34	1067.28
408.54	1088.35
408.73	1050.90
408.92	1064.94
409.11	1078.99
409.30	1114.10
409.49	1097.71
409.68	1214.74
409.87	1158.57
410.07	1135.16
410.26	1238.14
410.45	1137.50
410.64	1212.40
410.83	1224.10
411.02	1053.24
411.21	1193.67
411.40	1238.14
411.59	1224.10
411.78	1231.12
411.98	1282.61
412.17	1261.55
412.36	1310.70
412.55	1294.32
412.74	1390.28
412.93	1228.78
413.12	1294.32
413.31	1439.43
413.50	1362.19
413.69	1404.32
413.88	1350.49
414.07	1406.66
414.26	1458.15
414.45	1474.54
414.64	1500.28
414.83	1479.22
415.02	1533.05
415.22	1556.46
415.41	1535.39
415.60	1530.71
415.79	1549.43
415.98	1694.55
416.17	1638.38
416.36	1544.75
416.55	1575.18
416.74	1617.31
416.93	1607.95
417.12	1631.35
417.31	1729.66
417.50	1654.76
417.69	1746.04
417.88	1785.83
418.07	1654.76
418.26	1631.35
418.45	1778.81
418.64	1851.36
418.83	1842.00
419.02	1729.66
419.21	1856.04
419.39	1865.41
419.58	1746.04
419.77	1727.32
419.96	1769.44
420.15	1811.57
420.34	1940.30
420.53	1937.96
420.72	2017.54
420.91	1944.99
421.10	2069.03
421.29	1916.90
421.48	1809.23
421.67	1998.82
421.86	1954.35
422.05	1912.22
422.24	1881.79
422.43	1982.43
422.61	1919.24
422.80	1987.11
422.99	1921.58
423.18	2029.24
423.37	2141.59
423.56	1937.96
423.75	1935.62
423.94	1930.94
424.13	1795.19
424.32	1966.05
424.50	1984.77
424.69	2092.44
424.88	2026.90
425.07	2054.99
425.26	2026.90
425.45	1959.03
425.64	2122.87
425.83	2029.24
426.01	1989.46
426.20	2066.69
426.39	2033.93
426.58	2036.27
426.77	2043.29
426.96	2003.50
427.15	2101.80
427.33	2090.10
427.52	2113.50
427.71	2080.74
427.90	2223.51
428.09	2155.63
428.28	2150.95
428.46	2155.63
428.65	2225.85
428.84	2188.40
429.03	2291.38
429.22	2214.15
429.40	2085.42
429.59	2165.00
429.78	2216.49
429.97	2094.78
430.16	2253.94
430.34	2282.02
430.53	2324.15
430.72	2221.17
430.91	2216.49
431.10	2251.60
431.28	2331.17
431.47	2422.45
431.66	2413.09
431.85	2335.85
432.03	2457.56
432.22	2462.24
432.41	2410.75
432.60	2406.07
432.79	2441.18
432.97	2473.95
433.16	2438.84
433.35	2466.92
433.54	2544.16
433.72	2553.52
433.91	2457.56
434.10	2485.65
434.28	2621.40
434.47	2588.63
434.66	2555.86
434.85	2569.91
435.03	2614.38
435.22	2602.68
435.41	2691.62
435.59	2621.40
435.78	2541.82
435.97	2635.44
436.16	2651.83
436.34	2623.74
436.53	2597.99
436.72	2773.53
436.90	2686.94
437.09	2829.71
437.28	2679.91
437.46	2745.45
437.65	2822.69
437.84	2911.63
438.02	2733.75
438.21	2787.58
438.40	2740.77
438.58	2848.43
438.77	2892.90
438.96	2818.00
439.14	2913.97
439.33	2883.54
439.52	2918.65
439.70	3047.38
439.89	2920.99
440.08	2984.18
440.26	3030.99
440.45	2995.89
440.63	3030.99
440.82	3185.47
441.01	3066.10
441.19	3087.17
441.38	3251.00
441.57	3145.68
441.75	3267.39
441.94	3260.37
442.12	3208.87
442.31	3236.96
442.50	3206.53
442.68	3286.11
442.87	3316.54
443.05	3356.33
443.24	3325.90
443.43	3314.20
443.61	3332.92
443.80	3384.41
443.98	3321.22
444.17	3253.34
444.35	3339.94
444.54	3480.38
444.73	3417.18
444.91	3463.99
445.10	3407.82
445.28	3452.29
445.47	3353.99
445.65	3473.36
445.84	3522.51
446.02	3433.57
446.21	3534.21
446.39	3431.23
446.58	3482.72
446.77	3353.99
446.95	3288.45
447.14	3482.72
447.32	3459.31
447.51	3403.14
447.69	3419.52
447.88	3590.38
448.06	3471.01
448.25	3382.07
448.43	3449.95
448.62	3398.46
448.80	3578.68
448.99	3562.30
449.17	3548.25
449.36	3585.70
449.54	3616.13
449.73	3730.81
449.91	3562.30
450.10	3716.77
450.28	3796.35
450.46	3637.19
450.65	3770.60
450.83	3728.47
451.02	3728.47
451.20	3676.98
451.39	3798.69
451.57	3871.25
451.76	3735.50
451.94	3845.50
452.13	3864.22
452.31	3882.95
452.49	3831.46
452.68	3779.97
452.86	3829.12
453.05	3822.09
453.23	3978.91
453.42	3782.31
453.60	3768.26
453.78	3850.18
453.97	4007.00
454.15	3932.10
454.34	3904.01
454.52	3929.76
454.70	4067.85
454.89	4058.49
455.07	4023.38
455.26	3978.91
455.44	4058.49
455.62	4028.06
455.81	4159.13
455.99	3992.95
456.17	4077.21
456.36	4128.70
456.54	4147.43
456.73	4147.43
456.91	4297.22
457.09	4245.73
457.28	4355.74
457.46	4184.88
457.64	4243.39
457.83	4344.03
458.01	4322.97
458.19	4341.69
458.38	4411.91
458.56	4524.26
458.74	4608.51
458.93	4353.40
459.11	4447.02
459.29	4531.28
459.48	4437.66
459.66	4449.36
459.84	4482.13
460.03	4454.04
460.21	4517.23
460.39	4589.79
460.57	4517.23
460.76	4657.67
460.94	4568.73
461.12	4542.98
461.31	4610.86
461.49	4636.60
461.67	4526.60
461.85	4690.43
462.04	4681.07
462.22	4716.18
462.40	4865.97
462.59	4762.99
462.77	4821.50
462.95	4685.75
463.13	4737.24
463.32	4669.37
463.50	4875.34
463.68	4868.31
463.86	4844.91
464.05	4903.42
464.23	4709.16
464.41	4992.36
464.59	4919.81
464.78	5041.51
464.96	4791.08
465.14	4695.11
465.32	4929.17
465.50	5004.07
465.69	4966.62
465.87	5034.49
466.05	4987.68
466.23	4973.64
466.41	5053.22
466.60	5336.42
466.78	4975.98
466.96	5069.60
467.14	5008.75
467.32	5107.05
467.51	5170.24
467.69	4983.00
467.87	5088.32
468.05	5266.21
468.23	5191.31
468.41	5102.37
468.60	5210.03
468.78	5163.22
468.96	5081.30
469.14	5441.75
469.32	5256.84
469.50	5226.42
469.69	5446.43
469.87	5453.45
470.05	5376.21
470.23	5521.32
470.41	5294.29
470.59	5364.51
470.77	5390.25
470.95	5542.39
471.14	5394.93
471.32	5523.66
471.50	5647.71
471.68	5610.26
471.86	5626.65
472.04	5673.46
472.22	5687.50
472.40	5626.65
472.58	5755.38
472.77	5554.09
472.95	5729.63
473.13	5961.34
473.31	5685.16
473.49	5729.63
473.67	5827.93
473.85	5741.33
474.03	5923.90
474.21	5984.75
474.39	5998.79
474.57	6118.16
474.75	6188.38
474.93	6218.80
475.12	6197.74
475.30	6066.67
475.48	5919.21
475.66	6216.46
475.84	6314.77
476.02	6354.55
476.20	6555.84
476.38	6579.25
476.56	6506.69
476.74	6609.67
476.92	6497.33
477.10	6487.96
477.28	6829.68
477.46	6579.25
477.64	6892.88
477.82	6766.49
478.00	7035.65
478.18	6946.71
478.36	6745.42
478.54	7030.97
478.72	7054.37
478.90	7056.72
479.08	6953.73
479.26	7075.44
479.44	7272.04
479.62	7227.57
479.80	7262.68
479.98	7335.24
480.16	7543.55
480.34	7552.91
480.52	7501.42
480.70	7707.38
480.88	7482.69
481.06	7932.08
481.24	7763.56
481.41	7801.01
481.59	7957.82
481.77	7882.92
481.95	7997.61
482.13	7957.82
482.31	8058.46
482.49	8173.15
482.67	8182.51
482.85	8409.54
483.03	8435.29
483.21	8643.60
483.39	8594.45
483.57	8498.49
483.74	8751.26
483.92	8753.60
484.10	8631.90
484.28	8809.78
484.46	8840.20
484.64	9172.56
484.82	9057.87
485.00	9001.70
485.18	9256.82
485.35	9261.50
485.53	9034.47
485.71	9357.46
485.89	9460.45
486.07	9399.59
486.25	9575.13
486.43	9645.35
486.61	9652.37
486.78	10008.13
486.96	9750.67
487.14	9975.36
487.32	9935.57
487.50	10155.58
487.68	10399.00
487.85	10345.17
488.03	10534.75
488.21	10586.24
488.39	10464.54
488.57	10651.78
488.75	10670.50
488.92	10956.05
489.10	10864.77
489.28	10846.04
489.46	10946.69
489.64	10956.05
489.81	11281.38
489.99	11398.41
490.17	11178.40
490.35	11616.08
490.53	11377.34
490.70	11775.24
490.88	11606.72
491.06	11749.49
491.24	11655.87
491.41	11641.82
491.59	12032.69
491.77	11976.52
491.95	11997.59
492.13	12032.69
492.30	12028.01
492.48	12135.68
492.66	12147.38
492.84	12425.90
493.01	12526.55
493.19	12566.34
493.37	12847.20
493.54	12617.83
493.72	12809.75
493.90	12891.67
494.08	12943.16
494.25	13064.87
494.43	12992.31
494.61	13092.96
494.79	13422.97
494.96	13291.90
495.14	13317.65
495.32	13532.98
495.49	13504.89
495.67	13605.53
495.85	13671.07
496.02	13582.13
496.20	14001.08
496.38	13895.76
496.55	13975.34
496.73	13998.74
496.91	13804.48
497.09	14193.01
497.26	14251.52
497.44	14061.94
497.62	14326.42
497.79	14595.58
497.97	14211.73
498.14	14785.16
498.32	14787.50
498.50	14773.46
498.67	15040.28
498.85	15138.58
499.03	14831.97
499.20	14939.64
499.38	14930.28
499.56	15037.94
499.73	15192.42
499.91	15194.76
500.08	15580.95
500.26	15267.31
500.44	15264.97
500.61	15321.15
500.79	15594.99
500.97	15456.90
501.14	15513.07
501.32	15674.57
501.49	15672.23
501.67	15442.85
501.84	15920.32
502.02	15791.59
502.20	16079.48
502.37	15995.22
502.55	16315.87
502.72	16203.53
502.90	15866.49
503.07	16091.18
503.25	16201.19
503.43	16350.98
503.60	16397.79
503.78	16411.84
503.95	16201.19
504.13	16421.20
504.30	16910.37
504.48	16615.46
504.65	16776.96
504.83	16872.92
505.01	17092.93
505.18	16901.01
505.36	16915.05
505.53	16908.03
505.71	16966.54
505.88	16884.62
506.06	17284.86
506.23	17095.27
506.41	17177.19
506.58	17305.92
506.76	17350.39
506.93	17188.89
507.11	17315.28
507.28	17362.09
507.46	17343.37
507.63	17743.60
507.81	17781.05
507.98	17451.03
508.16	17626.57
508.33	17621.89
508.50	17778.71
508.68	17947.23
508.85	18106.38
509.03	18101.70
509.20	18064.25
509.38	18155.54
509.55	18265.54
509.73	18111.07
509.90	18462.15
510.08	18270.22
510.25	18019.78
510.42	18663.43
510.60	18644.71
510.77	18553.43
510.95	18771.10
511.12	18633.00
511.30	18492.57
511.47	18501.93
511.64	18710.24
511.82	19199.41
511.99	18560.45
512.17	18850.67
512.34	19012.17
512.51	19000.47
512.69	18923.23
512.86	19126.86
513.04	19374.95
513.21	19176.01
513.38	19454.53
513.56	19370.27
513.73	19180.69
513.90	19545.81
514.08	19274.31
514.25	19412.40
514.43	19679.22
514.60	19681.56
514.77	19953.07
514.95	19651.14
515.12	19477.94
515.29	19779.87
515.47	19964.77
515.64	20201.16
515.81	19953.07
515.99	19836.04
516.16	20184.78
516.33	20285.42
516.51	20306.49
516.68	20243.29
516.85	20194.14
517.03	20126.27
517.20	20327.55
517.37	20231.59
517.54	20416.49
517.72	20453.94
517.89	20692.68
518.06	20739.49
518.24	20292.44
518.41	20798.00
518.58	20526.50
518.75	20659.91
518.93	20805.02
519.10	20854.17
519.27	20975.88
519.45	20699.70
519.62	20924.39
519.79	20695.02
519.96	20905.66
520.14	21170.15
520.31	21326.96
520.48	21263.77
520.65	21043.76
520.83	21097.59
521.00	21289.51
521.17	21022.69
521.34	21420.58
521.52	21317.60
521.69	21546.97
521.86	21951.88
522.03	21661.66
522.20	21736.56
522.38	21420.58
522.55	21586.76
522.72	21799.75
522.89	21766.98
523.07	21827.84
523.24	21947.20
523.41	22160.19
523.58	22040.82
523.75	21907.41
523.92	21970.61
524.10	22080.61
524.27	21954.22
524.44	22167.21
524.61	22190.62
524.78	22579.15
524.96	22335.73
525.13	22443.40
525.30	22604.89
525.47	22403.61
525.64	22230.41
525.81	22696.17
525.98	22602.55
526.16	22640.00
526.33	22218.71
526.50	22782.77
526.67	22511.27
526.84	22551.06
527.01	22747.67
527.18	22941.93
527.36	22934.91
527.53	22960.66
527.70	23344.50
527.87	22979.38
528.04	23012.15
528.21	23201.73
528.38	23080.02
528.55	23454.51
528.72	23063.64
528.89	23342.16
529.07	23194.71
529.24	23246.20
529.41	23569.19
529.58	23379.61
529.75	23253.22
529.92	23510.68
530.09	23360.89
530.26	23775.16
530.43	23948.36
530.60	23105.77
530.77	23566.85
530.94	23791.55
531.11	23857.08
531.28	23758.78
531.46	23634.73
531.63	24063.05
531.80	23824.31
531.97	24013.90
532.14	23964.75
532.31	24114.54
532.48	23861.76
532.65	23871.12
532.82	23679.20
532.99	23704.95
533.16	24079.43
533.33	23988.15
533.50	24243.27
533.67	24381.36
533.84	24023.26
534.01	24299.44
534.18	23953.04
534.35	24517.11
534.52	23924.96
534.69	24676.27
534.86	24601.37
535.03	24360.30
535.20	24486.68
535.37	24297.10
535.54	24725.42
535.71	24524.13
535.88	24709.04
536.05	24610.73
536.22	24758.19
536.38	24638.82
536.55	24900.96
536.72	24802.66
536.89	24826.06
537.06	24734.78
537.23	24812.02
537.40	25230.98
537.57	24915.00
537.74	25076.50
537.91	25076.50
538.08	25350.34
538.25	25209.91
538.42	24793.29
538.59	25268.42
538.75	25233.32
538.92	24830.74
539.09	25228.63
539.26	25406.52
539.43	25219.27
539.60	25315.23
539.77	25331.62
539.94	25696.74
540.11	25502.48
540.28	25439.28
540.44	25305.87
540.61	25453.33
540.78	25453.33
540.95	25282.47
541.12	25488.43
541.29	25593.76
541.46	25277.79
541.62	25469.71
541.79	25605.46
541.96	25186.50
542.13	25823.13
542.30	25841.85
542.47	26216.34
542.63	25804.41
542.80	25645.25
542.97	26288.90
543.14	26148.46
543.31	26302.94
543.48	26015.05
543.64	26356.77
543.81	26382.52
543.98	26462.10
544.15	26316.98
544.32	26157.83
544.48	26375.50
544.65	26455.08
544.82	26333.37
544.99	26295.92
545.16	26752.32
545.32	26066.55
545.49	26551.04
545.66	26738.28
545.83	26520.61
546.00	27175.96
546.16	26298.26
546.33	26665.72
546.50	26815.52
546.67	26677.43
546.83	26359.11
547.00	26642.32
547.17	26977.01
547.34	26546.36
547.50	27246.18
547.67	27044.89
547.84	27164.26
548.00	27386.61
548.17	27037.87
548.34	26934.88
548.51	27171.28
548.67	27068.30
548.84	27166.60
549.01	27168.94
549.18	26733.60
549.34	26902.12
549.51	27391.29
549.68	27161.92
549.84	26955.95
550.01	27002.76
550.18	26932.54
550.34	27199.37
550.51	27115.11
550.68	27152.55
550.84	26932.54
551.01	27190.00
551.18	27201.71
551.34	26885.73
551.51	27353.84
551.68	27201.71
551.84	27580.87
552.01	27587.89
552.18	27754.07
552.34	27330.44
552.51	27718.96
552.68	27587.89
552.84	27740.03
553.01	27819.61
553.18	27475.55
553.34	27665.13
553.51	27667.47
553.67	28081.75
553.84	28137.92
554.01	28011.53
554.17	27903.87
554.34	27709.60
554.51	27772.80
554.67	28173.03
554.84	27611.30
555.00	27735.35
555.17	27917.91
555.33	28079.41
555.50	27740.03
555.67	27875.78
555.83	28070.04
556.00	27693.22
556.16	27910.89
556.33	28098.13
556.50	27861.74
556.66	28095.79
556.83	28467.94
556.99	28388.36
557.16	28180.05
557.32	28070.04
557.49	28393.04
557.65	27929.61
557.82	28261.97
557.98	28194.09
558.15	28414.10
558.32	28505.38
558.48	28350.91
558.65	28542.83
558.81	28273.67
558.98	28489.00
559.14	28599.01
559.31	28343.89
559.47	28500.70
559.64	28364.95
559.80	28510.07
559.97	28437.51
560.13	28587.30
560.30	28470.28
560.46	28959.45
560.63	28947.75
560.79	28393.04
560.96	28449.21
561.12	28608.37
561.29	28280.69
561.45	28371.97
561.61	29090.52
561.78	28680.92
561.94	28540.49
562.11	28776.89
562.27	28701.99
562.44	28814.34
562.60	28699.65
562.77	28320.48
562.93	28430.49
563.10	28959.45
563.26	28765.18
563.42	28802.63
563.59	28856.46
563.75	28692.63
563.92	29195.84
564.08	29177.12
564.24	28896.25
564.41	28556.88
564.57	28971.15
564.74	28854.12
564.90	28985.19
565.07	28952.43
565.23	29118.60
565.39	29198.18
565.56	29027.32
565.72	29069.45
565.88	28854.12
566.05	28655.18
566.21	29090.52
566.38	29039.03
566.54	28917.32
566.70	29352.66
566.87	29319.89
567.03	29017.96
567.19	29422.87
567.36	29504.79
567.52	29202.86
567.68	29563.31
567.85	29369.04
568.01	29352.66
568.17	29193.50
568.34	29233.29
568.50	29263.72
568.66	29200.52
568.83	29284.78
568.99	29193.50
569.15	28912.64
569.32	29020.30
569.48	29083.50
569.64	29326.91
569.81	29350.32
569.97	28776.89
570.13	29411.17
570.30	29003.92
570.46	29736.51
570.62	29219.25
570.78	29366.70
570.95	28870.51
571.11	29282.44
571.27	28964.13
571.43	29303.51
571.60	29343.30
571.76	29638.20
571.92	29294.14
572.09	29607.78
572.25	29525.86
572.41	29474.37
572.57	29170.10
572.74	29575.01
572.90	29469.69
573.06	29411.17
573.22	29242.65
573.38	29340.96
573.55	29500.11
573.71	29893.32
573.87	29867.58
574.03	29525.86
574.20	29116.26
574.36	29024.98
574.52	29392.45
574.68	29116.26
574.84	29301.17
575.01	29755.23
575.17	29530.54
575.33	29500.11
575.49	29757.57
575.65	29298.83
575.82	29600.76
575.98	29682.67
576.14	29708.42
576.30	29640.54
576.46	29448.62
576.62	29535.22
576.79	29689.70
576.95	29408.83
577.11	29312.87
577.27	29558.63
577.43	29645.23
577.59	29422.87
577.75	29322.23
577.92	29369.04
578.08	29663.95
578.24	29333.93
578.40	29663.95
578.56	29701.40
578.72	29617.14
578.88	29687.36
579.04	29841.83
579.21	29783.32
579.37	29589.05
579.53	29958.86
579.69	29296.49
579.85	29677.99
580.01	29647.57
580.17	29305.85
580.33	29680.33
580.49	29600.76
580.65	29912.05
580.82	29460.32
580.98	29294.14
581.14	29677.99
581.30	29577.35
581.46	29886.30
581.62	29315.21
581.78	29502.45
581.94	29816.08
582.10	29797.36
582.26	29589.05
582.42	29589.05
582.58	30040.78
582.74	29886.30
582.90	29792.68
583.06	29685.01
583.22	29752.89
583.38	29610.12
583.54	29757.57
583.70	29397.13
583.86	29558.63
584.02	29909.71
584.18	30478.46
584.34	29677.99
584.50	29968.22
584.66	29741.19
584.82	29703.74
584.98	29970.56
585.14	29284.78
585.30	29022.64
585.46	29685.01
585.62	29748.21
585.78	29668.63
585.94	29034.35
586.10	29862.90
586.26	29806.72
586.42	30106.31
586.58	30012.69
586.74	29720.12
586.90	29706.08
587.06	29696.72
587.22	30155.46
587.38	29429.90
587.54	29907.37
587.70	30122.69
587.86	29888.64
588.02	29907.37
588.18	29907.37
588.34	29872.26
588.49	29883.96
588.65	30000.99
588.81	30073.54
588.97	29757.57
589.13	29944.81
589.29	29528.20
589.45	29764.59
589.61	30036.09
589.77	30101.63
589.93	30125.04
590.08	30345.05
590.24	30167.16
590.40	30103.97
590.56	30101.63
590.72	30239.72
590.88	30068.86
591.04	30005.67
591.20	30288.87
591.35	30125.04
591.51	30181.21
591.67	30253.76
591.83	30534.63
591.99	30085.25
