SpectraSuite Data File
++++++++++++++++++++++++++++++++++++
Date: Fri Oct 18 13:57:59 GMT-05:00 2013
User: bianchi
Dark Spectrum Present: No
Reference Spectrum Present: No
Number of Sampled Component Spectra: 1
Spectrometers: USB2+H05261
Integration Time (usec): 50000 (USB2+H05261)
Spectra Averaged: 1 (USB2+H05261)
Boxcar Smoothing: 0 (USB2+H05261)
Correct for Electrical Dark: No (USB2+H05261)
Strobe/Lamp Enabled: No (USB2+H05261)
Correct for Detector Non-linearity: No (USB2+H05261)
Correct for Stray Light: No (USB2+H05261)
Number of Pixels in Processed Spectrum: 2048
>>>>>Begin Processed Spectral Data<<<<<
365.73	0.00
365.92	0.00
366.12	0.00
366.32	0.00
366.52	0.00
366.72	0.00
366.91	0.00
367.11	0.00
367.31	0.00
367.51	0.00
367.70	0.00
367.90	0.00
368.10	0.00
368.30	0.00
368.49	0.00
368.69	0.00
368.89	0.00
369.09	0.00
369.28	0.00
369.48	0.00
369.68	0.00
369.87	0.00
370.07	0.00
370.27	0.00
370.47	0.00
370.66	81.92
370.86	51.49
371.06	145.11
371.25	102.98
371.45	135.75
371.65	145.11
371.84	159.16
372.04	67.88
372.24	163.84
372.44	184.90
372.63	194.26
372.83	142.77
373.03	147.45
373.22	259.80
373.42	222.35
373.62	198.95
373.81	175.54
374.01	212.99
374.21	290.23
374.40	229.37
374.60	276.18
374.79	273.84
374.99	234.05
375.19	208.31
375.38	231.71
375.58	227.03
375.78	231.71
375.97	271.50
376.17	355.76
376.37	243.42
376.56	280.86
376.76	243.42
376.95	297.25
377.15	285.55
377.35	322.99
377.54	318.31
377.74	315.97
377.93	285.55
378.13	280.86
378.33	262.14
378.52	245.76
378.72	259.80
378.91	271.50
379.11	315.97
379.31	308.95
379.50	341.72
379.70	355.76
379.89	269.16
380.09	358.10
380.28	322.99
380.48	290.23
380.68	278.52
380.87	294.91
381.07	386.19
381.26	306.61
381.46	330.02
381.65	278.52
381.85	358.10
382.04	379.17
382.24	367.46
382.43	388.53
382.63	386.19
382.83	292.57
383.02	311.29
383.22	351.08
383.41	308.95
383.61	404.91
383.80	383.85
384.00	456.40
384.19	365.12
384.39	365.12
384.58	374.49
384.78	430.66
384.97	388.53
385.17	299.59
385.36	425.98
385.56	355.76
385.75	423.64
385.95	433.00
386.14	402.57
386.34	416.62
386.53	374.49
386.72	395.55
386.92	442.36
387.11	402.57
387.31	465.77
387.50	491.51
387.70	388.53
387.89	451.72
388.09	421.30
388.28	500.87
388.48	454.06
388.67	458.74
388.86	458.74
389.06	428.32
389.25	449.38
389.45	458.74
389.64	409.59
389.84	521.94
390.03	451.72
390.22	550.03
390.42	456.40
390.61	507.90
390.81	489.17
391.00	456.40
391.19	388.53
391.39	470.45
391.58	587.47
391.78	557.05
391.97	519.60
392.16	521.94
392.36	608.54
392.55	489.17
392.75	603.86
392.94	655.35
393.13	557.05
393.33	575.77
393.52	580.45
393.71	578.11
393.91	594.50
394.10	690.46
394.29	603.86
394.49	617.90
394.68	624.92
394.88	568.75
395.07	723.23
395.26	697.48
395.46	734.93
395.65	681.10
395.84	636.63
396.04	716.20
396.23	683.44
396.42	678.76
396.62	603.86
396.81	636.63
397.00	653.01
397.19	683.44
397.39	713.86
397.58	645.99
397.77	582.79
397.97	599.18
398.16	692.80
398.35	786.42
398.55	667.05
398.74	770.04
398.93	730.25
399.12	716.20
399.32	711.52
399.51	713.86
399.70	849.61
399.90	821.53
400.09	788.76
400.28	826.21
400.47	826.21
400.67	746.63
400.86	753.65
401.05	791.10
401.24	763.01
401.44	828.55
401.63	866.00
401.82	863.66
402.01	819.19
402.21	826.21
402.40	880.04
402.59	835.57
402.78	830.89
402.97	830.89
403.17	828.55
403.36	826.21
403.55	889.40
403.74	837.91
403.93	922.17
404.13	873.02
404.32	950.26
404.51	936.21
404.70	1029.84
404.89	959.62
405.09	898.77
405.28	887.06
405.47	961.96
405.66	1013.45
405.85	983.02
406.05	976.00
406.24	1107.07
406.43	1050.90
406.62	1018.13
406.81	1043.88
407.00	1006.43
407.20	990.05
407.39	1039.20
407.58	1053.24
407.77	1100.05
407.96	1153.88
408.15	1156.22
408.34	1008.77
408.54	1081.33
408.73	1015.79
408.92	1071.97
409.11	1137.50
409.30	1170.27
409.49	1135.16
409.68	1146.86
409.87	1100.05
410.07	1273.25
410.26	1193.67
410.45	1217.08
410.64	1245.16
410.83	1313.04
411.02	1261.55
411.21	1401.98
411.40	1158.57
411.59	1277.93
411.78	1259.21
411.98	1217.08
412.17	1261.55
412.36	1350.49
412.55	1409.00
412.74	1390.28
412.93	1423.05
413.12	1439.43
413.31	1462.83
413.50	1387.94
413.69	1348.15
413.88	1460.49
414.07	1502.62
414.26	1488.58
414.45	1416.02
414.64	1446.45
414.83	1558.80
415.02	1497.94
415.22	1577.52
415.41	1526.03
415.60	1633.69
415.79	1530.71
415.98	1673.48
416.17	1654.76
416.36	1610.29
416.55	1579.86
416.74	1607.95
416.93	1689.87
417.12	1612.63
417.31	1748.38
417.50	1666.46
417.69	1757.74
417.88	1757.74
418.07	1633.69
418.26	1834.98
418.45	1750.72
418.64	1771.79
418.83	1820.94
419.02	1778.81
419.21	1996.48
419.39	1898.17
419.58	1881.79
419.77	1785.83
419.96	1914.56
420.15	1851.36
420.34	1832.64
420.53	1952.01
420.72	2005.84
420.91	1942.64
421.10	2047.97
421.29	2017.54
421.48	2012.86
421.67	2019.88
421.86	1942.64
422.05	1984.77
422.24	1952.01
422.43	2113.50
422.61	2066.69
422.80	2129.89
422.99	2172.02
423.18	2045.63
423.37	2097.12
423.56	2099.46
423.75	2143.93
423.94	2043.29
424.13	1818.60
424.32	1944.99
424.50	2033.93
424.69	2111.16
424.88	2167.34
425.07	1991.80
425.26	2012.86
425.45	2090.10
425.64	2167.34
425.83	2087.76
426.01	2008.18
426.20	2052.65
426.39	2101.80
426.58	2071.37
426.77	2115.84
426.96	2129.89
427.15	2197.76
427.33	2106.48
427.52	2141.59
427.71	2204.78
427.90	2134.57
428.09	2066.69
428.28	2249.25
428.46	2204.78
428.65	2300.75
428.84	2312.45
429.03	2218.83
429.22	2197.76
429.40	2277.34
429.59	2230.53
429.78	2242.23
429.97	2328.83
430.16	2239.89
430.34	2235.21
430.53	2401.39
430.72	2338.20
430.91	2272.66
431.10	2349.90
431.28	2410.75
431.47	2375.64
431.66	2469.27
431.85	2464.58
432.03	2452.88
432.22	2473.95
432.41	2495.01
432.60	2466.92
432.79	2476.29
432.97	2527.78
433.16	2553.52
433.35	2527.78
433.54	2630.76
433.72	2633.10
433.91	2509.05
434.10	2612.04
434.28	2616.72
434.47	2703.32
434.66	2534.80
434.85	2675.23
435.03	2654.17
435.22	2576.93
435.41	2733.75
435.59	2747.79
435.78	2693.96
435.97	2822.69
436.16	2712.68
436.34	2693.96
436.53	2731.41
436.72	2850.77
436.90	2619.06
437.09	2715.02
437.28	2717.36
437.46	2843.75
437.65	2803.96
437.84	2773.53
438.02	2939.71
438.21	2890.56
438.40	2717.36
438.58	2745.45
438.77	2965.46
438.96	2825.03
439.14	3068.44
439.33	3173.77
439.52	2984.18
439.70	2993.55
439.89	2937.37
440.08	3122.27
440.26	3030.99
440.45	3253.34
440.63	3082.49
440.82	3227.60
441.01	3358.67
441.19	3234.62
441.38	3152.70
441.57	3337.60
441.75	3255.69
441.94	3384.41
442.12	3332.92
442.31	3361.01
442.50	3424.20
442.68	3330.58
442.87	3300.16
443.05	3302.50
443.24	3595.06
443.43	3442.93
443.61	3529.53
443.80	3508.46
443.98	3440.59
444.17	3255.69
444.35	3487.40
444.54	3574.00
444.73	3641.87
444.91	3522.51
445.10	3517.83
445.28	3571.66
445.47	3508.46
445.65	3548.25
445.84	3538.89
446.02	3597.40
446.21	3552.93
446.39	3599.74
446.58	3625.49
446.77	3529.53
446.95	3506.12
447.14	3482.72
447.32	3524.85
447.51	3681.66
447.69	3576.34
447.88	3665.28
448.06	3707.41
448.25	3545.91
448.43	3609.11
448.62	3574.00
448.80	3513.14
448.99	3644.21
449.17	3782.31
449.36	3588.04
449.54	3735.50
449.73	3817.41
449.91	3700.39
450.10	3782.31
450.28	3719.11
450.46	3791.67
450.65	3775.28
450.83	3843.16
451.02	3796.35
451.20	3871.25
451.39	3960.19
451.57	3833.80
451.76	3880.61
451.94	3887.63
452.13	3922.74
452.31	4037.42
452.49	3707.41
452.68	3887.63
452.86	3985.93
453.05	4018.70
453.23	3911.04
453.42	4053.81
453.60	3852.52
453.78	4149.77
453.97	3925.08
454.15	4138.07
454.34	3859.54
454.52	4065.51
454.70	4168.49
454.89	4255.09
455.07	4152.11
455.26	4086.58
455.44	4191.90
455.62	4196.58
455.81	4149.77
455.99	4217.65
456.17	4327.65
456.36	4170.83
456.54	4243.39
456.73	4257.43
456.91	4461.06
457.09	4318.29
457.28	4505.53
457.46	4376.80
457.64	4444.68
457.83	4418.93
458.01	4477.44
458.19	4320.63
458.38	4407.23
458.56	4393.19
458.74	4493.83
458.93	4477.44
459.11	4395.53
459.29	4596.81
459.48	4641.28
459.66	4566.39
459.84	4606.17
460.03	4489.15
460.21	4489.15
460.39	4559.36
460.57	4557.02
460.76	4844.91
460.94	4697.46
461.12	4571.07
461.31	4650.64
461.49	4725.54
461.67	4737.24
461.85	4964.28
462.04	4791.08
462.22	5160.88
462.40	4933.85
462.59	4748.95
462.77	4894.06
462.95	4957.25
463.13	4901.08
463.32	4957.25
463.50	4905.76
463.68	4992.36
463.86	4950.23
464.05	4800.44
464.23	4992.36
464.41	5078.96
464.59	4868.31
464.78	5018.11
464.96	5055.56
465.14	5118.75
465.32	5022.79
465.50	4990.02
465.69	5029.81
465.87	5135.14
466.05	5172.58
466.23	5064.92
466.41	5036.83
466.60	5249.82
466.78	5135.14
466.96	5210.03
467.14	5338.76
467.32	5231.10
467.51	5268.55
467.69	5041.51
467.87	5221.74
468.05	5350.46
468.23	5364.51
468.41	5343.44
468.60	5305.99
468.78	5301.31
468.96	5296.63
469.14	5460.47
469.32	5406.64
469.50	5217.05
469.69	5383.23
469.87	5542.39
470.05	5605.58
470.23	5528.35
470.41	5514.30
470.59	5558.77
470.77	5490.90
470.95	5687.50
471.14	5753.04
471.32	5612.60
471.50	5760.06
471.68	5666.44
471.86	5769.42
472.04	5767.08
472.22	5926.24
472.40	5687.50
472.58	5692.18
472.77	5930.92
472.95	5879.43
473.13	5977.73
473.31	6076.03
473.49	6083.05
473.67	5755.38
473.85	6008.16
474.03	6164.97
474.21	6221.14
474.39	6256.25
474.57	6305.40
474.75	6270.30
474.93	6347.53
475.12	6167.31
475.30	6300.72
475.48	6335.83
475.66	6340.51
475.84	6279.66
476.02	6258.59
476.20	6541.80
476.38	6799.26
476.56	6703.29
476.74	6647.12
476.92	6654.14
477.10	6480.94
477.28	6822.66
477.46	6740.74
477.64	6738.40
477.82	6881.18
478.00	7311.83
478.18	7145.66
478.36	7307.15
478.54	7206.51
478.72	7082.46
478.90	7363.33
479.08	7403.11
479.26	7588.02
479.44	7485.03
479.62	7550.57
479.80	7534.18
479.98	7719.09
480.16	7922.71
480.34	7728.45
480.52	7805.69
480.70	7672.28
480.88	7733.13
481.06	8035.06
481.24	7829.09
481.41	7971.86
481.59	8072.51
481.77	8248.05
481.95	8170.81
482.13	8271.45
482.31	8290.18
482.49	8477.42
482.67	8315.92
482.85	8561.68
483.03	8674.03
483.21	8762.97
483.39	8882.33
483.57	8606.15
483.74	8861.27
483.92	8791.05
484.10	8856.59
484.28	9034.47
484.46	9341.08
484.64	9383.21
484.82	8999.36
485.00	9177.24
485.18	9556.41
485.35	9586.83
485.53	9432.36
485.71	9748.33
485.89	9809.19
486.07	9703.86
486.25	9750.67
486.43	9776.42
486.61	10040.90
486.78	10230.48
486.96	10162.61
487.14	10246.87
487.32	10164.95
487.50	10476.24
487.68	10366.23
487.85	10516.03
488.03	10698.59
488.21	10827.32
488.39	10759.44
488.57	10932.64
488.75	10890.51
488.92	11012.22
489.10	11201.80
489.28	11054.35
489.46	11325.85
489.64	11162.01
489.81	11421.81
489.99	11552.88
490.17	11499.05
490.35	11573.95
490.53	11705.02
490.70	11950.78
490.88	12051.42
491.06	12126.32
491.24	11772.89
491.41	12088.87
491.59	12121.63
491.77	12241.00
491.95	12475.06
492.13	12737.20
492.30	12425.90
492.48	12482.08
492.66	12781.67
492.84	12720.81
493.01	13069.55
493.19	12784.01
493.37	13099.98
493.54	13142.11
493.72	13125.72
493.90	12950.18
494.08	13319.99
494.25	13233.39
494.43	13540.00
494.61	13633.62
494.79	13738.94
494.96	13806.82
495.14	13671.07
495.32	13762.35
495.49	13832.57
495.67	13970.66
495.85	14190.67
496.02	14256.20
496.20	14307.69
496.38	14377.91
496.55	14380.25
496.73	14623.67
496.91	14530.05
497.09	14736.01
497.26	14607.28
497.44	14586.22
497.62	14569.83
497.79	14885.81
497.97	14682.18
498.14	15222.84
498.32	15192.42
498.50	15250.93
498.67	15232.21
498.85	15159.65
499.03	15389.02
499.20	15332.85
499.38	15255.61
499.56	15374.98
499.73	15587.97
499.91	15704.99
500.08	15894.58
500.26	15917.98
500.44	15864.15
500.61	15943.73
500.79	16163.74
500.97	16154.38
501.14	16175.44
501.32	16329.92
501.49	16100.55
501.67	16123.95
501.84	16432.90
502.02	16411.84
502.20	16292.47
502.37	16304.17
502.55	16631.85
502.72	16570.99
502.90	16723.13
503.07	16561.63
503.25	16407.16
503.43	16718.45
503.60	17018.04
503.78	17245.07
503.95	16875.26
504.13	16917.39
504.30	17006.33
504.48	17125.70
504.65	17167.83
504.83	17235.70
505.01	17373.80
505.18	17441.67
505.36	17504.87
505.53	17319.96
505.71	17280.18
505.88	17717.86
506.06	17362.09
506.23	17738.92
506.41	17764.67
506.58	17678.07
506.76	18141.49
506.93	17544.66
507.11	17781.05
507.28	17935.53
507.46	17839.56
507.63	18216.39
507.81	17851.27
507.98	18148.51
508.16	18155.54
508.33	18532.36
508.50	18335.76
508.68	18930.25
508.85	18530.02
509.03	18452.78
509.20	18546.40
509.38	18897.49
509.55	18640.03
509.73	18822.59
509.90	18700.88
510.08	18637.69
510.25	18843.65
510.42	18841.31
510.60	19400.70
510.77	18967.70
510.95	19255.59
511.12	19087.07
511.30	19126.86
511.47	19152.60
511.64	19541.13
511.82	19215.80
511.99	19328.14
512.17	19433.47
512.34	19374.95
512.51	19751.78
512.69	19660.50
512.86	19442.83
513.04	20039.67
513.21	20240.95
513.38	20137.97
513.56	19852.42
513.73	19756.46
513.90	19901.58
514.08	19859.45
514.25	20430.54
514.43	19861.79
514.60	20147.33
514.77	20322.87
514.95	20418.83
515.12	20318.19
515.29	20341.60
515.47	20549.90
515.64	20542.88
515.81	20657.57
515.99	20465.64
516.16	20842.47
516.33	20713.74
516.51	20807.36
516.68	20678.63
516.85	20507.77
517.03	21006.31
517.20	20889.28
517.37	21041.42
517.54	21191.21
517.72	20940.77
517.89	21050.78
518.06	21020.35
518.24	21392.50
518.41	21212.28
518.58	21235.68
518.75	21216.96
518.93	21582.08
519.10	21542.29
519.27	21504.84
519.45	21443.99
519.62	21453.35
519.79	21549.31
519.96	21813.79
520.14	21556.33
520.31	21652.30
520.48	21933.16
520.65	21790.39
520.83	21827.84
521.00	21778.68
521.17	21668.68
521.34	21666.34
521.52	21607.83
521.69	22078.27
521.86	22347.44
522.03	22593.19
522.20	22221.05
522.38	22490.21
522.55	22492.55
522.72	22073.59
522.89	22401.27
523.07	22876.40
523.24	22581.49
523.41	22691.49
523.58	22434.03
523.75	22710.22
523.92	22944.27
524.10	22852.99
524.27	22803.84
524.44	22757.03
524.61	22855.33
524.78	23192.37
524.96	22878.74
525.13	22934.91
525.30	23087.04
525.47	22728.94
525.64	22820.22
525.81	23323.44
525.98	23232.16
526.16	23435.78
526.33	23065.98
526.50	23405.36
526.67	23080.02
526.84	23452.17
527.01	23428.76
527.18	23721.33
527.36	23903.89
527.53	23866.44
527.70	23817.29
527.87	23948.36
528.04	23960.06
528.21	24032.62
528.38	23601.96
528.55	23946.02
528.72	23887.51
528.89	24006.87
529.07	23910.91
529.24	23861.76
529.41	24421.15
529.58	24081.77
529.75	24294.76
529.92	23880.49
530.09	24381.36
530.26	24372.00
530.43	24287.74
530.60	24357.96
530.77	24053.69
530.94	24437.53
531.11	24278.38
531.28	24402.43
531.46	24243.27
531.63	24746.48
531.80	24484.34
531.97	24563.92
532.14	24694.99
532.31	24828.40
532.48	24643.50
532.65	24833.08
532.82	24362.64
532.99	24858.83
533.16	25034.37
533.33	25013.31
533.50	25074.16
533.67	24954.79
533.84	24907.98
534.01	25116.29
534.18	24950.11
534.35	25137.35
534.52	25174.80
534.69	25053.09
534.86	25432.26
535.03	25383.11
535.20	25324.60
535.37	25254.38
535.54	25338.64
535.71	25219.27
535.88	25453.33
536.05	25142.03
536.22	25619.50
536.38	25500.14
536.55	26003.35
536.72	25654.61
536.89	25322.26
537.06	25748.23
537.23	25509.50
537.40	25745.89
537.57	25617.16
537.74	25802.07
537.91	25806.75
538.08	26043.14
538.25	25743.55
538.42	25759.94
538.59	26010.37
538.75	25898.03
538.92	25680.36
539.09	26078.25
539.26	26197.62
539.43	26008.03
539.60	26263.15
539.77	26260.81
539.94	26370.82
540.11	26258.47
540.28	26597.85
540.44	26017.40
540.61	26214.00
540.78	26108.68
540.95	26307.62
541.12	26008.03
541.29	26342.73
541.46	26478.48
541.62	25972.92
541.79	26642.32
541.96	26225.70
542.13	26356.77
542.30	26684.45
542.47	26382.52
542.63	26574.44
542.80	26878.71
542.97	26728.92
543.14	27056.59
543.31	26808.50
543.48	26647.00
543.64	27328.10
543.81	26953.61
543.98	27257.88
544.15	27388.95
544.32	27391.29
544.48	27571.51
544.65	27232.13
544.82	27133.83
544.99	26902.12
545.16	27171.28
545.32	27309.37
545.49	27278.94
545.66	27667.47
545.83	27496.61
546.00	27810.25
546.16	27351.50
546.33	27449.80
546.50	27115.11
546.67	27248.52
546.83	27253.20
547.00	27412.35
547.17	27311.71
547.34	27608.96
547.50	27653.43
547.67	27950.68
547.84	27613.64
548.00	27749.39
548.17	27924.93
548.34	28123.88
548.51	28168.35
548.67	27936.63
548.84	27880.46
549.01	28006.85
549.18	28091.11
549.34	28224.52
549.51	28058.34
549.68	28154.30
549.84	27838.33
550.01	27805.56
550.18	27913.23
550.34	27936.63
550.51	28163.67
550.68	28341.55
550.84	28058.34
551.01	28088.77
551.18	27896.85
551.34	28053.66
551.51	28369.63
551.68	28451.55
551.84	28332.18
552.01	28112.17
552.18	28617.73
552.34	27885.14
552.51	28196.43
552.68	28271.33
552.84	28137.92
553.01	28158.99
553.18	28357.93
553.34	28903.28
553.51	28622.41
553.67	28732.42
553.84	29160.73
554.01	28589.64
554.17	28542.83
554.34	28339.21
554.51	28863.49
554.67	28643.48
554.84	28903.28
555.00	28734.76
555.17	29347.98
555.33	28341.55
555.50	28914.98
555.67	28968.81
555.83	29310.53
556.00	29139.67
556.16	28992.22
556.33	28587.30
556.50	28847.10
556.66	28952.43
556.83	28975.83
556.99	28964.13
557.16	29134.99
557.32	29364.36
557.49	29261.38
557.65	28734.76
557.82	29212.23
557.98	28870.51
558.15	29048.39
558.32	29453.30
558.48	29078.82
558.65	29120.95
558.81	29303.51
558.98	29404.15
559.14	29495.43
559.31	29034.35
559.47	29355.00
559.64	29514.16
559.80	29259.04
559.97	29427.56
560.13	29457.98
560.30	29764.59
560.46	29511.81
560.63	29244.99
560.79	29579.69
560.96	29619.48
561.12	29392.45
561.29	29144.35
561.45	29724.80
561.61	29610.12
561.78	29788.00
561.94	29680.33
562.11	29890.98
562.27	30066.52
562.44	29923.75
562.60	29436.92
562.77	29553.94
562.93	29886.30
563.10	30024.39
563.26	29696.72
563.42	29745.87
563.59	29780.98
563.75	29879.28
563.92	29811.40
564.08	29518.84
564.24	29434.58
564.41	29867.58
564.57	29696.72
564.74	29991.62
564.90	30181.21
565.07	29888.64
565.23	29998.65
565.39	30286.53
565.56	30281.85
565.72	29977.58
565.88	29682.67
566.05	29766.93
566.21	29680.33
566.38	29930.77
566.54	29738.85
566.70	30373.13
566.87	30103.97
567.03	30078.22
567.19	30635.27
567.36	30221.00
567.52	30288.87
567.68	30054.82
567.85	30120.35
568.01	30417.60
568.17	29989.28
568.34	30146.10
568.50	30136.74
568.66	30487.82
568.83	30246.74
568.99	30132.06
569.15	29923.75
569.32	30110.99
569.48	29979.92
569.64	30359.09
569.81	30118.01
569.97	30263.13
570.13	30431.65
570.30	30522.93
570.46	30361.43
570.62	29989.28
570.78	30199.93
570.95	30188.23
571.11	30527.61
571.27	30047.80
571.43	30185.89
571.60	30508.88
571.76	30340.36
571.92	30462.07
572.09	30651.66
572.25	30394.20
572.41	30323.98
572.57	30356.75
572.74	30778.04
572.90	30305.26
573.06	30501.86
573.22	30415.26
573.38	30422.28
573.55	30338.02
573.71	30555.69
573.87	30211.64
574.03	30646.97
574.20	30265.47
574.36	30209.29
574.52	30628.25
574.68	30326.32
574.84	30572.08
575.01	30459.73
575.17	30113.33
575.33	30639.95
575.49	30169.51
575.65	30260.79
575.82	30527.61
575.98	30206.95
576.14	30824.86
576.30	30497.18
576.46	30487.82
576.62	30307.60
576.79	30824.86
576.95	30478.46
577.11	30501.86
577.27	30607.19
577.43	30747.62
577.59	30794.43
577.75	30766.34
577.92	30373.13
578.08	30508.88
578.24	30377.81
578.40	30181.21
578.56	30288.87
578.72	30221.00
578.88	31164.23
579.04	30981.67
579.21	30426.96
579.37	30546.33
579.53	30527.61
579.69	30555.69
579.85	30859.96
580.01	30691.44
580.17	30368.45
580.33	30394.20
580.49	30583.78
580.65	31110.40
580.82	30623.57
580.98	31014.44
581.14	30387.18
581.30	31054.23
581.46	30579.10
581.62	30773.36
581.78	30398.88
581.94	30726.55
582.10	30771.02
582.26	30747.62
582.42	31035.50
582.58	30862.30
582.74	30504.20
582.90	30927.84
583.06	30595.48
583.22	30728.89
583.38	30621.23
583.54	30934.86
583.70	30726.55
583.86	31068.27
584.02	30553.35
584.18	30806.13
584.34	31077.63
584.50	30815.49
584.66	30590.80
584.82	30569.74
584.98	30583.78
585.14	30792.09
585.30	30705.49
585.46	30373.13
585.62	30490.16
585.78	30525.27
585.94	30445.69
586.10	30522.93
586.26	31110.40
586.42	30749.96
586.58	30986.35
586.74	30604.84
586.90	30679.74
587.06	30401.22
587.22	30759.32
587.38	30417.60
587.54	31070.61
587.70	30986.35
587.86	31014.44
588.02	31323.39
588.18	31250.83
588.34	31505.95
588.49	30984.01
588.65	30719.53
588.81	30656.34
588.97	30937.20
589.13	31112.74
589.29	31208.70
589.45	30827.20
589.61	30951.24
589.77	31442.76
589.93	31358.50
590.08	31571.49
590.24	31171.25
590.40	31019.12
590.56	31260.20
590.72	30946.56
590.88	30848.26
591.04	31138.49
591.20	31449.78
591.35	30991.03
591.51	31573.83
591.67	31339.77
591.83	31470.84
