SpectraSuite Data File
++++++++++++++++++++++++++++++++++++
Date: Fri Oct 18 13:57:57 GMT-05:00 2013
User: bianchi
Dark Spectrum Present: No
Reference Spectrum Present: No
Number of Sampled Component Spectra: 1
Spectrometers: USB2+H05261
Integration Time (usec): 50000 (USB2+H05261)
Spectra Averaged: 1 (USB2+H05261)
Boxcar Smoothing: 0 (USB2+H05261)
Correct for Electrical Dark: No (USB2+H05261)
Strobe/Lamp Enabled: No (USB2+H05261)
Correct for Detector Non-linearity: No (USB2+H05261)
Correct for Stray Light: No (USB2+H05261)
Number of Pixels in Processed Spectrum: 2048
>>>>>Begin Processed Spectral Data<<<<<
365.73	0.00
365.92	0.00
366.12	0.00
366.32	0.00
366.52	0.00
366.72	0.00
366.91	0.00
367.11	0.00
367.31	0.00
367.51	0.00
367.70	0.00
367.90	0.00
368.10	0.00
368.30	0.00
368.49	0.00
368.69	0.00
368.89	0.00
369.09	0.00
369.28	0.00
369.48	0.00
369.68	0.00
369.87	0.00
370.07	0.00
370.27	0.00
370.47	0.00
370.66	110.01
370.86	95.96
371.06	166.18
371.25	72.56
371.45	126.39
371.65	88.94
371.84	241.08
372.04	168.52
372.24	135.75
372.44	252.78
372.63	159.16
372.83	245.76
373.03	222.35
373.22	278.52
373.42	234.05
373.62	257.46
373.81	238.73
374.01	201.29
374.21	280.86
374.40	215.33
374.60	264.48
374.79	177.88
374.99	257.46
375.19	255.12
375.38	245.76
375.58	245.76
375.78	231.71
375.97	133.41
376.17	243.42
376.37	266.82
376.56	301.93
376.76	227.03
376.95	241.08
377.15	238.73
377.35	273.84
377.54	278.52
377.74	203.63
377.93	292.57
378.13	337.04
378.33	301.93
378.52	285.55
378.72	273.84
378.91	283.20
379.11	217.67
379.31	332.36
379.50	318.31
379.70	306.61
379.89	374.49
380.09	266.82
380.28	325.33
380.48	308.95
380.68	297.25
380.87	297.25
381.07	280.86
381.26	299.59
381.46	308.95
381.65	379.17
381.85	341.72
382.04	327.68
382.24	337.04
382.43	367.46
382.63	297.25
382.83	393.21
383.02	393.21
383.22	348.74
383.41	433.00
383.61	294.91
383.80	365.12
384.00	322.99
384.19	435.34
384.39	425.98
384.58	348.74
384.78	351.08
384.97	337.04
385.17	428.32
385.36	358.10
385.56	423.64
385.75	433.00
385.95	362.78
386.14	362.78
386.34	341.72
386.53	341.72
386.72	433.00
386.92	437.68
387.11	367.46
387.31	414.27
387.50	470.45
387.70	468.11
387.89	395.55
388.09	514.92
388.28	400.23
388.48	449.38
388.67	505.56
388.86	440.02
389.06	477.47
389.25	550.03
389.45	496.19
389.64	440.02
389.84	454.06
390.03	510.24
390.22	477.47
390.42	524.28
390.61	468.11
390.81	475.13
391.00	503.22
391.19	571.09
391.39	418.96
391.58	496.19
391.78	491.51
391.97	571.09
392.16	568.75
392.36	594.50
392.55	510.24
392.75	489.17
392.94	599.18
393.13	573.43
393.33	496.19
393.52	599.18
393.71	573.43
393.91	622.58
394.10	648.33
394.29	528.96
394.49	538.32
394.68	636.63
394.88	641.31
395.07	601.52
395.26	683.44
395.46	685.78
395.65	660.03
395.84	636.63
396.04	613.22
396.23	550.03
396.42	629.60
396.62	671.73
396.81	660.03
397.00	713.86
397.19	655.35
397.39	702.16
397.58	641.31
397.77	688.12
397.97	709.18
398.16	774.72
398.35	648.33
398.55	751.31
398.74	777.06
398.93	758.33
399.12	723.23
399.32	734.93
399.51	692.80
399.70	730.25
399.90	699.82
400.09	744.29
400.28	844.93
400.47	784.08
400.67	800.46
400.86	786.42
401.05	802.80
401.24	835.57
401.44	858.98
401.63	952.60
401.82	858.98
402.01	828.55
402.21	833.23
402.40	870.68
402.59	788.76
402.78	809.83
402.97	863.66
403.17	875.36
403.36	837.91
403.55	882.38
403.74	964.30
403.93	931.53
404.13	1029.84
404.32	968.98
404.51	976.00
404.70	997.07
404.89	826.21
405.09	1039.20
405.28	985.37
405.47	929.19
405.66	1027.50
405.85	1053.24
406.05	933.87
406.24	1071.97
406.43	992.39
406.62	999.41
406.81	1081.33
407.00	1039.20
407.20	1011.11
407.39	978.34
407.58	1076.65
407.77	1188.99
407.96	1109.41
408.15	1144.52
408.34	1046.22
408.54	1109.41
408.73	1125.80
408.92	1107.07
409.11	1172.61
409.30	1235.80
409.49	1125.80
409.68	1233.46
409.87	1217.08
410.07	1146.86
410.26	1268.57
410.45	1238.14
410.64	1174.95
410.83	1247.51
411.02	1366.87
411.21	1329.42
411.40	1170.27
411.59	1355.17
411.78	1296.66
411.98	1327.08
412.17	1336.45
412.36	1345.81
412.55	1369.21
412.74	1376.24
412.93	1329.42
413.12	1336.45
413.31	1479.22
413.50	1413.68
413.69	1329.42
413.88	1619.65
414.07	1430.07
414.26	1462.83
414.45	1596.25
414.64	1526.03
414.83	1621.99
415.02	1575.18
415.22	1446.45
415.41	1572.84
415.60	1514.33
415.79	1619.65
415.98	1561.14
416.17	1605.61
416.36	1619.65
416.55	1650.08
416.74	1650.08
416.93	1701.57
417.12	1682.85
417.31	1760.08
417.50	1783.49
417.69	1778.81
417.88	1795.19
418.07	1736.68
418.26	1867.75
418.45	1790.51
418.64	1842.00
418.83	1724.97
419.02	1783.49
419.21	1818.60
419.39	1980.09
419.58	1797.53
419.77	1842.00
419.96	1839.66
420.15	1942.64
420.34	1923.92
420.53	1865.41
420.72	1975.41
420.91	1867.75
421.10	2033.93
421.29	1926.26
421.48	1982.43
421.67	2062.01
421.86	1956.69
422.05	2080.74
422.24	2087.76
422.43	1961.37
422.61	1900.52
422.80	2024.56
422.99	1952.01
423.18	1970.73
423.37	1970.73
423.56	2059.67
423.75	2012.86
423.94	2054.99
424.13	1949.67
424.32	1987.11
424.50	2146.27
424.69	2134.57
424.88	2207.13
425.07	2097.12
425.26	2019.88
425.45	2083.08
425.64	2010.52
425.83	2008.18
426.01	2108.82
426.20	2026.90
426.39	2183.72
426.58	2029.24
426.77	2174.36
426.96	2064.35
427.15	2143.93
427.33	2190.74
427.52	2090.10
427.71	2228.19
427.90	2073.71
428.09	2190.74
428.28	2253.94
428.46	2284.36
428.65	2179.04
428.84	2148.61
429.03	2324.15
429.22	2237.55
429.40	2267.98
429.59	2307.77
429.78	2207.13
429.97	2223.51
430.16	2380.32
430.34	2483.31
430.53	2328.83
430.72	2373.30
430.91	2317.13
431.10	2293.72
431.28	2368.62
431.47	2448.20
431.66	2466.92
431.85	2399.05
432.03	2574.59
432.22	2335.85
432.41	2565.23
432.60	2483.31
432.79	2569.91
432.97	2490.33
433.16	2569.91
433.35	2619.06
433.54	2499.69
433.72	2518.42
433.91	2476.29
434.10	2569.91
434.28	2553.52
434.47	2605.02
434.66	2605.02
434.85	2672.89
435.03	2628.42
435.22	2663.53
435.41	2736.09
435.59	2661.19
435.78	2588.63
435.97	2656.51
436.16	2724.38
436.34	2686.94
436.53	2710.34
436.72	2761.83
436.90	2738.43
437.09	2768.85
437.28	2747.79
437.46	2745.45
437.65	2855.45
437.84	2810.98
438.02	2778.22
438.21	2883.54
438.40	2787.58
438.58	2885.88
438.77	2881.20
438.96	2834.39
439.14	2988.86
439.33	3014.61
439.52	2993.55
439.70	2956.10
439.89	3143.34
440.08	3131.64
440.26	3222.92
440.45	3112.91
440.63	3059.08
440.82	3201.85
441.01	3066.10
441.19	3155.04
441.38	3197.17
441.57	3227.60
441.75	3316.54
441.94	3332.92
442.12	3288.45
442.31	3396.12
442.50	3379.73
442.68	3330.58
442.87	3452.29
443.05	3419.52
443.24	3487.40
443.43	3529.53
443.61	3527.19
443.80	3480.38
443.98	3384.41
444.17	3363.35
444.35	3463.99
444.54	3599.74
444.73	3531.87
444.91	3517.83
445.10	3613.79
445.28	3564.64
445.47	3468.67
445.65	3534.21
445.84	3510.80
446.02	3639.53
446.21	3459.31
446.39	3492.08
446.58	3606.77
446.77	3552.93
446.95	3393.78
447.14	3576.34
447.32	3630.17
447.51	3548.25
447.69	3627.83
447.88	3585.70
448.06	3716.77
448.25	3665.28
448.43	3506.12
448.62	3550.59
448.80	3431.23
448.99	3597.40
449.17	3655.92
449.36	3761.24
449.54	3691.02
449.73	3726.13
449.91	3763.58
450.10	3782.31
450.28	3794.01
450.46	3852.52
450.65	3894.65
450.83	3950.82
451.02	3801.03
451.20	4030.40
451.39	3920.40
451.57	3801.03
451.76	3777.62
451.94	3836.14
452.13	4037.42
452.31	3999.98
452.49	3817.41
452.68	3918.06
452.86	3911.04
453.05	3847.84
453.23	3974.23
453.42	3967.21
453.60	4044.45
453.78	3927.42
453.97	3974.23
454.15	4084.23
454.34	3995.29
454.52	4166.15
454.70	4259.78
454.89	4070.19
455.07	4152.11
455.26	4060.83
455.44	4161.47
455.62	4121.68
455.81	4262.12
455.99	4086.58
456.17	4243.39
456.36	4393.19
456.54	4322.97
456.73	4341.69
456.91	4311.27
457.09	4435.32
457.28	4369.78
457.46	4346.37
457.64	4512.55
457.83	4318.29
458.01	4212.96
458.19	4521.92
458.38	4425.95
458.56	4521.92
458.74	4479.79
458.93	4624.90
459.11	4524.26
459.29	4552.34
459.48	4596.81
459.66	4727.88
459.84	4683.41
460.03	4755.97
460.21	4624.90
460.39	4477.44
460.57	4723.20
460.76	4603.83
460.94	4755.97
461.12	4720.86
461.31	4648.30
461.49	4650.64
461.67	4842.57
461.85	4910.44
462.04	4746.61
462.22	4929.17
462.40	4898.74
462.59	4793.42
462.77	4688.09
462.95	4805.12
463.13	4737.24
463.32	4816.82
463.50	5071.94
463.68	4858.95
463.86	5074.28
464.05	4816.82
464.23	5046.20
464.41	5102.37
464.59	4943.21
464.78	4947.89
464.96	4975.98
465.14	4903.42
465.32	4884.70
465.50	5153.86
465.69	5100.03
465.87	5188.97
466.05	5373.87
466.23	5064.92
466.41	5107.05
466.60	5186.63
466.78	5097.69
466.96	5104.71
467.14	5203.01
467.32	5214.71
467.51	5254.50
467.69	5181.95
467.87	5296.63
468.05	5355.15
468.23	5179.61
468.41	5362.17
468.60	5296.63
468.78	5252.16
468.96	5385.57
469.14	5397.28
469.32	5502.60
469.50	5207.69
469.69	5404.30
469.87	5568.13
470.05	5561.11
470.23	5549.41
470.41	5542.39
470.59	5666.44
470.77	5600.90
470.95	5514.30
471.14	5542.39
471.32	5577.50
471.50	5729.63
471.68	5736.65
471.86	5633.67
472.04	5909.85
472.22	5806.87
472.40	5792.83
472.58	5919.21
472.77	5970.71
472.95	5834.96
473.13	6064.33
473.31	5994.11
473.49	5930.92
473.67	6019.86
473.85	6120.50
474.03	6202.42
474.21	6122.84
474.39	6211.78
474.57	6183.70
474.75	6415.41
474.93	6420.09
475.12	6092.41
475.30	6239.87
475.48	6200.08
475.66	6530.09
475.84	6427.11
476.02	6333.49
476.20	6476.26
476.38	6497.33
476.56	6710.32
476.74	6679.89
476.92	6761.81
477.10	6459.88
477.28	6977.14
477.46	6825.00
477.64	6778.19
477.82	6911.60
478.00	7157.36
478.18	7178.42
478.36	7089.48
478.54	7332.90
478.72	7166.72
478.90	7344.60
479.08	7239.28
479.26	7365.67
479.44	7485.03
479.62	7377.37
479.80	7623.12
479.98	7599.72
480.16	7620.78
480.34	7552.91
480.52	7829.09
480.70	7866.54
480.88	7765.90
481.06	7889.95
481.24	7864.20
481.41	7948.46
481.59	8084.21
481.77	8238.69
481.95	8161.45
482.13	8252.73
482.31	8299.54
482.49	8346.35
482.67	8557.00
482.85	8514.87
483.03	8704.45
483.21	8645.94
483.39	8725.52
483.57	8659.98
483.74	8711.47
483.92	8868.29
484.10	9022.77
484.28	9090.64
484.46	9458.10
484.64	9245.12
484.82	9212.35
485.00	9366.82
485.18	9474.49
485.35	9706.20
485.53	9493.21
485.71	9661.73
485.89	9874.72
486.07	9891.10
486.25	9874.72
486.43	9778.76
486.61	9846.63
486.78	10225.80
486.96	10291.34
487.14	10190.69
487.32	10326.44
487.50	10476.24
487.68	10380.28
487.85	10743.06
488.03	10581.56
488.21	10672.84
488.39	10696.25
488.57	10963.07
488.75	11070.73
488.92	11257.98
489.10	11257.98
489.28	11129.25
489.46	11412.45
489.64	11300.11
489.81	11424.15
489.99	11791.62
490.17	11754.17
490.35	11805.66
490.53	11857.15
490.70	11742.47
490.88	11936.73
491.06	12060.78
491.24	11932.05
491.41	12294.83
491.59	12189.51
491.77	12208.23
491.95	12505.48
492.13	12269.09
492.30	12463.35
492.48	12458.67
492.66	12535.91
492.84	12561.66
493.01	12798.05
493.19	12734.85
493.37	13226.37
493.54	13284.88
493.72	13500.21
493.90	13081.25
494.08	12978.27
494.25	13446.38
494.43	13486.17
494.61	13547.02
494.79	13680.43
494.96	13848.95
495.14	13862.99
495.32	14024.49
495.49	13912.14
495.67	13862.99
495.85	14008.11
496.02	14101.73
496.20	14185.99
496.38	14141.52
496.55	14342.80
496.73	14396.64
496.91	14497.28
497.09	14747.72
497.26	14869.42
497.44	14747.72
497.62	14647.07
497.79	15042.62
497.97	14829.63
498.14	15211.14
498.32	15133.90
498.50	15499.03
498.67	15438.17
498.85	15215.82
499.03	15307.10
499.20	15356.25
499.38	15513.07
499.56	15676.91
499.73	15693.29
499.91	15524.77
500.08	15889.90
500.26	15683.93
500.44	16079.48
500.61	15976.50
500.79	16173.10
500.97	16009.26
501.14	16395.45
501.32	16320.56
501.49	16121.61
501.67	16212.89
501.84	16439.92
502.02	16388.43
502.20	16453.97
502.37	16367.37
502.55	16493.76
502.72	16608.44
502.90	16664.61
503.07	16393.11
503.25	16711.42
503.43	16650.57
503.60	17137.40
503.78	16957.18
503.95	16868.24
504.13	17224.00
504.30	17001.65
504.48	16725.47
504.65	17242.73
504.83	16992.29
505.01	17568.06
505.18	17486.14
505.36	17678.07
505.53	17427.63
505.71	17579.76
505.88	17687.43
506.06	17418.27
506.23	17699.13
506.41	17872.33
506.58	18106.38
506.76	17607.85
506.93	17980.00
507.11	17755.30
507.28	17846.58
507.46	18001.06
507.63	18104.04
507.81	18555.77
507.98	18054.89
508.16	18459.81
508.33	17944.89
508.50	18331.08
508.68	18457.46
508.85	18501.93
509.03	18553.43
509.20	18427.04
509.38	18845.99
509.55	19112.81
509.73	18913.87
509.90	18635.35
510.08	18789.82
510.25	18916.21
510.42	19030.90
510.60	19208.78
510.77	19164.31
510.95	19077.71
511.12	18792.16
511.30	19143.24
511.47	19218.14
511.64	19290.70
511.82	19522.41
511.99	19470.92
512.17	19735.40
512.34	19475.60
512.51	19414.74
512.69	19892.21
512.86	19840.72
513.04	20056.05
513.21	20013.92
513.38	19988.18
513.56	19843.06
513.73	19583.26
513.90	19868.81
514.08	19819.66
514.25	20025.62
514.43	20252.66
514.60	20460.96
514.77	20233.93
514.95	20526.50
515.12	20369.68
515.29	20372.02
515.47	20360.32
515.64	20603.74
515.81	20472.67
515.99	20585.01
516.16	20823.75
516.33	20868.22
516.51	20596.71
516.68	20606.08
516.85	20669.27
517.03	20868.22
517.20	20996.95
517.37	21167.80
517.54	21057.80
517.72	21060.14
517.89	21188.87
518.06	21408.88
518.24	20924.39
518.41	21245.04
518.58	21132.70
518.75	21411.22
518.93	21656.98
519.10	21401.86
519.27	21675.70
519.45	21652.30
519.62	21446.33
519.79	21476.76
519.96	22047.85
520.14	21921.46
520.31	21289.51
520.48	22188.28
520.65	21930.82
520.83	21837.20
521.00	21830.18
521.17	22228.07
521.34	21954.22
521.52	22026.78
521.69	22040.82
521.86	22190.62
522.03	22125.08
522.20	22562.76
522.38	22590.85
522.55	22333.39
522.72	22366.16
522.89	22794.48
523.07	22693.83
523.24	22485.53
523.41	22845.97
523.58	22122.74
523.75	22410.63
523.92	22731.28
524.10	22860.01
524.27	22911.50
524.44	23056.62
524.61	23229.82
524.78	23330.46
524.96	22836.61
525.13	22951.29
525.30	23108.11
525.47	23241.52
525.64	23087.04
525.81	23325.78
525.98	23463.87
526.16	23253.22
526.33	23424.08
526.50	23927.30
526.67	23566.85
526.84	23782.18
527.01	23271.95
527.18	23604.30
527.36	23770.48
527.53	24084.11
527.70	23667.50
527.87	23845.38
528.04	23520.04
528.21	23702.61
528.38	23784.52
528.55	23999.85
528.72	24009.22
528.89	24105.18
529.07	24025.60
529.24	24074.75
529.41	24049.00
529.58	24215.18
529.75	24013.90
529.92	24364.98
530.09	24116.88
530.26	24215.18
530.43	24643.50
530.60	24390.72
530.77	24474.98
530.94	24264.33
531.11	24617.75
531.28	24283.06
531.46	24552.22
531.63	24402.43
531.80	24491.37
531.97	24514.77
532.14	24870.53
532.31	24339.23
532.48	24636.48
532.65	24891.60
532.82	24704.35
532.99	24790.95
533.16	24474.98
533.33	25242.68
533.50	25053.09
533.67	25425.24
533.84	24950.11
534.01	24856.49
534.18	24812.02
534.35	25270.76
534.52	24680.95
534.69	24950.11
534.86	25252.04
535.03	24762.87
535.20	25266.08
535.37	25200.55
535.54	25528.22
535.71	25282.47
535.88	25226.29
536.05	25195.87
536.22	25778.66
536.38	25689.72
536.55	25530.56
536.72	25724.83
536.89	25729.51
537.06	25479.07
537.23	25663.97
537.40	25785.68
537.57	25844.20
537.74	25961.22
537.91	26099.31
538.08	26171.87
538.25	26015.05
538.42	25848.88
538.59	25954.20
538.75	26078.25
538.92	26033.78
539.09	26064.21
539.26	26125.06
539.43	25886.32
539.60	26494.86
539.77	26066.55
539.94	26064.21
540.11	26469.12
540.28	26155.49
540.44	26749.98
540.61	26008.03
540.78	26094.63
540.95	26225.70
541.12	26637.64
541.29	26263.15
541.46	26228.04
541.62	26331.03
541.79	26721.90
541.96	26111.02
542.13	26441.03
542.30	26857.65
542.47	26536.99
542.63	26822.54
542.80	26649.34
542.97	27182.98
543.14	26719.56
543.31	27175.96
543.48	26890.41
543.64	27297.67
543.81	27428.74
543.98	27527.04
544.15	27410.01
544.32	27328.10
544.48	27501.29
544.65	27094.04
544.82	27096.38
544.99	27379.59
545.16	27133.83
545.32	27241.50
545.49	27571.51
545.66	27585.55
545.83	28065.36
546.00	27342.14
546.16	27372.57
546.33	27325.75
546.50	27178.30
546.67	27534.06
546.83	27257.88
547.00	27777.48
547.17	27571.51
547.34	27821.95
547.50	28194.09
547.67	27864.08
547.84	27826.63
548.00	27580.87
548.17	27796.20
548.34	28030.26
548.51	28238.56
548.67	28205.80
548.84	28065.36
549.01	27819.61
549.18	28121.54
549.34	27850.03
549.51	28086.43
549.68	28198.77
549.84	27960.04
550.01	27875.78
550.18	28102.81
550.34	28320.48
550.51	28610.71
550.68	28496.02
550.84	27936.63
551.01	28226.86
551.18	28233.88
551.34	27805.56
551.51	28329.84
551.68	28449.21
551.84	28063.02
552.01	28442.19
552.18	28781.57
552.34	28711.35
552.51	28549.85
552.68	28669.22
552.84	28613.05
553.01	28538.15
553.18	28531.13
553.34	28718.37
553.51	28746.46
553.67	28816.68
553.84	28907.96
554.01	28711.35
554.17	29022.64
554.34	28804.97
554.51	28727.74
554.67	28917.32
554.84	28723.05
555.00	28926.68
555.17	29195.84
555.33	29034.35
555.50	28922.00
555.67	28891.57
555.83	29226.27
556.00	28870.51
556.16	29556.28
556.33	29134.99
556.50	29174.78
556.66	29198.18
556.83	29209.89
556.99	29666.29
557.16	29450.96
557.32	29160.73
557.49	29352.66
557.65	29450.96
557.82	29352.66
557.98	29139.67
558.15	29273.08
558.32	29324.57
558.48	29362.02
558.65	29359.68
558.81	29621.82
558.98	29640.54
559.14	29404.15
559.31	29383.09
559.47	29638.20
559.64	29167.76
559.80	29474.37
559.97	29703.74
560.13	29539.90
560.30	29642.88
560.46	29741.19
560.63	29514.16
560.79	29546.92
560.96	29912.05
561.12	29546.92
561.29	29553.94
561.45	29310.53
561.61	29818.42
561.78	29727.14
561.94	29722.46
562.11	29979.92
562.27	29486.07
562.44	30150.78
562.60	29563.31
562.77	29895.66
562.93	29703.74
563.10	29940.13
563.26	29879.28
563.42	30508.88
563.59	30228.02
563.75	29748.21
563.92	29778.64
564.08	29675.65
564.24	30003.33
564.41	30040.78
564.57	29769.27
564.74	29876.94
564.90	30342.70
565.07	30174.19
565.23	29682.67
565.39	30455.05
565.56	30403.56
565.72	29539.90
565.88	30157.80
566.05	29795.02
566.21	29977.58
566.38	29991.62
566.54	30146.10
566.70	30433.99
566.87	30213.98
567.03	30473.78
567.19	30759.32
567.36	30450.37
567.52	30270.15
567.68	30213.98
567.85	30298.23
568.01	30185.89
568.17	30239.72
568.34	30396.54
568.50	30216.32
568.66	30639.95
568.83	30235.04
568.99	30043.12
569.15	30410.58
569.32	30071.20
569.48	30125.04
569.64	30661.02
569.81	30576.76
569.97	30258.45
570.13	30258.45
570.30	30036.09
570.46	30417.60
570.62	30359.09
570.78	30504.20
570.95	30157.80
571.11	30085.25
571.27	30106.31
571.43	29984.60
571.60	30635.27
571.76	30511.22
571.92	30448.03
572.09	30616.55
572.25	30532.29
572.41	30558.03
572.57	30113.33
572.74	30925.50
572.90	30244.40
573.06	30139.08
573.22	30689.10
573.38	30476.12
573.55	30677.40
573.71	30628.25
573.87	30925.50
574.03	30630.59
574.20	30581.44
574.36	30349.73
574.52	30211.64
574.68	30302.92
574.84	30307.60
575.01	30469.09
575.17	31030.82
575.33	30874.01
575.49	30756.98
575.65	30352.07
575.82	30642.29
575.98	30546.33
576.14	30469.09
576.30	30759.32
576.46	30309.94
576.62	30487.82
576.79	30579.10
576.95	30291.21
577.11	30724.21
577.27	30764.00
577.43	30932.52
577.59	30469.09
577.75	31030.82
577.92	30431.65
578.08	30286.53
578.24	30209.29
578.40	30384.83
578.56	30693.79
578.72	30665.70
578.88	31019.12
579.04	30866.98
579.21	30646.97
579.37	30764.00
579.53	30792.09
579.69	30724.21
579.85	30679.74
580.01	30710.17
580.17	30661.02
580.33	30632.93
580.49	30944.22
580.65	30885.71
580.82	30595.48
580.98	30897.41
581.14	31189.98
581.30	30649.32
581.46	30307.60
581.62	30911.46
581.78	30546.33
581.94	30700.81
582.10	30675.06
582.26	30450.37
582.42	30906.77
582.58	31049.55
582.74	30696.13
582.90	30658.68
583.06	31005.08
583.22	30562.72
583.38	30859.96
583.54	30836.56
583.70	30684.42
583.86	30897.41
584.02	30857.62
584.18	30583.78
584.34	30878.69
584.50	30899.75
584.66	30916.14
584.82	30522.93
584.98	30927.84
585.14	30452.71
585.30	30916.14
585.46	30960.61
585.62	30700.81
585.78	30745.28
585.94	30707.83
586.10	31213.38
586.26	31068.27
586.42	30782.73
586.58	30920.82
586.74	30944.22
586.90	31105.72
587.06	30679.74
587.22	30806.13
587.38	30792.09
587.54	31131.47
587.70	31512.97
587.86	30452.71
588.02	31388.92
588.18	31398.29
588.34	31016.78
588.49	31065.93
588.65	30965.29
588.81	30974.65
588.97	31236.79
589.13	31075.29
589.29	30824.86
589.45	31234.45
589.61	31096.36
589.77	31356.16
589.93	31054.23
590.08	30881.03
590.24	31297.64
590.40	31264.88
590.56	31377.22
590.72	31175.94
590.88	31075.29
591.04	30916.14
591.20	31042.53
591.35	31414.67
591.51	31964.70
591.67	31569.15
591.83	31400.63
591.99	31428.71
