SpectraSuite Data File
++++++++++++++++++++++++++++++++++++
Date: Fri Oct 18 13:58:40 GMT-05:00 2013
User: bianchi
Dark Spectrum Present: No
Reference Spectrum Present: No
Number of Sampled Component Spectra: 1
Spectrometers: USB2+H05261
Integration Time (usec): 50000 (USB2+H05261)
Spectra Averaged: 1 (USB2+H05261)
Boxcar Smoothing: 0 (USB2+H05261)
Correct for Electrical Dark: No (USB2+H05261)
Strobe/Lamp Enabled: No (USB2+H05261)
Correct for Detector Non-linearity: No (USB2+H05261)
Correct for Stray Light: No (USB2+H05261)
Number of Pixels in Processed Spectrum: 2048
>>>>>Begin Processed Spectral Data<<<<<
365.73	0.00
365.92	0.00
366.12	0.00
366.32	0.00
366.52	0.00
366.72	0.00
366.91	0.00
367.11	0.00
367.31	0.00
367.51	0.00
367.70	0.00
367.90	0.00
368.10	0.00
368.30	0.00
368.49	0.00
368.69	0.00
368.89	0.00
369.09	0.00
369.28	0.00
369.48	0.00
369.68	0.00
369.87	0.00
370.07	0.00
370.27	0.00
370.47	0.00
370.66	74.90
370.86	79.58
371.06	152.13
371.25	112.35
371.45	102.98
371.65	234.05
371.84	154.48
372.04	175.54
372.24	224.69
372.44	187.24
372.63	205.97
372.83	194.26
373.03	234.05
373.22	222.35
373.42	194.26
373.62	145.11
373.81	285.55
374.01	271.50
374.21	220.01
374.40	269.16
374.60	205.97
374.79	177.88
374.99	194.26
375.19	255.12
375.38	287.89
375.58	245.76
375.78	276.18
375.97	227.03
376.17	285.55
376.37	196.60
376.56	262.14
376.76	259.80
376.95	217.67
377.15	348.74
377.35	280.86
377.54	285.55
377.74	217.67
377.93	191.92
378.13	369.80
378.33	273.84
378.52	306.61
378.72	208.31
378.91	320.65
379.11	308.95
379.31	252.78
379.50	301.93
379.70	315.97
379.89	337.04
380.09	337.04
380.28	283.20
380.48	297.25
380.68	257.46
380.87	322.99
381.07	346.40
381.26	346.40
381.46	262.14
381.65	381.51
381.85	278.52
382.04	332.36
382.24	332.36
382.43	255.12
382.63	322.99
382.83	334.70
383.02	369.80
383.22	372.15
383.41	374.49
383.61	374.49
383.80	353.42
384.00	330.02
384.19	353.42
384.39	400.23
384.58	440.02
384.78	337.04
384.97	407.25
385.17	430.66
385.36	451.72
385.56	379.17
385.75	365.12
385.95	388.53
386.14	402.57
386.34	440.02
386.53	416.62
386.72	379.17
386.92	365.12
387.11	374.49
387.31	330.02
387.50	404.91
387.70	416.62
387.89	397.89
388.09	383.85
388.28	456.40
388.48	404.91
388.67	444.70
388.86	400.23
389.06	442.36
389.25	404.91
389.45	468.11
389.64	514.92
389.84	489.17
390.03	510.24
390.22	430.66
390.42	535.98
390.61	510.24
390.81	468.11
391.00	568.75
391.19	454.06
391.39	435.34
391.58	503.22
391.78	613.22
391.97	514.92
392.16	491.51
392.36	648.33
392.55	505.56
392.75	528.96
392.94	592.16
393.13	554.71
393.33	552.37
393.52	528.96
393.71	589.82
393.91	547.69
394.10	554.71
394.29	603.86
394.49	582.79
394.68	580.45
394.88	531.30
395.07	514.92
395.26	617.90
395.46	589.82
395.65	643.65
395.84	685.78
396.04	578.11
396.23	671.73
396.42	599.18
396.62	655.35
396.81	660.03
397.00	615.56
397.19	641.31
397.39	594.50
397.58	671.73
397.77	648.33
397.97	690.46
398.16	711.52
398.35	657.69
398.55	734.93
398.74	688.12
398.93	678.76
399.12	739.61
399.32	671.73
399.51	739.61
399.70	681.10
399.90	795.78
400.09	716.20
400.28	770.04
400.47	779.40
400.67	755.99
400.86	730.25
401.05	746.63
401.24	774.72
401.44	798.12
401.63	774.72
401.82	795.78
402.01	709.18
402.21	774.72
402.40	716.20
402.59	786.42
402.78	866.00
402.97	816.85
403.17	840.25
403.36	840.25
403.55	873.02
403.74	894.08
403.93	908.13
404.13	912.81
404.32	912.81
404.51	926.85
404.70	880.04
404.89	1011.11
405.09	985.37
405.28	929.19
405.47	933.87
405.66	1018.13
405.85	980.68
406.05	1032.18
406.24	994.73
406.43	999.41
406.62	999.41
406.81	976.00
407.00	997.07
407.20	957.28
407.39	1069.62
407.58	1020.47
407.77	1053.24
407.96	1029.84
408.15	1071.97
408.34	1046.22
408.54	1132.82
408.73	1224.10
408.92	1095.37
409.11	1121.12
409.30	1142.18
409.49	1137.50
409.68	1062.60
409.87	1167.93
410.07	1116.44
410.26	1153.88
410.45	1160.91
410.64	1181.97
410.83	1130.48
411.02	1233.46
411.21	1247.51
411.40	1249.85
411.59	1266.23
411.78	1214.74
411.98	1224.10
412.17	1191.33
412.36	1273.25
412.55	1287.29
412.74	1263.89
412.93	1301.34
413.12	1315.38
413.31	1425.39
413.50	1362.19
413.69	1427.73
413.88	1460.49
414.07	1359.85
414.26	1334.11
414.45	1465.18
414.64	1448.79
414.83	1530.71
415.02	1472.20
415.22	1535.39
415.41	1481.56
415.60	1540.07
415.79	1540.07
415.98	1586.88
416.17	1596.25
416.36	1614.97
416.55	1605.61
416.74	1727.32
416.93	1734.34
417.12	1671.14
417.31	1659.44
417.50	1685.19
417.69	1729.66
417.88	1666.46
418.07	1675.82
418.26	1645.40
418.45	1757.74
418.64	1867.75
418.83	1769.44
419.02	1776.47
419.21	1792.85
419.39	1827.96
419.58	1816.26
419.77	1858.39
419.96	1860.73
420.15	1970.73
420.34	1863.07
420.53	1863.07
420.72	1970.73
420.91	1919.24
421.10	1863.07
421.29	2062.01
421.48	1846.68
421.67	1961.37
421.86	1926.26
422.05	1966.05
422.24	1987.11
422.43	2064.35
422.61	1898.17
422.80	2062.01
422.99	1989.46
423.18	1926.26
423.37	2003.50
423.56	1982.43
423.75	1949.67
423.94	1874.77
424.13	1790.51
424.32	1870.09
424.50	1977.75
424.69	2036.27
424.88	2066.69
425.07	1982.43
425.26	2062.01
425.45	1973.07
425.64	1919.24
425.83	1947.33
426.01	1994.14
426.20	2052.65
426.39	2031.58
426.58	2066.69
426.77	2026.90
426.96	2033.93
427.15	2059.67
427.33	2101.80
427.52	2139.25
427.71	2153.29
427.90	2211.81
428.09	2162.66
428.28	2146.27
428.46	2251.60
428.65	2289.04
428.84	2253.94
429.03	2251.60
429.22	2150.95
429.40	2300.75
429.59	2312.45
429.78	2111.16
429.97	2181.38
430.16	2200.10
430.34	2338.20
430.53	2380.32
430.72	2305.43
430.91	2328.83
431.10	2275.00
431.28	2368.62
431.47	2272.66
431.66	2448.20
431.85	2466.92
432.03	2452.88
432.22	2410.75
432.41	2473.95
432.60	2410.75
432.79	2452.88
432.97	2359.26
433.16	2387.35
433.35	2413.09
433.54	2445.86
433.72	2495.01
433.91	2558.21
434.10	2436.50
434.28	2450.54
434.47	2513.74
434.66	2450.54
434.85	2663.53
435.03	2619.06
435.22	2502.03
435.41	2726.72
435.59	2633.10
435.78	2710.34
435.97	2750.13
436.16	2593.31
436.34	2722.04
436.53	2672.89
436.72	2616.72
436.90	2637.78
437.09	2597.99
437.28	2729.06
437.46	2628.42
437.65	2768.85
437.84	2771.19
438.02	2832.05
438.21	2822.69
438.40	2649.49
438.58	2792.26
438.77	2869.50
438.96	2895.24
439.14	2902.26
439.33	2874.18
439.52	3054.40
439.70	2925.67
439.89	2930.35
440.08	3180.79
440.26	2979.50
440.45	3000.57
440.63	2974.82
440.82	3002.91
441.01	3117.59
441.19	3141.00
441.38	3239.30
441.57	3038.02
441.75	3068.44
441.94	3309.52
442.12	3246.32
442.31	3159.72
442.50	3321.22
442.68	3342.28
442.87	3253.34
443.05	3283.77
443.24	3412.50
443.43	3412.50
443.61	3361.01
443.80	3396.12
443.98	3103.55
444.17	3105.89
444.35	3368.03
444.54	3459.31
444.73	3447.61
444.91	3405.48
445.10	3318.88
445.28	3590.38
445.47	3494.42
445.65	3466.33
445.84	3588.04
446.02	3482.72
446.21	3370.37
446.39	3393.78
446.58	3412.50
446.77	3641.87
446.95	3424.20
447.14	3393.78
447.32	3534.21
447.51	3492.08
447.69	3440.59
447.88	3463.99
448.06	3421.86
448.25	3440.59
448.43	3389.10
448.62	3482.72
448.80	3574.00
448.99	3571.66
449.17	3503.78
449.36	3524.85
449.54	3604.42
449.73	3639.53
449.91	3794.01
450.10	3754.22
450.28	3740.18
450.46	3651.24
450.65	3728.47
450.83	3815.07
451.02	3728.47
451.20	3634.85
451.39	3747.20
451.57	3763.58
451.76	3698.05
451.94	3801.03
452.13	3779.97
452.31	3819.75
452.49	3831.46
452.68	3833.80
452.86	3742.52
453.05	3822.09
453.23	3810.39
453.42	3812.73
453.60	3887.63
453.78	3843.16
453.97	3918.06
454.15	3901.67
454.34	3880.61
454.52	4018.70
454.70	3985.93
454.89	3997.64
455.07	4030.40
455.26	3906.35
455.44	4079.55
455.62	4030.40
455.81	4098.28
455.99	4044.45
456.17	4152.11
456.36	4140.41
456.54	4236.37
456.73	4154.45
456.91	4381.48
457.09	4227.01
457.28	4322.97
457.46	4177.86
457.64	4372.12
457.83	4257.43
458.01	4332.33
458.19	4231.69
458.38	4435.32
458.56	4477.44
458.74	4479.79
458.93	4404.89
459.11	4301.90
459.29	4510.21
459.48	4627.24
459.66	4615.54
459.84	4472.76
460.03	4435.32
460.21	4353.40
460.39	4507.87
460.57	4559.36
460.76	4589.79
460.94	4465.74
461.12	4601.49
461.31	4587.45
461.49	4634.26
461.67	4395.53
461.85	4760.65
462.04	4781.71
462.22	4753.63
462.40	4706.82
462.59	4779.37
462.77	4624.90
462.95	4688.09
463.13	4784.06
463.32	4830.87
463.50	4870.65
463.68	4793.42
463.86	4861.29
464.05	4650.64
464.23	4835.55
464.41	4945.55
464.59	4798.10
464.78	4978.32
464.96	4938.53
465.14	4802.78
465.32	5055.56
465.50	5036.83
465.69	5029.81
465.87	4851.93
466.05	4887.04
466.23	5018.11
466.41	5121.09
466.60	5191.31
466.78	4961.94
466.96	5053.22
467.14	5149.18
467.32	5013.43
467.51	5050.88
467.69	4954.91
467.87	5069.60
468.05	5067.26
468.23	5088.32
468.41	5064.92
468.60	5163.22
468.78	5235.78
468.96	5186.63
469.14	5158.54
469.32	5200.67
469.50	5245.14
469.69	5296.63
469.87	5324.72
470.05	5345.78
470.23	5336.42
470.41	5359.83
470.59	5521.32
470.77	5343.44
470.95	5362.17
471.14	5446.43
471.32	5331.74
471.50	5453.45
471.68	5626.65
471.86	5579.84
472.04	5621.97
472.22	5767.08
472.40	5612.60
472.58	5792.83
472.77	5680.48
472.95	5806.87
473.13	6008.16
473.31	5905.17
473.49	5727.29
473.67	5781.12
473.85	5797.51
474.03	6061.99
474.21	5937.94
474.39	6022.20
474.57	6221.14
474.75	6038.58
474.93	6106.46
475.12	6286.68
475.30	6193.06
475.48	6071.35
475.66	6263.27
475.84	6242.21
476.02	6319.45
476.20	6141.57
476.38	6368.60
476.56	6544.14
476.74	6555.84
476.92	6490.31
477.10	6523.07
477.28	6633.08
477.46	6597.97
477.64	6553.50
477.82	6754.79
478.00	6927.99
478.18	6970.12
478.36	7119.91
478.54	6937.35
478.72	7007.56
478.90	7131.61
479.08	7206.51
479.26	7166.72
479.44	7258.00
479.62	7140.97
479.80	7442.90
479.98	7384.39
480.16	7590.36
480.34	7545.89
480.52	7648.87
480.70	7611.42
480.88	7543.55
481.06	7538.87
481.24	7630.15
481.41	7939.10
481.59	7880.58
481.77	8046.76
481.95	7971.86
482.13	7939.10
482.31	8072.51
482.49	8336.99
482.67	8276.13
482.85	8425.93
483.03	8500.83
483.21	8458.70
483.39	8545.30
483.57	8510.19
483.74	8674.03
483.92	8592.11
484.10	8645.94
484.28	8950.21
484.46	8898.72
484.64	9022.77
484.82	8842.54
485.00	9083.62
485.18	9111.71
485.35	9191.28
485.53	9537.68
485.71	9212.35
485.89	9336.40
486.07	9535.34
486.25	9568.11
486.43	9699.18
486.61	9825.57
486.78	9973.02
486.96	10050.26
487.14	10136.86
487.32	10040.90
487.50	9935.57
487.68	10202.40
487.85	10281.97
488.03	10485.60
488.21	10532.41
488.39	10478.58
488.57	10836.68
488.75	10782.85
488.92	10714.97
489.10	10850.72
489.28	10885.83
489.46	10988.82
489.64	10930.30
489.81	11117.54
489.99	11119.89
490.17	11243.93
490.35	11337.56
490.53	11286.06
490.70	11637.14
490.88	11272.02
491.06	11681.61
491.24	11679.27
491.41	12006.95
491.59	12044.40
491.77	11999.93
491.95	12074.82
492.13	12107.59
492.30	11922.69
492.48	12390.80
492.66	12250.36
492.84	12376.75
493.01	12416.54
493.19	12336.96
493.37	12826.14
493.54	12463.35
493.72	12819.11
493.90	12961.89
494.08	12741.88
494.25	12975.93
494.43	13174.88
494.61	13020.40
494.79	13357.44
494.96	13132.75
495.14	13544.68
495.32	13282.54
495.49	13369.14
495.67	13535.32
495.85	13689.79
496.02	13612.56
496.20	13926.19
496.38	13659.37
496.55	13853.63
496.73	14075.98
496.91	13991.72
497.09	14183.65
497.26	14040.87
497.44	14382.59
497.62	14370.89
497.79	14452.81
497.97	14258.54
498.14	14471.53
498.32	14794.53
498.50	14607.28
498.67	15009.86
498.85	14827.29
499.03	14949.00
499.20	15016.88
499.38	15239.23
499.56	14888.15
499.73	15330.51
499.91	15096.46
500.08	15496.69
500.26	15218.16
500.44	15108.16
500.61	15391.36
500.79	15372.64
500.97	15438.17
501.14	15817.34
501.32	15503.71
501.49	15625.42
501.67	15690.95
501.84	15676.91
502.02	15695.63
502.20	15857.13
502.37	15971.82
502.55	15763.51
502.72	16212.89
502.90	16049.05
503.07	16088.84
503.25	16177.78
503.43	16231.62
503.60	16264.38
503.78	16435.24
503.95	16388.43
504.13	16512.48
504.30	16734.83
504.48	16306.51
504.65	16542.91
504.83	16779.30
505.01	17149.11
505.18	17238.05
505.36	17137.40
505.53	16917.39
505.71	16919.73
505.88	17181.87
506.06	16968.88
506.23	17259.11
506.41	17153.79
506.58	17188.89
506.76	17366.78
506.93	17369.12
507.11	17343.37
507.28	17378.48
507.46	17352.73
507.63	17444.01
507.81	17668.70
507.98	17696.79
508.16	17628.92
508.33	17582.10
508.50	17654.66
508.68	17563.38
508.85	17804.46
509.03	18223.41
509.20	18230.43
509.38	18281.92
509.55	18459.81
509.73	18333.42
509.90	18242.14
510.08	17799.77
510.25	18232.77
510.42	18452.78
510.60	18651.73
510.77	18633.00
510.95	18537.04
511.12	18443.42
511.30	18595.56
511.47	18642.37
511.64	18895.14
511.82	18972.38
511.99	18785.14
512.17	19124.52
512.34	18988.77
512.51	19255.59
512.69	18892.80
512.86	19014.51
513.04	19475.60
513.21	19332.82
513.38	19449.85
513.56	19124.52
513.73	19225.16
513.90	19569.22
514.08	19555.18
514.25	19307.08
514.43	19711.99
514.60	19737.74
514.77	19599.65
514.95	19831.36
515.12	19751.78
515.29	19733.06
515.47	19988.18
515.64	20182.44
515.81	19786.89
515.99	20250.32
516.16	20250.32
516.33	20280.74
516.51	19908.60
516.68	20126.27
516.85	20018.60
517.03	20166.06
517.20	20273.72
517.37	20374.36
517.54	20350.96
517.72	20170.74
517.89	20503.09
518.06	20716.08
518.24	20404.79
518.41	20320.53
518.58	20622.46
518.75	20957.16
518.93	20624.80
519.10	20503.09
519.27	20893.96
519.45	20643.52
519.62	20835.45
519.79	20879.92
519.96	20905.66
520.14	21319.94
520.31	21170.15
520.48	21221.64
520.65	21219.30
520.83	21514.20
521.00	21273.13
521.17	21303.56
521.34	21378.45
521.52	21535.27
521.69	21432.29
521.86	21378.45
522.03	21774.00
522.20	21678.04
522.38	21935.50
522.55	21565.70
522.72	21661.66
522.89	21755.28
523.07	21884.01
523.24	22106.36
523.41	22146.15
523.58	21802.09
523.75	22010.40
523.92	22022.10
524.10	22038.48
524.27	22199.98
524.44	22380.20
524.61	22359.14
524.78	22029.12
524.96	22417.65
525.13	22532.34
525.30	22441.06
525.47	22492.55
525.64	22572.13
525.81	22569.79
525.98	22782.77
526.16	22717.24
526.33	22869.37
526.50	22998.10
526.67	22710.22
526.84	22515.95
527.01	22946.61
527.18	22885.76
527.36	23157.26
527.53	22771.07
527.70	23290.67
527.87	23339.82
528.04	23204.07
528.21	23119.81
528.38	22764.05
528.55	23178.33
528.72	22923.21
528.89	23419.40
529.07	23065.98
529.24	23241.52
529.41	23388.97
529.58	23271.95
529.75	23545.79
529.92	23194.71
530.09	23337.48
530.26	23094.07
530.43	23618.35
530.60	23693.24
530.77	23033.21
530.94	23494.30
531.11	23616.01
531.28	23342.16
531.46	23566.85
531.63	23847.72
531.80	24205.82
531.97	23751.76
532.14	23637.07
532.31	23845.38
532.48	24219.86
532.65	24058.37
532.82	24173.05
532.99	23988.15
533.16	23644.09
533.33	24030.28
533.50	24341.57
533.67	24505.41
533.84	23805.59
534.01	24407.11
534.18	24144.97
534.35	24191.78
534.52	24063.05
534.69	24620.10
534.86	24460.94
535.03	24442.21
535.20	24439.87
535.37	24788.61
535.54	24395.40
535.71	24474.98
535.88	24563.92
536.05	24339.23
536.22	24903.30
536.38	24676.27
536.55	24900.96
536.72	24936.07
536.89	24706.70
537.06	24638.82
537.23	24697.33
537.40	24739.46
537.57	24858.83
537.74	24498.39
537.91	25078.84
538.08	25020.33
538.25	24917.34
538.42	25209.91
538.59	25142.03
538.75	25132.67
538.92	24769.89
539.09	25348.00
539.26	25436.94
539.43	25326.94
539.60	25378.43
539.77	25333.96
539.94	25523.54
540.11	25219.27
540.28	25397.15
540.44	25333.96
540.61	25214.59
540.78	25390.13
540.95	25750.57
541.12	25558.65
541.29	25560.99
541.46	25422.90
541.62	25762.28
541.79	25525.88
541.96	25317.57
542.13	25748.23
542.30	25628.87
542.47	26125.06
542.63	25916.75
542.80	26174.21
542.97	26038.46
543.14	25832.49
543.31	26171.87
543.48	25933.14
543.64	26059.52
543.81	26609.55
543.98	26342.73
544.15	26747.64
544.32	26305.28
544.48	26478.48
544.65	26443.37
544.82	26443.37
544.99	26183.57
545.16	26649.34
545.32	26565.08
545.49	26675.09
545.66	26890.41
545.83	26630.62
546.00	26696.15
546.16	26623.59
546.33	26321.66
546.50	26298.26
546.67	26586.15
546.83	26555.72
547.00	26553.38
547.17	26810.84
547.34	26740.62
547.50	27016.80
547.67	27122.13
547.84	27049.57
548.00	27087.02
548.17	27126.81
548.34	27454.48
548.51	27049.57
548.67	27150.21
548.84	27290.65
549.01	27222.77
549.18	27049.57
549.34	27016.80
549.51	27117.45
549.68	27152.55
549.84	27372.57
550.01	27445.12
550.18	27168.94
550.34	27377.25
550.51	27321.07
550.68	27398.31
550.84	27311.71
551.01	27412.35
551.18	27250.86
551.34	27117.45
551.51	26986.38
551.68	27047.23
551.84	27580.87
552.01	27300.01
552.18	27618.32
552.34	27580.87
552.51	27541.08
552.68	27527.04
552.84	27648.75
553.01	27527.04
553.18	27686.20
553.34	27658.11
553.51	27828.97
553.67	27683.86
553.84	27796.20
554.01	28041.96
554.17	27917.91
554.34	27770.46
554.51	27892.16
554.67	27873.44
554.84	27807.90
555.00	28056.00
555.17	27655.77
555.33	27906.21
555.50	27690.88
555.67	28079.41
555.83	27786.84
556.00	27964.72
556.16	28219.84
556.33	27611.30
556.50	28020.89
556.66	28095.79
556.83	28102.81
556.99	28250.27
557.16	28051.32
557.32	28004.51
557.49	28608.37
557.65	28053.66
557.82	27843.01
557.98	27878.12
558.15	28559.22
558.32	28512.41
558.48	28259.63
558.65	28346.23
558.81	28294.74
558.98	28327.50
559.14	28299.42
559.31	27885.14
559.47	28472.62
559.64	28329.84
559.80	28467.94
559.97	28741.78
560.13	28463.25
560.30	28538.15
560.46	28694.97
560.63	28615.39
560.79	28474.96
560.96	28697.31
561.12	28727.74
561.29	28325.16
561.45	28554.54
561.61	28673.90
561.78	28737.10
561.94	28730.08
562.11	28678.58
562.27	28669.22
562.44	28423.47
562.60	28819.02
562.77	28938.38
562.93	28606.03
563.10	28762.84
563.26	28877.53
563.42	28884.55
563.59	28811.99
563.75	29097.54
563.92	28994.56
564.08	28816.68
564.24	29266.06
564.41	29085.84
564.57	28811.99
564.74	28957.11
564.90	28774.55
565.07	29039.03
565.23	29050.73
565.39	28938.38
565.56	29352.66
565.72	29024.98
565.88	29202.86
566.05	29064.77
566.21	29074.13
566.38	29240.31
566.54	29151.37
566.70	29462.66
566.87	29118.60
567.03	29137.33
567.19	29518.84
567.36	29130.31
567.52	29228.61
567.68	29418.19
567.85	29177.12
568.01	28900.94
568.17	29083.50
568.34	29542.24
568.50	29287.12
568.66	28996.90
568.83	29270.74
568.99	29116.26
569.15	29193.50
569.32	28882.21
569.48	29191.16
569.64	29305.85
569.81	29095.20
569.97	29111.58
570.13	29525.86
570.30	29252.02
570.46	29247.33
570.62	29572.67
570.78	29254.36
570.95	28835.40
571.11	29249.67
571.27	29404.15
571.43	29240.31
571.60	29687.36
571.76	29387.77
571.92	29333.93
572.09	29441.60
572.25	29385.43
572.41	29546.92
572.57	29514.16
572.74	29060.09
572.90	29317.55
573.06	29235.63
573.22	29392.45
573.38	29338.62
573.55	28952.43
573.71	29680.33
573.87	29404.15
574.03	29612.46
574.20	29385.43
574.36	29256.70
574.52	29259.04
574.68	29263.72
574.84	29582.03
575.01	29469.69
575.17	29535.22
575.33	29275.42
575.49	29191.16
575.65	29654.59
575.82	29621.82
575.98	29469.69
576.14	29703.74
576.30	29790.34
576.46	29383.09
576.62	28975.83
576.79	29649.91
576.95	29476.71
577.11	29902.68
577.27	29692.04
577.43	29738.85
577.59	29462.66
577.75	29303.51
577.92	29259.04
578.08	29350.32
578.24	29521.18
578.40	29474.37
578.56	29762.25
578.72	29921.41
578.88	30005.67
579.04	29720.12
579.21	29771.61
579.37	29666.29
579.53	29659.27
579.69	29703.74
579.85	29284.78
580.01	29455.64
580.17	29619.48
580.33	29355.00
580.49	29420.53
580.65	29916.73
580.82	29956.52
580.98	29816.08
581.14	29371.38
581.30	29848.85
581.46	29567.99
581.62	29500.11
581.78	29675.65
581.94	29626.50
582.10	29284.78
582.26	29626.50
582.42	29638.20
582.58	29935.45
582.74	29490.75
582.90	29827.79
583.06	29830.13
583.22	29434.58
583.38	29677.99
583.54	29731.83
583.70	30036.09
583.86	29532.88
584.02	29652.25
584.18	29937.79
584.34	29984.60
584.50	29699.06
584.66	29575.01
584.82	29563.31
584.98	29401.81
585.14	29977.58
585.30	29504.79
585.46	29645.23
585.62	29727.14
585.78	29837.15
585.94	29174.78
586.10	29830.13
586.26	29612.46
586.42	29991.62
586.58	29628.84
586.74	29523.52
586.90	29600.76
587.06	29617.14
587.22	29287.12
587.38	30232.70
587.54	29912.05
587.70	29762.25
587.86	29816.08
588.02	30270.15
588.18	30167.16
588.34	30099.29
588.49	29748.21
588.65	29818.42
588.81	29666.29
588.97	29685.01
589.13	30061.84
589.29	30073.54
589.45	29956.52
589.61	29970.56
589.77	29755.23
589.93	29773.95
590.08	30333.34
590.24	30340.36
590.40	30190.57
590.56	29575.01
590.72	29823.11
590.88	30000.99
591.04	30040.78
591.20	30101.63
591.35	30213.98
591.51	30178.87
591.67	30082.91
591.83	30237.38
591.99	30181.21
