SpectraSuite Data File
++++++++++++++++++++++++++++++++++++
Date: Fri Oct 18 13:58:13 GMT-05:00 2013
User: bianchi
Dark Spectrum Present: No
Reference Spectrum Present: No
Number of Sampled Component Spectra: 1
Spectrometers: USB2+H05261
Integration Time (usec): 50000 (USB2+H05261)
Spectra Averaged: 1 (USB2+H05261)
Boxcar Smoothing: 0 (USB2+H05261)
Correct for Electrical Dark: No (USB2+H05261)
Strobe/Lamp Enabled: No (USB2+H05261)
Correct for Detector Non-linearity: No (USB2+H05261)
Correct for Stray Light: No (USB2+H05261)
Number of Pixels in Processed Spectrum: 2048
>>>>>Begin Processed Spectral Data<<<<<
365.73	21.06
365.92	21.06
366.12	21.06
366.32	0.00
366.52	0.00
366.72	0.00
366.91	0.00
367.11	0.00
367.31	0.00
367.51	0.00
367.70	0.00
367.90	0.00
368.10	0.00
368.30	0.00
368.49	0.00
368.69	0.00
368.89	0.00
369.09	0.00
369.28	0.00
369.48	0.00
369.68	0.00
369.87	0.00
370.07	0.00
370.27	0.00
370.47	25.75
370.66	88.94
370.86	35.11
371.06	126.39
371.25	147.45
371.45	154.48
371.65	110.01
371.84	168.52
372.04	135.75
372.24	180.22
372.44	161.50
372.63	180.22
372.83	205.97
373.03	187.24
373.22	241.08
373.42	163.84
373.62	170.86
373.81	163.84
374.01	236.39
374.21	255.12
374.40	250.44
374.60	224.69
374.79	231.71
374.99	285.55
375.19	304.27
375.38	201.29
375.58	266.82
375.78	238.73
375.97	250.44
376.17	234.05
376.37	318.31
376.56	313.63
376.76	189.58
376.95	222.35
377.15	294.91
377.35	259.80
377.54	304.27
377.74	266.82
377.93	236.39
378.13	292.57
378.33	238.73
378.52	294.91
378.72	273.84
378.91	271.50
379.11	308.95
379.31	292.57
379.50	290.23
379.70	269.16
379.89	334.70
380.09	322.99
380.28	276.18
380.48	278.52
380.68	290.23
380.87	404.91
381.07	327.68
381.26	362.78
381.46	351.08
381.65	344.06
381.85	339.38
382.04	313.63
382.24	327.68
382.43	285.55
382.63	330.02
382.83	227.03
383.02	409.59
383.22	395.55
383.41	367.46
383.61	367.46
383.80	341.72
384.00	365.12
384.19	346.40
384.39	332.36
384.58	278.52
384.78	451.72
384.97	482.15
385.17	425.98
385.36	409.59
385.56	421.30
385.75	437.68
385.95	341.72
386.14	433.00
386.34	379.17
386.53	486.83
386.72	400.23
386.92	372.15
387.11	425.98
387.31	465.77
387.50	444.70
387.70	442.36
387.89	414.27
388.09	507.90
388.28	449.38
388.48	407.25
388.67	433.00
388.86	416.62
389.06	425.98
389.25	463.43
389.45	418.96
389.64	479.81
389.84	456.40
390.03	535.98
390.22	505.56
390.42	538.32
390.61	449.38
390.81	596.84
391.00	528.96
391.19	578.11
391.39	594.50
391.58	475.13
391.78	472.79
391.97	510.24
392.16	468.11
392.36	550.03
392.55	552.37
392.75	507.90
392.94	601.52
393.13	517.26
393.33	557.05
393.52	528.96
393.71	564.07
393.91	554.71
394.10	561.73
394.29	554.71
394.49	559.39
394.68	706.84
394.88	573.43
395.07	580.45
395.26	737.27
395.46	629.60
395.65	645.99
395.84	552.37
396.04	725.57
396.23	608.54
396.42	676.41
396.62	748.97
396.81	643.65
397.00	606.20
397.19	603.86
397.39	681.10
397.58	685.78
397.77	636.63
397.97	744.29
398.16	681.10
398.35	723.23
398.55	706.84
398.74	685.78
398.93	812.17
399.12	706.84
399.32	638.97
399.51	800.46
399.70	702.16
399.90	819.19
400.09	807.48
400.28	821.53
400.47	798.12
400.67	800.46
400.86	807.48
401.05	856.64
401.24	863.66
401.44	924.51
401.63	842.59
401.82	833.23
402.01	847.27
402.21	816.85
402.40	861.32
402.59	763.01
402.78	793.44
402.97	980.68
403.17	903.45
403.36	919.83
403.55	863.66
403.74	823.87
403.93	940.90
404.13	990.05
404.32	936.21
404.51	868.34
404.70	924.51
404.89	947.92
405.09	992.39
405.28	945.58
405.47	983.02
405.66	954.94
405.85	978.34
406.05	983.02
406.24	976.00
406.43	971.32
406.62	1039.20
406.81	1018.13
407.00	1062.60
407.20	1032.18
407.39	954.94
407.58	1097.71
407.77	1057.92
407.96	1097.71
408.15	1172.61
408.34	1015.79
408.54	1188.99
408.73	1156.22
408.92	1132.82
409.11	1242.82
409.30	1135.16
409.49	1095.37
409.68	1153.88
409.87	1142.18
410.07	1167.93
410.26	1149.20
410.45	1207.72
410.64	1247.51
410.83	1247.51
411.02	1193.67
411.21	1294.32
411.40	1233.46
411.59	1228.78
411.78	1357.51
411.98	1371.55
412.17	1376.24
412.36	1280.27
412.55	1350.49
412.74	1294.32
412.93	1376.24
413.12	1376.24
413.31	1437.09
413.50	1446.45
413.69	1495.60
413.88	1504.96
414.07	1469.86
414.26	1390.28
414.45	1502.62
414.64	1437.09
414.83	1413.68
415.02	1467.52
415.22	1479.22
415.41	1565.82
415.60	1654.76
415.79	1558.80
415.98	1621.99
416.17	1565.82
416.36	1650.08
416.55	1584.54
416.74	1551.78
416.93	1584.54
417.12	1692.21
417.31	1692.21
417.50	1629.01
417.69	1799.87
417.88	1792.85
418.07	1783.49
418.26	1813.92
418.45	1792.85
418.64	1870.09
418.83	1849.02
419.02	1664.12
419.21	1905.20
419.39	1877.11
419.58	1764.76
419.77	1837.32
419.96	1914.56
420.15	1870.09
420.34	1916.90
420.53	1898.17
420.72	1933.28
420.91	1914.56
421.10	1984.77
421.29	2005.84
421.48	1907.54
421.67	1916.90
421.86	1870.09
422.05	1982.43
422.24	2003.50
422.43	1980.09
422.61	1984.77
422.80	1994.14
422.99	2073.71
423.18	1975.41
423.37	2139.25
423.56	2155.63
423.75	1998.82
423.94	2108.82
424.13	1900.52
424.32	1942.64
424.50	2033.93
424.69	2134.57
424.88	2099.46
425.07	2045.63
425.26	2083.08
425.45	2125.21
425.64	2012.86
425.83	2090.10
426.01	2069.03
426.20	2080.74
426.39	2047.97
426.58	2045.63
426.77	2033.93
426.96	2066.69
427.15	2106.48
427.33	2150.95
427.52	2066.69
427.71	2066.69
427.90	2253.94
428.09	2157.97
428.28	2181.38
428.46	2298.41
428.65	2239.89
428.84	2277.34
429.03	2230.53
429.22	2202.44
429.40	2307.77
429.59	2363.94
429.78	2221.17
429.97	2176.70
430.16	2345.22
430.34	2223.51
430.53	2429.48
430.72	2333.51
430.91	2270.32
431.10	2270.32
431.28	2328.83
431.47	2429.48
431.66	2392.03
431.85	2359.26
432.03	2399.05
432.22	2495.01
432.41	2518.42
432.60	2466.92
432.79	2422.45
432.97	2462.24
433.16	2520.76
433.35	2459.90
433.54	2534.80
433.72	2609.70
433.91	2663.53
434.10	2443.52
434.28	2513.74
434.47	2548.84
434.66	2574.59
434.85	2605.02
435.03	2696.30
435.22	2647.15
435.41	2736.09
435.59	2602.68
435.78	2782.90
435.97	2649.49
436.16	2764.17
436.34	2647.15
436.53	2752.47
436.72	2740.77
436.90	2686.94
437.09	2836.73
437.28	2705.66
437.46	2785.24
437.65	2710.34
437.84	2806.30
438.02	2827.37
438.21	2715.02
438.40	2843.75
438.58	2895.24
438.77	2913.97
438.96	2883.54
439.14	2888.22
439.33	2977.16
439.52	2953.76
439.70	2939.71
439.89	3103.55
440.08	3145.68
440.26	3091.85
440.45	3012.27
440.63	3178.45
440.82	3035.67
441.01	3138.66
441.19	3215.90
441.38	3318.88
441.57	3192.49
441.75	3136.32
441.94	3358.67
442.12	3335.26
442.31	3407.82
442.50	3330.58
442.68	3445.27
442.87	3342.28
443.05	3454.63
443.24	3428.88
443.43	3541.23
443.61	3424.20
443.80	3550.59
443.98	3382.07
444.17	3363.35
444.35	3344.63
444.54	3487.40
444.73	3602.08
444.91	3475.70
445.10	3447.61
445.28	3618.47
445.47	3471.01
445.65	3557.61
445.84	3510.80
446.02	3555.27
446.21	3421.86
446.39	3424.20
446.58	3562.30
446.77	3431.23
446.95	3485.06
447.14	3543.57
447.32	3564.64
447.51	3644.21
447.69	3531.87
447.88	3611.45
448.06	3581.02
448.25	3691.02
448.43	3557.61
448.62	3758.90
448.80	3524.85
448.99	3693.37
449.17	3669.96
449.36	3529.53
449.54	3801.03
449.73	3871.25
449.91	3606.77
450.10	3681.66
450.28	3770.60
450.46	3784.65
450.65	3887.63
450.83	3735.50
451.02	3667.62
451.20	3803.37
451.39	3817.41
451.57	3782.31
451.76	3819.75
451.94	3705.07
452.13	3873.59
452.31	3915.72
452.49	3896.99
452.68	3915.72
452.86	3995.29
453.05	3920.40
453.23	4074.87
453.42	3817.41
453.60	3915.72
453.78	3894.65
453.97	3981.25
454.15	3997.64
454.34	3990.61
454.52	4142.75
454.70	4037.42
454.89	4126.36
455.07	4252.75
455.26	4058.49
455.44	4191.90
455.62	4124.02
455.81	4088.92
455.99	4173.18
456.17	4248.07
456.36	4222.33
456.54	4248.07
456.73	4194.24
456.91	4369.78
457.09	4344.03
457.28	4512.55
457.46	4287.86
457.64	4489.15
457.83	4393.19
458.01	4407.23
458.19	4351.06
458.38	4512.55
458.56	4568.73
458.74	4444.68
458.93	4542.98
459.11	4575.75
459.29	4369.78
459.48	4482.13
459.66	4650.64
459.84	4521.92
460.03	4657.67
460.21	4489.15
460.39	4557.02
460.57	4624.90
460.76	4856.61
460.94	4793.42
461.12	4643.62
461.31	4699.80
461.49	4564.04
461.67	4617.88
461.85	4739.58
462.04	4812.14
462.22	5142.16
462.40	4833.21
462.59	4711.50
462.77	4713.84
462.95	4781.71
463.13	4800.44
463.32	4877.68
463.50	4912.78
463.68	4912.78
463.86	4929.17
464.05	4987.68
464.23	5020.45
464.41	4915.12
464.59	4952.57
464.78	5020.45
464.96	4692.77
465.14	4882.36
465.32	4926.83
465.50	5193.65
465.69	5139.82
465.87	5046.20
466.05	5160.88
466.23	5085.98
466.41	5172.58
466.60	5242.80
466.78	5153.86
466.96	5081.30
467.14	5263.86
467.32	5289.61
467.51	5289.61
467.69	5184.29
467.87	5277.91
468.05	5282.59
468.23	5137.48
468.41	5146.84
468.60	5261.52
468.78	5355.15
468.96	5240.46
469.14	5500.26
469.32	5448.77
469.50	5261.52
469.69	5504.94
469.87	5469.83
470.05	5628.99
470.23	5404.30
470.41	5486.22
470.59	5593.88
470.77	5638.35
470.95	5727.29
471.14	5624.31
471.32	5479.19
471.50	5549.41
471.68	5591.54
471.86	5612.60
472.04	5715.59
472.22	5849.00
472.40	5778.78
472.58	5797.51
472.77	5743.67
472.95	5954.32
473.13	5930.92
473.31	6099.44
473.49	5923.90
473.67	5914.53
473.85	5870.06
474.03	6043.26
474.21	6106.46
474.39	6174.33
474.57	6139.23
474.75	6253.91
474.93	6265.61
475.12	6335.83
475.30	6179.01
475.48	6279.66
475.66	6487.96
475.84	6239.87
476.02	6544.14
476.20	6480.94
476.38	6558.18
476.56	6745.42
476.74	6569.88
476.92	6565.20
477.10	6637.76
477.28	6876.49
477.46	6616.69
477.64	6794.58
477.82	6909.26
478.00	7183.10
478.18	7267.36
478.36	7089.48
478.54	7150.34
478.72	7096.50
478.90	7206.51
479.08	7435.88
479.26	7435.88
479.44	7365.67
479.62	7480.35
479.80	7583.34
479.98	7473.33
480.16	7599.72
480.34	7676.96
480.52	7873.56
480.70	7651.21
480.88	7793.98
481.06	7885.26
481.24	7985.91
481.41	7981.23
481.59	8184.85
481.77	8121.66
481.95	8212.94
482.13	8212.94
482.31	8262.09
482.49	8414.23
482.67	8500.83
482.85	8526.57
483.03	8734.88
483.21	8746.58
483.39	8552.32
483.57	8926.80
483.74	8947.87
483.92	8898.72
484.10	8767.65
484.28	9179.58
484.46	9064.89
484.64	9390.23
484.82	9228.73
485.00	9291.93
485.18	9385.55
485.35	9490.87
485.53	9666.41
485.71	9617.26
485.89	9874.72
486.07	9853.66
486.25	9584.49
486.43	9781.10
486.61	9858.34
486.78	9989.41
486.96	10181.33
487.14	10260.91
487.32	10310.06
487.50	10335.81
487.68	10518.37
487.85	10721.99
488.03	10544.11
488.21	10778.17
488.39	11063.71
488.57	10967.75
488.75	10846.04
488.92	11035.63
489.10	10916.26
489.28	11260.32
489.46	11108.18
489.64	11398.41
489.81	11377.34
489.99	11421.81
490.17	11569.27
490.35	11604.38
490.53	11571.61
490.70	12121.63
490.88	11927.37
491.06	11889.92
491.24	12032.69
491.41	12091.21
491.59	12287.81
491.77	12360.37
491.95	12423.56
492.13	12463.35
492.30	12376.75
492.48	12549.95
492.66	12414.20
492.84	12531.23
493.01	12901.03
493.19	12877.63
493.37	13050.83
493.54	13006.36
493.72	13200.62
493.90	13144.45
494.08	13282.54
494.25	13352.76
494.43	13509.57
494.61	13383.18
494.79	13867.67
494.96	13507.23
495.14	13874.70
495.32	13987.04
495.49	13748.31
495.67	13687.45
495.85	13961.30
496.02	14232.80
496.20	14307.69
496.38	14434.08
496.55	14366.21
496.73	14235.14
496.91	14331.10
497.09	14359.19
497.26	14710.27
497.44	14532.39
497.62	14757.08
497.79	15133.90
497.97	14679.84
498.14	14916.23
498.32	14953.68
498.50	14991.13
498.67	15276.68
498.85	14953.68
499.03	15222.84
499.20	15461.58
499.38	15246.25
499.56	15389.02
499.73	15470.94
499.91	15735.42
500.08	15709.68
500.26	15669.89
500.44	15660.52
500.61	16058.42
500.79	15765.85
500.97	15899.26
501.14	16044.37
501.32	16018.63
501.49	16266.72
501.67	16212.89
501.84	16343.96
502.02	16376.73
502.20	16365.03
502.37	16643.55
502.55	16411.84
502.72	16451.63
502.90	16552.27
503.07	16465.67
503.25	16751.21
503.43	16648.23
503.60	16760.58
503.78	16727.81
503.95	16982.93
504.13	16685.68
504.30	16968.88
504.48	16994.63
504.65	16992.29
504.83	17305.92
505.01	17418.27
505.18	17357.41
505.36	17408.90
505.53	17392.52
505.71	17174.85
505.88	17359.75
506.06	17593.81
506.23	17584.44
506.41	17816.16
506.58	17649.98
506.76	17633.60
506.93	17530.61
507.11	17809.14
507.28	18010.42
507.46	17713.17
507.63	17987.02
507.81	18242.14
507.98	18066.60
508.16	18160.22
508.33	18073.62
508.50	18139.15
508.68	18515.98
508.85	18530.02
509.03	18445.76
509.20	18403.63
509.38	18874.08
509.55	18853.02
509.73	18565.13
509.90	19026.21
510.08	18963.02
510.25	18934.93
510.42	18761.73
510.60	19311.76
510.77	19026.21
510.95	18895.14
511.12	19058.98
511.30	18941.96
511.47	19136.22
511.64	19047.28
511.82	19159.63
511.99	19367.93
512.17	19494.32
512.34	19349.21
512.51	19239.20
512.69	19585.60
512.86	19690.93
513.04	19800.93
513.21	19723.69
513.38	19850.08
513.56	19852.42
513.73	19545.81
513.90	20252.66
514.08	20219.89
514.25	19850.08
514.43	20109.88
514.60	19850.08
514.77	20002.22
514.95	20393.09
515.12	20348.62
515.29	20315.85
515.47	20369.68
515.64	20362.66
515.81	20393.09
515.99	20411.81
516.16	20751.19
516.33	20442.24
516.51	20950.14
516.68	20465.64
516.85	20585.01
517.03	20655.23
517.20	21099.93
517.37	20957.16
517.54	20992.26
517.72	21146.74
517.89	20788.64
518.06	20938.43
518.24	20954.82
518.41	21057.80
518.58	21181.85
518.75	21195.89
518.93	21610.17
519.10	21144.40
519.27	21699.11
519.45	21256.75
519.62	21544.63
519.79	21448.67
519.96	21710.81
520.14	21862.94
520.31	21680.38
520.48	21647.61
520.65	21916.78
520.83	21961.25
521.00	21806.77
521.17	22073.59
521.34	22019.76
521.52	21961.25
521.69	21745.92
521.86	22134.45
522.03	22204.66
522.20	22490.21
522.38	22448.08
522.55	22387.22
522.72	22251.47
522.89	22370.84
523.07	22309.99
523.24	22567.45
523.41	22389.56
523.58	22263.18
523.75	22485.53
523.92	22649.36
524.10	22284.24
524.27	22904.48
524.44	22733.62
524.61	22897.46
524.78	22829.59
524.96	23166.62
525.13	22848.31
525.30	23087.04
525.47	23080.02
525.64	23236.84
525.81	23456.85
525.98	23190.03
526.16	23381.95
526.33	23297.69
526.50	23309.40
526.67	23201.73
526.84	23442.81
527.01	23384.29
527.18	23356.21
527.36	23585.58
527.53	23604.30
527.70	23328.12
527.87	23779.84
528.04	23630.05
528.21	23728.35
528.38	23608.98
528.55	23655.79
528.72	23545.79
528.89	24182.42
529.07	23934.32
529.24	23821.97
529.41	24049.00
529.58	23978.79
529.75	24135.60
529.92	24056.03
530.09	23974.11
530.26	24163.69
530.43	24503.07
530.60	23960.06
530.77	24091.13
530.94	24355.61
531.11	24166.03
531.28	24060.71
531.46	24212.84
531.63	24577.97
531.80	24491.37
531.97	24531.15
532.14	24570.94
532.31	24269.01
532.48	24741.80
532.65	24772.23
532.82	24107.52
532.99	24748.82
533.16	24596.69
533.33	24931.39
533.50	25116.29
533.67	25219.27
533.84	24491.37
534.01	24709.04
534.18	24971.18
534.35	25090.54
534.52	25006.28
534.69	24886.92
534.86	25212.25
535.03	24893.94
535.20	25223.95
535.37	25282.47
535.54	25345.66
535.71	25439.28
535.88	25448.64
536.05	25088.20
536.22	25401.83
536.38	25228.63
536.55	25465.03
536.72	25399.49
536.89	25378.43
537.06	25216.93
537.23	25724.83
537.40	25633.55
537.57	25282.47
537.74	25741.21
537.91	25984.63
538.08	25848.88
538.25	25530.56
538.42	25741.21
538.59	25846.54
538.75	25773.98
538.92	25696.74
539.09	26235.06
539.26	26244.43
539.43	26132.08
539.60	26373.16
539.77	25841.85
539.94	26267.83
540.11	25940.16
540.28	25888.67
540.44	25888.67
540.61	26202.30
540.78	26113.36
540.95	26223.36
541.12	26242.09
541.29	26235.06
541.46	26202.30
541.62	26012.71
541.79	26260.81
541.96	25820.79
542.13	26305.28
542.30	26639.98
542.47	26771.05
542.63	26345.07
542.80	26757.00
542.97	27126.81
543.14	26773.39
543.31	26810.84
543.48	27229.79
543.64	27049.57
543.81	27239.15
543.98	27187.66
544.15	27346.82
544.32	27091.70
544.48	27145.53
544.65	27218.09
544.82	27449.80
544.99	27215.75
545.16	27257.88
545.32	27173.62
545.49	27234.47
545.66	27700.24
545.83	27520.02
546.00	27360.86
546.16	27145.53
546.33	27168.94
546.50	26944.25
546.67	27255.54
546.83	27199.37
547.00	27295.33
547.17	27517.68
547.34	27468.53
547.50	27655.77
547.67	27850.03
547.84	27267.24
548.00	27875.78
548.17	27716.62
548.34	27393.63
548.51	27908.55
548.67	27915.57
548.84	28025.57
549.01	27878.12
549.18	27606.62
549.34	27740.03
549.51	27946.00
549.68	28002.17
549.84	27573.85
550.01	28020.89
550.18	27960.04
550.34	27630.02
550.51	28173.03
550.68	28306.44
550.84	27859.40
551.01	27873.44
551.18	28051.32
551.34	27756.41
551.51	28114.52
551.68	28063.02
551.84	28133.24
552.01	28243.24
552.18	28395.38
552.34	28458.57
552.51	28503.04
552.68	28496.02
552.84	28212.82
553.01	28645.82
553.18	28554.54
553.34	28336.87
553.51	28526.45
553.67	28608.37
553.84	28596.67
554.01	28816.68
554.17	28311.12
554.34	28914.98
554.51	27997.49
554.67	28374.31
554.84	28718.37
555.00	28739.44
555.17	28657.52
555.33	28811.99
555.50	28744.12
555.67	28893.91
555.83	28690.29
556.00	28383.68
556.16	28809.65
556.33	28978.17
556.50	28912.64
556.66	28795.61
556.83	29151.37
556.99	28968.81
557.16	29214.57
557.32	29303.51
557.49	29029.66
557.65	29261.38
557.82	28732.42
557.98	29071.79
558.15	29022.64
558.32	29055.41
558.48	29027.32
558.65	29085.84
558.81	29116.26
558.98	29193.50
559.14	29134.99
559.31	29310.53
559.47	29369.04
559.64	29266.06
559.80	29106.90
559.97	29713.10
560.13	29221.59
560.30	29675.65
560.46	29338.62
560.63	29469.69
560.79	29139.67
560.96	29610.12
561.12	29296.49
561.29	29338.62
561.45	29457.98
561.61	29252.02
561.78	29596.07
561.94	29553.94
562.11	29610.12
562.27	29317.55
562.44	29450.96
562.60	29378.40
562.77	29832.47
562.93	29724.80
563.10	29692.04
563.26	29383.09
563.42	30026.73
563.59	29745.87
563.75	29848.85
563.92	30040.78
564.08	29750.55
564.24	29951.84
564.41	29565.65
564.57	29523.52
564.74	29928.43
564.90	29626.50
565.07	29696.72
565.23	29802.04
565.39	29827.79
565.56	29923.75
565.72	29680.33
565.88	29624.16
566.05	29572.67
566.21	29701.40
566.38	30052.48
566.54	29612.46
566.70	30043.12
566.87	30326.32
567.03	30157.80
567.19	30441.01
567.36	30185.89
567.52	29692.04
567.68	29947.15
567.85	29965.88
568.01	30043.12
568.17	30164.82
568.34	30064.18
568.50	30293.55
568.66	29820.77
568.83	30354.41
568.99	29919.07
569.15	29841.83
569.32	30115.67
569.48	29986.94
569.64	30064.18
569.81	30471.43
569.97	29965.88
570.13	30080.56
570.30	29806.72
570.46	30281.85
570.62	29919.07
570.78	29722.46
570.95	30068.86
571.11	30162.48
571.27	30019.71
571.43	30125.04
571.60	30036.09
571.76	30143.76
571.92	30235.04
572.09	30457.39
572.25	30520.59
572.41	30143.76
572.57	29874.60
572.74	30277.17
572.90	30185.89
573.06	30326.32
573.22	29919.07
573.38	30314.62
573.55	30157.80
573.71	30433.99
573.87	30504.20
574.03	30529.95
574.20	30045.46
574.36	29958.86
574.52	30263.13
574.68	30181.21
574.84	30185.89
575.01	30433.99
575.17	30312.28
575.33	30286.53
575.49	30237.38
575.65	30471.43
575.82	30333.34
575.98	30471.43
576.14	30335.68
576.30	30684.42
576.46	30443.35
576.62	29933.11
576.79	30298.23
576.95	30654.00
577.11	30457.39
577.27	30909.11
577.43	30431.65
577.59	30284.19
577.75	30651.66
577.92	30471.43
578.08	30181.21
578.24	30199.93
578.40	30405.90
578.56	30363.77
578.72	30490.16
578.88	30927.84
579.04	30443.35
579.21	30459.73
579.37	30621.23
579.53	30506.54
579.69	30349.73
579.85	30251.42
580.01	30319.30
580.17	30181.21
580.33	30270.15
580.49	30661.02
580.65	30754.64
580.82	30522.93
580.98	30436.33
581.14	30731.23
581.30	30705.49
581.46	30314.62
581.62	30515.90
581.78	30555.69
581.94	30485.48
582.10	30424.62
582.26	30216.32
582.42	30665.70
582.58	30534.63
582.74	30522.93
582.90	30756.98
583.06	30693.79
583.22	30801.45
583.38	30448.03
583.54	30466.75
583.70	30167.16
583.86	30766.34
584.02	30934.86
584.18	30986.35
584.34	30614.21
584.50	30740.60
584.66	30728.89
584.82	30668.04
584.98	30459.73
585.14	30707.83
585.30	30349.73
585.46	30593.14
585.62	30478.46
585.78	30590.80
585.94	30536.97
586.10	30962.95
586.26	30497.18
586.42	30899.75
586.58	30740.60
586.74	30595.48
586.90	30684.42
587.06	30628.25
587.22	30768.68
587.38	30370.79
587.54	30923.16
587.70	30733.57
587.86	30724.21
588.02	30787.41
588.18	31236.79
588.34	30689.10
588.49	30836.56
588.65	30761.66
588.81	31056.57
588.97	30333.34
589.13	30766.34
589.29	30955.93
589.45	31152.53
589.61	30728.89
589.77	30988.69
589.93	30955.93
590.08	31372.54
590.24	31117.42
590.40	31079.97
590.56	30836.56
590.72	31108.06
590.88	30490.16
591.04	30890.39
591.20	31627.66
591.35	31260.20
591.51	31386.58
591.67	31527.02
591.83	31173.60
591.99	30852.94
