SpectraSuite Data File
++++++++++++++++++++++++++++++++++++
Date: Fri Oct 18 13:58:20 GMT-05:00 2013
User: bianchi
Dark Spectrum Present: No
Reference Spectrum Present: No
Number of Sampled Component Spectra: 1
Spectrometers: USB2+H05261
Integration Time (usec): 50000 (USB2+H05261)
Spectra Averaged: 1 (USB2+H05261)
Boxcar Smoothing: 0 (USB2+H05261)
Correct for Electrical Dark: No (USB2+H05261)
Strobe/Lamp Enabled: No (USB2+H05261)
Correct for Detector Non-linearity: No (USB2+H05261)
Correct for Stray Light: No (USB2+H05261)
Number of Pixels in Processed Spectrum: 2048
>>>>>Begin Processed Spectral Data<<<<<
365.73	16.38
365.92	16.38
366.12	16.38
366.32	0.00
366.52	0.00
366.72	0.00
366.91	0.00
367.11	0.00
367.31	0.00
367.51	0.00
367.70	0.00
367.90	0.00
368.10	0.00
368.30	0.00
368.49	0.00
368.69	0.00
368.89	0.00
369.09	0.00
369.28	0.00
369.48	0.00
369.68	0.00
369.87	0.00
370.07	0.00
370.27	0.00
370.47	44.47
370.66	0.00
370.86	112.35
371.06	74.90
371.25	159.16
371.45	128.73
371.65	161.50
371.84	149.79
372.04	177.88
372.24	159.16
372.44	175.54
372.63	234.05
372.83	198.95
373.03	145.11
373.22	180.22
373.42	320.65
373.62	191.92
373.81	201.29
374.01	255.12
374.21	224.69
374.40	262.14
374.60	250.44
374.79	308.95
374.99	269.16
375.19	243.42
375.38	196.60
375.58	334.70
375.78	269.16
375.97	220.01
376.17	322.99
376.37	273.84
376.56	250.44
376.76	262.14
376.95	170.86
377.15	285.55
377.35	231.71
377.54	301.93
377.74	301.93
377.93	243.42
378.13	269.16
378.33	229.37
378.52	292.57
378.72	287.89
378.91	264.48
379.11	358.10
379.31	184.90
379.50	379.17
379.70	379.17
379.89	294.91
380.09	339.38
380.28	283.20
380.48	231.71
380.68	283.20
380.87	327.68
381.07	318.31
381.26	332.36
381.46	299.59
381.65	339.38
381.85	283.20
382.04	339.38
382.24	353.42
382.43	334.70
382.63	393.21
382.83	325.33
383.02	344.06
383.22	351.08
383.41	369.80
383.61	271.50
383.80	362.78
384.00	411.93
384.19	379.17
384.39	346.40
384.58	322.99
384.78	402.57
384.97	386.19
385.17	409.59
385.36	449.38
385.56	360.44
385.75	365.12
385.95	369.80
386.14	379.17
386.34	379.17
386.53	327.68
386.72	325.33
386.92	353.42
387.11	397.89
387.31	351.08
387.50	402.57
387.70	315.97
387.89	533.64
388.09	456.40
388.28	365.12
388.48	407.25
388.67	496.19
388.86	547.69
389.06	430.66
389.25	447.04
389.45	449.38
389.64	472.79
389.84	568.75
390.03	461.09
390.22	503.22
390.42	444.70
390.61	475.13
390.81	519.60
391.00	524.28
391.19	493.85
391.39	498.53
391.58	554.71
391.78	496.19
391.97	477.47
392.16	498.53
392.36	608.54
392.55	482.15
392.75	514.92
392.94	524.28
393.13	573.43
393.33	610.88
393.52	655.35
393.71	507.90
393.91	587.47
394.10	638.97
394.29	545.34
394.49	606.20
394.68	606.20
394.88	554.71
395.07	573.43
395.26	580.45
395.46	603.86
395.65	655.35
395.84	650.67
396.04	599.18
396.23	653.01
396.42	582.79
396.62	716.20
396.81	739.61
397.00	638.97
397.19	582.79
397.39	674.07
397.58	704.50
397.77	683.44
397.97	641.31
398.16	657.69
398.35	781.74
398.55	739.61
398.74	671.73
398.93	671.73
399.12	690.46
399.32	737.27
399.51	763.01
399.70	706.84
399.90	688.12
400.09	823.87
400.28	744.29
400.47	793.44
400.67	786.42
400.86	737.27
401.05	692.80
401.24	760.67
401.44	805.14
401.63	840.25
401.82	842.59
402.01	655.35
402.21	777.06
402.40	844.93
402.59	774.72
402.78	887.06
402.97	884.72
403.17	826.21
403.36	770.04
403.55	873.02
403.74	826.21
403.93	814.51
404.13	889.40
404.32	933.87
404.51	866.00
404.70	957.28
404.89	919.83
405.09	940.90
405.28	926.85
405.47	994.73
405.66	1022.81
405.85	952.60
406.05	961.96
406.24	1029.84
406.43	990.05
406.62	976.00
406.81	992.39
407.00	1062.60
407.20	978.34
407.39	987.71
407.58	1083.67
407.77	1095.37
407.96	1088.35
408.15	1107.07
408.34	1008.77
408.54	1025.15
408.73	1053.24
408.92	1167.93
409.11	1116.44
409.30	1102.39
409.49	1088.35
409.68	1191.33
409.87	1135.16
410.07	1219.42
410.26	1228.78
410.45	1158.57
410.64	1135.16
410.83	1146.86
411.02	1233.46
411.21	1282.61
411.40	1226.44
411.59	1214.74
411.78	1228.78
411.98	1350.49
412.17	1282.61
412.36	1327.08
412.55	1256.87
412.74	1331.76
412.93	1301.34
413.12	1240.48
413.31	1362.19
413.50	1315.38
413.69	1397.30
413.88	1453.47
414.07	1430.07
414.26	1476.88
414.45	1509.65
414.64	1540.07
414.83	1533.05
415.02	1521.35
415.22	1502.62
415.41	1526.03
415.60	1460.49
415.79	1591.56
415.98	1582.20
416.17	1598.59
416.36	1598.59
416.55	1617.31
416.74	1614.97
416.93	1636.03
417.12	1577.52
417.31	1647.74
417.50	1685.19
417.69	1626.67
417.88	1680.50
418.07	1746.04
418.26	1767.10
418.45	1734.34
418.64	1849.02
418.83	1792.85
419.02	1905.20
419.21	1809.23
419.39	1853.70
419.58	1811.57
419.77	1781.15
419.96	1818.60
420.15	1865.41
420.34	1937.96
420.53	1820.94
420.72	1893.49
420.91	1802.21
421.10	1935.62
421.29	2015.20
421.48	1902.86
421.67	2012.86
421.86	2005.84
422.05	1989.46
422.24	1928.60
422.43	1973.07
422.61	2024.56
422.80	1984.77
422.99	1963.71
423.18	1982.43
423.37	2076.06
423.56	1996.48
423.75	1968.39
423.94	1977.75
424.13	1879.45
424.32	1933.28
424.50	2083.08
424.69	2038.61
424.88	2195.42
425.07	1991.80
425.26	2120.53
425.45	1919.24
425.64	2069.03
425.83	2029.24
426.01	2043.29
426.20	1989.46
426.39	1991.80
426.58	2040.95
426.77	2179.04
426.96	2094.78
427.15	1973.07
427.33	2193.08
427.52	2118.18
427.71	2239.89
427.90	2216.49
428.09	2148.61
428.28	2197.76
428.46	2230.53
428.65	2246.91
428.84	2218.83
429.03	2214.15
429.22	2113.50
429.40	2363.94
429.59	2319.47
429.78	2129.89
429.97	2195.42
430.16	2207.13
430.34	2298.41
430.53	2399.05
430.72	2342.88
430.91	2333.51
431.10	2305.43
431.28	2443.52
431.47	2420.11
431.66	2410.75
431.85	2321.81
432.03	2487.99
432.22	2392.03
432.41	2471.61
432.60	2431.82
432.79	2396.71
432.97	2478.63
433.16	2455.22
433.35	2450.54
433.54	2485.65
433.72	2509.05
433.91	2499.69
434.10	2499.69
434.28	2485.65
434.47	2569.91
434.66	2539.48
434.85	2555.86
435.03	2555.86
435.22	2633.10
435.41	2614.38
435.59	2562.89
435.78	2670.55
435.97	2537.14
436.16	2607.36
436.34	2619.06
436.53	2658.85
436.72	2773.53
436.90	2689.28
437.09	2794.60
437.28	2642.46
437.46	2766.51
437.65	2698.64
437.84	2785.24
438.02	2691.62
438.21	2640.12
438.40	2775.88
438.58	2855.45
438.77	2904.60
438.96	2853.11
439.14	2939.71
439.33	2909.29
439.52	2892.90
439.70	3021.63
439.89	3063.76
440.08	2960.78
440.26	2960.78
440.45	2818.00
440.63	3082.49
440.82	3166.74
441.01	3136.32
441.19	3063.76
441.38	3136.32
441.57	3187.81
441.75	3255.69
441.94	3218.24
442.12	3171.43
442.31	3442.93
442.50	3318.88
442.68	3260.37
442.87	3316.54
443.05	3337.60
443.24	3353.99
443.43	3316.54
443.61	3473.36
443.80	3576.34
443.98	3222.92
444.17	3267.39
444.35	3358.67
444.54	3520.17
444.73	3466.33
444.91	3449.95
445.10	3473.36
445.28	3449.95
445.47	3375.05
445.65	3400.80
445.84	3377.39
446.02	3576.34
446.21	3496.76
446.39	3368.03
446.58	3581.02
446.77	3487.40
446.95	3428.88
447.14	3585.70
447.32	3637.19
447.51	3459.31
447.69	3435.91
447.88	3515.48
448.06	3461.65
448.25	3543.57
448.43	3672.30
448.62	3478.04
448.80	3576.34
448.99	3524.85
449.17	3515.48
449.36	3646.55
449.54	3667.62
449.73	3620.81
449.91	3676.98
450.10	3765.92
450.28	3751.88
450.46	3758.90
450.65	3592.72
450.83	3803.37
451.02	3756.56
451.20	3794.01
451.39	3885.29
451.57	3719.11
451.76	3765.92
451.94	3728.47
452.13	3896.99
452.31	3941.46
452.49	3655.92
452.68	3892.31
452.86	3899.33
453.05	3962.53
453.23	3920.40
453.42	3812.73
453.60	3808.05
453.78	3833.80
453.97	3875.93
454.15	4067.85
454.34	3941.46
454.52	4046.79
454.70	4053.81
454.89	4007.00
455.07	4210.62
455.26	4044.45
455.44	4105.30
455.62	3983.59
455.81	4133.39
455.99	4182.54
456.17	4142.75
456.36	4042.11
456.54	4250.41
456.73	4189.56
456.91	4320.63
457.09	4140.41
457.28	4491.49
457.46	4372.12
457.64	4482.13
457.83	4304.25
458.01	4215.30
458.19	4346.37
458.38	4355.74
458.56	4517.23
458.74	4463.40
458.93	4271.48
459.11	4458.72
459.29	4435.32
459.48	4519.57
459.66	4500.85
459.84	4568.73
460.03	4620.22
460.21	4552.34
460.39	4664.69
460.57	4447.02
460.76	4683.41
460.94	4643.62
461.12	4620.22
461.31	4718.52
461.49	4664.69
461.67	4411.91
461.85	4851.93
462.04	4667.03
462.22	4999.38
462.40	4720.86
462.59	4765.33
462.77	4706.82
462.95	4828.53
463.13	4784.06
463.32	4755.97
463.50	4802.78
463.68	4741.93
463.86	4915.12
464.05	4978.32
464.23	4814.48
464.41	4987.68
464.59	4800.44
464.78	4959.60
464.96	4898.74
465.14	4786.40
465.32	4961.94
465.50	5060.24
465.69	4975.98
465.87	4950.23
466.05	5022.79
466.23	4959.60
466.41	4950.23
466.60	5214.71
466.78	5067.26
466.96	5095.35
467.14	5188.97
467.32	5011.09
467.51	5294.29
467.69	5130.45
467.87	5130.45
468.05	5118.75
468.23	5069.60
468.41	5142.16
468.60	5238.12
468.78	5266.21
468.96	5188.97
469.14	5437.06
469.32	5451.11
469.50	5198.33
469.69	5397.28
469.87	5352.81
470.05	5582.18
470.23	5406.64
470.41	5460.47
470.59	5490.90
470.77	5385.57
470.95	5554.09
471.14	5631.33
471.32	5483.88
471.50	5624.31
471.68	5593.88
471.86	5734.31
472.04	5809.21
472.22	5846.66
472.40	5638.35
472.58	5652.39
472.77	5643.03
472.95	5891.13
473.13	6083.05
473.31	5778.78
473.49	5664.10
473.67	5823.25
473.85	5827.93
474.03	5940.28
474.21	6099.44
474.39	6115.82
474.57	6162.63
474.75	6143.91
474.93	6197.74
475.12	6153.27
475.30	6186.04
475.48	6242.21
475.66	6282.00
475.84	6401.37
476.02	6291.36
476.20	6239.87
476.38	6523.07
476.56	6621.38
476.74	6586.27
476.92	6539.46
477.10	6487.96
477.28	6555.84
477.46	6644.78
477.64	6773.51
477.82	6806.28
478.00	6944.37
478.18	6810.96
478.36	7126.93
478.54	7016.93
478.72	7110.55
478.90	7187.79
479.08	7206.51
479.26	7098.84
479.44	7346.94
479.62	7393.75
479.80	7482.69
479.98	7503.76
480.16	7566.95
480.34	7520.14
480.52	7573.97
480.70	7831.43
480.88	7681.64
481.06	7595.04
481.24	7815.05
481.41	7920.37
481.59	8004.63
481.77	7997.61
481.95	8140.38
482.13	8133.36
482.31	8152.09
482.49	8372.10
482.67	8243.37
482.85	8435.29
483.03	8526.57
483.21	8706.79
483.39	8650.62
483.57	8753.60
483.74	8746.58
483.92	8938.51
484.10	8681.05
484.28	9137.45
484.46	9011.06
484.64	9188.94
484.82	9088.30
485.00	9139.79
485.18	9186.60
485.35	9467.47
485.53	9067.24
485.71	9652.37
485.89	9614.92
486.07	9530.66
486.25	9757.69
486.43	9645.35
486.61	9874.72
486.78	10083.03
486.96	10029.20
487.14	10024.51
487.32	9996.43
487.50	10200.05
487.68	10169.63
487.85	10204.74
488.03	10562.84
488.21	10576.88
488.39	10541.77
488.57	10544.11
488.75	10663.48
488.92	10829.66
489.10	10972.43
489.28	11005.20
489.46	10920.94
489.64	10960.73
489.81	11625.44
489.99	11438.20
490.17	11307.13
490.35	11669.91
490.53	11496.71
490.70	11707.36
490.88	11676.93
491.06	11730.76
491.24	11812.68
491.41	11719.06
491.59	12098.23
491.77	11889.92
491.95	12241.00
492.13	12032.69
492.30	12369.73
492.48	12245.68
492.66	12355.69
492.84	12306.54
493.01	12582.72
493.19	12669.32
493.37	12767.62
493.54	12774.64
493.72	12814.43
493.90	12685.70
494.08	13165.51
494.25	13266.16
494.43	13036.78
494.61	13266.16
494.79	13563.40
494.96	13406.59
495.14	13448.72
495.32	13530.64
495.49	13444.04
495.67	13654.69
495.85	13970.66
496.02	13947.25
496.20	13905.12
496.38	13951.93
496.55	13996.40
496.73	14476.21
496.91	14143.86
497.09	14551.11
497.26	14459.83
497.44	14398.98
497.62	14506.64
497.79	14441.11
497.97	14590.90
498.14	14949.00
498.32	15087.09
498.50	15019.22
498.67	15070.71
498.85	14874.10
499.03	15051.99
499.20	15070.71
499.38	14895.17
499.56	15262.63
499.73	15293.06
499.91	15461.58
500.08	15489.67
500.26	15197.10
500.44	15810.32
500.61	15550.52
500.79	15407.75
500.97	15665.21
501.14	16009.26
501.32	15726.06
501.49	15798.62
501.67	15831.38
501.84	15730.74
502.02	16109.91
502.20	16383.75
502.37	16245.66
502.55	16259.70
502.72	16369.71
502.90	16322.90
503.07	16145.02
503.25	16332.26
503.43	16224.59
503.60	16479.71
503.78	16688.02
503.95	16748.87
504.13	16966.54
504.30	16755.90
504.48	16739.51
504.65	16978.25
504.83	17001.65
505.01	17160.81
505.18	17099.95
505.36	17324.65
505.53	17151.45
505.71	17067.19
505.88	17404.22
506.06	17259.11
506.23	17296.56
506.41	17422.95
506.58	17633.60
506.76	17572.74
506.93	17404.22
507.11	17563.38
507.28	17778.71
507.46	17509.55
507.63	17652.32
507.81	18038.51
507.98	17722.54
508.16	17970.63
508.33	17706.15
508.50	18022.12
508.68	17720.20
508.85	18050.21
509.03	18038.51
509.20	18150.85
509.38	18310.01
509.55	18373.21
509.73	18537.04
509.90	18515.98
510.08	18314.69
510.25	18677.48
510.42	18565.13
510.60	18745.35
510.77	18656.41
510.95	18913.87
511.12	18576.83
511.30	18906.85
511.47	18895.14
511.64	18843.65
511.82	19168.99
511.99	18925.57
512.17	19068.34
512.34	19316.44
512.51	19211.12
512.69	19538.79
512.86	19566.88
513.04	19468.58
513.21	19531.77
513.38	19300.06
513.56	19531.77
513.73	19431.13
513.90	19414.74
514.08	19674.54
514.25	19756.46
514.43	19999.88
514.60	19782.21
514.77	19798.59
514.95	19964.77
515.12	19611.35
515.29	19964.77
515.47	19960.09
515.64	20257.34
515.81	20032.65
515.99	20262.02
516.16	20559.27
516.33	20688.00
516.51	20388.41
516.68	20259.68
516.85	20320.53
517.03	20383.73
517.20	20847.15
517.37	20374.36
517.54	20589.69
517.72	20805.02
517.89	20739.49
518.06	20685.65
518.24	20816.72
518.41	20858.85
518.58	20903.32
518.75	20842.47
518.93	20802.68
519.10	21156.10
519.27	20994.61
519.45	21025.03
519.62	21277.81
519.79	21097.59
519.96	21195.89
520.14	21268.45
520.31	21128.02
520.48	21462.71
520.65	21724.85
520.83	21535.27
521.00	21317.60
521.17	21682.72
521.34	21502.50
521.52	21764.64
521.69	21797.41
521.86	21872.31
522.03	22300.62
522.20	21869.97
522.38	22115.72
522.55	21811.45
522.72	21727.19
522.89	22040.82
523.07	22511.27
523.24	22108.70
523.41	22377.86
523.58	22183.60
523.75	22017.42
523.92	21951.88
524.10	22216.36
524.27	22780.43
524.44	22548.72
524.61	22675.11
524.78	22700.86
524.96	22782.77
525.13	22920.87
525.30	22609.58
525.47	22583.83
525.64	22569.79
525.81	22824.90
525.98	22843.63
526.16	22773.41
526.33	22899.80
526.50	22953.63
526.67	22850.65
526.84	22771.07
527.01	22773.41
527.18	23054.28
527.36	23522.38
527.53	23185.35
527.70	23480.25
527.87	23089.38
528.04	22932.57
528.21	23225.14
528.38	23278.97
528.55	23328.12
528.72	23606.64
528.89	23477.91
529.07	23360.89
529.24	23459.19
529.41	23892.19
529.58	23597.28
529.75	23426.42
529.92	23742.39
530.09	23929.64
530.26	24004.53
530.43	24060.71
530.60	23616.01
530.77	23599.62
530.94	24093.47
531.11	23662.82
531.28	23896.87
531.46	23784.52
531.63	24147.31
531.80	24023.26
531.97	23894.53
532.14	24224.54
532.31	23744.73
532.48	24126.24
532.65	23931.98
532.82	24601.37
532.99	24423.49
533.16	24126.24
533.33	24556.90
533.50	24311.14
533.67	24547.54
533.84	24449.24
534.01	24615.41
534.18	24404.77
534.35	24709.04
534.52	24306.46
534.69	24999.26
534.86	24954.79
535.03	24355.61
535.20	24797.98
535.37	24807.34
535.54	24826.06
535.71	24570.94
535.88	25003.94
536.05	24966.49
536.22	25125.65
536.38	25186.50
536.55	25156.08
536.72	25315.23
536.89	24835.42
537.06	25123.31
537.23	25010.96
537.40	25336.30
537.57	24996.92
537.74	25263.74
537.91	25778.66
538.08	25745.89
538.25	25401.83
538.42	25696.74
538.59	25256.72
538.75	24966.49
538.92	25275.45
539.09	25661.63
539.26	25586.74
539.43	25565.67
539.60	25898.03
539.77	25551.63
539.94	25797.38
540.11	25783.34
540.28	25759.94
540.44	25333.96
540.61	25680.36
540.78	25603.12
540.95	25696.74
541.12	25855.90
541.29	26155.49
541.46	26106.34
541.62	25823.13
541.79	25977.61
541.96	25579.71
542.13	26256.13
542.30	26209.32
542.47	26326.35
542.63	26136.76
542.80	26359.11
542.97	26286.56
543.14	26728.92
543.31	26541.68
543.48	26057.18
543.64	26820.20
543.81	26623.59
543.98	26749.98
544.15	26611.89
544.32	26668.06
544.48	26497.20
544.65	26541.68
544.82	26836.58
544.99	26773.39
545.16	26838.92
545.32	26242.09
545.49	27000.42
545.66	27096.38
545.83	27065.96
546.00	26778.07
546.16	26778.07
546.33	26616.57
546.50	26677.43
546.67	27192.34
546.83	26745.30
547.00	26911.48
547.17	26478.48
547.34	27140.85
547.50	26775.73
547.67	27417.04
547.84	27421.72
548.00	27278.94
548.17	27491.93
548.34	27129.15
548.51	27714.28
548.67	27342.14
548.84	27655.77
549.01	27424.06
549.18	27091.70
549.34	27117.45
549.51	27658.11
549.68	27335.12
549.84	27232.13
550.01	27400.65
550.18	27517.68
550.34	27545.76
550.51	27852.38
550.68	27662.79
550.84	27428.74
551.01	27625.34
551.18	27342.14
551.34	27915.57
551.51	27503.64
551.68	27637.05
551.84	27852.38
552.01	28037.28
552.18	27824.29
552.34	27967.06
552.51	27754.07
552.68	27730.67
552.84	28020.89
553.01	28123.88
553.18	27620.66
553.34	27941.32
553.51	28084.09
553.67	28123.88
553.84	28322.82
554.01	28327.50
554.17	28109.83
554.34	28025.57
554.51	28402.40
554.67	28077.07
554.84	28149.62
555.00	28407.08
555.17	28201.11
555.33	28346.23
555.50	28072.39
555.67	28290.06
555.83	27999.83
556.00	28243.24
556.16	28744.12
556.33	28336.87
556.50	28528.79
556.66	28486.66
556.83	28610.71
556.99	29092.86
557.16	29010.94
557.32	28561.56
557.49	28465.60
557.65	28208.14
557.82	28556.88
557.98	28510.07
558.15	28573.26
558.32	29015.62
558.48	28540.49
558.65	28524.11
558.81	28959.45
558.98	29029.66
559.14	28725.39
559.31	28540.49
559.47	28814.34
559.64	28416.44
559.80	28514.75
559.97	28772.21
560.13	28620.07
560.30	28954.77
560.46	28973.49
560.63	28896.25
560.79	29013.28
560.96	28709.01
561.12	28582.62
561.29	28687.95
561.45	29041.37
561.61	29123.29
561.78	29282.44
561.94	28807.31
562.11	29310.53
562.27	28884.55
562.44	29214.57
562.60	28631.77
562.77	28947.75
562.93	28938.38
563.10	29118.60
563.26	29249.67
563.42	29397.13
563.59	29111.58
563.75	29055.41
563.92	29415.85
564.08	29041.37
564.24	29139.67
564.41	28945.41
564.57	29134.99
564.74	29106.90
564.90	29450.96
565.07	29242.65
565.23	29336.27
565.39	29233.29
565.56	29434.58
565.72	29474.37
565.88	29249.67
566.05	29074.13
566.21	29106.90
566.38	29453.30
566.54	29422.87
566.70	29465.00
566.87	29677.99
567.03	29553.94
567.19	29530.54
567.36	29633.52
567.52	29549.26
567.68	29780.98
567.85	29432.24
568.01	29741.19
568.17	29149.03
568.34	29600.76
568.50	29350.32
568.66	29762.25
568.83	29703.74
568.99	29418.19
569.15	29343.30
569.32	30000.99
569.48	29626.50
569.64	29324.57
569.81	29551.60
569.97	29752.89
570.13	29666.29
570.30	29675.65
570.46	29656.93
570.62	29701.40
570.78	29340.96
570.95	29362.02
571.11	29736.51
571.27	29441.60
571.43	29385.43
571.60	29575.01
571.76	29640.54
571.92	29497.77
572.09	29816.08
572.25	29933.11
572.41	29858.21
572.57	29673.31
572.74	29619.48
572.90	29357.34
573.06	29575.01
573.22	29490.75
573.38	29954.18
573.55	29486.07
573.71	29998.65
573.87	30108.65
574.03	29795.02
574.20	29696.72
574.36	29645.23
574.52	29673.31
574.68	29708.42
574.84	29816.08
575.01	29708.42
575.17	29745.87
575.33	29628.84
575.49	29977.58
575.65	29998.65
575.82	29867.58
575.98	29881.62
576.14	29963.54
576.30	30096.95
576.46	29757.57
576.62	29813.74
576.79	30113.33
576.95	29937.79
577.11	29813.74
577.27	30286.53
577.43	30181.21
577.59	29825.45
577.75	29963.54
577.92	29699.06
578.08	29539.90
578.24	29628.84
578.40	29940.13
578.56	30342.70
578.72	30225.68
578.88	30342.70
579.04	30066.52
579.21	29642.88
579.37	29874.60
579.53	29890.98
579.69	29853.53
579.85	29975.24
580.01	29902.68
580.17	29862.90
580.33	29816.08
580.49	29614.80
580.65	30019.71
580.82	30300.58
580.98	29853.53
581.14	30008.01
581.30	30150.78
581.46	29947.15
581.62	29567.99
581.78	30267.81
581.94	29834.81
582.10	29722.46
582.26	30160.14
582.42	29928.43
582.58	30164.82
582.74	30110.99
582.90	30101.63
583.06	29909.71
583.22	29984.60
583.38	30146.10
583.54	30232.70
583.70	30110.99
583.86	30300.58
584.02	29844.17
584.18	30490.16
584.34	30321.64
584.50	30651.66
584.66	30054.82
584.82	30118.01
584.98	30143.76
585.14	30281.85
585.30	29729.48
585.46	30188.23
585.62	29823.11
585.78	30089.93
585.94	29764.59
586.10	29886.30
586.26	29792.68
586.42	30136.74
586.58	30153.12
586.74	30314.62
586.90	30206.95
587.06	29951.84
587.22	30120.35
587.38	30195.25
587.54	30391.86
587.70	30316.96
587.86	30298.23
588.02	30199.93
588.18	30431.65
588.34	30092.27
588.49	30384.83
588.65	30249.08
588.81	30218.66
588.97	30008.01
589.13	30068.86
589.29	29951.84
589.45	29813.74
589.61	30162.48
589.77	30419.94
589.93	30424.62
590.08	30562.72
590.24	30466.75
590.40	30654.00
590.56	30059.50
590.72	30513.56
590.88	30139.08
591.04	30441.01
591.20	30630.59
591.35	30822.51
591.51	30852.94
591.67	30459.73
591.83	30604.84
591.99	30443.35
