SpectraSuite Data File
++++++++++++++++++++++++++++++++++++
Date: Fri Oct 18 13:58:31 GMT-05:00 2013
User: bianchi
Dark Spectrum Present: No
Reference Spectrum Present: No
Number of Sampled Component Spectra: 1
Spectrometers: USB2+H05261
Integration Time (usec): 50000 (USB2+H05261)
Spectra Averaged: 1 (USB2+H05261)
Boxcar Smoothing: 0 (USB2+H05261)
Correct for Electrical Dark: No (USB2+H05261)
Strobe/Lamp Enabled: No (USB2+H05261)
Correct for Detector Non-linearity: No (USB2+H05261)
Correct for Stray Light: No (USB2+H05261)
Number of Pixels in Processed Spectrum: 2048
>>>>>Begin Processed Spectral Data<<<<<
365.73	0.00
365.92	0.00
366.12	0.00
366.32	0.00
366.52	0.00
366.72	0.00
366.91	0.00
367.11	0.00
367.31	0.00
367.51	0.00
367.70	0.00
367.90	0.00
368.10	0.00
368.30	0.00
368.49	0.00
368.69	0.00
368.89	0.00
369.09	0.00
369.28	0.00
369.48	0.00
369.68	0.00
369.87	0.00
370.07	0.00
370.27	0.00
370.47	7.02
370.66	100.64
370.86	100.64
371.06	210.65
371.25	100.64
371.45	81.92
371.65	161.50
371.84	95.96
372.04	196.60
372.24	191.92
372.44	212.99
372.63	189.58
372.83	208.31
373.03	163.84
373.22	224.69
373.42	170.86
373.62	241.08
373.81	257.46
374.01	182.56
374.21	236.39
374.40	222.35
374.60	224.69
374.79	212.99
374.99	224.69
375.19	248.10
375.38	236.39
375.58	170.86
375.78	245.76
375.97	217.67
376.17	341.72
376.37	271.50
376.56	177.88
376.76	191.92
376.95	285.55
377.15	374.49
377.35	264.48
377.54	229.37
377.74	217.67
377.93	278.52
378.13	238.73
378.33	332.36
378.52	313.63
378.72	271.50
378.91	229.37
379.11	243.42
379.31	262.14
379.50	355.76
379.70	397.89
379.89	266.82
380.09	313.63
380.28	297.25
380.48	313.63
380.68	353.42
380.87	285.55
381.07	332.36
381.26	290.23
381.46	362.78
381.65	322.99
381.85	297.25
382.04	308.95
382.24	266.82
382.43	320.65
382.63	320.65
382.83	395.55
383.02	404.91
383.22	294.91
383.41	287.89
383.61	346.40
383.80	402.57
384.00	379.17
384.19	458.74
384.39	337.04
384.58	388.53
384.78	330.02
384.97	304.27
385.17	280.86
385.36	330.02
385.56	322.99
385.75	390.87
385.95	334.70
386.14	416.62
386.34	393.21
386.53	344.06
386.72	435.34
386.92	447.04
387.11	301.93
387.31	414.27
387.50	451.72
387.70	407.25
387.89	407.25
388.09	407.25
388.28	435.34
388.48	444.70
388.67	383.85
388.86	447.04
389.06	486.83
389.25	507.90
389.45	428.32
389.64	454.06
389.84	519.60
390.03	456.40
390.22	489.17
390.42	484.49
390.61	360.44
390.81	475.13
391.00	505.56
391.19	461.09
391.39	550.03
391.58	498.53
391.78	411.93
391.97	437.68
392.16	517.26
392.36	540.66
392.55	557.05
392.75	517.26
392.94	498.53
393.13	465.77
393.33	521.94
393.52	547.69
393.71	512.58
393.91	482.15
394.10	545.34
394.29	489.17
394.49	594.50
394.68	601.52
394.88	608.54
395.07	603.86
395.26	564.07
395.46	671.73
395.65	599.18
395.84	554.71
396.04	608.54
396.23	660.03
396.42	704.50
396.62	578.11
396.81	653.01
397.00	627.26
397.19	685.78
397.39	599.18
397.58	655.35
397.77	653.01
397.97	702.16
398.16	655.35
398.35	620.24
398.55	636.63
398.74	692.80
398.93	660.03
399.12	690.46
399.32	662.37
399.51	645.99
399.70	744.29
399.90	671.73
400.09	744.29
400.28	734.93
400.47	774.72
400.67	809.83
400.86	856.64
401.05	697.48
401.24	744.29
401.44	854.30
401.63	772.38
401.82	765.36
402.01	823.87
402.21	896.43
402.40	758.33
402.59	748.97
402.78	833.23
402.97	779.40
403.17	952.60
403.36	814.51
403.55	765.36
403.74	992.39
403.93	844.93
404.13	889.40
404.32	795.78
404.51	905.79
404.70	936.21
404.89	812.17
405.09	999.41
405.28	908.13
405.47	933.87
405.66	945.58
405.85	954.94
406.05	854.30
406.24	887.06
406.43	887.06
406.62	933.87
406.81	968.98
407.00	929.19
407.20	978.34
407.39	971.32
407.58	999.41
407.77	1074.31
407.96	1174.95
408.15	1006.43
408.34	1013.45
408.54	1032.18
408.73	1071.97
408.92	1109.41
409.11	1146.86
409.30	1090.69
409.49	1060.26
409.68	1177.29
409.87	1081.33
410.07	1219.42
410.26	1177.29
410.45	1090.69
410.64	1200.69
410.83	1149.20
411.02	1177.29
411.21	1210.06
411.40	1170.27
411.59	1142.18
411.78	1193.67
411.98	1247.51
412.17	1231.12
412.36	1294.32
412.55	1320.06
412.74	1394.96
412.93	1289.64
413.12	1366.87
413.31	1331.76
413.50	1369.21
413.69	1416.02
413.88	1334.11
414.07	1404.32
414.26	1465.18
414.45	1519.01
414.64	1474.54
414.83	1523.69
415.02	1432.41
415.22	1530.71
415.41	1603.27
415.60	1458.15
415.79	1593.90
415.98	1465.18
416.17	1551.78
416.36	1605.61
416.55	1563.48
416.74	1582.20
416.93	1666.46
417.12	1612.63
417.31	1657.10
417.50	1673.48
417.69	1739.02
417.88	1834.98
418.07	1556.46
418.26	1661.78
418.45	1767.10
418.64	1867.75
418.83	1820.94
419.02	1816.26
419.21	1767.10
419.39	1818.60
419.58	1694.55
419.77	1820.94
419.96	1811.57
420.15	1839.66
420.34	1783.49
420.53	1839.66
420.72	1799.87
420.91	1872.43
421.10	2019.88
421.29	1954.35
421.48	1804.55
421.67	1984.77
421.86	1970.73
422.05	1963.71
422.24	1987.11
422.43	1984.77
422.61	1888.81
422.80	1860.73
422.99	1949.67
423.18	1877.11
423.37	1975.41
423.56	2022.22
423.75	1973.07
423.94	1923.92
424.13	1811.57
424.32	1898.17
424.50	1919.24
424.69	1944.99
424.88	2003.50
425.07	1940.30
425.26	1930.94
425.45	2050.31
425.64	2069.03
425.83	1954.35
426.01	2062.01
426.20	2038.61
426.39	1891.15
426.58	2099.46
426.77	2073.71
426.96	2132.23
427.15	2012.86
427.33	2057.33
427.52	2085.42
427.71	2141.59
427.90	2127.55
428.09	2090.10
428.28	2179.04
428.46	2090.10
428.65	2069.03
428.84	2165.00
429.03	2251.60
429.22	2113.50
429.40	2132.23
429.59	2202.44
429.78	2047.97
429.97	2134.57
430.16	2141.59
430.34	2183.72
430.53	2319.47
430.72	2277.34
430.91	2242.23
431.10	2232.87
431.28	2368.62
431.47	2284.36
431.66	2314.79
431.85	2209.47
432.03	2368.62
432.22	2429.48
432.41	2392.03
432.60	2377.98
432.79	2385.01
432.97	2422.45
433.16	2457.56
433.35	2431.82
433.54	2429.48
433.72	2408.41
433.91	2436.50
434.10	2448.20
434.28	2471.61
434.47	2569.91
434.66	2628.42
434.85	2434.16
435.03	2595.65
435.22	2516.08
435.41	2708.00
435.59	2532.46
435.78	2640.12
435.97	2523.10
436.16	2595.65
436.34	2640.12
436.53	2738.43
436.72	2726.72
436.90	2600.34
437.09	2700.98
437.28	2551.18
437.46	2789.92
437.65	2696.30
437.84	2761.83
438.02	2682.25
438.21	2871.84
438.40	2740.77
438.58	2708.00
438.77	2782.90
438.96	2895.24
439.14	2867.16
439.33	2876.52
439.52	2829.71
439.70	2869.50
439.89	2825.03
440.08	3054.40
440.26	2981.84
440.45	3005.25
440.63	3098.87
440.82	3068.44
441.01	2951.42
441.19	3030.99
441.38	3234.62
441.57	3101.21
441.75	3232.28
441.94	3169.09
442.12	3105.89
442.31	3190.15
442.50	3222.92
442.68	3178.45
442.87	3218.24
443.05	3323.56
443.24	3267.39
443.43	3286.11
443.61	3400.80
443.80	3368.03
443.98	3272.07
444.17	3183.13
444.35	3316.54
444.54	3403.14
444.73	3412.50
444.91	3351.65
445.10	3290.79
445.28	3314.20
445.47	3286.11
445.65	3304.84
445.84	3386.76
446.02	3379.73
446.21	3485.06
446.39	3382.07
446.58	3520.17
446.77	3510.80
446.95	3316.54
447.14	3391.44
447.32	3503.78
447.51	3473.36
447.69	3428.88
447.88	3492.08
448.06	3494.42
448.25	3372.71
448.43	3435.91
448.62	3372.71
448.80	3358.67
448.99	3595.06
449.17	3592.72
449.36	3389.10
449.54	3503.78
449.73	3524.85
449.91	3637.19
450.10	3632.51
450.28	3714.43
450.46	3625.49
450.65	3569.32
450.83	3625.49
451.02	3784.65
451.20	3920.40
451.39	3747.20
451.57	3625.49
451.76	3550.59
451.94	3735.50
452.13	3728.47
452.31	3786.99
452.49	3665.28
452.68	3946.14
452.86	3796.35
453.05	3866.56
453.23	3922.74
453.42	3815.07
453.60	3714.43
453.78	3911.04
453.97	3721.45
454.15	3742.52
454.34	3871.25
454.52	3922.74
454.70	3880.61
454.89	3939.12
455.07	4007.00
455.26	4021.04
455.44	3861.88
455.62	3845.50
455.81	3957.85
455.99	4065.51
456.17	4049.13
456.36	4135.73
456.54	4212.96
456.73	4119.34
456.91	4217.65
457.09	4201.26
457.28	4154.45
457.46	4231.69
457.64	4297.22
457.83	4250.41
458.01	4138.07
458.19	4271.48
458.38	4290.20
458.56	4301.90
458.74	4402.55
458.93	4219.99
459.11	4365.10
459.29	4568.73
459.48	4290.20
459.66	4414.25
459.84	4547.66
460.03	4540.64
460.21	4435.32
460.39	4470.42
460.57	4374.46
460.76	4444.68
460.94	4489.15
461.12	4482.13
461.31	4538.30
461.49	4526.60
461.67	4608.51
461.85	4519.57
462.04	4575.75
462.22	4571.07
462.40	4629.58
462.59	4695.11
462.77	4730.22
462.95	4751.29
463.13	4755.97
463.32	4688.09
463.50	4739.58
463.68	4812.14
463.86	4718.52
464.05	4643.62
464.23	4777.03
464.41	4863.63
464.59	4681.07
464.78	4826.18
464.96	4652.98
465.14	4842.57
465.32	4784.06
465.50	4945.55
465.69	4929.17
465.87	4709.16
466.05	4868.31
466.23	4968.96
466.41	5011.09
466.60	5046.20
466.78	4943.21
466.96	4929.17
467.14	4884.70
467.32	5025.13
467.51	4997.04
467.69	4844.91
467.87	5004.07
468.05	5107.05
468.23	5104.71
468.41	4943.21
468.60	4943.21
468.78	5254.50
468.96	5186.63
469.14	5053.22
469.32	5205.35
469.50	5123.43
469.69	5221.74
469.87	5341.10
470.05	5413.66
470.23	5331.74
470.41	5296.63
470.59	5078.96
470.77	5338.76
470.95	5277.91
471.14	5479.19
471.32	5439.40
471.50	5554.09
471.68	5533.03
471.86	5493.24
472.04	5406.64
472.22	5659.42
472.40	5418.34
472.58	5696.86
472.77	5778.78
472.95	5542.39
473.13	5790.49
473.31	5680.48
473.49	5781.12
473.67	5554.09
473.85	5746.02
474.03	5980.07
474.21	6001.13
474.39	5907.51
474.57	5956.66
474.75	6022.20
474.93	5984.75
475.12	5872.40
475.30	6289.02
475.48	5987.09
475.66	6108.80
475.84	6108.80
476.02	6328.81
476.20	6368.60
476.38	6225.82
476.56	6431.79
476.74	6363.92
476.92	6466.90
477.10	6403.71
477.28	6579.25
477.46	6523.07
477.64	6719.68
477.82	6623.72
478.00	6832.02
478.18	6778.19
478.36	6761.81
478.54	6745.42
478.72	6885.86
478.90	6965.43
479.08	6888.20
479.26	6918.62
479.44	7171.40
479.62	7258.00
479.80	7375.03
479.98	7391.41
480.16	7466.31
480.34	7206.51
480.52	7548.23
480.70	7449.93
480.88	7412.48
481.06	7618.44
481.24	7616.10
481.41	7674.62
481.59	7866.54
481.77	7805.69
481.95	7936.76
482.13	7845.48
482.31	7896.97
482.49	7946.12
482.67	8187.19
482.85	8262.09
483.03	8198.90
483.21	8339.33
483.39	8327.63
483.57	8425.93
483.74	8500.83
483.92	8329.97
484.10	8484.44
484.28	8875.31
484.46	9121.07
484.64	8926.80
484.82	8826.16
485.00	8901.06
485.18	9200.65
485.35	9121.07
485.53	9343.42
485.71	9057.87
485.89	9507.26
486.07	9420.66
486.25	9284.91
486.43	9394.91
486.61	9348.10
486.78	9554.07
486.96	9762.37
487.14	9994.09
487.32	9769.40
487.50	9788.12
487.68	10038.56
487.85	10284.31
488.03	10438.79
488.21	10377.94
488.39	10244.52
488.57	10539.43
488.75	10384.96
488.92	10544.11
489.10	10651.78
489.28	10574.54
489.46	10799.23
489.64	10768.80
489.81	11028.60
489.99	11084.78
490.17	10911.58
490.35	11176.06
490.53	11286.06
490.70	11239.25
490.88	11470.97
491.06	11520.12
491.24	11349.26
491.41	11548.20
491.59	11529.48
491.77	11857.15
491.95	11995.25
492.13	12072.48
492.30	11999.93
492.48	11875.88
492.66	12107.59
492.84	11850.13
493.01	12369.73
493.19	12573.36
493.37	12596.76
493.54	12372.07
493.72	12535.91
493.90	12601.44
494.08	12753.58
494.25	12681.02
494.43	12898.69
494.61	12952.52
494.79	13273.18
494.96	12975.93
495.14	13149.13
495.32	13308.29
495.49	13275.52
495.67	13441.70
495.85	13593.83
496.02	13598.51
496.20	13413.61
496.38	13745.97
496.55	13582.13
496.73	14083.00
496.91	13774.05
497.09	14129.81
497.26	13987.04
497.44	13764.69
497.62	13987.04
497.79	14387.27
497.97	14059.60
498.14	14403.66
498.32	14523.02
498.50	14436.42
498.67	14668.14
498.85	14427.06
499.03	14487.92
499.20	14628.35
499.38	14904.53
499.56	14986.45
499.73	14918.57
499.91	15014.54
500.08	14881.13
500.26	14876.44
500.44	15110.50
500.61	15098.80
500.79	15145.61
500.97	15351.57
501.14	15389.02
501.32	15545.84
501.49	15545.84
501.67	15297.74
501.84	15447.54
502.02	15658.18
502.20	15646.48
502.37	15721.38
502.55	15754.15
502.72	15899.26
502.90	15658.18
503.07	15927.35
503.25	16020.97
503.43	15981.18
503.60	16252.68
503.78	16105.23
503.95	16350.98
504.13	16376.73
504.30	16343.96
504.48	16350.98
504.65	16287.79
504.83	16587.38
505.01	16484.39
505.18	16297.15
505.36	16826.11
505.53	16507.80
505.71	16475.03
505.88	16908.03
506.06	16643.55
506.23	17046.12
506.41	16889.31
506.58	17067.19
506.76	16950.16
506.93	17083.57
507.11	16980.59
507.28	17207.62
507.46	17193.58
507.63	17469.76
507.81	17586.79
507.98	17032.08
508.16	17259.11
508.33	17575.08
508.50	17488.48
508.68	17406.56
508.85	17633.60
509.03	17752.96
509.20	17647.64
509.38	17912.12
509.55	17977.65
509.73	17984.68
509.90	17678.07
510.08	18183.62
510.25	17675.73
510.42	18223.41
510.60	18146.17
510.77	18328.74
510.95	18728.97
511.12	18422.36
511.30	18265.54
511.47	18242.14
511.64	18441.08
511.82	18665.77
511.99	18656.41
512.17	19037.92
512.34	18614.28
512.51	18855.36
512.69	18597.90
512.86	18785.14
513.04	19122.18
513.21	19185.37
513.38	19157.28
513.56	19293.04
513.73	19386.66
513.90	19255.59
514.08	19171.33
514.25	19187.71
514.43	19236.86
514.60	19323.46
514.77	19618.37
514.95	19168.99
515.12	19737.74
515.29	19360.91
515.47	19452.19
515.64	19758.80
515.81	19609.01
515.99	19924.98
516.16	19693.27
516.33	19885.19
516.51	19936.68
516.68	19896.89
516.85	19702.63
517.03	20025.62
517.20	20023.28
517.37	20074.77
517.54	20042.01
517.72	19967.11
517.89	19896.89
518.06	20250.32
518.24	20292.44
518.41	20084.14
518.58	20554.58
518.75	20280.74
518.93	20372.02
519.10	20430.54
519.27	20404.79
519.45	20212.87
519.62	20613.10
519.79	20458.62
519.96	20472.67
520.14	20587.35
520.31	20465.64
520.48	20711.40
520.65	20561.61
520.83	20755.87
521.00	21069.50
521.17	20938.43
521.34	21252.06
521.52	21083.55
521.69	21156.10
521.86	21500.16
522.03	21132.70
522.20	21303.56
522.38	21348.03
522.55	21324.62
522.72	21247.38
522.89	21027.37
523.07	21546.97
523.24	21390.16
523.41	21465.05
523.58	21575.06
523.75	21818.47
523.92	21504.84
524.10	21598.46
524.27	21497.82
524.44	21874.65
524.61	22164.87
524.78	21853.58
524.96	21799.75
525.13	21467.39
525.30	22141.47
525.47	22115.72
525.64	21830.18
525.81	22230.41
525.98	22333.39
526.16	22192.96
526.33	22129.77
526.50	22551.06
526.67	22132.11
526.84	22391.91
527.01	22445.74
527.18	22412.97
527.36	22181.26
527.53	22574.47
527.70	22806.18
527.87	22944.27
528.04	22649.36
528.21	22656.39
528.38	22490.21
528.55	22810.86
528.72	22934.91
528.89	22986.40
529.07	22965.34
529.24	22761.71
529.41	22960.66
529.58	23012.15
529.75	22719.58
529.92	22967.68
530.09	22831.93
530.26	23707.29
530.43	23356.21
530.60	23159.60
530.77	23250.88
530.94	23267.27
531.11	23140.88
531.28	23304.71
531.46	23068.32
531.63	23293.01
531.80	23681.54
531.97	23681.54
532.14	23527.06
532.31	23391.31
532.48	23653.45
532.65	23623.03
532.82	23400.68
532.99	23924.96
533.16	23475.57
533.33	23508.34
533.50	23990.49
533.67	23997.51
533.84	23756.44
534.01	23817.29
534.18	23735.37
534.35	24030.28
534.52	24189.44
534.69	23934.32
534.86	24208.16
535.03	24077.09
535.20	24184.76
535.37	24449.24
535.54	24187.10
535.71	24074.75
535.88	24170.71
536.05	24093.47
536.22	24489.03
536.38	24575.62
536.55	24542.86
536.72	24512.43
536.89	24329.87
537.06	24400.08
537.23	24397.74
537.40	24486.68
537.57	24404.77
537.74	24313.48
537.91	24858.83
538.08	24725.42
538.25	24400.08
538.42	24786.27
538.59	24980.54
538.75	24430.51
538.92	25032.03
539.09	24783.93
539.26	24758.19
539.43	25055.43
539.60	25216.93
539.77	25008.62
539.94	24680.95
540.11	24849.47
540.28	24854.15
540.44	24966.49
540.61	24652.86
540.78	25170.12
540.95	25039.05
541.12	25116.29
541.29	25200.55
541.46	25160.76
541.62	24933.73
541.79	25261.40
541.96	24863.51
542.13	25188.85
542.30	25268.42
542.47	25172.46
542.63	25654.61
542.80	25551.63
542.97	26139.10
543.14	25982.29
543.31	25514.18
543.48	25841.85
543.64	26174.21
543.81	26281.88
543.98	26197.62
544.15	26015.05
544.32	25930.80
544.48	26188.25
544.65	26162.51
544.82	26244.43
544.99	25874.62
545.16	25818.45
545.32	25893.35
545.49	26391.88
545.66	26038.46
545.83	26480.82
546.00	26700.83
546.16	26146.12
546.33	26047.82
546.50	25970.58
546.67	26595.51
546.83	26162.51
547.00	26143.78
547.17	26253.79
547.34	26609.55
547.50	26438.69
547.67	26560.40
547.84	26239.75
548.00	26319.32
548.17	26434.01
548.34	26288.90
548.51	26852.97
548.67	26513.59
548.84	26696.15
549.01	26693.81
549.18	26391.88
549.34	26429.33
549.51	26703.17
549.68	26920.84
549.84	26754.66
550.01	26799.13
550.18	26883.39
550.34	26761.69
550.51	26703.17
550.68	27065.96
550.84	26813.18
551.01	27058.93
551.18	26696.15
551.34	26639.98
551.51	26712.53
551.68	26948.93
551.84	27077.66
552.01	27138.51
552.18	27185.32
552.34	26822.54
552.51	27248.52
552.68	27026.17
552.84	27091.70
553.01	27339.80
553.18	27037.87
553.34	27225.11
553.51	26962.97
553.67	27248.52
553.84	27288.31
554.01	27583.21
554.17	27615.98
554.34	27328.10
554.51	27281.28
554.67	27644.07
554.84	27527.04
555.00	27449.80
555.17	27328.10
555.33	27594.92
555.50	27878.12
555.67	27330.44
555.83	27543.42
556.00	27763.43
556.16	28074.73
556.33	27391.29
556.50	27718.96
556.66	27889.82
556.83	27721.30
556.99	27819.61
557.16	28025.57
557.32	27702.58
557.49	27798.54
557.65	27456.82
557.82	27522.36
557.98	27695.56
558.15	27681.52
558.32	27639.39
558.48	28002.17
558.65	27852.38
558.81	27786.84
558.98	27857.06
559.14	27866.42
559.31	27950.68
559.47	27899.19
559.64	28023.23
559.80	27882.80
559.97	27892.16
560.13	27969.40
560.30	27894.50
560.46	28311.12
560.63	28077.07
560.79	27873.44
560.96	28194.09
561.12	28261.97
561.29	28170.69
561.45	28105.15
561.61	28348.57
561.78	28060.68
561.94	28074.73
562.11	28133.24
562.27	27983.44
562.44	28151.96
562.60	28273.67
562.77	28287.71
562.93	28177.71
563.10	28533.47
563.26	27950.68
563.42	28566.24
563.59	28187.07
563.75	28360.27
563.92	28404.74
564.08	28386.02
564.24	28540.49
564.41	28374.31
564.57	28091.11
564.74	28428.15
564.90	28095.79
565.07	28531.13
565.23	28507.72
565.39	28130.90
565.56	28582.62
565.72	28308.78
565.88	28163.67
566.05	28584.96
566.21	28655.18
566.38	28287.71
566.54	28327.50
566.70	28472.62
566.87	28699.65
567.03	28868.17
567.19	28863.49
567.36	28858.81
567.52	28500.70
567.68	28568.58
567.85	28350.91
568.01	28781.57
568.17	28102.81
568.34	28896.25
568.50	28568.58
568.66	28510.07
568.83	28954.77
568.99	28414.10
569.15	28713.69
569.32	28505.38
569.48	28465.60
569.64	28383.68
569.81	28308.78
569.97	28383.68
570.13	28669.22
570.30	28685.61
570.46	28999.24
570.62	28751.14
570.78	28425.81
570.95	28783.91
571.11	28720.71
571.27	28238.56
571.43	28905.62
571.60	28914.98
571.76	28926.68
571.92	28783.91
572.09	29329.25
572.25	28765.18
572.41	28783.91
572.57	28786.25
572.74	28961.79
572.90	28730.08
573.06	28980.51
573.22	28650.50
573.38	28980.51
573.55	28779.23
573.71	29219.25
573.87	29132.65
574.03	28720.71
574.20	29109.24
574.36	28863.49
574.52	28957.11
574.68	28898.59
574.84	28734.76
575.01	28929.02
575.17	29111.58
575.33	28992.22
575.49	28964.13
575.65	28758.16
575.82	29329.25
575.98	28552.20
576.14	28765.18
576.30	28903.28
576.46	28797.95
576.62	28521.77
576.79	28767.52
576.95	28774.55
577.11	29352.66
577.27	29350.32
577.43	29399.47
577.59	29109.24
577.75	29095.20
577.92	29057.75
578.08	29088.18
578.24	28804.97
578.40	29074.13
578.56	28833.06
578.72	29139.67
578.88	29490.75
579.04	29359.68
579.21	29076.48
579.37	28975.83
579.53	29095.20
579.69	28870.51
579.85	28961.79
580.01	29474.37
580.17	28634.11
580.33	29146.69
580.49	28989.88
580.65	29425.22
580.82	29420.53
580.98	28985.19
581.14	29067.11
581.30	29509.47
581.46	29207.55
581.62	29113.92
581.78	28783.91
581.94	29202.86
582.10	29242.65
582.26	29069.45
582.42	28971.15
582.58	29633.52
582.74	29041.37
582.90	29303.51
583.06	29291.80
583.22	28912.64
583.38	29223.93
583.54	29195.84
583.70	28959.45
583.86	29247.33
584.02	28975.83
584.18	29095.20
584.34	29600.76
584.50	29551.60
584.66	29289.46
584.82	29156.05
584.98	28882.21
585.14	29261.38
585.30	29303.51
585.46	29275.42
585.62	29347.98
585.78	29160.73
585.94	29310.53
586.10	29392.45
586.26	29439.26
586.42	29092.86
586.58	28978.17
586.74	28926.68
586.90	29345.64
587.06	29212.23
587.22	29200.52
587.38	29336.27
587.54	29504.79
587.70	29214.57
587.86	29455.64
588.02	29530.54
588.18	29523.52
588.34	29736.51
588.49	29322.23
588.65	29331.59
588.81	28835.40
588.97	29371.38
589.13	29113.92
589.29	29296.49
589.45	29692.04
589.61	29357.34
589.77	29642.88
589.93	29408.83
590.08	29876.94
590.24	29930.77
590.40	29694.38
590.56	29748.21
590.72	29041.37
590.88	29123.29
591.04	29345.64
591.20	29411.17
591.35	29848.85
591.51	29713.10
591.67	29792.68
591.83	29851.19
591.99	29773.95
