SpectraSuite Data File
++++++++++++++++++++++++++++++++++++
Date: Fri Oct 18 13:58:13 GMT-05:00 2013
User: bianchi
Dark Spectrum Present: No
Reference Spectrum Present: No
Number of Sampled Component Spectra: 1
Spectrometers: USB2+H05261
Integration Time (usec): 50000 (USB2+H05261)
Spectra Averaged: 1 (USB2+H05261)
Boxcar Smoothing: 0 (USB2+H05261)
Correct for Electrical Dark: No (USB2+H05261)
Strobe/Lamp Enabled: No (USB2+H05261)
Correct for Detector Non-linearity: No (USB2+H05261)
Correct for Stray Light: No (USB2+H05261)
Number of Pixels in Processed Spectrum: 2048
>>>>>Begin Processed Spectral Data<<<<<
365.73	0.00
365.92	0.00
366.12	0.00
366.32	0.00
366.52	0.00
366.72	0.00
366.91	0.00
367.11	0.00
367.31	0.00
367.51	0.00
367.70	0.00
367.90	0.00
368.10	0.00
368.30	0.00
368.49	0.00
368.69	0.00
368.89	0.00
369.09	0.00
369.28	0.00
369.48	0.00
369.68	0.00
369.87	0.00
370.07	0.00
370.27	0.00
370.47	2.34
370.66	86.60
370.86	121.71
371.06	107.66
371.25	133.41
371.45	152.13
371.65	182.56
371.84	121.71
372.04	119.37
372.24	210.65
372.44	191.92
372.63	138.09
372.83	170.86
373.03	215.33
373.22	203.63
373.42	182.56
373.62	269.16
373.81	205.97
374.01	222.35
374.21	252.78
374.40	271.50
374.60	311.29
374.79	290.23
374.99	269.16
375.19	220.01
375.38	250.44
375.58	271.50
375.78	163.84
375.97	351.08
376.17	313.63
376.37	276.18
376.56	234.05
376.76	320.65
376.95	273.84
377.15	278.52
377.35	313.63
377.54	299.59
377.74	262.14
377.93	243.42
378.13	273.84
378.33	313.63
378.52	257.46
378.72	334.70
378.91	273.84
379.11	315.97
379.31	351.08
379.50	266.82
379.70	299.59
379.89	294.91
380.09	311.29
380.28	313.63
380.48	259.80
380.68	311.29
380.87	243.42
381.07	334.70
381.26	355.76
381.46	367.46
381.65	360.44
381.85	332.36
382.04	294.91
382.24	369.80
382.43	290.23
382.63	334.70
382.83	367.46
383.02	470.45
383.22	386.19
383.41	423.64
383.61	388.53
383.80	444.70
384.00	437.68
384.19	416.62
384.39	414.27
384.58	334.70
384.78	383.85
384.97	449.38
385.17	327.68
385.36	400.23
385.56	381.51
385.75	397.89
385.95	404.91
386.14	449.38
386.34	360.44
386.53	395.55
386.72	444.70
386.92	465.77
387.11	440.02
387.31	428.32
387.50	402.57
387.70	383.85
387.89	379.17
388.09	465.77
388.28	461.09
388.48	472.79
388.67	503.22
388.86	482.15
389.06	482.15
389.25	573.43
389.45	505.56
389.64	552.37
389.84	482.15
390.03	458.74
390.22	512.58
390.42	414.27
390.61	543.00
390.81	514.92
391.00	571.09
391.19	533.64
391.39	528.96
391.58	554.71
391.78	561.73
391.97	535.98
392.16	472.79
392.36	631.94
392.55	557.05
392.75	559.39
392.94	575.77
393.13	503.22
393.33	498.53
393.52	568.75
393.71	564.07
393.91	599.18
394.10	575.77
394.29	535.98
394.49	608.54
394.68	543.00
394.88	645.99
395.07	650.67
395.26	662.37
395.46	643.65
395.65	638.97
395.84	692.80
396.04	699.82
396.23	695.14
396.42	657.69
396.62	720.88
396.81	681.10
397.00	657.69
397.19	683.44
397.39	664.71
397.58	650.67
397.77	648.33
397.97	737.27
398.16	763.01
398.35	685.78
398.55	781.74
398.74	758.33
398.93	727.91
399.12	699.82
399.32	653.01
399.51	690.46
399.70	828.55
399.90	739.61
400.09	809.83
400.28	851.96
400.47	737.27
400.67	720.88
400.86	819.19
401.05	737.27
401.24	847.27
401.44	809.83
401.63	744.29
401.82	819.19
402.01	767.70
402.21	819.19
402.40	891.74
402.59	779.40
402.78	870.68
402.97	954.94
403.17	849.61
403.36	882.38
403.55	873.02
403.74	959.62
403.93	980.68
404.13	910.47
404.32	931.53
404.51	1006.43
404.70	931.53
404.89	983.02
405.09	985.37
405.28	896.43
405.47	964.30
405.66	931.53
405.85	1020.47
406.05	983.02
406.24	1060.26
406.43	1025.15
406.62	1020.47
406.81	990.05
407.00	1046.22
407.20	1076.65
407.39	1078.99
407.58	1121.12
407.77	1109.41
407.96	1029.84
408.15	1153.88
408.34	1111.75
408.54	1062.60
408.73	1090.69
408.92	1165.59
409.11	1277.93
409.30	1200.69
409.49	1172.61
409.68	1205.38
409.87	1118.78
410.07	1205.38
410.26	1266.23
410.45	1200.69
410.64	1205.38
410.83	1149.20
411.02	1235.80
411.21	1249.85
411.40	1275.59
411.59	1282.61
411.78	1249.85
411.98	1299.00
412.17	1306.02
412.36	1383.26
412.55	1392.62
412.74	1437.09
412.93	1387.94
413.12	1235.80
413.31	1348.15
413.50	1455.81
413.69	1458.15
413.88	1394.96
414.07	1460.49
414.26	1572.84
414.45	1497.94
414.64	1500.28
414.83	1547.09
415.02	1673.48
415.22	1537.73
415.41	1610.29
415.60	1474.54
415.79	1561.14
415.98	1610.29
416.17	1706.25
416.36	1650.08
416.55	1636.03
416.74	1612.63
416.93	1640.72
417.12	1626.67
417.31	1750.72
417.50	1832.64
417.69	1746.04
417.88	1790.51
418.07	1804.55
418.26	1781.15
418.45	1797.53
418.64	1961.37
418.83	1977.75
419.02	1797.53
419.21	1923.92
419.39	1874.77
419.58	1753.06
419.77	1827.96
419.96	1839.66
420.15	1893.49
420.34	1839.66
420.53	1872.43
420.72	1966.05
420.91	1872.43
421.10	2040.95
421.29	2050.31
421.48	1830.30
421.67	2026.90
421.86	2054.99
422.05	2026.90
422.24	1984.77
422.43	1996.48
422.61	1987.11
422.80	2106.48
422.99	1961.37
423.18	2066.69
423.37	2069.03
423.56	2092.44
423.75	2054.99
423.94	2022.22
424.13	1923.92
424.32	1984.77
424.50	2085.42
424.69	2122.87
424.88	2062.01
425.07	2125.21
425.26	2085.42
425.45	2132.23
425.64	1996.48
425.83	2057.33
426.01	2127.55
426.20	2073.71
426.39	2211.81
426.58	2078.40
426.77	2122.87
426.96	2101.80
427.15	2111.16
427.33	2139.25
427.52	2202.44
427.71	2237.55
427.90	2186.06
428.09	2214.15
428.28	2221.17
428.46	2202.44
428.65	2176.70
428.84	2153.29
429.03	2349.90
429.22	2251.60
429.40	2314.79
429.59	2176.70
429.78	2225.85
429.97	2139.25
430.16	2232.87
430.34	2296.07
430.53	2422.45
430.72	2352.24
430.91	2305.43
431.10	2319.47
431.28	2452.88
431.47	2399.05
431.66	2499.69
431.85	2347.56
432.03	2527.78
432.22	2597.99
432.41	2551.18
432.60	2565.23
432.79	2363.94
432.97	2527.78
433.16	2672.89
433.35	2544.16
433.54	2609.70
433.72	2586.29
433.91	2527.78
434.10	2628.42
434.28	2595.65
434.47	2511.39
434.66	2574.59
434.85	2630.76
435.03	2626.08
435.22	2574.59
435.41	2726.72
435.59	2696.30
435.78	2672.89
435.97	2700.98
436.16	2602.68
436.34	2801.62
436.53	2766.51
436.72	2839.07
436.90	2661.19
437.09	2801.62
437.28	2750.13
437.46	2712.68
437.65	2885.88
437.84	2841.41
438.02	2691.62
438.21	2757.15
438.40	2775.88
438.58	2881.20
438.77	2972.48
438.96	2869.50
439.14	2881.20
439.33	3052.06
439.52	2977.16
439.70	2949.08
439.89	3042.70
440.08	2939.71
440.26	3014.61
440.45	3077.80
440.63	3164.40
440.82	3316.54
441.01	3204.19
441.19	3171.43
441.38	3215.90
441.57	3281.43
441.75	3213.56
441.94	3407.82
442.12	3288.45
442.31	3363.35
442.50	3368.03
442.68	3314.20
442.87	3379.73
443.05	3297.81
443.24	3576.34
443.43	3372.71
443.61	3431.23
443.80	3623.15
443.98	3379.73
444.17	3274.41
444.35	3410.16
444.54	3438.25
444.73	3522.51
444.91	3639.53
445.10	3590.38
445.28	3361.01
445.47	3562.30
445.65	3475.70
445.84	3473.36
446.02	3562.30
446.21	3655.92
446.39	3611.45
446.58	3679.32
446.77	3646.55
446.95	3559.95
447.14	3651.24
447.32	3569.32
447.51	3534.21
447.69	3447.61
447.88	3578.68
448.06	3588.04
448.25	3536.55
448.43	3648.90
448.62	3599.74
448.80	3646.55
448.99	3742.52
449.17	3660.60
449.36	3644.21
449.54	3868.91
449.73	3723.79
449.91	3768.26
450.10	3896.99
450.28	3815.07
450.46	3859.54
450.65	3899.33
450.83	3871.25
451.02	3763.58
451.20	3824.44
451.39	3969.55
451.57	3850.18
451.76	3742.52
451.94	3691.02
452.13	3911.04
452.31	3990.61
452.49	3927.42
452.68	3922.74
452.86	3988.27
453.05	4002.32
453.23	3906.35
453.42	3824.44
453.60	3925.08
453.78	4018.70
453.97	3936.78
454.15	4007.00
454.34	4018.70
454.52	4124.02
454.70	4140.41
454.89	4100.62
455.07	4168.49
455.26	4145.09
455.44	4177.86
455.62	4133.39
455.81	4156.79
455.99	4184.88
456.17	4315.95
456.36	4301.90
456.54	4238.71
456.73	4390.84
456.91	4318.29
457.09	4535.96
457.28	4573.41
457.46	4447.02
457.64	4575.75
457.83	4304.25
458.01	4222.33
458.19	4533.62
458.38	4425.95
458.56	4561.70
458.74	4531.28
458.93	4397.87
459.11	4582.77
459.29	4617.88
459.48	4578.09
459.66	4643.62
459.84	4624.90
460.03	4676.39
460.21	4571.07
460.39	4652.98
460.57	4622.56
460.76	4617.88
460.94	4802.78
461.12	4655.33
461.31	4770.01
461.49	4795.76
461.67	4791.08
461.85	4917.47
462.04	4873.00
462.22	5041.51
462.40	4891.72
462.59	4992.36
462.77	4964.28
462.95	4910.44
463.13	4898.74
463.32	4917.47
463.50	4777.03
463.68	5006.41
463.86	5032.15
464.05	5029.81
464.23	4933.85
464.41	4987.68
464.59	4891.72
464.78	5074.28
464.96	5174.92
465.14	4915.12
465.32	5125.77
465.50	5317.70
465.69	5083.64
465.87	5177.26
466.05	5195.99
466.23	5114.07
466.41	5135.14
466.60	5359.83
466.78	5212.37
466.96	5177.26
467.14	5172.58
467.32	5408.98
467.51	5174.92
467.69	5123.43
467.87	5291.95
468.05	5373.87
468.23	5268.55
468.41	5352.81
468.60	5399.62
468.78	5191.31
468.96	5392.59
469.14	5441.75
469.32	5472.17
469.50	5387.91
469.69	5511.96
469.87	5542.39
470.05	5493.24
470.23	5540.05
470.41	5640.69
470.59	5631.33
470.77	5701.54
470.95	5603.24
471.14	5743.67
471.32	5535.37
471.50	5715.59
471.68	5783.46
471.86	5762.40
472.04	5795.17
472.22	5870.06
472.40	5668.78
472.58	5802.19
472.77	5832.62
472.95	5884.11
473.13	6139.23
473.31	5818.57
473.49	5799.85
473.67	5975.39
473.85	6085.39
474.03	6054.97
474.21	6136.88
474.39	6204.76
474.57	6293.70
474.75	6249.23
474.93	6429.45
475.12	6370.94
475.30	6612.01
475.48	6340.51
475.66	6394.34
475.84	6506.69
476.02	6499.67
476.20	6490.31
476.38	6754.79
476.56	6712.66
476.74	6796.92
476.92	6689.25
477.10	6677.55
477.28	6766.49
477.46	6827.34
477.64	6832.02
477.82	7042.67
478.00	7225.23
478.18	7190.13
478.36	7169.06
478.54	7208.85
478.72	7176.08
478.90	7269.70
479.08	7346.94
479.26	7459.29
479.44	7396.09
479.62	7651.21
479.80	7618.44
479.98	7723.77
480.16	7906.33
480.34	7651.21
480.52	7964.84
480.70	8037.40
480.88	7658.23
481.06	7948.46
481.24	7995.27
481.41	8013.99
481.59	8236.35
481.77	8079.53
481.95	8248.05
482.13	8217.62
482.31	8287.84
482.49	8407.20
482.67	8446.99
482.85	8674.03
483.03	8699.77
483.21	8905.74
483.39	8781.69
483.57	8737.22
483.74	8746.58
483.92	8842.54
484.10	9046.17
484.28	9146.81
484.46	9188.94
484.64	9715.56
484.82	9184.26
485.00	9341.08
485.18	9444.06
485.35	9841.95
485.53	9476.83
485.71	9631.30
485.89	9930.89
486.07	9750.67
486.25	9895.78
486.43	9980.04
486.61	9984.73
486.78	10230.48
486.96	10235.16
487.14	10347.51
487.32	10214.10
487.50	10239.84
487.68	10499.64
487.85	10420.06
488.03	10752.42
488.21	10862.43
488.39	10850.72
488.57	10881.15
488.75	11101.16
488.92	11122.23
489.10	11096.48
489.28	11243.93
489.46	11393.73
489.64	11260.32
489.81	11810.34
489.99	11669.91
490.17	11419.47
490.35	11683.95
490.53	11749.49
490.70	12166.10
490.88	12004.61
491.06	11988.22
491.24	12074.82
491.41	12154.40
491.59	12297.17
491.77	12308.88
491.95	12669.32
492.13	12629.53
492.30	12453.99
492.48	12699.75
492.66	12519.53
492.84	12863.58
493.01	12915.08
493.19	12781.67
493.37	12996.99
493.54	13362.12
493.72	13233.39
493.90	13186.58
494.08	13432.33
494.25	13453.40
494.43	13479.15
494.61	13341.05
494.79	13797.46
494.96	13884.06
495.14	13855.97
495.32	13795.12
495.49	13951.93
495.67	13977.68
495.85	13982.36
496.02	14246.84
496.20	14174.28
496.38	14202.37
496.55	14139.18
496.73	14473.87
496.91	14541.75
497.09	14733.67
497.26	14771.12
497.44	14846.02
497.62	14815.59
497.79	15033.26
497.97	14633.03
498.14	15126.88
498.32	15180.71
498.50	15225.18
498.67	15421.79
498.85	15461.58
499.03	15260.29
499.20	15374.98
499.38	15576.27
499.56	15690.95
499.73	15779.89
499.91	15822.02
500.08	15920.32
500.26	15882.88
500.44	15875.85
500.61	15882.88
500.79	15833.72
500.97	16322.90
501.14	16243.32
501.32	16343.96
501.49	16119.27
501.67	15927.35
501.84	16030.33
502.02	16346.30
502.20	16531.20
502.37	16748.87
502.55	16559.29
502.72	16500.78
502.90	16610.78
503.07	16617.80
503.25	16863.56
503.43	16524.18
503.60	16996.97
503.78	16912.71
503.95	17036.76
504.13	17186.55
504.30	17018.04
504.48	16830.79
504.65	17195.92
504.83	17390.18
505.01	17558.70
505.18	17657.00
505.36	17659.34
505.53	17336.35
505.71	17336.35
505.88	17446.35
506.06	17628.92
506.23	17980.00
506.41	17776.37
506.58	17837.22
506.76	17715.51
506.93	18174.26
507.11	17830.20
507.28	18029.15
507.46	17879.35
507.63	18251.50
507.81	18162.56
507.98	18253.84
508.16	18162.56
508.33	18462.15
508.50	18438.74
508.68	18621.30
508.85	18600.24
509.03	18389.59
509.20	18754.71
509.38	18834.29
509.55	19040.26
509.73	18890.46
509.90	18920.89
510.08	19131.54
510.25	19016.85
510.42	19126.86
510.60	18967.70
510.77	19321.12
510.95	19405.38
511.12	19176.01
511.30	19103.45
511.47	19440.49
511.64	19335.17
511.82	19681.56
511.99	19496.66
512.17	19697.95
512.34	19672.20
512.51	19625.39
512.69	19896.89
512.86	19791.57
513.04	20011.58
513.21	19964.77
513.38	19929.66
513.56	20006.90
513.73	20109.88
513.90	20105.20
514.08	19950.73
514.25	20269.04
514.43	20292.44
514.60	20400.11
514.77	20304.15
514.95	20453.94
515.12	19990.52
515.29	20166.06
515.47	20418.83
515.64	20842.47
515.81	20386.07
515.99	20601.40
516.16	20666.93
516.33	21216.96
516.51	21170.15
516.68	20790.98
516.85	20472.67
517.03	21116.31
517.20	21198.23
517.37	20971.20
517.54	21371.43
517.72	21289.51
517.89	21053.12
518.06	21341.00
518.24	21411.22
518.41	20940.77
518.58	21207.59
518.75	21322.28
518.93	21233.34
519.10	21350.37
519.27	21799.75
519.45	21598.46
519.62	21598.46
519.79	21390.16
519.96	21731.87
520.14	21642.93
520.31	21699.11
520.48	22199.98
520.65	21701.45
520.83	21977.63
521.00	21839.54
521.17	21799.75
521.34	22164.87
521.52	22319.35
521.69	22281.90
521.86	21907.41
522.03	22483.19
522.20	22288.92
522.38	22515.95
522.55	22324.03
522.72	22480.85
522.89	22656.39
523.07	22822.56
523.24	22513.61
523.41	22867.03
523.58	22307.65
523.75	22834.27
523.92	22733.62
524.10	22918.53
524.27	23112.79
524.44	23061.30
524.61	23150.24
524.78	23000.44
524.96	22965.34
525.13	23215.77
525.30	23290.67
525.47	22958.31
525.64	23410.04
525.81	23077.68
525.98	23349.18
526.16	23578.56
526.33	23122.15
526.50	23679.20
526.67	23267.27
526.84	23384.29
527.01	23239.18
527.18	23920.28
527.36	23887.51
527.53	23929.64
527.70	23962.40
527.87	23875.80
528.04	23803.25
528.21	23803.25
528.38	23934.32
528.55	23964.75
528.72	23910.91
528.89	24229.23
529.07	23997.51
529.24	24425.83
529.41	24379.02
529.58	24276.04
529.75	24142.63
529.92	24561.58
530.09	24383.70
530.26	24301.78
530.43	24032.62
530.60	24613.07
530.77	24477.32
530.94	24634.14
531.11	24542.86
531.28	24322.85
531.46	24889.26
531.63	24386.04
531.80	25069.48
531.97	24893.94
532.14	24790.95
532.31	24966.49
532.48	24849.47
532.65	24584.99
532.82	24622.44
532.99	24882.24
533.16	24687.97
533.33	24893.94
533.50	25230.98
533.67	25172.46
533.84	25113.95
534.01	25055.43
534.18	24664.57
534.35	25584.40
534.52	24971.18
534.69	25228.63
534.86	25301.19
535.03	25340.98
535.20	25488.43
535.37	25633.55
535.54	25298.85
535.71	25270.76
535.88	25490.77
536.05	25446.30
536.22	25694.40
536.38	25699.08
536.55	25610.14
536.72	25715.47
536.89	25666.31
537.06	25818.45
537.23	25818.45
537.40	25958.88
537.57	25624.18
537.74	26015.05
537.91	26033.78
538.08	25921.43
538.25	25752.91
538.42	26047.82
538.59	26223.36
538.75	25769.30
538.92	26111.02
539.09	26338.05
539.26	26015.05
539.43	26188.25
539.60	26120.38
539.77	26181.23
539.94	26143.78
540.11	26434.01
540.28	26197.62
540.44	26450.39
540.61	26174.21
540.78	26394.22
540.95	26661.04
541.12	26258.47
541.29	26387.20
541.46	26586.15
541.62	26015.05
541.79	26836.58
541.96	26515.93
542.13	26417.63
542.30	26855.31
542.47	27026.17
542.63	26574.44
542.80	26871.69
542.97	27126.81
543.14	27161.92
543.31	26962.97
543.48	27262.56
543.64	27342.14
543.81	27187.66
543.98	27482.57
544.15	27342.14
544.32	27740.03
544.48	27215.75
544.65	27274.26
544.82	27494.27
544.99	27311.71
545.16	27459.16
545.32	27068.30
545.49	27281.28
545.66	27548.11
545.83	28137.92
546.00	27599.60
546.16	27573.85
546.33	27419.38
546.50	27328.10
546.67	27365.54
546.83	27314.05
547.00	27779.82
547.17	27931.95
547.34	27777.48
547.50	27803.22
547.67	28114.52
547.84	27791.52
548.00	27983.44
548.17	28058.34
548.34	28198.77
548.51	28142.60
548.67	28016.21
548.84	28535.81
549.01	28198.77
549.18	27833.65
549.34	27735.35
549.51	27828.97
549.68	27938.97
549.84	28133.24
550.01	28582.62
550.18	27943.66
550.34	28006.85
550.51	28650.50
550.68	28664.54
550.84	28290.06
551.01	28676.24
551.18	27908.55
551.34	28224.52
551.51	28259.63
551.68	28514.75
551.84	28505.38
552.01	28327.50
552.18	28545.17
552.34	28648.16
552.51	28659.86
552.68	28533.47
552.84	28891.57
553.01	28840.08
553.18	28386.02
553.34	28914.98
553.51	28685.61
553.67	28889.23
553.84	28804.97
554.01	29132.65
554.17	28886.89
554.34	28905.62
554.51	28877.53
554.67	29106.90
554.84	28896.25
555.00	28907.96
555.17	28973.49
555.33	29050.73
555.50	29256.70
555.67	29020.30
555.83	28739.44
556.00	28856.46
556.16	29294.14
556.33	29064.77
556.50	29230.95
556.66	29139.67
556.83	28954.77
556.99	29647.57
557.16	29450.96
557.32	29163.08
557.49	29436.92
557.65	29046.05
557.82	29088.18
557.98	29340.96
558.15	29549.26
558.32	29640.54
558.48	29656.93
558.65	29640.54
558.81	29553.94
558.98	29104.56
559.14	29593.73
559.31	29343.30
559.47	29237.97
559.64	29397.13
559.80	29708.42
559.97	29336.27
560.13	29359.68
560.30	29589.05
560.46	29663.95
560.63	29790.34
560.79	29965.88
560.96	29582.03
561.12	29371.38
561.29	29762.25
561.45	29771.61
561.61	29626.50
561.78	30043.12
561.94	30012.69
562.11	30157.80
562.27	29956.52
562.44	30150.78
562.60	29860.55
562.77	30036.09
562.93	29813.74
563.10	30113.33
563.26	29916.73
563.42	30139.08
563.59	29731.83
563.75	29841.83
563.92	30087.59
564.08	29759.91
564.24	29905.02
564.41	29956.52
564.57	29795.02
564.74	30008.01
564.90	30171.85
565.07	29724.80
565.23	29886.30
565.39	29895.66
565.56	30183.55
565.72	30225.68
565.88	29900.34
566.05	29853.53
566.21	30127.38
566.38	29790.34
566.54	30132.06
566.70	30419.94
566.87	29982.26
567.03	30408.24
567.19	30529.95
567.36	30110.99
567.52	29902.68
567.68	30417.60
567.85	30335.68
568.01	30380.15
568.17	30005.67
568.34	30363.77
568.50	30373.13
568.66	30354.41
568.83	30419.94
568.99	30567.40
569.15	30335.68
569.32	30094.61
569.48	30338.02
569.64	30504.20
569.81	30274.83
569.97	30118.01
570.13	30682.08
570.30	30600.16
570.46	30192.91
570.62	30604.84
570.78	30398.88
570.95	30073.54
571.11	30450.37
571.27	30401.22
571.43	30242.06
571.60	30473.78
571.76	30623.57
571.92	30497.18
572.09	30735.92
572.25	30588.46
572.41	30522.93
572.57	30668.04
572.74	30302.92
572.90	30677.40
573.06	30614.21
573.22	30581.44
573.38	30581.44
573.55	30597.82
573.71	30801.45
573.87	31084.65
574.03	30455.05
574.20	30845.92
574.36	30359.09
574.52	30728.89
574.68	30206.95
574.84	30768.68
575.01	30581.44
575.17	30728.89
575.33	30691.44
575.49	30822.51
575.65	31009.76
575.82	30803.79
575.98	30536.97
576.14	30644.63
576.30	30555.69
576.46	30806.13
576.62	30462.07
576.79	30574.42
576.95	30459.73
577.11	30768.68
577.27	30670.38
577.43	30703.15
577.59	30724.21
577.75	30632.93
577.92	30553.35
578.08	30637.61
578.24	30574.42
578.40	30618.89
578.56	30630.59
578.72	30618.89
578.88	30988.69
579.04	31311.69
579.21	30773.36
579.37	31145.51
579.53	30967.63
579.69	30284.19
579.85	30668.04
580.01	30684.42
580.17	30848.26
580.33	30590.80
580.49	30504.20
580.65	30766.34
580.82	30801.45
580.98	30637.61
581.14	31119.76
581.30	30923.16
581.46	30466.75
581.62	30504.20
581.78	30761.66
581.94	30714.85
582.10	30527.61
582.26	31234.45
582.42	30686.76
582.58	31094.02
582.74	31084.65
582.90	31154.87
583.06	30616.55
583.22	30707.83
583.38	31044.87
583.54	31082.31
583.70	30609.53
583.86	31171.25
584.02	30848.26
584.18	31189.98
584.34	30614.21
584.50	31243.81
584.66	31290.62
584.82	30450.37
584.98	30944.22
585.14	30932.52
585.30	30609.53
585.46	30792.09
585.62	30787.41
585.78	30724.21
585.94	30909.11
586.10	30471.43
586.26	31161.89
586.42	30986.35
586.58	31028.48
586.74	31051.89
586.90	30632.93
587.06	30991.03
587.22	30773.36
587.38	30836.56
587.54	31110.40
587.70	31290.62
587.86	31517.65
588.02	31250.83
588.18	30955.93
588.34	31005.08
588.49	31213.38
588.65	30817.83
588.81	30806.13
588.97	31194.66
589.13	30735.92
589.29	30810.81
589.45	30827.20
589.61	31269.56
589.77	31644.04
589.93	31222.75
590.08	31330.41
590.24	31498.93
590.40	31442.76
590.56	31527.02
590.72	30817.83
590.88	31264.88
591.04	31005.08
591.20	31393.61
591.35	31838.31
591.51	31658.09
591.67	31784.48
591.83	31938.95
