SpectraSuite Data File
++++++++++++++++++++++++++++++++++++
Date: Fri Oct 18 13:58:30 GMT-05:00 2013
User: bianchi
Dark Spectrum Present: No
Reference Spectrum Present: No
Number of Sampled Component Spectra: 1
Spectrometers: USB2+H05261
Integration Time (usec): 50000 (USB2+H05261)
Spectra Averaged: 1 (USB2+H05261)
Boxcar Smoothing: 0 (USB2+H05261)
Correct for Electrical Dark: No (USB2+H05261)
Strobe/Lamp Enabled: No (USB2+H05261)
Correct for Detector Non-linearity: No (USB2+H05261)
Correct for Stray Light: No (USB2+H05261)
Number of Pixels in Processed Spectrum: 2048
>>>>>Begin Processed Spectral Data<<<<<
365.73	0.00
365.92	0.00
366.12	0.00
366.32	0.00
366.52	0.00
366.72	0.00
366.91	0.00
367.11	0.00
367.31	0.00
367.51	0.00
367.70	0.00
367.90	0.00
368.10	0.00
368.30	0.00
368.49	0.00
368.69	0.00
368.89	0.00
369.09	0.00
369.28	0.00
369.48	0.00
369.68	0.00
369.87	0.00
370.07	0.00
370.27	0.00
370.47	0.00
370.66	79.58
370.86	86.60
371.06	142.77
371.25	198.95
371.45	86.60
371.65	114.69
371.84	131.07
372.04	182.56
372.24	187.24
372.44	217.67
372.63	191.92
372.83	330.02
373.03	297.25
373.22	217.67
373.42	203.63
373.62	220.01
373.81	245.76
374.01	311.29
374.21	308.95
374.40	234.05
374.60	294.91
374.79	220.01
374.99	238.73
375.19	245.76
375.38	245.76
375.58	184.90
375.78	210.65
375.97	255.12
376.17	250.44
376.37	231.71
376.56	234.05
376.76	287.89
376.95	290.23
377.15	264.48
377.35	320.65
377.54	276.18
377.74	322.99
377.93	306.61
378.13	320.65
378.33	339.38
378.52	327.68
378.72	355.76
378.91	259.80
379.11	330.02
379.31	266.82
379.50	271.50
379.70	250.44
379.89	299.59
380.09	271.50
380.28	250.44
380.48	414.27
380.68	297.25
380.87	238.73
381.07	285.55
381.26	344.06
381.46	313.63
381.65	248.10
381.85	283.20
382.04	264.48
382.24	297.25
382.43	355.76
382.63	362.78
382.83	325.33
383.02	414.27
383.22	386.19
383.41	306.61
383.61	386.19
383.80	337.04
384.00	381.51
384.19	318.31
384.39	383.85
384.58	421.30
384.78	444.70
384.97	348.74
385.17	322.99
385.36	388.53
385.56	390.87
385.75	421.30
385.95	308.95
386.14	395.55
386.34	362.78
386.53	386.19
386.72	393.21
386.92	332.36
387.11	379.17
387.31	404.91
387.50	421.30
387.70	418.96
387.89	395.55
388.09	393.21
388.28	339.38
388.48	442.36
388.67	454.06
388.86	444.70
389.06	437.68
389.25	599.18
389.45	447.04
389.64	397.89
389.84	440.02
390.03	440.02
390.22	578.11
390.42	475.13
390.61	531.30
390.81	451.72
391.00	503.22
391.19	486.83
391.39	444.70
391.58	524.28
391.78	535.98
391.97	521.94
392.16	559.39
392.36	503.22
392.55	503.22
392.75	543.00
392.94	550.03
393.13	575.77
393.33	505.56
393.52	552.37
393.71	547.69
393.91	550.03
394.10	538.32
394.29	589.82
394.49	613.22
394.68	589.82
394.88	552.37
395.07	627.26
395.26	571.09
395.46	582.79
395.65	568.75
395.84	648.33
396.04	610.88
396.23	662.37
396.42	629.60
396.62	676.41
396.81	645.99
397.00	596.84
397.19	685.78
397.39	559.39
397.58	699.82
397.77	615.56
397.97	674.07
398.16	732.59
398.35	669.39
398.55	734.93
398.74	704.50
398.93	655.35
399.12	753.65
399.32	671.73
399.51	674.07
399.70	751.31
399.90	739.61
400.09	734.93
400.28	772.38
400.47	713.86
400.67	805.14
400.86	678.76
401.05	856.64
401.24	786.42
401.44	805.14
401.63	840.25
401.82	791.10
402.01	851.96
402.21	833.23
402.40	763.01
402.59	849.61
402.78	730.25
402.97	844.93
403.17	905.79
403.36	772.38
403.55	880.04
403.74	898.77
403.93	924.51
404.13	847.27
404.32	802.80
404.51	828.55
404.70	894.08
404.89	912.81
405.09	952.60
405.28	807.48
405.47	915.15
405.66	947.92
405.85	910.47
406.05	1048.56
406.24	1048.56
406.43	950.26
406.62	976.00
406.81	1137.50
407.00	966.64
407.20	915.15
407.39	1004.09
407.58	1071.97
407.77	1160.91
407.96	1076.65
408.15	1071.97
408.34	1001.75
408.54	1083.67
408.73	1001.75
408.92	1097.71
409.11	1088.35
409.30	1139.84
409.49	1139.84
409.68	1198.35
409.87	1205.38
410.07	1151.54
410.26	1153.88
410.45	1193.67
410.64	1310.70
410.83	1125.80
411.02	1270.91
411.21	1252.19
411.40	1160.91
411.59	1275.59
411.78	1212.40
411.98	1210.06
412.17	1228.78
412.36	1284.95
412.55	1198.35
412.74	1364.53
412.93	1371.55
413.12	1317.72
413.31	1479.22
413.50	1369.21
413.69	1341.13
413.88	1514.33
414.07	1350.49
414.26	1453.47
414.45	1357.51
414.64	1479.22
414.83	1490.92
415.02	1575.18
415.22	1453.47
415.41	1500.28
415.60	1409.00
415.79	1472.20
415.98	1535.39
416.17	1614.97
416.36	1544.75
416.55	1666.46
416.74	1643.06
416.93	1614.97
417.12	1535.39
417.31	1767.10
417.50	1661.78
417.69	1636.03
417.88	1753.06
418.07	1694.55
418.26	1783.49
418.45	1727.32
418.64	1732.00
418.83	1739.02
419.02	1750.72
419.21	1811.57
419.39	1867.75
419.58	1818.60
419.77	1671.14
419.96	1851.36
420.15	1926.26
420.34	1792.85
420.53	1823.28
420.72	1806.89
420.91	2059.67
421.10	1858.39
421.29	2040.95
421.48	1881.79
421.67	1879.45
421.86	1785.83
422.05	1973.07
422.24	1926.26
422.43	1898.17
422.61	1975.41
422.80	2083.08
422.99	1966.05
423.18	2024.56
423.37	1966.05
423.56	1935.62
423.75	1959.03
423.94	2024.56
424.13	1820.94
424.32	1926.26
424.50	1975.41
424.69	2008.18
424.88	2069.03
425.07	1937.96
425.26	1870.09
425.45	1975.41
425.64	1980.09
425.83	2026.90
426.01	2008.18
426.20	2026.90
426.39	2085.42
426.58	1982.43
426.77	1926.26
426.96	1982.43
427.15	2092.44
427.33	2094.78
427.52	2148.61
427.71	2256.28
427.90	2120.53
428.09	2050.31
428.28	2160.31
428.46	2188.40
428.65	2122.87
428.84	2307.77
429.03	2385.01
429.22	2179.04
429.40	2326.49
429.59	2221.17
429.78	2115.84
429.97	2141.59
430.16	2146.27
430.34	2293.72
430.53	2359.26
430.72	2244.57
430.91	2174.36
431.10	2373.30
431.28	2260.96
431.47	2387.35
431.66	2380.32
431.85	2359.26
432.03	2567.57
432.22	2459.90
432.41	2363.94
432.60	2457.56
432.79	2385.01
432.97	2537.14
433.16	2443.52
433.35	2485.65
433.54	2438.84
433.72	2471.61
433.91	2431.82
434.10	2506.71
434.28	2520.76
434.47	2597.99
434.66	2520.76
434.85	2562.89
435.03	2626.08
435.22	2415.43
435.41	2565.23
435.59	2612.04
435.78	2712.68
435.97	2546.50
436.16	2712.68
436.34	2574.59
436.53	2616.72
436.72	2698.64
436.90	2733.75
437.09	2801.62
437.28	2665.87
437.46	2548.84
437.65	2778.22
437.84	2766.51
438.02	2670.55
438.21	2803.96
438.40	2736.09
438.58	2820.35
438.77	2902.26
438.96	2918.65
439.14	2925.67
439.33	2930.35
439.52	2843.75
439.70	2958.44
439.89	3131.64
440.08	2942.05
440.26	2998.23
440.45	3047.38
440.63	3091.85
440.82	3222.92
441.01	3063.76
441.19	3176.11
441.38	3208.87
441.57	3201.85
441.75	3222.92
441.94	3166.74
442.12	3148.02
442.31	3234.62
442.50	3309.52
442.68	3318.88
442.87	3283.77
443.05	3129.30
443.24	3178.45
443.43	3377.39
443.61	3382.07
443.80	3489.74
443.98	3330.58
444.17	3206.53
444.35	3344.63
444.54	3351.65
444.73	3410.16
444.91	3389.10
445.10	3393.78
445.28	3475.70
445.47	3384.41
445.65	3433.57
445.84	3456.97
446.02	3543.57
446.21	3260.37
446.39	3372.71
446.58	3375.05
446.77	3574.00
446.95	3382.07
447.14	3431.23
447.32	3361.01
447.51	3468.67
447.69	3414.84
447.88	3583.36
448.06	3456.97
448.25	3379.73
448.43	3665.28
448.62	3541.23
448.80	3391.44
448.99	3543.57
449.17	3480.38
449.36	3424.20
449.54	3620.81
449.73	3749.54
449.91	3667.62
450.10	3618.47
450.28	3901.67
450.46	3693.37
450.65	3660.60
450.83	3777.62
451.02	3700.39
451.20	3681.66
451.39	3723.79
451.57	3751.88
451.76	3716.77
451.94	3829.12
452.13	3812.73
452.31	3971.89
452.49	3667.62
452.68	3770.60
452.86	3768.26
453.05	3922.74
453.23	3829.12
453.42	3857.20
453.60	3784.65
453.78	3798.69
453.97	3754.22
454.15	3899.33
454.34	3822.09
454.52	3915.72
454.70	3906.35
454.89	3955.51
455.07	4002.32
455.26	4004.66
455.44	4049.13
455.62	4102.96
455.81	4119.34
455.99	4114.66
456.17	4065.51
456.36	4182.54
456.54	4100.62
456.73	4051.47
456.91	4273.82
457.09	4180.20
457.28	4208.28
457.46	4379.14
457.64	4238.71
457.83	4241.05
458.01	4297.22
458.19	4189.56
458.38	4294.88
458.56	4341.69
458.74	4423.61
458.93	4325.31
459.11	4489.15
459.29	4400.21
459.48	4351.06
459.66	4418.93
459.84	4547.66
460.03	4479.79
460.21	4407.23
460.39	4521.92
460.57	4440.00
460.76	4465.74
460.94	4622.56
461.12	4550.00
461.31	4458.72
461.49	4575.75
461.67	4587.45
461.85	4741.93
462.04	4582.77
462.22	4688.09
462.40	4781.71
462.59	4720.86
462.77	4821.50
462.95	4865.97
463.13	4774.69
463.32	4610.86
463.50	4681.07
463.68	4805.12
463.86	4748.95
464.05	4758.31
464.23	4807.46
464.41	4912.78
464.59	4861.29
464.78	4931.51
464.96	4816.82
465.14	4800.44
465.32	4945.55
465.50	5025.13
465.69	4985.34
465.87	4835.55
466.05	4830.87
466.23	5036.83
466.41	4997.04
466.60	5076.62
466.78	5043.85
466.96	4884.70
467.14	4990.02
467.32	4919.81
467.51	5163.22
467.69	5083.64
467.87	5071.94
468.05	5158.54
468.23	5057.90
468.41	5130.45
468.60	5193.65
468.78	5282.59
468.96	5121.09
469.14	5181.95
469.32	5151.52
469.50	5156.20
469.69	5352.81
469.87	5235.78
470.05	5378.55
470.23	5277.91
470.41	5387.91
470.59	5413.66
470.77	5313.02
470.95	5521.32
471.14	5385.57
471.32	5626.65
471.50	5523.66
471.68	5387.91
471.86	5689.84
472.04	5385.57
472.22	5628.99
472.40	5460.47
472.58	5753.04
472.77	5645.37
472.95	5785.80
473.13	5991.77
473.31	5731.97
473.49	5685.16
473.67	5750.70
473.85	5940.28
474.03	6036.24
474.21	6064.33
474.39	6043.26
474.57	6005.81
474.75	6073.69
474.93	6064.33
475.12	6160.29
475.30	6289.02
475.48	6132.20
475.66	6202.42
475.84	6197.74
476.02	6354.55
476.20	6401.37
476.38	6436.47
476.56	6492.65
476.74	6387.32
476.92	6560.52
477.10	6375.62
477.28	6539.46
477.46	6597.97
477.64	6649.46
477.82	6726.70
478.00	6876.49
478.18	6799.26
478.36	6857.77
478.54	7007.56
478.72	6883.52
478.90	7045.01
479.08	7066.08
479.26	7080.12
479.44	7258.00
479.62	7091.82
479.80	7318.86
479.98	7377.37
480.16	7576.31
480.34	7426.52
480.52	7398.43
480.70	7524.82
480.88	7414.82
481.06	7576.31
481.24	7459.29
481.41	7789.30
481.59	7829.09
481.77	7864.20
481.95	8044.42
482.13	7894.63
482.31	8025.70
482.49	8210.60
482.67	8147.40
482.85	8229.32
483.03	8248.05
483.21	8470.40
483.39	8313.58
483.57	8496.14
483.74	8531.25
483.92	8706.79
484.10	8648.28
484.28	8837.86
484.46	8802.75
484.64	9055.53
484.82	8947.87
485.00	8793.39
485.18	9266.18
485.35	9378.53
485.53	9277.88
485.71	9362.14
485.89	9373.85
486.07	9399.59
486.25	9509.60
486.43	9565.77
486.61	9453.42
486.78	9692.16
486.96	9809.19
487.14	10136.86
487.32	9727.27
487.50	10040.90
487.68	9893.44
487.85	10169.63
488.03	10410.70
488.21	10661.14
488.39	10511.35
488.57	10396.66
488.75	10436.45
488.92	10796.89
489.10	10839.02
489.28	10881.15
489.46	10836.68
489.64	11030.94
489.81	11033.29
489.99	11112.86
490.17	11101.16
490.35	11356.28
490.53	11398.41
490.70	11569.27
490.88	11456.92
491.06	11543.52
491.24	11566.93
491.41	11815.02
491.59	11786.94
491.77	12016.31
491.95	11974.18
492.13	12046.74
492.30	12074.82
492.48	12119.29
492.66	12311.22
492.84	12212.92
493.01	12446.97
493.19	12580.38
493.37	12573.36
493.54	12547.61
493.72	12662.30
493.90	12854.22
494.08	12753.58
494.25	12828.48
494.43	13165.51
494.61	12889.33
494.79	13282.54
494.96	13193.60
495.14	13228.71
495.32	13404.25
495.49	13380.84
495.67	13331.69
495.85	13666.39
496.02	13839.59
496.20	13734.26
496.38	13891.08
496.55	13502.55
496.73	14169.60
496.91	13748.31
497.09	14272.59
497.26	14017.47
497.44	14244.50
497.62	14146.20
497.79	14244.50
497.97	14377.91
498.14	14618.99
498.32	14663.46
498.50	14616.65
498.67	14902.19
498.85	14733.67
499.03	14885.81
499.20	14796.87
499.38	15026.24
499.56	14941.98
499.73	15094.11
499.91	15452.22
500.08	15044.96
500.26	15033.26
500.44	15157.31
500.61	15150.29
500.79	15529.45
500.97	15428.81
501.14	15688.61
501.32	15665.21
501.49	15611.37
501.67	15644.14
501.84	15559.88
502.02	15662.86
502.20	15733.08
502.37	15957.77
502.55	15747.12
502.72	15910.96
502.90	15733.08
503.07	15873.51
503.25	16203.53
503.43	16320.56
503.60	16271.40
503.78	16638.87
503.95	16217.57
504.13	16269.06
504.30	16339.28
504.48	16673.98
504.65	16683.34
504.83	16699.72
505.01	16877.60
505.18	16910.37
505.36	16718.45
505.53	16641.21
505.71	16823.77
505.88	17153.79
506.06	17043.78
506.23	17142.08
506.41	16996.97
506.58	17205.28
506.76	17060.16
506.93	17205.28
507.11	17376.14
507.28	17261.45
507.46	17128.04
507.63	17488.48
507.81	17614.87
507.98	17507.21
508.16	17685.09
508.33	17776.37
508.50	17521.25
508.68	17689.77
508.85	17879.35
509.03	17762.33
509.20	17774.03
509.38	18190.64
509.55	18298.31
509.73	17895.74
509.90	17750.62
510.08	18342.78
510.25	18115.75
510.42	18473.85
510.60	18398.95
510.77	18420.02
510.95	18487.89
511.12	18462.15
511.30	18469.17
511.47	18714.92
511.64	18663.43
511.82	18705.56
511.99	18799.18
512.17	19028.56
512.34	18881.10
512.51	18824.93
512.69	19225.16
512.86	18988.77
513.04	19199.41
513.21	19178.35
513.38	19288.35
513.56	19360.91
513.73	19152.60
513.90	19304.74
514.08	18993.45
514.25	19616.03
514.43	19779.87
514.60	19744.76
514.77	19716.67
514.95	19616.03
515.12	19639.44
515.29	19583.26
515.47	19756.46
515.64	19880.51
515.81	19609.01
515.99	20088.82
516.16	19665.18
516.33	20194.14
516.51	20074.77
516.68	20095.84
516.85	20243.29
517.03	20116.90
517.20	20264.36
517.37	20360.32
517.54	20100.52
517.72	20446.92
517.89	20374.36
518.06	20327.55
518.24	20435.22
518.41	20606.08
518.58	20559.27
518.75	20365.00
518.93	20783.96
519.10	20800.34
519.27	20437.56
519.45	20500.75
519.62	21338.66
519.79	20709.06
519.96	21116.31
520.14	21156.10
520.31	20798.00
520.48	21048.44
520.65	20788.64
520.83	21041.42
521.00	21137.38
521.17	21380.79
521.34	21324.62
521.52	21273.13
521.69	21319.94
521.86	21390.16
522.03	21820.81
522.20	21556.33
522.38	21537.61
522.55	21687.40
522.72	21493.14
522.89	21305.90
523.07	21675.70
523.24	21853.58
523.41	22024.44
523.58	21841.88
523.75	22024.44
523.92	21685.06
524.10	21706.13
524.27	21958.91
524.44	22267.86
524.61	22293.60
524.78	22045.51
524.96	22513.61
525.13	22221.05
525.30	22113.38
525.47	22314.67
525.64	22160.19
525.81	22356.80
525.98	22436.38
526.16	22408.29
526.33	22307.65
526.50	22970.02
526.67	22555.74
526.84	22441.06
527.01	22583.83
527.18	22665.75
527.36	22850.65
527.53	22757.03
527.70	23044.91
527.87	22740.64
528.04	23068.32
528.21	22981.72
528.38	23023.85
528.55	22558.08
528.72	22937.25
528.89	23325.78
529.07	22974.70
529.24	23396.00
529.41	22881.08
529.58	23166.62
529.75	23161.94
529.92	23388.97
530.09	23159.60
530.26	23456.85
530.43	23234.50
530.60	23344.50
530.77	23328.12
530.94	23852.40
531.11	23428.76
531.28	23211.09
531.46	23370.25
531.63	23346.84
531.80	23892.19
531.97	24006.87
532.14	23953.04
532.31	23707.29
532.48	23445.15
532.65	23931.98
532.82	23777.50
532.99	23714.31
533.16	23941.34
533.33	24135.60
533.50	24088.79
533.67	24093.47
533.84	23990.49
534.01	23899.21
534.18	23814.95
534.35	24423.49
534.52	24245.61
534.69	24339.23
534.86	24367.32
535.03	24163.69
535.20	24137.94
535.37	24474.98
535.54	24400.08
535.71	24444.56
535.88	24781.59
536.05	24306.46
536.22	24575.62
536.38	24652.86
536.55	24694.99
536.72	24680.95
536.89	24566.26
537.06	24659.88
537.23	24521.79
537.40	24856.49
537.57	25050.75
537.74	24734.78
537.91	25050.75
538.08	25223.95
538.25	24966.49
538.42	25263.74
538.59	25345.66
538.75	24767.55
538.92	25235.66
539.09	25022.67
539.26	25284.81
539.43	25219.27
539.60	25193.53
539.77	25233.32
539.94	25099.90
540.11	25378.43
540.28	25413.54
540.44	25432.26
540.61	25357.36
540.78	24905.64
540.95	25617.16
541.12	25495.46
541.29	25483.75
541.46	25322.26
541.62	25687.38
541.79	25591.42
541.96	25116.29
542.13	25525.88
542.30	25462.69
542.47	25717.81
542.63	26047.82
542.80	25582.06
542.97	26096.97
543.14	25706.10
543.31	25869.94
543.48	25507.16
543.64	25785.68
543.81	26188.25
543.98	26129.74
544.15	26059.52
544.32	26462.10
544.48	26326.35
544.65	26146.12
544.82	26405.92
544.99	26066.55
545.16	26080.59
545.32	26167.19
545.49	26307.62
545.66	26419.97
545.83	26588.49
546.00	26803.82
546.16	26434.01
546.33	26279.54
546.50	26415.29
546.67	26555.72
546.83	26387.20
547.00	26342.73
547.17	26235.06
547.34	26820.20
547.50	26419.97
547.67	26754.66
547.84	26782.75
548.00	26724.24
548.17	26857.65
548.34	26515.93
548.51	26764.03
548.67	26934.88
548.84	26916.16
549.01	26941.91
549.18	26916.16
549.34	26864.67
549.51	26565.08
549.68	26916.16
549.84	26923.18
550.01	27087.02
550.18	26855.31
550.34	27131.49
550.51	27269.58
550.68	27206.39
550.84	26855.31
551.01	27285.97
551.18	27260.22
551.34	26721.90
551.51	26941.91
551.68	27325.75
551.84	27349.16
552.01	27562.15
552.18	27136.17
552.34	27292.99
552.51	27543.42
552.68	27129.15
552.84	27426.40
553.01	27199.37
553.18	27772.80
553.34	27583.21
553.51	27494.27
553.67	27309.37
553.84	27957.70
554.01	27585.55
554.17	27800.88
554.34	27513.00
554.51	27578.53
554.67	27646.41
554.84	27461.51
555.00	27704.92
555.17	27466.19
555.33	28072.39
555.50	27538.74
555.67	28037.28
555.83	27819.61
556.00	27531.72
556.16	28273.67
556.33	28112.17
556.50	28044.30
556.66	28121.54
556.83	28011.53
556.99	28444.53
557.16	28156.64
557.32	28109.83
557.49	28126.22
557.65	27725.99
557.82	28018.55
557.98	28161.33
558.15	27985.79
558.32	28114.52
558.48	28128.56
558.65	28414.10
558.81	28039.62
558.98	28095.79
559.14	28254.95
559.31	27988.13
559.47	28238.56
559.64	28205.80
559.80	28570.92
559.97	28589.64
560.13	28144.94
560.30	28577.94
560.46	28271.33
560.63	28379.00
560.79	28168.35
560.96	28591.98
561.12	28287.71
561.29	28194.09
561.45	28067.70
561.61	28666.88
561.78	28622.41
561.94	28561.56
562.11	28563.90
562.27	28329.84
562.44	28577.94
562.60	28325.16
562.77	28929.02
562.93	28491.34
563.10	28601.35
563.26	28662.20
563.42	28964.13
563.59	28491.34
563.75	28582.62
563.92	28774.55
564.08	28652.84
564.24	28357.93
564.41	28758.16
564.57	28718.37
564.74	28395.38
564.90	28556.88
565.07	28671.56
565.23	28788.59
565.39	28615.39
565.56	28641.14
565.72	28776.89
565.88	28933.70
566.05	28685.61
566.21	28716.03
566.38	28854.12
566.54	28961.79
566.70	28821.36
566.87	28917.32
567.03	29165.42
567.19	28985.19
567.36	28961.79
567.52	28833.06
567.68	29329.25
567.85	28573.26
568.01	29053.07
568.17	28779.23
568.34	28987.53
568.50	28903.28
568.66	28683.27
568.83	29137.33
568.99	29186.48
569.15	28734.76
569.32	28840.08
569.48	28692.63
569.64	28945.41
569.81	29116.26
569.97	28992.22
570.13	29254.36
570.30	28968.81
570.46	29577.35
570.62	28833.06
570.78	28709.01
570.95	28741.78
571.11	29174.78
571.27	28994.56
571.43	28807.31
571.60	29198.18
571.76	29120.95
571.92	28842.42
572.09	29303.51
572.25	29474.37
572.41	29345.64
572.57	29163.08
572.74	29177.12
572.90	29226.27
573.06	28968.81
573.22	29008.60
573.38	29092.86
573.55	28943.06
573.71	29329.25
573.87	29329.25
574.03	29357.34
574.20	29303.51
574.36	28858.81
574.52	29359.68
574.68	28968.81
574.84	29130.31
575.01	29156.05
575.17	29347.98
575.33	29331.59
575.49	28973.49
575.65	29252.02
575.82	29249.67
575.98	29525.86
576.14	29259.04
576.30	29305.85
576.46	29083.50
576.62	29132.65
576.79	29457.98
576.95	29347.98
577.11	28903.28
577.27	29104.56
577.43	29198.18
577.59	29132.65
577.75	29193.50
577.92	29284.78
578.08	29071.79
578.24	29441.60
578.40	29296.49
578.56	29734.17
578.72	29064.77
578.88	29741.19
579.04	29530.54
579.21	29537.56
579.37	29441.60
579.53	29174.78
579.69	29284.78
579.85	29188.82
580.01	29142.01
580.17	29371.38
580.33	29401.81
580.49	29130.31
580.65	29127.97
580.82	29427.56
580.98	29455.64
581.14	29694.38
581.30	29509.47
581.46	29209.89
581.62	29465.00
581.78	29013.28
581.94	29579.69
582.10	29158.39
582.26	29481.39
582.42	29472.03
582.58	29472.03
582.74	29076.48
582.90	29537.56
583.06	29385.43
583.22	29626.50
583.38	29514.16
583.54	29572.67
583.70	29427.56
583.86	29694.38
584.02	29280.10
584.18	29315.21
584.34	29427.56
584.50	29551.60
584.66	29771.61
584.82	29394.79
584.98	29605.44
585.14	29364.36
585.30	29130.31
585.46	29535.22
585.62	29411.17
585.78	30101.63
585.94	29579.69
586.10	29591.39
586.26	29692.04
586.42	29841.83
586.58	29380.74
586.74	29125.63
586.90	29247.33
587.06	29312.87
587.22	29465.00
587.38	29640.54
587.54	29558.63
587.70	30015.03
587.86	29249.67
588.02	29713.10
588.18	29825.45
588.34	29631.18
588.49	29670.97
588.65	29661.61
588.81	29699.06
588.97	29933.11
589.13	29575.01
589.29	29692.04
589.45	29614.80
589.61	29872.26
589.77	29745.87
589.93	29858.21
590.08	30103.97
590.24	29816.08
590.40	29397.13
590.56	30150.78
590.72	29586.71
590.88	29303.51
591.04	29696.72
591.20	29720.12
591.35	30024.39
591.51	30204.61
591.67	29675.65
591.83	29921.41
591.99	29596.07
