SpectraSuite Data File
++++++++++++++++++++++++++++++++++++
Date: Fri Oct 18 13:58:39 GMT-05:00 2013
User: bianchi
Dark Spectrum Present: No
Reference Spectrum Present: No
Number of Sampled Component Spectra: 1
Spectrometers: USB2+H05261
Integration Time (usec): 50000 (USB2+H05261)
Spectra Averaged: 1 (USB2+H05261)
Boxcar Smoothing: 0 (USB2+H05261)
Correct for Electrical Dark: No (USB2+H05261)
Strobe/Lamp Enabled: No (USB2+H05261)
Correct for Detector Non-linearity: No (USB2+H05261)
Correct for Stray Light: No (USB2+H05261)
Number of Pixels in Processed Spectrum: 2048
>>>>>Begin Processed Spectral Data<<<<<
365.73	0.00
365.92	0.00
366.12	0.00
366.32	0.00
366.52	0.00
366.72	0.00
366.91	0.00
367.11	0.00
367.31	0.00
367.51	0.00
367.70	0.00
367.90	0.00
368.10	0.00
368.30	0.00
368.49	0.00
368.69	0.00
368.89	0.00
369.09	0.00
369.28	0.00
369.48	0.00
369.68	0.00
369.87	0.00
370.07	0.00
370.27	9.36
370.47	0.00
370.66	51.49
370.86	166.18
371.06	124.05
371.25	208.31
371.45	72.56
371.65	124.05
371.84	140.43
372.04	107.66
372.24	114.69
372.44	168.52
372.63	196.60
372.83	222.35
373.03	231.71
373.22	182.56
373.42	196.60
373.62	220.01
373.81	212.99
374.01	236.39
374.21	250.44
374.40	262.14
374.60	283.20
374.79	217.67
374.99	198.95
375.19	220.01
375.38	224.69
375.58	297.25
375.78	252.78
375.97	243.42
376.17	273.84
376.37	285.55
376.56	210.65
376.76	297.25
376.95	271.50
377.15	273.84
377.35	252.78
377.54	294.91
377.74	271.50
377.93	259.80
378.13	299.59
378.33	327.68
378.52	297.25
378.72	264.48
378.91	227.03
379.11	301.93
379.31	358.10
379.50	313.63
379.70	360.44
379.89	477.47
380.09	294.91
380.28	248.10
380.48	285.55
380.68	248.10
380.87	393.21
381.07	322.99
381.26	330.02
381.46	341.72
381.65	322.99
381.85	339.38
382.04	339.38
382.24	285.55
382.43	292.57
382.63	325.33
382.83	418.96
383.02	351.08
383.22	372.15
383.41	358.10
383.61	383.85
383.80	353.42
384.00	379.17
384.19	423.64
384.39	428.32
384.58	390.87
384.78	400.23
384.97	381.51
385.17	358.10
385.36	369.80
385.56	395.55
385.75	381.51
385.95	409.59
386.14	465.77
386.34	421.30
386.53	315.97
386.72	344.06
386.92	442.36
387.11	475.13
387.31	440.02
387.50	362.78
387.70	360.44
387.89	440.02
388.09	365.12
388.28	369.80
388.48	397.89
388.67	458.74
388.86	484.49
389.06	463.43
389.25	458.74
389.45	505.56
389.64	465.77
389.84	465.77
390.03	496.19
390.22	507.90
390.42	479.81
390.61	428.32
390.81	451.72
391.00	486.83
391.19	538.32
391.39	503.22
391.58	444.70
391.78	484.49
391.97	585.13
392.16	557.05
392.36	461.09
392.55	510.24
392.75	606.20
392.94	524.28
393.13	528.96
393.33	454.06
393.52	465.77
393.71	547.69
393.91	519.60
394.10	547.69
394.29	681.10
394.49	507.90
394.68	524.28
394.88	557.05
395.07	610.88
395.26	540.66
395.46	615.56
395.65	589.82
395.84	624.92
396.04	702.16
396.23	660.03
396.42	657.69
396.62	650.67
396.81	638.97
397.00	608.54
397.19	643.65
397.39	650.67
397.58	655.35
397.77	664.71
397.97	636.63
398.16	734.93
398.35	702.16
398.55	624.92
398.74	720.88
398.93	734.93
399.12	704.50
399.32	587.47
399.51	648.33
399.70	706.84
399.90	788.76
400.09	748.97
400.28	711.52
400.47	730.25
400.67	730.25
400.86	720.88
401.05	746.63
401.24	748.97
401.44	809.83
401.63	741.95
401.82	873.02
402.01	823.87
402.21	784.08
402.40	758.33
402.59	861.32
402.78	837.91
402.97	870.68
403.17	777.06
403.36	898.77
403.55	950.26
403.74	903.45
403.93	847.27
404.13	973.66
404.32	931.53
404.51	816.85
404.70	999.41
404.89	933.87
405.09	978.34
405.28	1006.43
405.47	926.85
405.66	1013.45
405.85	945.58
406.05	1001.75
406.24	1020.47
406.43	1032.18
406.62	1025.15
406.81	964.30
407.00	994.73
407.20	978.34
407.39	1036.86
407.58	1111.75
407.77	1090.69
407.96	1043.88
408.15	1100.05
408.34	1013.45
408.54	1064.94
408.73	1064.94
408.92	1081.33
409.11	1139.84
409.30	1032.18
409.49	1107.07
409.68	1153.88
409.87	1207.72
410.07	1142.18
410.26	1198.35
410.45	1158.57
410.64	1172.61
410.83	1214.74
411.02	1198.35
411.21	1263.89
411.40	1226.44
411.59	1273.25
411.78	1160.91
411.98	1245.16
412.17	1303.68
412.36	1228.78
412.55	1299.00
412.74	1357.51
412.93	1413.68
413.12	1369.21
413.31	1423.05
413.50	1371.55
413.69	1409.00
413.88	1383.26
414.07	1460.49
414.26	1441.77
414.45	1446.45
414.64	1460.49
414.83	1495.60
415.02	1472.20
415.22	1579.86
415.41	1537.73
415.60	1490.92
415.79	1589.22
415.98	1633.69
416.17	1486.24
416.36	1549.43
416.55	1596.25
416.74	1582.20
416.93	1657.10
417.12	1685.19
417.31	1703.91
417.50	1710.93
417.69	1673.48
417.88	1640.72
418.07	1610.29
418.26	1781.15
418.45	1643.06
418.64	1806.89
418.83	1811.57
419.02	1776.47
419.21	1827.96
419.39	1797.53
419.58	1771.79
419.77	1708.59
419.96	1825.62
420.15	1853.70
420.34	1851.36
420.53	1916.90
420.72	1813.92
420.91	1935.62
421.10	1898.17
421.29	1923.92
421.48	1956.69
421.67	1944.99
421.86	1914.56
422.05	1991.80
422.24	1940.30
422.43	2001.16
422.61	1907.54
422.80	2059.67
422.99	2024.56
423.18	2083.08
423.37	2076.06
423.56	2062.01
423.75	1898.17
423.94	2017.54
424.13	1846.68
424.32	2036.27
424.50	2003.50
424.69	2115.84
424.88	2045.63
425.07	1966.05
425.26	2001.16
425.45	1973.07
425.64	2076.06
425.83	1930.94
426.01	2115.84
426.20	1966.05
426.39	2094.78
426.58	2033.93
426.77	2052.65
426.96	2132.23
427.15	2125.21
427.33	2148.61
427.52	2125.21
427.71	2148.61
427.90	2202.44
428.09	2099.46
428.28	2122.87
428.46	2132.23
428.65	2125.21
428.84	2300.75
429.03	2221.17
429.22	2211.81
429.40	2296.07
429.59	2267.98
429.78	2155.63
429.97	2136.91
430.16	2165.00
430.34	2235.21
430.53	2277.34
430.72	2342.88
430.91	2256.28
431.10	2244.57
431.28	2289.04
431.47	2331.17
431.66	2431.82
431.85	2326.49
432.03	2399.05
432.22	2424.80
432.41	2328.83
432.60	2544.16
432.79	2279.68
432.97	2539.48
433.16	2417.77
433.35	2406.07
433.54	2499.69
433.72	2562.89
433.91	2408.41
434.10	2527.78
434.28	2579.27
434.47	2567.57
434.66	2607.36
434.85	2546.50
435.03	2546.50
435.22	2525.44
435.41	2612.04
435.59	2635.44
435.78	2602.68
435.97	2649.49
436.16	2523.10
436.34	2761.83
436.53	2780.56
436.72	2642.46
436.90	2523.10
437.09	2736.09
437.28	2644.81
437.46	2722.04
437.65	2698.64
437.84	2719.70
438.02	2712.68
438.21	2679.91
438.40	2719.70
438.58	2825.03
438.77	2918.65
438.96	2759.49
439.14	2974.82
439.33	2953.76
439.52	2953.76
439.70	2869.50
439.89	3082.49
440.08	3063.76
440.26	3023.97
440.45	3148.02
440.63	3002.91
440.82	3131.64
441.01	3000.57
441.19	3068.44
441.38	3124.62
441.57	3152.70
441.75	3023.97
441.94	3302.50
442.12	3213.56
442.31	3276.75
442.50	3229.94
442.68	3300.16
442.87	3124.62
443.05	3314.20
443.24	3386.76
443.43	3297.81
443.61	3276.75
443.80	3480.38
443.98	3314.20
444.17	3297.81
444.35	3391.44
444.54	3424.20
444.73	3520.17
444.91	3363.35
445.10	3412.50
445.28	3471.01
445.47	3368.03
445.65	3426.54
445.84	3325.90
446.02	3449.95
446.21	3382.07
446.39	3410.16
446.58	3431.23
446.77	3389.10
446.95	3442.93
447.14	3456.97
447.32	3442.93
447.51	3559.95
447.69	3503.78
447.88	3417.18
448.06	3492.08
448.25	3520.17
448.43	3372.71
448.62	3639.53
448.80	3445.27
448.99	3433.57
449.17	3473.36
449.36	3463.99
449.54	3566.98
449.73	3695.71
449.91	3726.13
450.10	3665.28
450.28	3693.37
450.46	3684.00
450.65	3604.42
450.83	3698.05
451.02	3796.35
451.20	3786.99
451.39	3688.68
451.57	3686.34
451.76	3733.15
451.94	3737.84
452.13	3948.48
452.31	3843.16
452.49	3873.59
452.68	3852.52
452.86	3854.86
453.05	3833.80
453.23	4044.45
453.42	3922.74
453.60	3880.61
453.78	3824.44
453.97	3810.39
454.15	3906.35
454.34	3726.13
454.52	3908.69
454.70	3861.88
454.89	4058.49
455.07	4060.83
455.26	4060.83
455.44	3955.51
455.62	4030.40
455.81	4147.43
455.99	4032.74
456.17	4170.83
456.36	4067.85
456.54	4292.54
456.73	4252.75
456.91	4339.35
457.09	4339.35
457.28	4358.08
457.46	4332.33
457.64	4477.44
457.83	4196.58
458.01	4269.14
458.19	4428.29
458.38	4299.56
458.56	4379.14
458.74	4447.02
458.93	4318.29
459.11	4215.30
459.29	4278.50
459.48	4278.50
459.66	4432.97
459.84	4456.38
460.03	4414.25
460.21	4620.22
460.39	4468.08
460.57	4435.32
460.76	4477.44
460.94	4648.30
461.12	4580.43
461.31	4596.81
461.49	4545.32
461.67	4706.82
461.85	4575.75
462.04	4535.96
462.22	4964.28
462.40	4891.72
462.59	4767.67
462.77	4667.03
462.95	4858.95
463.13	4704.48
463.32	4926.83
463.50	4762.99
463.68	4884.70
463.86	4755.97
464.05	4683.41
464.23	4933.85
464.41	4884.70
464.59	4807.46
464.78	5006.41
464.96	4877.68
465.14	4844.91
465.32	4933.85
465.50	5060.24
465.69	4924.49
465.87	4884.70
466.05	4964.28
466.23	4926.83
466.41	5050.88
466.60	5125.77
466.78	4929.17
466.96	4968.96
467.14	5221.74
467.32	4933.85
467.51	5043.85
467.69	5022.79
467.87	5191.31
468.05	4987.68
468.23	5097.69
468.41	4987.68
468.60	5121.09
468.78	5179.61
468.96	5149.18
469.14	5224.08
469.32	5338.76
469.50	4994.70
469.69	5371.53
469.87	5324.72
470.05	5432.38
470.23	5397.28
470.41	5500.26
470.59	5373.87
470.77	5430.04
470.95	5270.89
471.14	5680.48
471.32	5432.38
471.50	5568.13
471.68	5544.73
471.86	5490.90
472.04	5619.63
472.22	5839.64
472.40	5640.69
472.58	5771.76
472.77	5703.89
472.95	5856.02
473.13	5834.96
473.31	5729.63
473.49	5792.83
473.67	5736.65
473.85	5914.53
474.03	5877.09
474.21	5975.39
474.39	6017.52
474.57	5893.47
474.75	6167.31
474.93	6115.82
475.12	6019.86
475.30	6129.86
475.48	6054.97
475.66	6057.31
475.84	6244.55
476.02	6394.34
476.20	6314.77
476.38	6492.65
476.56	6441.15
476.74	6551.16
476.92	6373.28
477.10	6502.01
477.28	6644.78
477.46	6502.01
477.64	6614.35
477.82	6813.30
478.00	6881.18
478.18	6892.88
478.36	7037.99
478.54	6892.88
478.72	6984.16
478.90	7218.21
479.08	7159.70
479.26	7037.99
479.44	7323.54
479.62	7379.71
479.80	7325.88
479.98	7377.37
480.16	7438.22
480.34	7368.01
480.52	7653.55
480.70	7801.01
480.88	7651.21
481.06	7595.04
481.24	7597.38
481.41	7740.15
481.59	7859.52
481.77	7878.24
481.95	8189.53
482.13	8154.43
482.31	8028.04
482.49	8234.00
482.67	8177.83
482.85	8301.88
483.03	8187.19
483.21	8545.30
483.39	8667.00
483.57	8290.18
483.74	8552.32
483.92	8793.39
484.10	8674.03
484.28	8798.07
484.46	8884.67
484.64	9001.70
484.82	9067.24
485.00	9062.55
485.18	9156.18
485.35	9322.35
485.53	9261.50
485.71	9317.67
485.89	9511.94
486.07	9420.66
486.25	9523.64
486.43	9455.76
486.61	9631.30
486.78	9909.83
486.96	9888.76
487.14	9909.83
487.32	9895.78
487.50	10066.64
487.68	10022.17
487.85	10354.53
488.03	10434.11
488.21	10600.29
488.39	10340.49
488.57	10452.83
488.75	10541.77
488.92	10663.48
489.10	10712.63
489.28	10574.54
489.46	11007.54
489.64	10974.77
489.81	11204.14
489.99	11194.78
490.17	11236.91
490.35	11454.58
490.53	11538.84
490.70	11604.38
490.88	11522.46
491.06	11655.87
491.24	11868.86
491.41	11903.96
491.59	11896.94
491.77	12009.29
491.95	12037.38
492.13	12154.40
492.30	11992.90
492.48	12236.32
492.66	12175.47
492.84	12439.95
493.01	12407.18
493.19	12652.94
493.37	12767.62
493.54	12755.92
493.72	12669.32
493.90	12666.98
494.08	13004.02
494.25	12872.95
494.43	13064.87
494.61	13401.91
494.79	13107.00
494.96	13046.15
495.14	13172.54
495.32	13516.59
495.49	13303.60
495.67	13469.78
495.85	13717.88
496.02	13865.33
496.20	13841.93
496.38	13745.97
496.55	13708.52
496.73	13989.38
496.91	13944.91
497.09	13977.68
497.26	14469.19
497.44	14094.71
497.62	14115.77
497.79	14452.81
497.97	14408.34
498.14	14525.36
498.32	14993.47
498.50	14794.53
498.67	14853.04
498.85	14703.25
499.03	15042.62
499.20	14993.47
499.38	14902.19
499.56	15229.87
499.73	15269.66
499.91	15047.30
500.08	15286.04
500.26	15138.58
500.44	15183.06
500.61	15279.02
500.79	15260.29
500.97	15660.52
501.14	15641.80
501.32	15943.73
501.49	15742.44
501.67	15716.70
501.84	16205.87
502.02	15735.42
502.20	16137.99
502.37	15831.38
502.55	16194.17
502.72	15925.00
502.90	15995.22
503.07	15819.68
503.25	16009.26
503.43	16395.45
503.60	16177.78
503.78	16540.57
503.95	16367.37
504.13	16503.12
504.30	16634.19
504.48	16718.45
504.65	16589.72
504.83	16978.25
505.01	16772.28
505.18	16826.11
505.36	17048.46
505.53	16783.98
505.71	16922.07
505.88	16943.14
506.06	16865.90
506.23	17436.99
506.41	17156.13
506.58	17343.37
506.76	17525.93
506.93	17425.29
507.11	17287.20
507.28	17301.24
507.46	17685.09
507.63	17453.37
507.81	17657.00
507.98	17788.07
508.16	17565.72
508.33	17935.53
508.50	17879.35
508.68	17942.55
508.85	17790.41
509.03	17970.63
509.20	17914.46
509.38	18256.18
509.55	18654.07
509.73	18031.49
509.90	18288.95
510.08	18155.54
510.25	18228.09
510.42	18242.14
510.60	18478.53
510.77	18534.70
510.95	18476.19
511.12	18483.21
511.30	18857.70
511.47	18515.98
511.64	18628.32
511.82	18845.99
511.99	18881.10
512.17	18583.85
512.34	18845.99
512.51	19129.20
512.69	19042.60
512.86	18801.52
513.04	19239.20
513.21	19304.74
513.38	19407.72
513.56	19400.70
513.73	19412.40
513.90	19173.67
514.08	19442.83
514.25	19573.90
514.43	19583.26
514.60	19822.00
514.77	19857.10
514.95	20072.43
515.12	19744.76
515.29	19740.08
515.47	19920.30
515.64	19674.54
515.81	19917.96
515.99	19894.55
516.16	19852.42
516.33	19903.92
516.51	20294.79
516.68	20049.03
516.85	20350.96
517.03	20266.70
517.20	20217.55
517.37	20372.02
517.54	20381.38
517.72	20336.91
517.89	20439.90
518.06	20360.32
518.24	20304.15
518.41	20718.42
518.58	20666.93
518.75	20620.12
518.93	20924.39
519.10	20739.49
519.27	21055.46
519.45	20554.58
519.62	21062.48
519.79	20851.83
519.96	20863.54
520.14	21113.97
520.31	20809.70
520.48	21301.22
520.65	21146.74
520.83	21315.26
521.00	21153.76
521.17	21326.96
521.34	21003.97
521.52	21619.53
521.69	21563.36
521.86	21373.77
522.03	21769.32
522.20	21750.60
522.38	21731.87
522.55	21675.70
522.72	21460.37
522.89	21415.90
523.07	21762.30
523.24	22015.08
523.41	22148.49
523.58	21539.95
523.75	22010.40
523.92	21493.14
524.10	21738.90
524.27	21991.67
524.44	22408.29
524.61	22324.03
524.78	22438.72
524.96	22228.07
525.13	22368.50
525.30	22558.08
525.47	22207.00
525.64	22223.39
525.81	22473.82
525.98	22845.97
526.16	22766.39
526.33	22558.08
526.50	23080.02
526.67	22581.49
526.84	22581.49
527.01	22408.29
527.18	22714.90
527.36	22815.54
527.53	22801.50
527.70	23215.77
527.87	23232.16
528.04	23218.11
528.21	23065.98
528.38	22766.39
528.55	23353.87
528.72	23154.92
528.89	23206.41
529.07	23421.74
529.24	23543.45
529.41	23454.51
529.58	23318.76
529.75	23145.56
529.92	23335.14
530.09	23138.54
530.26	23288.33
530.43	23351.52
530.60	23405.36
530.77	23498.98
530.94	23400.68
531.11	23470.89
531.28	23571.54
531.46	23639.41
531.63	23875.80
531.80	23665.16
531.97	23882.83
532.14	23910.91
532.31	23730.69
532.48	24283.06
532.65	23826.65
532.82	23814.95
532.99	23939.00
533.16	23763.46
533.33	24313.48
533.50	24353.27
533.67	24154.33
533.84	24168.37
534.01	24154.33
534.18	24060.71
534.35	24402.43
534.52	24166.03
534.69	24699.67
534.86	24524.13
535.03	24430.51
535.20	24512.43
535.37	24407.11
535.54	24720.74
535.71	24498.39
535.88	24910.32
536.05	24538.18
536.22	25179.48
536.38	24919.68
536.55	25076.50
536.72	24561.58
536.89	24746.48
537.06	24758.19
537.23	25078.84
537.40	24739.46
537.57	24957.13
537.74	24741.80
537.91	25240.34
538.08	25064.80
538.25	25001.60
538.42	24847.13
538.59	25238.00
538.75	24891.60
538.92	25092.88
539.09	25385.45
539.26	25245.02
539.43	25296.51
539.60	25062.46
539.77	25048.41
539.94	25621.84
540.11	25607.80
540.28	25507.16
540.44	25404.17
540.61	25476.73
540.78	25462.69
540.95	25708.44
541.12	25336.30
541.29	25516.52
541.46	25500.14
541.62	25675.68
541.79	25460.35
541.96	25493.12
542.13	25486.09
542.30	25862.92
542.47	26057.18
542.63	25933.14
542.80	26115.70
542.97	26211.66
543.14	26279.54
543.31	26181.23
543.48	25795.04
543.64	26616.57
543.81	26314.64
543.98	26338.05
544.15	26471.46
544.32	26581.46
544.48	26504.23
544.65	25991.65
544.82	26181.23
544.99	25692.06
545.16	25888.67
545.32	26253.79
545.49	26419.97
545.66	26878.71
545.83	26562.74
546.00	27009.78
546.16	26473.80
546.33	26747.64
546.50	25944.84
546.67	26558.06
546.83	26792.11
547.00	26581.46
547.17	26759.34
547.34	26810.84
547.50	26661.04
547.67	27021.48
547.84	26745.30
548.00	26651.68
548.17	27377.25
548.34	26780.41
548.51	27105.74
548.67	27080.00
548.84	27606.62
549.01	26773.39
549.18	27075.32
549.34	27201.71
549.51	26878.71
549.68	27080.00
549.84	26909.14
550.01	27300.01
550.18	26906.80
550.34	27314.05
550.51	27208.73
550.68	27129.15
550.84	27108.08
551.01	27129.15
551.18	26941.91
551.34	27463.85
551.51	27608.96
551.68	27370.22
551.84	27370.22
552.01	27358.52
552.18	27630.02
552.34	27847.69
552.51	27360.86
552.68	27737.69
552.84	27505.98
553.01	27779.82
553.18	27480.23
553.34	27740.03
553.51	27524.70
553.67	27950.68
553.84	28180.05
554.01	27707.26
554.17	27821.95
554.34	27599.60
554.51	27632.36
554.67	27826.63
554.84	27594.92
555.00	28006.85
555.17	28130.90
555.33	28030.26
555.50	27786.84
555.67	28130.90
555.83	27725.99
556.00	27791.52
556.16	28290.06
556.33	28222.18
556.50	28016.21
556.66	28299.42
556.83	28252.61
556.99	28208.14
557.16	28236.22
557.32	28493.68
557.49	28594.32
557.65	27892.16
557.82	28100.47
557.98	27913.23
558.15	28254.95
558.32	28528.79
558.48	28465.60
558.65	28709.01
558.81	28191.75
558.98	28341.55
559.14	28355.59
559.31	28926.68
559.47	28549.85
559.64	28425.81
559.80	28280.69
559.97	28709.01
560.13	28306.44
560.30	28465.60
560.46	28547.51
560.63	28453.89
560.79	28435.17
560.96	28313.46
561.12	28606.03
561.29	28353.25
561.45	28566.24
561.61	28346.23
561.78	28767.52
561.94	28608.37
562.11	28788.59
562.27	28868.17
562.44	28638.80
562.60	28280.69
562.77	28498.36
562.93	28379.00
563.10	28884.55
563.26	28608.37
563.42	28994.56
563.59	29116.26
563.75	28950.09
563.92	28961.79
564.08	28704.33
564.24	28847.10
564.41	28325.16
564.57	28884.55
564.74	28739.44
564.90	28973.49
565.07	28961.79
565.23	29074.13
565.39	28898.59
565.56	29085.84
565.72	28865.83
565.88	28793.27
566.05	29010.94
566.21	28856.46
566.38	28826.04
566.54	29008.60
566.70	28959.45
566.87	29376.06
567.03	29050.73
567.19	29575.01
567.36	28861.15
567.52	29125.63
567.68	29064.77
567.85	29097.54
568.01	29256.70
568.17	29020.30
568.34	29134.99
568.50	29008.60
568.66	29076.48
568.83	29425.22
568.99	28811.99
569.15	29130.31
569.32	29198.18
569.48	29230.95
569.64	29076.48
569.81	29270.74
569.97	29212.23
570.13	29252.02
570.30	28912.64
570.46	29130.31
570.62	29282.44
570.78	29579.69
570.95	29198.18
571.11	29156.05
571.27	28968.81
571.43	29034.35
571.60	29062.43
571.76	28650.50
571.92	29343.30
572.09	29465.00
572.25	29099.88
572.41	29495.43
572.57	29640.54
572.74	29362.02
572.90	29530.54
573.06	29462.66
573.22	29539.90
573.38	29380.74
573.55	29041.37
573.71	29905.02
573.87	29818.42
574.03	29221.59
574.20	29479.05
574.36	29319.89
574.52	29436.92
574.68	29607.78
574.84	29347.98
575.01	29317.55
575.17	29680.33
575.33	29261.38
575.49	29397.13
575.65	29378.40
575.82	29333.93
575.98	29146.69
576.14	29785.66
576.30	29165.42
576.46	29207.55
576.62	29390.11
576.79	29532.88
576.95	29380.74
577.11	29401.81
577.27	29809.06
577.43	29612.46
577.59	29565.65
577.75	29596.07
577.92	29219.25
578.08	29343.30
578.24	29233.29
578.40	29727.14
578.56	29369.04
578.72	29479.05
578.88	29652.25
579.04	29942.47
579.21	29710.76
579.37	29713.10
579.53	29486.07
579.69	29240.31
579.85	29336.27
580.01	29373.72
580.17	29439.26
580.33	29055.41
580.49	29591.39
580.65	29820.77
580.82	29773.95
580.98	29708.42
581.14	29516.50
581.30	29502.45
581.46	29378.40
581.62	29460.32
581.78	29652.25
581.94	29572.67
582.10	29347.98
582.26	29483.73
582.42	29652.25
582.58	29659.27
582.74	29577.35
582.90	29460.32
583.06	29685.01
583.22	29556.28
583.38	29696.72
583.54	29806.72
583.70	29390.11
583.86	30015.03
584.02	29600.76
584.18	29769.27
584.34	29839.49
584.50	30085.25
584.66	29860.55
584.82	29619.48
584.98	29460.32
585.14	29593.73
585.30	29450.96
585.46	29450.96
585.62	29333.93
585.78	29755.23
585.94	29404.15
586.10	30136.74
586.26	29640.54
586.42	30038.44
586.58	29827.79
586.74	29914.39
586.90	29394.79
587.06	29717.78
587.22	29780.98
587.38	29579.69
587.54	29916.73
587.70	30167.16
587.86	29823.11
588.02	30064.18
588.18	30499.52
588.34	30129.72
588.49	30045.46
588.65	29486.07
588.81	29488.41
588.97	29598.41
589.13	29446.28
589.29	29933.11
589.45	29764.59
589.61	30132.06
589.77	29961.20
589.93	29890.98
590.08	29970.56
590.24	30244.40
590.40	30080.56
590.56	30164.82
590.72	30022.05
590.88	30312.28
591.04	29778.64
591.20	30209.29
591.35	30377.81
591.51	30103.97
591.67	30008.01
591.83	30134.40
591.99	30199.93
