SpectraSuite Data File
++++++++++++++++++++++++++++++++++++
Date: Fri Oct 18 13:58:34 GMT-05:00 2013
User: bianchi
Dark Spectrum Present: No
Reference Spectrum Present: No
Number of Sampled Component Spectra: 1
Spectrometers: USB2+H05261
Integration Time (usec): 50000 (USB2+H05261)
Spectra Averaged: 1 (USB2+H05261)
Boxcar Smoothing: 0 (USB2+H05261)
Correct for Electrical Dark: No (USB2+H05261)
Strobe/Lamp Enabled: No (USB2+H05261)
Correct for Detector Non-linearity: No (USB2+H05261)
Correct for Stray Light: No (USB2+H05261)
Number of Pixels in Processed Spectrum: 2048
>>>>>Begin Processed Spectral Data<<<<<
365.73	4.68
365.92	4.68
366.12	4.68
366.32	0.00
366.52	0.00
366.72	0.00
366.91	0.00
367.11	0.00
367.31	0.00
367.51	0.00
367.70	0.00
367.90	0.00
368.10	0.00
368.30	0.00
368.49	0.00
368.69	0.00
368.89	0.00
369.09	0.00
369.28	0.00
369.48	0.00
369.68	0.00
369.87	0.00
370.07	0.00
370.27	0.00
370.47	0.00
370.66	102.98
370.86	184.90
371.06	156.82
371.25	112.35
371.45	166.18
371.65	100.64
371.84	140.43
372.04	156.82
372.24	147.45
372.44	175.54
372.63	203.63
372.83	187.24
373.03	252.78
373.22	173.20
373.42	203.63
373.62	203.63
373.81	208.31
374.01	306.61
374.21	168.52
374.40	238.73
374.60	273.84
374.79	191.92
374.99	297.25
375.19	241.08
375.38	215.33
375.58	236.39
375.78	231.71
375.97	245.76
376.17	264.48
376.37	290.23
376.56	287.89
376.76	210.65
376.95	280.86
377.15	259.80
377.35	255.12
377.54	283.20
377.74	189.58
377.93	269.16
378.13	337.04
378.33	264.48
378.52	248.10
378.72	269.16
378.91	299.59
379.11	367.46
379.31	304.27
379.50	250.44
379.70	276.18
379.89	271.50
380.09	198.95
380.28	276.18
380.48	306.61
380.68	365.12
380.87	325.33
381.07	273.84
381.26	353.42
381.46	365.12
381.65	301.93
381.85	280.86
382.04	346.40
382.24	304.27
382.43	318.31
382.63	287.89
382.83	322.99
383.02	348.74
383.22	465.77
383.41	292.57
383.61	346.40
383.80	374.49
384.00	339.38
384.19	365.12
384.39	369.80
384.58	315.97
384.78	407.25
384.97	454.06
385.17	360.44
385.36	386.19
385.56	388.53
385.75	337.04
385.95	362.78
386.14	400.23
386.34	379.17
386.53	409.59
386.72	358.10
386.92	465.77
387.11	369.80
387.31	395.55
387.50	423.64
387.70	430.66
387.89	435.34
388.09	423.64
388.28	395.55
388.48	411.93
388.67	435.34
388.86	437.68
389.06	411.93
389.25	470.45
389.45	475.13
389.64	465.77
389.84	458.74
390.03	486.83
390.22	514.92
390.42	545.34
390.61	524.28
390.81	449.38
391.00	447.04
391.19	451.72
391.39	573.43
391.58	493.85
391.78	599.18
391.97	547.69
392.16	578.11
392.36	608.54
392.55	535.98
392.75	582.79
392.94	482.15
393.13	535.98
393.33	627.26
393.52	543.00
393.71	627.26
393.91	559.39
394.10	606.20
394.29	587.47
394.49	545.34
394.68	578.11
394.88	624.92
395.07	634.29
395.26	575.77
395.46	641.31
395.65	650.67
395.84	561.73
396.04	589.82
396.23	573.43
396.42	636.63
396.62	638.97
396.81	734.93
397.00	603.86
397.19	664.71
397.39	615.56
397.58	674.07
397.77	664.71
397.97	746.63
398.16	690.46
398.35	653.01
398.55	676.41
398.74	753.65
398.93	723.23
399.12	699.82
399.32	767.70
399.51	826.21
399.70	718.54
399.90	737.27
400.09	730.25
400.28	716.20
400.47	800.46
400.67	751.31
400.86	704.50
401.05	718.54
401.24	777.06
401.44	793.44
401.63	723.23
401.82	802.80
402.01	744.29
402.21	772.38
402.40	837.91
402.59	922.17
402.78	805.14
402.97	809.83
403.17	868.34
403.36	947.92
403.55	837.91
403.74	858.98
403.93	929.19
404.13	837.91
404.32	830.89
404.51	945.58
404.70	884.72
404.89	978.34
405.09	922.17
405.28	905.79
405.47	882.38
405.66	945.58
405.85	1053.24
406.05	966.64
406.24	968.98
406.43	997.07
406.62	1008.77
406.81	973.66
407.00	945.58
407.20	961.96
407.39	1008.77
407.58	1062.60
407.77	1086.01
407.96	1095.37
408.15	1057.92
408.34	1004.09
408.54	1043.88
408.73	1093.03
408.92	1111.75
409.11	1074.31
409.30	1132.82
409.49	1174.95
409.68	1071.97
409.87	1116.44
410.07	1179.63
410.26	1170.27
410.45	1181.97
410.64	1203.04
410.83	1146.86
411.02	1200.69
411.21	1343.47
411.40	1210.06
411.59	1273.25
411.78	1245.16
411.98	1174.95
412.17	1357.51
412.36	1329.42
412.55	1345.81
412.74	1313.04
412.93	1331.76
413.12	1310.70
413.31	1441.77
413.50	1406.66
413.69	1437.09
413.88	1409.00
414.07	1373.89
414.26	1467.52
414.45	1516.67
414.64	1516.67
414.83	1409.00
415.02	1521.35
415.22	1476.88
415.41	1467.52
415.60	1526.03
415.79	1624.33
415.98	1540.07
416.17	1561.14
416.36	1537.73
416.55	1617.31
416.74	1600.93
416.93	1614.97
417.12	1575.18
417.31	1689.87
417.50	1633.69
417.69	1797.53
417.88	1724.97
418.07	1680.50
418.26	1727.32
418.45	1760.08
418.64	1715.61
418.83	1802.21
419.02	1732.00
419.21	1802.21
419.39	1832.64
419.58	1870.09
419.77	1919.24
419.96	1797.53
420.15	1816.26
420.34	1973.07
420.53	1877.11
420.72	1865.41
420.91	1884.13
421.10	1839.66
421.29	1998.82
421.48	1877.11
421.67	1994.14
421.86	1877.11
422.05	1942.64
422.24	1947.33
422.43	1928.60
422.61	1921.58
422.80	2008.18
422.99	2010.52
423.18	2043.29
423.37	1912.22
423.56	2054.99
423.75	1982.43
423.94	1940.30
424.13	1933.28
424.32	1940.30
424.50	1980.09
424.69	2052.65
424.88	2090.10
425.07	2033.93
425.26	1928.60
425.45	1973.07
425.64	2057.33
425.83	2087.76
426.01	2127.55
426.20	2106.48
426.39	2008.18
426.58	1959.03
426.77	2019.88
426.96	2036.27
427.15	2054.99
427.33	2162.66
427.52	2083.08
427.71	2111.16
427.90	2202.44
428.09	2211.81
428.28	2069.03
428.46	2118.18
428.65	2174.36
428.84	2284.36
429.03	2251.60
429.22	2167.34
429.40	2113.50
429.59	2230.53
429.78	2134.57
429.97	2125.21
430.16	2228.19
430.34	2284.36
430.53	2275.00
430.72	2284.36
430.91	2326.49
431.10	2312.45
431.28	2450.54
431.47	2492.67
431.66	2455.22
431.85	2232.87
432.03	2319.47
432.22	2417.77
432.41	2359.26
432.60	2265.64
432.79	2349.90
432.97	2511.39
433.16	2363.94
433.35	2403.73
433.54	2478.63
433.72	2518.42
433.91	2363.94
434.10	2445.86
434.28	2511.39
434.47	2537.14
434.66	2635.44
434.85	2548.84
435.03	2567.57
435.22	2471.61
435.41	2562.89
435.59	2576.93
435.78	2684.59
435.97	2621.40
436.16	2729.06
436.34	2672.89
436.53	2712.68
436.72	2818.00
436.90	2583.95
437.09	2703.32
437.28	2576.93
437.46	2649.49
437.65	2677.57
437.84	2794.60
438.02	2785.24
438.21	2796.94
438.40	2663.53
438.58	2834.39
438.77	2850.77
438.96	2836.73
439.14	2895.24
439.33	2881.20
439.52	3005.25
439.70	2956.10
439.89	2942.05
440.08	3105.89
440.26	2920.99
440.45	3183.13
440.63	3077.80
440.82	3045.04
441.01	3089.51
441.19	3162.06
441.38	3159.72
441.57	3133.98
441.75	3204.19
441.94	3262.71
442.12	3192.49
442.31	3300.16
442.50	3248.66
442.68	3225.26
442.87	3283.77
443.05	3314.20
443.24	3412.50
443.43	3353.99
443.61	3279.09
443.80	3438.25
443.98	3283.77
444.17	3201.85
444.35	3328.24
444.54	3508.46
444.73	3482.72
444.91	3302.50
445.10	3428.88
445.28	3478.04
445.47	3337.60
445.65	3412.50
445.84	3480.38
446.02	3417.18
446.21	3414.84
446.39	3566.98
446.58	3492.08
446.77	3417.18
446.95	3515.48
447.14	3499.10
447.32	3557.61
447.51	3353.99
447.69	3426.54
447.88	3503.78
448.06	3559.95
448.25	3461.65
448.43	3616.13
448.62	3492.08
448.80	3447.61
448.99	3426.54
449.17	3585.70
449.36	3595.06
449.54	3562.30
449.73	3569.32
449.91	3620.81
450.10	3695.71
450.28	3667.62
450.46	3812.73
450.65	3763.58
450.83	3782.31
451.02	3665.28
451.20	3686.34
451.39	3765.92
451.57	3880.61
451.76	3735.50
451.94	3810.39
452.13	3880.61
452.31	3871.25
452.49	3681.66
452.68	3864.22
452.86	3873.59
453.05	4016.36
453.23	3936.78
453.42	3765.92
453.60	3882.95
453.78	4030.40
453.97	3892.31
454.15	3904.01
454.34	3836.14
454.52	3845.50
454.70	3896.99
454.89	3943.80
455.07	4042.11
455.26	4007.00
455.44	4145.09
455.62	4128.70
455.81	4117.00
455.99	4093.60
456.17	4105.30
456.36	4208.28
456.54	4114.66
456.73	4273.82
456.91	4334.67
457.09	4238.71
457.28	4198.92
457.46	4290.20
457.64	4301.90
457.83	4353.40
458.01	4114.66
458.19	4503.19
458.38	4320.63
458.56	4386.16
458.74	4407.23
458.93	4273.82
459.11	4472.76
459.29	4395.53
459.48	4374.46
459.66	4470.42
459.84	4547.66
460.03	4554.68
460.21	4547.66
460.39	4498.51
460.57	4615.54
460.76	4582.77
460.94	4655.33
461.12	4592.13
461.31	4671.71
461.49	4578.09
461.67	4456.38
461.85	4685.75
462.04	4727.88
462.22	4812.14
462.40	4835.55
462.59	4795.76
462.77	4814.48
462.95	4678.73
463.13	4828.53
463.32	4580.43
463.50	4737.24
463.68	4889.38
463.86	4730.22
464.05	4746.61
464.23	4814.48
464.41	4805.12
464.59	4751.29
464.78	4926.83
464.96	4842.57
465.14	4954.91
465.32	4880.02
465.50	5011.09
465.69	4957.25
465.87	4933.85
466.05	4945.55
466.23	4875.34
466.41	4896.40
466.60	5125.77
466.78	4966.62
466.96	5083.64
467.14	5057.90
467.32	4999.38
467.51	5165.56
467.69	4903.42
467.87	5153.86
468.05	5184.29
468.23	5074.28
468.41	5228.76
468.60	5153.86
468.78	5256.84
468.96	5198.33
469.14	5383.23
469.32	5268.55
469.50	5191.31
469.69	5378.55
469.87	5249.82
470.05	5514.30
470.23	5451.11
470.41	5324.72
470.59	5509.62
470.77	5476.85
470.95	5514.30
471.14	5610.26
471.32	5390.25
471.50	5652.39
471.68	5589.20
471.86	5568.13
472.04	5540.05
472.22	5860.70
472.40	5586.86
472.58	5741.33
472.77	5671.12
472.95	5593.88
473.13	5877.09
473.31	5551.75
473.49	5769.42
473.67	6015.18
473.85	5907.51
474.03	5923.90
474.21	5823.25
474.39	6033.90
474.57	5996.45
474.75	5989.43
474.93	6157.95
475.12	6092.41
475.30	6099.44
475.48	6204.76
475.66	6162.63
475.84	6204.76
476.02	6319.45
476.20	6190.72
476.38	6314.77
476.56	6394.34
476.74	6445.84
476.92	6282.00
477.10	6555.84
477.28	6698.61
477.46	6635.42
477.64	6630.74
477.82	6799.26
478.00	6906.92
478.18	6806.28
478.36	6953.73
478.54	7126.93
478.72	7035.65
478.90	7049.69
479.08	7159.70
479.26	7370.35
479.44	7218.21
479.62	7222.89
479.80	7332.90
479.98	7513.12
480.16	7578.65
480.34	7555.25
480.52	7520.14
480.70	7527.16
480.88	7651.21
481.06	7723.77
481.24	7838.45
481.41	7672.28
481.59	7791.64
481.77	7758.88
481.95	8018.68
482.13	8126.34
482.31	8084.21
482.49	8224.64
482.67	8159.11
482.85	8217.62
483.03	8421.25
483.21	8549.98
483.39	8493.80
483.57	8676.37
483.74	8716.16
483.92	8620.19
484.10	8725.52
484.28	8727.86
484.46	8961.91
484.64	9200.65
484.82	9252.14
485.00	9107.02
485.18	9078.94
485.35	9397.25
485.53	9455.76
485.71	9467.47
485.89	9493.21
486.07	9399.59
486.25	9303.63
486.43	9657.05
486.61	9678.12
486.78	9851.31
486.96	9741.31
487.14	10015.15
487.32	9928.55
487.50	9977.70
487.68	10270.27
487.85	10242.18
488.03	10326.44
488.21	10586.24
488.39	10480.92
488.57	10684.55
488.75	10621.35
488.92	10576.88
489.10	10717.31
489.28	10850.72
489.46	11080.10
489.64	11042.65
489.81	11192.44
489.99	11194.78
490.17	11281.38
490.35	11456.92
490.53	11534.16
490.70	11590.33
490.88	11510.75
491.06	11700.34
491.24	11637.14
491.41	11719.06
491.59	11901.62
491.77	12006.95
491.95	11969.50
492.13	12098.23
492.30	12311.22
492.48	12046.74
492.66	12112.27
492.84	12334.62
493.01	12409.52
493.19	12489.10
493.37	12500.80
493.54	12442.29
493.72	12514.84
493.90	12503.14
494.08	12905.71
494.25	13308.29
494.43	12894.01
494.61	13261.48
494.79	13142.11
494.96	13357.44
495.14	13474.46
495.32	13315.31
495.49	13507.23
495.67	13664.05
495.85	13724.90
496.02	13518.93
496.20	13734.26
496.38	13699.16
496.55	13928.53
496.73	14183.65
496.91	14024.49
497.09	14012.79
497.26	14239.82
497.44	14202.37
497.62	14263.22
497.79	14534.73
497.97	14303.01
498.14	14602.60
498.32	14700.90
498.50	14780.48
498.67	14941.98
498.85	14766.44
499.03	14831.97
499.20	14820.27
499.38	15091.77
499.56	14855.38
499.73	15021.56
499.91	15185.40
500.08	15131.56
500.26	14979.43
500.44	15325.83
500.61	15442.85
500.79	15391.36
500.97	15297.74
501.14	15712.02
501.32	15866.49
501.49	15651.16
501.67	15683.93
501.84	15669.89
502.02	15819.68
502.20	16086.50
502.37	16067.78
502.55	16002.24
502.72	15988.20
502.90	16049.05
503.07	16109.91
503.25	16142.67
503.43	16114.59
503.60	16334.60
503.78	16442.26
503.95	16594.40
504.13	16603.76
504.30	16294.81
504.48	16243.32
504.65	16622.48
504.83	16599.08
505.01	17060.16
505.18	17074.21
505.36	17074.21
505.53	16666.95
505.71	17111.66
505.88	16996.97
506.06	16896.33
506.23	17125.70
506.41	16922.07
506.58	17249.75
506.76	17336.35
506.93	17343.37
507.11	17425.29
507.28	17554.02
507.46	17458.06
507.63	17399.54
507.81	17296.56
507.98	17528.27
508.16	17535.29
508.33	17797.43
508.50	17841.90
508.68	17799.77
508.85	17972.97
509.03	17818.50
509.20	17984.68
509.38	18111.07
509.55	18050.21
509.73	18375.55
509.90	18162.56
510.08	18141.49
510.25	18195.32
510.42	18291.29
510.60	18733.65
510.77	18548.75
510.95	18291.29
511.12	18588.53
511.30	18382.57
511.47	18291.29
511.64	18890.46
511.82	18766.42
511.99	18984.09
512.17	19058.98
512.34	19152.60
512.51	18904.51
512.69	19187.71
512.86	18974.72
513.04	19353.89
513.21	19424.11
513.38	19220.48
513.56	19295.38
513.73	19290.70
513.90	19300.06
514.08	19290.70
514.25	19501.34
514.43	19648.80
514.60	19592.62
514.77	19786.89
514.95	19880.51
515.12	19719.01
515.29	19803.27
515.47	19950.73
515.64	20102.86
515.81	19976.47
515.99	19613.69
516.16	20166.06
516.33	20032.65
516.51	20369.68
516.68	20128.61
516.85	20081.80
517.03	20306.49
517.20	20215.21
517.37	20451.60
517.54	20278.40
517.72	20627.14
517.89	20482.03
518.06	20456.28
518.24	20575.65
518.41	20451.60
518.58	20472.67
518.75	20545.22
518.93	20772.25
519.10	20737.15
519.27	20624.80
519.45	20924.39
519.62	20676.29
519.79	20940.77
519.96	21034.39
520.14	20938.43
520.31	20840.13
520.48	21064.82
520.65	21142.06
520.83	21448.67
521.00	21029.71
521.17	21277.81
521.34	21195.89
521.52	21570.38
521.69	21317.60
521.86	21467.39
522.03	21678.04
522.20	21495.48
522.38	21619.53
522.55	21649.96
522.72	21497.82
522.89	21582.08
523.07	21898.05
523.24	21937.84
523.41	22108.70
523.58	21865.28
523.75	21905.07
523.92	21757.62
524.10	22057.21
524.27	21724.85
524.44	22169.55
524.61	22366.16
524.78	22462.12
524.96	22249.13
525.13	22331.05
525.30	22654.05
525.47	22230.41
525.64	22415.31
525.81	22471.48
525.98	22534.68
526.16	22450.42
526.33	22515.95
526.50	22583.83
526.67	22923.21
526.84	22558.08
527.01	22733.62
527.18	22714.90
527.36	22855.33
527.53	22810.86
527.70	23063.64
527.87	23185.35
528.04	23040.23
528.21	22881.08
528.38	22871.72
528.55	22960.66
528.72	22838.95
528.89	23187.69
529.07	23548.13
529.24	23328.12
529.41	23421.74
529.58	23190.03
529.75	23309.40
529.92	23152.58
530.09	23466.21
530.26	23597.28
530.43	23360.89
530.60	23419.40
530.77	23592.60
530.94	23618.35
531.11	23433.44
531.28	23517.70
531.46	23396.00
531.63	23683.88
531.80	23807.93
531.97	23744.73
532.14	24140.29
532.31	23793.89
532.48	23754.10
532.65	24025.60
532.82	23737.71
532.99	23814.95
533.16	23878.15
533.33	23953.04
533.50	24264.33
533.67	24315.83
533.84	23744.73
534.01	24044.32
534.18	24074.75
534.35	23915.59
534.52	24386.04
534.69	24570.94
534.86	24425.83
535.03	24416.47
535.20	24322.85
535.37	24315.83
535.54	24383.70
535.71	24243.27
535.88	24348.59
536.05	24599.03
536.22	24650.52
536.38	24746.48
536.55	24875.21
536.72	24666.91
536.89	24734.78
537.06	24802.66
537.23	24882.24
537.40	24629.46
537.57	24896.28
537.74	24980.54
537.91	24823.72
538.08	25025.01
538.25	25081.18
538.42	25303.53
538.59	25165.44
538.75	24844.79
538.92	25006.28
539.09	24938.41
539.26	25434.60
539.43	25514.18
539.60	25263.74
539.77	25371.41
539.94	25671.00
540.11	25450.99
540.28	25488.43
540.44	25188.85
540.61	25177.14
540.78	24870.53
540.95	25689.72
541.12	25472.05
541.29	25427.58
541.46	25731.85
541.62	25392.47
541.79	25453.33
541.96	25560.99
542.13	25462.69
542.30	25626.53
542.47	25855.90
542.63	25844.20
542.80	26174.21
542.97	25874.62
543.14	26384.86
543.31	25689.72
543.48	25837.17
543.64	25851.22
543.81	26026.76
543.98	26272.51
544.15	26253.79
544.32	26316.98
544.48	26902.12
544.65	26546.36
544.82	26508.91
544.99	26167.19
545.16	26462.10
545.32	26370.82
545.49	26396.56
545.66	26246.77
545.83	26757.00
546.00	26607.21
546.16	26740.62
546.33	26431.67
546.50	26410.60
546.67	26368.48
546.83	26209.32
547.00	26307.62
547.17	26621.25
547.34	26639.98
547.50	26977.01
547.67	27171.28
547.84	26707.85
548.00	26639.98
548.17	27016.80
548.34	26841.26
548.51	26934.88
548.67	26536.99
548.84	27012.12
549.01	27094.04
549.18	26948.93
549.34	27143.19
549.51	27047.23
549.68	27044.89
549.84	27051.91
550.01	27124.47
550.18	26822.54
550.34	27442.78
550.51	27175.96
550.68	27433.42
550.84	26808.50
551.01	27330.44
551.18	26682.11
551.34	27070.64
551.51	27147.87
551.68	27456.82
551.84	27187.66
552.01	27349.16
552.18	27227.45
552.34	27768.12
552.51	27475.55
552.68	27475.55
552.84	27487.25
553.01	27302.35
553.18	27117.45
553.34	27531.72
553.51	27419.38
553.67	27840.67
553.84	27850.03
554.01	27482.57
554.17	27688.54
554.34	27779.82
554.51	27718.96
554.67	27679.18
554.84	27637.05
555.00	28009.19
555.17	27637.05
555.33	28109.83
555.50	28053.66
555.67	27793.86
555.83	27833.65
556.00	28034.94
556.16	28493.68
556.33	28294.74
556.50	28032.60
556.66	28205.80
556.83	27772.80
556.99	28294.74
557.16	28212.82
557.32	28133.24
557.49	28591.98
557.65	27826.63
557.82	28147.28
557.98	27934.29
558.15	28540.49
558.32	28189.41
558.48	27985.79
558.65	28500.70
558.81	28594.32
558.98	28273.67
559.14	28112.17
559.31	28430.49
559.47	28149.62
559.64	28093.45
559.80	28538.15
559.97	28582.62
560.13	28259.63
560.30	28507.72
560.46	28325.16
560.63	28650.50
560.79	28519.43
560.96	28589.64
561.12	28449.21
561.29	28074.73
561.45	28341.55
561.61	28591.98
561.78	28751.14
561.94	28528.79
562.11	28971.15
562.27	28613.05
562.44	28507.72
562.60	28718.37
562.77	28685.61
562.93	28584.96
563.10	29102.22
563.26	28596.67
563.42	28704.33
563.59	28718.37
563.75	28746.46
563.92	28645.82
564.08	28587.30
564.24	28716.03
564.41	28538.15
564.57	29095.20
564.74	28851.78
564.90	28900.94
565.07	28772.21
565.23	28840.08
565.39	28966.47
565.56	29177.12
565.72	28856.46
565.88	28816.68
566.05	28519.43
566.21	28732.42
566.38	28809.65
566.54	28795.61
566.70	29315.21
566.87	29207.55
567.03	29013.28
567.19	29116.26
567.36	29240.31
567.52	29443.94
567.68	28889.23
567.85	28802.63
568.01	28971.15
568.17	28968.81
568.34	29092.86
568.50	29235.63
568.66	28975.83
568.83	29357.34
568.99	29497.77
569.15	29041.37
569.32	28861.15
569.48	29181.80
569.64	28849.44
569.81	29015.62
569.97	28879.87
570.13	29130.31
570.30	29050.73
570.46	29174.78
570.62	29127.97
570.78	29081.16
570.95	29017.96
571.11	29188.82
571.27	29120.95
571.43	29022.64
571.60	29076.48
571.76	29607.78
571.92	29275.42
572.09	29570.33
572.25	29542.24
572.41	29186.48
572.57	29296.49
572.74	29235.63
572.90	29153.71
573.06	29530.54
573.22	29317.55
573.38	29240.31
573.55	29397.13
573.71	29172.44
573.87	29549.26
574.03	29331.59
574.20	28889.23
574.36	29518.84
574.52	29406.49
574.68	29383.09
574.84	29343.30
575.01	29518.84
575.17	29436.92
575.33	29191.16
575.49	29134.99
575.65	29483.73
575.82	29446.28
575.98	29670.97
576.14	29331.59
576.30	29448.62
576.46	29429.90
576.62	29139.67
576.79	29427.56
576.95	28893.91
577.11	29713.10
577.27	29359.68
577.43	29556.28
577.59	29848.85
577.75	29493.09
577.92	29144.35
578.08	29390.11
578.24	29357.34
578.40	29509.47
578.56	29661.61
578.72	29680.33
578.88	29406.49
579.04	30003.33
579.21	29773.95
579.37	29724.80
579.53	29659.27
579.69	29401.81
579.85	29474.37
580.01	29450.96
580.17	29682.67
580.33	29493.09
580.49	29385.43
580.65	29603.10
580.82	29439.26
580.98	29397.13
581.14	29507.13
581.30	29811.40
581.46	29455.64
581.62	29359.68
581.78	29280.10
581.94	29682.67
582.10	29539.90
582.26	29612.46
582.42	29319.89
582.58	29823.11
582.74	29570.33
582.90	29544.58
583.06	29745.87
583.22	29420.53
583.38	29476.71
583.54	29619.48
583.70	29507.13
583.86	29713.10
584.02	29340.96
584.18	29694.38
584.34	29713.10
584.50	29975.24
584.66	29689.70
584.82	29275.42
584.98	29687.36
585.14	29654.59
585.30	29469.69
585.46	29640.54
585.62	29268.40
585.78	29556.28
585.94	29301.17
586.10	29598.41
586.26	29638.20
586.42	29986.94
586.58	30108.65
586.74	29860.55
586.90	29055.41
587.06	29654.59
587.22	29670.97
587.38	29558.63
587.54	29940.13
587.70	29888.64
587.86	29996.31
588.02	29708.42
588.18	29699.06
588.34	29881.62
588.49	29752.89
588.65	29612.46
588.81	29322.23
588.97	29785.66
589.13	30015.03
589.29	29474.37
589.45	29750.55
589.61	29986.94
589.77	29867.58
589.93	30132.06
590.08	30024.39
590.24	30345.05
590.40	30125.04
590.56	29874.60
590.72	29656.93
590.88	29851.19
591.04	29769.27
591.20	29818.42
591.35	30061.84
591.51	30106.31
591.67	30211.64
591.83	30232.70
591.99	30141.42
