SpectraSuite Data File
++++++++++++++++++++++++++++++++++++
Date: Fri Oct 18 13:58:09 GMT-05:00 2013
User: bianchi
Dark Spectrum Present: No
Reference Spectrum Present: No
Number of Sampled Component Spectra: 1
Spectrometers: USB2+H05261
Integration Time (usec): 50000 (USB2+H05261)
Spectra Averaged: 1 (USB2+H05261)
Boxcar Smoothing: 0 (USB2+H05261)
Correct for Electrical Dark: No (USB2+H05261)
Strobe/Lamp Enabled: No (USB2+H05261)
Correct for Detector Non-linearity: No (USB2+H05261)
Correct for Stray Light: No (USB2+H05261)
Number of Pixels in Processed Spectrum: 2048
>>>>>Begin Processed Spectral Data<<<<<
365.73	0.00
365.92	0.00
366.12	0.00
366.32	0.00
366.52	0.00
366.72	0.00
366.91	0.00
367.11	0.00
367.31	0.00
367.51	0.00
367.70	0.00
367.90	0.00
368.10	0.00
368.30	0.00
368.49	0.00
368.69	0.00
368.89	0.00
369.09	0.00
369.28	0.00
369.48	0.00
369.68	0.00
369.87	0.00
370.07	0.00
370.27	0.00
370.47	0.00
370.66	65.54
370.86	166.18
371.06	149.79
371.25	198.95
371.45	159.16
371.65	175.54
371.84	88.94
372.04	154.48
372.24	147.45
372.44	138.09
372.63	142.77
372.83	191.92
373.03	182.56
373.22	173.20
373.42	264.48
373.62	212.99
373.81	198.95
374.01	208.31
374.21	313.63
374.40	201.29
374.60	245.76
374.79	159.16
374.99	318.31
375.19	194.26
375.38	205.97
375.58	220.01
375.78	227.03
375.97	245.76
376.17	280.86
376.37	252.78
376.56	257.46
376.76	280.86
376.95	259.80
377.15	367.46
377.35	210.65
377.54	308.95
377.74	229.37
377.93	252.78
378.13	259.80
378.33	262.14
378.52	327.68
378.72	297.25
378.91	313.63
379.11	266.82
379.31	301.93
379.50	299.59
379.70	287.89
379.89	306.61
380.09	311.29
380.28	362.78
380.48	409.59
380.68	332.36
380.87	292.57
381.07	416.62
381.26	315.97
381.46	360.44
381.65	383.85
381.85	372.15
382.04	390.87
382.24	372.15
382.43	241.08
382.63	348.74
382.83	344.06
383.02	390.87
383.22	327.68
383.41	404.91
383.61	290.23
383.80	344.06
384.00	358.10
384.19	381.51
384.39	374.49
384.58	393.21
384.78	395.55
384.97	430.66
385.17	304.27
385.36	409.59
385.56	355.76
385.75	339.38
385.95	423.64
386.14	440.02
386.34	416.62
386.53	449.38
386.72	397.89
386.92	435.34
387.11	456.40
387.31	440.02
387.50	510.24
387.70	425.98
387.89	479.81
388.09	428.32
388.28	400.23
388.48	458.74
388.67	489.17
388.86	531.30
389.06	505.56
389.25	367.46
389.45	430.66
389.64	491.51
389.84	552.37
390.03	458.74
390.22	470.45
390.42	435.34
390.61	561.73
390.81	440.02
391.00	512.58
391.19	493.85
391.39	557.05
391.58	491.51
391.78	510.24
391.97	528.96
392.16	498.53
392.36	578.11
392.55	557.05
392.75	475.13
392.94	557.05
393.13	580.45
393.33	547.69
393.52	514.92
393.71	484.49
393.91	585.13
394.10	669.39
394.29	613.22
394.49	603.86
394.68	554.71
394.88	531.30
395.07	624.92
395.26	617.90
395.46	592.16
395.65	638.97
395.84	578.11
396.04	685.78
396.23	664.71
396.42	596.84
396.62	704.50
396.81	678.76
397.00	669.39
397.19	667.05
397.39	671.73
397.58	765.36
397.77	692.80
397.97	681.10
398.16	669.39
398.35	702.16
398.55	713.86
398.74	744.29
398.93	706.84
399.12	737.27
399.32	770.04
399.51	683.44
399.70	758.33
399.90	781.74
400.09	788.76
400.28	858.98
400.47	660.03
400.67	748.97
400.86	760.67
401.05	812.17
401.24	788.76
401.44	809.83
401.63	802.80
401.82	819.19
402.01	819.19
402.21	760.67
402.40	898.77
402.59	854.30
402.78	842.59
402.97	830.89
403.17	919.83
403.36	870.68
403.55	882.38
403.74	912.81
403.93	966.64
404.13	936.21
404.32	919.83
404.51	926.85
404.70	903.45
404.89	870.68
405.09	940.90
405.28	973.66
405.47	903.45
405.66	917.49
405.85	1036.86
406.05	966.64
406.24	1060.26
406.43	1053.24
406.62	1041.54
406.81	1097.71
407.00	1057.92
407.20	952.60
407.39	990.05
407.58	1022.81
407.77	1093.03
407.96	1104.73
408.15	1055.58
408.34	1043.88
408.54	1086.01
408.73	1093.03
408.92	1125.80
409.11	1221.76
409.30	1125.80
409.49	1109.41
409.68	1121.12
409.87	1177.29
410.07	1212.40
410.26	1217.08
410.45	1200.69
410.64	1167.93
410.83	1181.97
411.02	1191.33
411.21	1214.74
411.40	1205.38
411.59	1291.98
411.78	1228.78
411.98	1252.19
412.17	1350.49
412.36	1378.58
412.55	1387.94
412.74	1392.62
412.93	1287.29
413.12	1406.66
413.31	1411.34
413.50	1397.30
413.69	1390.28
413.88	1401.98
414.07	1409.00
414.26	1451.13
414.45	1528.37
414.64	1502.62
414.83	1453.47
415.02	1427.73
415.22	1528.37
415.41	1591.56
415.60	1582.20
415.79	1689.87
415.98	1596.25
416.17	1586.88
416.36	1626.67
416.55	1610.29
416.74	1720.29
416.93	1617.31
417.12	1640.72
417.31	1678.16
417.50	1804.55
417.69	1783.49
417.88	1743.70
418.07	1713.27
418.26	1713.27
418.45	1703.91
418.64	1818.60
418.83	1820.94
419.02	1748.38
419.21	1874.77
419.39	1879.45
419.58	1834.98
419.77	1860.73
419.96	1914.56
420.15	1877.11
420.34	1860.73
420.53	1783.49
420.72	1884.13
420.91	1914.56
421.10	2005.84
421.29	2078.40
421.48	1898.17
421.67	1900.52
421.86	1961.37
422.05	2019.88
422.24	1928.60
422.43	2026.90
422.61	1973.07
422.80	2073.71
422.99	2054.99
423.18	2008.18
423.37	2033.93
423.56	1966.05
423.75	2029.24
423.94	1982.43
424.13	1952.01
424.32	2040.95
424.50	2090.10
424.69	2139.25
424.88	2146.27
425.07	2038.61
425.26	2146.27
425.45	1987.11
425.64	2008.18
425.83	2071.37
426.01	2153.29
426.20	2043.29
426.39	2143.93
426.58	2033.93
426.77	2050.31
426.96	2197.76
427.15	2150.95
427.33	2141.59
427.52	2083.08
427.71	2193.08
427.90	2204.78
428.09	2111.16
428.28	2270.32
428.46	2197.76
428.65	2223.51
428.84	2333.51
429.03	2272.66
429.22	2176.70
429.40	2368.62
429.59	2324.15
429.78	2242.23
429.97	2115.84
430.16	2310.11
430.34	2349.90
430.53	2279.68
430.72	2345.22
430.91	2333.51
431.10	2319.47
431.28	2368.62
431.47	2359.26
431.66	2363.94
431.85	2445.86
432.03	2399.05
432.22	2579.27
432.41	2434.16
432.60	2443.52
432.79	2427.14
432.97	2506.71
433.16	2403.73
433.35	2558.21
433.54	2546.50
433.72	2509.05
433.91	2635.44
434.10	2527.78
434.28	2492.67
434.47	2464.58
434.66	2619.06
434.85	2593.31
435.03	2583.95
435.22	2708.00
435.41	2637.78
435.59	2665.87
435.78	2715.02
435.97	2649.49
436.16	2586.29
436.34	2651.83
436.53	2656.51
436.72	2822.69
436.90	2764.17
437.09	2708.00
437.28	2729.06
437.46	2815.66
437.65	2750.13
437.84	2918.65
438.02	2773.53
438.21	2825.03
438.40	2806.30
438.58	2937.37
438.77	2960.78
438.96	2949.08
439.14	2967.80
439.33	2909.29
439.52	2951.42
439.70	3033.33
439.89	3045.04
440.08	3162.06
440.26	3063.76
440.45	3087.17
440.63	3178.45
440.82	3126.96
441.01	3197.17
441.19	3239.30
441.38	3290.79
441.57	3227.60
441.75	3157.38
441.94	3414.84
442.12	3187.81
442.31	3325.90
442.50	3239.30
442.68	3316.54
442.87	3377.39
443.05	3318.88
443.24	3545.91
443.43	3461.65
443.61	3442.93
443.80	3590.38
443.98	3419.52
444.17	3220.58
444.35	3475.70
444.54	3534.21
444.73	3576.34
444.91	3499.10
445.10	3562.30
445.28	3480.38
445.47	3321.22
445.65	3405.48
445.84	3527.19
446.02	3658.26
446.21	3492.08
446.39	3524.85
446.58	3686.34
446.77	3566.98
446.95	3496.76
447.14	3541.23
447.32	3588.04
447.51	3545.91
447.69	3627.83
447.88	3531.87
448.06	3438.25
448.25	3609.11
448.43	3524.85
448.62	3562.30
448.80	3478.04
448.99	3630.17
449.17	3665.28
449.36	3623.15
449.54	3719.11
449.73	3747.20
449.91	3651.24
450.10	3721.45
450.28	3698.05
450.46	3789.33
450.65	3836.14
450.83	3946.14
451.02	3707.41
451.20	3899.33
451.39	3892.31
451.57	3796.35
451.76	3887.63
451.94	3812.73
452.13	4007.00
452.31	3847.84
452.49	3761.24
452.68	3913.38
452.86	3845.50
453.05	3911.04
453.23	3995.29
453.42	3899.33
453.60	3899.33
453.78	4063.17
453.97	3911.04
454.15	3946.14
454.34	3988.27
454.52	4084.23
454.70	4128.70
454.89	4035.08
455.07	4166.15
455.26	4070.19
455.44	4180.20
455.62	4138.07
455.81	4241.05
455.99	4159.13
456.17	4306.59
456.36	4131.05
456.54	4140.41
456.73	4201.26
456.91	4348.72
457.09	4231.69
457.28	4404.89
457.46	4297.22
457.64	4531.28
457.83	4500.85
458.01	4327.65
458.19	4304.25
458.38	4339.35
458.56	4468.08
458.74	4482.13
458.93	4425.95
459.11	4440.00
459.29	4362.76
459.48	4498.51
459.66	4437.66
459.84	4624.90
460.03	4564.04
460.21	4786.40
460.39	4550.00
460.57	4542.98
460.76	4472.76
460.94	4784.06
461.12	4573.41
461.31	4603.83
461.49	4634.26
461.67	4755.97
461.85	4723.20
462.04	4828.53
462.22	5071.94
462.40	4779.37
462.59	4926.83
462.77	4903.42
462.95	4877.68
463.13	4865.97
463.32	4774.69
463.50	4898.74
463.68	4983.00
463.86	5036.83
464.05	4842.57
464.23	4748.95
464.41	4990.02
464.59	4891.72
464.78	5008.75
464.96	4952.57
465.14	4826.18
465.32	5039.17
465.50	5085.98
465.69	5188.97
465.87	5039.17
466.05	4980.66
466.23	5041.51
466.41	5020.45
466.60	5191.31
466.78	5034.49
466.96	5036.83
467.14	5100.03
467.32	5083.64
467.51	5273.23
467.69	5125.77
467.87	5036.83
468.05	5181.95
468.23	5261.52
468.41	5210.03
468.60	5254.50
468.78	5373.87
468.96	5263.86
469.14	5308.34
469.32	5406.64
469.50	5104.71
469.69	5465.15
469.87	5383.23
470.05	5605.58
470.23	5479.19
470.41	5577.50
470.59	5504.94
470.77	5537.71
470.95	5598.56
471.14	5645.37
471.32	5547.07
471.50	5696.86
471.68	5680.48
471.86	5769.42
472.04	5727.29
472.22	5905.17
472.40	5689.84
472.58	5713.25
472.77	5746.02
472.95	5907.51
473.13	5970.71
473.31	5973.05
473.49	5954.32
473.67	5860.70
473.85	5738.99
474.03	5994.11
474.21	6190.72
474.39	6211.78
474.57	6296.04
474.75	6291.36
474.93	6265.61
475.12	6363.92
475.30	6370.94
475.48	6253.91
475.66	6532.44
475.84	6249.23
476.02	6530.09
476.20	6565.20
476.38	6614.35
476.56	6616.69
476.74	6614.35
476.92	6658.82
477.10	6581.59
477.28	6715.00
477.46	6726.70
477.64	6722.02
477.82	6888.20
478.00	7096.50
478.18	6998.20
478.36	7014.59
478.54	7049.69
478.72	7302.47
478.90	7227.57
479.08	7276.73
479.26	7234.60
479.44	7508.44
479.62	7588.02
479.80	7433.54
479.98	7386.73
480.16	7712.07
480.34	7644.19
480.52	7681.64
480.70	7733.13
480.88	7810.37
481.06	7646.53
481.24	7948.46
481.41	7955.48
481.59	8102.93
481.77	8009.31
481.95	7990.59
482.13	8367.42
482.31	8121.66
482.49	8425.93
482.67	8566.36
482.85	8655.30
483.03	8690.41
483.21	8638.92
483.39	8744.24
483.57	8638.92
483.74	8842.54
483.92	8793.39
484.10	8858.93
484.28	9062.55
484.46	9151.49
484.64	9273.20
484.82	9242.78
485.00	9242.78
485.18	9341.08
485.35	9577.47
485.53	9378.53
485.71	9708.54
485.89	9727.27
486.07	9713.22
486.25	9568.11
486.43	9848.97
486.61	10073.67
486.78	10036.22
486.96	10150.90
487.14	10228.14
487.32	10352.19
487.50	10122.82
487.68	10377.94
487.85	10480.92
488.03	10621.35
488.21	10810.93
488.39	10815.62
488.57	10796.89
488.75	10927.96
488.92	10808.59
489.10	11082.44
489.28	11152.65
489.46	11445.22
489.64	11147.97
489.81	11566.93
489.99	11534.16
490.17	11585.65
490.35	11789.28
490.53	11698.00
490.70	11805.66
490.88	11492.03
491.06	11793.96
491.24	11751.83
491.41	12056.10
491.59	12381.43
491.77	12212.92
491.95	12343.99
492.13	12475.06
492.30	12341.64
492.48	12425.90
492.66	12482.08
492.84	12475.06
493.01	12678.68
493.19	12720.81
493.37	12938.48
493.54	13102.32
493.72	13008.70
493.90	13018.06
494.08	13109.34
494.25	13329.35
494.43	13369.14
494.61	13570.43
494.79	13556.38
494.96	13507.23
495.14	13446.38
495.32	13556.38
495.49	13752.99
495.67	13778.73
495.85	13902.78
496.02	14155.56
496.20	14024.49
496.38	14087.68
496.55	14010.45
496.73	14497.28
496.91	14700.90
497.09	14738.35
497.26	14689.20
497.44	14738.35
497.62	14642.39
497.79	14827.29
497.97	14867.08
498.14	14944.32
498.32	15190.08
498.50	14834.32
498.67	15267.31
498.85	15204.12
499.03	15307.10
499.20	15220.50
499.38	15096.46
499.56	15534.14
499.73	15503.71
499.91	15559.88
500.08	15480.30
500.26	15833.72
500.44	15536.48
500.61	15800.96
500.79	15934.37
500.97	15946.07
501.14	16194.17
501.32	16552.27
501.49	16035.01
501.67	16098.20
501.84	16203.53
502.02	16191.83
502.20	16451.63
502.37	16292.47
502.55	16657.59
502.72	16432.90
502.90	16575.67
503.07	16301.83
503.25	16570.99
503.43	16243.32
503.60	16816.75
503.78	16875.26
503.95	16819.09
504.13	16989.95
504.30	16903.35
504.48	16713.77
504.65	16915.05
504.83	17165.49
505.01	17238.05
505.18	17312.94
505.36	17453.37
505.53	17451.03
505.71	17439.33
505.88	17357.41
506.06	17219.32
506.23	17916.80
506.41	17598.49
506.58	17874.67
506.76	17678.07
506.93	18012.76
507.11	17977.65
507.28	17879.35
507.46	17860.63
507.63	17947.23
507.81	18511.30
507.98	18267.88
508.16	18164.90
508.33	18066.60
508.50	18113.41
508.68	18270.22
508.85	18211.71
509.03	18326.39
509.20	18625.98
509.38	18768.76
509.55	18483.21
509.73	18714.92
509.90	18623.64
510.08	18546.40
510.25	18930.25
510.42	18780.46
510.60	18820.25
510.77	19044.94
510.95	18981.74
511.12	18668.11
511.30	19096.43
511.47	18937.27
511.64	19260.27
511.82	19133.88
511.99	19063.66
512.17	19585.60
512.34	19253.25
512.51	19517.73
512.69	19293.04
512.86	19520.07
513.04	19522.41
513.21	19791.57
513.38	19974.13
513.56	19939.02
513.73	19667.52
513.90	19861.79
514.08	19449.85
514.25	19882.85
514.43	20257.34
514.60	20119.24
514.77	19845.40
514.95	20231.59
515.12	20032.65
515.29	20348.62
515.47	20219.89
515.64	20219.89
515.81	20203.50
515.99	20601.40
516.16	20723.10
516.33	20842.47
516.51	20519.48
516.68	20573.31
516.85	20425.86
517.03	20512.46
517.20	20826.09
517.37	21034.39
517.54	21029.71
517.72	20987.58
517.89	20795.66
518.06	20840.13
518.24	20851.83
518.41	21097.59
518.58	21139.72
518.75	20748.85
518.93	21404.20
519.10	21036.74
519.27	21434.63
519.45	21209.93
519.62	21425.26
519.79	21451.01
519.96	21589.10
520.14	21748.26
520.31	21671.02
520.48	21717.83
520.65	21563.36
520.83	21764.64
521.00	21270.79
521.17	21755.28
521.34	21736.56
521.52	21715.49
521.69	21998.70
521.86	21900.39
522.03	22277.22
522.20	22277.22
522.38	22532.34
522.55	22300.62
522.72	22260.84
522.89	22216.36
523.07	22817.88
523.24	22501.91
523.41	22541.70
523.58	22637.66
523.75	22668.09
523.92	22754.69
524.10	22787.46
524.27	22527.66
524.44	22895.12
524.61	22752.35
524.78	22970.02
524.96	22754.69
525.13	22675.11
525.30	22890.44
525.47	22970.02
525.64	23187.69
525.81	22986.40
525.98	22988.74
526.16	23260.24
526.33	23199.39
526.50	23391.31
526.67	22974.70
526.84	23241.52
527.01	23222.80
527.18	23438.12
527.36	23580.90
527.53	23456.85
527.70	23861.76
527.87	23662.82
528.04	23407.70
528.21	23494.30
528.38	23501.32
528.55	23807.93
528.72	23520.04
528.89	23768.14
529.07	24147.31
529.24	23400.68
529.41	24095.82
529.58	23873.46
529.75	23906.23
529.92	23859.42
530.09	23814.95
530.26	24161.35
530.43	24329.87
530.60	23892.19
530.77	24212.84
530.94	24266.67
531.11	23772.82
531.28	24147.31
531.46	24058.37
531.63	24535.84
531.80	24456.26
531.97	24896.28
532.14	24645.84
532.31	24479.66
532.48	24783.93
532.65	24393.06
532.82	24201.14
532.99	24659.88
533.16	24503.07
533.33	24898.62
533.50	24634.14
533.67	24872.87
533.84	24992.24
534.01	25064.80
534.18	24793.29
534.35	25315.23
534.52	24915.00
534.69	25088.20
534.86	25132.67
535.03	24961.81
535.20	25085.86
535.37	25273.10
535.54	25198.21
535.71	24875.21
535.88	25369.07
536.05	25111.61
536.22	25181.82
536.38	25528.22
536.55	25240.34
536.72	25507.16
536.89	25106.93
537.06	25624.18
537.23	25621.84
537.40	25469.71
537.57	25572.69
537.74	25752.91
537.91	25776.32
538.08	25762.28
538.25	25638.23
538.42	25731.85
538.59	25965.90
538.75	25619.50
538.92	25593.76
539.09	25937.82
539.26	25699.08
539.43	26003.35
539.60	26092.29
539.77	25961.22
539.94	26136.76
540.11	26188.25
540.28	26300.60
540.44	25771.64
540.61	26103.99
540.78	25825.47
540.95	26111.02
541.12	26377.84
541.29	26675.09
541.46	26218.68
541.62	26246.77
541.79	26508.91
541.96	25942.50
542.13	25940.16
542.30	26298.26
542.47	26565.08
542.63	26328.69
542.80	26787.43
542.97	26749.98
543.14	26829.56
543.31	27033.19
543.48	26740.62
543.64	27009.78
543.81	27187.66
543.98	26810.84
544.15	26995.74
544.32	27431.08
544.48	27360.86
544.65	27262.56
544.82	27007.44
544.99	26773.39
545.16	26918.50
545.32	26948.93
545.49	27054.25
545.66	27257.88
545.83	27304.69
546.00	27161.92
546.16	27234.47
546.33	27407.67
546.50	26581.46
546.67	27391.29
546.83	27014.46
547.00	27412.35
547.17	27793.86
547.34	27449.80
547.50	27866.42
547.67	28039.62
547.84	27651.09
548.00	27288.31
548.17	28004.51
548.34	27604.28
548.51	27791.52
548.67	27821.95
548.84	28032.60
549.01	27885.14
549.18	27676.83
549.34	27585.55
549.51	27957.70
549.68	27955.36
549.84	27786.84
550.01	27824.29
550.18	27885.14
550.34	28229.20
550.51	28147.28
550.68	28306.44
550.84	28041.96
551.01	28360.27
551.18	27775.14
551.34	27672.15
551.51	28500.70
551.68	28107.49
551.84	28271.33
552.01	28386.02
552.18	28364.95
552.34	28149.62
552.51	28151.96
552.68	28170.69
552.84	28428.15
553.01	28599.01
553.18	28273.67
553.34	28308.78
553.51	28655.18
553.67	28624.75
553.84	28797.95
554.01	28355.59
554.17	28629.43
554.34	28842.42
554.51	28641.14
554.67	28606.03
554.84	28587.30
555.00	28381.34
555.17	28280.69
555.33	28816.68
555.50	28584.96
555.67	28685.61
555.83	28797.95
556.00	28690.29
556.16	29186.48
556.33	28638.80
556.50	29116.26
556.66	29369.04
556.83	28727.74
556.99	29048.39
557.16	29109.24
557.32	28854.12
557.49	29165.42
557.65	28896.25
557.82	29139.67
557.98	28730.08
558.15	28776.89
558.32	29635.86
558.48	29003.92
558.65	28996.90
558.81	29092.86
558.98	29237.97
559.14	29127.97
559.31	28767.52
559.47	28926.68
559.64	28987.53
559.80	29202.86
559.97	29200.52
560.13	29223.93
560.30	29528.20
560.46	29502.45
560.63	29195.84
560.79	29125.63
560.96	29165.42
561.12	28884.55
561.29	29200.52
561.45	29371.38
561.61	29610.12
561.78	29701.40
561.94	29727.14
562.11	29579.69
562.27	29226.27
562.44	29689.70
562.60	29780.98
562.77	29474.37
562.93	29518.84
563.10	29703.74
563.26	29200.52
563.42	29790.34
563.59	29862.90
563.75	29991.62
563.92	29788.00
564.08	29977.58
564.24	29399.47
564.41	29692.04
564.57	29280.10
564.74	29923.75
564.90	29809.06
565.07	29778.64
565.23	29785.66
565.39	29923.75
565.56	30066.52
565.72	29699.06
565.88	29720.12
566.05	29406.49
566.21	29958.86
566.38	29706.08
566.54	30038.44
566.70	30059.50
566.87	30356.75
567.03	29879.28
567.19	30249.08
567.36	30487.82
567.52	29605.44
567.68	30106.31
567.85	29968.22
568.01	29603.10
568.17	29834.81
568.34	30054.82
568.50	30047.80
568.66	29790.34
568.83	30146.10
568.99	29975.24
569.15	30363.77
569.32	29914.39
569.48	29673.31
569.64	30000.99
569.81	30036.09
569.97	29961.20
570.13	30029.07
570.30	30253.76
570.46	30340.36
570.62	29755.23
570.78	30211.64
570.95	30230.36
571.11	30157.80
571.27	29720.12
571.43	30103.97
571.60	30174.19
571.76	29809.06
571.92	30307.60
572.09	30333.34
572.25	30218.66
572.41	30646.97
572.57	30302.92
572.74	30022.05
572.90	30199.93
573.06	30031.41
573.22	29954.18
573.38	30089.93
573.55	29975.24
573.71	30501.86
573.87	30827.20
574.03	30459.73
574.20	30129.72
574.36	30120.35
574.52	30424.62
574.68	30061.84
574.84	30614.21
575.01	30380.15
575.17	30436.33
575.33	30298.23
575.49	30218.66
575.65	30302.92
575.82	30511.22
575.98	30274.83
576.14	30543.99
576.30	30279.51
576.46	30059.50
576.62	30073.54
576.79	30382.49
576.95	30122.69
577.11	30483.14
577.27	30499.52
577.43	30443.35
577.59	30272.49
577.75	30473.78
577.92	30295.89
578.08	30398.88
578.24	30553.35
578.40	30223.34
578.56	30782.73
578.72	29972.90
578.88	30801.45
579.04	30698.47
579.21	30000.99
579.37	30438.67
579.53	30794.43
579.69	30190.57
579.85	30087.59
580.01	30335.68
580.17	30244.40
580.33	30366.11
580.49	30661.02
580.65	30417.60
580.82	30401.22
580.98	30483.14
581.14	30387.18
581.30	30768.68
581.46	30424.62
581.62	30419.94
581.78	30293.55
581.94	30396.54
582.10	30459.73
582.26	30448.03
582.42	30614.21
582.58	30663.36
582.74	30618.89
582.90	30972.31
583.06	30759.32
583.22	30616.55
583.38	30445.69
583.54	30417.60
583.70	30625.91
583.86	30668.04
584.02	30630.59
584.18	30829.54
584.34	31019.12
584.50	30796.77
584.66	30429.30
584.82	30499.52
584.98	30625.91
585.14	30642.29
585.30	30265.47
585.46	30607.19
585.62	30576.76
585.78	30190.57
585.94	30567.40
586.10	30632.93
586.26	31075.29
586.42	30445.69
586.58	30586.12
586.74	30242.06
586.90	30443.35
587.06	30483.14
587.22	30752.30
587.38	30485.48
587.54	31122.10
587.70	31227.43
587.86	31161.89
588.02	30754.64
588.18	31089.34
588.34	30703.15
588.49	31049.55
588.65	30700.81
588.81	30567.40
588.97	30859.96
589.13	30850.60
589.29	30785.07
589.45	30955.93
589.61	30764.00
589.77	31119.76
589.93	30871.67
590.08	30916.14
590.24	30756.98
590.40	30998.06
590.56	30831.88
590.72	30658.68
590.88	30764.00
591.04	30904.43
591.20	30941.88
591.35	31054.23
591.51	31400.63
591.67	31014.44
591.83	31412.33
591.99	31178.28
