SpectraSuite Data File
++++++++++++++++++++++++++++++++++++
Date: Fri Oct 18 13:58:17 GMT-05:00 2013
User: bianchi
Dark Spectrum Present: No
Reference Spectrum Present: No
Number of Sampled Component Spectra: 1
Spectrometers: USB2+H05261
Integration Time (usec): 50000 (USB2+H05261)
Spectra Averaged: 1 (USB2+H05261)
Boxcar Smoothing: 0 (USB2+H05261)
Correct for Electrical Dark: No (USB2+H05261)
Strobe/Lamp Enabled: No (USB2+H05261)
Correct for Detector Non-linearity: No (USB2+H05261)
Correct for Stray Light: No (USB2+H05261)
Number of Pixels in Processed Spectrum: 2048
>>>>>Begin Processed Spectral Data<<<<<
365.73	0.00
365.92	0.00
366.12	0.00
366.32	0.00
366.52	0.00
366.72	0.00
366.91	0.00
367.11	0.00
367.31	0.00
367.51	0.00
367.70	0.00
367.90	0.00
368.10	0.00
368.30	0.00
368.49	0.00
368.69	0.00
368.89	0.00
369.09	0.00
369.28	0.00
369.48	0.00
369.68	0.00
369.87	0.00
370.07	0.00
370.27	0.00
370.47	0.00
370.66	37.45
370.86	93.62
371.06	149.79
371.25	149.79
371.45	112.35
371.65	119.37
371.84	163.84
372.04	159.16
372.24	187.24
372.44	161.50
372.63	257.46
372.83	236.39
373.03	245.76
373.22	133.41
373.42	168.52
373.62	203.63
373.81	187.24
374.01	234.05
374.21	215.33
374.40	252.78
374.60	308.95
374.79	227.03
374.99	287.89
375.19	222.35
375.38	198.95
375.58	285.55
375.78	245.76
375.97	353.42
376.17	280.86
376.37	266.82
376.56	259.80
376.76	231.71
376.95	203.63
377.15	252.78
377.35	229.37
377.54	236.39
377.74	273.84
377.93	297.25
378.13	264.48
378.33	236.39
378.52	229.37
378.72	278.52
378.91	290.23
379.11	273.84
379.31	287.89
379.50	287.89
379.70	262.14
379.89	266.82
380.09	243.42
380.28	332.36
380.48	327.68
380.68	292.57
380.87	308.95
381.07	273.84
381.26	372.15
381.46	337.04
381.65	292.57
381.85	353.42
382.04	351.08
382.24	341.72
382.43	322.99
382.63	358.10
382.83	327.68
383.02	395.55
383.22	397.89
383.41	360.44
383.61	369.80
383.80	440.02
384.00	339.38
384.19	365.12
384.39	353.42
384.58	351.08
384.78	411.93
384.97	360.44
385.17	414.27
385.36	372.15
385.56	454.06
385.75	386.19
385.95	374.49
386.14	388.53
386.34	341.72
386.53	306.61
386.72	407.25
386.92	365.12
387.11	386.19
387.31	353.42
387.50	425.98
387.70	421.30
387.89	458.74
388.09	440.02
388.28	409.59
388.48	458.74
388.67	386.19
388.86	496.19
389.06	404.91
389.25	475.13
389.45	475.13
389.64	514.92
389.84	458.74
390.03	500.87
390.22	519.60
390.42	496.19
390.61	458.74
390.81	475.13
391.00	423.64
391.19	507.90
391.39	543.00
391.58	514.92
391.78	482.15
391.97	599.18
392.16	596.84
392.36	540.66
392.55	475.13
392.75	575.77
392.94	465.77
393.13	566.41
393.33	526.62
393.52	552.37
393.71	589.82
393.91	582.79
394.10	538.32
394.29	629.60
394.49	550.03
394.68	531.30
394.88	575.77
395.07	552.37
395.26	533.64
395.46	629.60
395.65	617.90
395.84	592.16
396.04	664.71
396.23	692.80
396.42	627.26
396.62	674.07
396.81	643.65
397.00	606.20
397.19	603.86
397.39	648.33
397.58	683.44
397.77	587.47
397.97	760.67
398.16	720.88
398.35	699.82
398.55	685.78
398.74	676.41
398.93	725.57
399.12	678.76
399.32	664.71
399.51	730.25
399.70	863.66
399.90	716.20
400.09	791.10
400.28	758.33
400.47	784.08
400.67	833.23
400.86	821.53
401.05	816.85
401.24	837.91
401.44	802.80
401.63	823.87
401.82	866.00
402.01	844.93
402.21	814.51
402.40	767.70
402.59	814.51
402.78	774.72
402.97	866.00
403.17	894.08
403.36	830.89
403.55	926.85
403.74	940.90
403.93	830.89
404.13	898.77
404.32	823.87
404.51	919.83
404.70	915.15
404.89	887.06
405.09	875.36
405.28	858.98
405.47	950.26
405.66	1015.79
405.85	980.68
406.05	950.26
406.24	987.71
406.43	940.90
406.62	1022.81
406.81	1069.62
407.00	1015.79
407.20	1004.09
407.39	1022.81
407.58	992.39
407.77	1069.62
407.96	1146.86
408.15	1158.57
408.34	1039.20
408.54	1064.94
408.73	1142.18
408.92	1228.78
409.11	1137.50
409.30	1130.48
409.49	1121.12
409.68	1130.48
409.87	1142.18
410.07	1196.01
410.26	1116.44
410.45	1196.01
410.64	1100.05
410.83	1214.74
411.02	1270.91
411.21	1254.53
411.40	1235.80
411.59	1287.29
411.78	1088.35
411.98	1275.59
412.17	1249.85
412.36	1299.00
412.55	1331.76
412.74	1371.55
412.93	1299.00
413.12	1303.68
413.31	1341.13
413.50	1348.15
413.69	1409.00
413.88	1514.33
414.07	1390.28
414.26	1476.88
414.45	1434.75
414.64	1521.35
414.83	1504.96
415.02	1472.20
415.22	1544.75
415.41	1514.33
415.60	1521.35
415.79	1586.88
415.98	1645.40
416.17	1490.92
416.36	1659.44
416.55	1643.06
416.74	1596.25
416.93	1591.56
417.12	1708.59
417.31	1792.85
417.50	1664.12
417.69	1762.42
417.88	1673.48
418.07	1657.10
418.26	1675.82
418.45	1715.61
418.64	1783.49
418.83	1888.81
419.02	1764.76
419.21	1823.28
419.39	1879.45
419.58	1799.87
419.77	1849.02
419.96	1858.39
420.15	1886.47
420.34	1891.15
420.53	1891.15
420.72	1849.02
420.91	1933.28
421.10	1952.01
421.29	1893.49
421.48	1877.11
421.67	1928.60
421.86	1895.83
422.05	1982.43
422.24	1858.39
422.43	1923.92
422.61	2031.58
422.80	2003.50
422.99	2062.01
423.18	1968.39
423.37	2092.44
423.56	2148.61
423.75	2012.86
423.94	1930.94
424.13	1746.04
424.32	1947.33
424.50	2050.31
424.69	2062.01
424.88	2064.35
425.07	2010.52
425.26	1977.75
425.45	1975.41
425.64	2104.14
425.83	2017.54
426.01	1966.05
426.20	2069.03
426.39	1998.82
426.58	1975.41
426.77	2073.71
426.96	2193.08
427.15	2118.18
427.33	2092.44
427.52	2118.18
427.71	2038.61
427.90	2183.72
428.09	2157.97
428.28	2232.87
428.46	2246.91
428.65	2162.66
428.84	2326.49
429.03	2272.66
429.22	2216.49
429.40	2272.66
429.59	2179.04
429.78	2230.53
429.97	2160.31
430.16	2176.70
430.34	2321.81
430.53	2237.55
430.72	2462.24
430.91	2305.43
431.10	2214.15
431.28	2321.81
431.47	2340.54
431.66	2338.20
431.85	2417.77
432.03	2424.80
432.22	2448.20
432.41	2436.50
432.60	2380.32
432.79	2408.41
432.97	2518.42
433.16	2558.21
433.35	2480.97
433.54	2506.71
433.72	2513.74
433.91	2483.31
434.10	2576.93
434.28	2368.62
434.47	2450.54
434.66	2537.14
434.85	2548.84
435.03	2576.93
435.22	2675.23
435.41	2642.46
435.59	2623.74
435.78	2588.63
435.97	2595.65
436.16	2628.42
436.34	2593.31
436.53	2719.70
436.72	2792.26
436.90	2731.41
437.09	2759.49
437.28	2696.30
437.46	2738.43
437.65	2647.15
437.84	2867.16
438.02	2799.28
438.21	2736.09
438.40	2682.25
438.58	2904.60
438.77	2771.19
438.96	2895.24
439.14	2930.35
439.33	2974.82
439.52	2963.12
439.70	2897.58
439.89	2923.33
440.08	2960.78
440.26	3115.25
440.45	2984.18
440.63	3040.36
440.82	3133.98
441.01	3248.66
441.19	3000.57
441.38	3133.98
441.57	3122.27
441.75	3162.06
441.94	3215.90
442.12	3251.00
442.31	3438.25
442.50	3332.92
442.68	3255.69
442.87	3192.49
443.05	3384.41
443.24	3407.82
443.43	3253.34
443.61	3513.14
443.80	3459.31
443.98	3379.73
444.17	3227.60
444.35	3417.18
444.54	3452.29
444.73	3379.73
444.91	3307.18
445.10	3391.44
445.28	3353.99
445.47	3400.80
445.65	3344.63
445.84	3583.36
446.02	3545.91
446.21	3419.52
446.39	3471.01
446.58	3522.51
446.77	3431.23
446.95	3461.65
447.14	3487.40
447.32	3559.95
447.51	3545.91
447.69	3475.70
447.88	3508.46
448.06	3482.72
448.25	3590.38
448.43	3487.40
448.62	3508.46
448.80	3655.92
448.99	3569.32
449.17	3524.85
449.36	3693.37
449.54	3688.68
449.73	3700.39
449.91	3707.41
450.10	3609.11
450.28	3700.39
450.46	3770.60
450.65	3681.66
450.83	3887.63
451.02	3772.94
451.20	3716.77
451.39	3887.63
451.57	3857.20
451.76	3719.11
451.94	3829.12
452.13	3906.35
452.31	3840.82
452.49	3707.41
452.68	3852.52
452.86	3861.88
453.05	3911.04
453.23	3878.27
453.42	3864.22
453.60	3974.23
453.78	3978.91
453.97	3791.67
454.15	3946.14
454.34	3985.93
454.52	3927.42
454.70	3906.35
454.89	4072.53
455.07	3950.82
455.26	4091.26
455.44	4070.19
455.62	4105.30
455.81	4004.66
455.99	4201.26
456.17	4121.68
456.36	4299.56
456.54	4369.78
456.73	4184.88
456.91	4269.14
457.09	4259.78
457.28	4311.27
457.46	4353.40
457.64	4400.21
457.83	4337.01
458.01	4194.24
458.19	4351.06
458.38	4290.20
458.56	4554.68
458.74	4390.84
458.93	4463.40
459.11	4465.74
459.29	4374.46
459.48	4580.43
459.66	4470.42
459.84	4594.47
460.03	4645.96
460.21	4730.22
460.39	4589.79
460.57	4514.89
460.76	4486.81
460.94	4734.90
461.12	4589.79
461.31	4664.69
461.49	4585.11
461.67	4552.34
461.85	4844.91
462.04	4613.20
462.22	5032.15
462.40	4858.95
462.59	4751.29
462.77	4816.82
462.95	4671.71
463.13	4805.12
463.32	4793.42
463.50	4826.18
463.68	4919.81
463.86	4837.89
464.05	4795.76
464.23	4861.29
464.41	4844.91
464.59	4702.14
464.78	4992.36
464.96	4901.08
465.14	4786.40
465.32	4978.32
465.50	5083.64
465.69	5149.18
465.87	5004.07
466.05	4973.64
466.23	4926.83
466.41	5020.45
466.60	5146.84
466.78	4875.34
466.96	5085.98
467.14	4992.36
467.32	5151.52
467.51	5163.22
467.69	5006.41
467.87	5200.67
468.05	5203.01
468.23	5114.07
468.41	5123.43
468.60	5067.26
468.78	5198.33
468.96	5263.86
469.14	5188.97
469.32	5266.21
469.50	5305.99
469.69	5476.85
469.87	5490.90
470.05	5392.59
470.23	5320.04
470.41	5425.36
470.59	5526.00
470.77	5425.36
470.95	5542.39
471.14	5612.60
471.32	5411.32
471.50	5586.86
471.68	5591.54
471.86	5699.20
472.04	5607.92
472.22	5856.02
472.40	5671.12
472.58	5650.05
472.77	5755.38
472.95	5734.31
473.13	6031.56
473.31	5851.34
473.49	5645.37
473.67	5926.24
473.85	5692.18
474.03	6132.20
474.21	5905.17
474.39	6111.14
474.57	6083.05
474.75	6099.44
474.93	6237.53
475.12	6277.32
475.30	6143.91
475.48	6204.76
475.66	6382.64
475.84	6459.88
476.02	6298.38
476.20	6469.24
476.38	6558.18
476.56	6445.84
476.74	6565.20
476.92	6462.22
477.10	6527.75
477.28	6670.53
477.46	6832.02
477.64	6780.53
477.82	6895.22
478.00	6998.20
478.18	6998.20
478.36	7042.67
478.54	6958.41
478.72	6984.16
478.90	7152.68
479.08	7152.68
479.26	7276.73
479.44	7496.74
479.62	7438.22
479.80	7489.71
479.98	7487.37
480.16	7639.51
480.34	7330.56
480.52	7791.64
480.70	7688.66
480.88	7403.11
481.06	7763.56
481.24	7730.79
481.41	7913.35
481.59	7894.63
481.77	8187.19
481.95	8217.62
482.13	7793.98
482.31	8131.02
482.49	8234.00
482.67	8285.50
482.85	8278.47
483.03	8416.57
483.21	8688.07
483.39	8498.49
483.57	8620.19
483.74	8709.13
483.92	8652.96
484.10	8652.96
484.28	8952.55
484.46	9107.02
484.64	9282.56
484.82	8779.35
485.00	8959.57
485.18	9231.07
485.35	9549.39
485.53	9324.69
485.71	9650.03
485.89	9643.01
486.07	9502.58
486.25	9626.62
486.43	9708.54
486.61	9973.02
486.78	9778.76
486.96	9858.34
487.14	10228.14
487.32	10106.43
487.50	10148.56
487.68	10092.39
487.85	10178.99
488.03	10429.43
488.21	10677.52
488.39	10721.99
488.57	10633.05
488.75	10504.32
488.92	10792.21
489.10	10693.91
489.28	11087.12
489.46	10949.03
489.64	11269.68
489.81	11360.96
489.99	11463.94
490.17	11166.70
490.35	11356.28
490.53	11513.10
490.70	11676.93
490.88	11667.57
491.06	11555.22
491.24	11721.40
491.41	11932.05
491.59	11922.69
491.77	12203.55
491.95	12098.23
492.13	12203.55
492.30	12126.32
492.48	12252.70
492.66	12416.54
492.84	12608.47
493.01	12683.36
493.19	12489.10
493.37	12830.82
493.54	12535.91
493.72	13015.72
493.90	12713.79
494.08	12819.11
494.25	13242.75
494.43	12978.27
494.61	13397.23
494.79	13422.97
494.96	13114.02
495.14	13312.97
495.32	13755.33
495.49	13668.73
495.67	13556.38
495.85	13846.61
496.02	13771.71
496.20	13886.40
496.38	13839.59
496.55	14024.49
496.73	14193.01
496.91	14134.50
497.09	14476.21
497.26	14506.64
497.44	14153.22
497.62	14520.68
497.79	14413.02
497.97	14583.88
498.14	14773.46
498.32	14686.86
498.50	14815.59
498.67	15187.74
498.85	15066.03
499.03	15227.53
499.20	15122.20
499.38	14939.64
499.56	15066.03
499.73	15164.33
499.91	15183.06
500.08	15440.51
500.26	15337.53
500.44	15356.25
500.61	15520.09
500.79	15679.25
500.97	15775.21
501.14	15885.22
501.32	15943.73
501.49	15800.96
501.67	15658.18
501.84	16123.95
502.02	16098.20
502.20	16060.76
502.37	16407.16
502.55	16472.69
502.72	16418.86
502.90	16126.29
503.07	16091.18
503.25	16540.57
503.43	16161.40
503.60	16463.33
503.78	16786.32
503.95	16629.51
504.13	16636.53
504.30	16791.00
504.48	16498.44
504.65	16688.02
504.83	16959.52
505.01	17207.62
505.18	16936.12
505.36	17160.81
505.53	17153.79
505.71	17092.93
505.88	17090.59
506.06	16805.05
506.23	17341.03
506.41	17233.36
506.58	17649.98
506.76	17752.96
506.93	17303.58
507.11	17137.40
507.28	17638.28
507.46	17671.04
507.63	17647.64
507.81	17799.77
507.98	17694.45
508.16	17708.49
508.33	17727.22
508.50	17783.39
508.68	17851.27
508.85	18232.77
509.03	18150.85
509.20	18368.52
509.38	18321.71
509.55	18771.10
509.73	18647.05
509.90	18314.69
510.08	18789.82
510.25	18396.61
510.42	18298.31
510.60	18925.57
510.77	18480.87
510.95	18640.03
511.12	18677.48
511.30	18654.07
511.47	18778.12
511.64	18972.38
511.82	18981.74
511.99	18862.38
512.17	19129.20
512.34	19269.63
512.51	19384.32
512.69	19300.06
512.86	19222.82
513.04	19365.59
513.21	19648.80
513.38	19653.48
513.56	19475.60
513.73	19510.71
513.90	19805.61
514.08	19634.75
514.25	19796.25
514.43	19784.55
514.60	19880.51
514.77	19838.38
514.95	20205.84
515.12	19700.29
515.29	20074.77
515.47	20081.80
515.64	19934.34
515.81	19999.88
515.99	19955.41
516.16	20245.63
516.33	20460.96
516.51	20329.89
516.68	20126.27
516.85	20116.90
517.03	20418.83
517.20	20540.54
517.37	20662.25
517.54	20603.74
517.72	20624.80
517.89	20725.44
518.06	20603.74
518.24	20428.20
518.41	20594.37
518.58	20723.10
518.75	20734.81
518.93	20753.53
519.10	20893.96
519.27	21048.44
519.45	21111.63
519.62	20727.78
519.79	20767.57
519.96	21266.11
520.14	21322.28
520.31	21090.57
520.48	21738.90
520.65	21233.34
520.83	21493.14
521.00	21373.77
521.17	21317.60
521.34	21483.78
521.52	21451.01
521.69	21832.52
521.86	21525.91
522.03	21792.73
522.20	21905.07
522.38	21699.11
522.55	21734.21
522.72	21759.96
522.89	21874.65
523.07	21972.95
523.24	22349.78
523.41	22057.21
523.58	21956.57
523.75	22047.85
523.92	21949.54
524.10	22443.40
524.27	21954.22
524.44	22401.27
524.61	22422.33
524.78	22230.41
524.96	22586.17
525.13	22595.53
525.30	22455.10
525.47	22775.75
525.64	22855.33
525.81	22768.73
525.98	23187.69
526.16	23014.49
526.33	23077.68
526.50	23002.78
526.67	22469.14
526.84	23047.26
527.01	22888.10
527.18	23293.01
527.36	23213.43
527.53	23234.50
527.70	23676.86
527.87	23288.33
528.04	23267.27
528.21	23351.52
528.38	22824.90
528.55	23267.27
528.72	23201.73
528.89	23644.09
529.07	23480.25
529.24	23449.83
529.41	23695.58
529.58	23768.14
529.75	23468.55
529.92	23711.97
530.09	23735.37
530.26	23250.88
530.43	23623.03
530.60	23721.33
530.77	23892.19
530.94	23761.12
531.11	23674.52
531.28	23407.70
531.46	23716.65
531.63	23754.10
531.80	24046.66
531.97	23976.45
532.14	24144.97
532.31	23929.64
532.48	24280.72
532.65	24372.00
532.82	24006.87
532.99	24587.33
533.16	24301.78
533.33	24273.70
533.50	24285.40
533.67	24287.74
533.84	24533.50
534.01	24470.30
534.18	24542.86
534.35	24739.46
534.52	24423.49
534.69	24922.02
534.86	24797.98
535.03	24893.94
535.20	24617.75
535.37	24596.69
535.54	24821.38
535.71	24629.46
535.88	24573.28
536.05	24554.56
536.22	24971.18
536.38	25432.26
536.55	24931.39
536.72	25050.75
536.89	24807.34
537.06	24959.47
537.23	25273.10
537.40	24842.45
537.57	24980.54
537.74	25263.74
537.91	25469.71
538.08	25399.49
538.25	25156.08
538.42	24966.49
538.59	25104.59
538.75	25022.67
538.92	25406.52
539.09	25249.70
539.26	25502.48
539.43	25465.03
539.60	25722.49
539.77	25947.18
539.94	25991.65
540.11	25600.78
540.28	25958.88
540.44	25743.55
540.61	25696.74
540.78	25795.04
540.95	25811.43
541.12	25837.17
541.29	25776.32
541.46	25783.34
541.62	25989.31
541.79	25832.49
541.96	25490.77
542.13	26017.40
542.30	26300.60
542.47	26319.32
542.63	25923.77
542.80	26199.96
542.97	26162.51
543.14	26354.43
543.31	26293.58
543.48	26539.33
543.64	26567.42
543.81	26654.02
543.98	26639.98
544.15	26452.73
544.32	27161.92
544.48	26733.60
544.65	26176.55
544.82	26600.19
544.99	26150.81
545.16	26808.50
545.32	26600.19
545.49	26955.95
545.66	26897.44
545.83	27161.92
546.00	26822.54
546.16	26742.96
546.33	26799.13
546.50	26654.02
546.67	27005.10
546.83	26384.86
547.00	26712.53
547.17	26911.48
547.34	26684.45
547.50	27168.94
547.67	27501.29
547.84	27452.14
548.00	27133.83
548.17	27407.67
548.34	27407.67
548.51	27557.47
548.67	26941.91
548.84	27367.88
549.01	27271.92
549.18	27353.84
549.34	27400.65
549.51	27346.82
549.68	27541.08
549.84	27564.49
550.01	27402.99
550.18	27388.95
550.34	27735.35
550.51	27835.99
550.68	27646.41
550.84	27276.60
551.01	27962.38
551.18	27426.40
551.34	27103.40
551.51	27555.13
551.68	27742.37
551.84	27470.87
552.01	27960.04
552.18	28102.81
552.34	27599.60
552.51	27843.01
552.68	27847.69
552.84	27845.35
553.01	28147.28
553.18	28011.53
553.34	28098.13
553.51	28044.30
553.67	28283.03
553.84	28517.09
554.01	28107.49
554.17	28027.92
554.34	28009.19
554.51	27990.47
554.67	28498.36
554.84	28091.11
555.00	28297.08
555.17	28161.33
555.33	28313.46
555.50	28161.33
555.67	28353.25
555.83	28261.97
556.00	28194.09
556.16	28584.96
556.33	28245.58
556.50	28346.23
556.66	28158.99
556.83	28245.58
556.99	28451.55
557.16	28641.14
557.32	28074.73
557.49	28437.51
557.65	28332.18
557.82	28603.69
557.98	28264.31
558.15	28601.35
558.32	28811.99
558.48	28826.04
558.65	28807.31
558.81	28863.49
558.98	28751.14
559.14	29027.32
559.31	28790.93
559.47	28877.53
559.64	28767.52
559.80	28889.23
559.97	29120.95
560.13	28758.16
560.30	28964.13
560.46	28978.17
560.63	28964.13
560.79	29219.25
560.96	29024.98
561.12	29083.50
561.29	28603.69
561.45	28599.01
561.61	28973.49
561.78	29074.13
561.94	28720.71
562.11	29085.84
562.27	29237.97
562.44	29064.77
562.60	29324.57
562.77	28748.80
562.93	28830.72
563.10	29191.16
563.26	28996.90
563.42	29462.66
563.59	29371.38
563.75	29163.08
563.92	29219.25
564.08	29146.69
564.24	28849.44
564.41	29092.86
564.57	29324.57
564.74	29488.41
564.90	29111.58
565.07	29223.93
565.23	29345.64
565.39	29369.04
565.56	29565.65
565.72	29291.80
565.88	29130.31
566.05	28856.46
566.21	29156.05
566.38	29486.07
566.54	29366.70
566.70	29310.53
566.87	29429.90
567.03	29921.41
567.19	29710.76
567.36	29170.10
567.52	29518.84
567.68	29422.87
567.85	29415.85
568.01	29586.71
568.17	29607.78
568.34	29460.32
568.50	29848.85
568.66	29343.30
568.83	29539.90
568.99	29570.33
569.15	29652.25
569.32	29113.92
569.48	29420.53
569.64	29694.38
569.81	29355.00
569.97	29455.64
570.13	29909.71
570.30	29443.94
570.46	29834.81
570.62	29790.34
570.78	29542.24
570.95	29209.89
571.11	29474.37
571.27	29472.03
571.43	29603.10
571.60	29624.16
571.76	29256.70
571.92	30073.54
572.09	29666.29
572.25	29654.59
572.41	29830.13
572.57	29603.10
572.74	30038.44
572.90	29474.37
573.06	29537.56
573.22	30038.44
573.38	29404.15
573.55	29633.52
573.71	29984.60
573.87	29722.46
574.03	29795.02
574.20	29724.80
574.36	29752.89
574.52	29989.28
574.68	29944.81
574.84	29841.83
575.01	29813.74
575.17	30237.38
575.33	29888.64
575.49	29883.96
575.65	29886.30
575.82	29996.31
575.98	29926.09
576.14	29923.75
576.30	29813.74
576.46	29694.38
576.62	29579.69
576.79	30075.88
576.95	29797.36
577.11	29813.74
577.27	29656.93
577.43	30213.98
577.59	30012.69
577.75	29778.64
577.92	29474.37
578.08	29642.88
578.24	29362.02
578.40	29771.61
578.56	29764.59
578.72	29797.36
578.88	30143.76
579.04	30242.06
579.21	30080.56
579.37	30125.04
579.53	29750.55
579.69	30134.40
579.85	29584.37
580.01	29907.37
580.17	30015.03
580.33	29851.19
580.49	30017.37
580.65	30068.86
580.82	30181.21
580.98	30008.01
581.14	30157.80
581.30	30265.47
581.46	29956.52
581.62	29879.28
581.78	29881.62
581.94	30087.59
582.10	29685.01
582.26	30010.35
582.42	29986.94
582.58	29851.19
582.74	30319.30
582.90	30237.38
583.06	30047.80
583.22	30015.03
583.38	30146.10
583.54	29979.92
583.70	30094.61
583.86	30401.22
584.02	29912.05
584.18	30223.34
584.34	30459.73
584.50	30141.42
584.66	30256.11
584.82	30087.59
584.98	30017.37
585.14	29820.77
585.30	29963.54
585.46	30047.80
585.62	30073.54
585.78	30291.21
585.94	29504.79
586.10	30209.29
586.26	30300.58
586.42	30293.55
586.58	30005.67
586.74	30047.80
586.90	30153.12
587.06	30232.70
587.22	30059.50
587.38	29500.11
587.54	30490.16
587.70	30513.56
587.86	30457.39
588.02	30164.82
588.18	30232.70
588.34	30511.22
588.49	30536.97
588.65	29860.55
588.81	30223.34
588.97	30333.34
589.13	30080.56
589.29	30082.91
589.45	30230.36
589.61	30478.46
589.77	30155.46
589.93	30225.68
590.08	30291.21
590.24	30459.73
590.40	30658.68
590.56	30384.83
590.72	30096.95
590.88	30438.67
591.04	30108.65
591.20	30298.23
591.35	30656.34
591.51	30801.45
591.67	30370.79
591.83	30485.48
591.99	30331.00
