SpectraSuite Data File
++++++++++++++++++++++++++++++++++++
Date: Fri Oct 18 13:58:43 GMT-05:00 2013
User: bianchi
Dark Spectrum Present: No
Reference Spectrum Present: No
Number of Sampled Component Spectra: 1
Spectrometers: USB2+H05261
Integration Time (usec): 50000 (USB2+H05261)
Spectra Averaged: 1 (USB2+H05261)
Boxcar Smoothing: 0 (USB2+H05261)
Correct for Electrical Dark: No (USB2+H05261)
Strobe/Lamp Enabled: No (USB2+H05261)
Correct for Detector Non-linearity: No (USB2+H05261)
Correct for Stray Light: No (USB2+H05261)
Number of Pixels in Processed Spectrum: 2048
>>>>>Begin Processed Spectral Data<<<<<
365.73	0.00
365.92	0.00
366.12	0.00
366.32	0.00
366.52	0.00
366.72	0.00
366.91	0.00
367.11	0.00
367.31	0.00
367.51	0.00
367.70	0.00
367.90	0.00
368.10	0.00
368.30	0.00
368.49	0.00
368.69	0.00
368.89	0.00
369.09	0.00
369.28	0.00
369.48	0.00
369.68	0.00
369.87	0.00
370.07	0.00
370.27	0.00
370.47	0.00
370.66	84.26
370.86	102.98
371.06	173.20
371.25	154.48
371.45	70.22
371.65	128.73
371.84	201.29
372.04	53.83
372.24	91.28
372.44	135.75
372.63	220.01
372.83	182.56
373.03	198.95
373.22	196.60
373.42	234.05
373.62	234.05
373.81	173.20
374.01	245.76
374.21	182.56
374.40	236.39
374.60	177.88
374.79	222.35
374.99	334.70
375.19	187.24
375.38	243.42
375.58	259.80
375.78	187.24
375.97	269.16
376.17	292.57
376.37	276.18
376.56	208.31
376.76	229.37
376.95	337.04
377.15	273.84
377.35	257.46
377.54	262.14
377.74	278.52
377.93	222.35
378.13	313.63
378.33	351.08
378.52	334.70
378.72	264.48
378.91	222.35
379.11	278.52
379.31	362.78
379.50	264.48
379.70	280.86
379.89	407.25
380.09	271.50
380.28	360.44
380.48	306.61
380.68	322.99
380.87	292.57
381.07	311.29
381.26	344.06
381.46	318.31
381.65	255.12
381.85	304.27
382.04	322.99
382.24	308.95
382.43	308.95
382.63	306.61
382.83	344.06
383.02	397.89
383.22	341.72
383.41	334.70
383.61	376.83
383.80	397.89
384.00	362.78
384.19	341.72
384.39	285.55
384.58	327.68
384.78	383.85
384.97	418.96
385.17	374.49
385.36	433.00
385.56	454.06
385.75	376.83
385.95	454.06
386.14	376.83
386.34	395.55
386.53	339.38
386.72	414.27
386.92	374.49
387.11	433.00
387.31	400.23
387.50	435.34
387.70	433.00
387.89	388.53
388.09	442.36
388.28	418.96
388.48	369.80
388.67	514.92
388.86	470.45
389.06	428.32
389.25	641.31
389.45	477.47
389.64	486.83
389.84	468.11
390.03	571.09
390.22	423.64
390.42	564.07
390.61	475.13
390.81	507.90
391.00	491.51
391.19	496.19
391.39	524.28
391.58	564.07
391.78	538.32
391.97	475.13
392.16	489.17
392.36	580.45
392.55	554.71
392.75	592.16
392.94	557.05
393.13	528.96
393.33	512.58
393.52	575.77
393.71	594.50
393.91	566.41
394.10	561.73
394.29	550.03
394.49	463.43
394.68	538.32
394.88	617.90
395.07	645.99
395.26	468.11
395.46	552.37
395.65	650.67
395.84	594.50
396.04	676.41
396.23	573.43
396.42	613.22
396.62	627.26
396.81	660.03
397.00	641.31
397.19	638.97
397.39	655.35
397.58	641.31
397.77	692.80
397.97	720.88
398.16	631.94
398.35	645.99
398.55	725.57
398.74	713.86
398.93	774.72
399.12	688.12
399.32	648.33
399.51	690.46
399.70	662.37
399.90	753.65
400.09	737.27
400.28	854.30
400.47	758.33
400.67	716.20
400.86	809.83
401.05	730.25
401.24	849.61
401.44	788.76
401.63	856.64
401.82	748.97
402.01	819.19
402.21	823.87
402.40	751.31
402.59	793.44
402.78	875.36
402.97	903.45
403.17	802.80
403.36	919.83
403.55	807.48
403.74	805.14
403.93	755.99
404.13	877.70
404.32	882.38
404.51	798.12
404.70	856.64
404.89	1011.11
405.09	954.94
405.28	1011.11
405.47	905.79
405.66	903.45
405.85	1076.65
406.05	971.32
406.24	973.66
406.43	821.53
406.62	1006.43
406.81	1050.90
407.00	1006.43
407.20	992.39
407.39	1004.09
407.58	1057.92
407.77	1046.22
407.96	978.34
408.15	1046.22
408.34	1039.20
408.54	1006.43
408.73	1001.75
408.92	1008.77
409.11	1188.99
409.30	1093.03
409.49	1163.25
409.68	1149.20
409.87	1231.12
410.07	1165.59
410.26	1235.80
410.45	1191.33
410.64	1128.14
410.83	1125.80
411.02	1207.72
411.21	1221.76
411.40	1186.65
411.59	1235.80
411.78	1146.86
411.98	1163.25
412.17	1245.16
412.36	1341.13
412.55	1291.98
412.74	1392.62
412.93	1444.11
413.12	1352.83
413.31	1329.42
413.50	1397.30
413.69	1409.00
413.88	1448.79
414.07	1320.06
414.26	1355.17
414.45	1425.39
414.64	1528.37
414.83	1474.54
415.02	1551.78
415.22	1448.79
415.41	1668.80
415.60	1610.29
415.79	1614.97
415.98	1523.69
416.17	1469.86
416.36	1671.14
416.55	1542.41
416.74	1687.53
416.93	1638.38
417.12	1664.12
417.31	1673.48
417.50	1689.87
417.69	1685.19
417.88	1816.26
418.07	1621.99
418.26	1687.53
418.45	1741.36
418.64	1804.55
418.83	1785.83
419.02	1710.93
419.21	1825.62
419.39	1727.32
419.58	1783.49
419.77	1741.36
419.96	1877.11
420.15	1846.68
420.34	1909.88
420.53	1781.15
420.72	1909.88
420.91	1860.73
421.10	1944.99
421.29	1940.30
421.48	1874.77
421.67	1959.03
421.86	1886.47
422.05	2036.27
422.24	1827.96
422.43	1989.46
422.61	2069.03
422.80	2045.63
422.99	2010.52
423.18	2050.31
423.37	2019.88
423.56	2010.52
423.75	2069.03
423.94	1982.43
424.13	1937.96
424.32	1975.41
424.50	1982.43
424.69	2005.84
424.88	2040.95
425.07	1919.24
425.26	1998.82
425.45	2043.29
425.64	1966.05
425.83	2008.18
426.01	2097.12
426.20	1987.11
426.39	1977.75
426.58	2036.27
426.77	2057.33
426.96	2136.91
427.15	2073.71
427.33	2129.89
427.52	2181.38
427.71	2172.02
427.90	2143.93
428.09	2162.66
428.28	2129.89
428.46	2157.97
428.65	2132.23
428.84	2282.02
429.03	2246.91
429.22	2092.44
429.40	2176.70
429.59	2181.38
429.78	2080.74
429.97	2165.00
430.16	2122.87
430.34	2204.78
430.53	2361.60
430.72	2293.72
430.91	2242.23
431.10	2333.51
431.28	2448.20
431.47	2420.11
431.66	2448.20
431.85	2300.75
432.03	2417.77
432.22	2452.88
432.41	2413.09
432.60	2422.45
432.79	2483.31
432.97	2420.11
433.16	2506.71
433.35	2420.11
433.54	2387.35
433.72	2459.90
433.91	2434.16
434.10	2495.01
434.28	2487.99
434.47	2483.31
434.66	2427.14
434.85	2614.38
435.03	2546.50
435.22	2588.63
435.41	2710.34
435.59	2626.08
435.78	2663.53
435.97	2672.89
436.16	2644.81
436.34	2668.21
436.53	2665.87
436.72	2799.28
436.90	2637.78
437.09	2703.32
437.28	2715.02
437.46	2731.41
437.65	2696.30
437.84	2822.69
438.02	2846.09
438.21	2712.68
438.40	2778.22
438.58	2848.43
438.77	2832.05
438.96	2654.17
439.14	2923.33
439.33	2874.18
439.52	2920.99
439.70	3038.02
439.89	2986.52
440.08	3021.63
440.26	2970.14
440.45	2967.80
440.63	3089.51
440.82	3122.27
441.01	3131.64
441.19	3124.62
441.38	3084.83
441.57	3169.09
441.75	3171.43
441.94	3274.41
442.12	3288.45
442.31	3377.39
442.50	3225.26
442.68	3194.83
442.87	3215.90
443.05	3276.75
443.24	3251.00
443.43	3513.14
443.61	3365.69
443.80	3403.14
443.98	3213.56
444.17	3218.24
444.35	3459.31
444.54	3468.67
444.73	3391.44
444.91	3442.93
445.10	3304.84
445.28	3363.35
445.47	3316.54
445.65	3454.63
445.84	3351.65
446.02	3431.23
446.21	3503.78
446.39	3473.36
446.58	3513.14
446.77	3353.99
446.95	3339.94
447.14	3335.26
447.32	3496.76
447.51	3548.25
447.69	3489.74
447.88	3440.59
448.06	3356.33
448.25	3440.59
448.43	3478.04
448.62	3466.33
448.80	3454.63
448.99	3548.25
449.17	3456.97
449.36	3529.53
449.54	3653.58
449.73	3805.71
449.91	3707.41
450.10	3794.01
450.28	3789.33
450.46	3772.94
450.65	3611.45
450.83	3845.50
451.02	3688.68
451.20	3716.77
451.39	3819.75
451.57	3688.68
451.76	3749.54
451.94	3761.24
452.13	3871.25
452.31	3775.28
452.49	3660.60
452.68	3805.71
452.86	3892.31
453.05	3950.82
453.23	3801.03
453.42	3789.33
453.60	3878.27
453.78	3859.54
453.97	3932.10
454.15	3812.73
454.34	3992.95
454.52	3911.04
454.70	3878.27
454.89	3974.23
455.07	4060.83
455.26	3988.27
455.44	4039.76
455.62	4152.11
455.81	4117.00
455.99	4088.92
456.17	4159.13
456.36	4163.81
456.54	4095.94
456.73	4287.86
456.91	4404.89
457.09	4283.18
457.28	4379.14
457.46	4271.48
457.64	4325.31
457.83	4294.88
458.01	4358.08
458.19	4386.16
458.38	4442.34
458.56	4510.21
458.74	4451.70
458.93	4325.31
459.11	4491.49
459.29	4264.46
459.48	4465.74
459.66	4365.10
459.84	4561.70
460.03	4507.87
460.21	4580.43
460.39	4617.88
460.57	4458.72
460.76	4468.08
460.94	4685.75
461.12	4634.26
461.31	4688.09
461.49	4704.48
461.67	4498.51
461.85	4730.22
462.04	4580.43
462.22	4833.21
462.40	4695.11
462.59	4711.50
462.77	4758.31
462.95	4772.35
463.13	4688.09
463.32	4760.65
463.50	4863.63
463.68	4816.82
463.86	4891.72
464.05	4882.36
464.23	4709.16
464.41	5011.09
464.59	4884.70
464.78	4901.08
464.96	4908.10
465.14	4980.66
465.32	4924.49
465.50	5055.56
465.69	5001.72
465.87	4936.19
466.05	4784.06
466.23	4896.40
466.41	5050.88
466.60	5268.55
466.78	5006.41
466.96	5034.49
467.14	4898.74
467.32	5041.51
467.51	5029.81
467.69	5102.37
467.87	5139.82
468.05	5156.20
468.23	5158.54
468.41	5008.75
468.60	5046.20
468.78	5254.50
468.96	5109.39
469.14	5160.88
469.32	5259.18
469.50	5203.01
469.69	5348.12
469.87	5352.81
470.05	5392.59
470.23	5263.86
470.41	5366.85
470.59	5418.34
470.77	5404.30
470.95	5397.28
471.14	5533.03
471.32	5425.36
471.50	5518.98
471.68	5626.65
471.86	5685.16
472.04	5507.28
472.22	5682.82
472.40	5678.14
472.58	5516.64
472.77	5556.43
472.95	5867.72
473.13	6040.92
473.31	5806.87
473.49	5867.72
473.67	5781.12
473.85	5795.17
474.03	6019.86
474.21	5874.74
474.39	5975.39
474.57	6033.90
474.75	6249.23
474.93	6143.91
475.12	6157.95
475.30	6183.70
475.48	5907.51
475.66	6047.94
475.84	6155.61
476.02	6221.14
476.20	6410.73
476.38	6396.68
476.56	6677.55
476.74	6581.59
476.92	6614.35
477.10	6630.74
477.28	6663.51
477.46	6628.40
477.64	6670.53
477.82	6729.04
478.00	6829.68
478.18	6918.62
478.36	7159.70
478.54	6939.69
478.72	7129.27
478.90	7019.27
479.08	7108.21
479.26	7115.23
479.44	7253.32
479.62	7232.26
479.80	7274.38
479.98	7454.61
480.16	7529.50
480.34	7410.14
480.52	7801.01
480.70	7538.87
480.88	7606.74
481.06	7864.20
481.24	7721.43
481.41	7747.17
481.59	7983.57
481.77	7721.43
481.95	8124.00
482.13	7927.39
482.31	8025.70
482.49	8222.30
482.67	8395.50
482.85	8229.32
483.03	8351.03
483.21	8524.23
483.39	8613.17
483.57	8484.44
483.74	8409.54
483.92	8514.87
484.10	8805.10
484.28	8915.10
484.46	9050.85
484.64	9228.73
484.82	9029.79
485.00	9118.73
485.18	9067.24
485.35	9371.50
485.53	9240.44
485.71	9249.80
485.89	9654.71
486.07	9500.23
486.25	9486.19
486.43	9556.41
486.61	9736.63
486.78	9729.61
486.96	10043.24
487.14	9757.69
487.32	9881.74
487.50	9994.09
487.68	10120.48
487.85	10352.19
488.03	10373.25
488.21	10619.01
488.39	10593.26
488.57	10640.08
488.75	10789.87
488.92	10808.59
489.10	10719.65
489.28	11049.67
489.46	11229.89
489.64	10977.11
489.81	11225.21
489.99	11112.86
490.17	11281.38
490.35	11330.53
490.53	11468.62
490.70	11641.82
490.88	11487.35
491.06	11866.52
491.24	11887.58
491.41	11826.73
491.59	12053.76
491.77	11932.05
491.95	12126.32
492.13	12205.89
492.30	12023.33
492.48	12224.62
492.66	12241.00
492.84	12264.41
493.01	12725.49
493.19	12720.81
493.37	12472.71
493.54	12863.58
493.72	12912.74
493.90	12924.44
494.08	13097.64
494.25	13207.64
494.43	12833.16
494.61	12964.23
494.79	13198.28
494.96	13193.60
495.14	13610.22
495.32	13444.04
495.49	13547.02
495.67	13455.74
495.85	13741.29
496.02	13703.84
496.20	13769.37
496.38	13488.51
496.55	14155.56
496.73	14284.29
496.91	14047.90
497.09	14242.16
497.26	14216.41
497.44	14513.66
497.62	14324.08
497.79	14471.53
497.97	14370.89
498.14	14654.09
498.32	14628.35
498.50	14677.50
498.67	15082.41
498.85	14775.80
499.03	14853.04
499.20	14904.53
499.38	15119.86
499.56	15049.64
499.73	15428.81
499.91	15417.11
500.08	15480.30
500.26	15279.02
500.44	15379.66
500.61	15183.06
500.79	15197.10
500.97	15704.99
501.14	15648.82
501.32	15903.94
501.49	15857.13
501.67	15838.41
501.84	16053.73
502.02	15999.90
502.20	15836.06
502.37	16159.06
502.55	15988.20
502.72	16262.04
502.90	16175.44
503.07	16142.67
503.25	16194.17
503.43	16156.72
503.60	16496.10
503.78	16491.41
503.95	16659.93
504.13	16238.64
504.30	16657.59
504.48	16582.70
504.65	16819.09
504.83	16601.42
505.01	17114.00
505.18	16833.13
505.36	17125.70
505.53	16943.14
505.71	16716.11
505.88	17102.29
506.06	16767.60
506.23	17071.87
506.41	17195.92
506.58	17317.62
506.76	17270.81
506.93	17343.37
507.11	17291.88
507.28	17444.01
507.46	17434.65
507.63	17575.08
507.81	17547.00
507.98	17759.98
508.16	17961.27
508.33	17715.51
508.50	17937.87
508.68	17867.65
508.85	18300.65
509.03	18068.94
509.20	18192.98
509.38	18216.39
509.55	18352.14
509.73	18523.00
509.90	18527.68
510.08	18326.39
510.25	18464.49
510.42	18274.90
510.60	18754.71
510.77	18469.17
510.95	18618.96
511.12	18658.75
511.30	18618.96
511.47	18647.05
511.64	18986.43
511.82	18647.05
511.99	18899.83
512.17	19197.07
512.34	18946.64
512.51	19353.89
512.69	18937.27
512.86	19253.25
513.04	19562.20
513.21	19454.53
513.38	19477.94
513.56	19241.54
513.73	19433.47
513.90	19599.65
514.08	19211.12
514.25	19646.46
514.43	19634.75
514.60	19426.45
514.77	19676.88
514.95	19749.44
515.12	19726.04
515.29	19414.74
515.47	19648.80
515.64	19791.57
515.81	19992.86
515.99	20159.03
516.16	20355.64
516.33	20325.21
516.51	20517.14
516.68	20355.64
516.85	20339.26
517.03	20163.72
517.20	20276.06
517.37	20250.32
517.54	20594.37
517.72	20407.13
517.89	20460.96
518.06	20634.16
518.24	20322.87
518.41	20669.27
518.58	20886.94
518.75	20716.08
518.93	20903.32
519.10	20929.07
519.27	20856.51
519.45	20891.62
519.62	20863.54
519.79	20919.71
519.96	21060.14
520.14	21486.12
520.31	21172.49
520.48	20922.05
520.65	21383.13
520.83	21453.35
521.00	21521.23
521.17	21308.24
521.34	21067.16
521.52	21399.52
521.69	21465.05
521.86	21759.96
522.03	21965.93
522.20	21933.16
522.38	21766.98
522.55	21605.49
522.72	21605.49
522.89	21858.26
523.07	22136.79
523.24	22015.08
523.41	22040.82
523.58	22099.34
523.75	22263.18
523.92	22038.48
524.10	21891.03
524.27	22073.59
524.44	22101.68
524.61	22448.08
524.78	22169.55
524.96	22228.07
525.13	22225.73
525.30	22239.77
525.47	22438.72
525.64	22593.19
525.81	22773.41
525.98	22476.16
526.16	23014.49
526.33	22532.34
526.50	22888.10
526.67	22717.24
526.84	22850.65
527.01	22618.94
527.18	23005.13
527.36	22600.21
527.53	22986.40
527.70	23173.64
527.87	23171.30
528.04	23285.99
528.21	23267.27
528.38	23271.95
528.55	22909.16
528.72	23192.37
528.89	23473.23
529.07	23573.88
529.24	23417.06
529.41	23403.02
529.58	23405.36
529.75	23428.76
529.92	23587.92
530.09	23426.42
530.26	23454.51
530.43	23520.04
530.60	23723.67
530.77	23662.82
530.94	23882.83
531.11	23463.87
531.28	23400.68
531.46	23697.92
531.63	23761.12
531.80	24058.37
531.97	23943.68
532.14	24154.33
532.31	23922.62
532.48	23653.45
532.65	23946.02
532.82	24088.79
532.99	24430.51
533.16	23995.17
533.33	24163.69
533.50	24346.25
533.67	24533.50
533.84	24503.07
534.01	24182.42
534.18	24018.58
534.35	24570.94
534.52	24505.41
534.69	24428.17
534.86	24404.77
535.03	24673.93
535.20	24709.04
535.37	24573.28
535.54	24849.47
535.71	24336.89
535.88	24783.93
536.05	24692.65
536.22	24982.88
536.38	25158.42
536.55	24844.79
536.72	25352.68
536.89	24959.47
537.06	24828.40
537.23	25069.48
537.40	25022.67
537.57	25078.84
537.74	24947.77
537.91	24844.79
538.08	25006.28
538.25	25289.49
538.42	25139.69
538.59	25638.23
538.75	24851.81
538.92	25259.06
539.09	25678.02
539.26	25364.39
539.43	25350.34
539.60	25144.38
539.77	25502.48
539.94	25448.64
540.11	25432.26
540.28	25656.95
540.44	25642.91
540.61	25254.38
540.78	25486.09
540.95	25359.70
541.12	25577.37
541.29	25441.62
541.46	25680.36
541.62	25317.57
541.79	25713.13
541.96	25584.40
542.13	25504.82
542.30	25876.96
542.47	26103.99
542.63	26326.35
542.80	26071.23
542.97	26143.78
543.14	26181.23
543.31	26171.87
543.48	25759.94
543.64	26204.64
543.81	26478.48
543.98	26469.12
544.15	26522.95
544.32	26506.57
544.48	26536.99
544.65	26703.17
544.82	26513.59
544.99	26522.95
545.16	26127.40
545.32	26511.25
545.49	26838.92
545.66	27110.43
545.83	26569.76
546.00	26920.84
546.16	26689.13
546.33	26651.68
546.50	26382.52
546.67	26656.36
546.83	26593.17
547.00	26733.60
547.17	26815.52
547.34	26885.73
547.50	26576.78
547.67	26820.20
547.84	26995.74
548.00	26951.27
548.17	27501.29
548.34	27091.70
548.51	27295.33
548.67	26988.72
548.84	26913.82
549.01	26946.59
549.18	27161.92
549.34	27178.30
549.51	27019.14
549.68	27351.50
549.84	26941.91
550.01	27269.58
550.18	27061.27
550.34	27300.01
550.51	27197.02
550.68	27517.68
550.84	27047.23
551.01	27337.46
551.18	27618.32
551.34	27381.93
551.51	27351.50
551.68	27466.19
551.84	27632.36
552.01	27618.32
552.18	27789.18
552.34	27517.68
552.51	27679.18
552.68	27742.37
552.84	27545.76
553.01	28079.41
553.18	27550.45
553.34	27875.78
553.51	27597.26
553.67	27978.76
553.84	28252.61
554.01	28006.85
554.17	27857.06
554.34	27775.14
554.51	28144.94
554.67	27953.02
554.84	27887.48
555.00	28245.58
555.17	27896.85
555.33	28166.01
555.50	27950.68
555.67	28056.00
555.83	28212.82
556.00	28292.40
556.16	28329.84
556.33	28173.03
556.50	28170.69
556.66	28503.04
556.83	28343.89
556.99	28922.00
557.16	28322.82
557.32	28327.50
557.49	28332.18
557.65	28020.89
557.82	28416.44
557.98	28290.06
558.15	28540.49
558.32	28306.44
558.48	28170.69
558.65	28606.03
558.81	28489.00
558.98	28678.58
559.14	28217.50
559.31	28158.99
559.47	28395.38
559.64	28547.51
559.80	28561.56
559.97	28898.59
560.13	28261.97
560.30	28432.83
560.46	28826.04
560.63	28491.34
560.79	28779.23
560.96	29060.09
561.12	28856.46
561.29	28437.51
561.45	28769.86
561.61	28442.19
561.78	28797.95
561.94	29053.07
562.11	28903.28
562.27	28390.70
562.44	28446.87
562.60	28795.61
562.77	28690.29
562.93	28599.01
563.10	28811.99
563.26	28409.42
563.42	29113.92
563.59	28716.03
563.75	28849.44
563.92	28924.34
564.08	28734.76
564.24	28453.89
564.41	29006.26
564.57	28730.08
564.74	28922.00
564.90	29160.73
565.07	29207.55
565.23	29062.43
565.39	29170.10
565.56	29254.36
565.72	29029.66
565.88	28994.56
566.05	29230.95
566.21	29053.07
566.38	29153.71
566.54	29249.67
566.70	28912.64
566.87	29008.60
567.03	29322.23
567.19	29582.03
567.36	29212.23
567.52	29273.08
567.68	28961.79
567.85	29205.20
568.01	29191.16
568.17	29069.45
568.34	29469.69
568.50	29383.09
568.66	29294.14
568.83	29600.76
568.99	29319.89
569.15	29200.52
569.32	29450.96
569.48	29090.52
569.64	29275.42
569.81	29151.37
569.97	29205.20
570.13	29567.99
570.30	29184.14
570.46	29776.30
570.62	29160.73
570.78	29324.57
570.95	29472.03
571.11	29535.22
571.27	29205.20
571.43	29455.64
571.60	29179.46
571.76	29390.11
571.92	29212.23
572.09	29504.79
572.25	29387.77
572.41	29539.90
572.57	29476.71
572.74	30080.56
572.90	29240.31
573.06	29266.06
573.22	29294.14
573.38	29476.71
573.55	29055.41
573.71	30185.89
573.87	29673.31
574.03	29720.12
574.20	29457.98
574.36	29689.70
574.52	29457.98
574.68	29427.56
574.84	29713.10
575.01	29600.76
575.17	29486.07
575.33	29259.04
575.49	29797.36
575.65	29399.47
575.82	29280.10
575.98	29764.59
576.14	29553.94
576.30	29305.85
576.46	29448.62
576.62	29567.99
576.79	29521.18
576.95	29450.96
577.11	29553.94
577.27	29862.90
577.43	29757.57
577.59	29338.62
577.75	30015.03
577.92	29502.45
578.08	29303.51
578.24	29366.70
578.40	29221.59
578.56	29605.44
578.72	29614.80
578.88	29776.30
579.04	29717.78
579.21	29659.27
579.37	29799.70
579.53	29734.17
579.69	29619.48
579.85	29586.71
580.01	29504.79
580.17	29685.01
580.33	29586.71
580.49	29553.94
580.65	29982.26
580.82	29811.40
580.98	29820.77
581.14	29757.57
581.30	29780.98
581.46	29830.13
581.62	29467.34
581.78	29572.67
581.94	29694.38
582.10	29687.36
582.26	29846.51
582.42	29560.97
582.58	29734.17
582.74	29750.55
582.90	29909.71
583.06	29982.26
583.22	29708.42
583.38	29610.12
583.54	29694.38
583.70	29860.55
583.86	29708.42
584.02	29493.09
584.18	29518.84
584.34	30146.10
584.50	30448.03
584.66	29876.94
584.82	29703.74
584.98	29837.15
585.14	29785.66
585.30	29640.54
585.46	29696.72
585.62	29647.57
585.78	29605.44
585.94	29631.18
586.10	29933.11
586.26	29788.00
586.42	29954.18
586.58	29804.38
586.74	29579.69
586.90	29584.37
587.06	29469.69
587.22	29921.41
587.38	29586.71
587.54	30235.04
587.70	30167.16
587.86	30164.82
588.02	29989.28
588.18	30127.38
588.34	30213.98
588.49	30237.38
588.65	29947.15
588.81	30206.95
588.97	30029.07
589.13	29703.74
589.29	29984.60
589.45	30036.09
589.61	29818.42
589.77	30338.02
589.93	30183.55
590.08	30230.36
590.24	30284.19
590.40	30380.15
590.56	30377.81
590.72	29921.41
590.88	30178.87
591.04	29748.21
591.20	30359.09
591.35	30370.79
591.51	30323.98
591.67	30410.58
591.83	30501.86
591.99	30094.61
