SpectraSuite Data File
++++++++++++++++++++++++++++++++++++
Date: Fri Oct 18 13:58:05 GMT-05:00 2013
User: bianchi
Dark Spectrum Present: No
Reference Spectrum Present: No
Number of Sampled Component Spectra: 1
Spectrometers: USB2+H05261
Integration Time (usec): 50000 (USB2+H05261)
Spectra Averaged: 1 (USB2+H05261)
Boxcar Smoothing: 0 (USB2+H05261)
Correct for Electrical Dark: No (USB2+H05261)
Strobe/Lamp Enabled: No (USB2+H05261)
Correct for Detector Non-linearity: No (USB2+H05261)
Correct for Stray Light: No (USB2+H05261)
Number of Pixels in Processed Spectrum: 2048
>>>>>Begin Processed Spectral Data<<<<<
365.73	0.00
365.92	0.00
366.12	0.00
366.32	0.00
366.52	0.00
366.72	0.00
366.91	0.00
367.11	0.00
367.31	0.00
367.51	0.00
367.70	0.00
367.90	0.00
368.10	0.00
368.30	0.00
368.49	0.00
368.69	0.00
368.89	0.00
369.09	0.00
369.28	0.00
369.48	0.00
369.68	0.00
369.87	0.00
370.07	0.00
370.27	0.00
370.47	0.00
370.66	81.92
370.86	100.64
371.06	145.11
371.25	175.54
371.45	128.73
371.65	163.84
371.84	156.82
372.04	133.41
372.24	177.88
372.44	107.66
372.63	135.75
372.83	140.43
373.03	184.90
373.22	201.29
373.42	196.60
373.62	238.73
373.81	196.60
374.01	280.86
374.21	264.48
374.40	243.42
374.60	250.44
374.79	238.73
374.99	276.18
375.19	245.76
375.38	278.52
375.58	292.57
375.78	217.67
375.97	250.44
376.17	271.50
376.37	255.12
376.56	269.16
376.76	306.61
376.95	287.89
377.15	339.38
377.35	220.01
377.54	285.55
377.74	271.50
377.93	287.89
378.13	271.50
378.33	292.57
378.52	280.86
378.72	292.57
378.91	276.18
379.11	327.68
379.31	332.36
379.50	318.31
379.70	341.72
379.89	294.91
380.09	264.48
380.28	294.91
380.48	283.20
380.68	330.02
380.87	320.65
381.07	383.85
381.26	273.84
381.46	308.95
381.65	337.04
381.85	311.29
382.04	292.57
382.24	360.44
382.43	411.93
382.63	330.02
382.83	381.51
383.02	365.12
383.22	332.36
383.41	353.42
383.61	390.87
383.80	365.12
384.00	379.17
384.19	294.91
384.39	334.70
384.58	327.68
384.78	351.08
384.97	351.08
385.17	407.25
385.36	463.43
385.56	376.83
385.75	304.27
385.95	468.11
386.14	400.23
386.34	447.04
386.53	374.49
386.72	404.91
386.92	386.19
387.11	390.87
387.31	479.81
387.50	465.77
387.70	407.25
387.89	444.70
388.09	367.46
388.28	463.43
388.48	550.03
388.67	367.46
388.86	397.89
389.06	507.90
389.25	437.68
389.45	465.77
389.64	493.85
389.84	475.13
390.03	468.11
390.22	440.02
390.42	484.49
390.61	526.62
390.81	489.17
391.00	559.39
391.19	573.43
391.39	435.34
391.58	540.66
391.78	458.74
391.97	552.37
392.16	535.98
392.36	603.86
392.55	596.84
392.75	479.81
392.94	559.39
393.13	594.50
393.33	550.03
393.52	596.84
393.71	528.96
393.91	610.88
394.10	599.18
394.29	608.54
394.49	559.39
394.68	690.46
394.88	568.75
395.07	564.07
395.26	580.45
395.46	603.86
395.65	599.18
395.84	645.99
396.04	690.46
396.23	641.31
396.42	617.90
396.62	653.01
396.81	669.39
397.00	622.58
397.19	690.46
397.39	664.71
397.58	674.07
397.77	685.78
397.97	702.16
398.16	720.88
398.35	622.58
398.55	681.10
398.74	744.29
398.93	739.61
399.12	702.16
399.32	767.70
399.51	716.20
399.70	858.98
399.90	755.99
400.09	763.01
400.28	805.14
400.47	709.18
400.67	823.87
400.86	844.93
401.05	760.67
401.24	877.70
401.44	870.68
401.63	844.93
401.82	826.21
402.01	830.89
402.21	861.32
402.40	964.30
402.59	856.64
402.78	884.72
402.97	959.62
403.17	910.47
403.36	945.58
403.55	964.30
403.74	973.66
403.93	887.06
404.13	929.19
404.32	926.85
404.51	940.90
404.70	889.40
404.89	968.98
405.09	992.39
405.28	866.00
405.47	959.62
405.66	987.71
405.85	1081.33
406.05	976.00
406.24	1029.84
406.43	1090.69
406.62	1039.20
406.81	1097.71
407.00	1025.15
407.20	1008.77
407.39	1036.86
407.58	1083.67
407.77	1153.88
407.96	1032.18
408.15	1151.54
408.34	947.92
408.54	1203.04
408.73	1032.18
408.92	1174.95
409.11	1149.20
409.30	1100.05
409.49	1196.01
409.68	1118.78
409.87	1118.78
410.07	1217.08
410.26	1167.93
410.45	1203.04
410.64	1226.44
410.83	1233.46
411.02	1317.72
411.21	1322.40
411.40	1240.48
411.59	1336.45
411.78	1338.79
411.98	1315.38
412.17	1409.00
412.36	1301.34
412.55	1341.13
412.74	1423.05
412.93	1420.71
413.12	1324.74
413.31	1397.30
413.50	1516.67
413.69	1359.85
413.88	1479.22
414.07	1551.78
414.26	1455.81
414.45	1490.92
414.64	1469.86
414.83	1591.56
415.02	1542.41
415.22	1570.50
415.41	1434.75
415.60	1626.67
415.79	1675.82
415.98	1645.40
416.17	1598.59
416.36	1626.67
416.55	1643.06
416.74	1743.70
416.93	1696.89
417.12	1673.48
417.31	1671.14
417.50	1788.17
417.69	1743.70
417.88	1771.79
418.07	1783.49
418.26	1680.50
418.45	1825.62
418.64	1919.24
418.83	1813.92
419.02	1816.26
419.21	1771.79
419.39	1785.83
419.58	1818.60
419.77	1930.94
419.96	1802.21
420.15	1959.03
420.34	1877.11
420.53	1865.41
420.72	1989.46
420.91	1961.37
421.10	1956.69
421.29	2076.06
421.48	1905.20
421.67	1980.09
421.86	1994.14
422.05	2054.99
422.24	1984.77
422.43	2050.31
422.61	2129.89
422.80	2038.61
422.99	2118.18
423.18	2073.71
423.37	2101.80
423.56	2090.10
423.75	2026.90
423.94	2136.91
424.13	1879.45
424.32	1865.41
424.50	1966.05
424.69	2197.76
424.88	2218.83
425.07	2125.21
425.26	2022.22
425.45	2146.27
425.64	2132.23
425.83	2080.74
426.01	2036.27
426.20	2064.35
426.39	2157.97
426.58	2038.61
426.77	2094.78
426.96	2202.44
427.15	2101.80
427.33	2193.08
427.52	2216.49
427.71	2275.00
427.90	2232.87
428.09	2132.23
428.28	2286.70
428.46	2230.53
428.65	2190.74
428.84	2363.94
429.03	2270.32
429.22	2148.61
429.40	2293.72
429.59	2307.77
429.78	2246.91
429.97	2204.78
430.16	2256.28
430.34	2286.70
430.53	2385.01
430.72	2305.43
430.91	2340.54
431.10	2298.41
431.28	2368.62
431.47	2431.82
431.66	2448.20
431.85	2506.71
432.03	2466.92
432.22	2431.82
432.41	2443.52
432.60	2539.48
432.79	2392.03
432.97	2572.25
433.16	2544.16
433.35	2473.95
433.54	2555.86
433.72	2689.28
433.91	2572.25
434.10	2546.50
434.28	2490.33
434.47	2677.57
434.66	2696.30
434.85	2558.21
435.03	2534.80
435.22	2516.08
435.41	2642.46
435.59	2612.04
435.78	2651.83
435.97	2581.61
436.16	2745.45
436.34	2754.81
436.53	2682.25
436.72	2789.92
436.90	2740.77
437.09	2820.35
437.28	2684.59
437.46	2747.79
437.65	2853.11
437.84	2787.58
438.02	2754.81
438.21	2871.84
438.40	2747.79
438.58	2916.31
438.77	2913.97
438.96	3040.36
439.14	3089.51
439.33	2986.52
439.52	2986.52
439.70	3066.10
439.89	3098.87
440.08	2991.20
440.26	2993.55
440.45	3141.00
440.63	3166.74
440.82	3180.79
441.01	3148.02
441.19	3192.49
441.38	3187.81
441.57	3178.45
441.75	3337.60
441.94	3346.97
442.12	3288.45
442.31	3393.78
442.50	3417.18
442.68	3391.44
442.87	3300.16
443.05	3342.28
443.24	3463.99
443.43	3400.80
443.61	3583.36
443.80	3550.59
443.98	3454.63
444.17	3353.99
444.35	3435.91
444.54	3559.95
444.73	3585.70
444.91	3543.57
445.10	3480.38
445.28	3438.25
445.47	3487.40
445.65	3531.87
445.84	3602.08
446.02	3545.91
446.21	3566.98
446.39	3375.05
446.58	3569.32
446.77	3503.78
446.95	3522.51
447.14	3548.25
447.32	3719.11
447.51	3618.47
447.69	3623.15
447.88	3658.26
448.06	3737.84
448.25	3550.59
448.43	3660.60
448.62	3557.61
448.80	3653.58
448.99	3676.98
449.17	3566.98
449.36	3686.34
449.54	3672.30
449.73	3892.31
449.91	3808.05
450.10	3714.43
450.28	3829.12
450.46	3873.59
450.65	3721.45
450.83	3845.50
451.02	3784.65
451.20	3798.69
451.39	3889.97
451.57	3833.80
451.76	3880.61
451.94	3880.61
452.13	3913.38
452.31	3983.59
452.49	3840.82
452.68	3906.35
452.86	3913.38
453.05	4042.11
453.23	3974.23
453.42	3922.74
453.60	3852.52
453.78	3913.38
453.97	3971.89
454.15	3981.25
454.34	4002.32
454.52	4093.60
454.70	4138.07
454.89	4170.83
455.07	4072.53
455.26	4035.08
455.44	4212.96
455.62	4194.24
455.81	4163.81
455.99	4252.75
456.17	4294.88
456.36	4234.03
456.54	4311.27
456.73	4315.95
456.91	4510.21
457.09	4351.06
457.28	4496.17
457.46	4311.27
457.64	4362.76
457.83	4395.53
458.01	4327.65
458.19	4510.21
458.38	4325.31
458.56	4671.71
458.74	4599.15
458.93	4351.06
459.11	4491.49
459.29	4519.57
459.48	4505.53
459.66	4578.09
459.84	4517.23
460.03	4603.83
460.21	4683.41
460.39	4538.30
460.57	4660.01
460.76	4610.86
460.94	4685.75
461.12	4713.84
461.31	4709.16
461.49	4723.20
461.67	4760.65
461.85	4851.93
462.04	4695.11
462.22	5057.90
462.40	4809.80
462.59	4774.69
462.77	4830.87
462.95	4774.69
463.13	4915.12
463.32	4741.93
463.50	4849.59
463.68	5053.22
463.86	4887.04
464.05	4779.37
464.23	5057.90
464.41	5074.28
464.59	4938.53
464.78	5064.92
464.96	5043.85
465.14	4910.44
465.32	5076.62
465.50	5081.30
465.69	5132.79
465.87	5057.90
466.05	5142.16
466.23	5151.52
466.41	5163.22
466.60	5345.78
466.78	5125.77
466.96	5057.90
467.14	5116.41
467.32	5060.24
467.51	5308.34
467.69	5240.46
467.87	5266.21
468.05	5163.22
468.23	5149.18
468.41	5224.08
468.60	5327.06
468.78	5446.43
468.96	5320.04
469.14	5427.70
469.32	5427.70
469.50	5331.74
469.69	5476.85
469.87	5535.37
470.05	5502.60
470.23	5528.35
470.41	5551.75
470.59	5458.13
470.77	5474.51
470.95	5598.56
471.14	5610.26
471.32	5619.63
471.50	5743.67
471.68	5678.14
471.86	5816.23
472.04	5521.32
472.22	5944.96
472.40	5701.54
472.58	5776.44
472.77	5811.55
472.95	5816.23
473.13	6211.78
473.31	5930.92
473.49	5699.20
473.67	5921.56
473.85	6190.72
474.03	6190.72
474.21	6085.39
474.39	6155.61
474.57	6064.33
474.75	6282.00
474.93	6282.00
475.12	6228.17
475.30	6303.06
475.48	6139.23
475.66	6352.21
475.84	6389.66
476.02	6567.54
476.20	6483.28
476.38	6700.95
476.56	6595.63
476.74	6647.12
476.92	6607.33
477.10	6658.82
477.28	6773.51
477.46	6857.77
477.64	6885.86
477.82	6920.96
478.00	7084.80
478.18	7140.97
478.36	7124.59
478.54	7103.53
478.72	7267.36
478.90	7520.14
479.08	7126.93
479.26	7356.30
479.44	7372.69
479.62	7499.08
479.80	7576.31
479.98	7557.59
480.16	7840.79
480.34	7602.06
480.52	7824.41
480.70	7747.17
480.88	7674.62
481.06	7899.31
481.24	7833.77
481.41	7913.35
481.59	8100.59
481.77	8140.38
481.95	8102.93
482.13	8327.63
482.31	8262.09
482.49	8414.23
482.67	8493.80
482.85	8634.24
483.03	8739.56
483.21	8613.17
483.39	8624.87
483.57	8601.47
483.74	8688.07
483.92	8926.80
484.10	8945.53
484.28	9097.66
484.46	9284.91
484.64	9329.38
484.82	9174.90
485.00	9247.46
485.18	9465.13
485.35	9544.70
485.53	9614.92
485.71	9596.20
485.89	9921.53
486.07	9811.53
486.25	9926.21
486.43	9867.70
486.61	10104.09
486.78	10155.58
486.96	10228.14
487.14	10548.79
487.32	10391.98
487.50	10384.96
487.68	10628.37
487.85	10567.52
488.03	10827.32
488.21	10834.34
488.39	10703.27
488.57	11047.33
488.75	10972.43
488.92	11040.31
489.10	11145.63
489.28	11272.02
489.46	11459.26
489.64	11382.03
489.81	11634.80
489.99	11679.27
490.17	11602.04
490.35	11740.13
490.53	11768.21
490.70	11927.37
490.88	11875.88
491.06	12006.95
491.24	12074.82
491.41	12140.36
491.59	12219.94
491.77	12198.87
491.95	12601.44
492.13	12542.93
492.30	12386.12
492.48	12416.54
492.66	12421.22
492.84	12592.08
493.01	13011.04
493.19	12879.97
493.37	12929.12
493.54	13156.15
493.72	13057.85
493.90	13085.94
494.08	13074.23
494.25	13432.33
494.43	13280.20
494.61	13748.31
494.79	13610.22
494.96	13816.18
495.14	13790.44
495.32	14022.15
495.49	13797.46
495.67	14097.05
495.85	14202.37
496.02	14080.66
496.20	14272.59
496.38	14373.23
496.55	14295.99
496.73	14368.55
496.91	14593.24
497.09	14630.69
497.26	14396.64
497.44	14441.11
497.62	14626.01
497.79	14916.23
497.97	14717.29
498.14	14977.09
498.32	14981.77
498.50	15316.47
498.67	15370.30
498.85	15248.59
499.03	15389.02
499.20	15272.00
499.38	15304.76
499.56	15513.07
499.73	15580.95
499.91	15658.18
500.08	15707.34
500.26	15583.29
500.44	15803.30
500.61	16002.24
500.79	15798.62
500.97	16074.80
501.14	16137.99
501.32	16086.50
501.49	16240.98
501.67	16358.00
501.84	16292.47
502.02	16411.84
502.20	16390.77
502.37	16531.20
502.55	16320.56
502.72	16685.68
502.90	16683.34
503.07	16795.68
503.25	16765.26
503.43	16552.27
503.60	16786.32
503.78	16924.41
503.95	16669.30
504.13	16889.31
504.30	16893.99
504.48	16741.85
504.65	17006.33
504.83	17125.70
505.01	17366.78
505.18	17551.68
505.36	17603.17
505.53	17568.06
505.71	17528.27
505.88	17682.75
506.06	17408.90
506.23	17930.84
506.41	17769.35
506.58	18036.17
506.76	17874.67
506.93	18141.49
507.11	17748.28
507.28	17968.29
507.46	17741.26
507.63	18246.82
507.81	18216.39
507.98	18246.82
508.16	18263.20
508.33	18518.32
508.50	18483.21
508.68	18553.43
508.85	18607.26
509.03	18281.92
509.20	18799.18
509.38	18927.91
509.55	18647.05
509.73	18738.33
509.90	18745.35
510.08	18911.53
510.25	18724.29
510.42	18829.61
510.60	19152.60
510.77	19286.01
510.95	19206.44
511.12	19419.42
511.30	19009.83
511.47	19323.46
511.64	19370.27
511.82	19524.75
511.99	19257.93
512.17	19503.68
512.34	19456.87
512.51	19470.92
512.69	19831.36
512.86	19522.41
513.04	20084.14
513.21	20006.90
513.38	20154.35
513.56	20095.84
513.73	19924.98
513.90	20114.56
514.08	19838.38
514.25	20348.62
514.43	20301.81
514.60	20304.15
514.77	20121.59
514.95	20425.86
515.12	20313.51
515.29	20409.47
515.47	20521.82
515.64	20570.97
515.81	20458.62
515.99	20755.87
516.16	21053.12
516.33	20805.02
516.51	21048.44
516.68	20563.95
516.85	20517.14
517.03	21010.99
517.20	20985.24
517.37	20809.70
517.54	21172.49
517.72	21462.71
517.89	21429.94
518.06	21502.50
518.24	21312.92
518.41	21256.75
518.58	21212.28
518.75	21266.11
518.93	21259.09
519.10	21523.57
519.27	21502.50
519.45	21703.79
519.62	21373.77
519.79	21469.73
519.96	21717.83
520.14	21748.26
520.31	21551.65
520.48	21553.99
520.65	21652.30
520.83	22129.77
521.00	21869.97
521.17	21855.92
521.34	22097.00
521.52	22197.64
521.69	22223.39
521.86	22263.18
522.03	22040.82
522.20	22314.67
522.38	22412.97
522.55	22342.75
522.72	22427.01
522.89	22501.91
523.07	22721.92
523.24	22684.47
523.41	22827.24
523.58	22560.42
523.75	22878.74
523.92	22520.63
524.10	22815.54
524.27	22878.74
524.44	23058.96
524.61	23342.16
524.78	23124.49
524.96	22899.80
525.13	22883.42
525.30	23363.23
525.47	23278.97
525.64	23117.47
525.81	23363.23
525.98	23494.30
526.16	23204.07
526.33	23407.70
526.50	23833.68
526.67	23608.98
526.84	23590.26
527.01	23316.42
527.18	23630.05
527.36	23782.18
527.53	23613.66
527.70	23761.12
527.87	23742.39
528.04	23821.97
528.21	23744.73
528.38	23957.72
528.55	23985.81
528.72	23896.87
528.89	23953.04
529.07	24081.77
529.24	24112.20
529.41	24203.48
529.58	23866.44
529.75	23931.98
529.92	24044.32
530.09	23957.72
530.26	24053.69
530.43	24308.80
530.60	23709.63
530.77	24095.82
530.94	24159.01
531.11	24559.24
531.28	23793.89
531.46	24444.56
531.63	24552.22
531.80	24603.71
531.97	24568.60
532.14	24898.62
532.31	24702.01
532.48	24512.43
532.65	24442.21
532.82	24627.12
532.99	24800.32
533.16	24624.78
533.33	25172.46
533.50	25212.25
533.67	24982.88
533.84	24786.27
534.01	25043.73
534.18	24877.55
534.35	25357.36
534.52	25010.96
534.69	25369.07
534.86	25504.82
535.03	25135.01
535.20	25530.56
535.37	25289.49
535.54	25511.84
535.71	25312.89
535.88	25336.30
536.05	25722.49
536.22	25563.33
536.38	25635.89
536.55	25385.45
536.72	25851.22
536.89	25713.13
537.06	26031.44
537.23	25771.64
537.40	25748.23
537.57	25553.97
537.74	25766.96
537.91	26281.88
538.08	26003.35
538.25	25996.33
538.42	26373.16
538.59	25879.30
538.75	25823.13
538.92	26038.46
539.09	26181.23
539.26	26181.23
539.43	26150.81
539.60	25874.62
539.77	25790.36
539.94	26064.21
540.11	26501.89
540.28	26171.87
540.44	26319.32
540.61	26377.84
540.78	26230.38
540.95	26490.18
541.12	26441.03
541.29	26394.22
541.46	26569.76
541.62	26335.71
541.79	26394.22
541.96	26352.09
542.13	26405.92
542.30	26876.37
542.47	26841.26
542.63	26665.72
542.80	26747.64
542.97	27257.88
543.14	26962.97
543.31	26782.75
543.48	26930.20
543.64	27129.15
543.81	27283.62
543.98	27161.92
544.15	27187.66
544.32	27707.26
544.48	27325.75
544.65	27449.80
544.82	27278.94
544.99	27012.12
545.16	27030.85
545.32	27356.18
545.49	27623.00
545.66	27379.59
545.83	27735.35
546.00	27559.81
546.16	27351.50
546.33	27264.90
546.50	27131.49
546.67	27604.28
546.83	27365.54
547.00	27796.20
547.17	27283.62
547.34	27648.75
547.50	27887.48
547.67	28067.70
547.84	27566.83
548.00	27934.29
548.17	28020.89
548.34	27601.94
548.51	27920.25
548.67	28130.90
548.84	27538.74
549.01	28158.99
549.18	28184.73
549.34	27969.40
549.51	28203.46
549.68	28318.14
549.84	28196.43
550.01	28276.01
550.18	27974.08
550.34	28063.02
550.51	28421.13
550.68	28053.66
550.84	28144.94
551.01	28400.06
551.18	27981.10
551.34	27910.89
551.51	28147.28
551.68	28379.00
551.84	28472.62
552.01	28442.19
552.18	28519.43
552.34	28500.70
552.51	28613.05
552.68	28648.16
552.84	28133.24
553.01	29172.44
553.18	28261.97
553.34	28872.85
553.51	28561.56
553.67	28772.21
553.84	28847.10
554.01	28856.46
554.17	29102.22
554.34	28748.80
554.51	28657.52
554.67	28734.76
554.84	28922.00
555.00	29043.71
555.17	29078.82
555.33	28706.67
555.50	28891.57
555.67	28922.00
555.83	29432.24
556.00	29032.00
556.16	29050.73
556.33	28900.94
556.50	28992.22
556.66	28936.04
556.83	29118.60
556.99	29345.64
557.16	29467.34
557.32	29420.53
557.49	29312.87
557.65	28903.28
557.82	28914.98
557.98	29188.82
558.15	29228.61
558.32	29071.79
558.48	29097.54
558.65	29373.72
558.81	29408.83
558.98	29268.40
559.14	29244.99
559.31	29560.97
559.47	29078.82
559.64	29593.73
559.80	29577.35
559.97	29563.31
560.13	29589.05
560.30	29441.60
560.46	29504.79
560.63	29488.41
560.79	29848.85
560.96	29617.14
561.12	29598.41
561.29	29689.70
561.45	29291.80
561.61	29876.94
561.78	29369.04
561.94	29998.65
562.11	29525.86
562.27	29631.18
562.44	29867.58
562.60	29968.22
562.77	29542.24
562.93	29685.01
563.10	30223.34
563.26	29759.91
563.42	30148.44
563.59	29900.34
563.75	29764.59
563.92	30235.04
564.08	29853.53
564.24	29820.77
564.41	29968.22
564.57	29764.59
564.74	29893.32
564.90	29919.07
565.07	30073.54
565.23	30108.65
565.39	30043.12
565.56	30160.14
565.72	29710.76
565.88	30183.55
566.05	29614.80
566.21	30225.68
566.38	30312.28
566.54	30211.64
566.70	30373.13
566.87	30504.20
567.03	29898.00
567.19	30499.52
567.36	30036.09
567.52	30244.40
567.68	30328.66
567.85	29677.99
568.01	30230.36
568.17	30206.95
568.34	29951.84
568.50	30127.38
568.66	30637.61
568.83	30504.20
568.99	30115.67
569.15	30314.62
569.32	30132.06
569.48	30040.78
569.64	30005.67
569.81	29919.07
569.97	30319.30
570.13	30527.61
570.30	30415.26
570.46	30644.63
570.62	30108.65
570.78	30295.89
570.95	30185.89
571.11	30129.72
571.27	30136.74
571.43	29970.56
571.60	30286.53
571.76	30368.45
571.92	30448.03
572.09	30555.69
572.25	30810.81
572.41	30424.62
572.57	30588.46
572.74	30930.18
572.90	30181.21
573.06	30284.19
573.22	30490.16
573.38	30642.29
573.55	30431.65
573.71	30995.71
573.87	30562.72
574.03	30518.25
574.20	30295.89
574.36	29905.02
574.52	30632.93
574.68	30473.78
574.84	30735.92
575.01	30499.52
575.17	30572.08
575.33	30501.86
575.49	30487.82
575.65	30796.77
575.82	30368.45
575.98	30649.32
576.14	30181.21
576.30	30656.34
576.46	30384.83
576.62	30267.81
576.79	30443.35
576.95	30426.96
577.11	30604.84
577.27	30565.06
577.43	30909.11
577.59	30731.23
577.75	30431.65
577.92	30749.96
578.08	30654.00
578.24	30768.68
578.40	30759.32
578.56	30923.16
578.72	30473.78
578.88	30881.03
579.04	30721.87
579.21	30962.95
579.37	30862.30
579.53	30616.55
579.69	30401.22
579.85	30513.56
580.01	30604.84
580.17	30569.74
580.33	30946.56
580.49	30279.51
580.65	30745.28
580.82	30433.99
580.98	30883.37
581.14	30902.09
581.30	30644.63
581.46	30663.36
581.62	30700.81
581.78	30534.63
581.94	30937.20
582.10	30698.47
582.26	30735.92
582.42	30845.92
582.58	30866.98
582.74	30520.59
582.90	30787.41
583.06	30768.68
583.22	30998.06
583.38	31075.29
583.54	31042.53
583.70	30857.62
583.86	30759.32
584.02	30555.69
584.18	31115.08
584.34	30782.73
584.50	30771.02
584.66	31075.29
584.82	30789.75
584.98	30703.15
585.14	30487.82
585.30	30789.75
585.46	30801.45
585.62	30710.17
585.78	30548.67
585.94	30581.44
586.10	30888.05
586.26	31138.49
586.42	31021.46
586.58	30677.40
586.74	30707.83
586.90	30682.08
587.06	30595.48
587.22	30642.29
587.38	31047.21
587.54	30820.17
587.70	31234.45
587.86	31164.23
588.02	31021.46
588.18	31709.58
588.34	31009.76
588.49	31040.18
588.65	31070.61
588.81	31047.21
588.97	31168.91
589.13	30822.51
589.29	30665.70
589.45	31173.60
589.61	31337.43
589.77	31606.59
589.93	31669.79
590.08	31311.69
590.24	31110.40
590.40	31288.28
590.56	31311.69
590.72	30771.02
590.88	31089.34
591.04	31049.55
591.20	31367.86
591.35	31456.80
591.51	31606.59
591.67	31702.56
591.83	31365.52
