SpectraSuite Data File
++++++++++++++++++++++++++++++++++++
Date: Fri Oct 18 13:58:29 GMT-05:00 2013
User: bianchi
Dark Spectrum Present: No
Reference Spectrum Present: No
Number of Sampled Component Spectra: 1
Spectrometers: USB2+H05261
Integration Time (usec): 50000 (USB2+H05261)
Spectra Averaged: 1 (USB2+H05261)
Boxcar Smoothing: 0 (USB2+H05261)
Correct for Electrical Dark: No (USB2+H05261)
Strobe/Lamp Enabled: No (USB2+H05261)
Correct for Detector Non-linearity: No (USB2+H05261)
Correct for Stray Light: No (USB2+H05261)
Number of Pixels in Processed Spectrum: 2048
>>>>>Begin Processed Spectral Data<<<<<
365.73	0.00
365.92	0.00
366.12	0.00
366.32	0.00
366.52	0.00
366.72	0.00
366.91	0.00
367.11	0.00
367.31	0.00
367.51	0.00
367.70	0.00
367.90	0.00
368.10	0.00
368.30	0.00
368.49	0.00
368.69	0.00
368.89	0.00
369.09	0.00
369.28	0.00
369.48	0.00
369.68	0.00
369.87	0.00
370.07	0.00
370.27	0.00
370.47	0.00
370.66	11.70
370.86	74.90
371.06	131.07
371.25	74.90
371.45	128.73
371.65	154.48
371.84	194.26
372.04	145.11
372.24	196.60
372.44	161.50
372.63	163.84
372.83	170.86
373.03	203.63
373.22	154.48
373.42	217.67
373.62	238.73
373.81	117.03
374.01	212.99
374.21	168.52
374.40	283.20
374.60	292.57
374.79	266.82
374.99	238.73
375.19	250.44
375.38	231.71
375.58	374.49
375.78	280.86
375.97	283.20
376.17	280.86
376.37	257.46
376.56	266.82
376.76	245.76
376.95	248.10
377.15	264.48
377.35	257.46
377.54	236.39
377.74	266.82
377.93	241.08
378.13	290.23
378.33	318.31
378.52	299.59
378.72	257.46
378.91	308.95
379.11	259.80
379.31	322.99
379.50	304.27
379.70	365.12
379.89	351.08
380.09	264.48
380.28	339.38
380.48	341.72
380.68	313.63
380.87	266.82
381.07	339.38
381.26	332.36
381.46	325.33
381.65	330.02
381.85	318.31
382.04	334.70
382.24	330.02
382.43	337.04
382.63	290.23
382.83	341.72
383.02	386.19
383.22	369.80
383.41	292.57
383.61	372.15
383.80	367.46
384.00	369.80
384.19	372.15
384.39	341.72
384.58	360.44
384.78	411.93
384.97	416.62
385.17	365.12
385.36	353.42
385.56	400.23
385.75	395.55
385.95	407.25
386.14	416.62
386.34	341.72
386.53	360.44
386.72	421.30
386.92	409.59
387.11	437.68
387.31	409.59
387.50	383.85
387.70	404.91
387.89	351.08
388.09	475.13
388.28	390.87
388.48	440.02
388.67	430.66
388.86	362.78
389.06	407.25
389.25	489.17
389.45	423.64
389.64	465.77
389.84	428.32
390.03	482.15
390.22	543.00
390.42	416.62
390.61	416.62
390.81	500.87
391.00	510.24
391.19	505.56
391.39	531.30
391.58	454.06
391.78	435.34
391.97	550.03
392.16	507.90
392.36	547.69
392.55	550.03
392.75	547.69
392.94	550.03
393.13	528.96
393.33	521.94
393.52	519.60
393.71	517.26
393.91	507.90
394.10	594.50
394.29	533.64
394.49	573.43
394.68	603.86
394.88	594.50
395.07	596.84
395.26	564.07
395.46	613.22
395.65	648.33
395.84	617.90
396.04	660.03
396.23	730.25
396.42	664.71
396.62	685.78
396.81	662.37
397.00	608.54
397.19	655.35
397.39	613.22
397.58	645.99
397.77	688.12
397.97	695.14
398.16	660.03
398.35	734.93
398.55	636.63
398.74	655.35
398.93	683.44
399.12	606.20
399.32	645.99
399.51	699.82
399.70	695.14
399.90	800.46
400.09	765.36
400.28	725.57
400.47	767.70
400.67	784.08
400.86	746.63
401.05	751.31
401.24	837.91
401.44	798.12
401.63	812.17
401.82	795.78
402.01	795.78
402.21	758.33
402.40	770.04
402.59	805.14
402.78	889.40
402.97	765.36
403.17	826.21
403.36	882.38
403.55	828.55
403.74	868.34
403.93	873.02
404.13	884.72
404.32	938.55
404.51	868.34
404.70	924.51
404.89	840.25
405.09	856.64
405.28	896.43
405.47	1046.22
405.66	968.98
405.85	957.28
406.05	957.28
406.24	1013.45
406.43	924.51
406.62	1029.84
406.81	1064.94
407.00	1022.81
407.20	1041.54
407.39	966.64
407.58	1029.84
407.77	968.98
407.96	1041.54
408.15	1093.03
408.34	1064.94
408.54	1121.12
408.73	1095.37
408.92	1048.56
409.11	1153.88
409.30	1149.20
409.49	1121.12
409.68	1100.05
409.87	1123.46
410.07	1121.12
410.26	1179.63
410.45	1156.22
410.64	1181.97
410.83	1238.14
411.02	1217.08
411.21	1247.51
411.40	1210.06
411.59	1263.89
411.78	1226.44
411.98	1287.29
412.17	1315.38
412.36	1256.87
412.55	1313.04
412.74	1299.00
412.93	1291.98
413.12	1394.96
413.31	1284.95
413.50	1308.36
413.69	1371.55
413.88	1488.58
414.07	1472.20
414.26	1446.45
414.45	1507.30
414.64	1479.22
414.83	1563.48
415.02	1451.13
415.22	1451.13
415.41	1558.80
415.60	1509.65
415.79	1556.46
415.98	1680.50
416.17	1563.48
416.36	1509.65
416.55	1708.59
416.74	1621.99
416.93	1603.27
417.12	1619.65
417.31	1687.53
417.50	1629.01
417.69	1732.00
417.88	1703.91
418.07	1621.99
418.26	1783.49
418.45	1837.32
418.64	1769.44
418.83	1856.04
419.02	1783.49
419.21	1797.53
419.39	1928.60
419.58	1816.26
419.77	1764.76
419.96	1935.62
420.15	1830.30
420.34	1865.41
420.53	1928.60
420.72	1909.88
420.91	2033.93
421.10	1949.67
421.29	2022.22
421.48	1856.04
421.67	1998.82
421.86	1947.33
422.05	1961.37
422.24	1942.64
422.43	2047.97
422.61	1940.30
422.80	1996.48
422.99	2066.69
423.18	1968.39
423.37	2134.57
423.56	2080.74
423.75	1980.09
423.94	1933.28
424.13	1916.90
424.32	2015.20
424.50	1977.75
424.69	2069.03
424.88	2019.88
425.07	2054.99
425.26	1963.71
425.45	2005.84
425.64	1952.01
425.83	2031.58
426.01	2054.99
426.20	1961.37
426.39	2036.27
426.58	2101.80
426.77	2040.95
426.96	2069.03
427.15	2183.72
427.33	2083.08
427.52	2083.08
427.71	2183.72
427.90	2228.19
428.09	2157.97
428.28	2267.98
428.46	2303.09
428.65	2106.48
428.84	2242.23
429.03	2139.25
429.22	2237.55
429.40	2277.34
429.59	2218.83
429.78	2169.68
429.97	2111.16
430.16	2272.66
430.34	2305.43
430.53	2284.36
430.72	2256.28
430.91	2284.36
431.10	2277.34
431.28	2326.49
431.47	2441.18
431.66	2443.52
431.85	2279.68
432.03	2417.77
432.22	2380.32
432.41	2408.41
432.60	2534.80
432.79	2427.14
432.97	2487.99
433.16	2469.27
433.35	2443.52
433.54	2466.92
433.72	2581.61
433.91	2471.61
434.10	2497.35
434.28	2537.14
434.47	2567.57
434.66	2551.18
434.85	2551.18
435.03	2576.93
435.22	2509.05
435.41	2637.78
435.59	2649.49
435.78	2626.08
435.97	2590.97
436.16	2822.69
436.34	2661.19
436.53	2633.10
436.72	2766.51
436.90	2551.18
437.09	2708.00
437.28	2555.86
437.46	2836.73
437.65	2806.30
437.84	2726.72
438.02	2726.72
438.21	2712.68
438.40	2733.75
438.58	2808.64
438.77	2827.37
438.96	2839.07
439.14	2794.60
439.33	2937.37
439.52	3005.25
439.70	2913.97
439.89	2986.52
440.08	3157.38
440.26	3045.04
440.45	3047.38
440.63	2986.52
440.82	3028.65
441.01	3070.78
441.19	3040.36
441.38	3173.77
441.57	3145.68
441.75	3190.15
441.94	3253.34
442.12	3192.49
442.31	3178.45
442.50	3279.09
442.68	3276.75
442.87	3178.45
443.05	3337.60
443.24	3379.73
443.43	3372.71
443.61	3461.65
443.80	3499.10
443.98	3435.91
444.17	3201.85
444.35	3339.94
444.54	3454.63
444.73	3323.56
444.91	3396.12
445.10	3471.01
445.28	3332.92
445.47	3225.26
445.65	3428.88
445.84	3414.84
446.02	3487.40
446.21	3522.51
446.39	3396.12
446.58	3503.78
446.77	3566.98
446.95	3421.86
447.14	3239.30
447.32	3510.80
447.51	3480.38
447.69	3456.97
447.88	3520.17
448.06	3679.32
448.25	3393.78
448.43	3478.04
448.62	3407.82
448.80	3585.70
448.99	3581.02
449.17	3597.40
449.36	3618.47
449.54	3620.81
449.73	3613.79
449.91	3667.62
450.10	3681.66
450.28	3693.37
450.46	3754.22
450.65	3679.32
450.83	3786.99
451.02	3786.99
451.20	3733.15
451.39	3791.67
451.57	3749.54
451.76	3742.52
451.94	3627.83
452.13	3967.21
452.31	3812.73
452.49	3791.67
452.68	3831.46
452.86	3742.52
453.05	3826.78
453.23	3859.54
453.42	3889.97
453.60	4105.30
453.78	3953.16
453.97	3955.51
454.15	3871.25
454.34	3871.25
454.52	4030.40
454.70	3904.01
454.89	4098.28
455.07	4053.81
455.26	4072.53
455.44	4259.78
455.62	3950.82
455.81	4053.81
455.99	4147.43
456.17	4140.41
456.36	4121.68
456.54	4227.01
456.73	4217.65
456.91	4273.82
457.09	4301.90
457.28	4299.56
457.46	4217.65
457.64	4374.46
457.83	4301.90
458.01	4259.78
458.19	4477.44
458.38	4156.79
458.56	4447.02
458.74	4432.97
458.93	4299.56
459.11	4402.55
459.29	4407.23
459.48	4320.63
459.66	4442.34
459.84	4491.49
460.03	4521.92
460.21	4283.18
460.39	4505.53
460.57	4435.32
460.76	4498.51
460.94	4596.81
461.12	4699.80
461.31	4620.22
461.49	4547.66
461.67	4526.60
461.85	4711.50
462.04	4634.26
462.22	4725.54
462.40	4737.24
462.59	4791.08
462.77	4683.41
462.95	4685.75
463.13	4863.63
463.32	4922.15
463.50	4875.34
463.68	4816.82
463.86	4947.89
464.05	4739.58
464.23	4720.86
464.41	4954.91
464.59	4791.08
464.78	4868.31
464.96	5032.15
465.14	4901.08
465.32	4938.53
465.50	4980.66
465.69	5057.90
465.87	5013.43
466.05	4931.51
466.23	4758.31
466.41	5121.09
466.60	5071.94
466.78	5036.83
466.96	4990.02
467.14	4973.64
467.32	5060.24
467.51	5018.11
467.69	4940.87
467.87	5235.78
468.05	5011.09
468.23	4971.30
468.41	4999.38
468.60	5034.49
468.78	5261.52
468.96	5090.67
469.14	5298.97
469.32	5233.44
469.50	5231.10
469.69	5298.97
469.87	5427.70
470.05	5373.87
470.23	5446.43
470.41	5252.16
470.59	5446.43
470.77	5224.08
470.95	5579.84
471.14	5568.13
471.32	5359.83
471.50	5514.30
471.68	5511.96
471.86	5696.86
472.04	5549.41
472.22	5792.83
472.40	5614.95
472.58	5598.56
472.77	5769.42
472.95	5919.21
473.13	5916.87
473.31	5720.27
473.49	5799.85
473.67	5795.17
473.85	5877.09
474.03	5961.34
474.21	6024.54
474.39	6040.92
474.57	6029.22
474.75	6101.78
474.93	6176.67
475.12	6186.04
475.30	6167.31
475.48	6195.40
475.66	6235.19
475.84	6263.27
476.02	6328.81
476.20	6356.90
476.38	6387.32
476.56	6483.28
476.74	6602.65
476.92	6478.60
477.10	6583.93
477.28	6792.23
477.46	6691.59
477.64	6609.67
477.82	6925.65
478.00	6890.54
478.18	6979.48
478.36	6766.49
478.54	7005.22
478.72	6939.69
478.90	7094.16
479.08	7150.34
479.26	6995.86
479.44	7323.54
479.62	7318.86
479.80	7368.01
479.98	7220.55
480.16	7485.03
480.34	7229.91
480.52	7604.40
480.70	7503.76
480.88	7676.96
481.06	7831.43
481.24	7616.10
481.41	7801.01
481.59	8056.12
481.77	7976.55
481.95	7953.14
482.13	8119.32
482.31	8135.70
482.49	8346.35
482.67	8135.70
482.85	8446.99
483.03	8397.84
483.21	8388.48
483.39	8531.25
483.57	8629.56
483.74	8486.78
483.92	8613.17
484.10	8713.81
484.28	8903.40
484.46	9217.03
484.64	9041.49
484.82	9025.11
485.00	9135.11
485.18	9151.49
485.35	9432.36
485.53	9310.65
485.71	9432.36
485.89	9650.03
486.07	9612.58
486.25	9465.13
486.43	9607.90
486.61	9774.08
486.78	9907.49
486.96	9970.68
487.14	10228.14
487.32	9937.91
487.50	10230.48
487.68	10085.37
487.85	10211.76
488.03	10537.09
488.21	10326.44
488.39	10429.43
488.57	10705.61
488.75	10780.51
488.92	10682.20
489.10	10890.51
489.28	10974.77
489.46	11030.94
489.64	11028.60
489.81	11515.44
489.99	11346.92
490.17	11267.34
490.35	11379.68
490.53	11604.38
490.70	11597.35
490.88	11611.40
491.06	11625.44
491.24	11606.72
491.41	11819.71
491.59	11913.33
491.77	11882.90
491.95	12184.83
492.13	11997.59
492.30	12135.68
492.48	12156.74
492.66	12353.35
492.84	12114.61
493.01	12582.72
493.19	12479.74
493.37	12884.65
493.54	12624.85
493.72	12559.31
493.90	12973.59
494.08	12954.87
494.25	12896.35
494.43	13188.92
494.61	13163.17
494.79	13327.01
494.96	13163.17
495.14	13118.70
495.32	13256.79
495.49	13502.55
495.67	13465.10
495.85	13371.48
496.02	13678.09
496.20	13846.61
496.38	13783.41
496.55	13748.31
496.73	14511.32
496.91	14075.98
497.09	14211.73
497.26	14310.04
497.44	14143.86
497.62	14033.85
497.79	14422.38
497.97	14593.24
498.14	14370.89
498.32	14703.25
498.50	14869.42
498.67	14920.92
498.85	14995.81
499.03	14855.38
499.20	14813.25
499.38	14991.13
499.56	14834.32
499.73	15314.13
499.91	15398.38
500.08	15234.55
500.26	15295.40
500.44	15419.45
500.61	15414.77
500.79	15447.54
500.97	15499.03
501.14	15761.17
501.32	15681.59
501.49	15929.69
501.67	15681.59
501.84	15623.08
502.02	15625.42
502.20	15934.37
502.37	15922.66
502.55	15747.12
502.72	16210.55
502.90	16240.98
503.07	16226.93
503.25	16194.17
503.43	16049.05
503.60	16327.58
503.78	16568.65
503.95	16631.85
504.13	16519.50
504.30	16767.60
504.48	16601.42
504.65	16737.17
504.83	16662.27
505.01	17064.85
505.18	16933.78
505.36	17015.69
505.53	16954.84
505.71	16826.11
505.88	16910.37
506.06	16861.22
506.23	17242.73
506.41	17179.53
506.58	17238.05
506.76	17245.07
506.93	17280.18
507.11	17186.55
507.28	17415.93
507.46	17479.12
507.63	17649.98
507.81	17635.94
507.98	17474.44
508.16	17640.62
508.33	17715.51
508.50	17860.63
508.68	18040.85
508.85	18321.71
509.03	18090.00
509.20	18010.42
509.38	18281.92
509.55	18120.43
509.73	18263.20
509.90	18249.16
510.08	18326.39
510.25	18160.22
510.42	18696.20
510.60	18642.37
510.77	18595.56
510.95	18888.12
511.12	18242.14
511.30	18604.92
511.47	18670.45
511.64	18855.36
511.82	18892.80
511.99	18778.12
512.17	18984.09
512.34	19080.05
512.51	19187.71
512.69	19051.96
512.86	19381.98
513.04	19234.52
513.21	19278.99
513.38	19213.46
513.56	19253.25
513.73	19330.48
513.90	19707.31
514.08	19274.31
514.25	19524.75
514.43	19903.92
514.60	19506.02
514.77	19953.07
514.95	19641.78
515.12	19866.47
515.29	19606.67
515.47	19807.95
515.64	19805.61
515.81	19854.76
515.99	20266.70
516.16	20191.80
516.33	20278.40
516.51	20276.06
516.68	20269.04
516.85	20074.77
517.03	20074.77
517.20	20386.07
517.37	20444.58
517.54	20610.76
517.72	20386.07
517.89	20627.14
518.06	20262.02
518.24	20262.02
518.41	20587.35
518.58	20706.72
518.75	20723.10
518.93	20898.64
519.10	20573.31
519.27	20622.46
519.45	20870.56
519.62	20915.03
519.79	20821.41
519.96	21099.93
520.14	21160.78
520.31	20975.88
520.48	21486.12
520.65	20900.98
520.83	21109.29
521.00	21081.21
521.17	21245.04
521.34	21385.47
521.52	21301.22
521.69	21366.75
521.86	21649.96
522.03	22120.40
522.20	21542.29
522.38	21720.17
522.55	21860.60
522.72	21750.60
522.89	22071.25
523.07	21940.18
523.24	21979.97
523.41	22010.40
523.58	21921.46
523.75	21940.18
523.92	21879.33
524.10	22052.53
524.27	22424.67
524.44	22293.60
524.61	22239.77
524.78	22595.53
524.96	22424.67
525.13	22703.20
525.30	22412.97
525.47	22532.34
525.64	22377.86
525.81	22616.60
525.98	22759.37
526.16	22597.87
526.33	22789.80
526.50	22918.53
526.67	22705.54
526.84	22771.07
527.01	22728.94
527.18	22941.93
527.36	22618.94
527.53	23014.49
527.70	23082.36
527.87	23288.33
528.04	23044.91
528.21	22904.48
528.38	22824.90
528.55	23037.89
528.72	23063.64
528.89	23061.30
529.07	23253.22
529.24	23122.15
529.41	23463.87
529.58	23297.69
529.75	23190.03
529.92	23449.83
530.09	23129.17
530.26	23536.43
530.43	23480.25
530.60	23328.12
530.77	23503.66
530.94	23817.29
531.11	23271.95
531.28	23576.22
531.46	23604.30
531.63	23639.41
531.80	23655.79
531.97	23976.45
532.14	23779.84
532.31	23477.91
532.48	24011.56
532.65	24325.19
532.82	23969.43
532.99	24109.86
533.16	24091.13
533.33	24245.61
533.50	24554.56
533.67	24163.69
533.84	23983.47
534.01	24065.39
534.18	24084.11
534.35	24215.18
534.52	24306.46
534.69	24809.68
534.86	24648.18
535.03	24615.41
535.20	24479.66
535.37	24683.29
535.54	24559.24
535.71	24245.61
535.88	24524.13
536.05	24531.15
536.22	24563.92
536.38	25127.99
536.55	24889.26
536.72	24905.64
536.89	24891.60
537.06	24741.80
537.23	24872.87
537.40	24807.34
537.57	25132.67
537.74	25123.31
537.91	25247.36
538.08	25104.59
538.25	24865.85
538.42	25062.46
538.59	25078.84
538.75	24877.55
538.92	25163.10
539.09	24929.05
539.26	24938.41
539.43	25703.76
539.60	25135.01
539.77	25181.82
539.94	25357.36
540.11	25113.95
540.28	25252.04
540.44	25586.74
540.61	25455.67
540.78	25413.54
540.95	25514.18
541.12	25359.70
541.29	25647.59
541.46	25469.71
541.62	25305.87
541.79	25617.16
541.96	25603.12
542.13	25617.16
542.30	25586.74
542.47	25975.27
542.63	26017.40
542.80	26347.41
542.97	25876.96
543.14	26092.29
543.31	26038.46
543.48	26202.30
543.64	26103.99
543.81	26684.45
543.98	26522.95
544.15	26052.50
544.32	26656.36
544.48	26698.49
544.65	26064.21
544.82	26431.67
544.99	26314.64
545.16	26644.66
545.32	26169.53
545.49	26663.38
545.66	26724.24
545.83	26602.53
546.00	26546.36
546.16	26331.03
546.33	26080.59
546.50	26354.43
546.67	26892.76
546.83	26536.99
547.00	26455.08
547.17	26647.00
547.34	27002.76
547.50	26979.36
547.67	27101.06
547.84	26995.74
548.00	26675.09
548.17	26984.04
548.34	26958.29
548.51	27222.77
548.67	27021.48
548.84	27332.78
549.01	26909.14
549.18	27108.08
549.34	26794.45
549.51	27225.11
549.68	27129.15
549.84	27084.68
550.01	27402.99
550.18	27115.11
550.34	27290.65
550.51	27370.22
550.68	27304.69
550.84	27349.16
551.01	27522.36
551.18	27236.81
551.34	26911.48
551.51	27133.83
551.68	27178.30
551.84	27679.18
552.01	27651.09
552.18	27473.21
552.34	27763.43
552.51	27566.83
552.68	27049.57
552.84	27503.64
553.01	27850.03
553.18	27810.25
553.34	27779.82
553.51	27845.35
553.67	27899.19
553.84	28027.92
554.01	27723.65
554.17	27756.41
554.34	28119.20
554.51	27674.49
554.67	27843.01
554.84	28301.76
555.00	27995.15
555.17	28058.34
555.33	27847.69
555.50	27999.83
555.67	27784.50
555.83	27953.02
556.00	27953.02
556.16	27814.93
556.33	27557.47
556.50	27882.80
556.66	27885.14
556.83	28126.22
556.99	28123.88
557.16	28231.54
557.32	28442.19
557.49	28350.91
557.65	28173.03
557.82	28194.09
557.98	27915.57
558.15	28308.78
558.32	28512.41
558.48	28011.53
558.65	28493.68
558.81	28336.87
558.98	28395.38
559.14	28418.78
559.31	28421.13
559.47	28521.77
559.64	28261.97
559.80	28140.26
559.97	28589.64
560.13	28332.18
560.30	28379.00
560.46	28786.25
560.63	28500.70
560.79	28388.36
560.96	28666.88
561.12	28634.11
561.29	28404.74
561.45	28636.45
561.61	28783.91
561.78	28910.30
561.94	28360.27
562.11	28893.91
562.27	28657.52
562.44	28573.26
562.60	28959.45
562.77	28826.04
562.93	28652.84
563.10	29102.22
563.26	28961.79
563.42	28664.54
563.59	28856.46
563.75	28765.18
563.92	28774.55
564.08	28807.31
564.24	28938.38
564.41	28919.66
564.57	28683.27
564.74	28779.23
564.90	28797.95
565.07	28769.86
565.23	28945.41
565.39	28947.75
565.56	28858.81
565.72	28912.64
565.88	28900.94
566.05	28844.76
566.21	28807.31
566.38	29181.80
566.54	29355.00
566.70	29280.10
566.87	29336.27
567.03	29179.46
567.19	29230.95
567.36	29439.26
567.52	29230.95
567.68	29179.46
567.85	28758.16
568.01	29301.17
568.17	28884.55
568.34	29142.01
568.50	29209.89
568.66	29376.06
568.83	29600.76
568.99	29111.58
569.15	29083.50
569.32	29027.32
569.48	29109.24
569.64	29275.42
569.81	29429.90
569.97	28828.38
570.13	29172.44
570.30	28957.11
570.46	29748.21
570.62	29338.62
570.78	29081.16
570.95	29371.38
571.11	29455.64
571.27	28905.62
571.43	29315.21
571.60	29001.58
571.76	29170.10
571.92	29610.12
572.09	29670.97
572.25	29359.68
572.41	29046.05
572.57	29528.20
572.74	29399.47
572.90	29436.92
573.06	29296.49
573.22	29151.37
573.38	29560.97
573.55	29214.57
573.71	29727.14
573.87	29350.32
574.03	29455.64
574.20	29488.41
574.36	29085.84
574.52	29507.13
574.68	29415.85
574.84	29640.54
575.01	29579.69
575.17	29577.35
575.33	29383.09
575.49	29450.96
575.65	29413.51
575.82	29500.11
575.98	29406.49
576.14	29450.96
576.30	29619.48
576.46	29394.79
576.62	29067.11
576.79	29535.22
576.95	29511.81
577.11	29619.48
577.27	29750.55
577.43	29743.53
577.59	29663.95
577.75	29621.82
577.92	29226.27
578.08	29614.80
578.24	29490.75
578.40	29488.41
578.56	29092.86
578.72	30075.88
578.88	29907.37
579.04	29570.33
579.21	29668.63
579.37	29663.95
579.53	29528.20
579.69	29345.64
579.85	29612.46
580.01	29549.26
580.17	29467.34
580.33	29427.56
580.49	29528.20
580.65	29652.25
580.82	29832.47
580.98	29366.70
581.14	29425.22
581.30	29750.55
581.46	29329.25
581.62	29598.41
581.78	29123.29
581.94	29509.47
582.10	29560.97
582.26	29853.53
582.42	29724.80
582.58	29652.25
582.74	29790.34
582.90	29883.96
583.06	29661.61
583.22	29514.16
583.38	29738.85
583.54	29577.35
583.70	29528.20
583.86	29418.19
584.02	29933.11
584.18	29713.10
584.34	30043.12
584.50	29762.25
584.66	29577.35
584.82	29266.06
584.98	29565.65
585.14	30033.75
585.30	29649.91
585.46	29315.21
585.62	29645.23
585.78	29930.77
585.94	29357.34
586.10	29696.72
586.26	29848.85
586.42	29652.25
586.58	29858.21
586.74	29914.39
586.90	30017.37
587.06	29565.65
587.22	29729.48
587.38	29724.80
587.54	30125.04
587.70	29582.03
587.86	29926.09
588.02	30010.35
588.18	29993.97
588.34	29975.24
588.49	29958.86
588.65	29647.57
588.81	29944.81
588.97	30087.59
589.13	29928.43
589.29	29989.28
589.45	29783.32
589.61	29947.15
589.77	30038.44
589.93	30321.64
590.08	30398.88
590.24	30213.98
590.40	30230.36
590.56	30169.51
590.72	29998.65
590.88	29806.72
591.04	29958.86
591.20	30183.55
591.35	29825.45
591.51	30396.54
591.67	29909.71
591.83	30352.07
591.99	30551.01
