SpectraSuite Data File
++++++++++++++++++++++++++++++++++++
Date: Fri Oct 18 13:58:01 GMT-05:00 2013
User: bianchi
Dark Spectrum Present: No
Reference Spectrum Present: No
Number of Sampled Component Spectra: 1
Spectrometers: USB2+H05261
Integration Time (usec): 50000 (USB2+H05261)
Spectra Averaged: 1 (USB2+H05261)
Boxcar Smoothing: 0 (USB2+H05261)
Correct for Electrical Dark: No (USB2+H05261)
Strobe/Lamp Enabled: No (USB2+H05261)
Correct for Detector Non-linearity: No (USB2+H05261)
Correct for Stray Light: No (USB2+H05261)
Number of Pixels in Processed Spectrum: 2048
>>>>>Begin Processed Spectral Data<<<<<
365.73	0.00
365.92	0.00
366.12	0.00
366.32	0.00
366.52	0.00
366.72	0.00
366.91	0.00
367.11	0.00
367.31	0.00
367.51	0.00
367.70	0.00
367.90	0.00
368.10	0.00
368.30	0.00
368.49	0.00
368.69	0.00
368.89	0.00
369.09	0.00
369.28	0.00
369.48	0.00
369.68	0.00
369.87	0.00
370.07	0.00
370.27	0.00
370.47	37.45
370.66	65.54
370.86	65.54
371.06	184.90
371.25	163.84
371.45	166.18
371.65	184.90
371.84	133.41
372.04	100.64
372.24	112.35
372.44	161.50
372.63	248.10
372.83	294.91
373.03	184.90
373.22	287.89
373.42	170.86
373.62	198.95
373.81	245.76
374.01	126.39
374.21	198.95
374.40	266.82
374.60	299.59
374.79	182.56
374.99	248.10
375.19	297.25
375.38	273.84
375.58	229.37
375.78	304.27
375.97	278.52
376.17	255.12
376.37	292.57
376.56	245.76
376.76	229.37
376.95	257.46
377.15	262.14
377.35	304.27
377.54	234.05
377.74	383.85
377.93	287.89
378.13	301.93
378.33	252.78
378.52	287.89
378.72	290.23
378.91	238.73
379.11	271.50
379.31	243.42
379.50	332.36
379.70	238.73
379.89	299.59
380.09	262.14
380.28	273.84
380.48	315.97
380.68	262.14
380.87	299.59
381.07	325.33
381.26	313.63
381.46	250.44
381.65	339.38
381.85	365.12
382.04	325.33
382.24	301.93
382.43	311.29
382.63	369.80
382.83	407.25
383.02	301.93
383.22	379.17
383.41	287.89
383.61	320.65
383.80	269.16
384.00	376.83
384.19	346.40
384.39	339.38
384.58	400.23
384.78	339.38
384.97	383.85
385.17	341.72
385.36	365.12
385.56	423.64
385.75	386.19
385.95	425.98
386.14	386.19
386.34	409.59
386.53	393.21
386.72	330.02
386.92	386.19
387.11	393.21
387.31	449.38
387.50	435.34
387.70	472.79
387.89	379.17
388.09	470.45
388.28	388.53
388.48	449.38
388.67	402.57
388.86	339.38
389.06	421.30
389.25	484.49
389.45	433.00
389.64	493.85
389.84	440.02
390.03	479.81
390.22	493.85
390.42	423.64
390.61	472.79
390.81	428.32
391.00	472.79
391.19	552.37
391.39	554.71
391.58	557.05
391.78	498.53
391.97	498.53
392.16	528.96
392.36	587.47
392.55	498.53
392.75	561.73
392.94	500.87
393.13	554.71
393.33	561.73
393.52	505.56
393.71	507.90
393.91	505.56
394.10	568.75
394.29	554.71
394.49	674.07
394.68	627.26
394.88	650.67
395.07	667.05
395.26	575.77
395.46	564.07
395.65	697.48
395.84	606.20
396.04	664.71
396.23	585.13
396.42	606.20
396.62	720.88
396.81	678.76
397.00	608.54
397.19	627.26
397.39	681.10
397.58	723.23
397.77	589.82
397.97	648.33
398.16	732.59
398.35	671.73
398.55	739.61
398.74	777.06
398.93	681.10
399.12	697.48
399.32	823.87
399.51	753.65
399.70	779.40
399.90	730.25
400.09	732.59
400.28	763.01
400.47	791.10
400.67	781.74
400.86	847.27
401.05	821.53
401.24	791.10
401.44	851.96
401.63	814.51
401.82	767.70
402.01	856.64
402.21	807.48
402.40	812.17
402.59	786.42
402.78	805.14
402.97	903.45
403.17	950.26
403.36	819.19
403.55	828.55
403.74	896.43
403.93	903.45
404.13	1062.60
404.32	940.90
404.51	983.02
404.70	940.90
404.89	880.04
405.09	966.64
405.28	976.00
405.47	898.77
405.66	1057.92
405.85	1043.88
406.05	1071.97
406.24	976.00
406.43	997.07
406.62	926.85
406.81	1069.62
407.00	1025.15
407.20	954.94
407.39	1046.22
407.58	1032.18
407.77	1125.80
407.96	1109.41
408.15	1043.88
408.34	1039.20
408.54	1086.01
408.73	1034.52
408.92	1050.90
409.11	1060.26
409.30	1116.44
409.49	1121.12
409.68	1062.60
409.87	1153.88
410.07	1165.59
410.26	1130.48
410.45	1188.99
410.64	1259.21
410.83	1329.42
411.02	1160.91
411.21	1219.42
411.40	1193.67
411.59	1254.53
411.78	1170.27
411.98	1224.10
412.17	1242.82
412.36	1315.38
412.55	1327.08
412.74	1315.38
412.93	1399.64
413.12	1282.61
413.31	1472.20
413.50	1387.94
413.69	1418.36
413.88	1409.00
414.07	1394.96
414.26	1425.39
414.45	1446.45
414.64	1497.94
414.83	1568.16
415.02	1563.48
415.22	1652.42
415.41	1582.20
415.60	1713.27
415.79	1600.93
415.98	1598.59
416.17	1486.24
416.36	1509.65
416.55	1619.65
416.74	1605.61
416.93	1507.30
417.12	1621.99
417.31	1523.69
417.50	1577.52
417.69	1785.83
417.88	1832.64
418.07	1743.70
418.26	1720.29
418.45	1729.66
418.64	1746.04
418.83	1757.74
419.02	1816.26
419.21	1837.32
419.39	1865.41
419.58	1710.93
419.77	1785.83
419.96	1820.94
420.15	1837.32
420.34	1900.52
420.53	1834.98
420.72	1832.64
420.91	1944.99
421.10	1832.64
421.29	1949.67
421.48	1884.13
421.67	1975.41
421.86	1900.52
422.05	2017.54
422.24	1947.33
422.43	2043.29
422.61	1989.46
422.80	2010.52
422.99	1949.67
423.18	1996.48
423.37	1977.75
423.56	2001.16
423.75	2043.29
423.94	2157.97
424.13	1905.20
424.32	1973.07
424.50	1980.09
424.69	2040.95
424.88	2118.18
425.07	1982.43
425.26	2113.50
425.45	2038.61
425.64	2132.23
425.83	2120.53
426.01	2022.22
426.20	1956.69
426.39	2026.90
426.58	1977.75
426.77	2129.89
426.96	2064.35
427.15	2132.23
427.33	2099.46
427.52	2162.66
427.71	2101.80
427.90	2139.25
428.09	2193.08
428.28	2139.25
428.46	2317.13
428.65	2253.94
428.84	2221.17
429.03	2326.49
429.22	2193.08
429.40	2246.91
429.59	2239.89
429.78	2024.56
429.97	2146.27
430.16	2218.83
430.34	2373.30
430.53	2394.37
430.72	2326.49
430.91	2335.85
431.10	2129.89
431.28	2429.48
431.47	2328.83
431.66	2462.24
431.85	2333.51
432.03	2471.61
432.22	2574.59
432.41	2410.75
432.60	2495.01
432.79	2333.51
432.97	2576.93
433.16	2541.82
433.35	2490.33
433.54	2380.32
433.72	2574.59
433.91	2523.10
434.10	2574.59
434.28	2581.61
434.47	2492.67
434.66	2492.67
434.85	2621.40
435.03	2619.06
435.22	2672.89
435.41	2642.46
435.59	2679.91
435.78	2764.17
435.97	2747.79
436.16	2612.04
436.34	2640.12
436.53	2717.36
436.72	2754.81
436.90	2745.45
437.09	2621.40
437.28	2656.51
437.46	2780.56
437.65	2743.11
437.84	2710.34
438.02	2757.15
438.21	2808.64
438.40	2792.26
438.58	2740.77
438.77	2958.44
438.96	2925.67
439.14	2937.37
439.33	2970.14
439.52	2932.69
439.70	2970.14
439.89	3030.99
440.08	2920.99
440.26	3122.27
440.45	2960.78
440.63	3075.46
440.82	3122.27
441.01	3026.31
441.19	3225.26
441.38	3101.21
441.57	3243.98
441.75	3171.43
441.94	3262.71
442.12	3328.24
442.31	3276.75
442.50	3384.41
442.68	3241.64
442.87	3309.52
443.05	3290.79
443.24	3377.39
443.43	3234.62
443.61	3478.04
443.80	3419.52
443.98	3358.67
444.17	3215.90
444.35	3426.54
444.54	3435.91
444.73	3454.63
444.91	3463.99
445.10	3403.14
445.28	3433.57
445.47	3410.16
445.65	3445.27
445.84	3543.57
446.02	3428.88
446.21	3424.20
446.39	3386.76
446.58	3485.06
446.77	3548.25
446.95	3585.70
447.14	3529.53
447.32	3557.61
447.51	3358.67
447.69	3536.55
447.88	3517.83
448.06	3644.21
448.25	3431.23
448.43	3541.23
448.62	3574.00
448.80	3545.91
448.99	3733.15
449.17	3592.72
449.36	3597.40
449.54	3688.68
449.73	3728.47
449.91	3822.09
450.10	3705.07
450.28	3840.82
450.46	3852.52
450.65	3817.41
450.83	3742.52
451.02	3815.07
451.20	3911.04
451.39	3934.44
451.57	3838.48
451.76	3786.99
451.94	3794.01
452.13	3779.97
452.31	3857.20
452.49	3798.69
452.68	3754.22
452.86	3866.56
453.05	3920.40
453.23	4044.45
453.42	3845.50
453.60	3777.62
453.78	4035.08
453.97	3843.16
454.15	3969.55
454.34	3852.52
454.52	3911.04
454.70	4126.36
454.89	4023.38
455.07	3978.91
455.26	4023.38
455.44	4021.04
455.62	4126.36
455.81	4119.34
455.99	4283.18
456.17	4191.90
456.36	3918.06
456.54	4212.96
456.73	4386.16
456.91	4196.58
457.09	4306.59
457.28	4201.26
457.46	4259.78
457.64	4437.66
457.83	4322.97
458.01	4273.82
458.19	4292.54
458.38	4341.69
458.56	4512.55
458.74	4355.74
458.93	4512.55
459.11	4461.06
459.29	4360.42
459.48	4582.77
459.66	4449.36
459.84	4638.94
460.03	4425.95
460.21	4547.66
460.39	4662.35
460.57	4475.10
460.76	4664.69
460.94	4765.33
461.12	4770.01
461.31	4528.94
461.49	4620.22
461.67	4550.00
461.85	4716.18
462.04	4758.31
462.22	5013.43
462.40	4622.56
462.59	4723.20
462.77	4711.50
462.95	4706.82
463.13	4678.73
463.32	4835.55
463.50	4842.57
463.68	4880.02
463.86	4809.80
464.05	4741.93
464.23	4840.23
464.41	5034.49
464.59	4821.50
464.78	4933.85
464.96	4903.42
465.14	4720.86
465.32	5027.47
465.50	4990.02
465.69	4971.30
465.87	5097.69
466.05	5074.28
466.23	5060.24
466.41	5130.45
466.60	5043.85
466.78	4947.89
466.96	5076.62
467.14	5034.49
467.32	5329.40
467.51	5188.97
467.69	5022.79
467.87	5121.09
468.05	5104.71
468.23	5160.88
468.41	5186.63
468.60	5268.55
468.78	5137.48
468.96	5203.01
469.14	5352.81
469.32	5364.51
469.50	5139.82
469.69	5392.59
469.87	5401.96
470.05	5533.03
470.23	5444.09
470.41	5364.51
470.59	5441.75
470.77	5425.36
470.95	5568.13
471.14	5467.49
471.32	5554.09
471.50	5488.56
471.68	5605.58
471.86	5619.63
472.04	5584.52
472.22	5846.66
472.40	5493.24
472.58	5647.71
472.77	5628.99
472.95	5781.12
473.13	5881.77
473.31	5856.02
473.49	5760.06
473.67	5776.44
473.85	5987.09
474.03	6010.50
474.21	5961.34
474.39	6129.86
474.57	6120.50
474.75	6008.16
474.93	6174.33
475.12	6399.02
475.30	6293.70
475.48	6197.74
475.66	6106.46
475.84	6335.83
476.02	6380.30
476.20	6303.06
476.38	6504.35
476.56	6375.62
476.74	6530.09
476.92	6516.05
477.10	6511.37
477.28	6689.25
477.46	6590.95
477.64	6878.83
477.82	6892.88
478.00	6970.12
478.18	7143.32
478.36	7000.54
478.54	6984.16
478.72	7045.01
478.90	7059.06
479.08	7077.78
479.26	7323.54
479.44	7286.09
479.62	7145.66
479.80	7536.52
479.98	7295.45
480.16	7389.07
480.34	7379.71
480.52	7618.44
480.70	7709.72
480.88	7691.00
481.06	7683.98
481.24	7632.49
481.41	7721.43
481.59	7925.05
481.77	7976.55
481.95	7866.54
482.13	7995.27
482.31	8217.62
482.49	8236.35
482.67	8184.85
482.85	8311.24
483.03	8428.27
483.21	8540.61
483.39	8496.14
483.57	8355.71
483.74	8725.52
483.92	8807.44
484.10	8678.71
484.28	8840.20
484.46	8952.55
484.64	9132.77
484.82	8875.31
485.00	9046.17
485.18	9317.67
485.35	9570.45
485.53	9345.76
485.71	9362.14
485.89	9558.75
486.07	9481.51
486.25	9401.93
486.43	9687.48
486.61	9830.25
486.78	9921.53
486.96	9919.19
487.14	10143.88
487.32	10087.71
487.50	10127.50
487.68	10211.76
487.85	10361.55
488.03	10443.47
488.21	10609.65
488.39	10628.37
488.57	10640.08
488.75	10736.04
488.92	10822.64
489.10	10944.34
489.28	10824.98
489.46	10995.84
489.64	11138.61
489.81	11295.43
489.99	11133.93
490.17	11485.01
490.35	11534.16
490.53	11487.35
490.70	11660.55
490.88	11477.99
491.06	11726.08
491.24	11740.13
491.41	11920.35
491.59	12006.95
491.77	11934.39
491.95	12058.44
492.13	12091.21
492.30	12329.94
492.48	12582.72
492.66	12416.54
492.84	12346.33
493.01	12727.83
493.19	12388.46
493.37	12730.17
493.54	12671.66
493.72	13015.72
493.90	12751.24
494.08	12886.99
494.25	13074.23
494.43	13298.92
494.61	13242.75
494.79	13329.35
494.96	13343.39
495.14	13469.78
495.32	13549.36
495.49	13479.15
495.67	13516.59
495.85	13844.27
496.02	13928.53
496.20	13958.96
496.38	14057.26
496.55	13870.01
496.73	14221.10
496.91	13905.12
497.09	14338.12
497.26	14354.51
497.44	14464.51
497.62	14373.23
497.79	14698.56
497.97	14438.76
498.14	14705.59
498.32	14839.00
498.50	14949.00
498.67	14822.61
498.85	14949.00
499.03	14834.32
499.20	14953.68
499.38	14967.73
499.56	15232.21
499.73	15253.27
499.91	15119.86
500.08	15180.71
500.26	15475.62
500.44	15611.37
500.61	15466.26
500.79	15587.97
500.97	15719.04
501.14	15864.15
501.32	15683.93
501.49	15798.62
501.67	15854.79
501.84	15857.13
502.02	15852.45
502.20	16166.08
502.37	16386.09
502.55	16299.49
502.72	16112.25
502.90	16147.36
503.07	16079.48
503.25	16135.65
503.43	16161.40
503.60	16442.26
503.78	16542.91
503.95	16702.06
504.13	16329.92
504.30	16783.98
504.48	16741.85
504.65	16954.84
504.83	17088.25
505.01	16922.07
505.18	17123.36
505.36	17216.98
505.53	17090.59
505.71	17088.25
505.88	17188.89
506.06	16826.11
506.23	17156.13
506.41	17284.86
506.58	17621.89
506.76	17247.41
506.93	17446.35
507.11	17432.31
507.28	17680.41
507.46	17338.69
507.63	17444.01
507.81	18232.77
507.98	17748.28
508.16	17502.53
508.33	18033.83
508.50	17881.69
508.68	17811.48
508.85	18118.09
509.03	17916.80
509.20	18218.73
509.38	18291.29
509.55	18513.64
509.73	18448.10
509.90	18188.30
510.08	18139.15
510.25	18251.50
510.42	18450.44
510.60	18728.97
510.77	18981.74
510.95	18595.56
511.12	18511.30
511.30	18689.18
511.47	18988.77
511.64	18904.51
511.82	19154.94
511.99	18937.27
512.17	18946.64
512.34	18885.78
512.51	19140.90
512.69	19456.87
512.86	19407.72
513.04	19426.45
513.21	19459.21
513.38	19543.47
513.56	19463.90
513.73	19309.42
513.90	19749.44
514.08	19463.90
514.25	19587.94
514.43	19499.00
514.60	20100.52
514.77	19887.53
514.95	19695.61
515.12	19726.04
515.29	19744.76
515.47	19758.80
515.64	20072.43
515.81	20137.97
515.99	20341.60
516.16	20276.06
516.33	20432.88
516.51	20498.41
516.68	20011.58
516.85	20491.39
517.03	20184.78
517.20	20360.32
517.37	20882.26
517.54	20744.17
517.72	20659.91
517.89	20610.76
518.06	20765.23
518.24	20781.62
518.41	20814.38
518.58	20746.51
518.75	21109.29
518.93	20891.62
519.10	20982.90
519.27	21303.56
519.45	21090.57
519.62	21113.97
519.79	21130.36
519.96	21104.61
520.14	21048.44
520.31	21528.25
520.48	21577.40
520.65	21163.12
520.83	21221.64
521.00	21448.67
521.17	21345.69
521.34	21462.71
521.52	21563.36
521.69	21507.18
521.86	21678.04
522.03	21949.54
522.20	21724.85
522.38	22101.68
522.55	21668.68
522.72	22082.95
522.89	21750.60
523.07	22167.21
523.24	22064.23
523.41	22199.98
523.58	21855.92
523.75	22036.14
523.92	22199.98
524.10	22274.88
524.27	22368.50
524.44	22389.56
524.61	22534.68
524.78	22621.28
524.96	22525.32
525.13	22267.86
525.30	22139.13
525.47	22607.23
525.64	22705.54
525.81	22712.56
525.98	22757.03
526.16	22998.10
526.33	22778.09
526.50	22941.93
526.67	22740.64
526.84	22771.07
527.01	22775.75
527.18	22780.43
527.36	23241.52
527.53	23082.36
527.70	23372.59
527.87	23543.45
528.04	23187.69
528.21	22970.02
528.38	23342.16
528.55	23213.43
528.72	23276.63
528.89	23206.41
529.07	23632.39
529.24	23269.61
529.41	23749.42
529.58	23510.68
529.75	23688.56
529.92	23873.46
530.09	23506.00
530.26	23676.86
530.43	23910.91
530.60	23978.79
530.77	23679.20
530.94	23580.90
531.11	23695.58
531.28	23913.25
531.46	23681.54
531.63	23723.67
531.80	24020.92
531.97	24084.11
532.14	24467.96
532.31	24290.08
532.48	23988.15
532.65	24060.71
532.82	24264.33
532.99	24187.10
533.16	24514.77
533.33	24355.61
533.50	25181.82
533.67	24409.45
533.84	24320.51
534.01	24437.53
534.18	24278.38
534.35	24568.60
534.52	24486.68
534.69	24936.07
534.86	24907.98
535.03	24704.35
535.20	24989.90
535.37	24549.88
535.54	24826.06
535.71	24524.13
535.88	24821.38
536.05	24842.45
536.22	24896.28
536.38	25289.49
536.55	25188.85
536.72	25242.68
536.89	24521.79
537.06	24566.26
537.23	25032.03
537.40	25074.16
537.57	25071.82
537.74	24931.39
537.91	25226.29
538.08	25605.46
538.25	25296.51
538.42	24924.36
538.59	25460.35
538.75	25160.76
538.92	25308.21
539.09	25766.96
539.26	25727.17
539.43	25422.90
539.60	25638.23
539.77	25568.01
539.94	25455.67
540.11	25568.01
540.28	25638.23
540.44	25661.63
540.61	25546.95
540.78	25722.49
540.95	25605.46
541.12	25970.58
541.29	25823.13
541.46	25874.62
541.62	25736.53
541.79	25635.89
541.96	25640.57
542.13	25436.94
542.30	26256.13
542.47	25781.00
542.63	26101.65
542.80	26272.51
542.97	26380.18
543.14	26284.22
543.31	26412.95
543.48	25954.20
543.64	26911.48
543.81	26232.72
543.98	26295.92
544.15	26494.86
544.32	26782.75
544.48	26614.23
544.65	26391.88
544.82	26155.49
544.99	26120.38
545.16	26476.14
545.32	26101.65
545.49	26757.00
545.66	26888.07
545.83	27002.76
546.00	26923.18
546.16	27101.06
546.33	26815.52
546.50	26335.71
546.67	26726.58
546.83	26785.09
547.00	27023.83
547.17	27220.43
547.34	26941.91
547.50	26981.70
547.67	26848.29
547.84	27281.28
548.00	27136.17
548.17	26962.97
548.34	26937.23
548.51	27604.28
548.67	27473.21
548.84	27161.92
549.01	27536.40
549.18	27487.25
549.34	27255.54
549.51	27601.94
549.68	27328.10
549.84	27576.19
550.01	27611.30
550.18	27072.98
550.34	27669.81
550.51	27693.22
550.68	27733.01
550.84	26932.54
551.01	27449.80
551.18	27419.38
551.34	27325.75
551.51	27531.72
551.68	27592.58
551.84	27613.64
552.01	27690.88
552.18	27957.70
552.34	27449.80
552.51	27880.46
552.68	27772.80
552.84	27761.09
553.01	27988.13
553.18	27571.51
553.34	27805.56
553.51	28056.00
553.67	27873.44
553.84	28166.01
554.01	28168.35
554.17	28460.91
554.34	28388.36
554.51	28027.92
554.67	28226.86
554.84	28067.70
555.00	27894.50
555.17	28002.17
555.33	28416.44
555.50	28559.22
555.67	28299.42
555.83	28058.34
556.00	28011.53
556.16	28329.84
556.33	28348.57
556.50	28109.83
556.66	28360.27
556.83	28212.82
556.99	28514.75
557.16	28692.63
557.32	28669.22
557.49	28786.25
557.65	28379.00
557.82	28393.04
557.98	28950.09
558.15	28664.54
558.32	28727.74
558.48	28570.92
558.65	28762.84
558.81	28978.17
558.98	28760.50
559.14	28730.08
559.31	28561.56
559.47	28407.08
559.64	28739.44
559.80	28821.36
559.97	28851.78
560.13	28762.84
560.30	29043.71
560.46	28797.95
560.63	28819.02
560.79	28744.12
560.96	29287.12
561.12	28840.08
561.29	28620.07
561.45	28973.49
561.61	28863.49
561.78	29130.31
561.94	28851.78
562.11	28819.02
562.27	29263.72
562.44	28870.51
562.60	29050.73
562.77	28926.68
562.93	29046.05
563.10	29303.51
563.26	29216.91
563.42	29303.51
563.59	29186.48
563.75	29099.88
563.92	29174.78
564.08	29111.58
564.24	28938.38
564.41	28898.59
564.57	29132.65
564.74	29113.92
564.90	29273.08
565.07	29027.32
565.23	29170.10
565.39	29324.57
565.56	29387.77
565.72	29326.91
565.88	29216.91
566.05	28912.64
566.21	28964.13
566.38	29404.15
566.54	29434.58
566.70	29577.35
566.87	29427.56
567.03	29322.23
567.19	29717.78
567.36	29731.83
567.52	29724.80
567.68	29404.15
567.85	29462.66
568.01	29380.74
568.17	29081.16
568.34	29626.50
568.50	29621.82
568.66	29280.10
568.83	29853.53
568.99	29610.12
569.15	29647.57
569.32	29291.80
569.48	28910.30
569.64	29446.28
569.81	29450.96
569.97	29165.42
570.13	29509.47
570.30	29572.67
570.46	29682.67
570.62	29443.94
570.78	29713.10
570.95	29336.27
571.11	29670.97
571.27	29376.06
571.43	29369.04
571.60	29504.79
571.76	29266.06
571.92	30073.54
572.09	29462.66
572.25	29846.51
572.41	29682.67
572.57	29312.87
572.74	29532.88
572.90	29603.10
573.06	29692.04
573.22	29827.79
573.38	29766.93
573.55	29415.85
573.71	29993.97
573.87	29851.19
574.03	29752.89
574.20	29680.33
574.36	29434.58
574.52	29930.77
574.68	29483.73
574.84	29766.93
575.01	30017.37
575.17	30019.71
575.33	29752.89
575.49	29699.06
575.65	30106.31
575.82	30078.22
575.98	29762.25
576.14	29542.24
576.30	30092.27
576.46	29497.77
576.62	29406.49
576.79	30073.54
576.95	29537.56
577.11	29694.38
577.27	30024.39
577.43	29818.42
577.59	29883.96
577.75	29687.36
577.92	29399.47
578.08	29769.27
578.24	29788.00
578.40	29635.86
578.56	29963.54
578.72	29937.79
578.88	30068.86
579.04	29633.52
579.21	30040.78
579.37	30155.46
579.53	29546.92
579.69	29923.75
579.85	29647.57
580.01	29872.26
580.17	29598.41
580.33	29621.82
580.49	30286.53
580.65	30213.98
580.82	29579.69
580.98	30256.11
581.14	29659.27
581.30	29940.13
581.46	29923.75
581.62	29663.95
581.78	29853.53
581.94	30122.69
582.10	29490.75
582.26	30061.84
582.42	30082.91
582.58	29713.10
582.74	29888.64
582.90	30146.10
583.06	29951.84
583.22	30096.95
583.38	29972.90
583.54	30057.16
583.70	29553.94
583.86	29722.46
584.02	29607.78
584.18	29869.92
584.34	29965.88
584.50	30228.02
584.66	30094.61
584.82	29649.91
584.98	30143.76
585.14	30059.50
585.30	29919.07
585.46	29893.32
585.62	29834.81
585.78	30148.44
585.94	30024.39
586.10	29778.64
586.26	30424.62
586.42	30256.11
586.58	30368.45
586.74	30211.64
586.90	29996.31
587.06	30188.23
587.22	29862.90
587.38	29968.22
587.54	30373.13
587.70	30199.93
587.86	29839.49
588.02	30185.89
588.18	30775.70
588.34	30366.11
588.49	29916.73
588.65	30333.34
588.81	30024.39
588.97	30221.00
589.13	30452.71
589.29	30008.01
589.45	30183.55
589.61	30307.60
589.77	30714.85
589.93	30078.22
590.08	30654.00
590.24	30944.22
590.40	30321.64
590.56	30274.83
590.72	30644.63
590.88	30024.39
591.04	30211.64
591.20	30714.85
591.35	30171.85
591.51	30466.75
591.67	30600.16
591.83	30661.02
591.99	30501.86
