SpectraSuite Data File
++++++++++++++++++++++++++++++++++++
Date: Fri Oct 18 13:57:54 GMT-05:00 2013
User: bianchi
Dark Spectrum Present: No
Reference Spectrum Present: No
Number of Sampled Component Spectra: 1
Spectrometers: USB2+H05261
Integration Time (usec): 50000 (USB2+H05261)
Spectra Averaged: 1 (USB2+H05261)
Boxcar Smoothing: 0 (USB2+H05261)
Correct for Electrical Dark: No (USB2+H05261)
Strobe/Lamp Enabled: No (USB2+H05261)
Correct for Detector Non-linearity: No (USB2+H05261)
Correct for Stray Light: No (USB2+H05261)
Number of Pixels in Processed Spectrum: 2048
>>>>>Begin Processed Spectral Data<<<<<
365.73	0.00
365.92	0.00
366.12	0.00
366.32	0.00
366.52	0.00
366.72	0.00
366.91	0.00
367.11	0.00
367.31	0.00
367.51	0.00
367.70	0.00
367.90	0.00
368.10	0.00
368.30	0.00
368.49	0.00
368.69	0.00
368.89	0.00
369.09	0.00
369.28	0.00
369.48	0.00
369.68	0.00
369.87	0.00
370.07	0.00
370.27	0.00
370.47	2.34
370.66	102.98
370.86	161.50
371.06	163.84
371.25	98.30
371.45	187.24
371.65	88.94
371.84	79.58
372.04	133.41
372.24	175.54
372.44	208.31
372.63	322.99
372.83	236.39
373.03	180.22
373.22	168.52
373.42	217.67
373.62	262.14
373.81	189.58
374.01	231.71
374.21	227.03
374.40	276.18
374.60	189.58
374.79	210.65
374.99	227.03
375.19	173.20
375.38	238.73
375.58	245.76
375.78	299.59
375.97	252.78
376.17	304.27
376.37	236.39
376.56	278.52
376.76	299.59
376.95	283.20
377.15	210.65
377.35	287.89
377.54	285.55
377.74	320.65
377.93	271.50
378.13	325.33
378.33	304.27
378.52	280.86
378.72	257.46
378.91	278.52
379.11	215.33
379.31	299.59
379.50	290.23
379.70	346.40
379.89	374.49
380.09	390.87
380.28	294.91
380.48	376.83
380.68	304.27
380.87	337.04
381.07	315.97
381.26	306.61
381.46	266.82
381.65	196.60
381.85	428.32
382.04	294.91
382.24	421.30
382.43	388.53
382.63	346.40
382.83	297.25
383.02	379.17
383.22	358.10
383.41	339.38
383.61	322.99
383.80	409.59
384.00	353.42
384.19	423.64
384.39	346.40
384.58	395.55
384.78	397.89
384.97	423.64
385.17	379.17
385.36	400.23
385.56	337.04
385.75	425.98
385.95	402.57
386.14	372.15
386.34	414.27
386.53	425.98
386.72	411.93
386.92	416.62
387.11	486.83
387.31	411.93
387.50	395.55
387.70	374.49
387.89	379.17
388.09	402.57
388.28	435.34
388.48	409.59
388.67	538.32
388.86	449.38
389.06	500.87
389.25	451.72
389.45	472.79
389.64	498.53
389.84	421.30
390.03	503.22
390.22	463.43
390.42	571.09
390.61	433.00
390.81	543.00
391.00	538.32
391.19	369.80
391.39	503.22
391.58	543.00
391.78	587.47
391.97	554.71
392.16	507.90
392.36	608.54
392.55	592.16
392.75	503.22
392.94	517.26
393.13	573.43
393.33	545.34
393.52	620.24
393.71	566.41
393.91	620.24
394.10	517.26
394.29	559.39
394.49	561.73
394.68	608.54
394.88	627.26
395.07	554.71
395.26	596.84
395.46	620.24
395.65	739.61
395.84	606.20
396.04	758.33
396.23	622.58
396.42	589.82
396.62	603.86
396.81	662.37
397.00	645.99
397.19	720.88
397.39	704.50
397.58	723.23
397.77	795.78
397.97	711.52
398.16	660.03
398.35	704.50
398.55	704.50
398.74	711.52
398.93	781.74
399.12	641.31
399.32	718.54
399.51	741.95
399.70	802.80
399.90	772.38
400.09	763.01
400.28	854.30
400.47	875.36
400.67	751.31
400.86	788.76
401.05	763.01
401.24	889.40
401.44	851.96
401.63	821.53
401.82	732.59
402.01	842.59
402.21	880.04
402.40	875.36
402.59	945.58
402.78	910.47
402.97	858.98
403.17	898.77
403.36	905.79
403.55	884.72
403.74	830.89
403.93	901.11
404.13	826.21
404.32	938.55
404.51	959.62
404.70	971.32
404.89	1011.11
405.09	961.96
405.28	957.28
405.47	929.19
405.66	1069.62
405.85	973.66
406.05	903.45
406.24	1083.67
406.43	1043.88
406.62	1043.88
406.81	1144.52
407.00	945.58
407.20	983.02
407.39	1111.75
407.58	1100.05
407.77	1102.39
407.96	1111.75
408.15	1064.94
408.34	1125.80
408.54	1135.16
408.73	1128.14
408.92	1188.99
409.11	1100.05
409.30	1100.05
409.49	1249.85
409.68	1193.67
409.87	1125.80
410.07	1242.82
410.26	1177.29
410.45	1231.12
410.64	1188.99
410.83	1261.55
411.02	1179.63
411.21	1320.06
411.40	1221.76
411.59	1327.08
411.78	1345.81
411.98	1277.93
412.17	1338.79
412.36	1273.25
412.55	1345.81
412.74	1327.08
412.93	1392.62
413.12	1322.40
413.31	1401.98
413.50	1474.54
413.69	1392.62
413.88	1514.33
414.07	1474.54
414.26	1497.94
414.45	1476.88
414.64	1427.73
414.83	1558.80
415.02	1554.12
415.22	1488.58
415.41	1547.09
415.60	1511.99
415.79	1614.97
415.98	1666.46
416.17	1614.97
416.36	1624.33
416.55	1619.65
416.74	1666.46
416.93	1708.59
417.12	1706.25
417.31	1699.23
417.50	1753.06
417.69	1781.15
417.88	1809.23
418.07	1825.62
418.26	1872.43
418.45	1685.19
418.64	1743.70
418.83	1816.26
419.02	1767.10
419.21	1930.94
419.39	1952.01
419.58	1858.39
419.77	1867.75
419.96	1891.15
420.15	1895.83
420.34	1919.24
420.53	1944.99
420.72	1944.99
420.91	1970.73
421.10	2017.54
421.29	2078.40
421.48	2064.35
421.67	2080.74
421.86	1881.79
422.05	2017.54
422.24	2031.58
422.43	2087.76
422.61	2104.14
422.80	2040.95
422.99	2099.46
423.18	2087.76
423.37	1977.75
423.56	2073.71
423.75	2129.89
423.94	2085.42
424.13	1898.17
424.32	1947.33
424.50	2045.63
424.69	2120.53
424.88	2069.03
425.07	2106.48
425.26	2052.65
425.45	2031.58
425.64	2033.93
425.83	2050.31
426.01	2162.66
426.20	2200.10
426.39	2104.14
426.58	2115.84
426.77	2059.67
426.96	2193.08
427.15	2143.93
427.33	2279.68
427.52	2078.40
427.71	2172.02
427.90	2223.51
428.09	2260.96
428.28	2239.89
428.46	2225.85
428.65	2312.45
428.84	2354.58
429.03	2326.49
429.22	2235.21
429.40	2291.38
429.59	2235.21
429.78	2160.31
429.97	2214.15
430.16	2249.25
430.34	2429.48
430.53	2413.09
430.72	2340.54
430.91	2314.79
431.10	2230.53
431.28	2230.53
431.47	2239.89
431.66	2462.24
431.85	2401.39
432.03	2541.82
432.22	2539.48
432.41	2583.95
432.60	2516.08
432.79	2396.71
432.97	2490.33
433.16	2581.61
433.35	2525.44
433.54	2457.56
433.72	2698.64
433.91	2527.78
434.10	2471.61
434.28	2619.06
434.47	2686.94
434.66	2548.84
434.85	2567.57
435.03	2527.78
435.22	2722.04
435.41	2693.96
435.59	2693.96
435.78	2553.52
435.97	2712.68
436.16	2773.53
436.34	2768.85
436.53	2815.66
436.72	2867.16
436.90	2736.09
437.09	2696.30
437.28	2775.88
437.46	2729.06
437.65	2773.53
437.84	2738.43
438.02	2862.48
438.21	2712.68
438.40	2771.19
438.58	2944.39
438.77	2911.63
438.96	3056.74
439.14	2998.23
439.33	2981.84
439.52	2956.10
439.70	3066.10
439.89	3108.23
440.08	3136.32
440.26	2981.84
440.45	2998.23
440.63	3124.62
440.82	3171.43
441.01	3283.77
441.19	3356.33
441.38	3414.84
441.57	3159.72
441.75	3368.03
441.94	3414.84
442.12	3267.39
442.31	3412.50
442.50	3372.71
442.68	3295.47
442.87	3351.65
443.05	3485.06
443.24	3337.60
443.43	3538.89
443.61	3480.38
443.80	3506.12
443.98	3325.90
444.17	3384.41
444.35	3424.20
444.54	3515.48
444.73	3452.29
444.91	3487.40
445.10	3356.33
445.28	3426.54
445.47	3412.50
445.65	3555.27
445.84	3581.02
446.02	3641.87
446.21	3620.81
446.39	3571.66
446.58	3648.90
446.77	3679.32
446.95	3618.47
447.14	3543.57
447.32	3616.13
447.51	3637.19
447.69	3592.72
447.88	3527.19
448.06	3616.13
448.25	3552.93
448.43	3679.32
448.62	3550.59
448.80	3566.98
448.99	3801.03
449.17	3611.45
449.36	3616.13
449.54	3791.67
449.73	3686.34
449.91	3871.25
450.10	3798.69
450.28	3777.62
450.46	3758.90
450.65	3913.38
450.83	3730.81
451.02	3850.18
451.20	4002.32
451.39	3887.63
451.57	3974.23
451.76	3887.63
451.94	3822.09
452.13	3906.35
452.31	3873.59
452.49	3892.31
452.68	3850.18
452.86	3971.89
453.05	3988.27
453.23	4014.02
453.42	3978.91
453.60	3831.46
453.78	3904.01
453.97	3875.93
454.15	4091.26
454.34	4067.85
454.52	4170.83
454.70	4035.08
454.89	4126.36
455.07	4135.73
455.26	4224.67
455.44	4259.78
455.62	4266.80
455.81	4304.25
455.99	4285.52
456.17	4248.07
456.36	4259.78
456.54	4238.71
456.73	4435.32
456.91	4482.13
457.09	4386.16
457.28	4454.04
457.46	4322.97
457.64	4421.27
457.83	4531.28
458.01	4454.04
458.19	4545.32
458.38	4425.95
458.56	4482.13
458.74	4571.07
458.93	4526.60
459.11	4524.26
459.29	4559.36
459.48	4552.34
459.66	4589.79
459.84	4500.85
460.03	4585.11
460.21	4671.71
460.39	4554.68
460.57	4641.28
460.76	4711.50
460.94	4856.61
461.12	4877.68
461.31	4702.14
461.49	4596.81
461.67	4662.35
461.85	4891.72
462.04	4739.58
462.22	5013.43
462.40	4821.50
462.59	4894.06
462.77	4926.83
462.95	5004.07
463.13	4887.04
463.32	4805.12
463.50	4830.87
463.68	5020.45
463.86	5083.64
464.05	4718.52
464.23	4919.81
464.41	5008.75
464.59	4938.53
464.78	5062.58
464.96	5142.16
465.14	5034.49
465.32	5097.69
465.50	5146.84
465.69	5179.61
465.87	4971.30
466.05	5132.79
466.23	4915.12
466.41	5085.98
466.60	5282.59
466.78	5289.61
466.96	5268.55
467.14	5177.26
467.32	5146.84
467.51	5261.52
467.69	5172.58
467.87	5165.56
468.05	5219.39
468.23	5228.76
468.41	5355.15
468.60	5315.36
468.78	5406.64
468.96	5298.97
469.14	5289.61
469.32	5418.34
469.50	5219.39
469.69	5465.15
469.87	5540.05
470.05	5521.32
470.23	5605.58
470.41	5600.90
470.59	5535.37
470.77	5523.66
470.95	5467.49
471.14	5664.10
471.32	5617.29
471.50	5832.62
471.68	5736.65
471.86	5633.67
472.04	5682.82
472.22	5860.70
472.40	5881.77
472.58	5844.32
472.77	5839.64
472.95	5940.28
473.13	6279.66
473.31	6017.52
473.49	5970.71
473.67	6160.29
473.85	6094.76
474.03	5987.09
474.21	6054.97
474.39	6260.93
474.57	6249.23
474.75	6307.74
474.93	6225.82
475.12	6307.74
475.30	6314.77
475.48	6160.29
475.66	6438.81
475.84	6541.80
476.02	6527.75
476.20	6569.88
476.38	6541.80
476.56	6668.19
476.74	6670.53
476.92	6661.16
477.10	6703.29
477.28	6707.98
477.46	6857.77
477.64	6888.20
477.82	6986.50
478.00	7059.06
478.18	7232.26
478.36	7089.48
478.54	7344.60
478.72	7342.26
478.90	7108.21
479.08	7398.43
479.26	7302.47
479.44	7506.10
479.62	7382.05
479.80	7728.45
479.98	7606.74
480.16	7665.25
480.34	7793.98
480.52	7850.16
480.70	7929.74
480.88	7763.56
481.06	7932.08
481.24	7705.04
481.41	7969.52
481.59	8051.44
481.77	8409.54
481.95	8046.76
482.13	8395.50
482.31	8037.40
482.49	8479.76
482.67	8638.92
482.85	8585.08
483.03	8727.86
483.21	8664.66
483.39	9088.30
483.57	8489.12
483.74	8681.05
483.92	8968.93
484.10	8938.51
484.28	9191.28
484.46	9081.28
484.64	9329.38
484.82	9191.28
485.00	9261.50
485.18	9488.53
485.35	9638.33
485.53	9645.35
485.71	9776.42
485.89	9767.06
486.07	9778.76
486.25	9928.55
486.43	9963.66
486.61	9898.13
486.78	10036.22
486.96	10083.03
487.14	10125.16
487.32	10249.21
487.50	10452.83
487.68	10441.13
487.85	10558.16
488.03	10703.27
488.21	10761.78
488.39	11023.92
488.57	10815.62
488.75	10988.82
488.92	11009.88
489.10	11227.55
489.28	11199.46
489.46	11466.28
489.64	11398.41
489.81	11749.49
489.99	11527.14
490.17	11550.54
490.35	11510.75
490.53	11833.75
490.70	11903.96
490.88	11765.87
491.06	12201.21
491.24	12060.78
491.41	12065.46
491.59	12241.00
491.77	12184.83
491.95	12500.80
492.13	12456.33
492.30	12564.00
492.48	12622.51
492.66	12535.91
492.84	12585.06
493.01	12861.24
493.19	12865.92
493.37	13029.76
493.54	13256.79
493.72	13231.05
493.90	13118.70
494.08	13195.94
494.25	13528.30
494.43	13329.35
494.61	13586.81
494.79	13687.45
494.96	13715.54
495.14	13757.67
495.32	13823.20
495.49	13855.97
495.67	13853.63
495.85	14129.81
496.02	14291.31
496.20	14132.15
496.38	14246.84
496.55	14354.51
496.73	14686.86
496.91	14714.95
497.09	14785.16
497.26	14705.59
497.44	14757.08
497.62	14696.22
497.79	14817.93
497.97	14738.35
498.14	15129.22
498.32	15051.99
498.50	15115.18
498.67	15484.98
498.85	15204.12
499.03	15475.62
499.20	15337.53
499.38	15330.51
499.56	15602.01
499.73	15742.44
499.91	16020.97
500.08	15810.32
500.26	15669.89
500.44	15658.18
500.61	16046.71
500.79	16023.31
500.97	16025.65
501.14	16184.80
501.32	16327.58
501.49	16084.16
501.67	16077.14
501.84	16149.70
502.02	16535.88
502.20	16432.90
502.37	16599.08
502.55	16666.95
502.72	16872.92
502.90	16266.72
503.07	16711.42
503.25	16959.52
503.43	16851.86
503.60	16957.18
503.78	16929.09
503.95	17151.45
504.13	16849.52
504.30	17006.33
504.48	17193.58
504.65	17226.34
504.83	16882.28
505.01	17289.54
505.18	17371.46
505.36	17528.27
505.53	17551.68
505.71	17685.09
505.88	17731.90
506.06	17479.12
506.23	18033.83
506.41	17755.30
506.58	17724.88
506.76	17916.80
506.93	18066.60
507.11	17671.04
507.28	18228.09
507.46	17989.36
507.63	17937.87
507.81	18326.39
507.98	18008.08
508.16	18204.69
508.33	18106.38
508.50	18200.01
508.68	18445.76
508.85	18403.63
509.03	18410.65
509.20	18787.48
509.38	19033.24
509.55	19005.15
509.73	18960.68
509.90	18672.79
510.08	18743.01
510.25	18984.09
510.42	18993.45
510.60	19040.26
510.77	19281.33
510.95	19262.61
511.12	19000.47
511.30	19164.31
511.47	19056.64
511.64	19440.49
511.82	19667.52
511.99	19810.29
512.17	19461.55
512.34	19475.60
512.51	19295.38
512.69	19634.75
512.86	19733.06
513.04	19803.27
513.21	19866.47
513.38	19932.00
513.56	19932.00
513.73	19824.34
513.90	20018.60
514.08	20023.28
514.25	20058.39
514.43	20306.49
514.60	20376.70
514.77	20255.00
514.95	20482.03
515.12	20156.69
515.29	20063.07
515.47	20812.04
515.64	20453.94
515.81	20353.30
515.99	20727.78
516.16	20601.40
516.33	20893.96
516.51	20971.20
516.68	20542.88
516.85	20938.43
517.03	20786.30
517.20	21069.50
517.37	20685.65
517.54	21081.21
517.72	21181.85
517.89	21146.74
518.06	21130.36
518.24	21275.47
518.41	21420.58
518.58	21392.50
518.75	21249.72
518.93	21624.21
519.10	21631.23
519.27	21668.68
519.45	21326.96
519.62	21846.56
519.79	21752.94
519.96	21689.74
520.14	21935.50
520.31	21879.33
520.48	21994.01
520.65	21439.31
520.83	22010.40
521.00	22094.66
521.17	22033.80
521.34	22026.78
521.52	22324.03
521.69	22127.42
521.86	22277.22
522.03	22349.78
522.20	22522.98
522.38	22429.35
522.55	21982.31
522.72	22506.59
522.89	22490.21
523.07	22635.32
523.24	23021.51
523.41	22452.76
523.58	22427.01
523.75	22852.99
523.92	22764.05
524.10	22740.64
524.27	23061.30
524.44	22836.61
524.61	23094.07
524.78	23391.31
524.96	23063.64
525.13	23103.43
525.30	23124.49
525.47	23248.54
525.64	23185.35
525.81	23426.42
525.98	23140.88
526.16	23365.57
526.33	23108.11
526.50	23447.49
526.67	23534.09
526.84	23264.92
527.01	23515.36
527.18	23353.87
527.36	23798.57
527.53	23718.99
527.70	24049.00
527.87	24217.52
528.04	23770.48
528.21	23744.73
528.38	23805.59
528.55	23749.42
528.72	23754.10
528.89	23917.93
529.07	24231.57
529.24	23903.89
529.41	24261.99
529.58	23880.49
529.75	23880.49
529.92	24116.88
530.09	24161.35
530.26	24177.73
530.43	24203.48
530.60	24100.50
530.77	24407.11
530.94	24514.77
531.11	24240.93
531.28	24201.14
531.46	24685.63
531.63	24603.71
531.80	24437.53
531.97	24919.68
532.14	24800.32
532.31	24800.32
532.48	24404.77
532.65	24542.86
532.82	24800.32
532.99	24959.47
533.16	24624.78
533.33	25102.25
533.50	25284.81
533.67	25336.30
533.84	25156.08
534.01	24950.11
534.18	25013.31
534.35	25198.21
534.52	25284.81
534.69	25481.41
534.86	25287.15
535.03	25167.78
535.20	25181.82
535.37	25273.10
535.54	25366.73
535.71	24996.92
535.88	25399.49
536.05	25397.15
536.22	25799.73
536.38	25902.71
536.55	25558.65
536.72	25441.62
536.89	25586.74
537.06	25715.47
537.23	25715.47
537.40	25628.87
537.57	25692.06
537.74	25724.83
537.91	25907.39
538.08	26061.87
538.25	25972.92
538.42	25797.38
538.59	25902.71
538.75	25724.83
538.92	26012.71
539.09	26111.02
539.26	26066.55
539.43	26127.40
539.60	26122.72
539.77	26527.63
539.94	26333.37
540.11	26176.55
540.28	26256.13
540.44	26436.35
540.61	26518.27
540.78	26628.27
540.95	26679.77
541.12	26696.15
541.29	26335.71
541.46	26761.69
541.62	26394.22
541.79	26480.82
541.96	26096.97
542.13	26277.19
542.30	26813.18
542.47	26867.01
542.63	26766.37
542.80	26852.97
542.97	27122.13
543.14	27267.24
543.31	26897.44
543.48	27225.11
543.64	27131.49
543.81	27297.67
543.98	27351.50
544.15	27578.53
544.32	27065.96
544.48	27665.13
544.65	27370.22
544.82	27269.58
544.99	27187.66
545.16	27335.12
545.32	27267.24
545.49	27328.10
545.66	27585.55
545.83	27793.86
546.00	27491.93
546.16	27503.64
546.33	27557.47
546.50	27065.96
546.67	27573.85
546.83	27461.51
547.00	27447.46
547.17	27669.81
547.34	27653.43
547.50	27599.60
547.67	27812.59
547.84	27569.17
548.00	27917.91
548.17	28077.07
548.34	27817.27
548.51	28266.65
548.67	28254.95
548.84	27903.87
549.01	27630.02
549.18	27843.01
549.34	27840.67
549.51	27953.02
549.68	28119.20
549.84	28168.35
550.01	28388.36
550.18	28184.73
550.34	28240.90
550.51	28121.54
550.68	28261.97
550.84	28219.84
551.01	28292.40
551.18	28250.27
551.34	27906.21
551.51	27981.10
551.68	28290.06
551.84	28339.21
552.01	28617.73
552.18	28280.69
552.34	28210.48
552.51	28460.91
552.68	28517.09
552.84	28589.64
553.01	28730.08
553.18	28924.34
553.34	28573.26
553.51	28517.09
553.67	28910.30
553.84	28891.57
554.01	29270.74
554.17	29055.41
554.34	28989.88
554.51	28781.57
554.67	28987.53
554.84	28720.71
555.00	28966.47
555.17	28847.10
555.33	28912.64
555.50	29303.51
555.67	29120.95
555.83	28854.12
556.00	29057.75
556.16	29656.93
556.33	28914.98
556.50	29242.65
556.66	29172.44
556.83	28936.04
556.99	29738.85
557.16	29259.04
557.32	29429.90
557.49	29235.63
557.65	29193.50
557.82	29158.39
557.98	29125.63
558.15	29345.64
558.32	29495.43
558.48	29188.82
558.65	29373.72
558.81	29263.72
558.98	29497.77
559.14	29226.27
559.31	29443.94
559.47	29708.42
559.64	29118.60
559.80	29635.86
559.97	29624.16
560.13	29603.10
560.30	29879.28
560.46	29668.63
560.63	29654.59
560.79	29244.99
560.96	29788.00
561.12	29441.60
561.29	29486.07
561.45	29575.01
561.61	30038.44
561.78	29689.70
561.94	29806.72
562.11	29921.41
562.27	29720.12
562.44	29731.83
562.60	29795.02
562.77	29563.31
562.93	29397.13
563.10	30129.72
563.26	29919.07
563.42	30036.09
563.59	29865.24
563.75	30115.67
563.92	29741.19
564.08	29755.23
564.24	29958.86
564.41	29942.47
564.57	29797.36
564.74	29816.08
564.90	29965.88
565.07	30103.97
565.23	30340.36
565.39	29862.90
565.56	30096.95
565.72	29970.56
565.88	30192.91
566.05	29816.08
566.21	29919.07
566.38	30096.95
566.54	30249.08
566.70	30766.34
566.87	30239.72
567.03	30464.41
567.19	30249.08
567.36	30316.96
567.52	30321.64
567.68	30143.76
567.85	29883.96
568.01	30300.58
568.17	30195.25
568.34	30661.02
568.50	30373.13
568.66	30654.00
568.83	30258.45
568.99	30071.20
569.15	30621.23
569.32	30108.65
569.48	30099.29
569.64	29902.68
569.81	30164.82
569.97	30546.33
570.13	30356.75
570.30	30368.45
570.46	31040.18
570.62	30426.96
570.78	30176.53
570.95	30295.89
571.11	30520.59
571.27	29968.22
571.43	30417.60
571.60	30499.52
571.76	30815.49
571.92	30646.97
572.09	30632.93
572.25	30539.31
572.41	30593.14
572.57	30443.35
572.74	30555.69
572.90	30239.72
573.06	30824.86
573.22	30401.22
573.38	29993.97
573.55	30469.09
573.71	30710.17
573.87	31070.61
574.03	30223.34
574.20	30654.00
574.36	30375.47
574.52	30380.15
574.68	30354.41
574.84	30754.64
575.01	30417.60
575.17	30288.87
575.33	30483.14
575.49	30567.40
575.65	30595.48
575.82	30579.10
575.98	30195.25
576.14	31065.93
576.30	30501.86
576.46	30448.03
576.62	30740.60
576.79	30625.91
576.95	30792.09
577.11	30394.20
577.27	30551.01
577.43	30714.85
577.59	30527.61
577.75	30558.03
577.92	30417.60
578.08	30745.28
578.24	30614.21
578.40	30756.98
578.56	30558.03
578.72	30682.08
578.88	30944.22
579.04	30607.19
579.21	30689.10
579.37	31126.78
579.53	31145.51
579.69	30738.26
579.85	30707.83
580.01	30787.41
580.17	30394.20
580.33	30691.44
580.49	30923.16
580.65	30700.81
580.82	30909.11
580.98	30806.13
581.14	30913.80
581.30	31297.64
581.46	30745.28
581.62	30576.76
581.78	30497.18
581.94	30883.37
582.10	30417.60
582.26	30754.64
582.42	31087.00
582.58	30951.24
582.74	30639.95
582.90	30742.94
583.06	30703.15
583.22	30885.71
583.38	31374.88
583.54	30721.87
583.70	30525.27
583.86	30862.30
584.02	30969.97
584.18	30960.61
584.34	30808.47
584.50	31236.79
584.66	30836.56
584.82	30754.64
584.98	30808.47
585.14	30969.97
585.30	31122.10
585.46	30967.63
585.62	30986.35
585.78	30843.58
585.94	30632.93
586.10	31049.55
586.26	30888.05
586.42	31438.08
586.58	31047.21
586.74	31154.87
586.90	30792.09
587.06	30986.35
587.22	30831.88
587.38	30546.33
587.54	31199.34
587.70	31058.91
587.86	30890.39
588.02	31197.00
588.18	31094.02
588.34	30843.58
588.49	31164.23
588.65	31033.16
588.81	31002.74
588.97	30965.29
589.13	30890.39
589.29	30946.56
589.45	31171.25
589.61	31044.87
589.77	31597.23
589.93	31246.15
590.08	31517.65
590.24	31318.71
590.40	31353.82
590.56	31145.51
590.72	31129.12
590.88	31246.15
591.04	31075.29
591.20	31578.51
591.35	31311.69
591.51	31728.30
591.67	31461.48
591.83	31758.73
591.99	31299.98
