SpectraSuite Data File
++++++++++++++++++++++++++++++++++++
Date: Fri Oct 18 13:58:26 GMT-05:00 2013
User: bianchi
Dark Spectrum Present: No
Reference Spectrum Present: No
Number of Sampled Component Spectra: 1
Spectrometers: USB2+H05261
Integration Time (usec): 50000 (USB2+H05261)
Spectra Averaged: 1 (USB2+H05261)
Boxcar Smoothing: 0 (USB2+H05261)
Correct for Electrical Dark: No (USB2+H05261)
Strobe/Lamp Enabled: No (USB2+H05261)
Correct for Detector Non-linearity: No (USB2+H05261)
Correct for Stray Light: No (USB2+H05261)
Number of Pixels in Processed Spectrum: 2048
>>>>>Begin Processed Spectral Data<<<<<
365.73	14.04
365.92	14.04
366.12	14.04
366.32	0.00
366.52	0.00
366.72	0.00
366.91	0.00
367.11	0.00
367.31	0.00
367.51	0.00
367.70	0.00
367.90	0.00
368.10	0.00
368.30	0.00
368.49	0.00
368.69	0.00
368.89	0.00
369.09	0.00
369.28	0.00
369.48	0.00
369.68	0.00
369.87	0.00
370.07	0.00
370.27	0.00
370.47	0.00
370.66	84.26
370.86	119.37
371.06	91.28
371.25	21.06
371.45	39.79
371.65	135.75
371.84	145.11
372.04	145.11
372.24	163.84
372.44	189.58
372.63	126.39
372.83	212.99
373.03	210.65
373.22	147.45
373.42	177.88
373.62	250.44
373.81	196.60
374.01	215.33
374.21	191.92
374.40	231.71
374.60	191.92
374.79	229.37
374.99	224.69
375.19	191.92
375.38	238.73
375.58	259.80
375.78	250.44
375.97	262.14
376.17	327.68
376.37	269.16
376.56	241.08
376.76	355.76
376.95	315.97
377.15	250.44
377.35	308.95
377.54	220.01
377.74	297.25
377.93	217.67
378.13	189.58
378.33	315.97
378.52	325.33
378.72	245.76
378.91	348.74
379.11	238.73
379.31	278.52
379.50	257.46
379.70	337.04
379.89	252.78
380.09	327.68
380.28	353.42
380.48	292.57
380.68	276.18
380.87	311.29
381.07	346.40
381.26	381.51
381.46	292.57
381.65	346.40
381.85	341.72
382.04	358.10
382.24	287.89
382.43	341.72
382.63	327.68
382.83	327.68
383.02	341.72
383.22	318.31
383.41	360.44
383.61	418.96
383.80	414.27
384.00	353.42
384.19	318.31
384.39	346.40
384.58	320.65
384.78	308.95
384.97	362.78
385.17	355.76
385.36	360.44
385.56	383.85
385.75	414.27
385.95	327.68
386.14	400.23
386.34	433.00
386.53	334.70
386.72	344.06
386.92	407.25
387.11	458.74
387.31	416.62
387.50	351.08
387.70	449.38
387.89	463.43
388.09	435.34
388.28	409.59
388.48	433.00
388.67	393.21
388.86	355.76
389.06	367.46
389.25	503.22
389.45	463.43
389.64	423.64
389.84	423.64
390.03	449.38
390.22	435.34
390.42	421.30
390.61	451.72
390.81	533.64
391.00	456.40
391.19	528.96
391.39	557.05
391.58	500.87
391.78	514.92
391.97	475.13
392.16	594.50
392.36	510.24
392.55	510.24
392.75	531.30
392.94	449.38
393.13	505.56
393.33	521.94
393.52	416.62
393.71	566.41
393.91	566.41
394.10	545.34
394.29	629.60
394.49	552.37
394.68	543.00
394.88	535.98
395.07	655.35
395.26	545.34
395.46	627.26
395.65	552.37
395.84	688.12
396.04	732.59
396.23	706.84
396.42	641.31
396.62	683.44
396.81	676.41
397.00	620.24
397.19	660.03
397.39	723.23
397.58	671.73
397.77	758.33
397.97	678.76
398.16	683.44
398.35	781.74
398.55	718.54
398.74	660.03
398.93	723.23
399.12	704.50
399.32	662.37
399.51	634.29
399.70	765.36
399.90	744.29
400.09	781.74
400.28	695.14
400.47	779.40
400.67	716.20
400.86	751.31
401.05	732.59
401.24	767.70
401.44	765.36
401.63	854.30
401.82	791.10
402.01	741.95
402.21	755.99
402.40	763.01
402.59	798.12
402.78	802.80
402.97	828.55
403.17	880.04
403.36	931.53
403.55	889.40
403.74	861.32
403.93	837.91
404.13	915.15
404.32	947.92
404.51	873.02
404.70	924.51
404.89	844.93
405.09	1001.75
405.28	950.26
405.47	889.40
405.66	903.45
405.85	915.15
406.05	1022.81
406.24	943.24
406.43	978.34
406.62	973.66
406.81	1107.07
407.00	1053.24
407.20	912.81
407.39	1018.13
407.58	1008.77
407.77	1093.03
407.96	947.92
408.15	1041.54
408.34	971.32
408.54	1076.65
408.73	1048.56
408.92	1076.65
409.11	1111.75
409.30	1158.57
409.49	1102.39
409.68	1090.69
409.87	1114.10
410.07	1104.73
410.26	1193.67
410.45	1118.78
410.64	1177.29
410.83	1186.65
411.02	1203.04
411.21	1259.21
411.40	1259.21
411.59	1118.78
411.78	1266.23
411.98	1345.81
412.17	1366.87
412.36	1247.51
412.55	1301.34
412.74	1343.47
412.93	1268.57
413.12	1355.17
413.31	1469.86
413.50	1387.94
413.69	1397.30
413.88	1420.71
414.07	1423.05
414.26	1341.13
414.45	1378.58
414.64	1526.03
414.83	1490.92
415.02	1526.03
415.22	1535.39
415.41	1565.82
415.60	1540.07
415.79	1556.46
415.98	1521.35
416.17	1486.24
416.36	1636.03
416.55	1673.48
416.74	1549.43
416.93	1600.93
417.12	1589.22
417.31	1753.06
417.50	1661.78
417.69	1724.97
417.88	1713.27
418.07	1746.04
418.26	1776.47
418.45	1729.66
418.64	1781.15
418.83	1659.44
419.02	1722.63
419.21	1856.04
419.39	1771.79
419.58	1778.81
419.77	1743.70
419.96	1893.49
420.15	1788.17
420.34	1856.04
420.53	1842.00
420.72	1933.28
420.91	1849.02
421.10	1930.94
421.29	1963.71
421.48	1839.66
421.67	1858.39
421.86	1823.28
422.05	2019.88
422.24	1813.92
422.43	2050.31
422.61	2010.52
422.80	2043.29
422.99	2071.37
423.18	2069.03
423.37	2052.65
423.56	1895.83
423.75	1973.07
423.94	1949.67
424.13	1830.30
424.32	1811.57
424.50	1975.41
424.69	2050.31
424.88	2090.10
425.07	1966.05
425.26	1954.35
425.45	2003.50
425.64	2036.27
425.83	2073.71
426.01	2085.42
426.20	2099.46
426.39	2057.33
426.58	2033.93
426.77	2036.27
426.96	2129.89
427.15	2083.08
427.33	2045.63
427.52	2057.33
427.71	2087.76
427.90	2111.16
428.09	2188.40
428.28	2115.84
428.46	2174.36
428.65	2228.19
428.84	2202.44
429.03	2214.15
429.22	2160.31
429.40	2214.15
429.59	2202.44
429.78	2111.16
429.97	2139.25
430.16	2209.47
430.34	2307.77
430.53	2340.54
430.72	2162.66
430.91	2251.60
431.10	2239.89
431.28	2326.49
431.47	2445.86
431.66	2263.30
431.85	2347.56
432.03	2349.90
432.22	2483.31
432.41	2275.00
432.60	2469.27
432.79	2438.84
432.97	2443.52
433.16	2448.20
433.35	2354.58
433.54	2375.64
433.72	2497.35
433.91	2487.99
434.10	2513.74
434.28	2420.11
434.47	2539.48
434.66	2588.63
434.85	2562.89
435.03	2544.16
435.22	2553.52
435.41	2635.44
435.59	2504.37
435.78	2569.91
435.97	2541.82
436.16	2715.02
436.34	2607.36
436.53	2679.91
436.72	2672.89
436.90	2670.55
437.09	2597.99
437.28	2679.91
437.46	2803.96
437.65	2684.59
437.84	2771.19
438.02	2672.89
438.21	2745.45
438.40	2810.98
438.58	2864.82
438.77	2825.03
438.96	2715.02
439.14	2878.86
439.33	2897.58
439.52	2960.78
439.70	2928.01
439.89	2890.56
440.08	3138.66
440.26	2986.52
440.45	2895.24
440.63	3042.70
440.82	3126.96
441.01	3056.74
441.19	3166.74
441.38	3225.26
441.57	3225.26
441.75	3124.62
441.94	3433.57
442.12	3208.87
442.31	3229.94
442.50	3330.58
442.68	3363.35
442.87	3363.35
443.05	3222.92
443.24	3365.69
443.43	3328.24
443.61	3297.81
443.80	3400.80
443.98	3304.84
444.17	3185.47
444.35	3220.58
444.54	3520.17
444.73	3337.60
444.91	3412.50
445.10	3353.99
445.28	3424.20
445.47	3421.86
445.65	3440.59
445.84	3555.27
446.02	3417.18
446.21	3452.29
446.39	3478.04
446.58	3412.50
446.77	3611.45
446.95	3342.28
447.14	3424.20
447.32	3524.85
447.51	3332.92
447.69	3431.23
447.88	3494.42
448.06	3548.25
448.25	3529.53
448.43	3461.65
448.62	3412.50
448.80	3414.84
448.99	3541.23
449.17	3534.21
449.36	3510.80
449.54	3482.72
449.73	3637.19
449.91	3599.74
450.10	3686.34
450.28	3592.72
450.46	3728.47
450.65	3744.86
450.83	3581.02
451.02	3676.98
451.20	3808.05
451.39	3749.54
451.57	3737.84
451.76	3733.15
451.94	3775.28
452.13	3866.56
452.31	3908.69
452.49	3850.18
452.68	3880.61
452.86	3803.37
453.05	3974.23
453.23	3896.99
453.42	3889.97
453.60	3737.84
453.78	4042.11
453.97	3709.75
454.15	3819.75
454.34	4030.40
454.52	3962.53
454.70	3868.91
454.89	3911.04
455.07	4018.70
455.26	3990.61
455.44	4018.70
455.62	4109.98
455.81	4014.02
455.99	4114.66
456.17	3988.27
456.36	4152.11
456.54	4088.92
456.73	4156.79
456.91	4234.03
457.09	4210.62
457.28	4311.27
457.46	4201.26
457.64	4482.13
457.83	4259.78
458.01	4140.41
458.19	4362.76
458.38	4285.52
458.56	4482.13
458.74	4318.29
458.93	4369.78
459.11	4339.35
459.29	4311.27
459.48	4418.93
459.66	4451.70
459.84	4561.70
460.03	4652.98
460.21	4519.57
460.39	4414.25
460.57	4369.78
460.76	4533.62
460.94	4512.55
461.12	4608.51
461.31	4645.96
461.49	4638.94
461.67	4631.92
461.85	4802.78
462.04	4606.17
462.22	4718.52
462.40	4723.20
462.59	4709.16
462.77	4753.63
462.95	4723.20
463.13	4695.11
463.32	4723.20
463.50	4936.19
463.68	4697.46
463.86	4823.84
464.05	4870.65
464.23	4746.61
464.41	4821.50
464.59	4779.37
464.78	5015.77
464.96	4898.74
465.14	4718.52
465.32	4812.14
465.50	4938.53
465.69	4952.57
465.87	4938.53
466.05	4910.44
466.23	4971.30
466.41	5018.11
466.60	5163.22
466.78	5039.17
466.96	4901.08
467.14	4959.60
467.32	5109.39
467.51	5200.67
467.69	4961.94
467.87	5069.60
468.05	5097.69
468.23	5093.01
468.41	5151.52
468.60	5118.75
468.78	5305.99
468.96	5097.69
469.14	5100.03
469.32	5296.63
469.50	5186.63
469.69	5268.55
469.87	5263.86
470.05	5455.79
470.23	5390.25
470.41	5373.87
470.59	5385.57
470.77	5305.99
470.95	5500.26
471.14	5434.72
471.32	5453.45
471.50	5769.42
471.68	5556.43
471.86	5544.73
472.04	5526.00
472.22	5579.84
472.40	5495.58
472.58	5558.77
472.77	5715.59
472.95	5865.38
473.13	5858.36
473.31	5738.99
473.49	5867.72
473.67	5748.36
473.85	5951.98
474.03	5877.09
474.21	6003.47
474.39	6019.86
474.57	5970.71
474.75	6127.52
474.93	6054.97
475.12	6211.78
475.30	6246.89
475.48	6160.29
475.66	6139.23
475.84	6129.86
476.02	6258.59
476.20	6181.35
476.38	6331.15
476.56	6478.60
476.74	6354.55
476.92	6485.62
477.10	6464.56
477.28	6663.51
477.46	6579.25
477.64	6642.44
477.82	6572.22
478.00	6825.00
478.18	6967.77
478.36	6836.70
478.54	7098.84
478.72	6939.69
478.90	7098.84
479.08	7122.25
479.26	7054.37
479.44	7269.70
479.62	7279.07
479.80	7229.91
479.98	7276.73
480.16	7414.82
480.34	7506.10
480.52	7513.12
480.70	7606.74
480.88	7541.21
481.06	7585.68
481.24	7557.59
481.41	7613.76
481.59	7903.99
481.77	7927.39
481.95	8072.51
482.13	7983.57
482.31	8032.72
482.49	8175.49
482.67	8217.62
482.85	8250.39
483.03	8475.08
483.21	8301.88
483.39	8446.99
483.57	8402.52
483.74	8725.52
483.92	8608.49
484.10	8638.92
484.28	8830.84
484.46	8945.53
484.64	8933.82
484.82	8835.52
485.00	9149.15
485.18	9329.38
485.35	9277.88
485.53	9226.39
485.71	9167.88
485.89	9488.53
486.07	9413.63
486.25	9446.40
486.43	9619.60
486.61	9596.20
486.78	9809.19
486.96	9888.76
487.14	10045.58
487.32	9870.04
487.50	10078.35
487.68	10223.46
487.85	10232.82
488.03	10298.36
488.21	10443.47
488.39	10511.35
488.57	10654.12
488.75	10448.15
488.92	10733.70
489.10	10817.96
489.28	10860.09
489.46	10892.85
489.64	10885.83
489.81	11236.91
489.99	11171.38
490.17	11222.87
490.35	11377.34
490.53	11564.59
490.70	11414.79
490.88	11585.65
491.06	11669.91
491.24	11651.19
491.41	11679.27
491.59	11803.32
491.77	11843.11
491.95	11885.24
492.13	11868.86
492.30	12086.53
492.48	12159.08
492.66	12313.56
492.84	12311.22
493.01	12304.20
493.19	12489.10
493.37	12666.98
493.54	12655.28
493.72	12774.64
493.90	12929.12
494.08	12978.27
494.25	12896.35
494.43	12992.31
494.61	13167.85
494.79	13252.11
494.96	13212.32
495.14	13207.64
495.32	13327.01
495.49	13350.42
495.67	13549.36
495.85	13591.49
496.02	13886.40
496.20	13752.99
496.38	13481.49
496.55	13980.02
496.73	13975.34
496.91	14092.37
497.09	14010.45
497.26	14209.39
497.44	14120.45
497.62	14469.19
497.79	14532.39
497.97	14553.45
498.14	14672.82
498.32	14902.19
498.50	14590.90
498.67	15019.22
498.85	14724.31
499.03	14937.30
499.20	14888.15
499.38	14918.57
499.56	14918.57
499.73	14995.81
499.91	15232.21
500.08	15255.61
500.26	15112.84
500.44	15477.96
500.61	15309.44
500.79	15218.16
500.97	15555.20
501.14	15770.53
501.32	15693.29
501.49	15789.25
501.67	15644.14
501.84	15548.18
502.02	15878.19
502.20	16030.33
502.37	16035.01
502.55	16056.08
502.72	16088.84
502.90	15974.16
503.07	16341.62
503.25	15974.16
503.43	16084.16
503.60	16304.17
503.78	16477.37
503.95	16264.38
504.13	16388.43
504.30	16294.81
504.48	16140.33
504.65	16781.64
504.83	16641.21
505.01	17130.38
505.18	16985.27
505.36	17008.67
505.53	16791.00
505.71	16889.31
505.88	16879.94
506.06	16989.95
506.23	17032.08
506.41	17029.74
506.58	17228.68
506.76	17177.19
506.93	17362.09
507.11	17308.26
507.28	17268.47
507.46	17418.27
507.63	17490.82
507.81	17621.89
507.98	17504.87
508.16	17886.37
508.33	17441.67
508.50	17645.30
508.68	17783.39
508.85	18377.89
509.03	18087.66
509.20	18363.84
509.38	18485.55
509.55	18059.57
509.73	18258.52
509.90	18384.91
510.08	18391.93
510.25	18317.03
510.42	18251.50
510.60	18504.28
510.77	18492.57
510.95	18689.18
511.12	18464.49
511.30	18483.21
511.47	18614.28
511.64	18590.88
511.82	18808.54
511.99	18831.95
512.17	19122.18
512.34	19033.24
512.51	19002.81
512.69	18771.10
512.86	19044.94
513.04	19056.64
513.21	19119.84
513.38	19445.17
513.56	19262.61
513.73	19014.51
513.90	19580.92
514.08	19325.80
514.25	19616.03
514.43	19543.47
514.60	19384.32
514.77	19658.16
514.95	19646.46
515.12	19672.20
515.29	19580.92
515.47	19882.85
515.64	19798.59
515.81	19866.47
515.99	19985.83
516.16	20093.50
516.33	20226.91
516.51	20414.15
516.68	20135.63
516.85	20086.48
517.03	20013.92
517.20	20531.18
517.37	20149.67
517.54	20011.58
517.72	20540.54
517.89	20566.29
518.06	20194.14
518.24	20451.60
518.41	20215.21
518.58	20676.29
518.75	20615.44
518.93	20748.85
519.10	20842.47
519.27	20695.02
519.45	20702.04
519.62	20390.75
519.79	21018.01
519.96	21020.35
520.14	21202.91
520.31	21111.63
520.48	21174.83
520.65	20746.51
520.83	21198.23
521.00	21301.22
521.17	21319.94
521.34	21270.79
521.52	21603.14
521.69	21624.21
521.86	21525.91
522.03	21380.79
522.20	21593.78
522.38	21277.81
522.55	21820.81
522.72	21394.84
522.89	21514.20
523.07	22008.06
523.24	21818.47
523.41	22183.60
523.58	21745.92
523.75	21874.65
523.92	21914.44
524.10	21736.56
524.27	22045.51
524.44	22686.81
524.61	22331.05
524.78	22324.03
524.96	21958.91
525.13	21895.71
525.30	22242.11
525.47	22082.95
525.64	22686.81
525.81	22471.48
525.98	22616.60
526.16	22647.02
526.33	22630.64
526.50	22937.25
526.67	22520.63
526.84	22459.78
527.01	22363.82
527.18	22714.90
527.36	22951.29
527.53	22911.50
527.70	22911.50
527.87	22771.07
528.04	22923.21
528.21	22864.69
528.38	22663.41
528.55	23323.44
528.72	23288.33
528.89	23129.17
529.07	23026.19
529.24	23180.67
529.41	23260.24
529.58	23316.42
529.75	23192.37
529.92	23077.68
530.09	23328.12
530.26	23536.43
530.43	23473.23
530.60	23248.54
530.77	23690.90
530.94	23690.90
531.11	23410.04
531.28	23627.71
531.46	23515.36
531.63	23644.09
531.80	23484.94
531.97	23765.80
532.14	23908.57
532.31	23718.99
532.48	23838.36
532.65	23828.99
532.82	23838.36
532.99	23892.19
533.16	23747.08
533.33	24009.22
533.50	24100.50
533.67	24243.27
533.84	23983.47
534.01	24011.56
534.18	23814.95
534.35	24360.30
534.52	24442.21
534.69	24191.78
534.86	24503.07
535.03	24357.96
535.20	24388.38
535.37	24339.23
535.54	24760.53
535.71	24329.87
535.88	24596.69
536.05	24589.67
536.22	24755.85
536.38	24858.83
536.55	24779.25
536.72	24807.34
536.89	24538.18
537.06	24940.75
537.23	24905.64
537.40	24805.00
537.57	25006.28
537.74	24528.81
537.91	24854.15
538.08	24950.11
538.25	25017.99
538.42	24987.56
538.59	25041.39
538.75	24903.30
538.92	25078.84
539.09	25303.53
539.26	25156.08
539.43	25245.02
539.60	25596.10
539.77	25092.88
539.94	25516.52
540.11	25305.87
540.28	25479.07
540.44	25301.19
540.61	25324.60
540.78	25163.10
540.95	25598.44
541.12	25490.77
541.29	25186.50
541.46	25378.43
541.62	25312.89
541.79	25530.56
541.96	25383.11
542.13	25631.21
542.30	25582.06
542.47	25586.74
542.63	25926.11
542.80	26244.43
542.97	26010.37
543.14	26139.10
543.31	25914.41
543.48	26230.38
543.64	25766.96
543.81	26054.84
543.98	26288.90
544.15	26522.95
544.32	26352.09
544.48	26197.62
544.65	25905.05
544.82	26066.55
544.99	26235.06
545.16	26033.78
545.32	26129.74
545.49	26677.43
545.66	26581.46
545.83	26651.68
546.00	26724.24
546.16	26527.63
546.33	26188.25
546.50	25951.86
546.67	26363.79
546.83	26347.41
547.00	26698.49
547.17	26560.40
547.34	26597.85
547.50	26590.83
547.67	26986.38
547.84	26941.91
548.00	26717.22
548.17	26719.56
548.34	26768.71
548.51	26803.82
548.67	27180.64
548.84	27082.34
549.01	27042.55
549.18	27063.61
549.34	26768.71
549.51	26869.35
549.68	26977.01
549.84	27379.59
550.01	26974.67
550.18	27082.34
550.34	27213.41
550.51	27147.87
550.68	27367.88
550.84	26874.03
551.01	27402.99
551.18	27068.30
551.34	27021.48
551.51	27143.19
551.68	27351.50
551.84	27145.53
552.01	26824.88
552.18	27398.31
552.34	27028.51
552.51	27309.37
552.68	26927.86
552.84	27311.71
553.01	27990.47
553.18	27449.80
553.34	27707.26
553.51	27054.25
553.67	27564.49
553.84	27772.80
554.01	27758.75
554.17	27695.56
554.34	27538.74
554.51	27360.86
554.67	27892.16
554.84	27938.97
555.00	27740.03
555.17	27821.95
555.33	27931.95
555.50	27531.72
555.67	27814.93
555.83	27653.43
556.00	27864.08
556.16	28297.08
556.33	28011.53
556.50	28051.32
556.66	28107.49
556.83	28060.68
556.99	28191.75
557.16	28313.46
557.32	27878.12
557.49	28388.36
557.65	28041.96
557.82	27971.74
557.98	28030.26
558.15	28133.24
558.32	28184.73
558.48	28053.66
558.65	27903.87
558.81	28301.76
558.98	28369.63
559.14	28467.94
559.31	27910.89
559.47	28306.44
559.64	28418.78
559.80	28493.68
559.97	28589.64
560.13	28210.48
560.30	28451.55
560.46	28472.62
560.63	28144.94
560.79	28545.17
560.96	28151.96
561.12	28137.92
561.29	28280.69
561.45	28252.61
561.61	28617.73
561.78	28460.91
561.94	28577.94
562.11	28847.10
562.27	28645.82
562.44	28694.97
562.60	28655.18
562.77	28460.91
562.93	28467.94
563.10	28617.73
563.26	28573.26
563.42	28957.11
563.59	28526.45
563.75	28709.01
563.92	28591.98
564.08	28755.82
564.24	28772.21
564.41	28538.15
564.57	28627.09
564.74	28886.89
564.90	29149.03
565.07	28720.71
565.23	28844.76
565.39	28657.52
565.56	28683.27
565.72	28669.22
565.88	28182.39
566.05	28870.51
566.21	28919.66
566.38	28638.80
566.54	28624.75
566.70	29336.27
566.87	29191.16
567.03	29029.66
567.19	29392.45
567.36	29252.02
567.52	29067.11
567.68	29144.35
567.85	29050.73
568.01	28959.45
568.17	29106.90
568.34	29195.84
568.50	29109.24
568.66	28807.31
568.83	29158.39
568.99	29261.38
569.15	29034.35
569.32	28989.88
569.48	29034.35
569.64	28851.78
569.81	29186.48
569.97	28807.31
570.13	29230.95
570.30	29193.50
570.46	29256.70
570.62	29102.22
570.78	29062.43
570.95	28961.79
571.11	28746.46
571.27	28547.51
571.43	29013.28
571.60	29366.70
571.76	28893.91
571.92	29509.47
572.09	29228.61
572.25	29104.56
572.41	28943.06
572.57	29027.32
572.74	28975.83
572.90	29467.34
573.06	28903.28
573.22	29242.65
573.38	29036.69
573.55	29170.10
573.71	29666.29
573.87	29600.76
574.03	29385.43
574.20	29275.42
574.36	28870.51
574.52	29017.96
574.68	28945.41
574.84	29287.12
575.01	28952.43
575.17	29385.43
575.33	29532.88
575.49	28973.49
575.65	29331.59
575.82	29123.29
575.98	29137.33
576.14	29605.44
576.30	29507.13
576.46	29383.09
576.62	28964.13
576.79	29537.56
576.95	29146.69
577.11	28900.94
577.27	29448.62
577.43	29319.89
577.59	29233.29
577.75	29364.36
577.92	29467.34
578.08	29394.79
578.24	29083.50
578.40	29160.73
578.56	29226.27
578.72	29575.01
578.88	29593.73
579.04	29469.69
579.21	29003.92
579.37	29532.88
579.53	29575.01
579.69	29586.71
579.85	29347.98
580.01	29472.03
580.17	29198.18
580.33	28947.75
580.49	29703.74
580.65	29441.60
580.82	29474.37
580.98	29621.82
581.14	29715.44
581.30	29067.11
581.46	29312.87
581.62	29376.06
581.78	29212.23
581.94	29277.76
582.10	29350.32
582.26	29689.70
582.42	29336.27
582.58	29537.56
582.74	29490.75
582.90	29481.39
583.06	29549.26
583.22	29259.04
583.38	29516.50
583.54	29553.94
583.70	29598.41
583.86	29661.61
584.02	29387.77
584.18	29867.58
584.34	29315.21
584.50	29713.10
584.66	29706.08
584.82	29415.85
584.98	29277.76
585.14	29457.98
585.30	29551.60
585.46	29397.13
585.62	29380.74
585.78	29567.99
585.94	29326.91
586.10	29785.66
586.26	29542.24
586.42	29703.74
586.58	29830.13
586.74	29640.54
586.90	29413.51
587.06	29221.59
587.22	29785.66
587.38	29621.82
587.54	29689.70
587.70	29769.27
587.86	29722.46
588.02	30026.73
588.18	29972.90
588.34	30045.46
588.49	29703.74
588.65	29729.48
588.81	29792.68
588.97	29949.50
589.13	29483.73
589.29	30017.37
589.45	30085.25
589.61	30146.10
589.77	29790.34
589.93	30443.35
590.08	29989.28
590.24	30073.54
590.40	30115.67
590.56	30206.95
590.72	29916.73
590.88	29820.77
591.04	29551.60
591.20	29965.88
591.35	30335.68
591.51	30099.29
591.67	29851.19
591.83	30204.61
591.99	30141.42
