SpectraSuite Data File
++++++++++++++++++++++++++++++++++++
Date: Fri Oct 18 13:58:24 GMT-05:00 2013
User: bianchi
Dark Spectrum Present: No
Reference Spectrum Present: No
Number of Sampled Component Spectra: 1
Spectrometers: USB2+H05261
Integration Time (usec): 50000 (USB2+H05261)
Spectra Averaged: 1 (USB2+H05261)
Boxcar Smoothing: 0 (USB2+H05261)
Correct for Electrical Dark: No (USB2+H05261)
Strobe/Lamp Enabled: No (USB2+H05261)
Correct for Detector Non-linearity: No (USB2+H05261)
Correct for Stray Light: No (USB2+H05261)
Number of Pixels in Processed Spectrum: 2048
>>>>>Begin Processed Spectral Data<<<<<
365.73	0.00
365.92	0.00
366.12	0.00
366.32	0.00
366.52	0.00
366.72	0.00
366.91	0.00
367.11	0.00
367.31	0.00
367.51	0.00
367.70	0.00
367.90	0.00
368.10	0.00
368.30	0.00
368.49	0.00
368.69	0.00
368.89	0.00
369.09	0.00
369.28	0.00
369.48	0.00
369.68	0.00
369.87	0.00
370.07	0.00
370.27	0.00
370.47	21.06
370.66	112.35
370.86	107.66
371.06	126.39
371.25	135.75
371.45	93.62
371.65	105.32
371.84	88.94
372.04	98.30
372.24	128.73
372.44	182.56
372.63	217.67
372.83	208.31
373.03	187.24
373.22	166.18
373.42	259.80
373.62	201.29
373.81	189.58
374.01	154.48
374.21	252.78
374.40	210.65
374.60	229.37
374.79	278.52
374.99	229.37
375.19	241.08
375.38	271.50
375.58	252.78
375.78	238.73
375.97	250.44
376.17	346.40
376.37	182.56
376.56	201.29
376.76	290.23
376.95	276.18
377.15	248.10
377.35	320.65
377.54	285.55
377.74	234.05
377.93	301.93
378.13	337.04
378.33	327.68
378.52	238.73
378.72	283.20
378.91	304.27
379.11	234.05
379.31	269.16
379.50	292.57
379.70	255.12
379.89	341.72
380.09	229.37
380.28	215.33
380.48	346.40
380.68	276.18
380.87	334.70
381.07	294.91
381.26	313.63
381.46	372.15
381.65	369.80
381.85	372.15
382.04	341.72
382.24	327.68
382.43	320.65
382.63	332.36
382.83	283.20
383.02	318.31
383.22	435.34
383.41	369.80
383.61	334.70
383.80	341.72
384.00	348.74
384.19	355.76
384.39	416.62
384.58	400.23
384.78	355.76
384.97	369.80
385.17	346.40
385.36	386.19
385.56	388.53
385.75	404.91
385.95	360.44
386.14	397.89
386.34	386.19
386.53	381.51
386.72	463.43
386.92	423.64
387.11	423.64
387.31	472.79
387.50	400.23
387.70	416.62
387.89	437.68
388.09	428.32
388.28	475.13
388.48	454.06
388.67	447.04
388.86	404.91
389.06	517.26
389.25	465.77
389.45	418.96
389.64	449.38
389.84	437.68
390.03	543.00
390.22	447.04
390.42	528.96
390.61	395.55
390.81	477.47
391.00	580.45
391.19	416.62
391.39	575.77
391.58	482.15
391.78	531.30
391.97	592.16
392.16	503.22
392.36	535.98
392.55	575.77
392.75	535.98
392.94	533.64
393.13	519.60
393.33	592.16
393.52	521.94
393.71	610.88
393.91	573.43
394.10	479.81
394.29	585.13
394.49	641.31
394.68	608.54
394.88	638.97
395.07	648.33
395.26	638.97
395.46	603.86
395.65	589.82
395.84	620.24
396.04	634.29
396.23	620.24
396.42	613.22
396.62	688.12
396.81	601.52
397.00	624.92
397.19	678.76
397.39	631.94
397.58	725.57
397.77	641.31
397.97	645.99
398.16	777.06
398.35	734.93
398.55	674.07
398.74	664.71
398.93	720.88
399.12	758.33
399.32	748.97
399.51	716.20
399.70	748.97
399.90	709.18
400.09	723.23
400.28	706.84
400.47	767.70
400.67	788.76
400.86	800.46
401.05	734.93
401.24	814.51
401.44	884.72
401.63	723.23
401.82	823.87
402.01	697.48
402.21	896.43
402.40	798.12
402.59	866.00
402.78	767.70
402.97	866.00
403.17	833.23
403.36	971.32
403.55	938.55
403.74	821.53
403.93	964.30
404.13	950.26
404.32	898.77
404.51	992.39
404.70	929.19
404.89	994.73
405.09	954.94
405.28	931.53
405.47	959.62
405.66	1025.15
405.85	990.05
406.05	866.00
406.24	1053.24
406.43	931.53
406.62	1008.77
406.81	1212.40
407.00	912.81
407.20	983.02
407.39	1029.84
407.58	1074.31
407.77	1055.58
407.96	1193.67
408.15	1081.33
408.34	1088.35
408.54	1188.99
408.73	1144.52
408.92	1186.65
409.11	1151.54
409.30	1067.28
409.49	1153.88
409.68	1048.56
409.87	1146.86
410.07	1205.38
410.26	1128.14
410.45	1153.88
410.64	1170.27
410.83	1156.22
411.02	1256.87
411.21	1294.32
411.40	1177.29
411.59	1291.98
411.78	1254.53
411.98	1259.21
412.17	1341.13
412.36	1268.57
412.55	1299.00
412.74	1348.15
412.93	1371.55
413.12	1294.32
413.31	1308.36
413.50	1394.96
413.69	1420.71
413.88	1511.99
414.07	1390.28
414.26	1411.34
414.45	1465.18
414.64	1441.77
414.83	1586.88
415.02	1537.73
415.22	1535.39
415.41	1593.90
415.60	1551.78
415.79	1610.29
415.98	1636.03
416.17	1771.79
416.36	1643.06
416.55	1624.33
416.74	1692.21
416.93	1729.66
417.12	1739.02
417.31	1842.00
417.50	1708.59
417.69	1776.47
417.88	1696.89
418.07	1713.27
418.26	1687.53
418.45	1666.46
418.64	1877.11
418.83	1881.79
419.02	1825.62
419.21	1823.28
419.39	1799.87
419.58	1827.96
419.77	1877.11
419.96	1797.53
420.15	1895.83
420.34	1881.79
420.53	1898.17
420.72	1987.11
420.91	1926.26
421.10	1881.79
421.29	1930.94
421.48	1907.54
421.67	2015.20
421.86	1996.48
422.05	1923.92
422.24	1940.30
422.43	1849.02
422.61	1930.94
422.80	2076.06
422.99	2078.40
423.18	2078.40
423.37	2047.97
423.56	2052.65
423.75	1977.75
423.94	2024.56
424.13	1912.22
424.32	1942.64
424.50	2097.12
424.69	2052.65
424.88	2176.70
425.07	2024.56
425.26	2015.20
425.45	2054.99
425.64	2078.40
425.83	2101.80
426.01	2085.42
426.20	2155.63
426.39	2001.16
426.58	2057.33
426.77	2024.56
426.96	2139.25
427.15	2010.52
427.33	2071.37
427.52	2136.91
427.71	2106.48
427.90	2204.78
428.09	2167.34
428.28	2160.31
428.46	2162.66
428.65	2277.34
428.84	2275.00
429.03	2317.13
429.22	2207.13
429.40	2200.10
429.59	2335.85
429.78	2132.23
429.97	2097.12
430.16	2256.28
430.34	2335.85
430.53	2422.45
430.72	2373.30
430.91	2366.28
431.10	2335.85
431.28	2385.01
431.47	2396.71
431.66	2422.45
431.85	2520.76
432.03	2319.47
432.22	2499.69
432.41	2389.69
432.60	2450.54
432.79	2387.35
432.97	2471.61
433.16	2534.80
433.35	2497.35
433.54	2473.95
433.72	2553.52
433.91	2436.50
434.10	2567.57
434.28	2396.71
434.47	2605.02
434.66	2562.89
434.85	2640.12
435.03	2612.04
435.22	2541.82
435.41	2654.17
435.59	2597.99
435.78	2560.55
435.97	2684.59
436.16	2558.21
436.34	2733.75
436.53	2644.81
436.72	2696.30
436.90	2764.17
437.09	2672.89
437.28	2722.04
437.46	2722.04
437.65	2813.32
437.84	2754.81
438.02	2935.03
438.21	2841.41
438.40	2696.30
438.58	2785.24
438.77	2925.67
438.96	2906.95
439.14	3019.29
439.33	3023.97
439.52	2984.18
439.70	2977.16
439.89	3089.51
440.08	3047.38
440.26	3073.12
440.45	3045.04
440.63	3098.87
440.82	3225.26
441.01	3131.64
441.19	3262.71
441.38	3234.62
441.57	3068.44
441.75	3316.54
441.94	3253.34
442.12	3234.62
442.31	3141.00
442.50	3417.18
442.68	3424.20
442.87	3267.39
443.05	3290.79
443.24	3487.40
443.43	3318.88
443.61	3435.91
443.80	3503.78
443.98	3316.54
444.17	3328.24
444.35	3417.18
444.54	3595.06
444.73	3552.93
444.91	3494.42
445.10	3440.59
445.28	3492.08
445.47	3485.06
445.65	3513.14
445.84	3442.93
446.02	3492.08
446.21	3501.44
446.39	3431.23
446.58	3524.85
446.77	3597.40
446.95	3461.65
447.14	3496.76
447.32	3569.32
447.51	3508.46
447.69	3552.93
447.88	3529.53
448.06	3541.23
448.25	3459.31
448.43	3541.23
448.62	3473.36
448.80	3496.76
448.99	3632.51
449.17	3679.32
449.36	3513.14
449.54	3665.28
449.73	3716.77
449.91	3894.65
450.10	3824.44
450.28	3681.66
450.46	3726.13
450.65	3805.71
450.83	3770.60
451.02	3801.03
451.20	3824.44
451.39	3712.09
451.57	3934.44
451.76	3812.73
451.94	3791.67
452.13	3943.80
452.31	3761.24
452.49	3744.86
452.68	3899.33
452.86	3840.82
453.05	3920.40
453.23	4093.60
453.42	3896.99
453.60	3915.72
453.78	4117.00
453.97	3887.63
454.15	3815.07
454.34	3929.76
454.52	4107.64
454.70	3981.25
454.89	3995.29
455.07	4004.66
455.26	3978.91
455.44	4100.62
455.62	4079.55
455.81	4051.47
455.99	3999.98
456.17	4198.92
456.36	4215.30
456.54	4177.86
456.73	4154.45
456.91	4430.63
457.09	4273.82
457.28	4411.91
457.46	4383.82
457.64	4278.50
457.83	4505.53
458.01	4365.10
458.19	4337.01
458.38	4390.84
458.56	4575.75
458.74	4423.61
458.93	4437.66
459.11	4491.49
459.29	4489.15
459.48	4557.02
459.66	4479.79
459.84	4468.08
460.03	4650.64
460.21	4568.73
460.39	4550.00
460.57	4496.17
460.76	4699.80
460.94	4664.69
461.12	4678.73
461.31	4720.86
461.49	4512.55
461.67	4617.88
461.85	4870.65
462.04	4662.35
462.22	4645.96
462.40	4947.89
462.59	4856.61
462.77	4800.44
462.95	4732.56
463.13	4781.71
463.32	4718.52
463.50	4851.93
463.68	4798.10
463.86	4781.71
464.05	4826.18
464.23	4798.10
464.41	4931.51
464.59	4791.08
464.78	4954.91
464.96	4919.81
465.14	4945.55
465.32	4933.85
465.50	5109.39
465.69	5025.13
465.87	4964.28
466.05	4957.25
466.23	5090.67
466.41	5111.73
466.60	5207.69
466.78	5149.18
466.96	4985.34
467.14	5238.12
467.32	5254.50
467.51	5284.93
467.69	4999.38
467.87	5167.90
468.05	5242.80
468.23	5322.38
468.41	5181.95
468.60	5235.78
468.78	5327.06
468.96	5195.99
469.14	5376.21
469.32	5289.61
469.50	5203.01
469.69	5357.49
469.87	5373.87
470.05	5425.36
470.23	5521.32
470.41	5523.66
470.59	5561.11
470.77	5568.13
470.95	5359.83
471.14	5570.48
471.32	5502.60
471.50	5572.82
471.68	5558.77
471.86	5631.33
472.04	5614.95
472.22	5863.04
472.40	5699.20
472.58	5879.43
472.77	5797.51
472.95	5926.24
473.13	6003.47
473.31	5748.36
473.49	5750.70
473.67	5966.03
473.85	5980.07
474.03	6078.37
474.21	5956.66
474.39	6057.31
474.57	5834.96
474.75	6099.44
474.93	6136.88
475.12	6176.67
475.30	6272.64
475.48	6270.30
475.66	6230.51
475.84	6392.00
476.02	6497.33
476.20	6459.88
476.38	6436.47
476.56	6595.63
476.74	6272.64
476.92	6668.19
477.10	6497.33
477.28	6778.19
477.46	6731.38
477.64	6836.70
477.82	6761.81
478.00	6878.83
478.18	7080.12
478.36	6740.74
478.54	6885.86
478.72	7054.37
478.90	7190.13
479.08	7145.66
479.26	7316.51
479.44	7368.01
479.62	7379.71
479.80	7466.31
479.98	7606.74
480.16	7599.72
480.34	7599.72
480.52	7665.25
480.70	7716.75
480.88	7630.15
481.06	7695.68
481.24	7747.17
481.41	7737.81
481.59	8051.44
481.77	8285.50
481.95	7960.16
482.13	8161.45
482.31	8241.03
482.49	8210.60
482.67	8219.96
482.85	8430.61
483.03	8704.45
483.21	8542.96
483.39	8449.33
483.57	8489.12
483.74	8690.41
483.92	8952.55
484.10	8613.17
484.28	9041.49
484.46	9261.50
484.64	9366.82
484.82	9018.08
485.00	9268.52
485.18	9177.24
485.35	9415.98
485.53	9270.86
485.71	9565.77
485.89	9720.24
486.07	9703.86
486.25	9535.34
486.43	9738.97
486.61	9778.76
486.78	10078.35
486.96	9935.57
487.14	10148.56
487.32	10076.01
487.50	10389.64
487.68	10396.66
487.85	10635.39
488.03	10530.07
488.21	10752.42
488.39	10644.76
488.57	10691.57
488.75	10789.87
488.92	10883.49
489.10	10967.75
489.28	10855.40
489.46	11206.48
489.64	11201.80
489.81	11398.41
489.99	11206.48
490.17	11309.47
490.35	11510.75
490.53	11531.82
490.70	11545.86
490.88	11445.22
491.06	11903.96
491.24	11920.35
491.41	12023.33
491.59	12327.60
491.77	12168.45
491.95	12217.60
492.13	12294.83
492.30	12343.99
492.48	12271.43
492.66	12444.63
492.84	12500.80
493.01	12641.23
493.19	12774.64
493.37	12879.97
493.54	12776.98
493.72	12915.08
493.90	13048.49
494.08	13092.96
494.25	13387.86
494.43	13226.37
494.61	13525.96
494.79	13193.60
494.96	13490.85
495.14	13488.51
495.32	13467.44
495.49	13614.90
495.67	13685.11
495.85	13851.29
496.02	14033.85
496.20	14047.90
496.38	14153.22
496.55	14075.98
496.73	14441.11
496.91	14279.61
497.09	14263.22
497.26	14628.35
497.44	14525.36
497.62	14501.96
497.79	14579.20
497.97	14593.24
498.14	14871.76
498.32	15126.88
498.50	15082.41
498.67	15243.91
498.85	15194.76
499.03	15295.40
499.20	14888.15
499.38	14831.97
499.56	15482.64
499.73	15529.45
499.91	15531.80
500.08	15566.90
500.26	15536.48
500.44	15587.97
500.61	15501.37
500.79	15829.04
500.97	15555.20
501.14	16262.04
501.32	16074.80
501.49	15957.77
501.67	16018.63
501.84	15925.00
502.02	16035.01
502.20	16177.78
502.37	16123.95
502.55	16442.26
502.72	16329.92
502.90	16215.23
503.07	16170.76
503.25	16137.99
503.43	16355.66
503.60	16741.85
503.78	16631.85
503.95	16690.36
504.13	16697.38
504.30	16652.91
504.48	16849.52
504.65	16793.34
504.83	16968.88
505.01	17298.90
505.18	17266.13
505.36	17366.78
505.53	17083.57
505.71	17287.20
505.88	17315.28
506.06	17027.40
506.23	17427.63
506.41	17664.02
506.58	17603.17
506.76	17699.13
506.93	17717.86
507.11	17575.08
507.28	17518.91
507.46	17809.14
507.63	17900.42
507.81	17855.95
507.98	17769.35
508.16	17717.86
508.33	17834.88
508.50	18155.54
508.68	18202.35
508.85	18363.84
509.03	18242.14
509.20	18338.10
509.38	18349.80
509.55	18562.79
509.73	18658.75
509.90	18455.12
510.08	18508.96
510.25	18300.65
510.42	18735.99
510.60	18576.83
510.77	18881.10
510.95	19019.19
511.12	18838.97
511.30	18740.67
511.47	19073.03
511.64	18789.82
511.82	19391.34
511.99	19131.54
512.17	19063.66
512.34	19185.37
512.51	19424.11
512.69	19234.52
512.86	19325.80
513.04	19398.36
513.21	19510.71
513.38	19585.60
513.56	19726.04
513.73	19470.92
513.90	19398.36
514.08	19662.84
514.25	19777.53
514.43	19822.00
514.60	20046.69
514.77	19957.75
514.95	19903.92
515.12	19941.36
515.29	19836.04
515.47	19943.70
515.64	20556.93
515.81	20187.12
515.99	20374.36
516.16	20636.50
516.33	20341.60
516.51	20800.34
516.68	20645.87
516.85	20596.71
517.03	20615.44
517.20	20685.65
517.37	20865.88
517.54	20706.72
517.72	20713.74
517.89	20673.95
518.06	20706.72
518.24	20638.84
518.41	20922.05
518.58	21069.50
518.75	20758.21
518.93	21214.62
519.10	21109.29
519.27	21317.60
519.45	21036.74
519.62	21298.88
519.79	21312.92
519.96	21439.31
520.14	21577.40
520.31	21266.11
520.48	21497.82
520.65	21614.85
520.83	21605.49
521.00	21596.12
521.17	21532.93
521.34	21659.32
521.52	21605.49
521.69	21893.37
521.86	22022.10
522.03	21919.12
522.20	22251.47
522.38	21799.75
522.55	21984.65
522.72	22230.41
522.89	22148.49
523.07	22242.11
523.24	22340.41
523.41	21975.29
523.58	22202.32
523.75	22480.85
523.92	22239.77
524.10	22359.14
524.27	22401.27
524.44	22735.96
524.61	22663.41
524.78	22607.23
524.96	22815.54
525.13	22160.19
525.30	22455.10
525.47	22815.54
525.64	22700.86
525.81	22799.16
525.98	22668.09
526.16	22740.64
526.33	22710.22
526.50	22986.40
526.67	22862.35
526.84	23035.55
527.01	22799.16
527.18	23344.50
527.36	23271.95
527.53	23349.18
527.70	23386.63
527.87	23206.41
528.04	23363.23
528.21	23370.25
528.38	23403.02
528.55	23580.90
528.72	23475.57
528.89	23529.41
529.07	23543.45
529.24	23590.26
529.41	23578.56
529.58	23571.54
529.75	23477.91
529.92	23768.14
530.09	24053.69
530.26	23887.51
530.43	23800.91
530.60	23604.30
530.77	23824.31
530.94	23988.15
531.11	23644.09
531.28	23889.85
531.46	23697.92
531.63	24177.73
531.80	24159.01
531.97	24116.88
532.14	24343.91
532.31	24470.30
532.48	23929.64
532.65	24463.28
532.82	24121.56
532.99	24404.77
533.16	24142.63
533.33	24542.86
533.50	24453.92
533.67	24781.59
533.84	24301.78
534.01	24788.61
534.18	24250.29
534.35	25027.35
534.52	24496.05
534.69	24769.89
534.86	25015.65
535.03	24858.83
535.20	24884.58
535.37	24687.97
535.54	25200.55
535.71	24856.49
535.88	24884.58
536.05	25226.29
536.22	25247.36
536.38	25273.10
536.55	25282.47
536.72	25235.66
536.89	25153.74
537.06	25179.48
537.23	25336.30
537.40	25441.62
537.57	25212.25
537.74	25282.47
537.91	25376.09
538.08	25483.75
538.25	25277.79
538.42	25570.35
538.59	25572.69
538.75	25046.07
538.92	25408.86
539.09	25612.48
539.26	25537.59
539.43	25415.88
539.60	25951.86
539.77	25778.66
539.94	25708.44
540.11	26022.08
540.28	25792.70
540.44	25886.32
540.61	25750.57
540.78	25715.47
540.95	25607.80
541.12	25530.56
541.29	25893.35
541.46	26199.96
541.62	26263.15
541.79	25991.65
541.96	25596.10
542.13	25968.24
542.30	26218.68
542.47	26199.96
542.63	26494.86
542.80	26396.56
542.97	26527.63
543.14	26558.06
543.31	26490.18
543.48	26504.23
543.64	26742.96
543.81	26679.77
543.98	26789.77
544.15	26785.09
544.32	26909.14
544.48	26918.50
544.65	27009.78
544.82	26829.56
544.99	26981.70
545.16	26366.13
545.32	26918.50
545.49	26815.52
545.66	27049.57
545.83	27047.23
546.00	26951.27
546.16	26871.69
546.33	26728.92
546.50	26642.32
546.67	27208.73
546.83	26366.13
547.00	27070.64
547.17	27288.31
547.34	27194.68
547.50	27349.16
547.67	27260.22
547.84	27466.19
548.00	27213.41
548.17	27831.31
548.34	27484.91
548.51	27402.99
548.67	27669.81
548.84	27637.05
549.01	27402.99
549.18	27248.52
549.34	27424.06
549.51	27573.85
549.68	27302.35
549.84	27407.67
550.01	27679.18
550.18	27475.55
550.34	27843.01
550.51	27758.75
550.68	27700.24
550.84	27379.59
551.01	27875.78
551.18	27934.29
551.34	27601.94
551.51	27718.96
551.68	27807.90
551.84	27999.83
552.01	27981.10
552.18	27997.49
552.34	27592.58
552.51	28151.96
552.68	27667.47
552.84	28095.79
553.01	28079.41
553.18	28112.17
553.34	28348.57
553.51	28219.84
553.67	28208.14
553.84	28404.74
554.01	28196.43
554.17	28304.10
554.34	28332.18
554.51	27807.90
554.67	28198.77
554.84	28514.75
555.00	28376.66
555.17	28100.47
555.33	28556.88
555.50	28177.71
555.67	28528.79
555.83	28196.43
556.00	28753.48
556.16	28760.50
556.33	28369.63
556.50	28624.75
556.66	28465.60
556.83	28421.13
556.99	28479.64
557.16	28713.69
557.32	28980.51
557.49	28882.21
557.65	28603.69
557.82	28861.15
557.98	28713.69
558.15	28926.68
558.32	28959.45
558.48	28830.72
558.65	28685.61
558.81	28900.94
558.98	29036.69
559.14	28386.02
559.31	28697.31
559.47	28432.83
559.64	28526.45
559.80	28657.52
559.97	29181.80
560.13	28655.18
560.30	28861.15
560.46	29441.60
560.63	29125.63
560.79	29537.56
560.96	29134.99
561.12	29041.37
561.29	29095.20
561.45	29137.33
561.61	28940.72
561.78	29472.03
561.94	29567.99
562.11	29291.80
562.27	29284.78
562.44	28800.29
562.60	29390.11
562.77	28877.53
562.93	29305.85
563.10	29420.53
563.26	29329.25
563.42	29467.34
563.59	29352.66
563.75	29289.46
563.92	29364.36
564.08	29027.32
564.24	29277.76
564.41	29170.10
564.57	29577.35
564.74	29434.58
564.90	28833.06
565.07	29532.88
565.23	29502.45
565.39	29280.10
565.56	29383.09
565.72	29579.69
565.88	29457.98
566.05	29174.78
566.21	29387.77
566.38	29628.84
566.54	29205.20
566.70	29685.01
566.87	29628.84
567.03	29582.03
567.19	29869.92
567.36	29757.57
567.52	29404.15
567.68	29170.10
567.85	29345.64
568.01	29802.04
568.17	29600.76
568.34	29706.08
568.50	29893.32
568.66	29902.68
568.83	29912.05
568.99	29556.28
569.15	29607.78
569.32	29509.47
569.48	29748.21
569.64	29954.18
569.81	29579.69
569.97	29579.69
570.13	29654.59
570.30	29675.65
570.46	29806.72
570.62	29586.71
570.78	29373.72
570.95	29509.47
571.11	29844.17
571.27	29551.60
571.43	29509.47
571.60	29699.06
571.76	29497.77
571.92	29645.23
572.09	29741.19
572.25	29773.95
572.41	30031.41
572.57	29626.50
572.74	29907.37
572.90	29916.73
573.06	29813.74
573.22	29832.47
573.38	30052.48
573.55	29961.20
573.71	29984.60
573.87	30082.91
574.03	30150.78
574.20	30136.74
574.36	29933.11
574.52	29809.06
574.68	29809.06
574.84	29898.00
575.01	29837.15
575.17	30075.88
575.33	29963.54
575.49	29633.52
575.65	30293.55
575.82	30101.63
575.98	30143.76
576.14	30052.48
576.30	29895.66
576.46	30012.69
576.62	29916.73
576.79	30115.67
576.95	29731.83
577.11	29989.28
577.27	30113.33
577.43	29806.72
577.59	29993.97
577.75	29940.13
577.92	29846.51
578.08	29881.62
578.24	29825.45
578.40	29919.07
578.56	30522.93
578.72	29977.58
578.88	30511.22
579.04	30087.59
579.21	29834.81
579.37	30218.66
579.53	30141.42
579.69	29853.53
579.85	29778.64
580.01	30059.50
580.17	29783.32
580.33	29745.87
580.49	29890.98
580.65	29841.83
580.82	30068.86
580.98	29958.86
581.14	30052.48
581.30	30328.66
581.46	30270.15
581.62	30167.16
581.78	29841.83
581.94	30366.11
582.10	30024.39
582.26	30005.67
582.42	30003.33
582.58	30632.93
582.74	30230.36
582.90	30045.46
583.06	30061.84
583.22	30171.85
583.38	30244.40
583.54	30281.85
583.70	30017.37
583.86	29865.24
584.02	30073.54
584.18	30469.09
584.34	30127.38
584.50	30197.59
584.66	30139.08
584.82	29926.09
584.98	29795.02
585.14	29855.87
585.30	30569.74
585.46	30307.60
585.62	30295.89
585.78	30036.09
585.94	30422.28
586.10	30094.61
586.26	30199.93
586.42	30412.92
586.58	30675.06
586.74	30331.00
586.90	30286.53
587.06	30132.06
587.22	30267.81
587.38	30221.00
587.54	30174.19
587.70	30127.38
587.86	30338.02
588.02	30326.32
588.18	30668.04
588.34	30127.38
588.49	30178.87
588.65	30012.69
588.81	30326.32
588.97	30548.67
589.13	30279.51
589.29	30539.31
589.45	30150.78
589.61	30707.83
589.77	30539.31
589.93	30445.69
590.08	30572.08
590.24	30401.22
590.40	30583.78
590.56	30487.82
590.72	30291.21
590.88	30225.68
591.04	30328.66
591.20	30356.75
591.35	30838.90
591.51	31002.74
591.67	30728.89
591.83	30925.50
591.99	30679.74
