SpectraSuite Data File
++++++++++++++++++++++++++++++++++++
Date: Fri Oct 18 13:58:18 GMT-05:00 2013
User: bianchi
Dark Spectrum Present: No
Reference Spectrum Present: No
Number of Sampled Component Spectra: 1
Spectrometers: USB2+H05261
Integration Time (usec): 50000 (USB2+H05261)
Spectra Averaged: 1 (USB2+H05261)
Boxcar Smoothing: 0 (USB2+H05261)
Correct for Electrical Dark: No (USB2+H05261)
Strobe/Lamp Enabled: No (USB2+H05261)
Correct for Detector Non-linearity: No (USB2+H05261)
Correct for Stray Light: No (USB2+H05261)
Number of Pixels in Processed Spectrum: 2048
>>>>>Begin Processed Spectral Data<<<<<
365.73	0.00
365.92	0.00
366.12	0.00
366.32	0.00
366.52	0.00
366.72	0.00
366.91	0.00
367.11	0.00
367.31	0.00
367.51	0.00
367.70	0.00
367.90	0.00
368.10	0.00
368.30	0.00
368.49	0.00
368.69	0.00
368.89	0.00
369.09	0.00
369.28	0.00
369.48	0.00
369.68	0.00
369.87	0.00
370.07	0.00
370.27	0.00
370.47	0.00
370.66	100.64
370.86	18.72
371.06	187.24
371.25	91.28
371.45	180.22
371.65	147.45
371.84	196.60
372.04	142.77
372.24	196.60
372.44	133.41
372.63	156.82
372.83	135.75
373.03	168.52
373.22	238.73
373.42	149.79
373.62	238.73
373.81	168.52
374.01	154.48
374.21	262.14
374.40	198.95
374.60	322.99
374.79	250.44
374.99	212.99
375.19	252.78
375.38	222.35
375.58	231.71
375.78	273.84
375.97	252.78
376.17	301.93
376.37	259.80
376.56	241.08
376.76	236.39
376.95	278.52
377.15	320.65
377.35	189.58
377.54	205.97
377.74	231.71
377.93	290.23
378.13	248.10
378.33	278.52
378.52	241.08
378.72	276.18
378.91	325.33
379.11	259.80
379.31	308.95
379.50	205.97
379.70	278.52
379.89	318.31
380.09	353.42
380.28	301.93
380.48	318.31
380.68	276.18
380.87	301.93
381.07	308.95
381.26	278.52
381.46	423.64
381.65	376.83
381.85	339.38
382.04	266.82
382.24	264.48
382.43	287.89
382.63	332.36
382.83	322.99
383.02	308.95
383.22	388.53
383.41	355.76
383.61	325.33
383.80	421.30
384.00	292.57
384.19	369.80
384.39	292.57
384.58	346.40
384.78	358.10
384.97	409.59
385.17	383.85
385.36	393.21
385.56	411.93
385.75	435.34
385.95	409.59
386.14	437.68
386.34	390.87
386.53	526.62
386.72	390.87
386.92	409.59
387.11	486.83
387.31	458.74
387.50	360.44
387.70	416.62
387.89	346.40
388.09	458.74
388.28	351.08
388.48	444.70
388.67	547.69
388.86	477.47
389.06	475.13
389.25	472.79
389.45	458.74
389.64	543.00
389.84	400.23
390.03	493.85
390.22	472.79
390.42	543.00
390.61	430.66
390.81	458.74
391.00	521.94
391.19	578.11
391.39	477.47
391.58	510.24
391.78	489.17
391.97	580.45
392.16	573.43
392.36	585.13
392.55	517.26
392.75	524.28
392.94	547.69
393.13	507.90
393.33	545.34
393.52	554.71
393.71	517.26
393.91	533.64
394.10	557.05
394.29	641.31
394.49	517.26
394.68	587.47
394.88	552.37
395.07	564.07
395.26	596.84
395.46	620.24
395.65	615.56
395.84	578.11
396.04	662.37
396.23	617.90
396.42	662.37
396.62	599.18
396.81	653.01
397.00	627.26
397.19	627.26
397.39	718.54
397.58	674.07
397.77	573.43
397.97	594.50
398.16	748.97
398.35	770.04
398.55	683.44
398.74	765.36
398.93	706.84
399.12	751.31
399.32	648.33
399.51	671.73
399.70	739.61
399.90	725.57
400.09	732.59
400.28	702.16
400.47	851.96
400.67	795.78
400.86	847.27
401.05	807.48
401.24	718.54
401.44	863.66
401.63	830.89
401.82	734.93
402.01	819.19
402.21	835.57
402.40	800.46
402.59	833.23
402.78	706.84
402.97	823.87
403.17	798.12
403.36	924.51
403.55	772.38
403.74	964.30
403.93	849.61
404.13	910.47
404.32	908.13
404.51	926.85
404.70	908.13
404.89	947.92
405.09	999.41
405.28	985.37
405.47	1006.43
405.66	887.06
405.85	947.92
406.05	990.05
406.24	1020.47
406.43	983.02
406.62	1076.65
406.81	1076.65
407.00	1004.09
407.20	950.26
407.39	1027.50
407.58	1053.24
407.77	1015.79
407.96	1034.52
408.15	1137.50
408.34	1083.67
408.54	1020.47
408.73	1069.62
408.92	1090.69
409.11	1039.20
409.30	1144.52
409.49	1062.60
409.68	1111.75
409.87	1200.69
410.07	1177.29
410.26	1165.59
410.45	1179.63
410.64	1249.85
410.83	1198.35
411.02	1174.95
411.21	1247.51
411.40	1256.87
411.59	1181.97
411.78	1343.47
411.98	1254.53
412.17	1214.74
412.36	1387.94
412.55	1322.40
412.74	1324.74
412.93	1313.04
413.12	1315.38
413.31	1418.36
413.50	1350.49
413.69	1362.19
413.88	1462.83
414.07	1355.17
414.26	1467.52
414.45	1451.13
414.64	1430.07
414.83	1490.92
415.02	1488.58
415.22	1558.80
415.41	1547.09
415.60	1540.07
415.79	1568.16
415.98	1563.48
416.17	1547.09
416.36	1537.73
416.55	1591.56
416.74	1530.71
416.93	1675.82
417.12	1743.70
417.31	1664.12
417.50	1722.63
417.69	1760.08
417.88	1633.69
418.07	1710.93
418.26	1788.17
418.45	1671.14
418.64	1722.63
418.83	1762.42
419.02	1877.11
419.21	1783.49
419.39	1781.15
419.58	1874.77
419.77	1856.04
419.96	1874.77
420.15	1846.68
420.34	1790.51
420.53	1851.36
420.72	1991.80
420.91	1942.64
421.10	1935.62
421.29	1996.48
421.48	1909.88
421.67	1912.22
421.86	1874.77
422.05	1933.28
422.24	1935.62
422.43	1982.43
422.61	2026.90
422.80	2092.44
422.99	2008.18
423.18	1837.32
423.37	2069.03
423.56	2031.58
423.75	1947.33
423.94	1891.15
424.13	1923.92
424.32	1919.24
424.50	2003.50
424.69	2078.40
424.88	2080.74
425.07	2008.18
425.26	2064.35
425.45	1968.39
425.64	2029.24
425.83	2078.40
426.01	2104.14
426.20	2040.95
426.39	1996.48
426.58	1935.62
426.77	2153.29
426.96	2092.44
427.15	2106.48
427.33	2120.53
427.52	2087.76
427.71	2174.36
427.90	2190.74
428.09	2279.68
428.28	2150.95
428.46	2143.93
428.65	2223.51
428.84	2363.94
429.03	2260.96
429.22	2251.60
429.40	2211.81
429.59	2136.91
429.78	2242.23
429.97	2150.95
430.16	2317.13
430.34	2291.38
430.53	2382.67
430.72	2363.94
430.91	2312.45
431.10	2286.70
431.28	2394.37
431.47	2401.39
431.66	2300.75
431.85	2394.37
432.03	2464.58
432.22	2457.56
432.41	2401.39
432.60	2499.69
432.79	2441.18
432.97	2424.80
433.16	2473.95
433.35	2485.65
433.54	2516.08
433.72	2445.86
433.91	2429.48
434.10	2513.74
434.28	2380.32
434.47	2555.86
434.66	2616.72
434.85	2539.48
435.03	2530.12
435.22	2567.57
435.41	2736.09
435.59	2567.57
435.78	2745.45
435.97	2684.59
436.16	2537.14
436.34	2651.83
436.53	2637.78
436.72	2818.00
436.90	2600.34
437.09	2686.94
437.28	2644.81
437.46	2663.53
437.65	2787.58
437.84	2693.96
438.02	2750.13
438.21	2731.41
438.40	2703.32
438.58	2932.69
438.77	2928.01
438.96	2853.11
439.14	2850.77
439.33	2848.43
439.52	2918.65
439.70	2942.05
439.89	3040.36
440.08	2984.18
440.26	3082.49
440.45	2911.63
440.63	3019.29
440.82	3119.93
441.01	3150.36
441.19	3061.42
441.38	3197.17
441.57	3049.72
441.75	3258.03
441.94	3222.92
442.12	3183.13
442.31	3372.71
442.50	3213.56
442.68	3288.45
442.87	3332.92
443.05	3318.88
443.24	3379.73
443.43	3304.84
443.61	3496.76
443.80	3433.57
443.98	3368.03
444.17	3234.62
444.35	3428.88
444.54	3393.78
444.73	3445.27
444.91	3386.76
445.10	3459.31
445.28	3342.28
445.47	3358.67
445.65	3403.14
445.84	3414.84
446.02	3550.59
446.21	3435.91
446.39	3440.59
446.58	3524.85
446.77	3485.06
446.95	3365.69
447.14	3368.03
447.32	3684.00
447.51	3480.38
447.69	3503.78
447.88	3538.89
448.06	3590.38
448.25	3447.61
448.43	3459.31
448.62	3501.44
448.80	3400.80
448.99	3552.93
449.17	3639.53
449.36	3684.00
449.54	3592.72
449.73	3669.96
449.91	3716.77
450.10	3761.24
450.28	3789.33
450.46	3684.00
450.65	3798.69
450.83	3726.13
451.02	3604.42
451.20	3719.11
451.39	3801.03
451.57	3857.20
451.76	3700.39
451.94	3772.94
452.13	3840.82
452.31	3751.88
452.49	3744.86
452.68	3836.14
452.86	3901.67
453.05	3941.46
453.23	3896.99
453.42	3784.65
453.60	3861.88
453.78	3782.31
453.97	3784.65
454.15	3847.84
454.34	3810.39
454.52	4173.18
454.70	3929.76
454.89	4007.00
455.07	4140.41
455.26	3950.82
455.44	4107.64
455.62	3899.33
455.81	4044.45
455.99	4084.23
456.17	4142.75
456.36	4159.13
456.54	4210.62
456.73	4098.28
456.91	4255.09
457.09	4283.18
457.28	4346.37
457.46	4203.60
457.64	4358.08
457.83	4379.14
458.01	4222.33
458.19	4461.06
458.38	4318.29
458.56	4461.06
458.74	4411.91
458.93	4348.72
459.11	4447.02
459.29	4475.10
459.48	4444.68
459.66	4564.04
459.84	4498.51
460.03	4550.00
460.21	4468.08
460.39	4550.00
460.57	4461.06
460.76	4601.49
460.94	4566.39
461.12	4568.73
461.31	4533.62
461.49	4610.86
461.67	4461.06
461.85	4627.24
462.04	4631.92
462.22	4936.19
462.40	4674.05
462.59	4688.09
462.77	4643.62
462.95	4915.12
463.13	4620.22
463.32	4542.98
463.50	4795.76
463.68	4924.49
463.86	4844.91
464.05	4788.74
464.23	4777.03
464.41	4887.04
464.59	4697.46
464.78	4947.89
464.96	4755.97
465.14	4770.01
465.32	4938.53
465.50	4992.36
465.69	4891.72
465.87	4877.68
466.05	4966.62
466.23	4961.94
466.41	4978.32
466.60	5064.92
466.78	4952.57
466.96	4980.66
467.14	4978.32
467.32	5053.22
467.51	5334.08
467.69	4966.62
467.87	5018.11
468.05	5050.88
468.23	5081.30
468.41	5097.69
468.60	5195.99
468.78	5242.80
468.96	5315.36
469.14	5352.81
469.32	5345.78
469.50	5125.77
469.69	5184.29
469.87	5334.08
470.05	5357.49
470.23	5369.19
470.41	5327.06
470.59	5444.09
470.77	5383.23
470.95	5430.04
471.14	5561.11
471.32	5411.32
471.50	5598.56
471.68	5579.84
471.86	5600.90
472.04	5617.29
472.22	5755.38
472.40	5556.43
472.58	5703.89
472.77	5968.37
472.95	5942.62
473.13	5865.38
473.31	5607.92
473.49	5884.11
473.67	5935.60
473.85	5813.89
474.03	6005.81
474.21	5921.56
474.39	6099.44
474.57	5996.45
474.75	6263.27
474.93	6181.35
475.12	6148.59
475.30	6113.48
475.48	6200.08
475.66	6202.42
475.84	6134.54
476.02	6324.13
476.20	6373.28
476.38	6534.78
476.56	6370.94
476.74	6551.16
476.92	6504.35
477.10	6733.72
477.28	6642.44
477.46	6576.91
477.64	6509.03
477.82	6651.80
478.00	6923.30
478.18	6932.67
478.36	7000.54
478.54	6906.92
478.72	6899.90
478.90	7194.81
479.08	7171.40
479.26	7208.85
479.44	7225.23
479.62	7124.59
479.80	7372.69
479.98	7506.10
480.16	7513.12
480.34	7330.56
480.52	7454.61
480.70	7564.61
480.88	7517.80
481.06	7833.77
481.24	7772.92
481.41	7726.11
481.59	7683.98
481.77	7829.09
481.95	7906.33
482.13	8049.10
482.31	8142.72
482.49	8320.60
482.67	8341.67
482.85	8489.12
483.03	8601.47
483.21	8664.66
483.39	8451.67
483.57	8435.29
483.74	8568.70
483.92	8812.12
484.10	8606.15
484.28	8858.93
484.46	9034.47
484.64	8999.36
484.82	8872.97
485.00	9242.78
485.18	9088.30
485.35	9390.23
485.53	9210.01
485.71	9355.12
485.89	9675.77
486.07	9406.61
486.25	9451.08
486.43	9673.43
486.61	9591.52
486.78	9741.31
486.96	9832.59
487.14	10216.44
487.32	10015.15
487.50	10108.77
487.68	10127.50
487.85	10083.03
488.03	10382.62
488.21	10417.72
488.39	10574.54
488.57	10588.58
488.75	10679.86
488.92	10902.22
489.10	10967.75
489.28	10899.87
489.46	10813.28
489.64	10965.41
489.81	11346.92
489.99	11180.74
490.17	11293.08
490.35	11583.31
490.53	11384.37
490.70	11557.57
490.88	11527.14
491.06	11627.78
491.24	11686.29
491.41	11700.34
491.59	11646.51
491.77	11880.56
491.95	12058.44
492.13	12285.47
492.30	12109.93
492.48	12086.53
492.66	12116.95
492.84	12126.32
493.01	12556.97
493.19	12594.42
493.37	12615.49
493.54	12786.35
493.72	12549.95
493.90	12615.49
494.08	13074.23
494.25	12905.71
494.43	13242.75
494.61	13231.05
494.79	13317.65
494.96	13179.56
495.14	13387.86
495.32	13460.42
495.49	13385.52
495.67	13593.83
495.85	13628.94
496.02	13713.20
496.20	13776.39
496.38	13837.25
496.55	13884.06
496.73	14319.40
496.91	14167.26
497.09	14295.99
497.26	14464.51
497.44	14307.69
497.62	14249.18
497.79	14427.06
497.97	14466.85
498.14	14679.84
498.32	14520.68
498.50	14960.70
498.67	15066.03
498.85	14792.19
499.03	14883.47
499.20	14815.59
499.38	14857.72
499.56	15026.24
499.73	15084.75
499.91	15213.48
500.08	15213.48
500.26	15494.35
500.44	15185.40
500.61	15730.74
500.79	15396.04
500.97	15515.41
501.14	15702.65
501.32	15435.83
501.49	15438.17
501.67	15602.01
501.84	15850.11
502.02	15847.77
502.20	16161.40
502.37	16257.36
502.55	16107.57
502.72	16248.00
502.90	16257.36
503.07	15988.20
503.25	16365.03
503.43	16390.77
503.60	16170.76
503.78	16484.39
503.95	16395.45
504.13	16311.19
504.30	16613.12
504.48	16587.38
504.65	16521.84
504.83	16840.15
505.01	16882.28
505.18	16870.58
505.36	17088.25
505.53	16608.44
505.71	16730.15
505.88	17055.48
506.06	16849.52
506.23	17287.20
506.41	17420.61
506.58	17078.89
506.76	17458.06
506.93	17219.32
507.11	17294.22
507.28	17502.53
507.46	17593.81
507.63	17692.11
507.81	17834.88
507.98	17565.72
508.16	17851.27
508.33	17591.47
508.50	17687.43
508.68	18001.06
508.85	18080.64
509.03	17972.97
509.20	18267.88
509.38	18326.39
509.55	18118.09
509.73	18059.57
509.90	18401.29
510.08	18342.78
510.25	18281.92
510.42	18174.26
510.60	18625.98
510.77	18902.17
510.95	18857.70
511.12	18548.75
511.30	18611.94
511.47	18757.05
511.64	18590.88
511.82	18789.82
511.99	18759.39
512.17	18588.53
512.34	19030.90
512.51	19204.10
512.69	19239.20
512.86	18913.87
513.04	19271.97
513.21	19358.57
513.38	19513.05
513.56	19447.51
513.73	19545.81
513.90	19466.24
514.08	19454.53
514.25	19442.83
514.43	19611.35
514.60	19445.17
514.77	19761.14
514.95	19501.34
515.12	19927.32
515.29	19985.83
515.47	20051.37
515.64	19999.88
515.81	19971.79
515.99	20322.87
516.16	20135.63
516.33	20030.30
516.51	20240.95
516.68	20482.03
516.85	20271.38
517.03	20439.90
517.20	20350.96
517.37	20318.19
517.54	20664.59
517.72	20463.30
517.89	20336.91
518.06	20706.72
518.24	20428.20
518.41	20336.91
518.58	20753.53
518.75	20746.51
518.93	20730.12
519.10	20922.05
519.27	21039.08
519.45	20858.85
519.62	20776.94
519.79	20971.20
519.96	20947.79
520.14	21113.97
520.31	20908.01
520.48	21333.98
520.65	21214.62
520.83	21675.70
521.00	21495.48
521.17	20957.16
521.34	21448.67
521.52	21752.94
521.69	21376.11
521.86	21561.02
522.03	21785.71
522.20	21469.73
522.38	21638.25
522.55	21895.71
522.72	21832.52
522.89	22005.72
523.07	21942.52
523.24	21745.92
523.41	22061.89
523.58	21968.27
523.75	22263.18
523.92	22036.14
524.10	21879.33
524.27	21860.60
524.44	22401.27
524.61	22836.61
524.78	22548.72
524.96	22085.30
525.13	22405.95
525.30	22520.63
525.47	22438.72
525.64	22511.27
525.81	22518.29
525.98	22747.67
526.16	22541.70
526.33	22707.88
526.50	23007.47
526.67	22319.35
526.84	22604.89
527.01	22712.56
527.18	23145.56
527.36	23103.43
527.53	23000.44
527.70	23358.55
527.87	23091.73
528.04	23096.41
528.21	22932.57
528.38	22998.10
528.55	23501.32
528.72	23604.30
528.89	23262.58
529.07	23190.03
529.24	23501.32
529.41	23271.95
529.58	23503.66
529.75	23396.00
529.92	23594.94
530.09	23442.81
530.26	23594.94
530.43	23941.34
530.60	23353.87
530.77	23789.20
530.94	24198.80
531.11	23641.75
531.28	23562.17
531.46	23634.73
531.63	23733.03
531.80	23770.48
531.97	24116.88
532.14	23854.74
532.31	24114.54
532.48	23859.42
532.65	23828.99
532.82	24191.78
532.99	24149.65
533.16	24027.94
533.33	24159.01
533.50	24573.28
533.67	24332.21
533.84	24149.65
534.01	24283.06
534.18	24177.73
534.35	24189.44
534.52	24545.20
534.69	24664.57
534.86	24805.00
535.03	24182.42
535.20	24229.23
535.37	24676.27
535.54	24627.12
535.71	24430.51
535.88	24601.37
536.05	24781.59
536.22	24823.72
536.38	25092.88
536.55	24856.49
536.72	24922.02
536.89	24683.29
537.06	24636.48
537.23	24844.79
537.40	24826.06
537.57	25067.14
537.74	24950.11
537.91	24919.68
538.08	25057.78
538.25	24584.99
538.42	25092.88
538.59	25324.60
538.75	25088.20
538.92	25270.76
539.09	25198.21
539.26	25617.16
539.43	25214.59
539.60	25387.79
539.77	25481.41
539.94	25509.50
540.11	25458.01
540.28	25413.54
540.44	25261.40
540.61	25610.14
540.78	25462.69
540.95	25680.36
541.12	25675.68
541.29	25916.75
541.46	25582.06
541.62	25799.73
541.79	26078.25
541.96	25254.38
542.13	25528.22
542.30	25652.27
542.47	25989.31
542.63	25944.84
542.80	26424.65
542.97	26434.01
543.14	26209.32
543.31	26111.02
543.48	26251.45
543.64	26546.36
543.81	26668.06
543.98	26871.69
544.15	26394.22
544.32	26352.09
544.48	26602.53
544.65	26415.29
544.82	26628.27
544.99	26064.21
545.16	26314.64
545.32	26630.62
545.49	26834.24
545.66	26532.31
545.83	26703.17
546.00	26759.34
546.16	26658.70
546.33	26604.87
546.50	26546.36
546.67	26815.52
546.83	26677.43
547.00	26712.53
547.17	26766.37
547.34	26986.38
547.50	26958.29
547.67	27166.60
547.84	26864.67
548.00	26698.49
548.17	27094.04
548.34	26979.36
548.51	27520.02
548.67	27110.43
548.84	27161.92
549.01	27243.84
549.18	27426.40
549.34	27124.47
549.51	26972.33
549.68	27323.41
549.84	27206.39
550.01	27384.27
550.18	27363.20
550.34	27318.73
550.51	27718.96
550.68	27325.75
550.84	27175.96
551.01	27508.32
551.18	27473.21
551.34	27260.22
551.51	27122.13
551.68	27700.24
551.84	27566.83
552.01	27789.18
552.18	27634.71
552.34	27550.45
552.51	27639.39
552.68	27325.75
552.84	27786.84
553.01	27639.39
553.18	27637.05
553.34	27587.89
553.51	27744.71
553.67	27770.46
553.84	27857.06
554.01	27910.89
554.17	27828.97
554.34	28170.69
554.51	27620.66
554.67	27999.83
554.84	28257.29
555.00	28133.24
555.17	27960.04
555.33	27824.29
555.50	27953.02
555.67	27955.36
555.83	28343.89
556.00	28374.31
556.16	28271.33
556.33	27812.59
556.50	28182.39
556.66	28374.31
556.83	27920.25
556.99	28470.28
557.16	28634.11
557.32	28690.29
557.49	28336.87
557.65	28112.17
557.82	28580.28
557.98	28636.45
558.15	28386.02
558.32	28276.01
558.48	28533.47
558.65	28718.37
558.81	28671.56
558.98	28540.49
559.14	28292.40
559.31	28367.29
559.47	28414.10
559.64	28566.24
559.80	28701.99
559.97	28968.81
560.13	28505.38
560.30	28980.51
560.46	28641.14
560.63	28535.81
560.79	28947.75
560.96	28877.53
561.12	28421.13
561.29	28561.56
561.45	28566.24
561.61	28795.61
561.78	28650.50
561.94	28730.08
562.11	28837.74
562.27	29020.30
562.44	28868.17
562.60	29254.36
562.77	28954.77
562.93	29015.62
563.10	28912.64
563.26	28877.53
563.42	28851.78
563.59	29024.98
563.75	29191.16
563.92	29160.73
564.08	28643.48
564.24	28641.14
564.41	28968.81
564.57	29050.73
564.74	28692.63
564.90	29151.37
565.07	28954.77
565.23	29088.18
565.39	28835.40
565.56	29130.31
565.72	28830.72
565.88	28947.75
566.05	28910.30
566.21	28849.44
566.38	28842.42
566.54	29060.09
566.70	29429.90
566.87	29827.79
567.03	28966.47
567.19	29387.77
567.36	29640.54
567.52	29216.91
567.68	28907.96
567.85	29340.96
568.01	29039.03
568.17	29249.67
568.34	29244.99
568.50	29027.32
568.66	29298.83
568.83	29537.56
568.99	29221.59
569.15	29535.22
569.32	29130.31
569.48	29404.15
569.64	29359.68
569.81	29436.92
569.97	29551.60
570.13	29406.49
570.30	29640.54
570.46	29130.31
570.62	29668.63
570.78	29055.41
570.95	29123.29
571.11	29120.95
571.27	29254.36
571.43	29184.14
571.60	29369.04
571.76	29427.56
571.92	29387.77
572.09	29486.07
572.25	29579.69
572.41	29582.03
572.57	29347.98
572.74	29764.59
572.90	29301.17
573.06	29462.66
573.22	29717.78
573.38	29195.84
573.55	29563.31
573.71	30188.23
573.87	29652.25
574.03	29390.11
574.20	29771.61
574.36	29390.11
574.52	29511.81
574.68	29563.31
574.84	29422.87
575.01	29736.51
575.17	29460.32
575.33	29413.51
575.49	29240.31
575.65	29790.34
575.82	29689.70
575.98	29200.52
576.14	29993.97
576.30	29584.37
576.46	29525.86
576.62	29584.37
576.79	29809.06
576.95	29654.59
577.11	29631.18
577.27	29722.46
577.43	30136.74
577.59	29493.09
577.75	29530.54
577.92	29350.32
578.08	29359.68
578.24	29425.22
578.40	29687.36
578.56	29500.11
578.72	29795.02
578.88	30019.71
579.04	30085.25
579.21	29556.28
579.37	29921.41
579.53	29795.02
579.69	29785.66
579.85	29724.80
580.01	29764.59
580.17	29298.83
580.33	29558.63
580.49	29551.60
580.65	29750.55
580.82	29823.11
580.98	29614.80
581.14	29926.09
581.30	29926.09
581.46	30082.91
581.62	29893.32
581.78	29570.33
581.94	29790.34
582.10	29523.52
582.26	29497.77
582.42	29488.41
582.58	29986.94
582.74	29809.06
582.90	29448.62
583.06	29944.81
583.22	29717.78
583.38	29759.91
583.54	29677.99
583.70	29916.73
583.86	29930.77
584.02	29942.47
584.18	29986.94
584.34	30284.19
584.50	29837.15
584.66	29647.57
584.82	29291.80
584.98	29687.36
585.14	29549.26
585.30	29406.49
585.46	29696.72
585.62	29544.58
585.78	29694.38
585.94	29876.94
586.10	29757.57
586.26	29799.70
586.42	29371.38
586.58	29797.36
586.74	29720.12
586.90	29799.70
587.06	29542.24
587.22	29516.50
587.38	29788.00
587.54	29788.00
587.70	30185.89
587.86	30202.27
588.02	30265.47
588.18	30087.59
588.34	30127.38
588.49	29954.18
588.65	30286.53
588.81	29984.60
588.97	30366.11
589.13	29827.79
589.29	29879.28
589.45	30022.05
589.61	30305.26
589.77	30548.67
589.93	30141.42
590.08	30270.15
590.24	29947.15
590.40	30139.08
590.56	30359.09
590.72	29993.97
590.88	29949.50
591.04	30118.01
591.20	30078.22
591.35	30422.28
591.51	30448.03
591.67	30309.94
591.83	30366.11
591.99	30312.28
