SpectraSuite Data File
++++++++++++++++++++++++++++++++++++
Date: Fri Oct 18 13:58:15 GMT-05:00 2013
User: bianchi
Dark Spectrum Present: No
Reference Spectrum Present: No
Number of Sampled Component Spectra: 1
Spectrometers: USB2+H05261
Integration Time (usec): 50000 (USB2+H05261)
Spectra Averaged: 1 (USB2+H05261)
Boxcar Smoothing: 0 (USB2+H05261)
Correct for Electrical Dark: No (USB2+H05261)
Strobe/Lamp Enabled: No (USB2+H05261)
Correct for Detector Non-linearity: No (USB2+H05261)
Correct for Stray Light: No (USB2+H05261)
Number of Pixels in Processed Spectrum: 2048
>>>>>Begin Processed Spectral Data<<<<<
365.73	0.00
365.92	0.00
366.12	0.00
366.32	0.00
366.52	0.00
366.72	0.00
366.91	0.00
367.11	0.00
367.31	0.00
367.51	0.00
367.70	0.00
367.90	0.00
368.10	0.00
368.30	0.00
368.49	0.00
368.69	0.00
368.89	0.00
369.09	0.00
369.28	0.00
369.48	0.00
369.68	0.00
369.87	0.00
370.07	0.00
370.27	0.00
370.47	0.00
370.66	53.83
370.86	133.41
371.06	166.18
371.25	135.75
371.45	105.32
371.65	163.84
371.84	124.05
372.04	191.92
372.24	201.29
372.44	152.13
372.63	140.43
372.83	201.29
373.03	234.05
373.22	133.41
373.42	175.54
373.62	168.52
373.81	250.44
374.01	250.44
374.21	266.82
374.40	245.76
374.60	227.03
374.79	259.80
374.99	248.10
375.19	266.82
375.38	217.67
375.58	285.55
375.78	245.76
375.97	294.91
376.17	292.57
376.37	297.25
376.56	280.86
376.76	205.97
376.95	238.73
377.15	259.80
377.35	212.99
377.54	245.76
377.74	322.99
377.93	266.82
378.13	259.80
378.33	259.80
378.52	290.23
378.72	383.85
378.91	250.44
379.11	264.48
379.31	287.89
379.50	250.44
379.70	306.61
379.89	304.27
380.09	234.05
380.28	245.76
380.48	301.93
380.68	243.42
380.87	257.46
381.07	278.52
381.26	351.08
381.46	306.61
381.65	320.65
381.85	390.87
382.04	346.40
382.24	463.43
382.43	332.36
382.63	409.59
382.83	369.80
383.02	358.10
383.22	351.08
383.41	358.10
383.61	330.02
383.80	365.12
384.00	379.17
384.19	404.91
384.39	428.32
384.58	318.31
384.78	386.19
384.97	304.27
385.17	325.33
385.36	379.17
385.56	395.55
385.75	341.72
385.95	383.85
386.14	386.19
386.34	362.78
386.53	411.93
386.72	437.68
386.92	379.17
387.11	421.30
387.31	447.04
387.50	383.85
387.70	320.65
387.89	409.59
388.09	360.44
388.28	416.62
388.48	442.36
388.67	374.49
388.86	407.25
389.06	433.00
389.25	433.00
389.45	484.49
389.64	442.36
389.84	507.90
390.03	475.13
390.22	524.28
390.42	482.15
390.61	521.94
390.81	442.36
391.00	451.72
391.19	440.02
391.39	496.19
391.58	568.75
391.78	500.87
391.97	409.59
392.16	503.22
392.36	512.58
392.55	585.13
392.75	521.94
392.94	561.73
393.13	528.96
393.33	552.37
393.52	514.92
393.71	552.37
393.91	608.54
394.10	503.22
394.29	566.41
394.49	592.16
394.68	535.98
394.88	662.37
395.07	697.48
395.26	568.75
395.46	564.07
395.65	575.77
395.84	587.47
396.04	702.16
396.23	655.35
396.42	688.12
396.62	594.50
396.81	648.33
397.00	683.44
397.19	627.26
397.39	620.24
397.58	634.29
397.77	601.52
397.97	732.59
398.16	669.39
398.35	760.67
398.55	683.44
398.74	657.69
398.93	688.12
399.12	732.59
399.32	716.20
399.51	681.10
399.70	753.65
399.90	667.05
400.09	720.88
400.28	720.88
400.47	830.89
400.67	826.21
400.86	807.48
401.05	851.96
401.24	702.16
401.44	819.19
401.63	800.46
401.82	868.34
402.01	781.74
402.21	875.36
402.40	840.25
402.59	798.12
402.78	887.06
402.97	744.29
403.17	821.53
403.36	819.19
403.55	1025.15
403.74	933.87
403.93	873.02
404.13	933.87
404.32	896.43
404.51	870.68
404.70	870.68
404.89	961.96
405.09	943.24
405.28	919.83
405.47	903.45
405.66	922.17
405.85	1004.09
406.05	978.34
406.24	1029.84
406.43	894.08
406.62	994.73
406.81	1123.46
407.00	966.64
407.20	1022.81
407.39	957.28
407.58	943.24
407.77	1074.31
407.96	1086.01
408.15	1032.18
408.34	985.37
408.54	1029.84
408.73	1135.16
408.92	1135.16
409.11	1039.20
409.30	1043.88
409.49	1090.69
409.68	1088.35
409.87	1107.07
410.07	1259.21
410.26	1097.71
410.45	1198.35
410.64	1146.86
410.83	1287.29
411.02	1207.72
411.21	1315.38
411.40	1249.85
411.59	1289.64
411.78	1301.34
411.98	1233.46
412.17	1336.45
412.36	1270.91
412.55	1270.91
412.74	1308.36
412.93	1341.13
413.12	1310.70
413.31	1409.00
413.50	1359.85
413.69	1392.62
413.88	1369.21
414.07	1343.47
414.26	1406.66
414.45	1404.32
414.64	1453.47
414.83	1425.39
415.02	1523.69
415.22	1472.20
415.41	1535.39
415.60	1549.43
415.79	1549.43
415.98	1516.67
416.17	1535.39
416.36	1593.90
416.55	1584.54
416.74	1657.10
416.93	1715.61
417.12	1572.84
417.31	1685.19
417.50	1715.61
417.69	1710.93
417.88	1633.69
418.07	1689.87
418.26	1687.53
418.45	1849.02
418.64	1856.04
418.83	1769.44
419.02	1834.98
419.21	1724.97
419.39	1799.87
419.58	1856.04
419.77	1708.59
419.96	1809.23
420.15	1790.51
420.34	1755.40
420.53	1898.17
420.72	1947.33
420.91	1851.36
421.10	1959.03
421.29	1930.94
421.48	1905.20
421.67	1872.43
421.86	1933.28
422.05	1987.11
422.24	1923.92
422.43	1944.99
422.61	2010.52
422.80	2036.27
422.99	1956.69
423.18	1956.69
423.37	1940.30
423.56	1902.86
423.75	1954.35
423.94	2017.54
424.13	1872.43
424.32	1895.83
424.50	2047.97
424.69	1998.82
424.88	2019.88
425.07	2050.31
425.26	1989.46
425.45	2017.54
425.64	1977.75
425.83	2031.58
426.01	2139.25
426.20	2097.12
426.39	1987.11
426.58	2024.56
426.77	2057.33
426.96	2090.10
427.15	2104.14
427.33	2155.63
427.52	2045.63
427.71	2087.76
427.90	2136.91
428.09	2092.44
428.28	2165.00
428.46	2143.93
428.65	2223.51
428.84	2230.53
429.03	2235.21
429.22	2176.70
429.40	2218.83
429.59	2286.70
429.78	2092.44
429.97	2134.57
430.16	2211.81
430.34	2223.51
430.53	2370.96
430.72	2237.55
430.91	2270.32
431.10	2286.70
431.28	2347.56
431.47	2471.61
431.66	2354.58
431.85	2349.90
432.03	2455.22
432.22	2471.61
432.41	2408.41
432.60	2469.27
432.79	2406.07
432.97	2410.75
433.16	2424.80
433.35	2342.88
433.54	2403.73
433.72	2478.63
433.91	2574.59
434.10	2513.74
434.28	2436.50
434.47	2560.55
434.66	2457.56
434.85	2445.86
435.03	2600.34
435.22	2546.50
435.41	2607.36
435.59	2640.12
435.78	2621.40
435.97	2600.34
436.16	2537.14
436.34	2654.17
436.53	2633.10
436.72	2682.25
436.90	2619.06
437.09	2733.75
437.28	2602.68
437.46	2752.47
437.65	2717.36
437.84	2726.72
438.02	2834.39
438.21	2736.09
438.40	2754.81
438.58	2832.05
438.77	2796.94
438.96	2775.88
439.14	2953.76
439.33	2953.76
439.52	2843.75
439.70	3049.72
439.89	3021.63
440.08	2857.79
440.26	3070.78
440.45	2981.84
440.63	3166.74
440.82	3087.17
441.01	3023.97
441.19	3096.53
441.38	3148.02
441.57	3288.45
441.75	3150.36
441.94	3283.77
442.12	3183.13
442.31	3314.20
442.50	3162.06
442.68	3290.79
442.87	3194.83
443.05	3304.84
443.24	3358.67
443.43	3126.96
443.61	3332.92
443.80	3475.70
443.98	3410.16
444.17	3213.56
444.35	3431.23
444.54	3583.36
444.73	3309.52
444.91	3426.54
445.10	3449.95
445.28	3431.23
445.47	3293.13
445.65	3400.80
445.84	3536.55
446.02	3473.36
446.21	3433.57
446.39	3435.91
446.58	3487.40
446.77	3531.87
446.95	3358.67
447.14	3396.12
447.32	3396.12
447.51	3541.23
447.69	3417.18
447.88	3552.93
448.06	3510.80
448.25	3454.63
448.43	3414.84
448.62	3534.21
448.80	3674.64
448.99	3595.06
449.17	3503.78
449.36	3536.55
449.54	3744.86
449.73	3599.74
449.91	3588.04
450.10	3751.88
450.28	3698.05
450.46	3742.52
450.65	3695.71
450.83	3751.88
451.02	3768.26
451.20	3847.84
451.39	3875.93
451.57	3791.67
451.76	3679.32
451.94	3925.08
452.13	3939.12
452.31	3728.47
452.49	3716.77
452.68	3985.93
452.86	3838.48
453.05	3815.07
453.23	3756.56
453.42	3716.77
453.60	3866.56
453.78	3875.93
453.97	3911.04
454.15	3857.20
454.34	3875.93
454.52	3953.16
454.70	3840.82
454.89	3904.01
455.07	3981.25
455.26	3992.95
455.44	4133.39
455.62	4093.60
455.81	3985.93
455.99	4095.94
456.17	4135.73
456.36	4135.73
456.54	4170.83
456.73	4173.18
456.91	4280.84
457.09	4088.92
457.28	4451.70
457.46	4332.33
457.64	4339.35
457.83	4372.12
458.01	4276.16
458.19	4393.19
458.38	4236.37
458.56	4505.53
458.74	4332.33
458.93	4404.89
459.11	4315.95
459.29	4386.16
459.48	4477.44
459.66	4503.19
459.84	4404.89
460.03	4475.10
460.21	4475.10
460.39	4477.44
460.57	4538.30
460.76	4547.66
460.94	4631.92
461.12	4596.81
461.31	4531.28
461.49	4617.88
461.67	4423.61
461.85	4957.25
462.04	4805.12
462.22	4884.70
462.40	4634.26
462.59	4650.64
462.77	4826.18
462.95	4744.27
463.13	4760.65
463.32	4847.25
463.50	4837.89
463.68	4830.87
463.86	4795.76
464.05	4688.09
464.23	4779.37
464.41	4753.63
464.59	4891.72
464.78	4884.70
464.96	5018.11
465.14	4966.62
465.32	5097.69
465.50	4856.61
465.69	4905.76
465.87	4917.47
466.05	4943.21
466.23	4954.91
466.41	4966.62
466.60	5116.41
466.78	4971.30
466.96	4992.36
467.14	4994.70
467.32	5078.96
467.51	5170.24
467.69	4912.78
467.87	5165.56
468.05	5055.56
468.23	5001.72
468.41	5174.92
468.60	5151.52
468.78	5153.86
468.96	5043.85
469.14	5259.18
469.32	5261.52
469.50	5315.36
469.69	5334.08
469.87	5427.70
470.05	5458.13
470.23	5238.12
470.41	5259.18
470.59	5462.81
470.77	5280.25
470.95	5507.28
471.14	5476.85
471.32	5427.70
471.50	5537.71
471.68	5638.35
471.86	5633.67
472.04	5624.31
472.22	5692.18
472.40	5617.29
472.58	5746.02
472.77	5785.80
472.95	5731.97
473.13	5980.07
473.31	5689.84
473.49	5767.08
473.67	5762.40
473.85	5743.67
474.03	5837.30
474.21	5916.87
474.39	5902.83
474.57	6036.24
474.75	5914.53
474.93	6136.88
475.12	5937.94
475.30	6064.33
475.48	5959.00
475.66	6094.76
475.84	6274.98
476.02	6232.85
476.20	6230.51
476.38	6406.05
476.56	6520.73
476.74	6511.37
476.92	6532.44
477.10	6583.93
477.28	6663.51
477.46	6562.86
477.64	6548.82
477.82	6747.76
478.00	6715.00
478.18	6794.58
478.36	7199.49
478.54	6876.49
478.72	7105.87
478.90	6839.05
479.08	7155.02
479.26	7234.60
479.44	7190.13
479.62	7232.26
479.80	7316.51
479.98	7478.01
480.16	7660.57
480.34	7482.69
480.52	7674.62
480.70	7669.94
480.88	7492.05
481.06	7609.08
481.24	7709.72
481.41	7777.60
481.59	8032.72
481.77	7911.01
481.95	8009.31
482.13	8023.36
482.31	8126.34
482.49	8257.41
482.67	8238.69
482.85	8360.39
483.03	8393.16
483.21	8470.40
483.39	8418.91
483.57	8355.71
483.74	8596.79
483.92	8627.21
484.10	8554.66
484.28	8863.61
484.46	9008.72
484.64	9036.81
484.82	8917.44
485.00	9088.30
485.18	9263.84
485.35	9390.23
485.53	9479.17
485.71	9394.91
485.89	9511.94
486.07	9558.75
486.25	9516.62
486.43	9731.95
486.61	9745.99
486.78	9755.35
486.96	9657.05
487.14	10092.39
487.32	9872.38
487.50	10286.65
487.68	10155.58
487.85	10249.21
488.03	10431.77
488.21	10380.28
488.39	10637.73
488.57	10586.24
488.75	10937.32
488.92	10778.17
489.10	10876.47
489.28	10815.62
489.46	11117.54
489.64	10874.13
489.81	11056.69
489.99	11220.53
490.17	11339.90
490.35	11279.04
490.53	11433.52
490.70	11456.92
490.88	11414.79
491.06	11618.42
491.24	11606.72
491.41	11808.00
491.59	11648.85
491.77	11999.93
491.95	12107.59
492.13	12248.02
492.30	11969.50
492.48	12032.69
492.66	12025.67
492.84	12250.36
493.01	12306.54
493.19	12493.78
493.37	12634.21
493.54	12493.78
493.72	12657.62
493.90	12533.57
494.08	12718.47
494.25	12971.25
494.43	13153.81
494.61	13174.88
494.79	13151.47
494.96	13369.14
495.14	13322.33
495.32	13642.98
495.49	13528.30
495.67	13397.23
495.85	13600.85
496.02	13755.33
496.20	14022.15
496.38	13654.69
496.55	13701.50
496.73	14286.63
496.91	13980.02
497.09	13832.57
497.26	14225.78
497.44	14349.82
497.62	14310.04
497.79	14635.37
497.97	14618.99
498.14	14558.13
498.32	14640.05
498.50	14806.23
498.67	15171.35
498.85	14691.54
499.03	14696.22
499.20	15087.09
499.38	15049.64
499.56	14958.36
499.73	15206.46
499.91	14960.70
500.08	15218.16
500.26	15129.22
500.44	15243.91
500.61	15314.13
500.79	15300.08
500.97	15782.23
501.14	15723.72
501.32	15784.57
501.49	15363.28
501.67	15768.19
501.84	15749.46
502.02	15782.23
502.20	16105.23
502.37	16060.76
502.55	16091.18
502.72	16079.48
502.90	16154.38
503.07	15955.43
503.25	16397.79
503.43	16395.45
503.60	16428.22
503.78	16472.69
503.95	16507.80
504.13	16468.01
504.30	16655.25
504.48	16793.34
504.65	16706.74
504.83	16882.28
505.01	16737.17
505.18	16709.08
505.36	16999.31
505.53	16762.92
505.71	17036.76
505.88	17046.12
506.06	16835.47
506.23	17050.80
506.41	16978.25
506.58	17123.36
506.76	17474.44
506.93	17221.66
507.11	17118.68
507.28	17121.02
507.46	17514.23
507.63	17626.57
507.81	17642.96
507.98	17322.30
508.16	17530.61
508.33	17633.60
508.50	17923.82
508.68	17776.37
508.85	18312.35
509.03	18270.22
509.20	17965.95
509.38	18293.63
509.55	18118.09
509.73	18462.15
509.90	18190.64
510.08	18429.38
510.25	18394.27
510.42	18298.31
510.60	18492.57
510.77	18518.32
510.95	18663.43
511.12	18569.81
511.30	18443.42
511.47	18649.39
511.64	18913.87
511.82	18991.11
511.99	18644.71
512.17	19035.58
512.34	18981.74
512.51	18771.10
512.69	18932.59
512.86	19122.18
513.04	19517.73
513.21	19129.20
513.38	19513.05
513.56	19026.21
513.73	19213.46
513.90	19527.09
514.08	19157.28
514.25	19339.85
514.43	19623.05
514.60	19653.48
514.77	19850.08
514.95	20039.67
515.12	19702.63
515.29	19606.67
515.47	19714.33
515.64	20149.67
515.81	20046.69
515.99	20175.42
516.16	20257.34
516.33	20163.72
516.51	20423.51
516.68	20032.65
516.85	20063.07
517.03	20175.42
517.20	20194.14
517.37	20245.63
517.54	20058.39
517.72	20629.48
517.89	20666.93
518.06	20184.78
518.24	20634.16
518.41	20699.70
518.58	20563.95
518.75	20664.59
518.93	20725.44
519.10	20933.75
519.27	21034.39
519.45	20774.60
519.62	20849.49
519.79	20774.60
519.96	20870.56
520.14	21254.40
520.31	21018.01
520.48	21062.48
520.65	21032.05
520.83	21069.50
521.00	21373.77
521.17	21378.45
521.34	21399.52
521.52	21664.00
521.69	21413.56
521.86	21635.91
522.03	21809.11
522.20	21549.31
522.38	21516.54
522.55	21593.78
522.72	21624.21
522.89	21462.71
523.07	21912.10
523.24	21893.37
523.41	22242.11
523.58	21834.86
523.75	22185.94
523.92	21743.58
524.10	21879.33
524.27	22312.33
524.44	22174.24
524.61	22394.25
524.78	22298.28
524.96	22394.25
525.13	22445.74
525.30	22181.26
525.47	22293.60
525.64	22515.95
525.81	22843.63
525.98	22803.84
526.16	22693.83
526.33	22689.15
526.50	22778.09
526.67	22684.47
526.84	22878.74
527.01	22808.52
527.18	22618.94
527.36	22981.72
527.53	23323.44
527.70	23253.22
527.87	23187.69
528.04	22937.25
528.21	22881.08
528.38	23250.88
528.55	22937.25
528.72	23075.34
528.89	23232.16
529.07	23201.73
529.24	23482.59
529.41	23023.85
529.58	23288.33
529.75	22934.91
529.92	23388.97
530.09	23309.40
530.26	23449.83
530.43	23768.14
530.60	23419.40
530.77	23761.12
530.94	23489.62
531.11	23487.28
531.28	23962.40
531.46	23552.81
531.63	23611.32
531.80	23585.58
531.97	23901.55
532.14	24072.41
532.31	23733.03
532.48	24198.80
532.65	24137.94
532.82	23899.21
532.99	24226.89
533.16	23917.93
533.33	24376.68
533.50	24121.56
533.67	24166.03
533.84	24140.29
534.01	24102.84
534.18	24203.48
534.35	24191.78
534.52	23908.57
534.69	24381.36
534.86	24498.39
535.03	24411.79
535.20	24472.64
535.37	24652.86
535.54	24664.57
535.71	24570.94
535.88	24570.94
536.05	24592.01
536.22	24746.48
536.38	24732.44
536.55	24891.60
536.72	25053.09
536.89	24769.89
537.06	24910.32
537.23	25139.69
537.40	24833.08
537.57	24802.66
537.74	25230.98
537.91	25118.63
538.08	25120.97
538.25	24741.80
538.42	25188.85
538.59	25041.39
538.75	24875.21
538.92	25191.19
539.09	24978.20
539.26	25266.08
539.43	25642.91
539.60	25671.00
539.77	25413.54
539.94	25631.21
540.11	25055.43
540.28	25329.28
540.44	25387.79
540.61	25113.95
540.78	25415.88
540.95	25490.77
541.12	25577.37
541.29	25352.68
541.46	25483.75
541.62	25661.63
541.79	25586.74
541.96	25797.38
542.13	25570.35
542.30	25591.42
542.47	25715.47
542.63	25970.58
542.80	25930.80
542.97	25940.16
543.14	26338.05
543.31	25891.01
543.48	25858.24
543.64	26436.35
543.81	26174.21
543.98	26380.18
544.15	26370.82
544.32	26438.69
544.48	26359.11
544.65	26305.28
544.82	25984.63
544.99	26295.92
545.16	26403.58
545.32	26450.39
545.49	26583.80
545.66	26838.92
545.83	26794.45
546.00	27042.55
546.16	26752.32
546.33	26689.13
546.50	26279.54
546.67	26558.06
546.83	26597.85
547.00	26742.96
547.17	27012.12
547.34	26780.41
547.50	26696.15
547.67	27154.90
547.84	26656.36
548.00	27012.12
548.17	26874.03
548.34	27175.96
548.51	27129.15
548.67	27115.11
548.84	26876.37
549.01	27021.48
549.18	27145.53
549.34	27157.24
549.51	26897.44
549.68	27063.61
549.84	27096.38
550.01	27255.54
550.18	26941.91
550.34	27395.97
550.51	27686.20
550.68	27611.30
550.84	27229.79
551.01	27374.91
551.18	27108.08
551.34	27342.14
551.51	27166.60
551.68	27108.08
551.84	27669.81
552.01	27316.39
552.18	27545.76
552.34	27386.61
552.51	27658.11
552.68	27009.78
552.84	27793.86
553.01	27812.59
553.18	27508.32
553.34	27704.92
553.51	27611.30
553.67	28009.19
553.84	28128.56
554.01	27821.95
554.17	27826.63
554.34	27910.89
554.51	27875.78
554.67	28175.37
554.84	27800.88
555.00	27688.54
555.17	27962.38
555.33	28109.83
555.50	27730.67
555.67	28081.75
555.83	28074.73
556.00	28137.92
556.16	28072.39
556.33	27831.31
556.50	28170.69
556.66	27990.47
556.83	28180.05
556.99	27931.95
557.16	28538.15
557.32	28114.52
557.49	28493.68
557.65	28348.57
557.82	28781.57
557.98	28081.75
558.15	28400.06
558.32	28276.01
558.48	28093.45
558.65	28446.87
558.81	28315.80
558.98	28444.53
559.14	28517.09
559.31	28266.65
559.47	28472.62
559.64	28528.79
559.80	28697.31
559.97	28835.40
560.13	28545.17
560.30	28259.63
560.46	28479.64
560.63	28706.67
560.79	28095.79
560.96	28624.75
561.12	28336.87
561.29	28669.22
561.45	28755.82
561.61	28655.18
561.78	28779.23
561.94	28968.81
562.11	28917.32
562.27	28622.41
562.44	28552.20
562.60	28254.95
562.77	28540.49
562.93	28790.93
563.10	28577.94
563.26	28559.22
563.42	28767.52
563.59	28594.32
563.75	29046.05
563.92	28538.15
564.08	28793.27
564.24	29034.35
564.41	28514.75
564.57	29064.77
564.74	28961.79
564.90	28851.78
565.07	29188.82
565.23	29067.11
565.39	28802.63
565.56	29170.10
565.72	28739.44
565.88	29193.50
566.05	28484.32
566.21	29132.65
566.38	29221.59
566.54	28779.23
566.70	29371.38
566.87	29347.98
567.03	29343.30
567.19	29364.36
567.36	29462.66
567.52	29048.39
567.68	29401.81
567.85	29074.13
568.01	29289.46
568.17	29013.28
568.34	29062.43
568.50	29078.82
568.66	29139.67
568.83	29752.89
568.99	29259.04
569.15	29134.99
569.32	29029.66
569.48	28980.51
569.64	29502.45
569.81	28975.83
569.97	29165.42
570.13	29518.84
570.30	29364.36
570.46	29343.30
570.62	29338.62
570.78	29074.13
570.95	29043.71
571.11	29312.87
571.27	28950.09
571.43	28994.56
571.60	29483.73
571.76	29071.79
571.92	29050.73
572.09	29350.32
572.25	29029.66
572.41	29549.26
572.57	29362.02
572.74	29216.91
572.90	29116.26
573.06	29486.07
573.22	29380.74
573.38	29523.52
573.55	29209.89
573.71	29537.56
573.87	29804.38
574.03	29408.83
574.20	29722.46
574.36	29397.13
574.52	29729.48
574.68	29600.76
574.84	29177.12
575.01	29345.64
575.17	29715.44
575.33	29226.27
575.49	29252.02
575.65	29439.26
575.82	29509.47
575.98	29336.27
576.14	29809.06
576.30	29472.03
576.46	29343.30
576.62	29699.06
576.79	29659.27
576.95	29479.05
577.11	29465.00
577.27	29537.56
577.43	29759.91
577.59	29535.22
577.75	29139.67
577.92	29106.90
578.08	29687.36
578.24	29584.37
578.40	29776.30
578.56	29188.82
578.72	29670.97
578.88	29802.04
579.04	29219.25
579.21	29659.27
579.37	29816.08
579.53	29905.02
579.69	29366.70
579.85	29359.68
580.01	29638.20
580.17	29394.79
580.33	29788.00
580.49	29429.90
580.65	29666.29
580.82	29919.07
580.98	29855.87
581.14	29659.27
581.30	29748.21
581.46	29378.40
581.62	29521.18
581.78	29553.94
581.94	29514.16
582.10	29165.42
582.26	29472.03
582.42	29933.11
582.58	29900.34
582.74	29741.19
582.90	29659.27
583.06	29567.99
583.22	29598.41
583.38	29596.07
583.54	29656.93
583.70	29797.36
583.86	29453.30
584.02	29741.19
584.18	29748.21
584.34	29930.77
584.50	29979.92
584.66	29792.68
584.82	29567.99
584.98	29511.81
585.14	29841.83
585.30	29490.75
585.46	29401.81
585.62	30024.39
585.78	29734.17
585.94	29170.10
586.10	29998.65
586.26	29303.51
586.42	29743.53
586.58	29640.54
586.74	29596.07
586.90	29577.35
587.06	29666.29
587.22	29898.00
587.38	29816.08
587.54	30132.06
587.70	29832.47
587.86	29790.34
588.02	30185.89
588.18	30246.74
588.34	29823.11
588.49	30162.48
588.65	29745.87
588.81	30022.05
588.97	29949.50
589.13	30008.01
589.29	29947.15
589.45	30122.69
589.61	29778.64
589.77	30216.32
589.93	30155.46
590.08	30188.23
590.24	30300.58
590.40	30103.97
590.56	29977.58
590.72	29888.64
590.88	29687.36
591.04	30019.71
591.20	30183.55
591.35	29837.15
591.51	30249.08
591.67	30370.79
591.83	30232.70
591.99	30501.86
