SpectraSuite Data File
++++++++++++++++++++++++++++++++++++
Date: Fri Oct 18 13:58:36 GMT-05:00 2013
User: bianchi
Dark Spectrum Present: No
Reference Spectrum Present: No
Number of Sampled Component Spectra: 1
Spectrometers: USB2+H05261
Integration Time (usec): 50000 (USB2+H05261)
Spectra Averaged: 1 (USB2+H05261)
Boxcar Smoothing: 0 (USB2+H05261)
Correct for Electrical Dark: No (USB2+H05261)
Strobe/Lamp Enabled: No (USB2+H05261)
Correct for Detector Non-linearity: No (USB2+H05261)
Correct for Stray Light: No (USB2+H05261)
Number of Pixels in Processed Spectrum: 2048
>>>>>Begin Processed Spectral Data<<<<<
365.73	0.00
365.92	0.00
366.12	0.00
366.32	0.00
366.52	0.00
366.72	0.00
366.91	0.00
367.11	0.00
367.31	0.00
367.51	0.00
367.70	0.00
367.90	0.00
368.10	0.00
368.30	0.00
368.49	0.00
368.69	0.00
368.89	0.00
369.09	0.00
369.28	0.00
369.48	0.00
369.68	0.00
369.87	0.00
370.07	0.00
370.27	0.00
370.47	0.00
370.66	63.19
370.86	25.75
371.06	88.94
371.25	152.13
371.45	121.71
371.65	175.54
371.84	117.03
372.04	140.43
372.24	215.33
372.44	145.11
372.63	131.07
372.83	287.89
373.03	273.84
373.22	194.26
373.42	156.82
373.62	229.37
373.81	182.56
374.01	205.97
374.21	205.97
374.40	173.20
374.60	191.92
374.79	198.95
374.99	180.22
375.19	266.82
375.38	227.03
375.58	252.78
375.78	241.08
375.97	283.20
376.17	325.33
376.37	330.02
376.56	238.73
376.76	212.99
376.95	313.63
377.15	234.05
377.35	238.73
377.54	222.35
377.74	208.31
377.93	299.59
378.13	315.97
378.33	365.12
378.52	257.46
378.72	308.95
378.91	269.16
379.11	220.01
379.31	297.25
379.50	294.91
379.70	243.42
379.89	414.27
380.09	325.33
380.28	308.95
380.48	301.93
380.68	271.50
380.87	266.82
381.07	320.65
381.26	348.74
381.46	294.91
381.65	330.02
381.85	355.76
382.04	355.76
382.24	353.42
382.43	276.18
382.63	341.72
382.83	238.73
383.02	369.80
383.22	341.72
383.41	423.64
383.61	346.40
383.80	367.46
384.00	383.85
384.19	369.80
384.39	395.55
384.58	353.42
384.78	383.85
384.97	360.44
385.17	404.91
385.36	346.40
385.56	449.38
385.75	376.83
385.95	327.68
386.14	404.91
386.34	372.15
386.53	442.36
386.72	367.46
386.92	421.30
387.11	372.15
387.31	411.93
387.50	409.59
387.70	437.68
387.89	463.43
388.09	404.91
388.28	479.81
388.48	421.30
388.67	470.45
388.86	402.57
389.06	383.85
389.25	470.45
389.45	442.36
389.64	505.56
389.84	451.72
390.03	404.91
390.22	498.53
390.42	456.40
390.61	482.15
390.81	463.43
391.00	543.00
391.19	496.19
391.39	451.72
391.58	475.13
391.78	500.87
391.97	491.51
392.16	608.54
392.36	524.28
392.55	493.85
392.75	566.41
392.94	547.69
393.13	538.32
393.33	498.53
393.52	575.77
393.71	580.45
393.91	589.82
394.10	507.90
394.29	617.90
394.49	585.13
394.68	507.90
394.88	500.87
395.07	580.45
395.26	617.90
395.46	624.92
395.65	599.18
395.84	561.73
396.04	634.29
396.23	610.88
396.42	578.11
396.62	638.97
396.81	589.82
397.00	622.58
397.19	634.29
397.39	660.03
397.58	645.99
397.77	741.95
397.97	636.63
398.16	660.03
398.35	713.86
398.55	711.52
398.74	763.01
398.93	760.67
399.12	758.33
399.32	681.10
399.51	655.35
399.70	748.97
399.90	702.16
400.09	685.78
400.28	760.67
400.47	819.19
400.67	840.25
400.86	772.38
401.05	770.04
401.24	793.44
401.44	760.67
401.63	793.44
401.82	758.33
402.01	732.59
402.21	786.42
402.40	821.53
402.59	791.10
402.78	863.66
402.97	866.00
403.17	887.06
403.36	777.06
403.55	849.61
403.74	889.40
403.93	898.77
404.13	919.83
404.32	882.38
404.51	863.66
404.70	959.62
404.89	840.25
405.09	851.96
405.28	880.04
405.47	929.19
405.66	990.05
405.85	931.53
406.05	936.21
406.24	976.00
406.43	1039.20
406.62	1015.79
406.81	1086.01
407.00	1008.77
407.20	1046.22
407.39	959.62
407.58	1062.60
407.77	1144.52
407.96	1071.97
408.15	1053.24
408.34	1036.86
408.54	1053.24
408.73	1069.62
408.92	1123.46
409.11	1156.22
409.30	1123.46
409.49	1083.67
409.68	1118.78
409.87	1196.01
410.07	1188.99
410.26	1158.57
410.45	1210.06
410.64	1263.89
410.83	1111.75
411.02	1238.14
411.21	1174.95
411.40	1261.55
411.59	1322.40
411.78	1263.89
411.98	1207.72
412.17	1303.68
412.36	1261.55
412.55	1324.74
412.74	1287.29
412.93	1310.70
413.12	1380.92
413.31	1455.81
413.50	1399.64
413.69	1390.28
413.88	1474.54
414.07	1444.11
414.26	1462.83
414.45	1399.64
414.64	1380.92
414.83	1481.56
415.02	1554.12
415.22	1528.37
415.41	1598.59
415.60	1537.73
415.79	1526.03
415.98	1493.26
416.17	1575.18
416.36	1659.44
416.55	1664.12
416.74	1717.95
416.93	1570.50
417.12	1596.25
417.31	1643.06
417.50	1673.48
417.69	1748.38
417.88	1739.02
418.07	1785.83
418.26	1668.80
418.45	1785.83
418.64	1839.66
418.83	1909.88
419.02	1816.26
419.21	1776.47
419.39	1802.21
419.58	1724.97
419.77	1781.15
419.96	1912.22
420.15	1834.98
420.34	1743.70
420.53	1902.86
420.72	1907.54
420.91	1907.54
421.10	1912.22
421.29	1977.75
421.48	1914.56
421.67	1884.13
421.86	1825.62
422.05	1949.67
422.24	1839.66
422.43	1851.36
422.61	1928.60
422.80	2026.90
422.99	2069.03
423.18	2050.31
423.37	2054.99
423.56	2057.33
423.75	1919.24
423.94	1916.90
424.13	1762.42
424.32	1930.94
424.50	2026.90
424.69	1970.73
424.88	2165.00
425.07	2106.48
425.26	2005.84
425.45	1907.54
425.64	1980.09
425.83	2073.71
426.01	2019.88
426.20	1909.88
426.39	2038.61
426.58	2073.71
426.77	2033.93
426.96	2157.97
427.15	2033.93
427.33	2122.87
427.52	2120.53
427.71	2167.34
427.90	2200.10
428.09	2106.48
428.28	2122.87
428.46	2216.49
428.65	2188.40
428.84	2207.13
429.03	2260.96
429.22	2209.47
429.40	2237.55
429.59	2282.02
429.78	2092.44
429.97	2101.80
430.16	2080.74
430.34	2223.51
430.53	2305.43
430.72	2324.15
430.91	2235.21
431.10	2235.21
431.28	2321.81
431.47	2296.07
431.66	2366.28
431.85	2282.02
432.03	2427.14
432.22	2431.82
432.41	2417.77
432.60	2532.46
432.79	2534.80
432.97	2347.56
433.16	2452.88
433.35	2487.99
433.54	2487.99
433.72	2471.61
433.91	2513.74
434.10	2490.33
434.28	2490.33
434.47	2499.69
434.66	2469.27
434.85	2548.84
435.03	2583.95
435.22	2588.63
435.41	2696.30
435.59	2689.28
435.78	2698.64
435.97	2682.25
436.16	2626.08
436.34	2708.00
436.53	2654.17
436.72	2717.36
436.90	2647.15
437.09	2698.64
437.28	2630.76
437.46	2677.57
437.65	2803.96
437.84	2764.17
438.02	2757.15
438.21	2808.64
438.40	2621.40
438.58	2710.34
438.77	2839.07
438.96	2773.53
439.14	2848.43
439.33	2979.50
439.52	2974.82
439.70	2977.16
439.89	2991.20
440.08	2963.12
440.26	2998.23
440.45	2970.14
440.63	2930.35
440.82	3105.89
441.01	3138.66
441.19	3045.04
441.38	3166.74
441.57	3148.02
441.75	3185.47
441.94	3325.90
442.12	3204.19
442.31	3243.98
442.50	3251.00
442.68	3286.11
442.87	3248.66
443.05	3330.58
443.24	3398.46
443.43	3431.23
443.61	3426.54
443.80	3466.33
443.98	3255.69
444.17	3236.96
444.35	3295.47
444.54	3393.78
444.73	3346.97
444.91	3454.63
445.10	3431.23
445.28	3300.16
445.47	3375.05
445.65	3295.47
445.84	3417.18
446.02	3384.41
446.21	3349.31
446.39	3346.97
446.58	3545.91
446.77	3576.34
446.95	3389.10
447.14	3508.46
447.32	3339.94
447.51	3447.61
447.69	3288.45
447.88	3541.23
448.06	3403.14
448.25	3506.12
448.43	3552.93
448.62	3499.10
448.80	3550.59
448.99	3489.74
449.17	3646.55
449.36	3557.61
449.54	3559.95
449.73	3606.77
449.91	3714.43
450.10	3545.91
450.28	3749.54
450.46	3709.75
450.65	3660.60
450.83	3702.73
451.02	3730.81
451.20	3854.86
451.39	3695.71
451.57	3740.18
451.76	3655.92
451.94	3695.71
452.13	3826.78
452.31	3693.37
452.49	3772.94
452.68	3756.56
452.86	3812.73
453.05	3861.88
453.23	3854.86
453.42	3808.05
453.60	3906.35
453.78	3932.10
453.97	3857.20
454.15	3889.97
454.34	3871.25
454.52	3894.65
454.70	4009.34
454.89	4135.73
455.07	3866.56
455.26	4021.04
455.44	4149.77
455.62	4070.19
455.81	4042.11
455.99	4105.30
456.17	4105.30
456.36	4133.39
456.54	4086.58
456.73	4304.25
456.91	4091.26
457.09	4273.82
457.28	4397.87
457.46	4238.71
457.64	4285.52
457.83	4353.40
458.01	4147.43
458.19	4264.46
458.38	4325.31
458.56	4325.31
458.74	4482.13
458.93	4402.55
459.11	4531.28
459.29	4348.72
459.48	4397.87
459.66	4414.25
459.84	4418.93
460.03	4557.02
460.21	4601.49
460.39	4444.68
460.57	4421.27
460.76	4500.85
460.94	4564.04
461.12	4573.41
461.31	4585.11
461.49	4587.45
461.67	4533.62
461.85	4674.05
462.04	4587.45
462.22	4758.31
462.40	4734.90
462.59	4865.97
462.77	4751.29
462.95	4870.65
463.13	4660.01
463.32	4734.90
463.50	4741.93
463.68	4896.40
463.86	4664.69
464.05	4720.86
464.23	4851.93
464.41	4896.40
464.59	4826.18
464.78	5078.96
464.96	4809.80
465.14	4985.34
465.32	4809.80
465.50	5069.60
465.69	5088.32
465.87	5006.41
466.05	4898.74
466.23	4957.25
466.41	4905.76
466.60	5188.97
466.78	5008.75
466.96	5071.94
467.14	5095.35
467.32	4912.78
467.51	5179.61
467.69	4840.23
467.87	5022.79
468.05	5142.16
468.23	5071.94
468.41	5174.92
468.60	5093.01
468.78	5158.54
468.96	5011.09
469.14	5305.99
469.32	5345.78
469.50	5125.77
469.69	5298.97
469.87	5380.89
470.05	5497.92
470.23	5364.51
470.41	5413.66
470.59	5235.78
470.77	5343.44
470.95	5451.11
471.14	5481.53
471.32	5437.06
471.50	5708.57
471.68	5411.32
471.86	5584.52
472.04	5530.69
472.22	5696.86
472.40	5591.54
472.58	5748.36
472.77	5699.20
472.95	5858.36
473.13	6080.71
473.31	5809.21
473.49	5790.49
473.67	5748.36
473.85	5753.04
474.03	6106.46
474.21	5804.53
474.39	5975.39
474.57	6050.28
474.75	5973.05
474.93	6111.14
475.12	6036.24
475.30	6099.44
475.48	6118.16
475.66	6249.23
475.84	6232.85
476.02	6242.21
476.20	6246.89
476.38	6434.13
476.56	6579.25
476.74	6548.82
476.92	6438.81
477.10	6572.22
477.28	6647.12
477.46	6520.73
477.64	6717.34
477.82	6586.27
478.00	6902.24
478.18	6951.39
478.36	6995.86
478.54	7061.40
478.72	6885.86
478.90	7112.89
479.08	6895.22
479.26	7307.15
479.44	7272.04
479.62	7246.30
479.80	7307.15
479.98	7297.79
480.16	7456.95
480.34	7286.09
480.52	7428.86
480.70	7470.99
480.88	7524.82
481.06	7552.91
481.24	7609.08
481.41	7667.60
481.59	7786.96
481.77	7939.10
481.95	7964.84
482.13	8177.83
482.31	8163.79
482.49	8159.11
482.67	8308.90
482.85	8287.84
483.03	8372.10
483.21	8482.10
483.39	8351.03
483.57	8411.89
483.74	8559.34
483.92	8538.27
484.10	8727.86
484.28	8655.30
484.46	9165.54
484.64	9202.99
484.82	8767.65
485.00	8973.61
485.18	9282.56
485.35	9432.36
485.53	9226.39
485.71	9474.49
485.89	9502.58
486.07	9458.10
486.25	9598.54
486.43	9516.62
486.61	9549.39
486.78	9830.25
486.96	9886.42
487.14	10040.90
487.32	9839.61
487.50	10204.74
487.68	10183.67
487.85	10251.55
488.03	10338.15
488.21	10539.43
488.39	10501.98
488.57	10572.20
488.75	10635.39
488.92	10848.38
489.10	10635.39
489.28	10888.17
489.46	11070.73
489.64	10827.32
489.81	11040.31
489.99	11054.35
490.17	11124.57
490.35	11403.09
490.53	11499.05
490.70	11459.26
490.88	11555.22
491.06	11592.67
491.24	11393.73
491.41	11543.52
491.59	11871.20
491.77	11868.86
491.95	11988.22
492.13	12119.29
492.30	12231.64
492.48	12166.10
492.66	12039.72
492.84	12353.35
493.01	12641.23
493.19	12652.94
493.37	12645.91
493.54	12929.12
493.72	12776.98
493.90	12671.66
494.08	12912.74
494.25	13083.59
494.43	13177.22
494.61	13085.94
494.79	13385.52
494.96	13144.45
495.14	13221.69
495.32	13357.44
495.49	13427.65
495.67	13280.20
495.85	13738.94
496.02	13664.05
496.20	13881.72
496.38	13811.50
496.55	13884.06
496.73	14120.45
496.91	14038.53
497.09	14363.87
497.26	14427.06
497.44	14363.87
497.62	14443.45
497.79	14354.51
497.97	14307.69
498.14	14693.88
498.32	14537.07
498.50	14607.28
498.67	14897.51
498.85	14656.43
499.03	14689.20
499.20	14761.76
499.38	14888.15
499.56	15105.82
499.73	15150.29
499.91	15309.44
500.08	15351.57
500.26	15075.39
500.44	15580.95
500.61	15283.70
500.79	15323.49
500.97	15592.65
501.14	15693.29
501.32	15693.29
501.49	15822.02
501.67	15704.99
501.84	15847.77
502.02	15712.02
502.20	16077.14
502.37	16023.31
502.55	16229.27
502.72	16051.39
502.90	15953.09
503.07	15997.56
503.25	16032.67
503.43	16524.18
503.60	16304.17
503.78	16379.07
503.95	16304.17
504.13	16542.91
504.30	16334.60
504.48	16477.37
504.65	16449.28
504.83	16685.68
505.01	17022.72
505.18	16767.60
505.36	17219.32
505.53	16549.93
505.71	17104.64
505.88	16760.58
506.06	17083.57
506.23	16905.69
506.41	17254.43
506.58	17364.43
506.76	17074.21
506.93	17301.24
507.11	17160.81
507.28	17493.16
507.46	17343.37
507.63	17221.66
507.81	17682.75
507.98	17441.67
508.16	17898.08
508.33	17731.90
508.50	18031.49
508.68	17802.11
508.85	17900.42
509.03	18059.57
509.20	18029.15
509.38	18148.51
509.55	18132.13
509.73	17968.29
509.90	18274.90
510.08	18008.08
510.25	18567.47
510.42	18497.25
510.60	18389.59
510.77	18651.73
510.95	18838.97
511.12	18630.66
511.30	18478.53
511.47	18642.37
511.64	18740.67
511.82	19066.00
511.99	18906.85
512.17	19208.78
512.34	18977.06
512.51	19000.47
512.69	18892.80
512.86	19168.99
513.04	19129.20
513.21	19094.09
513.38	19138.56
513.56	19262.61
513.73	19068.34
513.90	19276.65
514.08	19208.78
514.25	19391.34
514.43	19555.18
514.60	19728.38
514.77	19627.73
514.95	19967.11
515.12	19784.55
515.29	19522.41
515.47	19772.85
515.64	20229.25
515.81	20091.16
515.99	19976.47
516.16	20465.64
516.33	20271.38
516.51	20343.94
516.68	20095.84
516.85	20109.88
517.03	20465.64
517.20	20184.78
517.37	20294.79
517.54	20622.46
517.72	20528.84
517.89	20407.13
518.06	20215.21
518.24	20390.75
518.41	20367.34
518.58	20498.41
518.75	20472.67
518.93	20828.43
519.10	20676.29
519.27	20823.75
519.45	20568.63
519.62	21027.37
519.79	21015.67
519.96	21116.31
520.14	21151.42
520.31	20985.24
520.48	21041.42
520.65	21238.02
520.83	21235.68
521.00	21036.74
521.17	21312.92
521.34	20947.79
521.52	21268.45
521.69	21235.68
521.86	21762.30
522.03	21900.39
522.20	21802.09
522.38	21905.07
522.55	21647.61
522.72	21535.27
522.89	21851.24
523.07	21947.20
523.24	21853.58
523.41	21895.71
523.58	21954.22
523.75	22225.73
523.92	21886.35
524.10	21888.69
524.27	22045.51
524.44	22089.98
524.61	22548.72
524.78	22434.03
524.96	22256.15
525.13	22607.23
525.30	22443.40
525.47	22389.56
525.64	22209.34
525.81	22771.07
525.98	22621.28
526.16	23019.17
526.33	22782.77
526.50	22754.69
526.67	22415.31
526.84	22515.95
527.01	22686.81
527.18	23208.75
527.36	23054.28
527.53	23180.67
527.70	23318.76
527.87	23250.88
528.04	22766.39
528.21	23077.68
528.38	22913.84
528.55	23232.16
528.72	23082.36
528.89	23374.93
529.07	23337.48
529.24	22939.59
529.41	23307.05
529.58	23672.18
529.75	23215.77
529.92	23501.32
530.09	23470.89
530.26	23484.94
530.43	23735.37
530.60	23185.35
530.77	23388.97
530.94	23726.01
531.11	23342.16
531.28	23393.65
531.46	23756.44
531.63	23843.04
531.80	23625.37
531.97	23908.57
532.14	24170.71
532.31	23894.53
532.48	24058.37
532.65	24224.54
532.82	23988.15
532.99	23807.93
533.16	23936.66
533.33	24215.18
533.50	24233.91
533.67	24194.12
533.84	24093.47
534.01	24219.86
534.18	23880.49
534.35	24367.32
534.52	24456.26
534.69	24386.04
534.86	24547.54
535.03	24144.97
535.20	24599.03
535.37	24723.08
535.54	24652.86
535.71	24346.25
535.88	24662.22
536.05	24709.04
536.22	24638.82
536.38	24938.41
536.55	24680.95
536.72	24943.09
536.89	24929.05
537.06	24739.46
537.23	24968.84
537.40	24505.41
537.57	24856.49
537.74	25291.83
537.91	25081.18
538.08	25142.03
538.25	24929.05
538.42	25380.77
538.59	25261.40
538.75	24952.45
538.92	25294.17
539.09	25118.63
539.26	25008.62
539.43	25359.70
539.60	25331.62
539.77	25221.61
539.94	25537.59
540.11	25647.59
540.28	25308.21
540.44	25355.02
540.61	25041.39
540.78	25465.03
540.95	25745.89
541.12	25741.21
541.29	25380.77
541.46	25289.49
541.62	25385.45
541.79	25951.86
541.96	25317.57
542.13	25788.02
542.30	25736.53
542.47	26085.27
542.63	25968.24
542.80	25809.09
542.97	26230.38
543.14	26366.13
543.31	26363.79
543.48	25982.29
543.64	26075.91
543.81	26094.63
543.98	26560.40
544.15	26487.84
544.32	26246.77
544.48	26394.22
544.65	26356.77
544.82	26316.98
544.99	26319.32
545.16	26370.82
545.32	26415.29
545.49	26691.47
545.66	26881.05
545.83	26855.31
546.00	26859.99
546.16	26551.04
546.33	26316.98
546.50	26349.75
546.67	26684.45
546.83	26349.75
547.00	26890.41
547.17	26597.85
547.34	26747.64
547.50	27016.80
547.67	27349.16
547.84	26623.59
548.00	27122.13
548.17	26859.99
548.34	27101.06
548.51	26740.62
548.67	27000.42
548.84	27077.66
549.01	27033.19
549.18	27278.94
549.34	27044.89
549.51	26993.40
549.68	27136.17
549.84	26836.58
550.01	27225.11
550.18	27154.90
550.34	27335.12
550.51	27545.76
550.68	27152.55
550.84	27339.80
551.01	27583.21
551.18	27110.43
551.34	26850.63
551.51	27087.02
551.68	27309.37
551.84	27580.87
552.01	27154.90
552.18	28093.45
552.34	27304.69
552.51	27339.80
552.68	27328.10
552.84	27583.21
553.01	27693.22
553.18	27442.78
553.34	27681.52
553.51	27864.08
553.67	27838.33
553.84	27929.61
554.01	27756.41
554.17	27861.74
554.34	27637.05
554.51	27723.65
554.67	27648.75
554.84	27707.26
555.00	27779.82
555.17	27814.93
555.33	28376.66
555.50	27967.06
555.67	27557.47
555.83	27880.46
556.00	27651.09
556.16	28170.69
556.33	28133.24
556.50	28479.64
556.66	28283.03
556.83	28004.51
556.99	28332.18
557.16	28470.28
557.32	27800.88
557.49	28809.65
557.65	28201.11
557.82	28135.58
557.98	27892.16
558.15	28329.84
558.32	28311.12
558.48	27955.36
558.65	28673.90
558.81	28322.82
558.98	28489.00
559.14	28500.70
559.31	28538.15
559.47	28397.72
559.64	28479.64
559.80	28388.36
559.97	28910.30
560.13	28411.76
560.30	28624.75
560.46	28699.65
560.63	28491.34
560.79	28409.42
560.96	28865.83
561.12	28634.11
561.29	28222.18
561.45	28678.58
561.61	28987.53
561.78	28807.31
561.94	28783.91
562.11	28943.06
562.27	28992.22
562.44	28683.27
562.60	28545.17
562.77	28793.27
562.93	28416.44
563.10	28819.02
563.26	28917.32
563.42	29013.28
563.59	28872.85
563.75	28547.51
563.92	28938.38
564.08	28886.89
564.24	29039.03
564.41	28624.75
564.57	28781.57
564.74	28638.80
564.90	28807.31
565.07	28863.49
565.23	29064.77
565.39	28975.83
565.56	29120.95
565.72	29242.65
565.88	28697.31
566.05	28952.43
566.21	29111.58
566.38	29123.29
566.54	29193.50
566.70	28938.38
566.87	29181.80
567.03	29048.39
567.19	29560.97
567.36	29200.52
567.52	28882.21
567.68	29195.84
567.85	28814.34
568.01	29134.99
568.17	29032.00
568.34	29090.52
568.50	29280.10
568.66	28919.66
568.83	29951.84
568.99	29191.16
569.15	29230.95
569.32	28947.75
569.48	29109.24
569.64	29345.64
569.81	29298.83
569.97	29134.99
570.13	29179.46
570.30	29387.77
570.46	29165.42
570.62	29259.04
570.78	28786.25
570.95	29153.71
571.11	29326.91
571.27	28980.51
571.43	29064.77
571.60	29457.98
571.76	29104.56
571.92	29429.90
572.09	29294.14
572.25	29268.40
572.41	29387.77
572.57	28980.51
572.74	29680.33
572.90	29427.56
573.06	28999.24
573.22	29649.91
573.38	29921.41
573.55	29284.78
573.71	29476.71
573.87	29457.98
574.03	29488.41
574.20	29350.32
574.36	29544.58
574.52	29415.85
574.68	29209.89
574.84	29336.27
575.01	29593.73
575.17	29329.25
575.33	29247.33
575.49	29237.97
575.65	29195.84
575.82	29883.96
575.98	29514.16
576.14	29502.45
576.30	29191.16
576.46	29345.64
576.62	29811.40
576.79	29184.14
576.95	29319.89
577.11	29591.39
577.27	29607.78
577.43	29876.94
577.59	29404.15
577.75	29340.96
577.92	29076.48
578.08	29074.13
578.24	29605.44
578.40	29766.93
578.56	29207.55
578.72	29617.14
578.88	29926.09
579.04	30047.80
579.21	29355.00
579.37	29642.88
579.53	29596.07
579.69	29284.78
579.85	29539.90
580.01	29722.46
580.17	29249.67
580.33	29521.18
580.49	29626.50
580.65	29399.47
580.82	29418.19
580.98	29352.66
581.14	29675.65
581.30	29399.47
581.46	29668.63
581.62	29261.38
581.78	29172.44
581.94	29516.50
582.10	29516.50
582.26	29649.91
582.42	29275.42
582.58	29902.68
582.74	29802.04
582.90	29584.37
583.06	29738.85
583.22	29689.70
583.38	29701.40
583.54	29493.09
583.70	29570.33
583.86	29518.84
584.02	29546.92
584.18	29907.37
584.34	30251.42
584.50	29642.88
584.66	29628.84
584.82	29687.36
584.98	29270.74
585.14	29514.16
585.30	29242.65
585.46	29432.24
585.62	29659.27
585.78	29928.43
585.94	29633.52
586.10	29425.22
586.26	29806.72
586.42	29806.72
586.58	30127.38
586.74	30132.06
586.90	29336.27
587.06	29872.26
587.22	29523.52
587.38	29656.93
587.54	30316.96
587.70	29902.68
587.86	30188.23
588.02	30150.78
588.18	29977.58
588.34	29668.63
588.49	29898.00
588.65	29764.59
588.81	29755.23
588.97	30092.27
589.13	29846.51
589.29	29575.01
589.45	29865.24
589.61	30162.48
589.77	30691.44
589.93	29879.28
590.08	30359.09
590.24	29919.07
590.40	29935.45
590.56	30244.40
590.72	30120.35
590.88	30017.37
591.04	29940.13
591.20	29876.94
591.35	30274.83
591.51	30370.79
591.67	30188.23
591.83	30403.56
591.99	30312.28
