SpectraSuite Data File
++++++++++++++++++++++++++++++++++++
Date: Fri Oct 18 13:58:07 GMT-05:00 2013
User: bianchi
Dark Spectrum Present: No
Reference Spectrum Present: No
Number of Sampled Component Spectra: 1
Spectrometers: USB2+H05261
Integration Time (usec): 50000 (USB2+H05261)
Spectra Averaged: 1 (USB2+H05261)
Boxcar Smoothing: 0 (USB2+H05261)
Correct for Electrical Dark: No (USB2+H05261)
Strobe/Lamp Enabled: No (USB2+H05261)
Correct for Detector Non-linearity: No (USB2+H05261)
Correct for Stray Light: No (USB2+H05261)
Number of Pixels in Processed Spectrum: 2048
>>>>>Begin Processed Spectral Data<<<<<
365.73	0.00
365.92	0.00
366.12	0.00
366.32	0.00
366.52	0.00
366.72	0.00
366.91	0.00
367.11	0.00
367.31	0.00
367.51	0.00
367.70	0.00
367.90	0.00
368.10	0.00
368.30	0.00
368.49	0.00
368.69	0.00
368.89	0.00
369.09	0.00
369.28	0.00
369.48	0.00
369.68	0.00
369.87	0.00
370.07	0.00
370.27	0.00
370.47	0.00
370.66	70.22
370.86	191.92
371.06	170.86
371.25	212.99
371.45	119.37
371.65	128.73
371.84	152.13
372.04	84.26
372.24	121.71
372.44	184.90
372.63	198.95
372.83	198.95
373.03	238.73
373.22	196.60
373.42	112.35
373.62	212.99
373.81	285.55
374.01	238.73
374.21	301.93
374.40	210.65
374.60	264.48
374.79	205.97
374.99	264.48
375.19	243.42
375.38	306.61
375.58	327.68
375.78	297.25
375.97	203.63
376.17	348.74
376.37	273.84
376.56	250.44
376.76	205.97
376.95	196.60
377.15	210.65
377.35	236.39
377.54	187.24
377.74	322.99
377.93	325.33
378.13	276.18
378.33	306.61
378.52	250.44
378.72	306.61
378.91	283.20
379.11	306.61
379.31	313.63
379.50	252.78
379.70	299.59
379.89	285.55
380.09	262.14
380.28	278.52
380.48	229.37
380.68	271.50
380.87	304.27
381.07	339.38
381.26	322.99
381.46	337.04
381.65	372.15
381.85	395.55
382.04	355.76
382.24	327.68
382.43	283.20
382.63	311.29
382.83	404.91
383.02	374.49
383.22	465.77
383.41	348.74
383.61	311.29
383.80	365.12
384.00	449.38
384.19	507.90
384.39	383.85
384.58	351.08
384.78	409.59
384.97	397.89
385.17	367.46
385.36	376.83
385.56	414.27
385.75	404.91
385.95	395.55
386.14	425.98
386.34	442.36
386.53	414.27
386.72	437.68
386.92	400.23
387.11	484.49
387.31	402.57
387.50	472.79
387.70	395.55
387.89	409.59
388.09	437.68
388.28	533.64
388.48	454.06
388.67	421.30
388.86	461.09
389.06	475.13
389.25	486.83
389.45	498.53
389.64	482.15
389.84	568.75
390.03	458.74
390.22	463.43
390.42	486.83
390.61	472.79
390.81	543.00
391.00	512.58
391.19	489.17
391.39	519.60
391.58	538.32
391.78	484.49
391.97	461.09
392.16	484.49
392.36	547.69
392.55	517.26
392.75	526.62
392.94	561.73
393.13	559.39
393.33	533.64
393.52	514.92
393.71	585.13
393.91	587.47
394.10	613.22
394.29	587.47
394.49	662.37
394.68	592.16
394.88	627.26
395.07	585.13
395.26	631.94
395.46	596.84
395.65	671.73
395.84	653.01
396.04	634.29
396.23	678.76
396.42	692.80
396.62	748.97
396.81	706.84
397.00	662.37
397.19	730.25
397.39	725.57
397.58	718.54
397.77	706.84
397.97	758.33
398.16	732.59
398.35	765.36
398.55	667.05
398.74	706.84
398.93	716.20
399.12	655.35
399.32	706.84
399.51	725.57
399.70	774.72
399.90	734.93
400.09	763.01
400.28	842.59
400.47	837.91
400.67	821.53
400.86	777.06
401.05	746.63
401.24	870.68
401.44	767.70
401.63	849.61
401.82	718.54
402.01	814.51
402.21	770.04
402.40	814.51
402.59	791.10
402.78	746.63
402.97	835.57
403.17	870.68
403.36	905.79
403.55	851.96
403.74	884.72
403.93	823.87
404.13	919.83
404.32	992.39
404.51	840.25
404.70	973.66
404.89	940.90
405.09	994.73
405.28	926.85
405.47	870.68
405.66	903.45
405.85	891.74
406.05	898.77
406.24	985.37
406.43	1081.33
406.62	1053.24
406.81	1060.26
407.00	966.64
407.20	903.45
407.39	940.90
407.58	1041.54
407.77	1118.78
407.96	1039.20
408.15	1088.35
408.34	1102.39
408.54	1086.01
408.73	1067.28
408.92	1121.12
409.11	1111.75
409.30	1083.67
409.49	1109.41
409.68	1151.54
409.87	1128.14
410.07	1144.52
410.26	1242.82
410.45	1146.86
410.64	1254.53
410.83	1224.10
411.02	1193.67
411.21	1240.48
411.40	1186.65
411.59	1327.08
411.78	1273.25
411.98	1406.66
412.17	1301.34
412.36	1313.04
412.55	1263.89
412.74	1324.74
412.93	1341.13
413.12	1282.61
413.31	1334.11
413.50	1341.13
413.69	1376.24
413.88	1390.28
414.07	1427.73
414.26	1474.54
414.45	1570.50
414.64	1446.45
414.83	1591.56
415.02	1607.95
415.22	1549.43
415.41	1526.03
415.60	1537.73
415.79	1596.25
415.98	1584.54
416.17	1621.99
416.36	1509.65
416.55	1577.52
416.74	1593.90
416.93	1607.95
417.12	1781.15
417.31	1746.04
417.50	1591.56
417.69	1657.10
417.88	1666.46
418.07	1750.72
418.26	1699.23
418.45	1802.21
418.64	1839.66
418.83	1874.77
419.02	1771.79
419.21	1898.17
419.39	1792.85
419.58	1785.83
419.77	1823.28
419.96	1811.57
420.15	1891.15
420.34	1748.38
420.53	1844.34
420.72	1968.39
420.91	1825.62
421.10	1895.83
421.29	1961.37
421.48	1919.24
421.67	2012.86
421.86	1912.22
422.05	1975.41
422.24	1998.82
422.43	2019.88
422.61	2064.35
422.80	2066.69
422.99	1933.28
423.18	2031.58
423.37	2073.71
423.56	2143.93
423.75	2005.84
423.94	1966.05
424.13	1860.73
424.32	1872.43
424.50	2047.97
424.69	2036.27
424.88	2073.71
425.07	2029.24
425.26	2036.27
425.45	2113.50
425.64	2076.06
425.83	2113.50
426.01	2085.42
426.20	2026.90
426.39	2052.65
426.58	2015.20
426.77	2064.35
426.96	2050.31
427.15	2172.02
427.33	2134.57
427.52	2132.23
427.71	2054.99
427.90	2267.98
428.09	2319.47
428.28	2193.08
428.46	2190.74
428.65	2279.68
428.84	2230.53
429.03	2321.81
429.22	2188.40
429.40	2286.70
429.59	2282.02
429.78	2139.25
429.97	2148.61
430.16	2263.30
430.34	2298.41
430.53	2345.22
430.72	2321.81
430.91	2289.04
431.10	2375.64
431.28	2370.96
431.47	2476.29
431.66	2434.16
431.85	2326.49
432.03	2509.05
432.22	2553.52
432.41	2368.62
432.60	2572.25
432.79	2413.09
432.97	2462.24
433.16	2326.49
433.35	2471.61
433.54	2506.71
433.72	2497.35
433.91	2530.12
434.10	2616.72
434.28	2593.31
434.47	2686.94
434.66	2518.42
434.85	2539.48
435.03	2628.42
435.22	2562.89
435.41	2752.47
435.59	2640.12
435.78	2602.68
435.97	2672.89
436.16	2801.62
436.34	2747.79
436.53	2729.06
436.72	2752.47
436.90	2661.19
437.09	2815.66
437.28	2705.66
437.46	2750.13
437.65	2712.68
437.84	2785.24
438.02	2668.21
438.21	2864.82
438.40	2827.37
438.58	2930.35
438.77	2951.42
438.96	2958.44
439.14	2986.52
439.33	2841.41
439.52	2920.99
439.70	2890.56
439.89	3033.33
440.08	2995.89
440.26	3068.44
440.45	3178.45
440.63	3082.49
440.82	3084.83
441.01	3119.93
441.19	3178.45
441.38	3262.71
441.57	3124.62
441.75	3272.07
441.94	3265.05
442.12	3162.06
442.31	3267.39
442.50	3346.97
442.68	3314.20
442.87	3438.25
443.05	3431.23
443.24	3449.95
443.43	3400.80
443.61	3307.18
443.80	3515.48
443.98	3220.58
444.17	3316.54
444.35	3449.95
444.54	3508.46
444.73	3426.54
444.91	3396.12
445.10	3475.70
445.28	3405.48
445.47	3475.70
445.65	3581.02
445.84	3489.74
446.02	3616.13
446.21	3541.23
446.39	3510.80
446.58	3454.63
446.77	3428.88
446.95	3489.74
447.14	3492.08
447.32	3531.87
447.51	3508.46
447.69	3527.19
447.88	3529.53
448.06	3574.00
448.25	3487.40
448.43	3508.46
448.62	3391.44
448.80	3503.78
448.99	3630.17
449.17	3623.15
449.36	3648.90
449.54	3566.98
449.73	3674.64
449.91	3676.98
450.10	3707.41
450.28	3740.18
450.46	3667.62
450.65	3705.07
450.83	3712.09
451.02	3747.20
451.20	3850.18
451.39	3929.76
451.57	3857.20
451.76	3618.47
451.94	3737.84
452.13	3873.59
452.31	3843.16
452.49	3728.47
452.68	3852.52
452.86	3796.35
453.05	3911.04
453.23	3946.14
453.42	3817.41
453.60	3889.97
453.78	3953.16
453.97	4035.08
454.15	3978.91
454.34	3866.56
454.52	4037.42
454.70	3997.64
454.89	4044.45
455.07	3988.27
455.26	4299.56
455.44	4191.90
455.62	4081.89
455.81	4067.85
455.99	4248.07
456.17	4250.41
456.36	4304.25
456.54	4222.33
456.73	4285.52
456.91	4250.41
457.09	4531.28
457.28	4224.67
457.46	4198.92
457.64	4477.44
457.83	4344.03
458.01	4297.22
458.19	4414.25
458.38	4278.50
458.56	4475.10
458.74	4517.23
458.93	4458.72
459.11	4491.49
459.29	4411.91
459.48	4521.92
459.66	4435.32
459.84	4528.94
460.03	4423.61
460.21	4454.04
460.39	4620.22
460.57	4636.60
460.76	4601.49
460.94	4599.15
461.12	4634.26
461.31	4664.69
461.49	4741.93
461.67	4503.19
461.85	4727.88
462.04	4727.88
462.22	4994.70
462.40	4795.76
462.59	4781.71
462.77	4777.03
462.95	4760.65
463.13	4903.42
463.32	4723.20
463.50	4959.60
463.68	4809.80
463.86	4929.17
464.05	4849.59
464.23	4856.61
464.41	4971.30
464.59	4880.02
464.78	5149.18
464.96	5043.85
465.14	4875.34
465.32	4964.28
465.50	5203.01
465.69	5039.17
465.87	5055.56
466.05	5107.05
466.23	5081.30
466.41	4919.81
466.60	5128.11
466.78	5121.09
466.96	5078.96
467.14	4966.62
467.32	5245.14
467.51	5177.26
467.69	5121.09
467.87	5226.42
468.05	5210.03
468.23	5226.42
468.41	5151.52
468.60	5308.34
468.78	5329.40
468.96	5142.16
469.14	5336.42
469.32	5556.43
469.50	5357.49
469.69	5322.38
469.87	5462.81
470.05	5542.39
470.23	5495.58
470.41	5369.19
470.59	5556.43
470.77	5341.10
470.95	5621.97
471.14	5589.20
471.32	5579.84
471.50	5727.29
471.68	5849.00
471.86	5598.56
472.04	5584.52
472.22	5888.79
472.40	5783.46
472.58	5731.97
472.77	5746.02
472.95	5905.17
473.13	5933.26
473.31	5921.56
473.49	5921.56
473.67	5921.56
473.85	5923.90
474.03	6010.50
474.21	6047.94
474.39	5998.79
474.57	6017.52
474.75	6146.25
474.93	6157.95
475.12	6129.86
475.30	6384.98
475.48	6286.68
475.66	6324.13
475.84	6375.62
476.02	6394.34
476.20	6319.45
476.38	6310.08
476.56	6677.55
476.74	6459.88
476.92	6537.12
477.10	6635.42
477.28	6623.72
477.46	6752.45
477.64	6789.89
477.82	6932.67
478.00	7066.08
478.18	7023.95
478.36	6951.39
478.54	7122.25
478.72	7138.63
478.90	7255.66
479.08	7152.68
479.26	7274.38
479.44	7398.43
479.62	7194.81
479.80	7318.86
479.98	7489.71
480.16	7681.64
480.34	7468.65
480.52	7602.06
480.70	7599.72
480.88	7536.52
481.06	7779.94
481.24	7775.26
481.41	7812.71
481.59	7976.55
481.77	8140.38
481.95	8081.87
482.13	8306.56
482.31	8145.06
482.49	8299.54
482.67	8205.92
482.85	8449.33
483.03	8603.81
483.21	8737.22
483.39	8400.18
483.57	8662.32
483.74	8688.07
483.92	8760.63
484.10	8798.07
484.28	8798.07
484.46	9156.18
484.64	9284.91
484.82	8863.61
485.00	9109.36
485.18	9626.62
485.35	9380.87
485.53	9273.20
485.71	9469.81
485.89	9603.22
486.07	9589.17
486.25	9638.33
486.43	9687.48
486.61	9853.66
486.78	10038.56
486.96	9944.94
487.14	10141.54
487.32	10090.05
487.50	10157.92
487.68	10139.20
487.85	10296.02
488.03	10534.75
488.21	10651.78
488.39	10628.37
488.57	10696.25
488.75	10717.31
488.92	10796.89
489.10	10974.77
489.28	10995.84
489.46	11087.12
489.64	11190.10
489.81	11545.86
489.99	11325.85
490.17	11618.42
490.35	11405.43
490.53	11611.40
490.70	11831.41
490.88	11763.53
491.06	12049.08
491.24	12081.85
491.41	11857.15
491.59	12077.16
491.77	11906.31
491.95	12161.42
492.13	12290.15
492.30	12369.73
492.48	12655.28
492.66	12430.59
492.84	12463.35
493.01	12468.03
493.19	12812.09
493.37	12924.44
493.54	12678.68
493.72	12868.27
493.90	13205.30
494.08	13036.78
494.25	13284.88
494.43	13219.35
494.61	13369.14
494.79	13214.66
494.96	13490.85
495.14	13525.96
495.32	13561.06
495.49	13755.33
495.67	13741.29
495.85	14024.49
496.02	13879.38
496.20	14008.11
496.38	14075.98
496.55	14164.92
496.73	14214.07
496.91	14132.15
497.09	14279.61
497.26	14455.15
497.44	14188.33
497.62	14478.55
497.79	14654.09
497.97	14342.80
498.14	14731.33
498.32	15049.64
498.50	14920.92
498.67	14916.23
498.85	15236.89
499.03	14979.43
499.20	15314.13
499.38	15028.58
499.56	15445.20
499.73	15421.79
499.91	15609.03
500.08	15733.08
500.26	15407.75
500.44	15513.07
500.61	15590.31
500.79	15536.48
500.97	15807.98
501.14	15992.88
501.32	15992.88
501.49	15768.19
501.67	15932.03
501.84	16189.49
502.02	16011.60
502.20	16236.30
502.37	16407.16
502.55	16655.25
502.72	16418.86
502.90	16154.38
503.07	16585.04
503.25	16465.67
503.43	16599.08
503.60	16585.04
503.78	16521.84
503.95	16695.04
504.13	16926.75
504.30	16774.62
504.48	16760.58
504.65	16847.18
504.83	16788.66
505.01	17130.38
505.18	17125.70
505.36	17256.77
505.53	17043.78
505.71	17336.35
505.88	17341.03
506.06	16943.14
506.23	17308.26
506.41	17366.78
506.58	17502.53
506.76	17163.15
506.93	17493.16
507.11	17509.55
507.28	17858.29
507.46	17689.77
507.63	17907.44
507.81	17951.91
507.98	17792.75
508.16	17874.67
508.33	17982.34
508.50	18040.85
508.68	18092.34
508.85	18118.09
509.03	18277.24
509.20	18567.47
509.38	18389.59
509.55	18621.30
509.73	18382.57
509.90	18497.25
510.08	18633.00
510.25	18310.01
510.42	18822.59
510.60	18874.08
510.77	18810.89
510.95	18799.18
511.12	18796.84
511.30	18628.32
511.47	19262.61
511.64	19101.11
511.82	19281.33
511.99	19295.38
512.17	19494.32
512.34	19386.66
512.51	19412.40
512.69	19185.37
512.86	19620.71
513.04	19475.60
513.21	19683.91
513.38	19831.36
513.56	19899.23
513.73	19655.82
513.90	19403.04
514.08	19988.18
514.25	19620.71
514.43	19831.36
514.60	19985.83
514.77	20379.04
514.95	20231.59
515.12	19695.61
515.29	20065.41
515.47	20294.79
515.64	20053.71
515.81	19908.60
515.99	20472.67
516.16	20760.55
516.33	20704.38
516.51	20503.09
516.68	20467.98
516.85	20198.82
517.03	20322.87
517.20	20617.78
517.37	20954.82
517.54	20732.47
517.72	20940.77
517.89	21015.67
518.06	20669.27
518.24	20650.55
518.41	20842.47
518.58	21001.63
518.75	20767.57
518.93	21436.97
519.10	21135.04
519.27	21116.31
519.45	21223.98
519.62	21308.24
519.79	21228.66
519.96	21455.69
520.14	21486.12
520.31	21729.53
520.48	21476.76
520.65	21671.02
520.83	21731.87
521.00	21390.16
521.17	21942.52
521.34	21516.54
521.52	21865.28
521.69	21865.28
521.86	21951.88
522.03	22019.76
522.20	21844.22
522.38	22003.38
522.55	22111.04
522.72	22026.78
522.89	22003.38
523.07	22632.98
523.24	22438.72
523.41	22307.65
523.58	22340.41
523.75	22272.54
523.92	22450.42
524.10	22747.67
524.27	22141.47
524.44	22684.47
524.61	22572.13
524.78	22714.90
524.96	22656.39
525.13	22466.80
525.30	22918.53
525.47	22714.90
525.64	22920.87
525.81	22810.86
525.98	23452.17
526.16	23115.13
526.33	22876.40
526.50	23484.94
526.67	23096.41
526.84	23283.65
527.01	22731.28
527.18	23264.92
527.36	23400.68
527.53	23232.16
527.70	23580.90
527.87	23482.59
528.04	23400.68
528.21	23529.41
528.38	23718.99
528.55	23817.29
528.72	23541.11
528.89	23859.42
529.07	23489.62
529.24	23805.59
529.41	23798.57
529.58	23779.84
529.75	23580.90
529.92	23723.67
530.09	23625.37
530.26	23634.73
530.43	24198.80
530.60	24081.77
530.77	24072.41
530.94	24004.53
531.11	23618.35
531.28	24123.90
531.46	24070.07
531.63	24456.26
531.80	24320.51
531.97	24437.53
532.14	24477.32
532.31	24339.23
532.48	24577.97
532.65	24159.01
532.82	24116.88
532.99	24372.00
533.16	24584.99
533.33	24753.51
533.50	24783.93
533.67	24596.69
533.84	24592.01
534.01	24650.52
534.18	24655.20
534.35	25132.67
534.52	24489.03
534.69	24893.94
534.86	24971.18
535.03	25013.31
535.20	24966.49
535.37	24975.86
535.54	24833.08
535.71	24975.86
535.88	25228.63
536.05	25053.09
536.22	25238.00
536.38	25085.86
536.55	25373.75
536.72	25420.56
536.89	25209.91
537.06	25479.07
537.23	25376.09
537.40	25252.04
537.57	25006.28
537.74	25483.75
537.91	25689.72
538.08	25600.78
538.25	25067.14
538.42	25600.78
538.59	25790.36
538.75	25060.12
538.92	25799.73
539.09	25832.49
539.26	25738.87
539.43	25612.48
539.60	25689.72
539.77	25839.51
539.94	25909.73
540.11	25893.35
540.28	25883.98
540.44	25764.62
540.61	25783.34
540.78	26075.91
540.95	25869.94
541.12	25940.16
541.29	25933.14
541.46	25862.92
541.62	26089.95
541.79	25993.99
541.96	26129.74
542.13	25734.19
542.30	26106.34
542.47	26274.85
542.63	26773.39
542.80	26696.15
542.97	26705.51
543.14	26588.49
543.31	26384.86
543.48	26637.64
543.64	27143.19
543.81	26623.59
543.98	26639.98
544.15	26829.56
544.32	26567.42
544.48	27072.98
544.65	26534.65
544.82	26749.98
544.99	26740.62
545.16	26981.70
545.32	26824.88
545.49	27414.69
545.66	27417.04
545.83	26937.23
546.00	27374.91
546.16	27201.71
546.33	26864.67
546.50	26651.68
546.67	27147.87
546.83	26792.11
547.00	27257.88
547.17	27080.00
547.34	27529.38
547.50	27372.57
547.67	27639.39
547.84	27318.73
548.00	27445.12
548.17	27555.13
548.34	27513.00
548.51	27655.77
548.67	27807.90
548.84	27173.62
549.01	27374.91
549.18	27307.03
549.34	27346.82
549.51	27452.14
549.68	27524.70
549.84	27410.01
550.01	27428.74
550.18	27466.19
550.34	27747.05
550.51	28060.68
550.68	27763.43
550.84	27372.57
551.01	27812.59
551.18	27653.43
551.34	27372.57
551.51	27770.46
551.68	27807.90
551.84	28067.70
552.01	27744.71
552.18	27976.42
552.34	28180.05
552.51	28287.71
552.68	27761.09
552.84	28048.98
553.01	28037.28
553.18	28170.69
553.34	28800.29
553.51	27796.20
553.67	28322.82
553.84	28397.72
554.01	28577.94
554.17	28261.97
554.34	28521.77
554.51	28442.19
554.67	28421.13
554.84	28194.09
555.00	28486.66
555.17	28596.67
555.33	28481.98
555.50	28364.95
555.67	28240.90
555.83	28421.13
556.00	28704.33
556.16	28489.00
556.33	28531.13
556.50	28559.22
556.66	28753.48
556.83	28706.67
556.99	28865.83
557.16	28924.34
557.32	28919.66
557.49	28606.03
557.65	28732.42
557.82	28924.34
557.98	28919.66
558.15	28690.29
558.32	29373.72
558.48	29020.30
558.65	28629.43
558.81	28833.06
558.98	29074.13
559.14	29053.07
559.31	28992.22
559.47	29017.96
559.64	29127.97
559.80	29127.97
559.97	29315.21
560.13	29083.50
560.30	29486.07
560.46	29275.42
560.63	29221.59
560.79	29097.54
560.96	29069.45
561.12	28898.59
561.29	29099.88
561.45	29413.51
561.61	29521.18
561.78	29132.65
561.94	29448.62
562.11	29280.10
562.27	29425.22
562.44	29015.62
562.60	29104.56
562.77	29268.40
562.93	29006.26
563.10	29504.79
563.26	29294.14
563.42	29539.90
563.59	29535.22
563.75	29186.48
563.92	29343.30
564.08	29221.59
564.24	29057.75
564.41	29350.32
564.57	29507.13
564.74	29457.98
564.90	29439.26
565.07	29708.42
565.23	29855.87
565.39	29729.48
565.56	29619.48
565.72	29347.98
565.88	29614.80
566.05	29670.97
566.21	29785.66
566.38	29481.39
566.54	30094.61
566.70	29813.74
566.87	29795.02
567.03	29820.77
567.19	29921.41
567.36	29977.58
567.52	29600.76
567.68	29734.17
567.85	29287.12
568.01	29727.14
568.17	29741.19
568.34	29680.33
568.50	29933.11
568.66	29972.90
568.83	29935.45
568.99	29940.13
569.15	29905.02
569.32	29848.85
569.48	29799.70
569.64	29729.48
569.81	29998.65
569.97	29996.31
570.13	30050.14
570.30	29790.34
570.46	30221.00
570.62	30050.14
570.78	29970.56
570.95	29825.45
571.11	29961.20
571.27	29589.05
571.43	29830.13
571.60	29682.67
571.76	29701.40
571.92	30176.53
572.09	29930.77
572.25	30087.59
572.41	29876.94
572.57	29872.26
572.74	29998.65
572.90	29874.60
573.06	30059.50
573.22	29942.47
573.38	29919.07
573.55	29930.77
573.71	29855.87
573.87	30354.41
574.03	29558.63
574.20	30103.97
574.36	29888.64
574.52	29876.94
574.68	29785.66
574.84	29928.43
575.01	30223.34
575.17	30225.68
575.33	30087.59
575.49	30015.03
575.65	30136.74
575.82	30019.71
575.98	30092.27
576.14	30433.99
576.30	29975.24
576.46	30068.86
576.62	29563.31
576.79	30120.35
576.95	29858.21
577.11	30038.44
577.27	30157.80
577.43	30621.23
577.59	30101.63
577.75	30040.78
577.92	30015.03
578.08	29965.88
578.24	30132.06
578.40	30087.59
578.56	30267.81
578.72	30300.58
578.88	30253.76
579.04	30005.67
579.21	30029.07
579.37	30548.67
579.53	30235.04
579.69	30401.22
579.85	30129.72
580.01	30253.76
580.17	29743.53
580.33	30029.07
580.49	30415.26
580.65	30405.90
580.82	30452.71
580.98	29820.77
581.14	30347.39
581.30	30445.69
581.46	29720.12
581.62	30178.87
581.78	29947.15
581.94	30342.70
582.10	30045.46
582.26	30347.39
582.42	30197.59
582.58	30307.60
582.74	30150.78
582.90	30408.24
583.06	30008.01
583.22	30312.28
583.38	30436.33
583.54	30359.09
583.70	30061.84
583.86	30302.92
584.02	29982.26
584.18	30270.15
584.34	30764.00
584.50	30874.01
584.66	30827.20
584.82	30064.18
584.98	30628.25
585.14	30270.15
585.30	30288.87
585.46	30174.19
585.62	30073.54
585.78	30347.39
585.94	30401.22
586.10	30183.55
586.26	30572.08
586.42	30780.39
586.58	30195.25
586.74	30366.11
586.90	30305.26
587.06	30221.00
587.22	30438.67
587.38	30073.54
587.54	30487.82
587.70	30506.54
587.86	30452.71
588.02	30228.02
588.18	31012.10
588.34	30733.57
588.49	30249.08
588.65	30356.75
588.81	30286.53
588.97	30534.63
589.13	30382.49
589.29	30515.90
589.45	30817.83
589.61	30565.06
589.77	30911.46
589.93	30656.34
590.08	30794.43
590.24	30883.37
590.40	30644.63
590.56	30588.46
590.72	30520.59
590.88	30464.41
591.04	30583.78
591.20	30890.39
591.35	30937.20
591.51	30911.46
591.67	31054.23
591.83	30934.86
591.99	30852.94
