SpectraSuite Data File
++++++++++++++++++++++++++++++++++++
Date: Fri Oct 18 13:58:15 GMT-05:00 2013
User: bianchi
Dark Spectrum Present: No
Reference Spectrum Present: No
Number of Sampled Component Spectra: 1
Spectrometers: USB2+H05261
Integration Time (usec): 50000 (USB2+H05261)
Spectra Averaged: 1 (USB2+H05261)
Boxcar Smoothing: 0 (USB2+H05261)
Correct for Electrical Dark: No (USB2+H05261)
Strobe/Lamp Enabled: No (USB2+H05261)
Correct for Detector Non-linearity: No (USB2+H05261)
Correct for Stray Light: No (USB2+H05261)
Number of Pixels in Processed Spectrum: 2048
>>>>>Begin Processed Spectral Data<<<<<
365.73	0.00
365.92	0.00
366.12	0.00
366.32	0.00
366.52	0.00
366.72	0.00
366.91	0.00
367.11	0.00
367.31	0.00
367.51	0.00
367.70	0.00
367.90	0.00
368.10	0.00
368.30	0.00
368.49	0.00
368.69	0.00
368.89	0.00
369.09	0.00
369.28	0.00
369.48	0.00
369.68	0.00
369.87	0.00
370.07	0.00
370.27	0.00
370.47	0.00
370.66	51.49
370.86	102.98
371.06	114.69
371.25	177.88
371.45	86.60
371.65	79.58
371.84	145.11
372.04	131.07
372.24	191.92
372.44	168.52
372.63	170.86
372.83	149.79
373.03	133.41
373.22	198.95
373.42	187.24
373.62	266.82
373.81	224.69
374.01	238.73
374.21	252.78
374.40	276.18
374.60	248.10
374.79	236.39
374.99	255.12
375.19	252.78
375.38	297.25
375.58	222.35
375.78	241.08
375.97	187.24
376.17	320.65
376.37	322.99
376.56	318.31
376.76	238.73
376.95	222.35
377.15	212.99
377.35	243.42
377.54	252.78
377.74	287.89
377.93	236.39
378.13	351.08
378.33	257.46
378.52	292.57
378.72	290.23
378.91	276.18
379.11	271.50
379.31	287.89
379.50	255.12
379.70	311.29
379.89	360.44
380.09	313.63
380.28	304.27
380.48	290.23
380.68	285.55
380.87	327.68
381.07	367.46
381.26	318.31
381.46	334.70
381.65	444.70
381.85	315.97
382.04	315.97
382.24	369.80
382.43	330.02
382.63	365.12
382.83	435.34
383.02	285.55
383.22	327.68
383.41	414.27
383.61	407.25
383.80	344.06
384.00	437.68
384.19	332.36
384.39	320.65
384.58	332.36
384.78	442.36
384.97	423.64
385.17	395.55
385.36	337.04
385.56	440.02
385.75	325.33
385.95	416.62
386.14	397.89
386.34	425.98
386.53	388.53
386.72	397.89
386.92	397.89
387.11	395.55
387.31	346.40
387.50	468.11
387.70	407.25
387.89	388.53
388.09	418.96
388.28	397.89
388.48	416.62
388.67	477.47
388.86	339.38
389.06	418.96
389.25	486.83
389.45	447.04
389.64	433.00
389.84	430.66
390.03	409.59
390.22	456.40
390.42	447.04
390.61	449.38
390.81	500.87
391.00	461.09
391.19	540.66
391.39	489.17
391.58	547.69
391.78	521.94
391.97	456.40
392.16	440.02
392.36	599.18
392.55	540.66
392.75	594.50
392.94	587.47
393.13	493.85
393.33	507.90
393.52	622.58
393.71	559.39
393.91	606.20
394.10	535.98
394.29	559.39
394.49	568.75
394.68	571.09
394.88	624.92
395.07	638.97
395.26	592.16
395.46	690.46
395.65	601.52
395.84	575.77
396.04	634.29
396.23	688.12
396.42	606.20
396.62	589.82
396.81	674.07
397.00	648.33
397.19	603.86
397.39	683.44
397.58	657.69
397.77	688.12
397.97	669.39
398.16	699.82
398.35	709.18
398.55	667.05
398.74	653.01
398.93	748.97
399.12	669.39
399.32	704.50
399.51	669.39
399.70	816.85
399.90	755.99
400.09	669.39
400.28	805.14
400.47	748.97
400.67	732.59
400.86	781.74
401.05	706.84
401.24	805.14
401.44	823.87
401.63	866.00
401.82	699.82
402.01	823.87
402.21	873.02
402.40	805.14
402.59	866.00
402.78	816.85
402.97	849.61
403.17	866.00
403.36	896.43
403.55	833.23
403.74	896.43
403.93	833.23
404.13	959.62
404.32	903.45
404.51	943.24
404.70	922.17
404.89	919.83
405.09	880.04
405.28	880.04
405.47	940.90
405.66	959.62
405.85	1011.11
406.05	919.83
406.24	1041.54
406.43	978.34
406.62	922.17
406.81	978.34
407.00	1025.15
407.20	847.27
407.39	1050.90
407.58	1104.73
407.77	1132.82
407.96	1104.73
408.15	1125.80
408.34	1076.65
408.54	1097.71
408.73	1132.82
408.92	1128.14
409.11	1128.14
409.30	1109.41
409.49	1191.33
409.68	1158.57
409.87	1172.61
410.07	1231.12
410.26	1259.21
410.45	1163.25
410.64	1149.20
410.83	1235.80
411.02	1184.31
411.21	1172.61
411.40	1212.40
411.59	1165.59
411.78	1270.91
411.98	1273.25
412.17	1322.40
412.36	1219.42
412.55	1341.13
412.74	1385.60
412.93	1366.87
413.12	1383.26
413.31	1432.41
413.50	1430.07
413.69	1329.42
413.88	1497.94
414.07	1420.71
414.26	1446.45
414.45	1420.71
414.64	1488.58
414.83	1488.58
415.02	1437.09
415.22	1481.56
415.41	1446.45
415.60	1521.35
415.79	1593.90
415.98	1589.22
416.17	1493.26
416.36	1633.69
416.55	1640.72
416.74	1575.18
416.93	1523.69
417.12	1629.01
417.31	1645.40
417.50	1753.06
417.69	1788.17
417.88	1727.32
418.07	1739.02
418.26	1739.02
418.45	1802.21
418.64	1813.92
418.83	1795.19
419.02	1846.68
419.21	1811.57
419.39	1778.81
419.58	1818.60
419.77	1909.88
419.96	1867.75
420.15	1858.39
420.34	1914.56
420.53	1902.86
420.72	2029.24
420.91	1907.54
421.10	1900.52
421.29	1937.96
421.48	1849.02
421.67	1942.64
421.86	1973.07
422.05	2033.93
422.24	1919.24
422.43	1905.20
422.61	2038.61
422.80	1963.71
422.99	1944.99
423.18	2118.18
423.37	2001.16
423.56	1949.67
423.75	1940.30
423.94	1996.48
424.13	1849.02
424.32	1963.71
424.50	2001.16
424.69	2040.95
424.88	2129.89
425.07	1987.11
425.26	1959.03
425.45	1991.80
425.64	2052.65
425.83	2003.50
426.01	2132.23
426.20	1980.09
426.39	2017.54
426.58	2038.61
426.77	2106.48
426.96	2099.46
427.15	2073.71
427.33	2087.76
427.52	2092.44
427.71	2101.80
427.90	2132.23
428.09	2125.21
428.28	2272.66
428.46	2181.38
428.65	2232.87
428.84	2223.51
429.03	2282.02
429.22	2085.42
429.40	2193.08
429.59	2172.02
429.78	2186.06
429.97	2141.59
430.16	2228.19
430.34	2293.72
430.53	2349.90
430.72	2349.90
430.91	2188.40
431.10	2284.36
431.28	2406.07
431.47	2249.25
431.66	2375.64
431.85	2284.36
432.03	2455.22
432.22	2485.65
432.41	2342.88
432.60	2356.92
432.79	2438.84
432.97	2406.07
433.16	2490.33
433.35	2413.09
433.54	2396.71
433.72	2572.25
433.91	2511.39
434.10	2523.10
434.28	2492.67
434.47	2485.65
434.66	2558.21
434.85	2628.42
435.03	2609.70
435.22	2534.80
435.41	2672.89
435.59	2644.81
435.78	2640.12
435.97	2691.62
436.16	2590.97
436.34	2733.75
436.53	2686.94
436.72	2808.64
436.90	2635.44
437.09	2724.38
437.28	2551.18
437.46	2857.79
437.65	2829.71
437.84	2780.56
438.02	2757.15
438.21	2782.90
438.40	2801.62
438.58	2867.16
438.77	2902.26
438.96	2754.81
439.14	2881.20
439.33	2881.20
439.52	3075.46
439.70	2960.78
439.89	2970.14
440.08	3021.63
440.26	2974.82
440.45	2991.20
440.63	3089.51
440.82	3227.60
441.01	3185.47
441.19	3220.58
441.38	3173.77
441.57	3218.24
441.75	3236.96
441.94	3384.41
442.12	3276.75
442.31	3410.16
442.50	3379.73
442.68	3232.28
442.87	3361.01
443.05	3309.52
443.24	3365.69
443.43	3382.07
443.61	3384.41
443.80	3562.30
443.98	3375.05
444.17	3337.60
444.35	3449.95
444.54	3375.05
444.73	3468.67
444.91	3506.12
445.10	3433.57
445.28	3426.54
445.47	3517.83
445.65	3396.12
445.84	3459.31
446.02	3344.63
446.21	3351.65
446.39	3356.33
446.58	3412.50
446.77	3419.52
446.95	3433.57
447.14	3438.25
447.32	3454.63
447.51	3559.95
447.69	3478.04
447.88	3480.38
448.06	3609.11
448.25	3438.25
448.43	3384.41
448.62	3445.27
448.80	3515.48
448.99	3557.61
449.17	3531.87
449.36	3543.57
449.54	3590.38
449.73	3761.24
449.91	3578.68
450.10	3747.20
450.28	3705.07
450.46	3613.79
450.65	3719.11
450.83	3768.26
451.02	3712.09
451.20	3791.67
451.39	3805.71
451.57	3808.05
451.76	3854.86
451.94	3859.54
452.13	3929.76
452.31	3815.07
452.49	3667.62
452.68	3873.59
452.86	3981.25
453.05	3859.54
453.23	3953.16
453.42	3775.28
453.60	3939.12
453.78	3894.65
453.97	3901.67
454.15	3894.65
454.34	3936.78
454.52	3997.64
454.70	4021.04
454.89	4093.60
455.07	3894.65
455.26	3990.61
455.44	4177.86
455.62	4248.07
455.81	4042.11
455.99	4250.41
456.17	4102.96
456.36	4149.77
456.54	4231.69
456.73	4259.78
456.91	4400.21
457.09	4325.31
457.28	4320.63
457.46	4269.14
457.64	4390.84
457.83	4358.08
458.01	4400.21
458.19	4416.59
458.38	4329.99
458.56	4313.61
458.74	4498.51
458.93	4367.44
459.11	4365.10
459.29	4409.57
459.48	4503.19
459.66	4484.47
459.84	4573.41
460.03	4599.15
460.21	4468.08
460.39	4545.32
460.57	4425.95
460.76	4615.54
460.94	4596.81
461.12	4669.37
461.31	4510.21
461.49	4542.98
461.67	4634.26
461.85	4662.35
462.04	4606.17
462.22	5093.01
462.40	4760.65
462.59	4695.11
462.77	4943.21
462.95	4660.01
463.13	4795.76
463.32	4777.03
463.50	4807.46
463.68	4954.91
463.86	4758.31
464.05	4770.01
464.23	4594.47
464.41	4901.08
464.59	4830.87
464.78	4917.47
464.96	4863.63
465.14	4910.44
465.32	4968.96
465.50	4929.17
465.69	4905.76
465.87	4868.31
466.05	4901.08
466.23	4821.50
466.41	4999.38
466.60	5142.16
466.78	4945.55
466.96	4887.04
467.14	4997.04
467.32	5165.56
467.51	5071.94
467.69	5100.03
467.87	5153.86
468.05	5078.96
468.23	5095.35
468.41	5048.54
468.60	5226.42
468.78	5259.18
468.96	5207.69
469.14	5310.68
469.32	5214.71
469.50	5107.05
469.69	5231.10
469.87	5392.59
470.05	5467.49
470.23	5479.19
470.41	5437.06
470.59	5474.51
470.77	5392.59
470.95	5371.53
471.14	5526.00
471.32	5600.90
471.50	5572.82
471.68	5556.43
471.86	5437.06
472.04	5558.77
472.22	5668.78
472.40	5685.16
472.58	5685.16
472.77	5706.23
472.95	5799.85
473.13	5949.64
473.31	5680.48
473.49	5809.21
473.67	5717.93
473.85	5755.38
474.03	5935.60
474.21	5975.39
474.39	5949.64
474.57	5961.34
474.75	6125.18
474.93	6289.02
475.12	6349.87
475.30	6207.10
475.48	6200.08
475.66	6132.20
475.84	6333.49
476.02	6389.66
476.20	6312.42
476.38	6682.23
476.56	6614.35
476.74	6546.48
476.92	6438.81
477.10	6394.34
477.28	6686.91
477.46	6757.13
477.64	6848.41
477.82	6700.95
478.00	6754.79
478.18	6878.83
478.36	6991.18
478.54	7140.97
478.72	7068.42
478.90	7005.22
479.08	7229.91
479.26	7169.06
479.44	7274.38
479.62	7227.57
479.80	7468.65
479.98	7449.93
480.16	7297.79
480.34	7583.34
480.52	7566.95
480.70	7445.24
480.88	7588.02
481.06	7658.23
481.24	7716.75
481.41	7784.62
481.59	7950.80
481.77	7950.80
481.95	8084.21
482.13	8070.17
482.31	8060.80
482.49	8283.16
482.67	8023.36
482.85	8250.39
483.03	8404.86
483.21	8358.05
483.39	8667.00
483.57	8603.81
483.74	8683.39
483.92	8599.13
484.10	8781.69
484.28	8858.93
484.46	9125.75
484.64	9172.56
484.82	8968.93
485.00	9151.49
485.18	9076.60
485.35	9397.25
485.53	9109.36
485.71	9504.92
485.89	9584.49
486.07	9706.20
486.25	9451.08
486.43	9561.09
486.61	9528.32
486.78	9790.46
486.96	9825.57
487.14	10099.41
487.32	10052.60
487.50	10066.64
487.68	10246.87
487.85	10366.23
488.03	10562.84
488.21	10628.37
488.39	10429.43
488.57	10806.25
488.75	10686.89
488.92	10677.52
489.10	10855.40
489.28	10911.58
489.46	11063.71
489.64	10846.04
489.81	11257.98
489.99	11372.66
490.17	11365.64
490.35	11499.05
490.53	11477.99
490.70	11662.89
490.88	11318.83
491.06	11639.48
491.24	11815.02
491.41	11503.73
491.59	11749.49
491.77	12102.91
491.95	12109.93
492.13	12072.48
492.30	12212.92
492.48	12233.98
492.66	12053.76
492.84	12304.20
493.01	12299.52
493.19	12610.81
493.37	12851.88
493.54	12788.69
493.72	12645.91
493.90	12870.61
494.08	13069.55
494.25	13238.07
494.43	13277.86
494.61	13247.43
494.79	13525.96
494.96	13359.78
495.14	13401.91
495.32	13308.29
495.49	13544.68
495.67	13420.63
495.85	13811.50
496.02	13839.59
496.20	13729.58
496.38	13912.14
496.55	13942.57
496.73	14406.00
496.91	14019.81
497.09	14113.43
497.26	14295.99
497.44	13947.25
497.62	14387.27
497.79	14363.87
497.97	14478.55
498.14	14822.61
498.32	14604.94
498.50	14717.29
498.67	14424.72
498.85	15000.49
499.03	14946.66
499.20	14820.27
499.38	14970.07
499.56	15012.20
499.73	15414.77
499.91	15267.31
500.08	15412.43
500.26	15187.74
500.44	15400.72
500.61	15798.62
500.79	15524.77
500.97	15433.49
501.14	15777.55
501.32	15688.61
501.49	15941.39
501.67	15676.91
501.84	15742.44
502.02	15871.17
502.20	16006.92
502.37	16147.36
502.55	15943.73
502.72	16187.14
502.90	15812.66
503.07	16009.26
503.25	16156.72
503.43	16336.94
503.60	16327.58
503.78	16355.66
503.95	16334.60
504.13	16505.46
504.30	16725.47
504.48	16805.05
504.65	16643.55
504.83	16891.65
505.01	16901.01
505.18	16893.99
505.36	17216.98
505.53	16865.90
505.71	17165.49
505.88	16896.33
506.06	16989.95
506.23	17240.39
506.41	17011.01
506.58	17413.59
506.76	17530.61
506.93	17722.54
507.11	17224.00
507.28	17392.52
507.46	17441.67
507.63	17568.06
507.81	17783.39
507.98	17839.56
508.16	18017.44
508.33	17755.30
508.50	17729.56
508.68	17954.25
508.85	17834.88
509.03	17781.05
509.20	17900.42
509.38	18321.71
509.55	18286.61
509.73	18532.36
509.90	18291.29
510.08	18167.24
510.25	18300.65
510.42	18260.86
510.60	18569.81
510.77	18721.95
510.95	18558.11
511.12	18651.73
511.30	18417.68
511.47	18579.17
511.64	18817.91
511.82	19157.28
511.99	18789.82
512.17	19080.05
512.34	18951.32
512.51	19204.10
512.69	19077.71
512.86	19199.41
513.04	19286.01
513.21	19344.53
513.38	19541.13
513.56	19150.26
513.73	19112.81
513.90	19679.22
514.08	19339.85
514.25	19522.41
514.43	19803.27
514.60	19939.02
514.77	19805.61
514.95	19990.52
515.12	19597.31
515.29	19843.06
515.47	20276.06
515.64	20084.14
515.81	20135.63
515.99	20102.86
516.16	20100.52
516.33	20137.97
516.51	20072.43
516.68	20201.16
516.85	20210.53
517.03	19981.15
517.20	20365.00
517.37	20505.43
517.54	20348.62
517.72	20608.42
517.89	20369.68
518.06	20517.14
518.24	20418.83
518.41	20673.95
518.58	20535.86
518.75	20610.76
518.93	20781.62
519.10	20599.05
519.27	20793.32
519.45	20844.81
519.62	20400.11
519.79	20837.79
519.96	21242.70
520.14	21099.93
520.31	21235.68
520.48	21387.82
520.65	21231.00
520.83	21256.75
521.00	21275.47
521.17	21352.71
521.34	21174.83
521.52	21216.96
521.69	21539.95
521.86	21373.77
522.03	21685.06
522.20	21624.21
522.38	21584.42
522.55	21617.19
522.72	21982.31
522.89	21958.91
523.07	22005.72
523.24	21832.52
523.41	22235.09
523.58	21867.63
523.75	22211.68
523.92	21869.97
524.10	22209.34
524.27	22207.00
524.44	22300.62
524.61	22492.55
524.78	22480.85
524.96	22143.81
525.13	22309.99
525.30	22223.39
525.47	22647.02
525.64	22712.56
525.81	22314.67
525.98	22471.48
526.16	22979.38
526.33	23138.54
526.50	22970.02
526.67	22485.53
526.84	22998.10
527.01	22867.03
527.18	23157.26
527.36	22897.46
527.53	22668.09
527.70	23222.80
527.87	22939.59
528.04	23126.83
528.21	23119.81
528.38	23049.60
528.55	23669.84
528.72	23398.34
528.89	23407.70
529.07	23580.90
529.24	23475.57
529.41	23250.88
529.58	23346.84
529.75	23206.41
529.92	23728.35
530.09	23431.10
530.26	23534.09
530.43	24032.62
530.60	23606.64
530.77	23730.69
530.94	23695.58
531.11	23826.65
531.28	23784.52
531.46	23740.05
531.63	23707.29
531.80	23711.97
531.97	24044.32
532.14	24112.20
532.31	23810.27
532.48	24231.57
532.65	24025.60
532.82	24013.90
532.99	23894.53
533.16	24049.00
533.33	24060.71
533.50	24435.19
533.67	24210.50
533.84	24074.75
534.01	23981.13
534.18	24219.86
534.35	24582.65
534.52	24215.18
534.69	24187.10
534.86	24477.32
535.03	24364.98
535.20	24783.93
535.37	24641.16
535.54	24584.99
535.71	24489.03
535.88	24842.45
536.05	24280.72
536.22	24580.31
536.38	24893.94
536.55	24592.01
536.72	24900.96
536.89	24720.74
537.06	24978.20
537.23	24744.14
537.40	24905.64
537.57	25071.82
537.74	25188.85
537.91	25394.81
538.08	24922.02
538.25	25109.27
538.42	25223.95
538.59	25294.17
538.75	25001.60
538.92	25256.72
539.09	25205.23
539.26	25186.50
539.43	25380.77
539.60	25577.37
539.77	25413.54
539.94	25572.69
540.11	25383.11
540.28	25397.15
540.44	25399.49
540.61	25769.30
540.78	25579.71
540.95	25401.83
541.12	25530.56
541.29	25996.33
541.46	25366.73
541.62	25748.23
541.79	25479.07
541.96	25235.66
542.13	25727.17
542.30	25940.16
542.47	26162.51
542.63	26036.12
542.80	25989.31
542.97	26115.70
543.14	26555.72
543.31	26286.56
543.48	26333.37
543.64	26677.43
543.81	26462.10
543.98	26326.35
544.15	26560.40
544.32	26511.25
544.48	26361.45
544.65	26544.02
544.82	26408.26
544.99	26274.85
545.16	26366.13
545.32	26324.01
545.49	26663.38
545.66	26998.08
545.83	26808.50
546.00	26740.62
546.16	26588.49
546.33	26469.12
546.50	26471.46
546.67	26576.78
546.83	26930.20
547.00	26810.84
547.17	26616.57
547.34	26775.73
547.50	26726.58
547.67	26932.54
547.84	26668.06
548.00	26913.82
548.17	27040.21
548.34	26925.52
548.51	26960.63
548.67	27367.88
548.84	27199.37
549.01	27208.73
549.18	27061.27
549.34	26984.04
549.51	26948.93
549.68	27190.00
549.84	26948.93
550.01	27475.55
550.18	27140.85
550.34	27515.34
550.51	27433.42
550.68	27435.76
550.84	27157.24
551.01	27393.63
551.18	27211.07
551.34	27143.19
551.51	27187.66
551.68	27435.76
551.84	27473.21
552.01	27442.78
552.18	27473.21
552.34	27550.45
552.51	27887.48
552.68	27700.24
552.84	27583.21
553.01	27714.28
553.18	27814.93
553.34	27714.28
553.51	27831.31
553.67	28032.60
553.84	28034.94
554.01	28009.19
554.17	27566.83
554.34	27859.40
554.51	27751.73
554.67	27840.67
554.84	27964.72
555.00	28156.64
555.17	27683.86
555.33	28072.39
555.50	28250.27
555.67	28224.52
555.83	28009.19
556.00	27873.44
556.16	28290.06
556.33	28149.62
556.50	28304.10
556.66	27974.08
556.83	27852.38
556.99	28800.29
557.16	28074.73
557.32	28276.01
557.49	28191.75
557.65	28044.30
557.82	28301.76
557.98	28259.63
558.15	28423.47
558.32	28556.88
558.48	28641.14
558.65	28631.77
558.81	28531.13
558.98	28292.40
559.14	28687.95
559.31	28158.99
559.47	28563.90
559.64	28542.83
559.80	28683.27
559.97	28489.00
560.13	28699.65
560.30	28746.46
560.46	28985.19
560.63	28875.19
560.79	28568.58
560.96	28594.32
561.12	28430.49
561.29	28589.64
561.45	28652.84
561.61	28971.15
561.78	28589.64
561.94	28718.37
562.11	28912.64
562.27	29120.95
562.44	28233.88
562.60	28709.01
562.77	28914.98
562.93	28580.28
563.10	29170.10
563.26	28779.23
563.42	29003.92
563.59	29254.36
563.75	28751.14
563.92	28868.17
564.08	29010.94
564.24	29074.13
564.41	28528.79
564.57	28877.53
564.74	28772.21
564.90	28809.65
565.07	28989.88
565.23	29214.57
565.39	29109.24
565.56	29074.13
565.72	28907.96
565.88	29230.95
566.05	28903.28
566.21	29120.95
566.38	29090.52
566.54	28973.49
566.70	29347.98
566.87	29083.50
567.03	29130.31
567.19	29280.10
567.36	29371.38
567.52	29191.16
567.68	29106.90
567.85	28975.83
568.01	29303.51
568.17	29450.96
568.34	29003.92
568.50	29486.07
568.66	29397.13
568.83	29677.99
568.99	29226.27
569.15	29013.28
569.32	29287.12
569.48	29355.00
569.64	29345.64
569.81	29266.06
569.97	29078.82
570.13	29523.52
570.30	29558.63
570.46	29244.99
570.62	29186.48
570.78	29523.52
570.95	29186.48
571.11	29181.80
571.27	29249.67
571.43	29179.46
571.60	29429.90
571.76	29675.65
571.92	29544.58
572.09	29469.69
572.25	29453.30
572.41	29476.71
572.57	29371.38
572.74	29610.12
572.90	29443.94
573.06	29324.57
573.22	29303.51
573.38	29586.71
573.55	29593.73
573.71	29453.30
573.87	29830.13
574.03	29525.86
574.20	29380.74
574.36	29443.94
574.52	29507.13
574.68	29350.32
574.84	29659.27
575.01	29483.73
575.17	29357.34
575.33	29544.58
575.49	29355.00
575.65	29933.11
575.82	29575.01
575.98	29713.10
576.14	30022.05
576.30	29696.72
576.46	29483.73
576.62	29507.13
576.79	29591.39
576.95	29530.54
577.11	29331.59
577.27	29556.28
577.43	29743.53
577.59	29607.78
577.75	29570.33
577.92	29303.51
578.08	29532.88
578.24	29345.64
578.40	29537.56
578.56	29731.83
578.72	29961.20
578.88	30316.96
579.04	30047.80
579.21	29628.84
579.37	29963.54
579.53	29612.46
579.69	29429.90
579.85	29500.11
580.01	29614.80
580.17	29593.73
580.33	29783.32
580.49	29371.38
580.65	29692.04
580.82	29872.26
580.98	29778.64
581.14	29556.28
581.30	29689.70
581.46	29741.19
581.62	29411.17
581.78	29560.97
581.94	29734.17
582.10	29376.06
582.26	29855.87
582.42	29795.02
582.58	29823.11
582.74	29944.81
582.90	29940.13
583.06	30087.59
583.22	29710.76
583.38	30141.42
583.54	29881.62
583.70	29390.11
583.86	29720.12
584.02	29340.96
584.18	29802.04
584.34	29661.61
584.50	29869.92
584.66	29841.83
584.82	29495.43
584.98	29455.64
585.14	29937.79
585.30	29783.32
585.46	29633.52
585.62	29493.09
585.78	30089.93
585.94	29652.25
586.10	29991.62
586.26	30412.92
586.42	29862.90
586.58	30356.75
586.74	29577.35
586.90	29589.05
587.06	29619.48
587.22	29890.98
587.38	29855.87
587.54	30017.37
587.70	30199.93
587.86	29886.30
588.02	29830.13
588.18	30036.09
588.34	29989.28
588.49	30148.44
588.65	29949.50
588.81	29582.03
588.97	29919.07
589.13	29865.24
589.29	30162.48
589.45	29984.60
589.61	30401.22
589.77	30038.44
589.93	30452.71
590.08	29963.54
590.24	30132.06
590.40	30401.22
590.56	29963.54
590.72	30022.05
590.88	29930.77
591.04	29687.36
591.20	29963.54
591.35	29900.34
591.51	30684.42
591.67	30059.50
591.83	30349.73
591.99	30242.06
