SpectraSuite Data File
++++++++++++++++++++++++++++++++++++
Date: Fri Oct 18 13:58:12 GMT-05:00 2013
User: bianchi
Dark Spectrum Present: No
Reference Spectrum Present: No
Number of Sampled Component Spectra: 1
Spectrometers: USB2+H05261
Integration Time (usec): 50000 (USB2+H05261)
Spectra Averaged: 1 (USB2+H05261)
Boxcar Smoothing: 0 (USB2+H05261)
Correct for Electrical Dark: No (USB2+H05261)
Strobe/Lamp Enabled: No (USB2+H05261)
Correct for Detector Non-linearity: No (USB2+H05261)
Correct for Stray Light: No (USB2+H05261)
Number of Pixels in Processed Spectrum: 2048
>>>>>Begin Processed Spectral Data<<<<<
365.73	0.00
365.92	0.00
366.12	0.00
366.32	0.00
366.52	0.00
366.72	0.00
366.91	0.00
367.11	0.00
367.31	0.00
367.51	0.00
367.70	0.00
367.90	0.00
368.10	0.00
368.30	0.00
368.49	0.00
368.69	0.00
368.89	0.00
369.09	0.00
369.28	0.00
369.48	0.00
369.68	0.00
369.87	0.00
370.07	0.00
370.27	0.00
370.47	0.00
370.66	131.07
370.86	140.43
371.06	135.75
371.25	95.96
371.45	112.35
371.65	191.92
371.84	184.90
372.04	110.01
372.24	170.86
372.44	208.31
372.63	222.35
372.83	278.52
373.03	105.32
373.22	119.37
373.42	241.08
373.62	203.63
373.81	248.10
374.01	191.92
374.21	224.69
374.40	287.89
374.60	208.31
374.79	276.18
374.99	245.76
375.19	292.57
375.38	297.25
375.58	222.35
375.78	325.33
375.97	264.48
376.17	308.95
376.37	257.46
376.56	341.72
376.76	227.03
376.95	262.14
377.15	236.39
377.35	351.08
377.54	334.70
377.74	217.67
377.93	262.14
378.13	262.14
378.33	334.70
378.52	264.48
378.72	245.76
378.91	276.18
379.11	294.91
379.31	334.70
379.50	320.65
379.70	374.49
379.89	332.36
380.09	334.70
380.28	355.76
380.48	306.61
380.68	330.02
380.87	229.37
381.07	313.63
381.26	355.76
381.46	308.95
381.65	388.53
381.85	421.30
382.04	339.38
382.24	313.63
382.43	320.65
382.63	320.65
382.83	365.12
383.02	313.63
383.22	433.00
383.41	344.06
383.61	355.76
383.80	367.46
384.00	414.27
384.19	423.64
384.39	414.27
384.58	433.00
384.78	334.70
384.97	322.99
385.17	379.17
385.36	456.40
385.56	409.59
385.75	397.89
385.95	390.87
386.14	430.66
386.34	372.15
386.53	397.89
386.72	477.47
386.92	425.98
387.11	409.59
387.31	498.53
387.50	440.02
387.70	458.74
387.89	493.85
388.09	440.02
388.28	435.34
388.48	465.77
388.67	440.02
388.86	379.17
389.06	369.80
389.25	505.56
389.45	521.94
389.64	442.36
389.84	451.72
390.03	493.85
390.22	489.17
390.42	463.43
390.61	524.28
390.81	526.62
391.00	561.73
391.19	505.56
391.39	486.83
391.58	599.18
391.78	507.90
391.97	514.92
392.16	491.51
392.36	535.98
392.55	517.26
392.75	561.73
392.94	580.45
393.13	538.32
393.33	610.88
393.52	627.26
393.71	582.79
393.91	564.07
394.10	526.62
394.29	585.13
394.49	638.97
394.68	655.35
394.88	627.26
395.07	601.52
395.26	629.60
395.46	578.11
395.65	718.54
395.84	664.71
396.04	662.37
396.23	631.94
396.42	629.60
396.62	599.18
396.81	641.31
397.00	601.52
397.19	692.80
397.39	617.90
397.58	657.69
397.77	650.67
397.97	779.40
398.16	741.95
398.35	760.67
398.55	737.27
398.74	763.01
398.93	837.91
399.12	751.31
399.32	758.33
399.51	720.88
399.70	683.44
399.90	774.72
400.09	741.95
400.28	812.17
400.47	718.54
400.67	786.42
400.86	800.46
401.05	770.04
401.24	866.00
401.44	875.36
401.63	753.65
401.82	800.46
402.01	809.83
402.21	882.38
402.40	870.68
402.59	858.98
402.78	802.80
402.97	791.10
403.17	976.00
403.36	929.19
403.55	915.15
403.74	833.23
403.93	957.28
404.13	919.83
404.32	858.98
404.51	938.55
404.70	976.00
404.89	917.49
405.09	1011.11
405.28	1018.13
405.47	936.21
405.66	971.32
405.85	1046.22
406.05	908.13
406.24	947.92
406.43	922.17
406.62	1057.92
406.81	1039.20
407.00	966.64
407.20	1076.65
407.39	1093.03
407.58	1029.84
407.77	1100.05
407.96	1196.01
408.15	1107.07
408.34	1022.81
408.54	1060.26
408.73	1071.97
408.92	1184.31
409.11	1210.06
409.30	1123.46
409.49	1116.44
409.68	1217.08
409.87	1245.16
410.07	1205.38
410.26	1219.42
410.45	1167.93
410.64	1177.29
410.83	1238.14
411.02	1139.84
411.21	1294.32
411.40	1266.23
411.59	1277.93
411.78	1357.51
411.98	1235.80
412.17	1240.48
412.36	1348.15
412.55	1394.96
412.74	1380.92
412.93	1390.28
413.12	1481.56
413.31	1469.86
413.50	1399.64
413.69	1380.92
413.88	1519.01
414.07	1392.62
414.26	1490.92
414.45	1399.64
414.64	1460.49
414.83	1519.01
415.02	1495.60
415.22	1425.39
415.41	1631.35
415.60	1633.69
415.79	1619.65
415.98	1678.16
416.17	1563.48
416.36	1582.20
416.55	1617.31
416.74	1762.42
416.93	1689.87
417.12	1720.29
417.31	1664.12
417.50	1762.42
417.69	1764.76
417.88	1811.57
418.07	1720.29
418.26	1720.29
418.45	1708.59
418.64	1902.86
418.83	1816.26
419.02	1769.44
419.21	1860.73
419.39	1867.75
419.58	1771.79
419.77	1795.19
419.96	1895.83
420.15	1865.41
420.34	1987.11
420.53	1933.28
420.72	1984.77
420.91	2033.93
421.10	1961.37
421.29	2101.80
421.48	1900.52
421.67	2001.16
421.86	2012.86
422.05	2057.33
422.24	1996.48
422.43	1912.22
422.61	2066.69
422.80	2012.86
422.99	2064.35
423.18	2036.27
423.37	1947.33
423.56	1949.67
423.75	2040.95
423.94	1923.92
424.13	1975.41
424.32	1961.37
424.50	2141.59
424.69	2050.31
424.88	2064.35
425.07	1959.03
425.26	2045.63
425.45	2155.63
425.64	2047.97
425.83	2052.65
426.01	2094.78
426.20	2160.31
426.39	1998.82
426.58	2125.21
426.77	2010.52
426.96	2087.76
427.15	2132.23
427.33	2279.68
427.52	2165.00
427.71	2153.29
427.90	2230.53
428.09	2244.57
428.28	2307.77
428.46	2256.28
428.65	2270.32
428.84	2345.22
429.03	2230.53
429.22	2265.64
429.40	2361.60
429.59	2317.13
429.78	2162.66
429.97	2174.36
430.16	2326.49
430.34	2312.45
430.53	2403.73
430.72	2300.75
430.91	2361.60
431.10	2331.17
431.28	2518.42
431.47	2485.65
431.66	2452.88
431.85	2366.28
432.03	2469.27
432.22	2473.95
432.41	2403.73
432.60	2537.14
432.79	2509.05
432.97	2525.44
433.16	2654.17
433.35	2480.97
433.54	2523.10
433.72	2588.63
433.91	2576.93
434.10	2579.27
434.28	2576.93
434.47	2630.76
434.66	2597.99
434.85	2679.91
435.03	2583.95
435.22	2581.61
435.41	2576.93
435.59	2782.90
435.78	2581.61
435.97	2679.91
436.16	2717.36
436.34	2649.49
436.53	2874.18
436.72	2815.66
436.90	2782.90
437.09	2738.43
437.28	2708.00
437.46	2986.52
437.65	2916.31
437.84	2942.05
438.02	2775.88
438.21	2850.77
438.40	2843.75
438.58	2993.55
438.77	3007.59
438.96	2888.22
439.14	2888.22
439.33	2902.26
439.52	2895.24
439.70	3148.02
439.89	3061.42
440.08	3110.57
440.26	3206.53
440.45	3145.68
440.63	3103.55
440.82	3215.90
441.01	3005.25
441.19	3222.92
441.38	3164.40
441.57	3267.39
441.75	3351.65
441.94	3344.63
442.12	3330.58
442.31	3346.97
442.50	3417.18
442.68	3372.71
442.87	3396.12
443.05	3246.32
443.24	3428.88
443.43	3557.61
443.61	3492.08
443.80	3550.59
443.98	3363.35
444.17	3375.05
444.35	3461.65
444.54	3524.85
444.73	3468.67
444.91	3473.36
445.10	3545.91
445.28	3496.76
445.47	3494.42
445.65	3412.50
445.84	3562.30
446.02	3585.70
446.21	3438.25
446.39	3506.12
446.58	3564.64
446.77	3480.38
446.95	3459.31
447.14	3630.17
447.32	3623.15
447.51	3499.10
447.69	3707.41
447.88	3471.01
448.06	3590.38
448.25	3599.74
448.43	3653.58
448.62	3637.19
448.80	3606.77
448.99	3791.67
449.17	3637.19
449.36	3632.51
449.54	3651.24
449.73	3880.61
449.91	3765.92
450.10	3733.15
450.28	3810.39
450.46	3822.09
450.65	3840.82
450.83	3852.52
451.02	3791.67
451.20	3836.14
451.39	3892.31
451.57	3749.54
451.76	3882.95
451.94	3899.33
452.13	4016.36
452.31	4016.36
452.49	3777.62
452.68	4074.87
452.86	3854.86
453.05	4081.89
453.23	3999.98
453.42	3887.63
453.60	3927.42
453.78	4063.17
453.97	3882.95
454.15	3999.98
454.34	3932.10
454.52	4100.62
454.70	4138.07
454.89	3997.64
455.07	4198.92
455.26	4163.81
455.44	4182.54
455.62	4147.43
455.81	4152.11
455.99	4311.27
456.17	4283.18
456.36	4182.54
456.54	4365.10
456.73	4346.37
456.91	4458.72
457.09	4395.53
457.28	4372.12
457.46	4351.06
457.64	4540.64
457.83	4425.95
458.01	4355.74
458.19	4554.68
458.38	4587.45
458.56	4479.79
458.74	4542.98
458.93	4503.19
459.11	4657.67
459.29	4447.02
459.48	4650.64
459.66	4592.13
459.84	4599.15
460.03	4603.83
460.21	4795.76
460.39	4678.73
460.57	4664.69
460.76	4678.73
460.94	4699.80
461.12	4697.46
461.31	4667.03
461.49	4711.50
461.67	4770.01
461.85	4772.35
462.04	4772.35
462.22	5097.69
462.40	4833.21
462.59	4840.23
462.77	4891.72
462.95	4926.83
463.13	4971.30
463.32	4835.55
463.50	4844.91
463.68	5071.94
463.86	4903.42
464.05	4849.59
464.23	4882.36
464.41	4997.04
464.59	5018.11
464.78	5205.35
464.96	4980.66
465.14	5123.43
465.32	5057.90
465.50	4975.98
465.69	5153.86
465.87	4966.62
466.05	4943.21
466.23	5048.54
466.41	5308.34
466.60	5305.99
466.78	5153.86
466.96	5205.35
467.14	5083.64
467.32	5217.05
467.51	5181.95
467.69	5160.88
467.87	5301.31
468.05	5364.51
468.23	5423.02
468.41	5394.93
468.60	5249.82
468.78	5338.76
468.96	5179.61
469.14	5366.85
469.32	5521.32
469.50	5324.72
469.69	5603.24
469.87	5467.49
470.05	5586.86
470.23	5547.07
470.41	5371.53
470.59	5692.18
470.77	5458.13
470.95	5626.65
471.14	5715.59
471.32	5481.53
471.50	5727.29
471.68	5753.04
471.86	5741.33
472.04	5724.95
472.22	6019.86
472.40	5760.06
472.58	5984.75
472.77	5909.85
472.95	5970.71
473.13	6200.08
473.31	5900.49
473.49	6099.44
473.67	5975.39
473.85	5954.32
474.03	6118.16
474.21	6139.23
474.39	6270.30
474.57	6314.77
474.75	6366.26
474.93	6399.02
475.12	6249.23
475.30	6438.81
475.48	6300.72
475.66	6361.58
475.84	6569.88
476.02	6509.03
476.20	6576.91
476.38	6668.19
476.56	6789.89
476.74	6719.68
476.92	6729.04
477.10	6567.54
477.28	7037.99
477.46	6895.22
477.64	6951.39
477.82	6951.39
478.00	7150.34
478.18	7115.23
478.36	7201.83
478.54	7253.32
478.72	7040.33
478.90	7356.30
479.08	7496.74
479.26	7414.82
479.44	7557.59
479.62	7520.14
479.80	7581.00
479.98	7616.10
480.16	7667.60
480.34	7578.65
480.52	7925.05
480.70	7852.50
480.88	7597.38
481.06	7908.67
481.24	7887.61
481.41	7983.57
481.59	8149.75
481.77	8297.20
481.95	8025.70
482.13	8222.30
482.31	8348.69
482.49	8365.07
482.67	8238.69
482.85	8498.49
483.03	8648.28
483.21	8781.69
483.39	8809.78
483.57	8697.43
483.74	8784.03
483.92	8926.80
484.10	8968.93
484.28	9235.75
484.46	9261.50
484.64	9579.81
484.82	9186.60
485.00	9514.28
485.18	9291.93
485.35	9516.62
485.53	9437.04
485.71	9694.50
485.89	9811.53
486.07	9830.25
486.25	9682.80
486.43	10176.65
486.61	9954.30
486.78	9980.04
486.96	10143.88
487.14	10258.57
487.32	10382.62
487.50	10560.50
487.68	10394.32
487.85	10572.20
488.03	10621.35
488.21	10913.92
488.39	10829.66
488.57	10764.12
488.75	11126.91
488.92	11194.78
489.10	11103.50
489.28	11332.87
489.46	11314.15
489.64	11325.85
489.81	11482.67
489.99	11653.53
490.17	11541.18
490.35	11974.18
490.53	11885.24
490.70	11791.62
490.88	11840.77
491.06	11971.84
491.24	11852.47
491.41	12149.72
491.59	12308.88
491.77	12397.82
491.95	12332.28
492.13	12580.38
492.30	12580.38
492.48	12512.50
492.66	12561.66
492.84	12573.36
493.01	12877.63
493.19	12730.17
493.37	13125.72
493.54	13118.70
493.72	13214.66
493.90	13202.96
494.08	13268.50
494.25	13291.90
494.43	13551.70
494.61	13490.85
494.79	13645.32
494.96	13647.66
495.14	13830.23
495.32	13745.97
495.49	14218.75
495.67	14202.37
495.85	14232.80
496.02	14256.20
496.20	14295.99
496.38	14307.69
496.55	14462.17
496.73	14537.07
496.91	14340.46
497.09	14656.43
497.26	14960.70
497.44	14705.59
497.62	14670.48
497.79	14913.89
497.97	14995.81
498.14	15239.23
498.32	15087.09
498.50	15410.09
498.67	15442.85
498.85	15131.56
499.03	15323.49
499.20	15225.18
499.38	15573.92
499.56	15597.33
499.73	15852.45
499.91	15728.40
500.08	15934.37
500.26	15803.30
500.44	15812.66
500.61	15824.36
500.79	15939.05
500.97	16198.85
501.14	16137.99
501.32	16362.69
501.49	16299.49
501.67	16163.74
501.84	16428.22
502.02	16276.09
502.20	16273.74
502.37	16608.44
502.55	16545.25
502.72	16592.06
502.90	16854.20
503.07	16589.72
503.25	16641.21
503.43	16774.62
503.60	16985.27
503.78	17216.98
503.95	16968.88
504.13	17233.36
504.30	17245.07
504.48	17071.87
504.65	16908.03
504.83	17385.50
505.01	17116.34
505.18	17715.51
505.36	17455.72
505.53	17263.79
505.71	17521.25
505.88	17774.03
506.06	17502.53
506.23	17846.58
506.41	17872.33
506.58	17820.84
506.76	18094.68
506.93	17982.34
507.11	17977.65
507.28	18038.51
507.46	18113.41
507.63	18022.12
507.81	18347.46
507.98	18209.37
508.16	18274.90
508.33	18401.29
508.50	18476.19
508.68	18457.46
508.85	18728.97
509.03	18590.88
509.20	18930.25
509.38	19260.27
509.55	18787.48
509.73	18677.48
509.90	18981.74
510.08	19021.53
510.25	18965.36
510.42	19377.30
510.60	19066.00
510.77	19449.85
510.95	19391.34
511.12	19126.86
511.30	19449.85
511.47	19194.73
511.64	19658.16
511.82	19466.24
511.99	19644.12
512.17	19620.71
512.34	19632.41
512.51	19901.58
512.69	19913.28
512.86	19637.09
513.04	19992.86
513.21	19906.26
513.38	19716.67
513.56	20163.72
513.73	20088.82
513.90	20147.33
514.08	19939.02
514.25	20205.84
514.43	20484.37
514.60	20390.75
514.77	20280.74
514.95	20659.91
515.12	20226.91
515.29	20479.69
515.47	20531.18
515.64	20577.99
515.81	20800.34
515.99	20739.49
516.16	20915.03
516.33	20699.70
516.51	20926.73
516.68	20798.00
516.85	20727.78
517.03	20936.09
517.20	21289.51
517.37	21256.75
517.54	20989.92
517.72	20819.07
517.89	21179.51
518.06	21174.83
518.24	21317.60
518.41	21399.52
518.58	21111.63
518.75	21160.78
518.93	21628.89
519.10	21488.46
519.27	21919.12
519.45	21607.83
519.62	21352.71
519.79	21614.85
519.96	21647.61
520.14	22059.55
520.31	21804.43
520.48	22251.47
520.65	21975.29
520.83	22052.53
521.00	21996.35
521.17	21766.98
521.34	22024.44
521.52	21991.67
521.69	22309.99
521.86	22178.92
522.03	22787.46
522.20	22665.75
522.38	22511.27
522.55	22427.01
522.72	22595.53
522.89	22656.39
523.07	22831.93
523.24	22745.33
523.41	23073.00
523.58	22595.53
523.75	22824.90
523.92	22867.03
524.10	22712.56
524.27	23337.48
524.44	23119.81
524.61	23250.88
524.78	23243.86
524.96	23019.17
525.13	23044.91
525.30	23019.17
525.47	23246.20
525.64	23133.86
525.81	23431.10
525.98	23545.79
526.16	23407.70
526.33	23477.91
526.50	23337.48
526.67	23447.49
526.84	23920.28
527.01	23571.54
527.18	23812.61
527.36	23847.72
527.53	23651.11
527.70	23934.32
527.87	24023.26
528.04	23770.48
528.21	23964.75
528.38	23875.80
528.55	23983.47
528.72	24112.20
528.89	23889.85
529.07	24049.00
529.24	24147.31
529.41	24039.64
529.58	24030.28
529.75	24477.32
529.92	24208.16
530.09	23960.06
530.26	24409.45
530.43	24364.98
530.60	24219.86
530.77	24638.82
530.94	24608.39
531.11	24194.12
531.28	24423.49
531.46	24538.18
531.63	24463.28
531.80	24819.04
531.97	24528.81
532.14	24687.97
532.31	24783.93
532.48	25046.07
532.65	24830.74
532.82	24650.52
532.99	25158.42
533.16	24762.87
533.33	25298.85
533.50	25223.95
533.67	25106.93
533.84	25127.99
534.01	25125.65
534.18	24870.53
534.35	25310.55
534.52	25223.95
534.69	25160.76
534.86	25483.75
535.03	24751.17
535.20	25603.12
535.37	25378.43
535.54	25638.23
535.71	25352.68
535.88	25553.97
536.05	25308.21
536.22	25659.29
536.38	25577.37
536.55	25881.64
536.72	25481.41
536.89	25741.21
537.06	25755.26
537.23	25771.64
537.40	25706.10
537.57	26068.89
537.74	26256.13
537.91	26068.89
538.08	26132.08
538.25	25991.65
538.42	25954.20
538.59	26258.47
538.75	25888.67
538.92	26214.00
539.09	26075.91
539.26	26111.02
539.43	26520.61
539.60	26204.64
539.77	26256.13
539.94	26347.41
540.11	26267.83
540.28	26562.74
540.44	26504.23
540.61	26199.96
540.78	26129.74
540.95	26728.92
541.12	26508.91
541.29	26611.89
541.46	26426.99
541.62	26483.16
541.79	26611.89
541.96	26328.69
542.13	26384.86
542.30	26625.93
542.47	27105.74
542.63	26834.24
542.80	26951.27
542.97	27393.63
543.14	27412.35
543.31	27220.43
543.48	27040.21
543.64	27098.72
543.81	27517.68
543.98	27311.71
544.15	27262.56
544.32	27779.82
544.48	27850.03
544.65	27321.07
544.82	27269.58
544.99	27405.33
545.16	27646.41
545.32	27105.74
545.49	27323.41
545.66	27828.97
545.83	27751.73
546.00	27747.05
546.16	27964.72
546.33	27637.05
546.50	27098.72
546.67	27676.83
546.83	27536.40
547.00	27639.39
547.17	27660.45
547.34	27632.36
547.50	27920.25
547.67	27901.53
547.84	27548.11
548.00	28135.58
548.17	27768.12
548.34	27630.02
548.51	28016.21
548.67	28084.09
548.84	27948.34
549.01	28180.05
549.18	28535.81
549.34	28095.79
549.51	28173.03
549.68	28364.95
549.84	28268.99
550.01	27962.38
550.18	28067.70
550.34	28339.21
550.51	28254.95
550.68	28547.51
550.84	28053.66
551.01	28025.57
551.18	28280.69
551.34	28648.16
551.51	28603.69
551.68	28481.98
551.84	28528.79
552.01	28184.73
552.18	28624.75
552.34	28580.28
552.51	28142.60
552.68	28683.27
552.84	28460.91
553.01	28758.16
553.18	28844.76
553.34	28762.84
553.51	28594.32
553.67	29177.12
553.84	28994.56
554.01	28966.47
554.17	29139.67
554.34	28746.46
554.51	28973.49
554.67	29074.13
554.84	28811.99
555.00	29399.47
555.17	28755.82
555.33	28924.34
555.50	28896.25
555.67	28884.55
555.83	28922.00
556.00	29062.43
556.16	29170.10
556.33	29198.18
556.50	29153.71
556.66	29146.69
556.83	29132.65
556.99	29544.58
557.16	29462.66
557.32	29586.71
557.49	29614.80
557.65	29537.56
557.82	29125.63
557.98	28905.62
558.15	29465.00
558.32	29443.94
558.48	29488.41
558.65	29799.70
558.81	29661.61
558.98	29476.71
559.14	29324.57
559.31	29493.09
559.47	29727.14
559.64	29530.54
559.80	29528.20
559.97	29624.16
560.13	29624.16
560.30	29682.67
560.46	29474.37
560.63	29530.54
560.79	29848.85
560.96	29710.76
561.12	29722.46
561.29	29762.25
561.45	29687.36
561.61	29663.95
561.78	29830.13
561.94	30012.69
562.11	30118.01
562.27	29582.03
562.44	29841.83
562.60	29933.11
562.77	29692.04
562.93	29621.82
563.10	30059.50
563.26	30183.55
563.42	30040.78
563.59	29727.14
563.75	30160.14
563.92	30139.08
564.08	29621.82
564.24	30026.73
564.41	29443.94
564.57	30209.29
564.74	29556.28
564.90	29858.21
565.07	30281.85
565.23	30043.12
565.39	30087.59
565.56	30352.07
565.72	30040.78
565.88	29961.20
566.05	29869.92
566.21	29991.62
566.38	30148.44
566.54	29914.39
566.70	30106.31
566.87	30555.69
567.03	30553.35
567.19	30728.89
567.36	30082.91
567.52	30075.88
567.68	30103.97
567.85	30352.07
568.01	30429.30
568.17	30230.36
568.34	30487.82
568.50	30462.07
568.66	30319.30
568.83	30326.32
568.99	30309.94
569.15	29963.54
569.32	30272.49
569.48	30000.99
569.64	30288.87
569.81	30078.22
569.97	30508.88
570.13	30174.19
570.30	30263.13
570.46	30387.18
570.62	30319.30
570.78	30246.74
570.95	30272.49
571.11	30618.89
571.27	30286.53
571.43	30338.02
571.60	30272.49
571.76	30213.98
571.92	30597.82
572.09	30216.32
572.25	30607.19
572.41	30979.33
572.57	30668.04
572.74	30745.28
572.90	30286.53
573.06	30497.18
573.22	30270.15
573.38	30616.55
573.55	30590.80
573.71	30815.49
573.87	31143.17
574.03	30415.26
574.20	30679.74
574.36	30473.78
574.52	30710.17
574.68	30405.90
574.84	30822.51
575.01	30448.03
575.17	30338.02
575.33	30525.27
575.49	30813.15
575.65	30988.69
575.82	30958.27
575.98	30682.08
576.14	30820.17
576.30	30649.32
576.46	30668.04
576.62	30639.95
576.79	30555.69
576.95	30810.81
577.11	30618.89
577.27	30869.33
577.43	31021.46
577.59	30775.70
577.75	30780.39
577.92	30553.35
578.08	30691.44
578.24	30424.62
578.40	30405.90
578.56	30766.34
578.72	30644.63
578.88	30941.88
579.04	31208.70
579.21	30597.82
579.37	31110.40
579.53	30700.81
579.69	30782.73
579.85	30223.34
580.01	30813.15
580.17	30764.00
580.33	30895.07
580.49	30969.97
580.65	31019.12
580.82	30885.71
580.98	31058.91
581.14	30993.37
581.30	30749.96
581.46	31079.97
581.62	30649.32
581.78	30995.71
581.94	30857.62
582.10	30925.50
582.26	30501.86
582.42	30979.33
582.58	31166.57
582.74	31112.74
582.90	30960.61
583.06	31129.12
583.22	30822.51
583.38	30789.75
583.54	30869.33
583.70	30698.47
583.86	30684.42
584.02	30923.16
584.18	31094.02
584.34	31407.65
584.50	31103.38
584.66	30962.95
584.82	30611.87
584.98	30883.37
585.14	30675.06
585.30	30405.90
585.46	30726.55
585.62	30710.17
585.78	30841.24
585.94	31049.55
586.10	30911.46
586.26	30991.03
586.42	31138.49
586.58	30876.35
586.74	30684.42
586.90	31072.95
587.06	30679.74
587.22	30595.48
587.38	30857.62
587.54	30925.50
587.70	31129.12
587.86	30944.22
588.02	31482.55
588.18	31468.50
588.34	31236.79
588.49	31129.12
588.65	31079.97
588.81	30953.58
588.97	31187.64
589.13	31040.18
589.29	30735.92
589.45	31154.87
589.61	31466.16
589.77	31522.34
589.93	31274.24
590.08	31531.70
590.24	31487.23
590.40	31480.21
590.56	31742.35
590.72	31182.96
590.88	30965.29
591.04	31517.65
591.20	31592.55
591.35	31395.95
591.51	31952.99
591.67	31431.05
591.83	31859.37
