SpectraSuite Data File
++++++++++++++++++++++++++++++++++++
Date: Fri Oct 18 13:58:03 GMT-05:00 2013
User: bianchi
Dark Spectrum Present: No
Reference Spectrum Present: No
Number of Sampled Component Spectra: 1
Spectrometers: USB2+H05261
Integration Time (usec): 50000 (USB2+H05261)
Spectra Averaged: 1 (USB2+H05261)
Boxcar Smoothing: 0 (USB2+H05261)
Correct for Electrical Dark: No (USB2+H05261)
Strobe/Lamp Enabled: No (USB2+H05261)
Correct for Detector Non-linearity: No (USB2+H05261)
Correct for Stray Light: No (USB2+H05261)
Number of Pixels in Processed Spectrum: 2048
>>>>>Begin Processed Spectral Data<<<<<
365.73	0.00
365.92	0.00
366.12	0.00
366.32	0.00
366.52	0.00
366.72	0.00
366.91	0.00
367.11	0.00
367.31	0.00
367.51	0.00
367.70	0.00
367.90	0.00
368.10	0.00
368.30	0.00
368.49	0.00
368.69	0.00
368.89	0.00
369.09	0.00
369.28	0.00
369.48	0.00
369.68	0.00
369.87	0.00
370.07	0.00
370.27	0.00
370.47	0.00
370.66	102.98
370.86	67.88
371.06	42.13
371.25	175.54
371.45	182.56
371.65	159.16
371.84	133.41
372.04	201.29
372.24	119.37
372.44	131.07
372.63	198.95
372.83	257.46
373.03	180.22
373.22	236.39
373.42	117.03
373.62	205.97
373.81	210.65
374.01	224.69
374.21	255.12
374.40	220.01
374.60	287.89
374.79	229.37
374.99	217.67
375.19	294.91
375.38	292.57
375.58	344.06
375.78	250.44
375.97	236.39
376.17	252.78
376.37	266.82
376.56	241.08
376.76	222.35
376.95	243.42
377.15	222.35
377.35	304.27
377.54	294.91
377.74	315.97
377.93	248.10
378.13	283.20
378.33	306.61
378.52	266.82
378.72	276.18
378.91	297.25
379.11	294.91
379.31	227.03
379.50	290.23
379.70	290.23
379.89	278.52
380.09	388.53
380.28	215.33
380.48	313.63
380.68	231.71
380.87	210.65
381.07	299.59
381.26	266.82
381.46	332.36
381.65	346.40
381.85	332.36
382.04	325.33
382.24	334.70
382.43	304.27
382.63	330.02
382.83	376.83
383.02	433.00
383.22	423.64
383.41	365.12
383.61	388.53
383.80	358.10
384.00	365.12
384.19	365.12
384.39	372.15
384.58	463.43
384.78	252.78
384.97	407.25
385.17	299.59
385.36	407.25
385.56	393.21
385.75	447.04
385.95	353.42
386.14	440.02
386.34	402.57
386.53	369.80
386.72	374.49
386.92	400.23
387.11	484.49
387.31	510.24
387.50	365.12
387.70	423.64
387.89	411.93
388.09	355.76
388.28	402.57
388.48	400.23
388.67	484.49
388.86	468.11
389.06	528.96
389.25	489.17
389.45	454.06
389.64	512.58
389.84	428.32
390.03	491.51
390.22	437.68
390.42	395.55
390.61	538.32
390.81	507.90
391.00	493.85
391.19	496.19
391.39	409.59
391.58	538.32
391.78	514.92
391.97	552.37
392.16	521.94
392.36	510.24
392.55	519.60
392.75	540.66
392.94	547.69
393.13	606.20
393.33	500.87
393.52	538.32
393.71	545.34
393.91	568.75
394.10	512.58
394.29	575.77
394.49	547.69
394.68	627.26
394.88	667.05
395.07	638.97
395.26	512.58
395.46	631.94
395.65	671.73
395.84	645.99
396.04	624.92
396.23	662.37
396.42	669.39
396.62	657.69
396.81	655.35
397.00	676.41
397.19	690.46
397.39	737.27
397.58	641.31
397.77	645.99
397.97	674.07
398.16	695.14
398.35	709.18
398.55	676.41
398.74	706.84
398.93	751.31
399.12	709.18
399.32	725.57
399.51	683.44
399.70	793.44
399.90	795.78
400.09	737.27
400.28	751.31
400.47	716.20
400.67	711.52
400.86	805.14
401.05	788.76
401.24	758.33
401.44	826.21
401.63	798.12
401.82	837.91
402.01	894.08
402.21	863.66
402.40	910.47
402.59	910.47
402.78	763.01
402.97	905.79
403.17	828.55
403.36	882.38
403.55	919.83
403.74	835.57
403.93	854.30
404.13	894.08
404.32	997.07
404.51	903.45
404.70	945.58
404.89	990.05
405.09	947.92
405.28	903.45
405.47	950.26
405.66	875.36
405.85	1004.09
406.05	877.70
406.24	1025.15
406.43	994.73
406.62	1041.54
406.81	1090.69
407.00	1025.15
407.20	966.64
407.39	1048.56
407.58	1109.41
407.77	999.41
407.96	1043.88
408.15	997.07
408.34	1104.73
408.54	1114.10
408.73	1090.69
408.92	1167.93
409.11	1170.27
409.30	1146.86
409.49	1151.54
409.68	1212.40
409.87	1062.60
410.07	1153.88
410.26	1242.82
410.45	1172.61
410.64	1088.35
410.83	1226.44
411.02	1203.04
411.21	1259.21
411.40	1252.19
411.59	1268.57
411.78	1289.64
411.98	1231.12
412.17	1291.98
412.36	1310.70
412.55	1350.49
412.74	1331.76
412.93	1343.47
413.12	1315.38
413.31	1446.45
413.50	1369.21
413.69	1416.02
413.88	1476.88
414.07	1469.86
414.26	1387.94
414.45	1373.89
414.64	1446.45
414.83	1563.48
415.02	1572.84
415.22	1579.86
415.41	1584.54
415.60	1530.71
415.79	1650.08
415.98	1659.44
416.17	1600.93
416.36	1612.63
416.55	1591.56
416.74	1647.74
416.93	1600.93
417.12	1680.50
417.31	1617.31
417.50	1631.35
417.69	1783.49
417.88	1668.80
418.07	1692.21
418.26	1746.04
418.45	1844.34
418.64	1710.93
418.83	1837.32
419.02	1748.38
419.21	1865.41
419.39	1760.08
419.58	1886.47
419.77	1865.41
419.96	1879.45
420.15	1982.43
420.34	1914.56
420.53	1900.52
420.72	1989.46
420.91	1909.88
421.10	1970.73
421.29	2031.58
421.48	2017.54
421.67	1935.62
421.86	2031.58
422.05	1980.09
422.24	1898.17
422.43	2036.27
422.61	1947.33
422.80	1980.09
422.99	2012.86
423.18	2101.80
423.37	2047.97
423.56	1996.48
423.75	1923.92
423.94	1996.48
424.13	1907.54
424.32	1802.21
424.50	2118.18
424.69	2078.40
424.88	2062.01
425.07	2047.97
425.26	1909.88
425.45	2033.93
425.64	2026.90
425.83	1907.54
426.01	2118.18
426.20	1984.77
426.39	2050.31
426.58	2129.89
426.77	2080.74
426.96	2059.67
427.15	2005.84
427.33	2113.50
427.52	2094.78
427.71	2143.93
427.90	2181.38
428.09	2085.42
428.28	2258.62
428.46	2174.36
428.65	2211.81
428.84	2392.03
429.03	2331.17
429.22	2176.70
429.40	2340.54
429.59	2242.23
429.78	2216.49
429.97	2190.74
430.16	2207.13
430.34	2272.66
430.53	2347.56
430.72	2401.39
430.91	2284.36
431.10	2352.24
431.28	2394.37
431.47	2359.26
431.66	2443.52
431.85	2331.17
432.03	2396.71
432.22	2581.61
432.41	2368.62
432.60	2420.11
432.79	2382.67
432.97	2490.33
433.16	2434.16
433.35	2504.37
433.54	2565.23
433.72	2539.48
433.91	2408.41
434.10	2520.76
434.28	2473.95
434.47	2530.12
434.66	2544.16
434.85	2530.12
435.03	2635.44
435.22	2579.27
435.41	2693.96
435.59	2574.59
435.78	2677.57
435.97	2743.11
436.16	2696.30
436.34	2696.30
436.53	2801.62
436.72	2906.95
436.90	2647.15
437.09	2640.12
437.28	2717.36
437.46	2661.19
437.65	2796.94
437.84	2822.69
438.02	2792.26
438.21	2855.45
438.40	2696.30
438.58	2700.98
438.77	2911.63
438.96	2895.24
439.14	3021.63
439.33	2890.56
439.52	2939.71
439.70	3042.70
439.89	3042.70
440.08	2967.80
440.26	3117.59
440.45	3023.97
440.63	3253.34
440.82	3143.34
441.01	3164.40
441.19	3131.64
441.38	3192.49
441.57	3255.69
441.75	3375.05
441.94	3220.58
442.12	3274.41
442.31	3288.45
442.50	3286.11
442.68	3241.64
442.87	3363.35
443.05	3405.48
443.24	3386.76
443.43	3358.67
443.61	3328.24
443.80	3492.08
443.98	3201.85
444.17	3227.60
444.35	3428.88
444.54	3517.83
444.73	3428.88
444.91	3463.99
445.10	3492.08
445.28	3541.23
445.47	3534.21
445.65	3473.36
445.84	3606.77
446.02	3424.20
446.21	3386.76
446.39	3323.56
446.58	3515.48
446.77	3489.74
446.95	3396.12
447.14	3447.61
447.32	3515.48
447.51	3379.73
447.69	3595.06
447.88	3506.12
448.06	3499.10
448.25	3487.40
448.43	3632.51
448.62	3658.26
448.80	3522.51
448.99	3566.98
449.17	3775.28
449.36	3581.02
449.54	3794.01
449.73	3527.19
449.91	3751.88
450.10	3747.20
450.28	3831.46
450.46	3801.03
450.65	3733.15
450.83	3702.73
451.02	3684.00
451.20	3875.93
451.39	3789.33
451.57	3784.65
451.76	3660.60
451.94	3772.94
452.13	3889.97
452.31	3889.97
452.49	3904.01
452.68	3878.27
452.86	3819.75
453.05	3831.46
453.23	4028.06
453.42	3971.89
453.60	4037.42
453.78	3943.80
453.97	3904.01
454.15	3948.48
454.34	3925.08
454.52	3939.12
454.70	3857.20
454.89	4088.92
455.07	4070.19
455.26	3988.27
455.44	4067.85
455.62	4124.02
455.81	4109.98
455.99	4180.20
456.17	4208.28
456.36	4191.90
456.54	4147.43
456.73	4327.65
456.91	4641.28
457.09	4402.55
457.28	4475.10
457.46	4435.32
457.64	4203.60
457.83	4313.61
458.01	4301.90
458.19	4444.68
458.38	4369.78
458.56	4458.72
458.74	4376.80
458.93	4514.89
459.11	4437.66
459.29	4416.59
459.48	4418.93
459.66	4510.21
459.84	4550.00
460.03	4559.36
460.21	4493.83
460.39	4447.02
460.57	4547.66
460.76	4512.55
460.94	4451.70
461.12	4531.28
461.31	4669.37
461.49	4627.24
461.67	4706.82
461.85	4709.16
462.04	4795.76
462.22	5036.83
462.40	4744.27
462.59	4798.10
462.77	4615.54
462.95	4662.35
463.13	4791.08
463.32	4805.12
463.50	4873.00
463.68	4784.06
463.86	4786.40
464.05	4802.78
464.23	4788.74
464.41	4924.49
464.59	4877.68
464.78	5013.43
464.96	4954.91
465.14	4807.46
465.32	4938.53
465.50	5172.58
465.69	5130.45
465.87	4884.70
466.05	5067.26
466.23	5029.81
466.41	5111.73
466.60	5146.84
466.78	5046.20
466.96	5135.14
467.14	5139.82
467.32	5076.62
467.51	5210.03
467.69	4961.94
467.87	5200.67
468.05	5212.37
468.23	5212.37
468.41	5193.65
468.60	5350.46
468.78	5256.84
468.96	5235.78
469.14	5135.14
469.32	5310.68
469.50	5207.69
469.69	5371.53
469.87	5462.81
470.05	5453.45
470.23	5504.94
470.41	5425.36
470.59	5448.77
470.77	5486.22
470.95	5518.98
471.14	5572.82
471.32	5605.58
471.50	5853.68
471.68	5675.80
471.86	5638.35
472.04	5647.71
472.22	5895.81
472.40	5729.63
472.58	5755.38
472.77	5668.78
472.95	5813.89
473.13	6052.63
473.31	5877.09
473.49	5830.27
473.67	6010.50
473.85	5858.36
474.03	6047.94
474.21	5919.21
474.39	6010.50
474.57	6282.00
474.75	6174.33
474.93	6188.38
475.12	6139.23
475.30	6310.08
475.48	6171.99
475.66	6314.77
475.84	6274.98
476.02	6310.08
476.20	6314.77
476.38	6490.31
476.56	6637.76
476.74	6614.35
476.92	6558.18
477.10	6429.45
477.28	6771.17
477.46	6609.67
477.64	6562.86
477.82	6789.89
478.00	6832.02
478.18	6843.73
478.36	7000.54
478.54	6937.35
478.72	7150.34
478.90	7258.00
479.08	7136.29
479.26	7349.28
479.44	7272.04
479.62	7421.84
479.80	7604.40
479.98	7342.26
480.16	7508.44
480.34	7648.87
480.52	7660.57
480.70	7653.55
480.88	7686.32
481.06	7775.26
481.24	7662.91
481.41	7779.94
481.59	8131.02
481.77	8100.59
481.95	8138.04
482.13	8126.34
482.31	8056.12
482.49	8222.30
482.67	8222.30
482.85	8498.49
483.03	8425.93
483.21	8510.19
483.39	8645.94
483.57	8465.72
483.74	8681.05
483.92	8746.58
484.10	8655.30
484.28	9076.60
484.46	9090.64
484.64	9334.06
484.82	8966.59
485.00	9001.70
485.18	9472.15
485.35	9434.70
485.53	9554.07
485.71	9565.77
485.89	9631.30
486.07	9458.10
486.25	9530.66
486.43	9839.61
486.61	9832.59
486.78	10036.22
486.96	9813.87
487.14	9970.68
487.32	10155.58
487.50	10207.08
487.68	10155.58
487.85	10270.27
488.03	10698.59
488.21	10581.56
488.39	10796.89
488.57	10679.86
488.75	10686.89
488.92	10991.16
489.10	10885.83
489.28	10937.32
489.46	10965.41
489.64	11080.10
489.81	11468.62
489.99	11410.11
490.17	11573.95
490.35	11485.01
490.53	11632.46
490.70	11662.89
490.88	11520.12
491.06	11791.62
491.24	11927.37
491.41	11754.17
491.59	12042.06
491.77	12086.53
491.95	12334.62
492.13	12191.85
492.30	12032.69
492.48	12383.77
492.66	12510.16
492.84	12470.37
493.01	12561.66
493.19	12519.53
493.37	12936.14
493.54	12706.77
493.72	12842.52
493.90	12741.88
494.08	13118.70
494.25	13317.65
494.43	13224.03
494.61	13415.95
494.79	13128.06
494.96	13202.96
495.14	13383.18
495.32	13760.01
495.49	13865.33
495.67	13914.48
495.85	13923.85
496.02	14017.47
496.20	14047.90
496.38	13963.64
496.55	13926.19
496.73	14310.04
496.91	14377.91
497.09	14272.59
497.26	14366.21
497.44	14539.41
497.62	14471.53
497.79	14567.49
497.97	14506.64
498.14	14916.23
498.32	15117.52
498.50	14839.00
498.67	15169.01
498.85	15030.92
499.03	15002.83
499.20	15192.42
499.38	15227.53
499.56	15531.80
499.73	15290.72
499.91	15508.39
500.08	15646.48
500.26	15672.23
500.44	15730.74
500.61	15550.52
500.79	15613.71
500.97	15878.19
501.14	15843.09
501.32	16189.49
501.49	16042.03
501.67	15786.91
501.84	16215.23
502.02	16081.82
502.20	16046.71
502.37	16147.36
502.55	16334.60
502.72	16339.28
502.90	16336.94
503.07	16142.67
503.25	16353.32
503.43	16629.51
503.60	16446.94
503.78	16587.38
503.95	16706.74
504.13	16585.04
504.30	16791.00
504.48	16730.15
504.65	16884.62
504.83	17149.11
505.01	17034.42
505.18	17118.68
505.36	17352.73
505.53	16884.62
505.71	17411.25
505.88	17123.36
506.06	17205.28
506.23	17413.59
506.41	17259.11
506.58	17603.17
506.76	17652.32
506.93	17495.50
507.11	17558.70
507.28	17692.11
507.46	17715.51
507.63	17881.69
507.81	17853.61
507.98	17724.88
508.16	18005.74
508.33	17776.37
508.50	17642.96
508.68	18129.79
508.85	18272.56
509.03	18246.82
509.20	18333.42
509.38	18267.88
509.55	18546.40
509.73	18312.35
509.90	18373.21
510.08	18377.89
510.25	18651.73
510.42	18764.07
510.60	18862.38
510.77	18838.97
510.95	18951.32
511.12	18630.66
511.30	18813.23
511.47	19108.13
511.64	18993.45
511.82	18958.34
511.99	19442.83
512.17	19058.98
512.34	19101.11
512.51	19314.10
512.69	19494.32
512.86	19087.07
513.04	19529.43
513.21	19433.47
513.38	19482.62
513.56	19587.94
513.73	19424.11
513.90	19728.38
514.08	19534.11
514.25	19557.52
514.43	20004.56
514.60	19721.35
514.77	19992.86
514.95	20144.99
515.12	19999.88
515.29	19934.34
515.47	20084.14
515.64	20329.89
515.81	20034.99
515.99	20589.69
516.16	20112.22
516.33	20292.44
516.51	20404.79
516.68	20318.19
516.85	20650.55
517.03	20699.70
517.20	20730.12
517.37	20814.38
517.54	20826.09
517.72	20695.02
517.89	20648.21
518.06	20788.64
518.24	20472.67
518.41	20641.18
518.58	20524.16
518.75	20669.27
518.93	20943.11
519.10	21270.79
519.27	21266.11
519.45	20978.22
519.62	21165.46
519.79	21081.21
519.96	21149.08
520.14	21418.24
520.31	21586.76
520.48	21572.72
520.65	21584.42
520.83	21720.17
521.00	21530.59
521.17	21757.62
521.34	21474.42
521.52	21876.99
521.69	21909.75
521.86	21694.43
522.03	21869.97
522.20	22078.27
522.38	21848.90
522.55	21795.07
522.72	22019.76
522.89	22326.37
523.07	22448.08
523.24	22132.11
523.41	22532.34
523.58	21991.67
523.75	22513.61
523.92	22328.71
524.10	22235.09
524.27	22459.78
524.44	22661.07
524.61	22640.00
524.78	22597.87
524.96	22462.12
525.13	22544.04
525.30	22944.27
525.47	22647.02
525.64	22995.76
525.81	23218.11
525.98	22881.08
526.16	22757.03
526.33	23124.49
526.50	23161.94
526.67	23140.88
526.84	23187.69
527.01	22794.48
527.18	22932.57
527.36	23255.56
527.53	23323.44
527.70	23522.38
527.87	23227.48
528.04	23454.51
528.21	23550.47
528.38	23498.98
528.55	23503.66
528.72	23545.79
528.89	23686.22
529.07	23953.04
529.24	23438.12
529.41	23754.10
529.58	23843.04
529.75	23665.16
529.92	23585.58
530.09	23501.32
530.26	24063.05
530.43	24034.96
530.60	23758.78
530.77	24166.03
530.94	24493.71
531.11	24002.19
531.28	23620.69
531.46	23920.28
531.63	24086.45
531.80	24278.38
531.97	24395.40
532.14	24746.48
532.31	24290.08
532.48	24435.19
532.65	24428.17
532.82	24355.61
532.99	24093.47
533.16	24119.22
533.33	24716.06
533.50	24563.92
533.67	24491.37
533.84	24699.67
534.01	24666.91
534.18	24472.64
534.35	24650.52
534.52	24718.40
534.69	24929.05
534.86	24638.82
535.03	24730.10
535.20	24800.32
535.37	24879.89
535.54	24886.92
535.71	24800.32
535.88	25010.96
536.05	24943.09
536.22	25198.21
536.38	25603.12
536.55	25132.67
536.72	25593.76
536.89	24526.47
537.06	25050.75
537.23	25355.02
537.40	25046.07
537.57	25448.64
537.74	25525.88
537.91	25502.48
538.08	25425.24
538.25	25624.18
538.42	25488.43
538.59	25455.67
538.75	25469.71
538.92	25472.05
539.09	25687.38
539.26	25722.49
539.43	26094.63
539.60	25556.31
539.77	25802.07
539.94	25598.44
540.11	25617.16
540.28	25689.72
540.44	25551.63
540.61	25743.55
540.78	25577.37
540.95	25996.33
541.12	25958.88
541.29	26045.48
541.46	26043.14
541.62	26073.57
541.79	25848.88
541.96	25998.67
542.13	25972.92
542.30	26047.82
542.47	26012.71
542.63	26242.09
542.80	26349.75
542.97	26644.66
543.14	26487.84
543.31	26504.23
543.48	26625.93
543.64	26726.58
543.81	26443.37
543.98	26813.18
544.15	26745.30
544.32	26759.34
544.48	27105.74
544.65	26600.19
544.82	26752.32
544.99	26476.14
545.16	26864.67
545.32	26555.72
545.49	26639.98
545.66	27585.55
545.83	26883.39
546.00	26881.05
546.16	27129.15
546.33	26761.69
546.50	26656.36
546.67	27028.51
546.83	26483.16
547.00	27463.85
547.17	27304.69
547.34	27349.16
547.50	27234.47
547.67	27447.46
547.84	27529.38
548.00	27487.25
548.17	27190.00
548.34	27182.98
548.51	27796.20
548.67	27489.59
548.84	27735.35
549.01	27611.30
549.18	27410.01
549.34	27288.31
549.51	27534.06
549.68	27791.52
549.84	27480.23
550.01	27538.74
550.18	27239.15
550.34	27845.35
550.51	27931.95
550.68	27641.73
550.84	27646.41
551.01	27679.18
551.18	27491.93
551.34	27751.73
551.51	27931.95
551.68	27772.80
551.84	28217.50
552.01	27761.09
552.18	27908.55
552.34	28259.63
552.51	28023.23
552.68	27995.15
552.84	28048.98
553.01	28175.37
553.18	28266.65
553.34	28163.67
553.51	28245.58
553.67	28285.37
553.84	28479.64
554.01	28325.16
554.17	28444.53
554.34	28463.25
554.51	27793.86
554.67	27934.29
554.84	28444.53
555.00	28566.24
555.17	28044.30
555.33	28046.64
555.50	28395.38
555.67	28362.61
555.83	28479.64
556.00	28334.53
556.16	28659.86
556.33	28666.88
556.50	28683.27
556.66	28421.13
556.83	28599.01
556.99	29060.09
557.16	28765.18
557.32	28528.79
557.49	28926.68
557.65	28374.31
557.82	28493.68
557.98	28620.07
558.15	28662.20
558.32	28788.59
558.48	28489.00
558.65	28790.93
558.81	28765.18
558.98	28900.94
559.14	28797.95
559.31	29064.77
559.47	28748.80
559.64	28912.64
559.80	28840.08
559.97	28992.22
560.13	29177.12
560.30	28975.83
560.46	29017.96
560.63	29502.45
560.79	29343.30
560.96	29296.49
561.12	28781.57
561.29	28725.39
561.45	28870.51
561.61	29378.40
561.78	29249.67
561.94	29539.90
562.11	29291.80
562.27	29142.01
562.44	29230.95
562.60	29237.97
562.77	29146.69
562.93	29046.05
563.10	29366.70
563.26	29298.83
563.42	29385.43
563.59	29184.14
563.75	29642.88
563.92	29355.00
564.08	29392.45
564.24	29635.86
564.41	28978.17
564.57	29355.00
564.74	29312.87
564.90	29514.16
565.07	29347.98
565.23	29546.92
565.39	29303.51
565.56	29621.82
565.72	29357.34
565.88	29331.59
566.05	29659.27
566.21	29514.16
566.38	29244.99
566.54	29495.43
566.70	29427.56
566.87	29919.07
567.03	29537.56
567.19	29539.90
567.36	29706.08
567.52	29532.88
567.68	29467.34
567.85	29364.36
568.01	29411.17
568.17	29502.45
568.34	29755.23
568.50	29326.91
568.66	29654.59
568.83	29937.79
568.99	29926.09
569.15	29701.40
569.32	29310.53
569.48	29834.81
569.64	29928.43
569.81	29535.22
569.97	29752.89
570.13	29834.81
570.30	29869.92
570.46	29764.59
570.62	29928.43
570.78	29362.02
570.95	29443.94
571.11	29259.04
571.27	29521.18
571.43	29654.59
571.60	29830.13
571.76	29776.30
571.92	29584.37
572.09	29743.53
572.25	29745.87
572.41	29785.66
572.57	29944.81
572.74	30253.76
572.90	29961.20
573.06	29914.39
573.22	29790.34
573.38	29675.65
573.55	29673.31
573.71	30178.87
573.87	30141.42
574.03	30078.22
574.20	30017.37
574.36	29640.54
574.52	29986.94
574.68	29479.05
574.84	29771.61
575.01	30314.62
575.17	29949.50
575.33	30288.87
575.49	30022.05
575.65	29879.28
575.82	30101.63
575.98	29853.53
576.14	30192.91
576.30	29731.83
576.46	29778.64
576.62	30118.01
576.79	30218.66
576.95	29706.08
577.11	30047.80
577.27	30045.46
577.43	29991.62
577.59	30153.12
577.75	30185.89
577.92	29933.11
578.08	29900.34
578.24	30068.86
578.40	29783.32
578.56	30239.72
578.72	30412.92
578.88	30401.22
579.04	30068.86
579.21	30118.01
579.37	29989.28
579.53	30029.07
579.69	30246.74
579.85	30024.39
580.01	30129.72
580.17	29968.22
580.33	29972.90
580.49	30230.36
580.65	30373.13
580.82	29788.00
580.98	30160.14
581.14	30361.43
581.30	30092.27
581.46	30338.02
581.62	29818.42
581.78	29764.59
581.94	30314.62
582.10	29898.00
582.26	30377.81
582.42	29902.68
582.58	30267.81
582.74	30253.76
582.90	30270.15
583.06	30293.55
583.22	29846.51
583.38	30494.84
583.54	30139.08
583.70	29797.36
583.86	30204.61
584.02	29848.85
584.18	30141.42
584.34	30438.67
584.50	30464.41
584.66	30052.48
584.82	29881.62
584.98	30080.56
585.14	30560.37
585.30	29977.58
585.46	29799.70
585.62	30094.61
585.78	30305.26
585.94	30141.42
586.10	30216.32
586.26	30026.73
586.42	30471.43
586.58	30946.56
586.74	30429.30
586.90	30118.01
587.06	30174.19
587.22	30319.30
587.38	30539.31
587.54	30382.49
587.70	30455.05
587.86	30302.92
588.02	30321.64
588.18	30829.54
588.34	30539.31
588.49	30597.82
588.65	29958.86
588.81	30354.41
588.97	30422.28
589.13	29874.60
589.29	29876.94
589.45	30253.76
589.61	30366.11
589.77	30492.50
589.93	30602.50
590.08	30457.39
590.24	30649.32
590.40	30541.65
590.56	30876.35
590.72	30373.13
590.88	30249.08
591.04	30363.77
591.20	30438.67
591.35	30895.07
591.51	31101.04
591.67	30869.33
591.83	30579.10
591.99	31023.80
