SpectraSuite Data File
++++++++++++++++++++++++++++++++++++
Date: Fri Oct 18 13:58:23 GMT-05:00 2013
User: bianchi
Dark Spectrum Present: No
Reference Spectrum Present: No
Number of Sampled Component Spectra: 1
Spectrometers: USB2+H05261
Integration Time (usec): 50000 (USB2+H05261)
Spectra Averaged: 1 (USB2+H05261)
Boxcar Smoothing: 0 (USB2+H05261)
Correct for Electrical Dark: No (USB2+H05261)
Strobe/Lamp Enabled: No (USB2+H05261)
Correct for Detector Non-linearity: No (USB2+H05261)
Correct for Stray Light: No (USB2+H05261)
Number of Pixels in Processed Spectrum: 2048
>>>>>Begin Processed Spectral Data<<<<<
365.73	0.00
365.92	0.00
366.12	0.00
366.32	0.00
366.52	0.00
366.72	0.00
366.91	0.00
367.11	0.00
367.31	0.00
367.51	0.00
367.70	0.00
367.90	0.00
368.10	0.00
368.30	0.00
368.49	0.00
368.69	0.00
368.89	0.00
369.09	0.00
369.28	0.00
369.48	0.00
369.68	0.00
369.87	0.00
370.07	0.00
370.27	0.00
370.47	0.00
370.66	100.64
370.86	98.30
371.06	124.05
371.25	184.90
371.45	114.69
371.65	107.66
371.84	220.01
372.04	107.66
372.24	124.05
372.44	191.92
372.63	238.73
372.83	196.60
373.03	170.86
373.22	175.54
373.42	149.79
373.62	234.05
373.81	236.39
374.01	243.42
374.21	248.10
374.40	177.88
374.60	241.08
374.79	161.50
374.99	184.90
375.19	180.22
375.38	315.97
375.58	243.42
375.78	231.71
375.97	283.20
376.17	250.44
376.37	262.14
376.56	234.05
376.76	182.56
376.95	255.12
377.15	210.65
377.35	252.78
377.54	241.08
377.74	318.31
377.93	381.51
378.13	271.50
378.33	290.23
378.52	210.65
378.72	311.29
378.91	304.27
379.11	250.44
379.31	245.76
379.50	264.48
379.70	241.08
379.89	337.04
380.09	306.61
380.28	229.37
380.48	243.42
380.68	320.65
380.87	332.36
381.07	299.59
381.26	353.42
381.46	348.74
381.65	313.63
381.85	353.42
382.04	355.76
382.24	287.89
382.43	353.42
382.63	351.08
382.83	367.46
383.02	332.36
383.22	362.78
383.41	395.55
383.61	383.85
383.80	339.38
384.00	409.59
384.19	339.38
384.39	315.97
384.58	414.27
384.78	400.23
384.97	304.27
385.17	315.97
385.36	411.93
385.56	442.36
385.75	379.17
385.95	423.64
386.14	400.23
386.34	367.46
386.53	411.93
386.72	367.46
386.92	430.66
387.11	496.19
387.31	416.62
387.50	381.51
387.70	430.66
387.89	400.23
388.09	418.96
388.28	491.51
388.48	388.53
388.67	458.74
388.86	470.45
389.06	442.36
389.25	524.28
389.45	421.30
389.64	470.45
389.84	491.51
390.03	477.47
390.22	505.56
390.42	531.30
390.61	500.87
390.81	517.26
391.00	554.71
391.19	521.94
391.39	461.09
391.58	547.69
391.78	491.51
391.97	538.32
392.16	550.03
392.36	517.26
392.55	547.69
392.75	528.96
392.94	582.79
393.13	564.07
393.33	517.26
393.52	528.96
393.71	613.22
393.91	533.64
394.10	627.26
394.29	629.60
394.49	592.16
394.68	655.35
394.88	543.00
395.07	603.86
395.26	559.39
395.46	643.65
395.65	624.92
395.84	634.29
396.04	648.33
396.23	608.54
396.42	521.94
396.62	613.22
396.81	662.37
397.00	641.31
397.19	620.24
397.39	601.52
397.58	627.26
397.77	734.93
397.97	660.03
398.16	674.07
398.35	653.01
398.55	638.97
398.74	725.57
398.93	760.67
399.12	713.86
399.32	727.91
399.51	737.27
399.70	767.70
399.90	730.25
400.09	781.74
400.28	835.57
400.47	739.61
400.67	800.46
400.86	828.55
401.05	830.89
401.24	812.17
401.44	788.76
401.63	823.87
401.82	765.36
402.01	800.46
402.21	866.00
402.40	903.45
402.59	938.55
402.78	842.59
402.97	922.17
403.17	854.30
403.36	873.02
403.55	791.10
403.74	889.40
403.93	945.58
404.13	929.19
404.32	938.55
404.51	887.06
404.70	945.58
404.89	861.32
405.09	957.28
405.28	910.47
405.47	976.00
405.66	1008.77
405.85	961.96
406.05	994.73
406.24	931.53
406.43	957.28
406.62	1013.45
406.81	1013.45
407.00	994.73
407.20	987.71
407.39	931.53
407.58	1055.58
407.77	1053.24
407.96	1013.45
408.15	1001.75
408.34	1088.35
408.54	1128.14
408.73	1036.86
408.92	1104.73
409.11	1158.57
409.30	1095.37
409.49	1193.67
409.68	1078.99
409.87	1203.04
410.07	1118.78
410.26	1160.91
410.45	1153.88
410.64	1259.21
410.83	1174.95
411.02	1245.16
411.21	1324.74
411.40	1280.27
411.59	1184.31
411.78	1158.57
411.98	1224.10
412.17	1315.38
412.36	1327.08
412.55	1357.51
412.74	1315.38
412.93	1350.49
413.12	1254.53
413.31	1423.05
413.50	1317.72
413.69	1413.68
413.88	1497.94
414.07	1455.81
414.26	1373.89
414.45	1629.01
414.64	1483.90
414.83	1575.18
415.02	1558.80
415.22	1537.73
415.41	1659.44
415.60	1556.46
415.79	1537.73
415.98	1589.22
416.17	1643.06
416.36	1568.16
416.55	1664.12
416.74	1596.25
416.93	1629.01
417.12	1668.80
417.31	1636.03
417.50	1643.06
417.69	1755.40
417.88	1741.36
418.07	1659.44
418.26	1727.32
418.45	1792.85
418.64	1827.96
418.83	1844.34
419.02	1743.70
419.21	1776.47
419.39	1830.30
419.58	1909.88
419.77	1685.19
419.96	1778.81
420.15	1898.17
420.34	2010.52
420.53	1919.24
420.72	1895.83
420.91	1888.81
421.10	1886.47
421.29	1933.28
421.48	1984.77
421.67	1870.09
421.86	1865.41
422.05	1956.69
422.24	1888.81
422.43	1959.03
422.61	1926.26
422.80	2010.52
422.99	1987.11
423.18	1954.35
423.37	2003.50
423.56	2008.18
423.75	1991.80
423.94	1959.03
424.13	1921.58
424.32	1963.71
424.50	2090.10
424.69	2045.63
424.88	2057.33
425.07	1975.41
425.26	2085.42
425.45	2015.20
425.64	2064.35
425.83	2066.69
426.01	2059.67
426.20	2141.59
426.39	2078.40
426.58	1989.46
426.77	2129.89
426.96	2047.97
427.15	2143.93
427.33	2141.59
427.52	2062.01
427.71	2221.17
427.90	2090.10
428.09	2321.81
428.28	2172.02
428.46	2211.81
428.65	2146.27
428.84	2122.87
429.03	2270.32
429.22	2214.15
429.40	2239.89
429.59	2260.96
429.78	2228.19
429.97	2176.70
430.16	2286.70
430.34	2317.13
430.53	2326.49
430.72	2401.39
430.91	2249.25
431.10	2363.94
431.28	2286.70
431.47	2361.60
431.66	2326.49
431.85	2380.32
432.03	2443.52
432.22	2495.01
432.41	2326.49
432.60	2434.16
432.79	2392.03
432.97	2485.65
433.16	2480.97
433.35	2544.16
433.54	2473.95
433.72	2574.59
433.91	2605.02
434.10	2537.14
434.28	2541.82
434.47	2574.59
434.66	2544.16
434.85	2574.59
435.03	2590.97
435.22	2534.80
435.41	2696.30
435.59	2532.46
435.78	2588.63
435.97	2747.79
436.16	2736.09
436.34	2609.70
436.53	2642.46
436.72	2647.15
436.90	2590.97
437.09	2876.52
437.28	2651.83
437.46	2766.51
437.65	2740.77
437.84	2827.37
438.02	2661.19
438.21	2705.66
438.40	2801.62
438.58	2850.77
438.77	2972.48
438.96	2876.52
439.14	2857.79
439.33	3040.36
439.52	2939.71
439.70	3023.97
439.89	3000.57
440.08	3016.95
440.26	2939.71
440.45	3023.97
440.63	3059.08
440.82	3098.87
441.01	2993.55
441.19	3124.62
441.38	3272.07
441.57	3169.09
441.75	3283.77
441.94	3248.66
442.12	3152.70
442.31	3349.31
442.50	3248.66
442.68	3248.66
442.87	3431.23
443.05	3358.67
443.24	3414.84
443.43	3307.18
443.61	3440.59
443.80	3435.91
443.98	3267.39
444.17	3225.26
444.35	3398.46
444.54	3508.46
444.73	3471.01
444.91	3426.54
445.10	3482.72
445.28	3513.14
445.47	3342.28
445.65	3384.41
445.84	3475.70
446.02	3428.88
446.21	3325.90
446.39	3456.97
446.58	3552.93
446.77	3559.95
446.95	3351.65
447.14	3531.87
447.32	3499.10
447.51	3485.06
447.69	3492.08
447.88	3445.27
448.06	3538.89
448.25	3487.40
448.43	3667.62
448.62	3559.95
448.80	3634.85
448.99	3433.57
449.17	3517.83
449.36	3524.85
449.54	3630.17
449.73	3707.41
449.91	3770.60
450.10	3599.74
450.28	3808.05
450.46	3609.11
450.65	3777.62
450.83	3824.44
451.02	3786.99
451.20	3822.09
451.39	3747.20
451.57	3866.56
451.76	3871.25
451.94	3779.97
452.13	3894.65
452.31	3822.09
452.49	3911.04
452.68	3922.74
452.86	3794.01
453.05	3829.12
453.23	3969.55
453.42	3843.16
453.60	3906.35
453.78	3904.01
453.97	3955.51
454.15	3859.54
454.34	3889.97
454.52	4025.72
454.70	4056.15
454.89	4121.68
455.07	3953.16
455.26	4142.75
455.44	4187.22
455.62	3985.93
455.81	4077.21
455.99	3981.25
456.17	3911.04
456.36	4142.75
456.54	4402.55
456.73	4105.30
456.91	4383.82
457.09	4381.48
457.28	4339.35
457.46	4304.25
457.64	4273.82
457.83	4318.29
458.01	4243.39
458.19	4393.19
458.38	4465.74
458.56	4390.84
458.74	4531.28
458.93	4390.84
459.11	4402.55
459.29	4435.32
459.48	4472.76
459.66	4524.26
459.84	4528.94
460.03	4500.85
460.21	4566.39
460.39	4594.47
460.57	4550.00
460.76	4545.32
460.94	4507.87
461.12	4587.45
461.31	4652.98
461.49	4503.19
461.67	4496.17
461.85	4823.84
462.04	4711.50
462.22	4784.06
462.40	4730.22
462.59	4706.82
462.77	4788.74
462.95	4814.48
463.13	4779.37
463.32	4723.20
463.50	4917.47
463.68	4807.46
463.86	4828.53
464.05	4821.50
464.23	4802.78
464.41	4943.21
464.59	4793.42
464.78	4997.04
464.96	4858.95
465.14	4903.42
465.32	5008.75
465.50	5027.47
465.69	5034.49
465.87	5011.09
466.05	5046.20
466.23	4910.44
466.41	4959.60
466.60	5245.14
466.78	5139.82
466.96	5034.49
467.14	5123.43
467.32	5172.58
467.51	5273.23
467.69	5111.73
467.87	5177.26
468.05	5088.32
468.23	5352.81
468.41	5261.52
468.60	5210.03
468.78	5416.00
468.96	5184.29
469.14	5313.02
469.32	5434.72
469.50	5142.16
469.69	5486.22
469.87	5504.94
470.05	5551.75
470.23	5502.60
470.41	5357.49
470.59	5364.51
470.77	5411.32
470.95	5336.42
471.14	5343.44
471.32	5352.81
471.50	5570.48
471.68	5544.73
471.86	5614.95
472.04	5558.77
472.22	5834.96
472.40	5614.95
472.58	5724.95
472.77	5872.40
472.95	5851.34
473.13	5858.36
473.31	5928.58
473.49	5872.40
473.67	5696.86
473.85	5888.79
474.03	6057.31
474.21	5944.96
474.39	6071.35
474.57	5893.47
474.75	6045.60
474.93	5975.39
475.12	5980.07
475.30	6171.99
475.48	6253.91
475.66	6183.70
475.84	6244.55
476.02	6415.41
476.20	6204.76
476.38	6354.55
476.56	6679.89
476.74	6523.07
476.92	6511.37
477.10	6518.39
477.28	6750.10
477.46	6841.39
477.64	6644.78
477.82	6869.47
478.00	6965.43
478.18	6881.18
478.36	7063.74
478.54	7014.59
478.72	7138.63
478.90	7330.56
479.08	7269.70
479.26	7323.54
479.44	7119.91
479.62	7468.65
479.80	7360.98
479.98	7346.94
480.16	7585.68
480.34	7534.18
480.52	7716.75
480.70	7541.21
480.88	7623.12
481.06	7627.81
481.24	7793.98
481.41	7798.66
481.59	8058.46
481.77	8114.64
481.95	8133.36
482.13	7925.05
482.31	7967.18
482.49	8116.98
482.67	8266.77
482.85	8306.56
483.03	8592.11
483.21	8414.23
483.39	8762.97
483.57	8652.96
483.74	8512.53
483.92	8528.91
484.10	8828.50
484.28	8833.18
484.46	8784.03
484.64	9046.17
484.82	8961.91
485.00	9261.50
485.18	9146.81
485.35	9357.46
485.53	9420.66
485.71	9570.45
485.89	9713.22
486.07	9673.43
486.25	9554.07
486.43	9628.96
486.61	9858.34
486.78	9982.38
486.96	9966.00
487.14	10003.45
487.32	10164.95
487.50	10160.27
487.68	10228.14
487.85	10602.63
488.03	10246.87
488.21	10541.77
488.39	10565.18
488.57	10672.84
488.75	10698.59
488.92	10661.14
489.10	10946.69
489.28	10794.55
489.46	11000.52
489.64	11019.24
489.81	11276.70
489.99	11358.62
490.17	11267.34
490.35	11690.98
490.53	11627.78
490.70	11705.02
490.88	11632.46
491.06	11728.42
491.24	11843.11
491.41	11737.79
491.59	11960.14
491.77	11964.82
491.95	12341.64
492.13	12032.69
492.30	12627.19
492.48	12355.69
492.66	12262.07
492.84	12528.89
493.01	12650.60
493.19	12650.60
493.37	12706.77
493.54	12961.89
493.72	12739.54
493.90	13032.10
494.08	13137.43
494.25	12830.82
494.43	13193.60
494.61	13062.53
494.79	13135.09
494.96	13364.46
495.14	13415.95
495.32	13387.86
495.49	13572.77
495.67	13862.99
495.85	13645.32
496.02	14043.21
496.20	14040.87
496.38	13975.34
496.55	13958.96
496.73	14356.85
496.91	14178.97
497.09	14281.95
497.26	14455.15
497.44	14258.54
497.62	14424.72
497.79	14523.02
497.97	14548.77
498.14	14569.83
498.32	14803.89
498.50	14689.20
498.67	15044.96
498.85	14888.15
499.03	15176.03
499.20	14977.09
499.38	15211.14
499.56	15173.69
499.73	15342.21
499.91	15440.51
500.08	15716.70
500.26	15229.87
500.44	15407.75
500.61	15602.01
500.79	15585.63
500.97	15730.74
501.14	16123.95
501.32	15927.35
501.49	15878.19
501.67	16121.61
501.84	15798.62
502.02	16109.91
502.20	15857.13
502.37	15847.77
502.55	15927.35
502.72	16486.73
502.90	16222.25
503.07	16285.45
503.25	16449.28
503.43	16411.84
503.60	16451.63
503.78	16617.80
503.95	16360.34
504.13	16734.83
504.30	16262.04
504.48	16570.99
504.65	16758.24
504.83	16936.12
505.01	16989.95
505.18	16849.52
505.36	17139.74
505.53	16975.91
505.71	17109.32
505.88	17216.98
506.06	16865.90
506.23	17104.64
506.41	17390.18
506.58	17439.33
506.76	17041.44
506.93	17495.50
507.11	17577.42
507.28	17474.44
507.46	17319.96
507.63	17961.27
507.81	17661.68
507.98	17420.61
508.16	18082.98
508.33	17951.91
508.50	17823.18
508.68	17841.90
508.85	18265.54
509.03	18031.49
509.20	18045.53
509.38	18288.95
509.55	18340.44
509.73	18417.68
509.90	18403.63
510.08	18434.06
510.25	18534.70
510.42	18415.34
510.60	18532.36
510.77	18469.17
510.95	18806.20
511.12	18726.63
511.30	18478.53
511.47	18874.08
511.64	19068.34
511.82	18841.31
511.99	19173.67
512.17	19037.92
512.34	19204.10
512.51	19213.46
512.69	19356.23
512.86	19396.02
513.04	19342.19
513.21	19545.81
513.38	19297.72
513.56	19590.28
513.73	19700.29
513.90	19641.78
514.08	19346.87
514.25	19697.95
514.43	19683.91
514.60	19538.79
514.77	20016.26
514.95	19924.98
515.12	19903.92
515.29	19850.08
515.47	19793.91
515.64	19960.09
515.81	19913.28
515.99	20322.87
516.16	20276.06
516.33	20315.85
516.51	20500.75
516.68	20379.04
516.85	20269.04
517.03	20299.47
517.20	20659.91
517.37	20428.20
517.54	20657.57
517.72	20430.54
517.89	20629.48
518.06	20666.93
518.24	20613.10
518.41	20636.50
518.58	20893.96
518.75	20577.99
518.93	20905.66
519.10	20943.11
519.27	20851.83
519.45	20844.81
519.62	21088.23
519.79	21184.19
519.96	21270.79
520.14	21282.49
520.31	21228.66
520.48	21238.02
520.65	21490.80
520.83	21378.45
521.00	21631.23
521.17	20992.26
521.34	21331.64
521.52	21666.34
521.69	21626.55
521.86	21795.07
522.03	21919.12
522.20	21834.86
522.38	22050.19
522.55	21649.96
522.72	21771.66
522.89	22068.91
523.07	22078.27
523.24	21898.05
523.41	22347.44
523.58	21994.01
523.75	22338.07
523.92	21977.63
524.10	22169.55
524.27	22307.65
524.44	22328.71
524.61	22553.40
524.78	22710.22
524.96	22623.62
525.13	22331.05
525.30	22480.85
525.47	22752.35
525.64	22647.02
525.81	22836.61
525.98	22672.77
526.16	22808.52
526.33	22871.72
526.50	23077.68
526.67	22757.03
526.84	22927.89
527.01	22888.10
527.18	22796.82
527.36	23187.69
527.53	22953.63
527.70	23211.09
527.87	23379.61
528.04	23344.50
528.21	22955.97
528.38	23372.59
528.55	23190.03
528.72	23358.55
528.89	23754.10
529.07	23854.74
529.24	23063.64
529.41	23487.28
529.58	23672.18
529.75	23381.95
529.92	23625.37
530.09	23302.37
530.26	23335.14
530.43	23889.85
530.60	23480.25
530.77	23714.31
530.94	23761.12
531.11	23653.45
531.28	23653.45
531.46	23812.61
531.63	23878.15
531.80	24051.34
531.97	23999.85
532.14	24201.14
532.31	23866.44
532.48	24168.37
532.65	24428.17
532.82	24046.66
532.99	24212.84
533.16	23992.83
533.33	24652.86
533.50	24552.22
533.67	24369.66
533.84	23936.66
534.01	24446.90
534.18	24135.60
534.35	24367.32
534.52	24540.52
534.69	24264.33
534.86	24805.00
535.03	24589.67
535.20	25032.03
535.37	24453.92
535.54	24781.59
535.71	24702.01
535.88	24730.10
536.05	24449.24
536.22	25427.58
536.38	24802.66
536.55	24896.28
536.72	25048.41
536.89	24641.16
537.06	24783.93
537.23	25240.34
537.40	25097.56
537.57	24868.19
537.74	25003.94
537.91	25481.41
538.08	25132.67
538.25	25352.68
538.42	25263.74
538.59	25441.62
538.75	25071.82
538.92	25177.14
539.09	25340.98
539.26	25511.84
539.43	25600.78
539.60	25259.06
539.77	25422.90
539.94	25593.76
540.11	25509.50
540.28	25682.70
540.44	25427.58
540.61	25380.77
540.78	25694.40
540.95	25675.68
541.12	25532.90
541.29	25706.10
541.46	25635.89
541.62	25785.68
541.79	25790.36
541.96	25450.99
542.13	25701.42
542.30	25844.20
542.47	26260.81
542.63	26174.21
542.80	26326.35
542.97	26082.93
543.14	26298.26
543.31	26272.51
543.48	26176.55
543.64	26368.48
543.81	26288.90
543.98	26703.17
544.15	26515.93
544.32	26742.96
544.48	26745.30
544.65	26363.79
544.82	26347.41
544.99	26061.87
545.16	26518.27
545.32	26581.46
545.49	26944.25
545.66	27026.17
545.83	26581.46
546.00	27140.85
546.16	26656.36
546.33	26902.12
546.50	26242.09
546.67	26726.58
546.83	26494.86
547.00	27014.46
547.17	26988.72
547.34	27267.24
547.50	27314.05
547.67	27201.71
547.84	27098.72
548.00	27269.58
548.17	27281.28
548.34	26806.16
548.51	27220.43
548.67	27028.51
548.84	27243.84
549.01	27370.22
549.18	27096.38
549.34	27267.24
549.51	27007.44
549.68	27339.80
549.84	27321.07
550.01	27248.52
550.18	27215.75
550.34	27391.29
550.51	27704.92
550.68	27562.15
550.84	27147.87
551.01	27936.63
551.18	27047.23
551.34	27091.70
551.51	27793.86
551.68	28023.23
551.84	27992.81
552.01	27630.02
552.18	27676.83
552.34	27835.99
552.51	27702.58
552.68	27892.16
552.84	27576.19
553.01	27557.47
553.18	27709.60
553.34	27960.04
553.51	27810.25
553.67	27931.95
553.84	28170.69
554.01	27946.00
554.17	28151.96
554.34	27995.15
554.51	28058.34
554.67	28016.21
554.84	27978.76
555.00	28304.10
555.17	27999.83
555.33	28114.52
555.50	27927.27
555.67	28053.66
555.83	28252.61
556.00	28027.92
556.16	28496.02
556.33	28119.20
556.50	28086.43
556.66	28463.25
556.83	28116.86
556.99	28460.91
557.16	28470.28
557.32	28451.55
557.49	28732.42
557.65	28364.95
557.82	28168.35
557.98	28556.88
558.15	28713.69
558.32	28662.20
558.48	28430.49
558.65	28266.65
558.81	28231.54
558.98	28627.09
559.14	28727.74
559.31	28489.00
559.47	28762.84
559.64	28613.05
559.80	28535.81
559.97	28371.97
560.13	28510.07
560.30	28734.76
560.46	28479.64
560.63	28718.37
560.79	28929.02
560.96	28563.90
561.12	28709.01
561.29	28606.03
561.45	28854.12
561.61	28985.19
561.78	29127.97
561.94	28797.95
562.11	28685.61
562.27	29078.82
562.44	28713.69
562.60	29024.98
562.77	29003.92
562.93	28807.31
563.10	29092.86
563.26	29036.69
563.42	29069.45
563.59	28912.64
563.75	28856.46
563.92	29158.39
564.08	28720.71
564.24	29013.28
564.41	29125.63
564.57	29125.63
564.74	28809.65
564.90	29448.62
565.07	29244.99
565.23	29390.11
565.39	29046.05
565.56	29273.08
565.72	29282.44
565.88	29120.95
566.05	29144.35
566.21	28973.49
566.38	29010.94
566.54	29256.70
566.70	28964.13
566.87	29813.74
567.03	29673.31
567.19	29523.52
567.36	29383.09
567.52	28943.06
567.68	29340.96
567.85	29305.85
568.01	29039.03
568.17	29277.76
568.34	29230.95
568.50	29149.03
568.66	29118.60
568.83	29795.02
568.99	29270.74
569.15	29256.70
569.32	29443.94
569.48	29015.62
569.64	29556.28
569.81	29532.88
569.97	29369.04
570.13	29729.48
570.30	29034.35
570.46	29603.10
570.62	29296.49
570.78	29532.88
570.95	29322.23
571.11	29689.70
571.27	28907.96
571.43	29242.65
571.60	29598.41
571.76	29490.75
571.92	29750.55
572.09	29586.71
572.25	29453.30
572.41	29142.01
572.57	29308.19
572.74	29600.76
572.90	29600.76
573.06	29577.35
573.22	29439.26
573.38	29408.83
573.55	29284.78
573.71	29731.83
573.87	29874.60
574.03	29696.72
574.20	30082.91
574.36	29462.66
574.52	29425.22
574.68	29626.50
574.84	29661.61
575.01	29462.66
575.17	29310.53
575.33	29298.83
575.49	29607.78
575.65	29685.01
575.82	30082.91
575.98	29535.22
576.14	29764.59
576.30	29413.51
576.46	29425.22
576.62	29685.01
576.79	29771.61
576.95	29741.19
577.11	29694.38
577.27	29839.49
577.43	30094.61
577.59	30050.14
577.75	29642.88
577.92	29928.43
578.08	29713.10
578.24	29500.11
578.40	29855.87
578.56	29638.20
578.72	29832.47
578.88	30155.46
579.04	29923.75
579.21	29720.12
579.37	29989.28
579.53	29998.65
579.69	29837.15
579.85	29434.58
580.01	29633.52
580.17	29593.73
580.33	30078.22
580.49	29565.65
580.65	29675.65
580.82	30202.27
580.98	29631.18
581.14	29933.11
581.30	29923.75
581.46	29965.88
581.62	29855.87
581.78	29741.19
581.94	29972.90
582.10	29888.64
582.26	29802.04
582.42	29755.23
582.58	30052.48
582.74	29993.97
582.90	29975.24
583.06	29797.36
583.22	30015.03
583.38	29677.99
583.54	29570.33
583.70	30110.99
583.86	30307.60
584.02	29776.30
584.18	30115.67
584.34	29752.89
584.50	29860.55
584.66	29944.81
584.82	29624.16
584.98	30223.34
585.14	29926.09
585.30	29701.40
585.46	29888.64
585.62	29567.99
585.78	29766.93
585.94	29682.67
586.10	29769.27
586.26	30342.70
586.42	29867.58
586.58	29778.64
586.74	30221.00
586.90	29530.54
587.06	29586.71
587.22	29930.77
587.38	29804.38
587.54	30033.75
587.70	30300.58
587.86	29975.24
588.02	29909.71
588.18	30422.28
588.34	30328.66
588.49	29989.28
588.65	30050.14
588.81	30026.73
588.97	30532.29
589.13	29837.15
589.29	29841.83
589.45	29764.59
589.61	30195.25
589.77	30331.00
589.93	30239.72
590.08	30553.35
590.24	30419.94
590.40	30558.03
590.56	30536.97
590.72	30279.51
590.88	29773.95
591.04	30143.76
591.20	30401.22
591.35	30651.66
591.51	30340.36
591.67	30370.79
591.83	30541.65
591.99	30756.98
