SpectraSuite Data File
++++++++++++++++++++++++++++++++++++
Date: Fri Oct 18 13:58:13 GMT-05:00 2013
User: bianchi
Dark Spectrum Present: No
Reference Spectrum Present: No
Number of Sampled Component Spectra: 1
Spectrometers: USB2+H05261
Integration Time (usec): 50000 (USB2+H05261)
Spectra Averaged: 1 (USB2+H05261)
Boxcar Smoothing: 0 (USB2+H05261)
Correct for Electrical Dark: No (USB2+H05261)
Strobe/Lamp Enabled: No (USB2+H05261)
Correct for Detector Non-linearity: No (USB2+H05261)
Correct for Stray Light: No (USB2+H05261)
Number of Pixels in Processed Spectrum: 2048
>>>>>Begin Processed Spectral Data<<<<<
365.73	0.00
365.92	0.00
366.12	0.00
366.32	0.00
366.52	0.00
366.72	0.00
366.91	0.00
367.11	0.00
367.31	0.00
367.51	0.00
367.70	0.00
367.90	0.00
368.10	0.00
368.30	0.00
368.49	0.00
368.69	0.00
368.89	0.00
369.09	0.00
369.28	0.00
369.48	0.00
369.68	0.00
369.87	0.00
370.07	0.00
370.27	0.00
370.47	0.00
370.66	42.13
370.86	114.69
371.06	145.11
371.25	173.20
371.45	131.07
371.65	203.63
371.84	180.22
372.04	180.22
372.24	210.65
372.44	170.86
372.63	194.26
372.83	215.33
373.03	187.24
373.22	243.42
373.42	304.27
373.62	177.88
373.81	231.71
374.01	248.10
374.21	203.63
374.40	220.01
374.60	292.57
374.79	278.52
374.99	301.93
375.19	278.52
375.38	299.59
375.58	212.99
375.78	271.50
375.97	243.42
376.17	266.82
376.37	327.68
376.56	287.89
376.76	257.46
376.95	269.16
377.15	273.84
377.35	294.91
377.54	236.39
377.74	271.50
377.93	187.24
378.13	280.86
378.33	306.61
378.52	248.10
378.72	320.65
378.91	306.61
379.11	301.93
379.31	322.99
379.50	318.31
379.70	248.10
379.89	271.50
380.09	320.65
380.28	290.23
380.48	292.57
380.68	322.99
380.87	276.18
381.07	386.19
381.26	269.16
381.46	355.76
381.65	367.46
381.85	332.36
382.04	360.44
382.24	301.93
382.43	252.78
382.63	358.10
382.83	407.25
383.02	355.76
383.22	390.87
383.41	388.53
383.61	318.31
383.80	379.17
384.00	402.57
384.19	355.76
384.39	369.80
384.58	433.00
384.78	437.68
384.97	397.89
385.17	367.46
385.36	369.80
385.56	423.64
385.75	416.62
385.95	433.00
386.14	376.83
386.34	395.55
386.53	425.98
386.72	360.44
386.92	332.36
387.11	418.96
387.31	451.72
387.50	407.25
387.70	397.89
387.89	339.38
388.09	379.17
388.28	498.53
388.48	479.81
388.67	465.77
388.86	437.68
389.06	517.26
389.25	498.53
389.45	514.92
389.64	418.96
389.84	489.17
390.03	447.04
390.22	496.19
390.42	545.34
390.61	524.28
390.81	589.82
391.00	505.56
391.19	545.34
391.39	610.88
391.58	596.84
391.78	554.71
391.97	552.37
392.16	610.88
392.36	521.94
392.55	559.39
392.75	648.33
392.94	585.13
393.13	552.37
393.33	571.09
393.52	521.94
393.71	655.35
393.91	531.30
394.10	582.79
394.29	613.22
394.49	585.13
394.68	615.56
394.88	587.47
395.07	578.11
395.26	641.31
395.46	636.63
395.65	690.46
395.84	594.50
396.04	603.86
396.23	622.58
396.42	613.22
396.62	650.67
396.81	547.69
397.00	615.56
397.19	545.34
397.39	557.05
397.58	739.61
397.77	676.41
397.97	617.90
398.16	720.88
398.35	746.63
398.55	713.86
398.74	657.69
398.93	814.51
399.12	746.63
399.32	711.52
399.51	737.27
399.70	858.98
399.90	774.72
400.09	755.99
400.28	805.14
400.47	695.14
400.67	819.19
400.86	732.59
401.05	894.08
401.24	812.17
401.44	868.34
401.63	889.40
401.82	870.68
402.01	784.08
402.21	858.98
402.40	861.32
402.59	870.68
402.78	800.46
402.97	910.47
403.17	875.36
403.36	926.85
403.55	826.21
403.74	901.11
403.93	854.30
404.13	971.32
404.32	938.55
404.51	912.81
404.70	959.62
404.89	931.53
405.09	901.11
405.28	971.32
405.47	931.53
405.66	1039.20
405.85	987.71
406.05	1071.97
406.24	985.37
406.43	1039.20
406.62	1036.86
406.81	1118.78
407.00	1041.54
407.20	931.53
407.39	1043.88
407.58	1048.56
407.77	1088.35
407.96	1111.75
408.15	1191.33
408.34	1130.48
408.54	1064.94
408.73	1111.75
408.92	1081.33
409.11	1158.57
409.30	1132.82
409.49	1116.44
409.68	1174.95
409.87	1172.61
410.07	1240.48
410.26	1256.87
410.45	1142.18
410.64	1198.35
410.83	1245.16
411.02	1226.44
411.21	1277.93
411.40	1252.19
411.59	1322.40
411.78	1336.45
411.98	1303.68
412.17	1364.53
412.36	1277.93
412.55	1359.85
412.74	1448.79
412.93	1453.47
413.12	1416.02
413.31	1397.30
413.50	1481.56
413.69	1376.24
413.88	1486.24
414.07	1481.56
414.26	1483.90
414.45	1472.20
414.64	1577.52
414.83	1565.82
415.02	1600.93
415.22	1584.54
415.41	1638.38
415.60	1600.93
415.79	1511.99
415.98	1640.72
416.17	1563.48
416.36	1617.31
416.55	1563.48
416.74	1640.72
416.93	1750.72
417.12	1734.34
417.31	1650.08
417.50	1629.01
417.69	1856.04
417.88	1753.06
418.07	1596.25
418.26	1748.38
418.45	1804.55
418.64	1877.11
418.83	1809.23
419.02	1776.47
419.21	1891.15
419.39	1937.96
419.58	1781.15
419.77	1914.56
419.96	1851.36
420.15	1877.11
420.34	1891.15
420.53	1837.32
420.72	1926.26
420.91	1865.41
421.10	1947.33
421.29	2008.18
421.48	1937.96
421.67	2036.27
421.86	1963.71
422.05	2038.61
422.24	1959.03
422.43	2071.37
422.61	2017.54
422.80	2101.80
422.99	1996.48
423.18	1968.39
423.37	2139.25
423.56	2008.18
423.75	2139.25
423.94	1923.92
424.13	2036.27
424.32	2024.56
424.50	2097.12
424.69	2148.61
424.88	2160.31
425.07	2113.50
425.26	2015.20
425.45	2080.74
425.64	2085.42
425.83	2001.16
426.01	2019.88
426.20	2197.76
426.39	2101.80
426.58	2125.21
426.77	2008.18
426.96	2113.50
427.15	2179.04
427.33	2246.91
427.52	2136.91
427.71	2069.03
427.90	2200.10
428.09	2352.24
428.28	2169.68
428.46	2179.04
428.65	2228.19
428.84	2188.40
429.03	2356.92
429.22	2251.60
429.40	2253.94
429.59	2270.32
429.78	2251.60
429.97	2267.98
430.16	2331.17
430.34	2232.87
430.53	2307.77
430.72	2342.88
430.91	2366.28
431.10	2319.47
431.28	2394.37
431.47	2415.43
431.66	2396.71
431.85	2441.18
432.03	2534.80
432.22	2448.20
432.41	2415.43
432.60	2574.59
432.79	2504.37
432.97	2513.74
433.16	2436.50
433.35	2483.31
433.54	2569.91
433.72	2562.89
433.91	2511.39
434.10	2525.44
434.28	2663.53
434.47	2605.02
434.66	2635.44
434.85	2612.04
435.03	2572.25
435.22	2642.46
435.41	2686.94
435.59	2691.62
435.78	2686.94
435.97	2785.24
436.16	2752.47
436.34	2700.98
436.53	2722.04
436.72	2892.90
436.90	2794.60
437.09	2878.86
437.28	2719.70
437.46	2820.35
437.65	2796.94
437.84	2822.69
438.02	2895.24
438.21	2757.15
438.40	2911.63
438.58	2906.95
438.77	2892.90
438.96	2951.42
439.14	3073.12
439.33	3005.25
439.52	2953.76
439.70	3047.38
439.89	3199.51
440.08	3119.93
440.26	3152.70
440.45	3239.30
440.63	3197.17
440.82	3119.93
441.01	3232.28
441.19	3234.62
441.38	3349.31
441.57	3255.69
441.75	3307.18
441.94	3248.66
442.12	3421.86
442.31	3426.54
442.50	3316.54
442.68	3318.88
442.87	3445.27
443.05	3405.48
443.24	3456.97
443.43	3330.58
443.61	3522.51
443.80	3487.40
443.98	3414.84
444.17	3260.37
444.35	3508.46
444.54	3503.78
444.73	3576.34
444.91	3625.49
445.10	3471.01
445.28	3550.59
445.47	3475.70
445.65	3473.36
445.84	3592.72
446.02	3613.79
446.21	3480.38
446.39	3618.47
446.58	3571.66
446.77	3646.55
446.95	3435.91
447.14	3541.23
447.32	3669.96
447.51	3583.36
447.69	3485.06
447.88	3555.27
448.06	3599.74
448.25	3604.42
448.43	3581.02
448.62	3534.21
448.80	3590.38
448.99	3716.77
449.17	3754.22
449.36	3651.24
449.54	3775.28
449.73	3831.46
449.91	3784.65
450.10	3833.80
450.28	3754.22
450.46	3847.84
450.65	3758.90
450.83	3859.54
451.02	3943.80
451.20	3854.86
451.39	3815.07
451.57	3861.88
451.76	3882.95
451.94	3871.25
452.13	3943.80
452.31	4053.81
452.49	3950.82
452.68	3967.21
452.86	3819.75
453.05	4037.42
453.23	4093.60
453.42	3943.80
453.60	3950.82
453.78	3974.23
453.97	3918.06
454.15	3999.98
454.34	4016.36
454.52	4056.15
454.70	4142.75
454.89	4152.11
455.07	4147.43
455.26	4325.31
455.44	4163.81
455.62	4203.60
455.81	4095.94
455.99	4243.39
456.17	4177.86
456.36	4163.81
456.54	4245.73
456.73	4376.80
456.91	4528.94
457.09	4465.74
457.28	4376.80
457.46	4447.02
457.64	4582.77
457.83	4421.27
458.01	4332.33
458.19	4615.54
458.38	4526.60
458.56	4634.26
458.74	4528.94
458.93	4411.91
459.11	4695.11
459.29	4512.55
459.48	4709.16
459.66	4461.06
459.84	4517.23
460.03	4613.20
460.21	4723.20
460.39	4627.24
460.57	4505.53
460.76	4601.49
460.94	4837.89
461.12	4704.48
461.31	4641.28
461.49	4746.61
461.67	4732.56
461.85	4826.18
462.04	4725.54
462.22	5193.65
462.40	4823.84
462.59	4744.27
462.77	4800.44
462.95	4971.30
463.13	4891.72
463.32	4933.85
463.50	4961.94
463.68	4805.12
463.86	4985.34
464.05	4865.97
464.23	4903.42
464.41	5083.64
464.59	4990.02
464.78	5123.43
464.96	5011.09
465.14	4936.19
465.32	5097.69
465.50	5053.22
465.69	5032.15
465.87	5001.72
466.05	5146.84
466.23	5100.03
466.41	5186.63
466.60	5528.35
466.78	5114.07
466.96	5256.84
467.14	4959.60
467.32	5268.55
467.51	5210.03
467.69	5277.91
467.87	5350.46
468.05	5266.21
468.23	5336.42
468.41	5266.21
468.60	5221.74
468.78	5317.70
468.96	5502.60
469.14	5394.93
469.32	5467.49
469.50	5343.44
469.69	5401.96
469.87	5504.94
470.05	5523.66
470.23	5423.02
470.41	5453.45
470.59	5636.01
470.77	5544.73
470.95	5589.20
471.14	5607.92
471.32	5551.75
471.50	5741.33
471.68	5738.99
471.86	5799.85
472.04	5856.02
472.22	5865.38
472.40	5867.72
472.58	5898.15
472.77	5888.79
472.95	5963.68
473.13	5998.79
473.31	6045.60
473.49	5975.39
473.67	5954.32
473.85	6043.26
474.03	6242.21
474.21	6012.84
474.39	6340.51
474.57	6300.72
474.75	6211.78
474.93	6452.86
475.12	6380.30
475.30	6296.04
475.48	6377.96
475.66	6434.13
475.84	6466.90
476.02	6431.79
476.20	6630.74
476.38	6548.82
476.56	6775.85
476.74	6588.61
476.92	6836.70
477.10	6768.83
477.28	6839.05
477.46	6738.40
477.64	6869.47
477.82	6881.18
478.00	7332.90
478.18	7019.27
478.36	7075.44
478.54	7262.68
478.72	7206.51
478.90	7473.33
479.08	7192.47
479.26	7421.84
479.44	7583.34
479.62	7346.94
479.80	7712.07
479.98	7606.74
480.16	7927.39
480.34	7920.37
480.52	7808.03
480.70	7822.07
480.88	7838.45
481.06	7829.09
481.24	7983.57
481.41	8011.65
481.59	8018.68
481.77	8131.02
481.95	8489.12
482.13	8201.24
482.31	8243.37
482.49	8599.13
482.67	8442.31
482.85	8564.02
483.03	8830.84
483.21	8894.04
483.39	8826.16
483.57	8896.38
483.74	8854.25
483.92	9001.70
484.10	8903.40
484.28	9046.17
484.46	9268.52
484.64	9385.55
484.82	9100.00
485.00	9366.82
485.18	9214.69
485.35	9720.24
485.53	9680.46
485.71	9753.01
485.89	9860.68
486.07	9837.27
486.25	9865.36
486.43	9966.00
486.61	9996.43
486.78	10045.58
486.96	10251.55
487.14	10377.94
487.32	10157.92
487.50	10658.80
487.68	10513.69
487.85	10551.14
488.03	10729.02
488.21	10693.91
488.39	10853.06
488.57	11152.65
488.75	10942.00
488.92	11091.80
489.10	11197.12
489.28	11325.85
489.46	11272.02
489.64	11325.85
489.81	11393.73
489.99	11569.27
490.17	11573.95
490.35	11667.57
490.53	11681.61
490.70	11726.08
490.88	12009.29
491.06	12205.89
491.24	12133.34
491.41	12250.36
491.59	12161.42
491.77	12205.89
491.95	12819.11
492.13	12617.83
492.30	12519.53
492.48	12755.92
492.66	12575.70
492.84	12547.61
493.01	13114.02
493.19	12936.14
493.37	13151.47
493.54	12968.91
493.72	13359.78
493.90	13025.08
494.08	13345.73
494.25	13678.09
494.43	13413.61
494.61	13514.25
494.79	13642.98
494.96	13717.88
495.14	13542.34
495.32	14036.19
495.49	13961.30
495.67	13781.07
495.85	14342.80
496.02	14209.39
496.20	14377.91
496.38	14045.55
496.55	14349.82
496.73	14675.16
496.91	14623.67
497.09	14733.67
497.26	14651.75
497.44	14616.65
497.62	14647.07
497.79	14974.75
497.97	14817.93
498.14	15073.05
498.32	15199.44
498.50	15351.57
498.67	15241.57
498.85	15609.03
499.03	15707.34
499.20	15484.98
499.38	15126.88
499.56	15489.67
499.73	15527.11
499.91	15803.30
500.08	16002.24
500.26	15815.00
500.44	16002.24
500.61	15840.75
500.79	15887.56
500.97	16035.01
501.14	16006.92
501.32	16224.59
501.49	16229.27
501.67	16189.49
501.84	16791.00
502.02	16100.55
502.20	16688.02
502.37	16517.16
502.55	16386.09
502.72	16542.91
502.90	16608.44
503.07	16383.75
503.25	16807.39
503.43	16973.56
503.60	17027.40
503.78	16978.25
503.95	16877.60
504.13	17055.48
504.30	17097.61
504.48	17280.18
504.65	17123.36
504.83	17617.21
505.01	17598.49
505.18	17334.01
505.36	17738.92
505.53	17584.44
505.71	17549.34
505.88	17752.96
506.06	17963.61
506.23	17703.81
506.41	17671.04
506.58	17804.46
506.76	18082.98
506.93	18157.88
507.11	17848.93
507.28	17994.04
507.46	17980.00
507.63	18120.43
507.81	18223.41
507.98	18104.04
508.16	18272.56
508.33	18750.03
508.50	18284.26
508.68	18597.90
508.85	18827.27
509.03	18794.50
509.20	18537.04
509.38	18810.89
509.55	18836.63
509.73	18661.09
509.90	18860.04
510.08	18953.66
510.25	19536.45
510.42	19276.65
510.60	19386.66
510.77	19119.84
510.95	19150.26
511.12	19278.99
511.30	19243.88
511.47	19363.25
511.64	19377.30
511.82	19513.05
511.99	19433.47
512.17	19627.73
512.34	19344.53
512.51	19887.53
512.69	19763.48
512.86	19772.85
513.04	20091.16
513.21	19786.89
513.38	19985.83
513.56	20074.77
513.73	19854.76
513.90	20011.58
514.08	19901.58
514.25	20180.10
514.43	20365.00
514.60	20184.78
514.77	20496.07
514.95	20776.94
515.12	20561.61
515.29	20395.43
515.47	20299.47
515.64	20437.56
515.81	20460.96
515.99	20554.58
516.16	20900.98
516.33	20851.83
516.51	20879.92
516.68	20737.15
516.85	21034.39
517.03	20912.69
517.20	21013.33
517.37	21027.37
517.54	21111.63
517.72	21188.87
517.89	21282.49
518.06	21369.09
518.24	21303.56
518.41	21345.69
518.58	21333.98
518.75	21415.90
518.93	21696.77
519.10	21577.40
519.27	21656.98
519.45	21207.59
519.62	21652.30
519.79	21362.07
519.96	21785.71
520.14	22122.74
520.31	21769.32
520.48	21998.70
520.65	21792.73
520.83	22075.93
521.00	22207.00
521.17	21984.65
521.34	21855.92
521.52	22375.52
521.69	22132.11
521.86	22607.23
522.03	22345.09
522.20	22471.48
522.38	22082.95
522.55	22656.39
522.72	22520.63
522.89	22682.13
523.07	22803.84
523.24	22654.05
523.41	22691.49
523.58	22799.16
523.75	22806.18
523.92	22604.89
524.10	22934.91
524.27	23346.84
524.44	22965.34
524.61	23077.68
524.78	23276.63
524.96	22932.57
525.13	23033.21
525.30	23267.27
525.47	23124.49
525.64	23042.57
525.81	23388.97
525.98	23480.25
526.16	23550.47
526.33	23417.06
526.50	23723.67
526.67	23463.87
526.84	23159.60
527.01	23332.80
527.18	23702.61
527.36	23431.10
527.53	23634.73
527.70	23878.15
527.87	24049.00
528.04	24175.39
528.21	23838.36
528.38	23578.56
528.55	24215.18
528.72	23679.20
528.89	24058.37
529.07	23906.23
529.24	23880.49
529.41	24217.52
529.58	24297.10
529.75	24238.59
529.92	24570.94
530.09	24121.56
530.26	24287.74
530.43	24182.42
530.60	24273.70
530.77	24369.66
530.94	24568.60
531.11	24482.00
531.28	24266.67
531.46	24521.79
531.63	24449.24
531.80	24624.78
531.97	24774.57
532.14	24795.64
532.31	24692.65
532.48	24699.67
532.65	24865.85
532.82	24812.02
532.99	24568.60
533.16	25001.60
533.33	25085.86
533.50	25174.80
533.67	24978.20
533.84	24858.83
534.01	25120.97
534.18	24987.56
534.35	25439.28
534.52	25376.09
534.69	25336.30
534.86	25462.69
535.03	24886.92
535.20	25568.01
535.37	25598.44
535.54	25500.14
535.71	25238.00
535.88	24922.02
536.05	25439.28
536.22	25834.83
536.38	25338.64
536.55	25675.68
536.72	25516.52
536.89	25720.15
537.06	25640.57
537.23	25680.36
537.40	25912.07
537.57	25731.85
537.74	25858.24
537.91	25919.09
538.08	26459.76
538.25	25909.73
538.42	26054.84
538.59	25837.17
538.75	25673.34
538.92	25783.34
539.09	26658.70
539.26	26279.54
539.43	26235.06
539.60	26050.16
539.77	26197.62
539.94	26314.64
540.11	26443.37
540.28	26199.96
540.44	26452.73
540.61	26532.31
540.78	26267.83
540.95	26525.29
541.12	26249.11
541.29	26401.24
541.46	26518.27
541.62	26663.38
541.79	26593.17
541.96	26150.81
542.13	26661.04
542.30	26794.45
542.47	26576.78
542.63	27009.78
542.80	26909.14
542.97	26979.36
543.14	27185.32
543.31	27054.25
543.48	27005.10
543.64	27222.77
543.81	27449.80
543.98	27487.25
544.15	27449.80
544.32	27391.29
544.48	27278.94
544.65	27503.64
544.82	26937.23
544.99	27049.57
545.16	27681.52
545.32	27501.29
545.49	27576.19
545.66	27407.67
545.83	27960.04
546.00	27655.77
546.16	27498.95
546.33	27463.85
546.50	27239.15
546.67	27852.38
546.83	27337.46
547.00	27702.58
547.17	27545.76
547.34	27864.08
547.50	27810.25
547.67	28407.08
547.84	28030.26
548.00	27929.61
548.17	28156.64
548.34	27613.64
548.51	28577.94
548.67	28173.03
548.84	28252.61
549.01	27810.25
549.18	27740.03
549.34	27969.40
549.51	28163.67
549.68	27924.93
549.84	28292.40
550.01	28484.32
550.18	28620.07
550.34	27920.25
550.51	28514.75
550.68	28493.68
550.84	27880.46
551.01	28458.57
551.18	28257.29
551.34	28201.11
551.51	28046.64
551.68	28439.85
551.84	28505.38
552.01	28236.22
552.18	28180.05
552.34	28568.58
552.51	28374.31
552.68	28379.00
552.84	28472.62
553.01	28753.48
553.18	28819.02
553.34	28676.24
553.51	28673.90
553.67	28645.82
553.84	28933.70
554.01	29015.62
554.17	28914.98
554.34	28807.31
554.51	28950.09
554.67	29153.71
554.84	29081.16
555.00	28978.17
555.17	29017.96
555.33	29310.53
555.50	28840.08
555.67	29017.96
555.83	29022.64
556.00	29317.55
556.16	29567.99
556.33	28985.19
556.50	29223.93
556.66	29598.41
556.83	29373.72
556.99	29493.09
557.16	29413.51
557.32	29638.20
557.49	29806.72
557.65	29193.50
557.82	28844.76
557.98	29392.45
558.15	29462.66
558.32	29507.13
558.48	29951.84
558.65	29549.26
558.81	29074.13
558.98	29556.28
559.14	29432.24
559.31	29422.87
559.47	29249.67
559.64	29022.64
559.80	29834.81
559.97	29848.85
560.13	29605.44
560.30	29481.39
560.46	29516.50
560.63	29827.79
560.79	29670.97
560.96	29970.56
561.12	29256.70
561.29	29703.74
561.45	29575.01
561.61	29954.18
561.78	29816.08
561.94	30148.44
562.11	29865.24
562.27	29736.51
562.44	29844.17
562.60	29799.70
562.77	29727.14
562.93	29788.00
563.10	29748.21
563.26	29596.07
563.42	30022.05
563.59	29989.28
563.75	29954.18
563.92	30082.91
564.08	29607.78
564.24	29895.66
564.41	29881.62
564.57	29670.97
564.74	29689.70
564.90	30029.07
565.07	29809.06
565.23	30309.94
565.39	29942.47
565.56	30036.09
565.72	29792.68
565.88	30005.67
566.05	30024.39
566.21	30082.91
566.38	30366.11
566.54	30384.83
566.70	30347.39
566.87	30742.94
567.03	30169.51
567.19	30646.97
567.36	30225.68
567.52	30174.19
567.68	30054.82
567.85	30345.05
568.01	30054.82
568.17	30228.02
568.34	30005.67
568.50	30518.25
568.66	30122.69
568.83	30412.92
568.99	30431.65
569.15	30405.90
569.32	30333.34
569.48	30040.78
569.64	30328.66
569.81	30366.11
569.97	30536.97
570.13	30363.77
570.30	30232.70
570.46	30625.91
570.62	30485.48
570.78	30298.23
570.95	30314.62
571.11	30375.47
571.27	30279.51
571.43	30480.80
571.60	30345.05
571.76	30415.26
571.92	30731.23
572.09	30815.49
572.25	30485.48
572.41	30204.61
572.57	30419.94
572.74	30871.67
572.90	30558.03
573.06	30356.75
573.22	29963.54
573.38	30878.69
573.55	30389.52
573.71	30981.67
573.87	30890.39
574.03	30487.82
574.20	30644.63
574.36	30525.27
574.52	30686.76
574.68	30127.38
574.84	30735.92
575.01	30911.46
575.17	31016.78
575.33	30661.02
575.49	30909.11
575.65	30827.20
575.82	30438.67
575.98	30726.55
576.14	31035.50
576.30	30698.47
576.46	30581.44
576.62	30478.46
576.79	30682.08
576.95	30845.92
577.11	30984.01
577.27	30874.01
577.43	30366.11
577.59	30771.02
577.75	30946.56
577.92	30492.50
578.08	30562.72
578.24	30649.32
578.40	30684.42
578.56	30567.40
578.72	30780.39
578.88	31314.03
579.04	31035.50
579.21	30712.51
579.37	30663.36
579.53	31012.10
579.69	30522.93
579.85	30562.72
580.01	31084.65
580.17	30534.63
580.33	31164.23
580.49	30616.55
580.65	31166.57
580.82	30782.73
580.98	30831.88
581.14	30546.33
581.30	30855.28
581.46	30902.09
581.62	30581.44
581.78	30607.19
581.94	30829.54
582.10	30824.86
582.26	30649.32
582.42	31040.18
582.58	31103.38
582.74	30836.56
582.90	31199.34
583.06	30775.70
583.22	30916.14
583.38	30597.82
583.54	30991.03
583.70	31089.34
583.86	30892.73
584.02	30380.15
584.18	30916.14
584.34	31147.85
584.50	31161.89
584.66	30754.64
584.82	31122.10
584.98	31021.46
585.14	30733.57
585.30	30508.88
585.46	31037.84
585.62	30497.18
585.78	31079.97
585.94	30775.70
586.10	30675.06
586.26	31278.92
586.42	31475.52
586.58	31578.51
586.74	30998.06
586.90	30726.55
587.06	30920.82
587.22	31087.00
587.38	30810.81
587.54	31007.42
587.70	31323.39
587.86	30993.37
588.02	31051.89
588.18	31395.95
588.34	30892.73
588.49	31173.60
588.65	30494.84
588.81	31035.50
588.97	30988.69
589.13	30682.08
589.29	30946.56
589.45	31290.62
589.61	31063.59
589.77	31234.45
589.93	31299.98
590.08	31381.90
590.24	31498.93
590.40	31620.64
590.56	31360.84
590.72	30895.07
590.88	30780.39
591.04	31201.68
591.20	31321.05
591.35	31435.74
591.51	31543.40
591.67	31597.23
591.83	31498.93
