SpectraSuite Data File
++++++++++++++++++++++++++++++++++++
Date: Fri Oct 18 13:58:43 GMT-05:00 2013
User: bianchi
Dark Spectrum Present: No
Reference Spectrum Present: No
Number of Sampled Component Spectra: 1
Spectrometers: USB2+H05261
Integration Time (usec): 50000 (USB2+H05261)
Spectra Averaged: 1 (USB2+H05261)
Boxcar Smoothing: 0 (USB2+H05261)
Correct for Electrical Dark: No (USB2+H05261)
Strobe/Lamp Enabled: No (USB2+H05261)
Correct for Detector Non-linearity: No (USB2+H05261)
Correct for Stray Light: No (USB2+H05261)
Number of Pixels in Processed Spectrum: 2048
>>>>>Begin Processed Spectral Data<<<<<
365.73	0.00
365.92	0.00
366.12	0.00
366.32	0.00
366.52	0.00
366.72	0.00
366.91	0.00
367.11	0.00
367.31	0.00
367.51	0.00
367.70	0.00
367.90	0.00
368.10	0.00
368.30	0.00
368.49	0.00
368.69	0.00
368.89	0.00
369.09	0.00
369.28	0.00
369.48	0.00
369.68	0.00
369.87	0.00
370.07	0.00
370.27	0.00
370.47	0.00
370.66	114.69
370.86	117.03
371.06	77.24
371.25	173.20
371.45	140.43
371.65	126.39
371.84	163.84
372.04	149.79
372.24	149.79
372.44	159.16
372.63	170.86
372.83	205.97
373.03	180.22
373.22	88.94
373.42	161.50
373.62	238.73
373.81	241.08
374.01	271.50
374.21	182.56
374.40	194.26
374.60	154.48
374.79	175.54
374.99	304.27
375.19	273.84
375.38	238.73
375.58	210.65
375.78	259.80
375.97	313.63
376.17	259.80
376.37	220.01
376.56	196.60
376.76	304.27
376.95	313.63
377.15	304.27
377.35	292.57
377.54	341.72
377.74	262.14
377.93	271.50
378.13	285.55
378.33	320.65
378.52	201.29
378.72	280.86
378.91	341.72
379.11	315.97
379.31	285.55
379.50	262.14
379.70	269.16
379.89	278.52
380.09	201.29
380.28	306.61
380.48	346.40
380.68	229.37
380.87	355.76
381.07	299.59
381.26	327.68
381.46	351.08
381.65	351.08
381.85	362.78
382.04	369.80
382.24	273.84
382.43	395.55
382.63	327.68
382.83	315.97
383.02	360.44
383.22	355.76
383.41	372.15
383.61	374.49
383.80	423.64
384.00	269.16
384.19	365.12
384.39	313.63
384.58	337.04
384.78	383.85
384.97	376.83
385.17	400.23
385.36	365.12
385.56	346.40
385.75	367.46
385.95	355.76
386.14	411.93
386.34	411.93
386.53	393.21
386.72	388.53
386.92	442.36
387.11	414.27
387.31	400.23
387.50	409.59
387.70	421.30
387.89	393.21
388.09	365.12
388.28	458.74
388.48	381.51
388.67	461.09
388.86	435.34
389.06	461.09
389.25	437.68
389.45	517.26
389.64	463.43
389.84	510.24
390.03	470.45
390.22	463.43
390.42	486.83
390.61	519.60
390.81	437.68
391.00	479.81
391.19	519.60
391.39	491.51
391.58	512.58
391.78	489.17
391.97	554.71
392.16	519.60
392.36	545.34
392.55	533.64
392.75	484.49
392.94	592.16
393.13	535.98
393.33	510.24
393.52	498.53
393.71	580.45
393.91	489.17
394.10	613.22
394.29	561.73
394.49	538.32
394.68	592.16
394.88	627.26
395.07	606.20
395.26	573.43
395.46	578.11
395.65	587.47
395.84	624.92
396.04	692.80
396.23	688.12
396.42	545.34
396.62	676.41
396.81	643.65
397.00	653.01
397.19	585.13
397.39	660.03
397.58	669.39
397.77	643.65
397.97	575.77
398.16	692.80
398.35	748.97
398.55	662.37
398.74	704.50
398.93	744.29
399.12	751.31
399.32	636.63
399.51	690.46
399.70	746.63
399.90	692.80
400.09	723.23
400.28	702.16
400.47	720.88
400.67	788.76
400.86	763.01
401.05	800.46
401.24	744.29
401.44	746.63
401.63	809.83
401.82	739.61
402.01	847.27
402.21	823.87
402.40	795.78
402.59	868.34
402.78	805.14
402.97	847.27
403.17	922.17
403.36	866.00
403.55	830.89
403.74	842.59
403.93	868.34
404.13	873.02
404.32	828.55
404.51	933.87
404.70	889.40
404.89	809.83
405.09	943.24
405.28	919.83
405.47	887.06
405.66	992.39
405.85	985.37
406.05	910.47
406.24	968.98
406.43	933.87
406.62	1018.13
406.81	997.07
407.00	983.02
407.20	1025.15
407.39	964.30
407.58	945.58
407.77	1041.54
407.96	1086.01
408.15	1034.52
408.34	1039.20
408.54	1093.03
408.73	1165.59
408.92	1067.28
409.11	1064.94
409.30	1069.62
409.49	1081.33
409.68	1151.54
409.87	1102.39
410.07	1142.18
410.26	1153.88
410.45	1135.16
410.64	1184.31
410.83	1144.52
411.02	1118.78
411.21	1210.06
411.40	1210.06
411.59	1252.19
411.78	1259.21
411.98	1277.93
412.17	1205.38
412.36	1240.48
412.55	1252.19
412.74	1282.61
412.93	1373.89
413.12	1380.92
413.31	1418.36
413.50	1404.32
413.69	1418.36
413.88	1432.41
414.07	1409.00
414.26	1509.65
414.45	1387.94
414.64	1481.56
414.83	1526.03
415.02	1584.54
415.22	1504.96
415.41	1514.33
415.60	1586.88
415.79	1509.65
415.98	1610.29
416.17	1638.38
416.36	1533.05
416.55	1645.40
416.74	1675.82
416.93	1612.63
417.12	1732.00
417.31	1631.35
417.50	1636.03
417.69	1692.21
417.88	1727.32
418.07	1717.95
418.26	1685.19
418.45	1748.38
418.64	1811.57
418.83	1755.40
419.02	1806.89
419.21	1795.19
419.39	1753.06
419.58	1811.57
419.77	1760.08
419.96	1830.30
420.15	1853.70
420.34	1898.17
420.53	1820.94
420.72	1813.92
420.91	1942.64
421.10	1834.98
421.29	1949.67
421.48	1935.62
421.67	1956.69
421.86	1935.62
422.05	1930.94
422.24	1998.82
422.43	1872.43
422.61	1973.07
422.80	1984.77
422.99	1919.24
423.18	2069.03
423.37	1966.05
423.56	1963.71
423.75	2024.56
423.94	2003.50
424.13	1994.14
424.32	1905.20
424.50	2090.10
424.69	2022.22
424.88	1987.11
425.07	2047.97
425.26	2003.50
425.45	2022.22
425.64	2059.67
425.83	2062.01
426.01	2050.31
426.20	1933.28
426.39	2010.52
426.58	2019.88
426.77	2059.67
426.96	2038.61
427.15	2022.22
427.33	2120.53
427.52	2132.23
427.71	2169.68
427.90	2169.68
428.09	2036.27
428.28	2169.68
428.46	2207.13
428.65	2134.57
428.84	2204.78
429.03	2265.64
429.22	2172.02
429.40	2141.59
429.59	2293.72
429.78	2157.97
429.97	2251.60
430.16	2087.76
430.34	2218.83
430.53	2406.07
430.72	2359.26
430.91	2303.09
431.10	2207.13
431.28	2282.02
431.47	2476.29
431.66	2483.31
431.85	2361.60
432.03	2359.26
432.22	2462.24
432.41	2242.23
432.60	2480.97
432.79	2385.01
432.97	2403.73
433.16	2429.48
433.35	2424.80
433.54	2511.39
433.72	2537.14
433.91	2560.55
434.10	2551.18
434.28	2595.65
434.47	2511.39
434.66	2658.85
434.85	2583.95
435.03	2551.18
435.22	2628.42
435.41	2619.06
435.59	2609.70
435.78	2663.53
435.97	2698.64
436.16	2637.78
436.34	2705.66
436.53	2670.55
436.72	2820.35
436.90	2672.89
437.09	2635.44
437.28	2656.51
437.46	2663.53
437.65	2855.45
437.84	2771.19
438.02	2696.30
438.21	2705.66
438.40	2799.28
438.58	2876.52
438.77	2883.54
438.96	2937.37
439.14	2883.54
439.33	2930.35
439.52	2876.52
439.70	2827.37
439.89	3145.68
440.08	2984.18
440.26	2897.58
440.45	2986.52
440.63	3089.51
440.82	3056.74
441.01	3166.74
441.19	3122.27
441.38	3164.40
441.57	3288.45
441.75	3248.66
441.94	3192.49
442.12	3152.70
442.31	3358.67
442.50	3253.34
442.68	3220.58
442.87	3346.97
443.05	3449.95
443.24	3323.56
443.43	3335.26
443.61	3325.90
443.80	3463.99
443.98	3342.28
444.17	3239.30
444.35	3321.22
444.54	3293.13
444.73	3335.26
444.91	3513.14
445.10	3398.46
445.28	3433.57
445.47	3386.76
445.65	3473.36
445.84	3372.71
446.02	3475.70
446.21	3466.33
446.39	3410.16
446.58	3529.53
446.77	3487.40
446.95	3449.95
447.14	3482.72
447.32	3501.44
447.51	3339.94
447.69	3508.46
447.88	3487.40
448.06	3466.33
448.25	3442.93
448.43	3412.50
448.62	3555.27
448.80	3564.64
448.99	3513.14
449.17	3466.33
449.36	3552.93
449.54	3674.64
449.73	3796.35
449.91	3744.86
450.10	3698.05
450.28	3665.28
450.46	3754.22
450.65	3719.11
450.83	3955.51
451.02	3721.45
451.20	3763.58
451.39	3737.84
451.57	3744.86
451.76	3744.86
451.94	3805.71
452.13	3875.93
452.31	3812.73
452.49	3808.05
452.68	3794.01
452.86	3768.26
453.05	3934.44
453.23	3908.69
453.42	3915.72
453.60	3906.35
453.78	3882.95
453.97	3784.65
454.15	3826.78
454.34	3899.33
454.52	4004.66
454.70	4044.45
454.89	3880.61
455.07	4060.83
455.26	4067.85
455.44	4138.07
455.62	4053.81
455.81	4046.79
455.99	4163.81
456.17	4210.62
456.36	4180.20
456.54	4121.68
456.73	4028.06
456.91	4278.50
457.09	4273.82
457.28	4463.40
457.46	4138.07
457.64	4301.90
457.83	4294.88
458.01	4287.86
458.19	4374.46
458.38	4257.43
458.56	4355.74
458.74	4589.79
458.93	4355.74
459.11	4442.34
459.29	4308.93
459.48	4437.66
459.66	4358.08
459.84	4493.83
460.03	4472.76
460.21	4493.83
460.39	4479.79
460.57	4638.94
460.76	4517.23
460.94	4573.41
461.12	4528.94
461.31	4589.79
461.49	4456.38
461.67	4631.92
461.85	4798.10
462.04	4554.68
462.22	4793.42
462.40	4734.90
462.59	4793.42
462.77	4793.42
462.95	4737.24
463.13	4826.18
463.32	4716.18
463.50	4711.50
463.68	4898.74
463.86	4898.74
464.05	4767.67
464.23	4901.08
464.41	5153.86
464.59	4767.67
464.78	4954.91
464.96	4896.40
465.14	4842.57
465.32	4980.66
465.50	4987.68
465.69	4940.87
465.87	4968.96
466.05	5027.47
466.23	4887.04
466.41	5057.90
466.60	5139.82
466.78	5055.56
466.96	5153.86
467.14	5036.83
467.32	5137.48
467.51	5217.05
467.69	4985.34
467.87	4980.66
468.05	5249.82
468.23	5029.81
468.41	5057.90
468.60	5193.65
468.78	5245.14
468.96	5149.18
469.14	5376.21
469.32	5282.59
469.50	5158.54
469.69	5275.57
469.87	5291.95
470.05	5467.49
470.23	5270.89
470.41	5413.66
470.59	5603.24
470.77	5418.34
470.95	5549.41
471.14	5561.11
471.32	5322.38
471.50	5600.90
471.68	5439.40
471.86	5535.37
472.04	5816.23
472.22	5708.57
472.40	5579.84
472.58	5617.29
472.77	5755.38
472.95	5804.53
473.13	5963.68
473.31	5919.21
473.49	5694.52
473.67	5870.06
473.85	5886.45
474.03	5970.71
474.21	5984.75
474.39	5970.71
474.57	5933.26
474.75	6083.05
474.93	5935.60
475.12	6202.42
475.30	6085.39
475.48	6120.50
475.66	6246.89
475.84	6204.76
476.02	6207.10
476.20	6251.57
476.38	6300.72
476.56	6530.09
476.74	6499.67
476.92	6452.86
477.10	6553.50
477.28	6548.82
477.46	6595.63
477.64	6640.10
477.82	6640.10
478.00	6806.28
478.18	6722.02
478.36	6864.79
478.54	7016.93
478.72	6876.49
478.90	6988.84
479.08	7115.23
479.26	7159.70
479.44	7178.42
479.62	7129.27
479.80	7398.43
479.98	7480.35
480.16	7667.60
480.34	7581.00
480.52	7627.81
480.70	7602.06
480.88	7641.85
481.06	7695.68
481.24	7482.69
481.41	7557.59
481.59	7974.21
481.77	8159.11
481.95	7868.88
482.13	8049.10
482.31	7896.97
482.49	7971.86
482.67	8189.53
482.85	8189.53
483.03	8341.67
483.21	8500.83
483.39	8709.13
483.57	8451.67
483.74	8540.61
483.92	8697.43
484.10	8765.31
484.28	9011.06
484.46	9022.77
484.64	8943.19
484.82	8966.59
485.00	8837.86
485.18	9191.28
485.35	9390.23
485.53	9296.61
485.71	9390.23
485.89	9582.15
486.07	9390.23
486.25	9535.34
486.43	9708.54
486.61	9638.33
486.78	9762.37
486.96	10015.15
487.14	9937.91
487.32	9989.41
487.50	10001.11
487.68	10235.16
487.85	10134.52
488.03	10239.84
488.21	10509.01
488.39	10530.07
488.57	10574.54
488.75	10630.71
488.92	10794.55
489.10	10630.71
489.28	10876.47
489.46	10853.06
489.64	11136.27
489.81	11239.25
489.99	11225.21
490.17	11206.48
490.35	11440.54
490.53	11475.65
490.70	11576.29
490.88	11550.54
491.06	11648.85
491.24	11730.76
491.41	11662.89
491.59	11896.94
491.77	11833.75
491.95	11868.86
492.13	12035.03
492.30	12046.74
492.48	12215.26
492.66	11946.09
492.84	12280.79
493.01	12484.42
493.19	12613.15
493.37	12870.61
493.54	12538.25
493.72	12987.63
493.90	12788.69
494.08	12741.88
494.25	12964.23
494.43	13231.05
494.61	13263.82
494.79	13280.20
494.96	13114.02
495.14	13369.14
495.32	13397.23
495.49	13425.31
495.67	13591.49
495.85	13720.22
496.02	13701.50
496.20	13851.29
496.38	14040.87
496.55	13720.22
496.73	14136.84
496.91	14099.39
497.09	14118.11
497.26	14218.75
497.44	14207.05
497.62	14141.52
497.79	14698.56
497.97	14487.92
498.14	14497.28
498.32	14675.16
498.50	14628.35
498.67	14925.60
498.85	14593.24
499.03	14993.47
499.20	14906.87
499.38	15021.56
499.56	14743.03
499.73	14993.47
499.91	15016.88
500.08	15468.60
500.26	15445.20
500.44	15262.63
500.61	15279.02
500.79	15311.78
500.97	15492.01
501.14	15524.77
501.32	15653.50
501.49	15651.16
501.67	15782.23
501.84	15716.70
502.02	15817.34
502.20	16079.48
502.37	16180.12
502.55	15903.94
502.72	16161.40
502.90	16196.51
503.07	15997.56
503.25	15843.09
503.43	16280.77
503.60	16510.14
503.78	16437.58
503.95	16423.54
504.13	16559.29
504.30	16243.32
504.48	16358.00
504.65	16589.72
504.83	16791.00
505.01	16945.48
505.18	16744.19
505.36	16999.31
505.53	16800.37
505.71	16573.33
505.88	16959.52
506.06	16905.69
506.23	17214.64
506.41	16940.80
506.58	17380.82
506.76	17238.05
506.93	17195.92
507.11	17240.39
507.28	17434.65
507.46	17549.34
507.63	17458.06
507.81	17783.39
507.98	17530.61
508.16	17954.25
508.33	17689.77
508.50	17827.86
508.68	18015.10
508.85	17972.97
509.03	18036.17
509.20	18242.14
509.38	18104.04
509.55	18214.05
509.73	18113.41
509.90	18143.83
510.08	18270.22
510.25	18167.24
510.42	18625.98
510.60	18597.90
510.77	18398.95
510.95	18476.19
511.12	18642.37
511.30	18457.46
511.47	18792.16
511.64	18658.75
511.82	18813.23
511.99	19133.88
512.17	19040.26
512.34	18815.57
512.51	18904.51
512.69	19047.28
512.86	19131.54
513.04	19309.42
513.21	19281.33
513.38	19145.58
513.56	19491.98
513.73	19412.40
513.90	19124.52
514.08	19353.89
514.25	19147.92
514.43	19110.47
514.60	19702.63
514.77	19515.39
514.95	19948.39
515.12	19300.06
515.29	19461.55
515.47	19597.31
515.64	20109.88
515.81	19871.15
515.99	19721.35
516.16	20301.81
516.33	20215.21
516.51	20187.12
516.68	20210.53
516.85	20144.99
517.03	20306.49
517.20	20575.65
517.37	20357.98
517.54	20194.14
517.72	20596.71
517.89	20491.39
518.06	20559.27
518.24	20442.24
518.41	20552.24
518.58	20713.74
518.75	20444.58
518.93	20585.01
519.10	20828.43
519.27	21167.80
519.45	20713.74
519.62	21046.10
519.79	20760.55
519.96	21076.52
520.14	21057.80
520.31	20917.37
520.48	21390.16
520.65	20905.66
520.83	21369.09
521.00	21242.70
521.17	21289.51
521.34	21209.93
521.52	21802.09
521.69	21584.42
521.86	21720.17
522.03	21869.97
522.20	21687.40
522.38	21687.40
522.55	21673.36
522.72	21603.14
522.89	21745.92
523.07	21986.99
523.24	21855.92
523.41	22061.89
523.58	21872.31
523.75	21797.41
523.92	21921.46
524.10	22052.53
524.27	22321.69
524.44	22230.41
524.61	22199.98
524.78	22398.93
524.96	22319.35
525.13	22302.96
525.30	22101.68
525.47	22251.47
525.64	22555.74
525.81	22738.30
525.98	22621.28
526.16	22520.63
526.33	22703.20
526.50	22696.17
526.67	22562.76
526.84	22644.68
527.01	22485.53
527.18	22801.50
527.36	22881.08
527.53	23047.26
527.70	23290.67
527.87	23344.50
528.04	23154.92
528.21	22965.34
528.38	23108.11
528.55	22967.68
528.72	23201.73
528.89	23068.32
529.07	23220.45
529.24	23115.13
529.41	23309.40
529.58	23026.19
529.75	23339.82
529.92	23363.23
530.09	23681.54
530.26	23396.00
530.43	23608.98
530.60	23637.07
530.77	23564.51
530.94	23452.17
531.11	23552.81
531.28	23594.94
531.46	23601.96
531.63	23754.10
531.80	23927.30
531.97	24269.01
532.14	23803.25
532.31	23913.25
532.48	23616.01
532.65	23838.36
532.82	23861.76
532.99	24002.19
533.16	24037.30
533.33	23997.51
533.50	24285.40
533.67	24376.68
533.84	24215.18
534.01	24081.77
534.18	23854.74
534.35	24528.81
534.52	24364.98
534.69	24409.45
534.86	24673.93
535.03	24386.04
535.20	24615.41
535.37	24566.26
535.54	24886.92
535.71	24568.60
535.88	24650.52
536.05	24741.80
536.22	24737.12
536.38	24620.10
536.55	24748.82
536.72	24613.07
536.89	24685.63
537.06	24964.15
537.23	24907.98
537.40	24734.78
537.57	24837.76
537.74	25092.88
537.91	25156.08
538.08	24933.73
538.25	25137.35
538.42	25317.57
538.59	25287.15
538.75	24931.39
538.92	24795.64
539.09	24980.54
539.26	25371.41
539.43	25448.64
539.60	25413.54
539.77	25549.29
539.94	25254.38
540.11	25170.12
540.28	24893.94
540.44	25252.04
540.61	25390.13
540.78	25390.13
540.95	25439.28
541.12	25408.86
541.29	25486.09
541.46	25654.61
541.62	25584.40
541.79	25778.66
541.96	25287.15
542.13	25689.72
542.30	25687.38
542.47	26302.94
542.63	25752.91
542.80	26132.08
542.97	25783.34
543.14	26452.73
543.31	26136.76
543.48	25928.45
543.64	26225.70
543.81	26221.02
543.98	26536.99
544.15	26106.34
544.32	26321.66
544.48	26534.65
544.65	26434.01
544.82	26003.35
544.99	25961.22
545.16	26293.58
545.32	26389.54
545.49	26466.78
545.66	26806.16
545.83	26562.74
546.00	27028.51
546.16	26501.89
546.33	26153.15
546.50	26511.25
546.67	26984.04
546.83	26169.53
547.00	26387.20
547.17	26705.51
547.34	26611.89
547.50	26717.22
547.67	27033.19
547.84	27007.44
548.00	26998.08
548.17	27005.10
548.34	26909.14
548.51	27009.78
548.67	27054.25
548.84	27154.90
549.01	26937.23
549.18	27119.79
549.34	26845.94
549.51	27517.68
549.68	26740.62
549.84	26803.82
550.01	27187.66
550.18	27365.54
550.34	27166.60
550.51	27274.26
550.68	27365.54
550.84	26906.80
551.01	27473.21
551.18	27564.49
551.34	26995.74
551.51	27470.87
551.68	27360.86
551.84	27491.93
552.01	27480.23
552.18	27351.50
552.34	27702.58
552.51	27653.43
552.68	27185.32
552.84	27779.82
553.01	27854.72
553.18	27913.23
553.34	27854.72
553.51	27491.93
553.67	27826.63
553.84	27950.68
554.01	27826.63
554.17	27791.52
554.34	27810.25
554.51	27913.23
554.67	27728.33
554.84	27807.90
555.00	27857.06
555.17	27644.07
555.33	28112.17
555.50	27747.05
555.67	27810.25
555.83	27910.89
556.00	27957.70
556.16	28137.92
556.33	28006.85
556.50	27976.42
556.66	28500.70
556.83	27894.50
556.99	28191.75
557.16	28149.62
557.32	28268.99
557.49	28233.88
557.65	27770.46
557.82	27906.21
557.98	28402.40
558.15	28245.58
558.32	28697.31
558.48	28271.33
558.65	28580.28
558.81	28276.01
558.98	28526.45
559.14	28463.25
559.31	28205.80
559.47	28430.49
559.64	28191.75
559.80	28481.98
559.97	28617.73
560.13	28498.36
560.30	28795.61
560.46	28725.39
560.63	28655.18
560.79	28273.67
560.96	28346.23
561.12	28491.34
561.29	28669.22
561.45	28273.67
561.61	28746.46
561.78	29048.39
561.94	28489.00
562.11	28627.09
562.27	28816.68
562.44	28900.94
562.60	28421.13
562.77	28673.90
562.93	28493.68
563.10	28783.91
563.26	28692.63
563.42	28697.31
563.59	28826.04
563.75	28669.22
563.92	28891.57
564.08	28821.36
564.24	28711.35
564.41	28591.98
564.57	28353.25
564.74	28795.61
564.90	29179.46
565.07	29074.13
565.23	28947.75
565.39	28819.02
565.56	29401.81
565.72	28709.01
565.88	29336.27
566.05	28800.29
566.21	28678.58
566.38	28465.60
566.54	29078.82
566.70	29301.17
566.87	29144.35
567.03	29575.01
567.19	29357.34
567.36	29226.27
567.52	28985.19
567.68	29090.52
567.85	29015.62
568.01	29172.44
568.17	28861.15
568.34	28922.00
568.50	29191.16
568.66	29427.56
568.83	29177.12
568.99	28842.42
569.15	29127.97
569.32	29036.69
569.48	28559.22
569.64	29207.55
569.81	29467.34
569.97	29024.98
570.13	29514.16
570.30	29275.42
570.46	29319.89
570.62	29429.90
570.78	29551.60
570.95	29078.82
571.11	29223.93
571.27	29125.63
571.43	28985.19
571.60	29296.49
571.76	29497.77
571.92	29223.93
572.09	29209.89
572.25	29369.04
572.41	29188.82
572.57	29270.74
572.74	29448.62
572.90	29420.53
573.06	29329.25
573.22	29216.91
573.38	29785.66
573.55	29324.57
573.71	29551.60
573.87	29240.31
574.03	29355.00
574.20	29390.11
574.36	29362.02
574.52	29460.32
574.68	28886.89
574.84	29773.95
575.01	29827.79
575.17	29390.11
575.33	29696.72
575.49	29806.72
575.65	29788.00
575.82	29558.63
575.98	29422.87
576.14	29465.00
576.30	29575.01
576.46	29825.45
576.62	29280.10
576.79	29415.85
576.95	29558.63
577.11	29738.85
577.27	29682.67
577.43	29649.91
577.59	29406.49
577.75	29642.88
577.92	29310.53
578.08	29095.20
578.24	29563.31
578.40	29333.93
578.56	29626.50
578.72	29015.62
578.88	29776.30
579.04	30110.99
579.21	29261.38
579.37	29720.12
579.53	29830.13
579.69	29118.60
579.85	29685.01
580.01	29462.66
580.17	29443.94
580.33	29336.27
580.49	29303.51
580.65	29736.51
580.82	29682.67
580.98	29818.42
581.14	29649.91
581.30	29467.34
581.46	29647.57
581.62	29780.98
581.78	29347.98
581.94	29883.96
582.10	29490.75
582.26	29912.05
582.42	29495.43
582.58	30061.84
582.74	29783.32
582.90	29717.78
583.06	29560.97
583.22	29539.90
583.38	29582.03
583.54	29834.81
583.70	29582.03
583.86	29734.17
584.02	29773.95
584.18	29596.07
584.34	29551.60
584.50	29488.41
584.66	29666.29
584.82	29385.43
584.98	30019.71
585.14	30080.56
585.30	29661.61
585.46	29221.59
585.62	29165.42
585.78	29778.64
585.94	29462.66
586.10	29743.53
586.26	29432.24
586.42	30061.84
586.58	29872.26
586.74	29663.95
586.90	29832.47
587.06	29607.78
587.22	29750.55
587.38	29579.69
587.54	29851.19
587.70	29795.02
587.86	29685.01
588.02	30143.76
588.18	30054.82
588.34	29563.31
588.49	29687.36
588.65	29310.53
588.81	29465.00
588.97	29612.46
589.13	29975.24
589.29	29907.37
589.45	29965.88
589.61	30012.69
589.77	30115.67
589.93	30190.57
590.08	30150.78
590.24	29715.44
590.40	30188.23
590.56	30326.32
590.72	29890.98
590.88	29886.30
591.04	29881.62
591.20	29940.13
591.35	30204.61
591.51	30389.52
591.67	30174.19
591.83	30129.72
591.99	30155.46
