SpectraSuite Data File
++++++++++++++++++++++++++++++++++++
Date: Fri Oct 18 13:58:14 GMT-05:00 2013
User: bianchi
Dark Spectrum Present: No
Reference Spectrum Present: No
Number of Sampled Component Spectra: 1
Spectrometers: USB2+H05261
Integration Time (usec): 50000 (USB2+H05261)
Spectra Averaged: 1 (USB2+H05261)
Boxcar Smoothing: 0 (USB2+H05261)
Correct for Electrical Dark: No (USB2+H05261)
Strobe/Lamp Enabled: No (USB2+H05261)
Correct for Detector Non-linearity: No (USB2+H05261)
Correct for Stray Light: No (USB2+H05261)
Number of Pixels in Processed Spectrum: 2048
>>>>>Begin Processed Spectral Data<<<<<
365.73	0.00
365.92	0.00
366.12	0.00
366.32	0.00
366.52	0.00
366.72	0.00
366.91	0.00
367.11	0.00
367.31	0.00
367.51	0.00
367.70	0.00
367.90	0.00
368.10	0.00
368.30	0.00
368.49	0.00
368.69	0.00
368.89	0.00
369.09	0.00
369.28	0.00
369.48	0.00
369.68	0.00
369.87	0.00
370.07	0.00
370.27	0.00
370.47	0.00
370.66	77.24
370.86	107.66
371.06	0.00
371.25	229.37
371.45	159.16
371.65	182.56
371.84	102.98
372.04	133.41
372.24	128.73
372.44	198.95
372.63	201.29
372.83	215.33
373.03	145.11
373.22	196.60
373.42	163.84
373.62	243.42
373.81	276.18
374.01	217.67
374.21	212.99
374.40	231.71
374.60	285.55
374.79	262.14
374.99	255.12
375.19	325.33
375.38	231.71
375.58	241.08
375.78	271.50
375.97	252.78
376.17	229.37
376.37	297.25
376.56	227.03
376.76	250.44
376.95	208.31
377.15	255.12
377.35	308.95
377.54	292.57
377.74	278.52
377.93	161.50
378.13	299.59
378.33	280.86
378.52	245.76
378.72	390.87
378.91	271.50
379.11	280.86
379.31	365.12
379.50	278.52
379.70	390.87
379.89	292.57
380.09	330.02
380.28	306.61
380.48	276.18
380.68	280.86
380.87	273.84
381.07	332.36
381.26	372.15
381.46	358.10
381.65	287.89
381.85	341.72
382.04	313.63
382.24	297.25
382.43	400.23
382.63	327.68
382.83	320.65
383.02	337.04
383.22	285.55
383.41	330.02
383.61	355.76
383.80	315.97
384.00	308.95
384.19	444.70
384.39	428.32
384.58	327.68
384.78	376.83
384.97	383.85
385.17	407.25
385.36	367.46
385.56	346.40
385.75	421.30
385.95	411.93
386.14	407.25
386.34	442.36
386.53	325.33
386.72	390.87
386.92	430.66
387.11	440.02
387.31	440.02
387.50	400.23
387.70	437.68
387.89	465.77
388.09	482.15
388.28	472.79
388.48	489.17
388.67	498.53
388.86	468.11
389.06	397.89
389.25	428.32
389.45	575.77
389.64	381.51
389.84	388.53
390.03	477.47
390.22	444.70
390.42	414.27
390.61	388.53
390.81	407.25
391.00	505.56
391.19	491.51
391.39	526.62
391.58	500.87
391.78	596.84
391.97	493.85
392.16	402.57
392.36	524.28
392.55	526.62
392.75	510.24
392.94	571.09
393.13	521.94
393.33	550.03
393.52	582.79
393.71	589.82
393.91	538.32
394.10	484.49
394.29	606.20
394.49	573.43
394.68	587.47
394.88	617.90
395.07	622.58
395.26	585.13
395.46	543.00
395.65	681.10
395.84	617.90
396.04	608.54
396.23	629.60
396.42	573.43
396.62	667.05
396.81	599.18
397.00	753.65
397.19	634.29
397.39	697.48
397.58	660.03
397.77	657.69
397.97	674.07
398.16	667.05
398.35	690.46
398.55	692.80
398.74	711.52
398.93	828.55
399.12	720.88
399.32	688.12
399.51	774.72
399.70	734.93
399.90	786.42
400.09	765.36
400.28	758.33
400.47	814.51
400.67	760.67
400.86	819.19
401.05	840.25
401.24	849.61
401.44	765.36
401.63	800.46
401.82	763.01
402.01	786.42
402.21	786.42
402.40	777.06
402.59	807.48
402.78	870.68
402.97	842.59
403.17	851.96
403.36	891.74
403.55	849.61
403.74	908.13
403.93	786.42
404.13	882.38
404.32	917.49
404.51	880.04
404.70	1011.11
404.89	873.02
405.09	1015.79
405.28	908.13
405.47	875.36
405.66	961.96
405.85	1078.99
406.05	954.94
406.24	1006.43
406.43	968.98
406.62	971.32
406.81	1097.71
407.00	875.36
407.20	985.37
407.39	908.13
407.58	1032.18
407.77	1067.28
407.96	1074.31
408.15	1116.44
408.34	1071.97
408.54	1057.92
408.73	1041.54
408.92	1008.77
409.11	1071.97
409.30	1088.35
409.49	1086.01
409.68	1046.22
409.87	1158.57
410.07	1116.44
410.26	1109.41
410.45	1235.80
410.64	1181.97
410.83	1158.57
411.02	1135.16
411.21	1196.01
411.40	1254.53
411.59	1284.95
411.78	1280.27
411.98	1266.23
412.17	1336.45
412.36	1249.85
412.55	1287.29
412.74	1359.85
412.93	1434.75
413.12	1252.19
413.31	1472.20
413.50	1306.02
413.69	1474.54
413.88	1404.32
414.07	1404.32
414.26	1446.45
414.45	1439.43
414.64	1490.92
414.83	1486.24
415.02	1486.24
415.22	1451.13
415.41	1596.25
415.60	1638.38
415.79	1603.27
415.98	1645.40
416.17	1661.78
416.36	1528.37
416.55	1617.31
416.74	1633.69
416.93	1607.95
417.12	1607.95
417.31	1652.42
417.50	1710.93
417.69	1755.40
417.88	1692.21
418.07	1774.13
418.26	1708.59
418.45	1701.57
418.64	1774.13
418.83	1722.63
419.02	1825.62
419.21	1830.30
419.39	1865.41
419.58	1753.06
419.77	1816.26
419.96	1839.66
420.15	1834.98
420.34	1839.66
420.53	1792.85
420.72	1884.13
420.91	1949.67
421.10	1921.58
421.29	1893.49
421.48	1884.13
421.67	1996.48
421.86	1888.81
422.05	1900.52
422.24	1874.77
422.43	1926.26
422.61	2073.71
422.80	2022.22
422.99	2012.86
423.18	2071.37
423.37	2062.01
423.56	1921.58
423.75	1956.69
423.94	2008.18
424.13	1975.41
424.32	1952.01
424.50	1947.33
424.69	2062.01
424.88	2015.20
425.07	2076.06
425.26	2136.91
425.45	2054.99
425.64	1998.82
425.83	2160.31
426.01	1930.94
426.20	2064.35
426.39	2012.86
426.58	2099.46
426.77	2040.95
426.96	2073.71
427.15	2069.03
427.33	2085.42
427.52	2153.29
427.71	2118.18
427.90	2160.31
428.09	2129.89
428.28	2150.95
428.46	2230.53
428.65	2228.19
428.84	2331.17
429.03	2359.26
429.22	2183.72
429.40	2132.23
429.59	2176.70
429.78	2045.63
429.97	2111.16
430.16	2251.60
430.34	2267.98
430.53	2279.68
430.72	2289.04
430.91	2356.92
431.10	2216.49
431.28	2387.35
431.47	2328.83
431.66	2443.52
431.85	2406.07
432.03	2396.71
432.22	2558.21
432.41	2417.77
432.60	2499.69
432.79	2504.37
432.97	2523.10
433.16	2487.99
433.35	2511.39
433.54	2597.99
433.72	2665.87
433.91	2441.18
434.10	2532.46
434.28	2581.61
434.47	2478.63
434.66	2499.69
434.85	2548.84
435.03	2534.80
435.22	2637.78
435.41	2644.81
435.59	2684.59
435.78	2665.87
435.97	2630.76
436.16	2717.36
436.34	2689.28
436.53	2588.63
436.72	2792.26
436.90	2640.12
437.09	2684.59
437.28	2572.25
437.46	2743.11
437.65	2679.91
437.84	2825.03
438.02	2750.13
438.21	2698.64
438.40	2726.72
438.58	2911.63
438.77	2892.90
438.96	2792.26
439.14	3009.93
439.33	2829.71
439.52	3028.65
439.70	3049.72
439.89	3101.21
440.08	3059.08
440.26	3117.59
440.45	2930.35
440.63	3056.74
440.82	3176.11
441.01	2986.52
441.19	3199.51
441.38	3201.85
441.57	3272.07
441.75	3192.49
441.94	3283.77
442.12	3236.96
442.31	3349.31
442.50	3321.22
442.68	3248.66
442.87	3232.28
443.05	3468.67
443.24	3398.46
443.43	3419.52
443.61	3426.54
443.80	3445.27
443.98	3206.53
444.17	3215.90
444.35	3410.16
444.54	3419.52
444.73	3447.61
444.91	3520.17
445.10	3515.48
445.28	3463.99
445.47	3496.76
445.65	3414.84
445.84	3396.12
446.02	3438.25
446.21	3286.11
446.39	3419.52
446.58	3449.95
446.77	3524.85
446.95	3316.54
447.14	3438.25
447.32	3581.02
447.51	3581.02
447.69	3405.48
447.88	3571.66
448.06	3510.80
448.25	3440.59
448.43	3632.51
448.62	3499.10
448.80	3496.76
448.99	3625.49
449.17	3651.24
449.36	3557.61
449.54	3646.55
449.73	3845.50
449.91	3735.50
450.10	3599.74
450.28	3866.56
450.46	3590.38
450.65	3716.77
450.83	3772.94
451.02	3747.20
451.20	3859.54
451.39	3817.41
451.57	3758.90
451.76	3777.62
451.94	3857.20
452.13	3992.95
452.31	3875.93
452.49	3754.22
452.68	3826.78
452.86	3826.78
453.05	3995.29
453.23	3861.88
453.42	4014.02
453.60	3946.14
453.78	3756.56
453.97	3709.75
454.15	3847.84
454.34	3829.12
454.52	3962.53
454.70	3983.59
454.89	3974.23
455.07	4058.49
455.26	3911.04
455.44	4182.54
455.62	4138.07
455.81	3988.27
455.99	4105.30
456.17	4124.02
456.36	4032.74
456.54	4156.79
456.73	4311.27
456.91	4430.63
457.09	4351.06
457.28	4468.08
457.46	4315.95
457.64	4425.95
457.83	4400.21
458.01	4432.97
458.19	4411.91
458.38	4437.66
458.56	4395.53
458.74	4533.62
458.93	4404.89
459.11	4540.64
459.29	4442.34
459.48	4524.26
459.66	4447.02
459.84	4437.66
460.03	4662.35
460.21	4365.10
460.39	4468.08
460.57	4386.16
460.76	4552.34
460.94	4542.98
461.12	4664.69
461.31	4629.58
461.49	4559.36
461.67	4503.19
461.85	4737.24
462.04	4823.84
462.22	4968.96
462.40	4711.50
462.59	4685.75
462.77	4648.30
462.95	4833.21
463.13	4660.01
463.32	4774.69
463.50	4821.50
463.68	4870.65
463.86	4793.42
464.05	4624.90
464.23	4800.44
464.41	4987.68
464.59	4760.65
464.78	4985.34
464.96	4940.87
465.14	4919.81
465.32	5041.51
465.50	5055.56
465.69	5067.26
465.87	5170.24
466.05	4957.25
466.23	5053.22
466.41	5027.47
466.60	5060.24
466.78	5043.85
466.96	5100.03
467.14	5027.47
467.32	5053.22
467.51	5132.79
467.69	4915.12
467.87	5111.73
468.05	5334.08
468.23	4990.02
468.41	5102.37
468.60	5266.21
468.78	5298.97
468.96	5109.39
469.14	5200.67
469.32	5310.68
469.50	5174.92
469.69	5411.32
469.87	5544.73
470.05	5270.89
470.23	5315.36
470.41	5320.04
470.59	5671.12
470.77	5423.02
470.95	5460.47
471.14	5533.03
471.32	5385.57
471.50	5643.03
471.68	5703.89
471.86	5493.24
472.04	5628.99
472.22	5619.63
472.40	5687.50
472.58	5764.74
472.77	5935.60
472.95	5685.16
473.13	5933.26
473.31	5907.51
473.49	5696.86
473.67	5720.27
473.85	5781.12
474.03	6045.60
474.21	5968.37
474.39	6066.67
474.57	6078.37
474.75	6127.52
474.93	6188.38
475.12	6120.50
475.30	6289.02
475.48	6181.35
475.66	6279.66
475.84	6265.61
476.02	6377.96
476.20	6410.73
476.38	6441.15
476.56	6607.33
476.74	6661.16
476.92	6382.64
477.10	6490.31
477.28	6836.70
477.46	6562.86
477.64	6722.02
477.82	6736.06
478.00	6932.67
478.18	7073.10
478.36	6991.18
478.54	7016.93
478.72	7211.19
478.90	7101.19
479.08	7403.11
479.26	7258.00
479.44	7148.00
479.62	7363.33
479.80	7379.71
479.98	7466.31
480.16	7585.68
480.34	7393.75
480.52	7641.85
480.70	7468.65
480.88	7573.97
481.06	7674.62
481.24	7653.55
481.41	7733.13
481.59	8037.40
481.77	8042.08
481.95	7861.86
482.13	8142.72
482.31	8095.91
482.49	8170.81
482.67	8067.83
482.85	8428.27
483.03	8456.36
483.21	8435.29
483.39	8634.24
483.57	8446.99
483.74	8713.81
483.92	8542.96
484.10	8674.03
484.28	8769.99
484.46	9008.72
484.64	9078.94
484.82	9011.06
485.00	9034.47
485.18	9118.73
485.35	9591.52
485.53	9371.50
485.71	9322.35
485.89	9605.56
486.07	9444.06
486.25	9748.33
486.43	9659.39
486.61	9507.26
486.78	9818.55
486.96	9921.53
487.14	9956.64
487.32	10143.88
487.50	9947.28
487.68	9977.70
487.85	10071.33
488.03	10534.75
488.21	10740.72
488.39	10485.60
488.57	10548.79
488.75	10677.52
488.92	10897.53
489.10	10864.77
489.28	10913.92
489.46	11105.84
489.64	10839.02
489.81	11328.19
489.99	11377.34
490.17	11089.46
490.35	11307.13
490.53	11358.62
490.70	11761.19
490.88	11398.41
491.06	11662.89
491.24	11590.33
491.41	11826.73
491.59	12006.95
491.77	11960.14
491.95	12278.45
492.13	12037.38
492.30	12264.41
492.48	12322.92
492.66	12098.23
492.84	12215.26
493.01	12641.23
493.19	12554.63
493.37	12723.15
493.54	13095.30
493.72	12821.45
493.90	12947.84
494.08	12826.14
494.25	12945.50
494.43	12952.52
494.61	13434.68
494.79	13607.87
494.96	13224.03
495.14	13460.42
495.32	13441.70
495.49	13357.44
495.67	13914.48
495.85	13682.77
496.02	13865.33
496.20	13795.12
496.38	13898.10
496.55	13851.29
496.73	14136.84
496.91	13956.61
497.09	14052.58
497.26	14300.67
497.44	14225.78
497.62	14427.06
497.79	14569.83
497.97	14618.99
498.14	14670.48
498.32	14878.79
498.50	14712.61
498.67	14923.26
498.85	14824.95
499.03	14923.26
499.20	15063.69
499.38	14878.79
499.56	15059.01
499.73	15346.89
499.91	15328.17
500.08	15344.55
500.26	15197.10
500.44	15293.06
500.61	15536.48
500.79	15604.35
500.97	15623.08
501.14	15896.92
501.32	15864.15
501.49	15901.60
501.67	15747.12
501.84	15983.52
502.02	15836.06
502.20	15864.15
502.37	16322.90
502.55	16049.05
502.72	16248.00
502.90	16475.03
503.07	16044.37
503.25	16255.02
503.43	15983.52
503.60	16657.59
503.78	16360.34
503.95	16297.15
504.13	16524.18
504.30	16666.95
504.48	16510.14
504.65	16566.31
504.83	16980.59
505.01	16865.90
505.18	16959.52
505.36	17263.79
505.53	17013.35
505.71	17032.08
505.88	17046.12
506.06	17214.64
506.23	17565.72
506.41	17406.56
506.58	17135.06
506.76	17359.75
506.93	17483.80
507.11	17432.31
507.28	17490.82
507.46	17329.33
507.63	17706.15
507.81	17731.90
507.98	17748.28
508.16	17734.24
508.33	17652.32
508.50	17994.04
508.68	17872.33
508.85	18185.96
509.03	18155.54
509.20	18361.50
509.38	18120.43
509.55	18389.59
509.73	18466.83
509.90	18267.88
510.08	18244.48
510.25	18279.58
510.42	18609.60
510.60	18462.15
510.77	18553.43
510.95	18932.59
511.12	18696.20
511.30	18735.99
511.47	18794.50
511.64	18757.05
511.82	19103.45
511.99	18904.51
512.17	19080.05
512.34	19002.81
512.51	19215.80
512.69	19126.86
512.86	18925.57
513.04	19262.61
513.21	19391.34
513.38	19405.38
513.56	19318.78
513.73	19396.02
513.90	19405.38
514.08	19173.67
514.25	19426.45
514.43	19667.52
514.60	19747.10
514.77	19932.00
514.95	19920.30
515.12	19714.33
515.29	19932.00
515.47	19660.50
515.64	19859.45
515.81	19960.09
515.99	20222.23
516.16	20379.04
516.33	20367.34
516.51	20568.63
516.68	20264.36
516.85	20439.90
517.03	20074.77
517.20	20435.22
517.37	20271.38
517.54	20334.57
517.72	20601.40
517.89	20482.03
518.06	20772.25
518.24	20505.43
518.41	20540.54
518.58	20467.98
518.75	20514.80
518.93	20573.31
519.10	20404.79
519.27	21268.45
519.45	20940.77
519.62	20861.19
519.79	20837.79
519.96	20936.09
520.14	21319.94
520.31	21067.16
520.48	21530.59
520.65	21359.73
520.83	21401.86
521.00	21364.41
521.17	21317.60
521.34	21397.18
521.52	21605.49
521.69	21689.74
521.86	21621.87
522.03	21537.61
522.20	21846.56
522.38	21844.22
522.55	21811.45
522.72	22024.44
522.89	21713.15
523.07	22424.67
523.24	21673.36
523.41	22174.24
523.58	21926.14
523.75	22174.24
523.92	22113.38
524.10	22120.40
524.27	21968.27
524.44	22408.29
524.61	22604.89
524.78	22532.34
524.96	22490.21
525.13	22207.00
525.30	22698.52
525.47	22207.00
525.64	22274.88
525.81	22920.87
525.98	22654.05
526.16	22686.81
526.33	22494.89
526.50	22920.87
526.67	22916.19
526.84	22738.30
527.01	22782.77
527.18	22752.35
527.36	22707.88
527.53	22906.82
527.70	22981.72
527.87	23435.78
528.04	23239.18
528.21	22827.24
528.38	23002.78
528.55	23356.21
528.72	23234.50
528.89	23285.99
529.07	23814.95
529.24	23475.57
529.41	23410.04
529.58	23660.48
529.75	23641.75
529.92	23484.94
530.09	23585.58
530.26	23314.08
530.43	23686.22
530.60	23197.05
530.77	23573.88
530.94	23908.57
531.11	23714.31
531.28	23208.75
531.46	23931.98
531.63	23957.72
531.80	24208.16
531.97	23826.65
532.14	24037.30
532.31	24039.64
532.48	23948.36
532.65	24247.95
532.82	24278.38
532.99	23821.97
533.16	24037.30
533.33	24140.29
533.50	24329.87
533.67	24170.71
533.84	23995.17
534.01	24140.29
534.18	23913.25
534.35	24538.18
534.52	24709.04
534.69	24533.50
534.86	24381.36
535.03	24634.14
535.20	24540.52
535.37	24933.73
535.54	24680.95
535.71	24566.26
535.88	24577.97
536.05	24554.56
536.22	24985.22
536.38	24882.24
536.55	24924.36
536.72	24957.13
536.89	25146.72
537.06	24687.97
537.23	25034.37
537.40	24987.56
537.57	24835.42
537.74	24985.22
537.91	25336.30
538.08	25039.05
538.25	25287.15
538.42	25315.23
538.59	25273.10
538.75	25544.61
538.92	25394.81
539.09	25331.62
539.26	25446.30
539.43	25348.00
539.60	25439.28
539.77	25467.37
539.94	25633.55
540.11	25530.56
540.28	25811.43
540.44	25645.25
540.61	25469.71
540.78	25324.60
540.95	25752.91
541.12	25795.04
541.29	25874.62
541.46	25806.75
541.62	25458.01
541.79	25731.85
541.96	25326.94
542.13	25727.17
542.30	25755.26
542.47	26228.04
542.63	26251.45
542.80	26366.13
542.97	26611.89
543.14	26174.21
543.31	26001.01
543.48	26338.05
543.64	26206.98
543.81	26574.44
543.98	26291.24
544.15	26501.89
544.32	26658.70
544.48	26719.56
544.65	26417.63
544.82	25998.67
544.99	26153.15
545.16	26525.29
545.32	26223.36
545.49	26462.10
545.66	26574.44
545.83	26967.65
546.00	26749.98
546.16	26536.99
546.33	26721.90
546.50	26567.42
546.67	26632.96
546.83	26738.28
547.00	26792.11
547.17	26874.03
547.34	26749.98
547.50	26995.74
547.67	27197.02
547.84	26986.38
548.00	26834.24
548.17	27276.60
548.34	27145.53
548.51	27058.93
548.67	27232.13
548.84	27234.47
549.01	27042.55
549.18	26930.20
549.34	27030.85
549.51	27075.32
549.68	26995.74
549.84	27147.87
550.01	26925.52
550.18	27129.15
550.34	27379.59
550.51	27667.47
550.68	27573.85
550.84	27292.99
551.01	27615.98
551.18	27676.83
551.34	27480.23
551.51	27393.63
551.68	27199.37
551.84	27405.33
552.01	27871.10
552.18	27552.79
552.34	27412.35
552.51	27597.26
552.68	27222.77
552.84	27835.99
553.01	27831.31
553.18	27253.20
553.34	27711.94
553.51	27903.87
553.67	28016.21
553.84	28039.62
554.01	28060.68
554.17	27903.87
554.34	27833.65
554.51	28058.34
554.67	28016.21
554.84	28046.64
555.00	28048.98
555.17	28004.51
555.33	27917.91
555.50	27742.37
555.67	27969.40
555.83	28233.88
556.00	27882.80
556.16	28425.81
556.33	28077.07
556.50	27871.10
556.66	28559.22
556.83	28247.93
556.99	28486.66
557.16	28395.38
557.32	28290.06
557.49	28584.96
557.65	28177.71
557.82	28299.42
557.98	28287.71
558.15	28095.79
558.32	28563.90
558.48	28166.01
558.65	28711.35
558.81	28477.30
558.98	28533.47
559.14	28474.96
559.31	28547.51
559.47	28765.18
559.64	28240.90
559.80	28896.25
559.97	29109.24
560.13	28879.87
560.30	28367.29
560.46	29003.92
560.63	28694.97
560.79	28570.92
560.96	29209.89
561.12	28538.15
561.29	28912.64
561.45	28613.05
561.61	28898.59
561.78	28863.49
561.94	28802.63
562.11	29113.92
562.27	28704.33
562.44	29158.39
562.60	28498.36
562.77	29237.97
562.93	28826.04
563.10	29069.45
563.26	29333.93
563.42	29378.40
563.59	29216.91
563.75	29134.99
563.92	28889.23
564.08	28694.97
564.24	28968.81
564.41	28811.99
564.57	29263.72
564.74	29113.92
564.90	29109.24
565.07	29102.22
565.23	28896.25
565.39	29254.36
565.56	29125.63
565.72	29008.60
565.88	29209.89
566.05	29144.35
566.21	29170.10
566.38	29032.00
566.54	29235.63
566.70	29331.59
566.87	29486.07
567.03	29252.02
567.19	29677.99
567.36	29401.81
567.52	29008.60
567.68	29312.87
567.85	29287.12
568.01	29584.37
568.17	29186.48
568.34	29518.84
568.50	29626.50
568.66	29310.53
568.83	29521.18
568.99	29144.35
569.15	29490.75
569.32	29043.71
569.48	29233.29
569.64	29497.77
569.81	29420.53
569.97	29376.06
570.13	29577.35
570.30	29457.98
570.46	29722.46
570.62	29572.67
570.78	29392.45
570.95	29102.22
571.11	29509.47
571.27	29240.31
571.43	29294.14
571.60	29064.77
571.76	29254.36
571.92	29617.14
572.09	29823.11
572.25	29666.29
572.41	29666.29
572.57	29312.87
572.74	29551.60
572.90	29682.67
573.06	29193.50
573.22	29418.19
573.38	29542.24
573.55	29434.58
573.71	29469.69
573.87	30125.04
574.03	29333.93
574.20	29759.91
574.36	29692.04
574.52	29469.69
574.68	29546.92
574.84	29624.16
575.01	29715.44
575.17	29570.33
575.33	29507.13
575.49	29347.98
575.65	29759.91
575.82	29446.28
575.98	29750.55
576.14	29928.43
576.30	29741.19
576.46	29626.50
576.62	29172.44
576.79	30057.16
576.95	29301.17
577.11	29759.91
577.27	29881.62
577.43	29788.00
577.59	29799.70
577.75	29528.20
577.92	29539.90
578.08	29401.81
578.24	29467.34
578.40	29654.59
578.56	29675.65
578.72	29612.46
578.88	29832.47
579.04	30235.04
579.21	29479.05
579.37	29965.88
579.53	30008.01
579.69	29495.43
579.85	29818.42
580.01	29806.72
580.17	29652.25
580.33	29589.05
580.49	29661.61
580.65	29813.74
580.82	29731.83
580.98	29785.66
581.14	29839.49
581.30	29989.28
581.46	29551.60
581.62	29570.33
581.78	29907.37
581.94	29504.79
582.10	29617.14
582.26	29624.16
582.42	29504.79
582.58	30108.65
582.74	30150.78
582.90	30050.14
583.06	29532.88
583.22	29689.70
583.38	29851.19
583.54	29516.50
583.70	30043.12
583.86	29909.71
584.02	29900.34
584.18	29926.09
584.34	30213.98
584.50	30132.06
584.66	29944.81
584.82	29612.46
584.98	30043.12
585.14	29907.37
585.30	29685.01
585.46	29741.19
585.62	29745.87
585.78	29970.56
585.94	29881.62
586.10	30043.12
586.26	29965.88
586.42	30022.05
586.58	30036.09
586.74	29619.48
586.90	29900.34
587.06	29717.78
587.22	29572.67
587.38	30157.80
587.54	29888.64
587.70	30349.73
587.86	29989.28
588.02	30478.46
588.18	30223.34
588.34	30209.29
588.49	30382.49
588.65	29935.45
588.81	29930.77
588.97	30066.52
589.13	29895.66
589.29	30155.46
589.45	30167.16
589.61	29935.45
589.77	30394.20
589.93	30281.85
590.08	30197.59
590.24	30721.87
590.40	30403.56
590.56	30031.41
590.72	30089.93
590.88	30059.50
591.04	30251.42
591.20	30644.63
591.35	30511.22
591.51	30476.12
591.67	30305.26
591.83	30185.89
591.99	30340.36
