SpectraSuite Data File
++++++++++++++++++++++++++++++++++++
Date: Fri Oct 18 13:58:15 GMT-05:00 2013
User: bianchi
Dark Spectrum Present: No
Reference Spectrum Present: No
Number of Sampled Component Spectra: 1
Spectrometers: USB2+H05261
Integration Time (usec): 50000 (USB2+H05261)
Spectra Averaged: 1 (USB2+H05261)
Boxcar Smoothing: 0 (USB2+H05261)
Correct for Electrical Dark: No (USB2+H05261)
Strobe/Lamp Enabled: No (USB2+H05261)
Correct for Detector Non-linearity: No (USB2+H05261)
Correct for Stray Light: No (USB2+H05261)
Number of Pixels in Processed Spectrum: 2048
>>>>>Begin Processed Spectral Data<<<<<
365.73	0.00
365.92	0.00
366.12	0.00
366.32	0.00
366.52	0.00
366.72	0.00
366.91	0.00
367.11	0.00
367.31	0.00
367.51	0.00
367.70	0.00
367.90	0.00
368.10	0.00
368.30	0.00
368.49	0.00
368.69	0.00
368.89	0.00
369.09	0.00
369.28	0.00
369.48	0.00
369.68	0.00
369.87	0.00
370.07	0.00
370.27	0.00
370.47	0.00
370.66	140.43
370.86	98.30
371.06	177.88
371.25	105.32
371.45	126.39
371.65	117.03
371.84	112.35
372.04	95.96
372.24	201.29
372.44	210.65
372.63	168.52
372.83	194.26
373.03	201.29
373.22	191.92
373.42	138.09
373.62	266.82
373.81	154.48
374.01	266.82
374.21	208.31
374.40	212.99
374.60	227.03
374.79	177.88
374.99	215.33
375.19	287.89
375.38	285.55
375.58	269.16
375.78	224.69
375.97	325.33
376.17	318.31
376.37	245.76
376.56	262.14
376.76	191.92
376.95	259.80
377.15	294.91
377.35	285.55
377.54	210.65
377.74	271.50
377.93	311.29
378.13	264.48
378.33	334.70
378.52	390.87
378.72	262.14
378.91	301.93
379.11	320.65
379.31	248.10
379.50	346.40
379.70	250.44
379.89	353.42
380.09	318.31
380.28	294.91
380.48	241.08
380.68	360.44
380.87	299.59
381.07	259.80
381.26	355.76
381.46	407.25
381.65	369.80
381.85	290.23
382.04	339.38
382.24	297.25
382.43	313.63
382.63	320.65
382.83	315.97
383.02	390.87
383.22	304.27
383.41	306.61
383.61	372.15
383.80	365.12
384.00	395.55
384.19	421.30
384.39	372.15
384.58	393.21
384.78	299.59
384.97	355.76
385.17	393.21
385.36	355.76
385.56	313.63
385.75	374.49
385.95	369.80
386.14	372.15
386.34	393.21
386.53	351.08
386.72	388.53
386.92	437.68
387.11	322.99
387.31	430.66
387.50	388.53
387.70	409.59
387.89	372.15
388.09	416.62
388.28	404.91
388.48	449.38
388.67	449.38
388.86	437.68
389.06	454.06
389.25	411.93
389.45	433.00
389.64	395.55
389.84	456.40
390.03	468.11
390.22	521.94
390.42	447.04
390.61	566.41
390.81	503.22
391.00	503.22
391.19	552.37
391.39	477.47
391.58	512.58
391.78	545.34
391.97	493.85
392.16	578.11
392.36	498.53
392.55	512.58
392.75	545.34
392.94	641.31
393.13	510.24
393.33	575.77
393.52	571.09
393.71	592.16
393.91	610.88
394.10	601.52
394.29	491.51
394.49	517.26
394.68	592.16
394.88	601.52
395.07	601.52
395.26	571.09
395.46	528.96
395.65	685.78
395.84	678.76
396.04	660.03
396.23	629.60
396.42	624.92
396.62	681.10
396.81	695.14
397.00	688.12
397.19	664.71
397.39	636.63
397.58	727.91
397.77	655.35
397.97	678.76
398.16	531.30
398.35	786.42
398.55	629.60
398.74	695.14
398.93	674.07
399.12	653.01
399.32	723.23
399.51	674.07
399.70	779.40
399.90	739.61
400.09	702.16
400.28	814.51
400.47	727.91
400.67	763.01
400.86	702.16
401.05	786.42
401.24	748.97
401.44	798.12
401.63	779.40
401.82	676.41
402.01	851.96
402.21	781.74
402.40	784.08
402.59	835.57
402.78	870.68
402.97	870.68
403.17	884.72
403.36	880.04
403.55	788.76
403.74	910.47
403.93	819.19
404.13	863.66
404.32	968.98
404.51	910.47
404.70	959.62
404.89	858.98
405.09	952.60
405.28	901.11
405.47	933.87
405.66	968.98
405.85	1015.79
406.05	990.05
406.24	908.13
406.43	1015.79
406.62	1013.45
406.81	1036.86
407.00	1048.56
407.20	985.37
407.39	959.62
407.58	1093.03
407.77	1086.01
407.96	1067.28
408.15	1039.20
408.34	1043.88
408.54	1146.86
408.73	1055.58
408.92	1062.60
409.11	1128.14
409.30	1205.38
409.49	1186.65
409.68	1074.31
409.87	1214.74
410.07	1181.97
410.26	1167.93
410.45	1174.95
410.64	1252.19
410.83	1142.18
411.02	1167.93
411.21	1235.80
411.40	1238.14
411.59	1273.25
411.78	1256.87
411.98	1310.70
412.17	1214.74
412.36	1256.87
412.55	1313.04
412.74	1383.26
412.93	1359.85
413.12	1371.55
413.31	1483.90
413.50	1362.19
413.69	1446.45
413.88	1554.12
414.07	1390.28
414.26	1366.87
414.45	1481.56
414.64	1479.22
414.83	1481.56
415.02	1530.71
415.22	1458.15
415.41	1568.16
415.60	1586.88
415.79	1680.50
415.98	1551.78
416.17	1593.90
416.36	1537.73
416.55	1619.65
416.74	1558.80
416.93	1577.52
417.12	1788.17
417.31	1727.32
417.50	1788.17
417.69	1727.32
417.88	1593.90
418.07	1741.36
418.26	1561.14
418.45	1736.68
418.64	1844.34
418.83	1743.70
419.02	1806.89
419.21	1827.96
419.39	1858.39
419.58	1820.94
419.77	1865.41
419.96	1834.98
420.15	1881.79
420.34	1746.04
420.53	1760.08
420.72	1853.70
420.91	1961.37
421.10	1923.92
421.29	1989.46
421.48	1895.83
421.67	1839.66
421.86	1914.56
422.05	1907.54
422.24	1879.45
422.43	1961.37
422.61	2071.37
422.80	1926.26
422.99	2045.63
423.18	2040.95
423.37	2038.61
423.56	2026.90
423.75	1984.77
423.94	1832.64
424.13	1928.60
424.32	1886.47
424.50	2066.69
424.69	2139.25
424.88	2008.18
425.07	2054.99
425.26	1952.01
425.45	2083.08
425.64	1947.33
425.83	2029.24
426.01	2033.93
426.20	2118.18
426.39	2113.50
426.58	2125.21
426.77	2143.93
426.96	2127.55
427.15	2122.87
427.33	2092.44
427.52	2090.10
427.71	2176.70
427.90	2066.69
428.09	2099.46
428.28	2139.25
428.46	2258.62
428.65	2279.68
428.84	2270.32
429.03	2216.49
429.22	2282.02
429.40	2286.70
429.59	2270.32
429.78	2040.95
429.97	2256.28
430.16	2193.08
430.34	2387.35
430.53	2354.58
430.72	2289.04
430.91	2223.51
431.10	2230.53
431.28	2389.69
431.47	2471.61
431.66	2333.51
431.85	2286.70
432.03	2373.30
432.22	2450.54
432.41	2429.48
432.60	2438.84
432.79	2399.05
432.97	2525.44
433.16	2469.27
433.35	2511.39
433.54	2495.01
433.72	2590.97
433.91	2441.18
434.10	2539.48
434.28	2579.27
434.47	2574.59
434.66	2560.55
434.85	2459.90
435.03	2663.53
435.22	2476.29
435.41	2626.08
435.59	2614.38
435.78	2607.36
435.97	2628.42
436.16	2686.94
436.34	2677.57
436.53	2754.81
436.72	2757.15
436.90	2752.47
437.09	2839.07
437.28	2654.17
437.46	2675.23
437.65	2764.17
437.84	2775.88
438.02	2738.43
438.21	2691.62
438.40	2754.81
438.58	2960.78
438.77	2888.22
438.96	2895.24
439.14	2925.67
439.33	2932.69
439.52	2902.26
439.70	2911.63
439.89	2951.42
440.08	2937.37
440.26	2972.48
440.45	3042.70
440.63	2937.37
440.82	3138.66
441.01	3112.91
441.19	3157.38
441.38	3133.98
441.57	3171.43
441.75	3279.09
441.94	3157.38
442.12	3328.24
442.31	3330.58
442.50	3311.86
442.68	3368.03
442.87	3239.30
443.05	3105.89
443.24	3325.90
443.43	3447.61
443.61	3400.80
443.80	3536.55
443.98	3192.49
444.17	3232.28
444.35	3368.03
444.54	3489.74
444.73	3356.33
444.91	3463.99
445.10	3417.18
445.28	3400.80
445.47	3447.61
445.65	3332.92
445.84	3449.95
446.02	3473.36
446.21	3494.42
446.39	3407.82
446.58	3375.05
446.77	3421.86
446.95	3421.86
447.14	3492.08
447.32	3405.48
447.51	3426.54
447.69	3499.10
447.88	3564.64
448.06	3597.40
448.25	3499.10
448.43	3581.02
448.62	3431.23
448.80	3641.87
448.99	3499.10
449.17	3693.37
449.36	3613.79
449.54	3555.27
449.73	3681.66
449.91	3625.49
450.10	3707.41
450.28	3714.43
450.46	3772.94
450.65	3854.86
450.83	3749.54
451.02	3702.73
451.20	3908.69
451.39	3775.28
451.57	3763.58
451.76	3686.34
451.94	3669.96
452.13	3817.41
452.31	3866.56
452.49	3761.24
452.68	3829.12
452.86	3770.60
453.05	3819.75
453.23	3939.12
453.42	3829.12
453.60	3803.37
453.78	3918.06
453.97	3939.12
454.15	4028.06
454.34	3960.19
454.52	4030.40
454.70	3943.80
454.89	4088.92
455.07	4140.41
455.26	4135.73
455.44	4049.13
455.62	4091.26
455.81	4058.49
455.99	4133.39
456.17	4145.09
456.36	4014.02
456.54	4212.96
456.73	4203.60
456.91	4367.44
457.09	4060.83
457.28	4388.50
457.46	4238.71
457.64	4374.46
457.83	4229.35
458.01	4168.49
458.19	4393.19
458.38	4329.99
458.56	4339.35
458.74	4456.38
458.93	4337.01
459.11	4337.01
459.29	4561.70
459.48	4444.68
459.66	4512.55
459.84	4582.77
460.03	4519.57
460.21	4475.10
460.39	4627.24
460.57	4519.57
460.76	4582.77
460.94	4737.24
461.12	4655.33
461.31	4727.88
461.49	4669.37
461.67	4652.98
461.85	4706.82
462.04	4709.16
462.22	4802.78
462.40	4657.67
462.59	4709.16
462.77	4711.50
462.95	4851.93
463.13	4699.80
463.32	4830.87
463.50	4830.87
463.68	4884.70
463.86	4870.65
464.05	4861.29
464.23	4767.67
464.41	5015.77
464.59	4723.20
464.78	5104.71
464.96	4952.57
465.14	4868.31
465.32	4812.14
465.50	4933.85
465.69	5027.47
465.87	5011.09
466.05	4983.00
466.23	4887.04
466.41	5013.43
466.60	5193.65
466.78	5081.30
466.96	5069.60
467.14	5102.37
467.32	5013.43
467.51	5193.65
467.69	5128.11
467.87	5165.56
468.05	5305.99
468.23	5149.18
468.41	5217.05
468.60	5163.22
468.78	5240.46
468.96	5097.69
469.14	5167.90
469.32	5320.04
469.50	5322.38
469.69	5298.97
469.87	5497.92
470.05	5348.12
470.23	5446.43
470.41	5460.47
470.59	5507.28
470.77	5444.09
470.95	5612.60
471.14	5640.69
471.32	5439.40
471.50	5678.14
471.68	5643.03
471.86	5542.39
472.04	5612.60
472.22	5795.17
472.40	5703.89
472.58	5738.99
472.77	5717.93
472.95	5659.42
473.13	5834.96
473.31	5736.65
473.49	5802.19
473.67	5753.04
473.85	5741.33
474.03	6120.50
474.21	5687.50
474.39	6101.78
474.57	6019.86
474.75	6094.76
474.93	6169.65
475.12	6099.44
475.30	6120.50
475.48	6242.21
475.66	6349.87
475.84	6263.27
476.02	6216.46
476.20	6244.55
476.38	6497.33
476.56	6438.81
476.74	6518.39
476.92	6609.67
477.10	6450.52
477.28	6885.86
477.46	6633.08
477.64	6682.23
477.82	6733.72
478.00	6993.52
478.18	6848.41
478.36	6883.52
478.54	7059.06
478.72	6885.86
478.90	7143.32
479.08	7227.57
479.26	7414.82
479.44	7377.37
479.62	7211.19
479.80	7597.38
479.98	7480.35
480.16	7473.33
480.34	7356.30
480.52	7573.97
480.70	7648.87
480.88	7564.61
481.06	7805.69
481.24	7456.95
481.41	7693.34
481.59	7793.98
481.77	8074.85
481.95	7894.63
482.13	8135.70
482.31	7962.50
482.49	8135.70
482.67	8156.77
482.85	8407.20
483.03	8552.32
483.21	8444.65
483.39	8669.34
483.57	8472.74
483.74	8531.25
483.92	8601.47
484.10	8617.85
484.28	8894.04
484.46	8807.44
484.64	9006.38
484.82	9109.36
485.00	9100.00
485.18	9207.67
485.35	9444.06
485.53	9343.42
485.71	9502.58
485.89	9654.71
486.07	9745.99
486.25	9490.87
486.43	9727.27
486.61	9757.69
486.78	9968.34
486.96	9844.29
487.14	10045.58
487.32	10026.86
487.50	9998.77
487.68	10127.50
487.85	10303.04
488.03	10469.22
488.21	10658.80
488.39	10380.28
488.57	10551.14
488.75	10953.71
488.92	10867.11
489.10	11131.59
489.28	10984.13
489.46	11063.71
489.64	11012.22
489.81	11169.04
489.99	11178.40
490.17	11367.98
490.35	11473.31
490.53	11503.73
490.70	11634.80
490.88	11674.59
491.06	11730.76
491.24	11833.75
491.41	11988.22
491.59	11988.22
491.77	11969.50
491.95	12287.81
492.13	12290.15
492.30	12278.45
492.48	12372.07
492.66	12484.42
492.84	12283.13
493.01	12472.71
493.19	12505.48
493.37	12774.64
493.54	12793.37
493.72	12741.88
493.90	12933.80
494.08	13097.64
494.25	13006.36
494.43	13282.54
494.61	13338.71
494.79	13109.34
494.96	13004.02
495.14	13193.60
495.32	13385.52
495.49	13507.23
495.67	13497.87
495.85	13767.03
496.02	13706.18
496.20	14092.37
496.38	13738.94
496.55	14104.07
496.73	14106.41
496.91	14054.92
497.09	13970.66
497.26	14324.08
497.44	14228.12
497.62	14396.64
497.79	14759.42
497.97	14523.02
498.14	14506.64
498.32	14946.66
498.50	14878.79
498.67	15176.03
498.85	14871.76
499.03	14925.60
499.20	15143.27
499.38	15147.95
499.56	15054.33
499.73	15300.08
499.91	15234.55
500.08	15335.19
500.26	15321.15
500.44	15480.30
500.61	15541.16
500.79	15662.86
500.97	15587.97
501.14	15623.08
501.32	15831.38
501.49	15988.20
501.67	15798.62
501.84	15772.87
502.02	15852.45
502.20	16147.36
502.37	16250.34
502.55	16159.06
502.72	16271.40
502.90	16137.99
503.07	16077.14
503.25	16294.81
503.43	16411.84
503.60	16704.40
503.78	16407.16
503.95	16594.40
504.13	16545.25
504.30	16404.81
504.48	16636.53
504.65	16737.17
504.83	16786.32
505.01	16940.80
505.18	16828.45
505.36	16896.33
505.53	17025.06
505.71	17085.91
505.88	17092.93
506.06	16903.35
506.23	17289.54
506.41	17326.99
506.58	17362.09
506.76	17376.14
506.93	17589.13
507.11	17565.72
507.28	17439.33
507.46	17404.22
507.63	17659.34
507.81	17867.65
507.98	17717.86
508.16	17565.72
508.33	17769.35
508.50	17694.45
508.68	17635.94
508.85	18094.68
509.03	18003.40
509.20	17975.31
509.38	18373.21
509.55	18232.77
509.73	18237.45
509.90	18403.63
510.08	18272.56
510.25	18537.04
510.42	18661.09
510.60	18768.76
510.77	18548.75
510.95	18693.86
511.12	18698.54
511.30	18726.63
511.47	18750.03
511.64	19168.99
511.82	19037.92
511.99	18682.16
512.17	19096.43
512.34	19049.62
512.51	19449.85
512.69	19054.30
512.86	19332.82
513.04	19253.25
513.21	19419.42
513.38	19531.77
513.56	19433.47
513.73	19513.05
513.90	19400.70
514.08	19400.70
514.25	19665.18
514.43	19669.86
514.60	19894.55
514.77	19674.54
514.95	19740.08
515.12	19644.12
515.29	19653.48
515.47	19620.71
515.64	20056.05
515.81	20030.30
515.99	20201.16
516.16	20355.64
516.33	20348.62
516.51	20439.90
516.68	20416.49
516.85	20109.88
517.03	20348.62
517.20	20556.93
517.37	20259.68
517.54	20510.11
517.72	20922.05
517.89	20283.08
518.06	20610.76
518.24	20767.57
518.41	20388.41
518.58	20592.03
518.75	20577.99
518.93	20900.98
519.10	20725.44
519.27	20819.07
519.45	20910.35
519.62	21078.86
519.79	21179.51
519.96	20987.58
520.14	21245.04
520.31	21132.70
520.48	21216.96
520.65	21596.12
520.83	21401.86
521.00	21422.92
521.17	21268.45
521.34	21331.64
521.52	21617.19
521.69	21490.80
521.86	21652.30
522.03	21898.05
522.20	22183.60
522.38	21986.99
522.55	21530.59
522.72	21668.68
522.89	22054.87
523.07	22118.06
523.24	22150.83
523.41	22422.33
523.58	22010.40
523.75	22347.44
523.92	22218.71
524.10	22012.74
524.27	22129.77
524.44	22546.38
524.61	22665.75
524.78	22408.29
524.96	22302.96
525.13	22508.93
525.30	22785.12
525.47	22710.22
525.64	22527.66
525.81	22665.75
525.98	22857.67
526.16	22551.06
526.33	22747.67
526.50	23084.70
526.67	22845.97
526.84	22731.28
527.01	23140.88
527.18	22785.12
527.36	23051.94
527.53	22937.25
527.70	23044.91
527.87	23470.89
528.04	23070.66
528.21	23154.92
528.38	23349.18
528.55	23234.50
528.72	23297.69
528.89	23421.74
529.07	23316.42
529.24	23662.82
529.41	23552.81
529.58	23426.42
529.75	23388.97
529.92	23775.16
530.09	23456.85
530.26	23756.44
530.43	23819.63
530.60	23431.10
530.77	23676.86
530.94	23630.05
531.11	23695.58
531.28	23660.48
531.46	23578.56
531.63	23639.41
531.80	23924.96
531.97	23749.42
532.14	23805.59
532.31	24063.05
532.48	24489.03
532.65	24086.45
532.82	23985.81
532.99	24198.80
533.16	24128.58
533.33	24535.84
533.50	24159.01
533.67	24121.56
533.84	24456.26
534.01	24435.19
534.18	24416.47
534.35	24341.57
534.52	24512.43
534.69	24446.90
534.86	24713.72
535.03	24472.64
535.20	24367.32
535.37	24634.14
535.54	24634.14
535.71	24805.00
535.88	24563.92
536.05	24694.99
536.22	24886.92
536.38	25186.50
536.55	24996.92
536.72	24912.66
536.89	24809.68
537.06	24954.79
537.23	25167.78
537.40	25123.31
537.57	24727.76
537.74	25275.45
537.91	25401.83
538.08	25186.50
538.25	25135.01
538.42	25179.48
538.59	25247.36
538.75	24964.15
538.92	25385.45
539.09	25284.81
539.26	25411.20
539.43	25806.75
539.60	25343.32
539.77	25401.83
539.94	25699.08
540.11	25663.97
540.28	25209.91
540.44	25280.13
540.61	25795.04
540.78	25329.28
540.95	25680.36
541.12	25898.03
541.29	25565.67
541.46	25563.33
541.62	25362.04
541.79	25668.66
541.96	25476.73
542.13	25804.41
542.30	25783.34
542.47	26349.75
542.63	26536.99
542.80	26214.00
542.97	26450.39
543.14	26218.68
543.31	26305.28
543.48	26244.43
543.64	26848.29
543.81	26256.13
543.98	26394.22
544.15	26651.68
544.32	26740.62
544.48	26787.43
544.65	26417.63
544.82	26485.50
544.99	26588.49
545.16	26244.43
545.32	26707.85
545.49	26771.05
545.66	26862.33
545.83	27061.27
546.00	26689.13
546.16	26731.26
546.33	26511.25
546.50	26295.92
546.67	26682.11
546.83	26693.81
547.00	26583.80
547.17	26855.31
547.34	27009.78
547.50	26792.11
547.67	27072.98
547.84	27201.71
548.00	27150.21
548.17	27304.69
548.34	27143.19
548.51	27470.87
548.67	27332.78
548.84	27213.41
549.01	27407.67
549.18	27262.56
549.34	27564.49
549.51	27108.08
549.68	27028.51
549.84	27187.66
550.01	26995.74
550.18	27040.21
550.34	27534.06
550.51	27630.02
550.68	27576.19
550.84	27344.48
551.01	27702.58
551.18	27159.58
551.34	27342.14
551.51	27587.89
551.68	27662.79
551.84	27728.33
552.01	27943.66
552.18	27821.95
552.34	27828.97
552.51	27950.68
552.68	27683.86
552.84	27758.75
553.01	27763.43
553.18	28058.34
553.34	28109.83
553.51	27908.55
553.67	28034.94
553.84	28364.95
554.01	27882.80
554.17	27969.40
554.34	27749.39
554.51	27716.62
554.67	28364.95
554.84	27770.46
555.00	27960.04
555.17	27807.90
555.33	28484.32
555.50	28203.46
555.67	28287.71
555.83	28180.05
556.00	27978.76
556.16	28601.35
556.33	27955.36
556.50	28432.83
556.66	28290.06
556.83	28360.27
556.99	28402.40
557.16	28676.24
557.32	28755.82
557.49	28580.28
557.65	28121.54
557.82	28390.70
557.98	28184.73
558.15	28610.71
558.32	28254.95
558.48	28795.61
558.65	28421.13
558.81	28826.04
558.98	28964.13
559.14	28746.46
559.31	28575.60
559.47	28882.21
559.64	28467.94
559.80	28659.86
559.97	28840.08
560.13	28781.57
560.30	28875.19
560.46	28430.49
560.63	28465.60
560.79	28940.72
560.96	29057.75
561.12	28666.88
561.29	28446.87
561.45	28631.77
561.61	28610.71
561.78	28922.00
561.94	29027.32
562.11	29380.74
562.27	28882.21
562.44	28629.43
562.60	28994.56
562.77	28809.65
562.93	28697.31
563.10	28929.02
563.26	28835.40
563.42	29097.54
563.59	28723.05
563.75	29034.35
563.92	29041.37
564.08	28769.86
564.24	28851.78
564.41	29137.33
564.57	28907.96
564.74	28882.21
564.90	29249.67
565.07	29392.45
565.23	28987.53
565.39	29198.18
565.56	29074.13
565.72	28978.17
565.88	29465.00
566.05	29158.39
566.21	28737.10
566.38	28926.68
566.54	28898.59
566.70	29378.40
566.87	29771.61
567.03	29490.75
567.19	29214.57
567.36	29577.35
567.52	29380.74
567.68	28959.45
567.85	29244.99
568.01	29284.78
568.17	29214.57
568.34	29413.51
568.50	29476.71
568.66	29764.59
568.83	29390.11
568.99	29214.57
569.15	29429.90
569.32	29230.95
569.48	29022.64
569.64	29256.70
569.81	29443.94
569.97	29467.34
570.13	29153.71
570.30	29685.01
570.46	29139.67
570.62	29600.76
570.78	29500.11
570.95	29364.36
571.11	29523.52
571.27	29060.09
571.43	29610.12
571.60	29467.34
571.76	29130.31
571.92	29488.41
572.09	29457.98
572.25	29748.21
572.41	29708.42
572.57	29305.85
572.74	29827.79
572.90	29256.70
573.06	29336.27
573.22	29514.16
573.38	29453.30
573.55	29387.77
573.71	29675.65
573.87	29745.87
574.03	29755.23
574.20	29696.72
574.36	29851.19
574.52	29982.26
574.68	29586.71
574.84	29439.26
575.01	29591.39
575.17	29701.40
575.33	29780.98
575.49	29551.60
575.65	29656.93
575.82	29448.62
575.98	29090.52
576.14	29855.87
576.30	29865.24
576.46	29692.04
576.62	29731.83
576.79	29642.88
576.95	29310.53
577.11	29677.99
577.27	29729.48
577.43	30347.39
577.59	29736.51
577.75	29624.16
577.92	29883.96
578.08	29626.50
578.24	29420.53
578.40	29706.08
578.56	29549.26
578.72	29689.70
578.88	30403.56
579.04	30122.69
579.21	29706.08
579.37	29556.28
579.53	30082.91
579.69	29479.05
579.85	29727.14
580.01	29710.76
580.17	29785.66
580.33	29556.28
580.49	29584.37
580.65	29837.15
580.82	30438.67
580.98	29841.83
581.14	30101.63
581.30	29764.59
581.46	29780.98
581.62	29589.05
581.78	29661.61
581.94	29649.91
582.10	29752.89
582.26	29886.30
582.42	30096.95
582.58	29694.38
582.74	29752.89
582.90	29706.08
583.06	29883.96
583.22	29654.59
583.38	29827.79
583.54	29858.21
583.70	29727.14
583.86	29942.47
584.02	29663.95
584.18	30031.41
584.34	30291.21
584.50	30202.27
584.66	29757.57
584.82	29708.42
584.98	29872.26
585.14	30024.39
585.30	29626.50
585.46	29947.15
585.62	29523.52
585.78	30073.54
585.94	30094.61
586.10	30345.05
586.26	30066.52
586.42	30171.85
586.58	29930.77
586.74	30094.61
586.90	29663.95
587.06	29881.62
587.22	30134.40
587.38	30132.06
587.54	29933.11
587.70	30473.78
587.86	30223.34
588.02	30272.49
588.18	30265.47
588.34	30277.17
588.49	30176.53
588.65	29977.58
588.81	29975.24
588.97	29762.25
589.13	29806.72
589.29	30103.97
589.45	30181.21
589.61	30120.35
589.77	30504.20
589.93	30443.35
590.08	30398.88
590.24	29675.65
590.40	30293.55
590.56	30377.81
590.72	30082.91
590.88	29921.41
591.04	30347.39
591.20	30286.53
591.35	30415.26
591.51	30459.73
591.67	30366.11
591.83	30429.30
591.99	30553.35
