SpectraSuite Data File
++++++++++++++++++++++++++++++++++++
Date: Fri Oct 18 13:58:07 GMT-05:00 2013
User: bianchi
Dark Spectrum Present: No
Reference Spectrum Present: No
Number of Sampled Component Spectra: 1
Spectrometers: USB2+H05261
Integration Time (usec): 50000 (USB2+H05261)
Spectra Averaged: 1 (USB2+H05261)
Boxcar Smoothing: 0 (USB2+H05261)
Correct for Electrical Dark: No (USB2+H05261)
Strobe/Lamp Enabled: No (USB2+H05261)
Correct for Detector Non-linearity: No (USB2+H05261)
Correct for Stray Light: No (USB2+H05261)
Number of Pixels in Processed Spectrum: 2048
>>>>>Begin Processed Spectral Data<<<<<
365.73	42.13
365.92	42.13
366.12	42.13
366.32	0.00
366.52	0.00
366.72	0.00
366.91	0.00
367.11	0.00
367.31	0.00
367.51	0.00
367.70	0.00
367.90	0.00
368.10	0.00
368.30	0.00
368.49	0.00
368.69	0.00
368.89	0.00
369.09	0.00
369.28	0.00
369.48	0.00
369.68	0.00
369.87	0.00
370.07	0.00
370.27	0.00
370.47	0.00
370.66	0.00
370.86	140.43
371.06	152.13
371.25	128.73
371.45	110.01
371.65	152.13
371.84	35.11
372.04	98.30
372.24	161.50
372.44	142.77
372.63	224.69
372.83	238.73
373.03	128.73
373.22	236.39
373.42	175.54
373.62	280.86
373.81	257.46
374.01	220.01
374.21	271.50
374.40	257.46
374.60	194.26
374.79	285.55
374.99	245.76
375.19	262.14
375.38	278.52
375.58	194.26
375.78	273.84
375.97	243.42
376.17	259.80
376.37	287.89
376.56	255.12
376.76	330.02
376.95	187.24
377.15	290.23
377.35	262.14
377.54	283.20
377.74	334.70
377.93	222.35
378.13	245.76
378.33	271.50
378.52	255.12
378.72	266.82
378.91	294.91
379.11	299.59
379.31	304.27
379.50	322.99
379.70	355.76
379.89	334.70
380.09	271.50
380.28	299.59
380.48	355.76
380.68	283.20
380.87	325.33
381.07	337.04
381.26	428.32
381.46	330.02
381.65	294.91
381.85	269.16
382.04	327.68
382.24	355.76
382.43	311.29
382.63	306.61
382.83	348.74
383.02	341.72
383.22	351.08
383.41	337.04
383.61	365.12
383.80	409.59
384.00	358.10
384.19	339.38
384.39	325.33
384.58	423.64
384.78	367.46
384.97	416.62
385.17	409.59
385.36	372.15
385.56	280.86
385.75	337.04
385.95	365.12
386.14	383.85
386.34	372.15
386.53	390.87
386.72	379.17
386.92	395.55
387.11	442.36
387.31	374.49
387.50	409.59
387.70	414.27
387.89	395.55
388.09	376.83
388.28	444.70
388.48	461.09
388.67	430.66
388.86	456.40
389.06	421.30
389.25	458.74
389.45	463.43
389.64	440.02
389.84	496.19
390.03	449.38
390.22	477.47
390.42	397.89
390.61	507.90
390.81	472.79
391.00	496.19
391.19	566.41
391.39	470.45
391.58	524.28
391.78	547.69
391.97	528.96
392.16	505.56
392.36	615.56
392.55	573.43
392.75	599.18
392.94	582.79
393.13	557.05
393.33	596.84
393.52	613.22
393.71	655.35
393.91	535.98
394.10	592.16
394.29	601.52
394.49	526.62
394.68	641.31
394.88	561.73
395.07	594.50
395.26	582.79
395.46	620.24
395.65	660.03
395.84	573.43
396.04	559.39
396.23	653.01
396.42	641.31
396.62	578.11
396.81	692.80
397.00	610.88
397.19	641.31
397.39	603.86
397.58	627.26
397.77	713.86
397.97	709.18
398.16	627.26
398.35	627.26
398.55	702.16
398.74	657.69
398.93	723.23
399.12	709.18
399.32	711.52
399.51	706.84
399.70	706.84
399.90	739.61
400.09	709.18
400.28	840.25
400.47	690.46
400.67	779.40
400.86	763.01
401.05	805.14
401.24	716.20
401.44	760.67
401.63	823.87
401.82	774.72
402.01	840.25
402.21	819.19
402.40	758.33
402.59	800.46
402.78	784.08
402.97	844.93
403.17	868.34
403.36	826.21
403.55	858.98
403.74	964.30
403.93	826.21
404.13	903.45
404.32	889.40
404.51	910.47
404.70	957.28
404.89	947.92
405.09	1034.52
405.28	961.96
405.47	992.39
405.66	945.58
405.85	1025.15
406.05	961.96
406.24	1018.13
406.43	976.00
406.62	1015.79
406.81	992.39
407.00	952.60
407.20	954.94
407.39	1032.18
407.58	1090.69
407.77	1083.67
407.96	1046.22
408.15	1083.67
408.34	1100.05
408.54	1022.81
408.73	1011.11
408.92	1135.16
409.11	1123.46
409.30	1062.60
409.49	1128.14
409.68	1142.18
409.87	1097.71
410.07	1114.10
410.26	1261.55
410.45	1121.12
410.64	1174.95
410.83	1125.80
411.02	1128.14
411.21	1186.65
411.40	1270.91
411.59	1273.25
411.78	1263.89
411.98	1228.78
412.17	1294.32
412.36	1266.23
412.55	1355.17
412.74	1411.34
412.93	1369.21
413.12	1303.68
413.31	1387.94
413.50	1465.18
413.69	1259.21
413.88	1479.22
414.07	1441.77
414.26	1504.96
414.45	1399.64
414.64	1526.03
414.83	1591.56
415.02	1537.73
415.22	1533.05
415.41	1495.60
415.60	1647.74
415.79	1493.26
415.98	1661.78
416.17	1535.39
416.36	1614.97
416.55	1621.99
416.74	1554.12
416.93	1551.78
417.12	1689.87
417.31	1593.90
417.50	1732.00
417.69	1764.76
417.88	1750.72
418.07	1722.63
418.26	1802.21
418.45	1694.55
418.64	1891.15
418.83	1736.68
419.02	1764.76
419.21	1898.17
419.39	1898.17
419.58	1795.19
419.77	1755.40
419.96	1919.24
420.15	1930.94
420.34	1764.76
420.53	1877.11
420.72	1823.28
420.91	1928.60
421.10	1991.80
421.29	1989.46
421.48	1853.70
421.67	2029.24
421.86	1923.92
422.05	1987.11
422.24	1937.96
422.43	2019.88
422.61	2010.52
422.80	2019.88
422.99	1963.71
423.18	1916.90
423.37	1942.64
423.56	2043.29
423.75	2094.78
423.94	1970.73
424.13	1954.35
424.32	1919.24
424.50	2024.56
424.69	2195.42
424.88	1973.07
425.07	1952.01
425.26	2005.84
425.45	2005.84
425.64	2083.08
425.83	2005.84
426.01	2015.20
426.20	2092.44
426.39	2101.80
426.58	2059.67
426.77	2019.88
426.96	2069.03
427.15	2251.60
427.33	2179.04
427.52	2150.95
427.71	2209.47
427.90	2122.87
428.09	2195.42
428.28	2197.76
428.46	2207.13
428.65	2125.21
428.84	2223.51
429.03	2183.72
429.22	2218.83
429.40	2265.64
429.59	2314.79
429.78	2176.70
429.97	2120.53
430.16	2214.15
430.34	2195.42
430.53	2300.75
430.72	2356.92
430.91	2270.32
431.10	2420.11
431.28	2356.92
431.47	2422.45
431.66	2466.92
431.85	2473.95
432.03	2506.71
432.22	2576.93
432.41	2392.03
432.60	2385.01
432.79	2471.61
432.97	2466.92
433.16	2420.11
433.35	2368.62
433.54	2560.55
433.72	2565.23
433.91	2530.12
434.10	2565.23
434.28	2504.37
434.47	2551.18
434.66	2597.99
434.85	2502.03
435.03	2574.59
435.22	2558.21
435.41	2684.59
435.59	2663.53
435.78	2614.38
435.97	2656.51
436.16	2630.76
436.34	2637.78
436.53	2668.21
436.72	2757.15
436.90	2651.83
437.09	2686.94
437.28	2661.19
437.46	2689.28
437.65	2705.66
437.84	2761.83
438.02	2757.15
438.21	2619.06
438.40	2789.92
438.58	2792.26
438.77	2946.73
438.96	2864.82
439.14	2836.73
439.33	2942.05
439.52	2967.80
439.70	3162.06
439.89	3082.49
440.08	3066.10
440.26	3117.59
440.45	3115.25
440.63	3066.10
440.82	3133.98
441.01	3021.63
441.19	3206.53
441.38	3162.06
441.57	3185.47
441.75	3258.03
441.94	3300.16
442.12	3321.22
442.31	3309.52
442.50	3206.53
442.68	3339.94
442.87	3222.92
443.05	3356.33
443.24	3520.17
443.43	3604.42
443.61	3475.70
443.80	3611.45
443.98	3379.73
444.17	3276.75
444.35	3314.20
444.54	3463.99
444.73	3426.54
444.91	3431.23
445.10	3496.76
445.28	3461.65
445.47	3358.67
445.65	3358.67
445.84	3510.80
446.02	3566.98
446.21	3475.70
446.39	3382.07
446.58	3463.99
446.77	3618.47
446.95	3393.78
447.14	3358.67
447.32	3543.57
447.51	3393.78
447.69	3634.85
447.88	3606.77
448.06	3562.30
448.25	3665.28
448.43	3569.32
448.62	3672.30
448.80	3389.10
448.99	3489.74
449.17	3574.00
449.36	3524.85
449.54	3581.02
449.73	3651.24
449.91	3847.84
450.10	3648.90
450.28	3700.39
450.46	3646.55
450.65	3644.21
450.83	3843.16
451.02	3859.54
451.20	3894.65
451.39	3929.76
451.57	3838.48
451.76	3829.12
451.94	3754.22
452.13	3772.94
452.31	3845.50
452.49	3852.52
452.68	3880.61
452.86	3770.60
453.05	3911.04
453.23	3918.06
453.42	3889.97
453.60	3791.67
453.78	3873.59
453.97	4009.34
454.15	3955.51
454.34	4037.42
454.52	4053.81
454.70	3992.95
454.89	4009.34
455.07	3925.08
455.26	4032.74
455.44	4119.34
455.62	4070.19
455.81	4210.62
455.99	4173.18
456.17	4184.88
456.36	4109.98
456.54	4091.26
456.73	4255.09
456.91	4337.01
457.09	4266.80
457.28	4311.27
457.46	4404.89
457.64	4318.29
457.83	4468.08
458.01	4341.69
458.19	4423.61
458.38	4355.74
458.56	4243.39
458.74	4414.25
458.93	4327.65
459.11	4444.68
459.29	4351.06
459.48	4540.64
459.66	4454.04
459.84	4594.47
460.03	4582.77
460.21	4568.73
460.39	4514.89
460.57	4533.62
460.76	4540.64
460.94	4631.92
461.12	4631.92
461.31	4652.98
461.49	4589.79
461.67	4751.29
461.85	4779.37
462.04	4601.49
462.22	5090.67
462.40	4837.89
462.59	4793.42
462.77	4798.10
462.95	4858.95
463.13	4753.63
463.32	4844.91
463.50	4940.87
463.68	4741.93
463.86	4983.00
464.05	4720.86
464.23	4922.15
464.41	4858.95
464.59	4919.81
464.78	5067.26
464.96	4975.98
465.14	4922.15
465.32	4917.47
465.50	5062.58
465.69	5064.92
465.87	5015.77
466.05	4992.36
466.23	4861.29
466.41	5109.39
466.60	5137.48
466.78	5029.81
466.96	5025.13
467.14	5046.20
467.32	5163.22
467.51	5036.83
467.69	5090.67
467.87	5195.99
468.05	5273.23
468.23	5149.18
468.41	5231.10
468.60	5132.79
468.78	5172.58
468.96	5238.12
469.14	5425.36
469.32	5509.62
469.50	5256.84
469.69	5273.23
469.87	5233.44
470.05	5540.05
470.23	5448.77
470.41	5481.53
470.59	5444.09
470.77	5493.24
470.95	5460.47
471.14	5643.03
471.32	5441.75
471.50	5851.34
471.68	5820.91
471.86	5844.32
472.04	5624.31
472.22	5818.57
472.40	5724.95
472.58	5849.00
472.77	5685.16
472.95	5858.36
473.13	5973.05
473.31	5982.41
473.49	5767.08
473.67	5823.25
473.85	6043.26
474.03	6106.46
474.21	6003.47
474.39	6026.88
474.57	6195.40
474.75	6265.61
474.93	6239.87
475.12	6092.41
475.30	6277.32
475.48	6239.87
475.66	6190.72
475.84	6300.72
476.02	6389.66
476.20	6235.19
476.38	6612.01
476.56	6609.67
476.74	6602.65
476.92	6583.93
477.10	6530.09
477.28	6595.63
477.46	6689.25
477.64	6871.81
477.82	6848.41
478.00	7096.50
478.18	6944.37
478.36	7000.54
478.54	7063.74
478.72	7047.35
478.90	7236.94
479.08	7316.51
479.26	7396.09
479.44	7468.65
479.62	7564.61
479.80	7482.69
479.98	7403.11
480.16	7445.24
480.34	7566.95
480.52	7541.21
480.70	7658.23
480.88	7859.52
481.06	7815.05
481.24	7840.79
481.41	7826.75
481.59	8018.68
481.77	7981.23
481.95	7833.77
482.13	8346.35
482.31	8109.96
482.49	8430.61
482.67	8226.98
482.85	8545.30
483.03	8645.94
483.21	8685.73
483.39	8643.60
483.57	8746.58
483.74	8699.77
483.92	8835.52
484.10	8706.79
484.28	8798.07
484.46	9116.39
484.64	9376.19
484.82	9085.96
485.00	9327.03
485.18	9495.55
485.35	9481.51
485.53	9432.36
485.71	9352.78
485.89	9839.61
486.07	9736.63
486.25	9638.33
486.43	9647.69
486.61	9696.84
486.78	9947.28
486.96	10008.13
487.14	10057.28
487.32	10347.51
487.50	10438.79
487.68	10296.02
487.85	10506.66
488.03	10452.83
488.21	10459.85
488.39	10670.50
488.57	10602.63
488.75	10698.59
488.92	10719.65
489.10	11040.31
489.28	10965.41
489.46	10972.43
489.64	11206.48
489.81	11379.68
489.99	11372.66
490.17	11122.23
490.35	11304.79
490.53	11421.81
490.70	11754.17
490.88	11604.38
491.06	11632.46
491.24	11693.32
491.41	11866.52
491.59	11819.71
491.77	11910.99
491.95	12292.49
492.13	12526.55
492.30	12437.61
492.48	12423.56
492.66	12517.18
492.84	12358.03
493.01	12622.51
493.19	12655.28
493.37	12945.50
493.54	12704.43
493.72	13135.09
493.90	12795.71
494.08	13158.49
494.25	13217.01
494.43	13209.98
494.61	13575.11
494.79	13394.89
494.96	13448.72
495.14	13572.77
495.32	13589.15
495.49	13832.57
495.67	13837.25
495.85	14118.11
496.02	14026.83
496.20	14038.53
496.38	14090.02
496.55	14066.62
496.73	14473.87
496.91	14387.27
497.09	14398.98
497.26	14532.39
497.44	14466.85
497.62	14766.44
497.79	14555.79
497.97	14787.50
498.14	14761.76
498.32	14843.68
498.50	15002.83
498.67	14654.09
498.85	14967.73
499.03	15239.23
499.20	14944.32
499.38	15028.58
499.56	15108.16
499.73	15573.92
499.91	15309.44
500.08	15468.60
500.26	15403.07
500.44	15536.48
500.61	15496.69
500.79	15531.80
500.97	15901.60
501.14	15932.03
501.32	15733.08
501.49	16020.97
501.67	15985.86
501.84	16030.33
502.02	15946.07
502.20	16243.32
502.37	16327.58
502.55	15983.52
502.72	16430.56
502.90	16350.98
503.07	16163.74
503.25	16510.14
503.43	16259.70
503.60	16664.61
503.78	16475.03
503.95	16842.50
504.13	16570.99
504.30	17121.02
504.48	16573.33
504.65	16973.56
504.83	16950.16
505.01	17062.51
505.18	17268.47
505.36	17224.00
505.53	17261.45
505.71	17198.26
505.88	17011.01
506.06	17109.32
506.23	17493.16
506.41	17362.09
506.58	17717.86
506.76	17467.42
506.93	17451.03
507.11	17439.33
507.28	17635.94
507.46	17626.57
507.63	17554.02
507.81	17935.53
507.98	17755.30
508.16	17935.53
508.33	18183.62
508.50	18082.98
508.68	18047.87
508.85	18118.09
509.03	18333.42
509.20	18415.34
509.38	18448.10
509.55	18317.03
509.73	18565.13
509.90	18661.09
510.08	18359.16
510.25	18356.82
510.42	18455.12
510.60	18829.61
510.77	18876.42
510.95	18794.50
511.12	18831.95
511.30	18752.37
511.47	18956.00
511.64	18773.44
511.82	18883.44
511.99	19016.85
512.17	19080.05
512.34	19257.93
512.51	19365.59
512.69	19178.35
512.86	19290.70
513.04	19548.15
513.21	19597.31
513.38	19665.18
513.56	19838.38
513.73	19609.01
513.90	19594.96
514.08	19660.50
514.25	19899.23
514.43	19854.76
514.60	20208.19
514.77	20126.27
514.95	20067.75
515.12	20290.10
515.29	19789.23
515.47	19892.21
515.64	20166.06
515.81	20299.47
515.99	19826.68
516.16	20189.46
516.33	20327.55
516.51	20563.95
516.68	20322.87
516.85	20238.61
517.03	20395.43
517.20	20570.97
517.37	20776.94
517.54	20695.02
517.72	20702.04
517.89	20655.23
518.06	20498.41
518.24	20741.83
518.41	20570.97
518.58	21235.68
518.75	21113.97
518.93	21128.02
519.10	21160.78
519.27	20964.18
519.45	20753.53
519.62	21245.04
519.79	21331.64
519.96	21228.66
520.14	21612.51
520.31	21275.47
520.48	21439.31
520.65	21092.91
520.83	21776.34
521.00	21488.46
521.17	21553.99
521.34	21455.69
521.52	21837.20
521.69	21579.74
521.86	22064.23
522.03	21937.84
522.20	22071.25
522.38	21977.63
522.55	21876.99
522.72	21970.61
522.89	22141.47
523.07	22394.25
523.24	22139.13
523.41	22394.25
523.58	22111.04
523.75	22558.08
523.92	22174.24
524.10	22249.13
524.27	22595.53
524.44	22628.30
524.61	22911.50
524.78	22735.96
524.96	22546.38
525.13	22532.34
525.30	22820.22
525.47	22703.20
525.64	22836.61
525.81	22998.10
525.98	23014.49
526.16	23108.11
526.33	23002.78
526.50	22960.66
526.67	22977.04
526.84	22864.69
527.01	22527.66
527.18	23283.65
527.36	23206.41
527.53	23082.36
527.70	23541.11
527.87	23508.34
528.04	23433.44
528.21	23220.45
528.38	23342.16
528.55	23414.72
528.72	23564.51
528.89	23613.66
529.07	23721.33
529.24	23747.08
529.41	23454.51
529.58	23538.77
529.75	23562.17
529.92	23637.07
530.09	23861.76
530.26	23826.65
530.43	23648.77
530.60	23782.18
530.77	23726.01
530.94	24210.50
531.11	23981.13
531.28	24030.28
531.46	24210.50
531.63	24041.98
531.80	24112.20
531.97	24198.80
532.14	24299.44
532.31	24692.65
532.48	24580.31
532.65	24428.17
532.82	24360.30
532.99	24269.01
533.16	24346.25
533.33	24540.52
533.50	24858.83
533.67	24723.08
533.84	24334.55
534.01	24449.24
534.18	24631.80
534.35	24592.01
534.52	24854.15
534.69	24805.00
534.86	24915.00
535.03	24631.80
535.20	25308.21
535.37	24821.38
535.54	25104.59
535.71	24840.11
535.88	25387.79
536.05	24694.99
536.22	25179.48
536.38	25111.61
536.55	25242.68
536.72	25158.42
536.89	25556.31
537.06	25432.26
537.23	25139.69
537.40	24875.21
537.57	25280.13
537.74	25139.69
537.91	25558.65
538.08	25399.49
538.25	25289.49
538.42	25378.43
538.59	25621.84
538.75	25348.00
538.92	25563.33
539.09	25537.59
539.26	25661.63
539.43	26038.46
539.60	25986.97
539.77	25701.42
539.94	25795.04
540.11	25598.44
540.28	25720.15
540.44	25689.72
540.61	25682.70
540.78	26059.52
540.95	25993.99
541.12	26118.04
541.29	26111.02
541.46	26216.34
541.62	26129.74
541.79	25874.62
541.96	26005.69
542.13	25914.41
542.30	26092.29
542.47	26267.83
542.63	26546.36
542.80	26359.11
542.97	26714.87
543.14	26539.33
543.31	26618.91
543.48	26415.29
543.64	26904.46
543.81	26651.68
543.98	26796.79
544.15	27016.80
544.32	26780.41
544.48	27110.43
544.65	26824.88
544.82	26469.12
544.99	26457.42
545.16	26761.69
545.32	26799.13
545.49	27379.59
545.66	27330.44
545.83	27122.13
546.00	27037.87
546.16	27070.64
546.33	26665.72
546.50	27026.17
546.67	26806.16
546.83	26888.07
547.00	27075.32
547.17	27129.15
547.34	26979.36
547.50	27222.77
547.67	27906.21
547.84	27112.77
548.00	27356.18
548.17	27674.49
548.34	27356.18
548.51	27522.36
548.67	27608.96
548.84	27417.04
549.01	27845.35
549.18	27400.65
549.34	27421.72
549.51	27658.11
549.68	27538.74
549.84	27360.86
550.01	27704.92
550.18	27267.24
550.34	27950.68
550.51	27889.82
550.68	27775.14
550.84	27285.97
551.01	27955.36
551.18	27981.10
551.34	27676.83
551.51	27796.20
551.68	27896.85
551.84	27683.86
552.01	27864.08
552.18	28023.23
552.34	27824.29
552.51	28313.46
552.68	27847.69
552.84	27824.29
553.01	28030.26
553.18	28208.14
553.34	28547.51
553.51	28114.52
553.67	28268.99
553.84	28173.03
554.01	28538.15
554.17	28491.34
554.34	28332.18
554.51	28208.14
554.67	28341.55
554.84	28580.28
555.00	28542.83
555.17	28313.46
555.33	28414.10
555.50	28287.71
555.67	28549.85
555.83	28379.00
556.00	28135.58
556.16	28781.57
556.33	28037.28
556.50	28573.26
556.66	28723.05
556.83	28491.34
556.99	28697.31
557.16	28386.02
557.32	28802.63
557.49	29069.45
557.65	28325.16
557.82	28196.43
557.98	28484.32
558.15	28706.67
558.32	28989.88
558.48	29076.48
558.65	28826.04
558.81	28786.25
558.98	29013.28
559.14	29062.43
559.31	28837.74
559.47	28587.30
559.64	28769.86
559.80	28968.81
559.97	28776.89
560.13	28643.48
560.30	29273.08
560.46	28896.25
560.63	28837.74
560.79	29022.64
560.96	29060.09
561.12	28807.31
561.29	28762.84
561.45	29109.24
561.61	29102.22
561.78	29060.09
561.94	29254.36
562.11	29296.49
562.27	29411.17
562.44	29167.76
562.60	29378.40
562.77	29090.52
562.93	29488.41
563.10	29626.50
563.26	29046.05
563.42	29820.77
563.59	29172.44
563.75	29188.82
563.92	29514.16
564.08	29064.77
564.24	29165.42
564.41	29170.10
564.57	29495.43
564.74	29273.08
564.90	29432.24
565.07	29734.17
565.23	29872.26
565.39	29474.37
565.56	29551.60
565.72	29567.99
565.88	29474.37
566.05	29413.51
566.21	29078.82
566.38	29514.16
566.54	29333.93
566.70	29923.75
566.87	29916.73
567.03	29422.87
567.19	29975.24
567.36	29413.51
567.52	29790.34
567.68	30040.78
567.85	29790.34
568.01	29544.58
568.17	29261.38
568.34	29685.01
568.50	30082.91
568.66	29617.14
568.83	29762.25
568.99	29785.66
569.15	29745.87
569.32	29558.63
569.48	29617.14
569.64	29654.59
569.81	29603.10
569.97	29551.60
570.13	29797.36
570.30	29844.17
570.46	30036.09
570.62	29944.81
570.78	29912.05
570.95	29579.69
571.11	30232.70
571.27	29614.80
571.43	29813.74
571.60	29790.34
571.76	29977.58
571.92	29841.83
572.09	29549.26
572.25	30206.95
572.41	30183.55
572.57	30150.78
572.74	30113.33
572.90	29659.27
573.06	29867.58
573.22	29935.45
573.38	29757.57
573.55	30050.14
573.71	30228.02
573.87	30052.48
574.03	30031.41
574.20	30223.34
574.36	29954.18
574.52	29649.91
574.68	29839.49
574.84	30115.67
575.01	30073.54
575.17	30019.71
575.33	30050.14
575.49	29874.60
575.65	30169.51
575.82	30075.88
575.98	29738.85
576.14	29979.92
576.30	30260.79
576.46	29991.62
576.62	30211.64
576.79	29813.74
576.95	29888.64
577.11	30026.73
577.27	30150.78
577.43	29961.20
577.59	30164.82
577.75	30192.91
577.92	29912.05
578.08	29598.41
578.24	29975.24
578.40	29823.11
578.56	30059.50
578.72	30038.44
578.88	30597.82
579.04	30061.84
579.21	30127.38
579.37	30487.82
579.53	30155.46
579.69	30305.26
579.85	30015.03
580.01	29972.90
580.17	30015.03
580.33	30281.85
580.49	30338.02
580.65	30256.11
580.82	30349.73
580.98	30314.62
581.14	30073.54
581.30	30576.76
581.46	30038.44
581.62	30155.46
581.78	30433.99
581.94	30471.43
582.10	29989.28
582.26	30045.46
582.42	30010.35
582.58	30256.11
582.74	30462.07
582.90	29919.07
583.06	30279.51
583.22	30384.83
583.38	30499.52
583.54	30185.89
583.70	30197.59
583.86	29977.58
584.02	30534.63
584.18	30286.53
584.34	30581.44
584.50	30342.70
584.66	30480.80
584.82	30162.48
584.98	30333.34
585.14	30398.88
585.30	30066.52
585.46	30202.27
585.62	29696.72
585.78	29982.26
585.94	30085.25
586.10	30244.40
586.26	30520.59
586.42	30431.65
586.58	30387.18
586.74	30394.20
586.90	29862.90
587.06	30326.32
587.22	30522.93
587.38	30199.93
587.54	30501.86
587.70	30302.92
587.86	30595.48
588.02	30230.36
588.18	30581.44
588.34	30551.01
588.49	30686.76
588.65	30256.11
588.81	30368.45
588.97	30410.58
589.13	30359.09
589.29	30415.26
589.45	30483.14
589.61	30342.70
589.77	30665.70
589.93	30593.14
590.08	31056.57
590.24	30499.52
590.40	30815.49
590.56	30649.32
590.72	30576.76
590.88	30347.39
591.04	30375.47
591.20	31033.16
591.35	30749.96
591.51	31222.75
591.67	30733.57
591.83	30703.15
591.99	30820.17
