SpectraSuite Data File
++++++++++++++++++++++++++++++++++++
Date: Fri Oct 18 13:58:03 GMT-05:00 2013
User: bianchi
Dark Spectrum Present: No
Reference Spectrum Present: No
Number of Sampled Component Spectra: 1
Spectrometers: USB2+H05261
Integration Time (usec): 50000 (USB2+H05261)
Spectra Averaged: 1 (USB2+H05261)
Boxcar Smoothing: 0 (USB2+H05261)
Correct for Electrical Dark: No (USB2+H05261)
Strobe/Lamp Enabled: No (USB2+H05261)
Correct for Detector Non-linearity: No (USB2+H05261)
Correct for Stray Light: No (USB2+H05261)
Number of Pixels in Processed Spectrum: 2048
>>>>>Begin Processed Spectral Data<<<<<
365.73	0.00
365.92	0.00
366.12	0.00
366.32	0.00
366.52	0.00
366.72	0.00
366.91	0.00
367.11	0.00
367.31	0.00
367.51	0.00
367.70	0.00
367.90	0.00
368.10	0.00
368.30	0.00
368.49	0.00
368.69	0.00
368.89	0.00
369.09	0.00
369.28	0.00
369.48	0.00
369.68	0.00
369.87	0.00
370.07	0.00
370.27	0.00
370.47	0.00
370.66	51.49
370.86	72.56
371.06	128.73
371.25	215.33
371.45	156.82
371.65	138.09
371.84	67.88
372.04	121.71
372.24	156.82
372.44	177.88
372.63	201.29
372.83	266.82
373.03	208.31
373.22	133.41
373.42	198.95
373.62	241.08
373.81	196.60
374.01	227.03
374.21	252.78
374.40	231.71
374.60	304.27
374.79	208.31
374.99	182.56
375.19	243.42
375.38	227.03
375.58	243.42
375.78	173.20
375.97	262.14
376.17	330.02
376.37	294.91
376.56	257.46
376.76	224.69
376.95	259.80
377.15	245.76
377.35	271.50
377.54	273.84
377.74	297.25
377.93	325.33
378.13	276.18
378.33	273.84
378.52	243.42
378.72	269.16
378.91	241.08
379.11	238.73
379.31	210.65
379.50	294.91
379.70	273.84
379.89	397.89
380.09	299.59
380.28	297.25
380.48	311.29
380.68	248.10
380.87	351.08
381.07	304.27
381.26	334.70
381.46	390.87
381.65	341.72
381.85	360.44
382.04	355.76
382.24	322.99
382.43	365.12
382.63	360.44
382.83	334.70
383.02	262.14
383.22	407.25
383.41	353.42
383.61	339.38
383.80	397.89
384.00	280.86
384.19	414.27
384.39	425.98
384.58	379.17
384.78	367.46
384.97	437.68
385.17	407.25
385.36	393.21
385.56	367.46
385.75	355.76
385.95	388.53
386.14	341.72
386.34	423.64
386.53	365.12
386.72	388.53
386.92	409.59
387.11	341.72
387.31	358.10
387.50	421.30
387.70	435.34
387.89	418.96
388.09	465.77
388.28	411.93
388.48	430.66
388.67	533.64
388.86	491.51
389.06	440.02
389.25	444.70
389.45	468.11
389.64	449.38
389.84	575.77
390.03	507.90
390.22	451.72
390.42	472.79
390.61	447.04
390.81	468.11
391.00	596.84
391.19	435.34
391.39	517.26
391.58	517.26
391.78	568.75
391.97	512.58
392.16	461.09
392.36	547.69
392.55	564.07
392.75	533.64
392.94	552.37
393.13	582.79
393.33	587.47
393.52	582.79
393.71	601.52
393.91	617.90
394.10	617.90
394.29	568.75
394.49	578.11
394.68	571.09
394.88	510.24
395.07	603.86
395.26	643.65
395.46	594.50
395.65	587.47
395.84	620.24
396.04	627.26
396.23	678.76
396.42	622.58
396.62	638.97
396.81	641.31
397.00	692.80
397.19	653.01
397.39	622.58
397.58	641.31
397.77	690.46
397.97	580.45
398.16	720.88
398.35	744.29
398.55	643.65
398.74	706.84
398.93	732.59
399.12	774.72
399.32	638.97
399.51	690.46
399.70	706.84
399.90	833.23
400.09	774.72
400.28	730.25
400.47	774.72
400.67	746.63
400.86	830.89
401.05	777.06
401.24	805.14
401.44	779.40
401.63	802.80
401.82	819.19
402.01	748.97
402.21	758.33
402.40	880.04
402.59	847.27
402.78	856.64
402.97	821.53
403.17	863.66
403.36	795.78
403.55	889.40
403.74	847.27
403.93	891.74
404.13	943.24
404.32	849.61
404.51	910.47
404.70	919.83
404.89	917.49
405.09	978.34
405.28	919.83
405.47	954.94
405.66	1004.09
405.85	985.37
406.05	891.74
406.24	938.55
406.43	966.64
406.62	999.41
406.81	999.41
407.00	954.94
407.20	957.28
407.39	1074.31
407.58	1055.58
407.77	992.39
407.96	1043.88
408.15	1116.44
408.34	1050.90
408.54	1165.59
408.73	999.41
408.92	1053.24
409.11	1095.37
409.30	1109.41
409.49	1128.14
409.68	1296.66
409.87	1125.80
410.07	1039.20
410.26	1245.16
410.45	1160.91
410.64	1193.67
410.83	1245.16
411.02	1214.74
411.21	1226.44
411.40	1210.06
411.59	1343.47
411.78	1299.00
411.98	1341.13
412.17	1247.51
412.36	1270.91
412.55	1336.45
412.74	1401.98
412.93	1336.45
413.12	1348.15
413.31	1474.54
413.50	1287.29
413.69	1416.02
413.88	1418.36
414.07	1416.02
414.26	1472.20
414.45	1479.22
414.64	1416.02
414.83	1575.18
415.02	1497.94
415.22	1544.75
415.41	1610.29
415.60	1502.62
415.79	1636.03
415.98	1612.63
416.17	1631.35
416.36	1598.59
416.55	1610.29
416.74	1619.65
416.93	1659.44
417.12	1598.59
417.31	1771.79
417.50	1720.29
417.69	1612.63
417.88	1755.40
418.07	1664.12
418.26	1748.38
418.45	1799.87
418.64	1802.21
418.83	1802.21
419.02	1797.53
419.21	1811.57
419.39	1853.70
419.58	1923.92
419.77	1792.85
419.96	1914.56
420.15	1863.07
420.34	1797.53
420.53	1928.60
420.72	1919.24
420.91	1952.01
421.10	1834.98
421.29	1984.77
421.48	1874.77
421.67	1898.17
421.86	1975.41
422.05	2008.18
422.24	1921.58
422.43	1944.99
422.61	2087.76
422.80	2008.18
422.99	1933.28
423.18	1977.75
423.37	2005.84
423.56	1959.03
423.75	1989.46
423.94	1940.30
424.13	1898.17
424.32	2001.16
424.50	2087.76
424.69	2122.87
424.88	2183.72
425.07	1937.96
425.26	1954.35
425.45	2008.18
425.64	2104.14
425.83	2080.74
426.01	2134.57
426.20	2024.56
426.39	2129.89
426.58	2176.70
426.77	2038.61
426.96	1982.43
427.15	2073.71
427.33	2108.82
427.52	2071.37
427.71	2179.04
427.90	2052.65
428.09	2183.72
428.28	2265.64
428.46	2232.87
428.65	2136.91
428.84	2218.83
429.03	2370.96
429.22	2223.51
429.40	2106.48
429.59	2265.64
429.78	2143.93
429.97	2155.63
430.16	2141.59
430.34	2310.11
430.53	2438.84
430.72	2328.83
430.91	2305.43
431.10	2335.85
431.28	2359.26
431.47	2417.77
431.66	2502.03
431.85	2431.82
432.03	2471.61
432.22	2504.37
432.41	2431.82
432.60	2490.33
432.79	2471.61
432.97	2583.95
433.16	2499.69
433.35	2312.45
433.54	2413.09
433.72	2445.86
433.91	2574.59
434.10	2492.67
434.28	2609.70
434.47	2663.53
434.66	2539.48
434.85	2495.01
435.03	2600.34
435.22	2593.31
435.41	2661.19
435.59	2672.89
435.78	2717.36
435.97	2602.68
436.16	2572.25
436.34	2668.21
436.53	2675.23
436.72	2810.98
436.90	2626.08
437.09	2787.58
437.28	2565.23
437.46	2710.34
437.65	2703.32
437.84	2827.37
438.02	2729.06
438.21	2778.22
438.40	2567.57
438.58	2965.46
438.77	2939.71
438.96	2906.95
439.14	2832.05
439.33	2904.60
439.52	2979.50
439.70	3019.29
439.89	2988.86
440.08	3045.04
440.26	3045.04
440.45	2930.35
440.63	3087.17
440.82	3187.81
441.01	3173.77
441.19	3148.02
441.38	3208.87
441.57	3166.74
441.75	3185.47
441.94	3358.67
442.12	3222.92
442.31	3246.32
442.50	3375.05
442.68	3346.97
442.87	3332.92
443.05	3272.07
443.24	3410.16
443.43	3405.48
443.61	3361.01
443.80	3433.57
443.98	3332.92
444.17	3309.52
444.35	3485.06
444.54	3447.61
444.73	3297.81
444.91	3489.74
445.10	3379.73
445.28	3445.27
445.47	3365.69
445.65	3424.20
445.84	3576.34
446.02	3559.95
446.21	3433.57
446.39	3466.33
446.58	3426.54
446.77	3482.72
446.95	3365.69
447.14	3492.08
447.32	3524.85
447.51	3478.04
447.69	3428.88
447.88	3456.97
448.06	3604.42
448.25	3571.66
448.43	3562.30
448.62	3569.32
448.80	3442.93
448.99	3501.44
449.17	3517.83
449.36	3648.90
449.54	3705.07
449.73	3686.34
449.91	3691.02
450.10	3695.71
450.28	3810.39
450.46	3742.52
450.65	3747.20
450.83	3730.81
451.02	3843.16
451.20	3653.58
451.39	3861.88
451.57	3859.54
451.76	3667.62
451.94	3712.09
452.13	3922.74
452.31	3880.61
452.49	3698.05
452.68	3824.44
452.86	3822.09
453.05	3950.82
453.23	3866.56
453.42	3812.73
453.60	3913.38
453.78	3943.80
453.97	3829.12
454.15	3871.25
454.34	3906.35
454.52	4072.53
454.70	3953.16
454.89	3939.12
455.07	4037.42
455.26	4084.23
455.44	4117.00
455.62	4093.60
455.81	4086.58
455.99	3955.51
456.17	4217.65
456.36	4161.47
456.54	4121.68
456.73	4374.46
456.91	4278.50
457.09	4168.49
457.28	4365.10
457.46	4208.28
457.64	4358.08
457.83	4250.41
458.01	4362.76
458.19	4493.83
458.38	4353.40
458.56	4491.49
458.74	4362.76
458.93	4449.36
459.11	4404.89
459.29	4423.61
459.48	4407.23
459.66	4458.72
459.84	4573.41
460.03	4578.09
460.21	4526.60
460.39	4496.17
460.57	4580.43
460.76	4557.02
460.94	4444.68
461.12	4599.15
461.31	4755.97
461.49	4812.14
461.67	4751.29
461.85	4758.31
462.04	4521.92
462.22	4922.15
462.40	4716.18
462.59	4760.65
462.77	4692.77
462.95	4732.56
463.13	4800.44
463.32	4856.61
463.50	4873.00
463.68	4917.47
463.86	4980.66
464.05	4915.12
464.23	4835.55
464.41	4690.43
464.59	4669.37
464.78	5022.79
464.96	4912.78
465.14	4889.38
465.32	4945.55
465.50	5090.67
465.69	5203.01
465.87	4966.62
466.05	4980.66
466.23	5076.62
466.41	4966.62
466.60	5153.86
466.78	4908.10
466.96	5041.51
467.14	5212.37
467.32	5011.09
467.51	5184.29
467.69	5235.78
467.87	5036.83
468.05	5242.80
468.23	5195.99
468.41	5221.74
468.60	5114.07
468.78	5268.55
468.96	5324.72
469.14	5366.85
469.32	5352.81
469.50	5142.16
469.69	5474.51
469.87	5493.24
470.05	5511.96
470.23	5481.53
470.41	5313.02
470.59	5511.96
470.77	5390.25
470.95	5394.93
471.14	5551.75
471.32	5411.32
471.50	5706.23
471.68	5654.73
471.86	5734.31
472.04	5727.29
472.22	5769.42
472.40	5792.83
472.58	5746.02
472.77	5839.64
472.95	5881.77
473.13	6059.65
473.31	5774.10
473.49	5902.83
473.67	5804.53
473.85	5881.77
474.03	5954.32
474.21	5984.75
474.39	5996.45
474.57	6094.76
474.75	6099.44
474.93	6150.93
475.12	6153.27
475.30	6218.80
475.48	6146.25
475.66	6340.51
475.84	6410.73
476.02	6239.87
476.20	6396.68
476.38	6537.12
476.56	6731.38
476.74	6604.99
476.92	6600.31
477.10	6448.18
477.28	6672.87
477.46	6682.23
477.64	6780.53
477.82	6993.52
478.00	7091.82
478.18	6942.03
478.36	7035.65
478.54	7068.42
478.72	7103.53
478.90	7365.67
479.08	7314.17
479.26	7360.98
479.44	7293.11
479.62	7286.09
479.80	7414.82
479.98	7410.14
480.16	7634.83
480.34	7478.01
480.52	7777.60
480.70	7824.41
480.88	7728.45
481.06	7791.64
481.24	7777.60
481.41	7882.92
481.59	7894.63
481.77	8006.97
481.95	8093.57
482.13	8372.10
482.31	8105.28
482.49	8203.58
482.67	8402.52
482.85	8329.97
483.03	8533.59
483.21	8442.31
483.39	8561.68
483.57	8540.61
483.74	8601.47
483.92	8622.53
484.10	8599.13
484.28	8863.61
484.46	9041.49
484.64	9224.05
484.82	9156.18
485.00	9270.86
485.18	9263.84
485.35	9518.96
485.53	9523.64
485.71	9575.13
485.89	9607.90
486.07	9586.83
486.25	9603.22
486.43	9654.71
486.61	9856.00
486.78	10015.15
486.96	10090.05
487.14	9991.75
487.32	10057.28
487.50	10169.63
487.68	10193.03
487.85	10469.22
488.03	10427.09
488.21	10448.15
488.39	10539.43
488.57	10424.75
488.75	10654.12
488.92	10883.49
489.10	11131.59
489.28	10988.82
489.46	11295.43
489.64	11129.25
489.81	11339.90
489.99	11234.57
490.17	11337.56
490.35	11620.76
490.53	11583.31
490.70	11557.57
490.88	11545.86
491.06	11667.57
491.24	12020.99
491.41	11826.73
491.59	11847.79
491.77	11946.09
491.95	11903.96
492.13	12358.03
492.30	12353.35
492.48	12365.05
492.66	12219.94
492.84	12334.62
493.01	12542.93
493.19	12372.07
493.37	12884.65
493.54	12737.20
493.72	13217.01
493.90	12910.40
494.08	12809.75
494.25	13345.73
494.43	13121.04
494.61	13242.75
494.79	13380.84
494.96	13315.31
495.14	13256.79
495.32	13612.56
495.49	13252.11
495.67	13736.60
495.85	13872.36
496.02	13862.99
496.20	14057.26
496.38	13958.96
496.55	14078.32
496.73	13977.68
496.91	14111.09
497.09	14293.65
497.26	14478.55
497.44	14157.90
497.62	14288.97
497.79	14846.02
497.97	14583.88
498.14	14721.97
498.32	14876.44
498.50	14967.73
498.67	15199.44
498.85	15037.94
499.03	14998.15
499.20	14944.32
499.38	14925.60
499.56	15321.15
499.73	15250.93
499.91	15365.62
500.08	15611.37
500.26	15066.03
500.44	15367.96
500.61	15339.87
500.79	15524.77
500.97	15770.53
501.14	15758.83
501.32	15964.79
501.49	15950.75
501.67	15826.70
501.84	16009.26
502.02	16091.18
502.20	16114.59
502.37	16554.61
502.55	16177.78
502.72	16137.99
502.90	16294.81
503.07	16343.96
503.25	16325.24
503.43	16362.69
503.60	16547.59
503.78	16762.92
503.95	16435.24
504.13	16617.80
504.30	16798.02
504.48	16692.70
504.65	16783.98
504.83	16739.51
505.01	17039.10
505.18	16987.61
505.36	17198.26
505.53	16975.91
505.71	17233.36
505.88	17451.03
506.06	16858.88
506.23	17221.66
506.41	17378.48
506.58	17448.69
506.76	17661.68
506.93	17628.92
507.11	17209.96
507.28	17074.21
507.46	17673.39
507.63	17722.54
507.81	17919.14
507.98	17834.88
508.16	17661.68
508.33	17862.97
508.50	17907.44
508.68	17853.61
508.85	17996.38
509.03	18298.31
509.20	18441.08
509.38	18630.66
509.55	18515.98
509.73	18511.30
509.90	18293.63
510.08	18377.89
510.25	18515.98
510.42	18508.96
510.60	18726.63
510.77	19183.03
510.95	18918.55
511.12	18661.09
511.30	18766.42
511.47	18941.96
511.64	19042.60
511.82	19040.26
511.99	18909.19
512.17	19033.24
512.34	19166.65
512.51	19400.70
512.69	19180.69
512.86	19342.19
513.04	19585.60
513.21	19669.86
513.38	19480.28
513.56	19735.40
513.73	19297.72
513.90	19557.52
514.08	19517.73
514.25	19704.97
514.43	19747.10
514.60	19901.58
514.77	19859.45
514.95	20306.49
515.12	19901.58
515.29	19644.12
515.47	20121.59
515.64	20013.92
515.81	20144.99
515.99	20011.58
516.16	20257.34
516.33	20482.03
516.51	20365.00
516.68	20350.96
516.85	20411.81
517.03	20662.25
517.20	20470.33
517.37	20264.36
517.54	20723.10
517.72	20573.31
517.89	20830.77
518.06	20748.85
518.24	20936.09
518.41	20940.77
518.58	20842.47
518.75	20638.84
518.93	21088.23
519.10	21167.80
519.27	21022.69
519.45	21156.10
519.62	21214.62
519.79	21132.70
519.96	21331.64
520.14	21317.60
520.31	21345.69
520.48	21451.01
520.65	21565.70
520.83	21336.32
521.00	21348.03
521.17	21460.37
521.34	21769.32
521.52	21448.67
521.69	21965.93
521.86	21614.85
522.03	21951.88
522.20	21933.16
522.38	21909.75
522.55	21996.35
522.72	21942.52
522.89	22127.42
523.07	22190.62
523.24	22237.43
523.41	22328.71
523.58	21991.67
523.75	22087.64
523.92	22162.53
524.10	22314.67
524.27	22494.89
524.44	22244.45
524.61	22588.51
524.78	22448.08
524.96	22476.16
525.13	22331.05
525.30	22532.34
525.47	22632.98
525.64	22752.35
525.81	22817.88
525.98	22649.36
526.16	22785.12
526.33	22675.11
526.50	23117.47
526.67	22895.12
526.84	22836.61
527.01	22911.50
527.18	22852.99
527.36	22885.76
527.53	23335.14
527.70	23330.46
527.87	23248.54
528.04	23365.57
528.21	23257.90
528.38	23248.54
528.55	23531.75
528.72	23456.85
528.89	23396.00
529.07	23620.69
529.24	23288.33
529.41	23651.11
529.58	23627.71
529.75	23828.99
529.92	23784.52
530.09	23803.25
530.26	23768.14
530.43	23756.44
530.60	23463.87
530.77	23630.05
530.94	23894.53
531.11	23800.91
531.28	23840.70
531.46	23817.29
531.63	24173.05
531.80	24088.79
531.97	24070.07
532.14	24254.97
532.31	23880.49
532.48	24077.09
532.65	24329.87
532.82	24386.04
532.99	24285.40
533.16	24694.99
533.33	24533.50
533.50	24521.79
533.67	24809.68
533.84	24238.59
534.01	24271.36
534.18	24479.66
534.35	24797.98
534.52	24744.14
534.69	24788.61
534.86	24507.75
535.03	24460.94
535.20	24718.40
535.37	24833.08
535.54	24861.17
535.71	24304.12
535.88	24704.35
536.05	25036.71
536.22	25010.96
536.38	25001.60
536.55	24940.75
536.72	25280.13
536.89	24945.43
537.06	25317.57
537.23	25025.01
537.40	24945.43
537.57	25142.03
537.74	25291.83
537.91	25525.88
538.08	25252.04
538.25	25142.03
538.42	25509.50
538.59	25504.82
538.75	25926.11
538.92	25369.07
539.09	25656.95
539.26	25701.42
539.43	25591.42
539.60	25551.63
539.77	25706.10
539.94	25949.52
540.11	25518.86
540.28	26225.70
540.44	25781.00
540.61	26031.44
540.78	26118.04
540.95	25860.58
541.12	25879.30
541.29	25635.89
541.46	25792.70
541.62	26024.42
541.79	26094.63
541.96	25605.46
542.13	25764.62
542.30	25862.92
542.47	26045.48
542.63	26281.88
542.80	26497.20
542.97	26281.88
543.14	26520.61
543.31	26536.99
543.48	26684.45
543.64	26668.06
543.81	26595.51
543.98	26457.42
544.15	26462.10
544.32	26754.66
544.48	26817.86
544.65	26780.41
544.82	26696.15
544.99	26808.50
545.16	26789.77
545.32	26635.30
545.49	26892.76
545.66	26897.44
545.83	26815.52
546.00	26824.88
546.16	26986.38
546.33	26677.43
546.50	26356.77
546.67	26941.91
546.83	26857.65
547.00	27129.15
547.17	26874.03
547.34	27152.55
547.50	27178.30
547.67	27143.19
547.84	27089.36
548.00	27082.34
548.17	27147.87
548.34	27295.33
548.51	27505.98
548.67	27328.10
548.84	27314.05
549.01	27316.39
549.18	27119.79
549.34	27454.48
549.51	27498.95
549.68	27597.26
549.84	27337.46
550.01	27571.51
550.18	27438.10
550.34	27899.19
550.51	27693.22
550.68	27639.39
550.84	27550.45
551.01	27527.04
551.18	27924.93
551.34	27733.01
551.51	27391.29
551.68	27648.75
551.84	27969.40
552.01	27688.54
552.18	27908.55
552.34	27889.82
552.51	27723.65
552.68	27543.42
552.84	27768.12
553.01	27674.49
553.18	28046.64
553.34	27969.40
553.51	28156.64
553.67	28416.44
553.84	28212.82
554.01	27740.03
554.17	28203.46
554.34	28180.05
554.51	28201.11
554.67	28093.45
554.84	28002.17
555.00	28205.80
555.17	27910.89
555.33	28252.61
555.50	28388.36
555.67	28418.78
555.83	28327.50
556.00	28467.94
556.16	28634.11
556.33	28556.88
556.50	28381.34
556.66	28659.86
556.83	28638.80
556.99	28591.98
557.16	29017.96
557.32	28404.74
557.49	28524.11
557.65	28407.08
557.82	28484.32
557.98	28662.20
558.15	28456.23
558.32	28709.01
558.48	28264.31
558.65	28727.74
558.81	28835.40
558.98	28409.42
559.14	28709.01
559.31	28304.10
559.47	28701.99
559.64	28659.86
559.80	28589.64
559.97	29200.52
560.13	28746.46
560.30	28608.37
560.46	29174.78
560.63	28992.22
560.79	29179.46
560.96	28797.95
561.12	29146.69
561.29	28584.96
561.45	28952.43
561.61	28903.28
561.78	28919.66
561.94	29160.73
562.11	29207.55
562.27	29418.19
562.44	28856.46
562.60	29137.33
562.77	29273.08
562.93	29008.60
563.10	29429.90
563.26	28954.77
563.42	29088.18
563.59	29106.90
563.75	29266.06
563.92	29106.90
564.08	29022.64
564.24	28891.57
564.41	29165.42
564.57	28931.36
564.74	29050.73
564.90	29298.83
565.07	29474.37
565.23	29397.13
565.39	29071.79
565.56	29481.39
565.72	29282.44
565.88	29228.61
566.05	29132.65
566.21	29612.46
566.38	29462.66
566.54	29497.77
566.70	29350.32
566.87	29841.83
567.03	29858.21
567.19	29427.56
567.36	29256.70
567.52	29731.83
567.68	29095.20
567.85	29493.09
568.01	29619.48
568.17	29034.35
568.34	29731.83
568.50	29771.61
568.66	29832.47
568.83	29848.85
568.99	29446.28
569.15	29415.85
569.32	29682.67
569.48	29560.97
569.64	29575.01
569.81	29303.51
569.97	29823.11
570.13	29640.54
570.30	29453.30
570.46	29841.83
570.62	29764.59
570.78	29560.97
570.95	29642.88
571.11	29656.93
571.27	29144.35
571.43	29301.17
571.60	29249.67
571.76	29338.62
571.92	29668.63
572.09	29736.51
572.25	30120.35
572.41	30017.37
572.57	29497.77
572.74	29970.56
572.90	29832.47
573.06	29434.58
573.22	29542.24
573.38	29591.39
573.55	29551.60
573.71	30258.45
573.87	29713.10
574.03	29858.21
574.20	29785.66
574.36	29612.46
574.52	29984.60
574.68	29820.77
574.84	30050.14
575.01	29935.45
575.17	29844.17
575.33	29642.88
575.49	30148.44
575.65	29961.20
575.82	30061.84
575.98	30000.99
576.14	30139.08
576.30	29916.73
576.46	29710.76
576.62	29680.33
576.79	30033.75
576.95	29422.87
577.11	29944.81
577.27	30099.29
577.43	29876.94
577.59	30146.10
577.75	30075.88
577.92	29905.02
578.08	29947.15
578.24	29996.31
578.40	29675.65
578.56	29773.95
578.72	30244.40
578.88	29902.68
579.04	30160.14
579.21	30066.52
579.37	29972.90
579.53	30391.86
579.69	29827.79
579.85	30015.03
580.01	29879.28
580.17	29717.78
580.33	29797.36
580.49	30019.71
580.65	30213.98
580.82	30153.12
580.98	29951.84
581.14	29771.61
581.30	29975.24
581.46	29677.99
581.62	30139.08
581.78	29900.34
581.94	29537.56
582.10	29724.80
582.26	29813.74
582.42	29762.25
582.58	30464.41
582.74	30298.23
582.90	30263.13
583.06	30642.29
583.22	30359.09
583.38	30031.41
583.54	29692.04
583.70	29912.05
583.86	30218.66
584.02	29893.32
584.18	30249.08
584.34	30302.92
584.50	30197.59
584.66	30120.35
584.82	29916.73
584.98	30478.46
585.14	30019.71
585.30	30045.46
585.46	29654.59
585.62	30314.62
585.78	30000.99
585.94	30047.80
586.10	30298.23
586.26	29858.21
586.42	30008.01
586.58	30228.02
586.74	30031.41
586.90	30199.93
587.06	30103.97
587.22	30321.64
587.38	29837.15
587.54	30026.73
587.70	30015.03
587.86	30508.88
588.02	30600.16
588.18	30628.25
588.34	30323.98
588.49	30363.77
588.65	30052.48
588.81	30036.09
588.97	30096.95
589.13	30148.44
589.29	30347.39
589.45	30326.32
589.61	30139.08
589.77	30361.43
589.93	30469.09
590.08	30426.96
590.24	30962.95
590.40	30562.72
590.56	30455.05
590.72	30532.29
590.88	30199.93
591.04	30604.84
591.20	30796.77
591.35	30850.60
591.51	30541.65
591.67	30515.90
591.83	30562.72
591.99	30295.89
