SpectraSuite Data File
++++++++++++++++++++++++++++++++++++
Date: Fri Oct 18 13:58:04 GMT-05:00 2013
User: bianchi
Dark Spectrum Present: No
Reference Spectrum Present: No
Number of Sampled Component Spectra: 1
Spectrometers: USB2+H05261
Integration Time (usec): 50000 (USB2+H05261)
Spectra Averaged: 1 (USB2+H05261)
Boxcar Smoothing: 0 (USB2+H05261)
Correct for Electrical Dark: No (USB2+H05261)
Strobe/Lamp Enabled: No (USB2+H05261)
Correct for Detector Non-linearity: No (USB2+H05261)
Correct for Stray Light: No (USB2+H05261)
Number of Pixels in Processed Spectrum: 2048
>>>>>Begin Processed Spectral Data<<<<<
365.73	0.00
365.92	0.00
366.12	0.00
366.32	0.00
366.52	0.00
366.72	0.00
366.91	0.00
367.11	0.00
367.31	0.00
367.51	0.00
367.70	0.00
367.90	0.00
368.10	0.00
368.30	0.00
368.49	0.00
368.69	0.00
368.89	0.00
369.09	0.00
369.28	0.00
369.48	0.00
369.68	0.00
369.87	0.00
370.07	0.00
370.27	0.00
370.47	0.00
370.66	35.11
370.86	124.05
371.06	119.37
371.25	159.16
371.45	140.43
371.65	147.45
371.84	189.58
372.04	135.75
372.24	175.54
372.44	194.26
372.63	168.52
372.83	166.18
373.03	154.48
373.22	255.12
373.42	208.31
373.62	189.58
373.81	177.88
374.01	222.35
374.21	250.44
374.40	227.03
374.60	222.35
374.79	210.65
374.99	278.52
375.19	231.71
375.38	299.59
375.58	278.52
375.78	241.08
375.97	243.42
376.17	266.82
376.37	269.16
376.56	283.20
376.76	248.10
376.95	210.65
377.15	184.90
377.35	283.20
377.54	198.95
377.74	266.82
377.93	278.52
378.13	290.23
378.33	297.25
378.52	318.31
378.72	262.14
378.91	234.05
379.11	325.33
379.31	318.31
379.50	283.20
379.70	241.08
379.89	283.20
380.09	266.82
380.28	257.46
380.48	250.44
380.68	271.50
380.87	341.72
381.07	301.93
381.26	318.31
381.46	423.64
381.65	374.49
381.85	353.42
382.04	372.15
382.24	287.89
382.43	320.65
382.63	304.27
382.83	339.38
383.02	348.74
383.22	414.27
383.41	330.02
383.61	372.15
383.80	407.25
384.00	353.42
384.19	315.97
384.39	407.25
384.58	285.55
384.78	341.72
384.97	381.51
385.17	423.64
385.36	404.91
385.56	451.72
385.75	386.19
385.95	383.85
386.14	442.36
386.34	390.87
386.53	334.70
386.72	435.34
386.92	428.32
387.11	442.36
387.31	362.78
387.50	383.85
387.70	447.04
387.89	428.32
388.09	468.11
388.28	400.23
388.48	482.15
388.67	472.79
388.86	500.87
389.06	447.04
389.25	411.93
389.45	444.70
389.64	479.81
389.84	545.34
390.03	484.49
390.22	449.38
390.42	475.13
390.61	477.47
390.81	468.11
391.00	498.53
391.19	554.71
391.39	557.05
391.58	599.18
391.78	491.51
391.97	503.22
392.16	547.69
392.36	599.18
392.55	571.09
392.75	575.77
392.94	524.28
393.13	557.05
393.33	526.62
393.52	610.88
393.71	545.34
393.91	543.00
394.10	580.45
394.29	660.03
394.49	580.45
394.68	580.45
394.88	641.31
395.07	566.41
395.26	622.58
395.46	524.28
395.65	620.24
395.84	650.67
396.04	594.50
396.23	678.76
396.42	657.69
396.62	699.82
396.81	615.56
397.00	681.10
397.19	660.03
397.39	650.67
397.58	648.33
397.77	732.59
397.97	655.35
398.16	751.31
398.35	737.27
398.55	660.03
398.74	758.33
398.93	765.36
399.12	779.40
399.32	688.12
399.51	653.01
399.70	837.91
399.90	737.27
400.09	765.36
400.28	807.48
400.47	795.78
400.67	774.72
400.86	819.19
401.05	842.59
401.24	840.25
401.44	866.00
401.63	807.48
401.82	861.32
402.01	854.30
402.21	821.53
402.40	800.46
402.59	891.74
402.78	835.57
402.97	837.91
403.17	868.34
403.36	919.83
403.55	987.71
403.74	1027.50
403.93	980.68
404.13	964.30
404.32	901.11
404.51	917.49
404.70	1013.45
404.89	976.00
405.09	943.24
405.28	936.21
405.47	968.98
405.66	971.32
405.85	1015.79
406.05	964.30
406.24	1008.77
406.43	1048.56
406.62	976.00
406.81	1121.12
407.00	1013.45
407.20	1057.92
407.39	1027.50
407.58	1069.62
407.77	1060.26
407.96	1067.28
408.15	1083.67
408.34	1039.20
408.54	1107.07
408.73	1121.12
408.92	1071.97
409.11	1132.82
409.30	1139.84
409.49	1179.63
409.68	1231.12
409.87	1193.67
410.07	1179.63
410.26	1256.87
410.45	1165.59
410.64	1231.12
410.83	1163.25
411.02	1231.12
411.21	1284.95
411.40	1301.34
411.59	1315.38
411.78	1313.04
411.98	1270.91
412.17	1252.19
412.36	1336.45
412.55	1383.26
412.74	1263.89
412.93	1369.21
413.12	1350.49
413.31	1509.65
413.50	1427.73
413.69	1411.34
413.88	1521.35
414.07	1500.28
414.26	1425.39
414.45	1537.73
414.64	1399.64
414.83	1521.35
415.02	1465.18
415.22	1547.09
415.41	1610.29
415.60	1575.18
415.79	1554.12
415.98	1607.95
416.17	1678.16
416.36	1626.67
416.55	1579.86
416.74	1593.90
416.93	1703.91
417.12	1750.72
417.31	1748.38
417.50	1696.89
417.69	1792.85
417.88	1685.19
418.07	1799.87
418.26	1692.21
418.45	1757.74
418.64	1851.36
418.83	1853.70
419.02	1863.07
419.21	1863.07
419.39	1849.02
419.58	1975.41
419.77	1891.15
419.96	1748.38
420.15	1788.17
420.34	1839.66
420.53	1977.75
420.72	1844.34
420.91	1991.80
421.10	2029.24
421.29	2052.65
421.48	2038.61
421.67	1879.45
421.86	1912.22
422.05	1975.41
422.24	1930.94
422.43	2026.90
422.61	1961.37
422.80	1956.69
422.99	2059.67
423.18	2064.35
423.37	2036.27
423.56	2043.29
423.75	1980.09
423.94	2069.03
424.13	1881.79
424.32	1905.20
424.50	2134.57
424.69	2195.42
424.88	2101.80
425.07	2066.69
425.26	2125.21
425.45	2036.27
425.64	2054.99
425.83	2076.06
426.01	2155.63
426.20	2085.42
426.39	2104.14
426.58	2071.37
426.77	2087.76
426.96	2108.82
427.15	2043.29
427.33	2080.74
427.52	2122.87
427.71	2249.25
427.90	2272.66
428.09	2251.60
428.28	2193.08
428.46	2237.55
428.65	2230.53
428.84	2331.17
429.03	2368.62
429.22	2345.22
429.40	2310.11
429.59	2239.89
429.78	2134.57
429.97	2169.68
430.16	2251.60
430.34	2352.24
430.53	2455.22
430.72	2366.28
430.91	2326.49
431.10	2251.60
431.28	2359.26
431.47	2342.88
431.66	2399.05
431.85	2518.42
432.03	2429.48
432.22	2387.35
432.41	2429.48
432.60	2363.94
432.79	2389.69
432.97	2441.18
433.16	2520.76
433.35	2513.74
433.54	2492.67
433.72	2413.09
433.91	2455.22
434.10	2576.93
434.28	2438.84
434.47	2525.44
434.66	2588.63
434.85	2600.34
435.03	2708.00
435.22	2576.93
435.41	2696.30
435.59	2644.81
435.78	2628.42
435.97	2593.31
436.16	2757.15
436.34	2651.83
436.53	2698.64
436.72	2743.11
436.90	2609.70
437.09	2633.10
437.28	2665.87
437.46	2846.09
437.65	2787.58
437.84	2740.77
438.02	2712.68
438.21	2836.73
438.40	2679.91
438.58	2902.26
438.77	2958.44
438.96	2808.64
439.14	2991.20
439.33	2981.84
439.52	2972.48
439.70	2981.84
439.89	3049.72
440.08	3042.70
440.26	3005.25
440.45	3155.04
440.63	3222.92
440.82	3124.62
441.01	3187.81
441.19	3246.32
441.38	3265.05
441.57	3166.74
441.75	3094.19
441.94	3274.41
442.12	3295.47
442.31	3501.44
442.50	3405.48
442.68	3325.90
442.87	3332.92
443.05	3389.10
443.24	3414.84
443.43	3361.01
443.61	3372.71
443.80	3463.99
443.98	3499.10
444.17	3272.07
444.35	3428.88
444.54	3548.25
444.73	3510.80
444.91	3499.10
445.10	3527.19
445.28	3538.89
445.47	3403.14
445.65	3363.35
445.84	3456.97
446.02	3407.82
446.21	3487.40
446.39	3508.46
446.58	3513.14
446.77	3576.34
446.95	3414.84
447.14	3522.51
447.32	3522.51
447.51	3468.67
447.69	3501.44
447.88	3672.30
448.06	3552.93
448.25	3499.10
448.43	3566.98
448.62	3574.00
448.80	3686.34
448.99	3648.90
449.17	3784.65
449.36	3691.02
449.54	3651.24
449.73	3742.52
449.91	3922.74
450.10	3639.53
450.28	3770.60
450.46	3843.16
450.65	3691.02
450.83	3763.58
451.02	3765.92
451.20	3824.44
451.39	3826.78
451.57	3740.18
451.76	3789.33
451.94	3796.35
452.13	4023.38
452.31	3796.35
452.49	4021.04
452.68	4007.00
452.86	3871.25
453.05	3885.29
453.23	3915.72
453.42	3908.69
453.60	3901.67
453.78	3985.93
453.97	3889.97
454.15	3960.19
454.34	3934.44
454.52	4060.83
454.70	4046.79
454.89	4128.70
455.07	4042.11
455.26	4219.99
455.44	4131.05
455.62	4091.26
455.81	4058.49
455.99	4252.75
456.17	4198.92
456.36	4252.75
456.54	4227.01
456.73	3981.25
456.91	4306.59
457.09	4294.88
457.28	4512.55
457.46	4358.08
457.64	4425.95
457.83	4500.85
458.01	4327.65
458.19	4355.74
458.38	4472.76
458.56	4428.29
458.74	4388.50
458.93	4477.44
459.11	4395.53
459.29	4477.44
459.48	4580.43
459.66	4585.11
459.84	4557.02
460.03	4585.11
460.21	4528.94
460.39	4613.20
460.57	4596.81
460.76	4594.47
460.94	4641.28
461.12	4669.37
461.31	4601.49
461.49	4629.58
461.67	4631.92
461.85	4812.14
462.04	4748.95
462.22	5015.77
462.40	4774.69
462.59	4734.90
462.77	4854.27
462.95	4975.98
463.13	4880.02
463.32	4802.78
463.50	4788.74
463.68	4891.72
463.86	4849.59
464.05	4992.36
464.23	4753.63
464.41	4861.29
464.59	4926.83
464.78	5083.64
464.96	4919.81
465.14	4851.93
465.32	4917.47
465.50	5001.72
465.69	4975.98
465.87	4947.89
466.05	5102.37
466.23	4931.51
466.41	5128.11
466.60	5364.51
466.78	5219.39
466.96	5144.50
467.14	5085.98
467.32	5057.90
467.51	5303.65
467.69	5027.47
467.87	5301.31
468.05	5228.76
468.23	5128.11
468.41	5315.36
468.60	5310.68
468.78	5352.81
468.96	5298.97
469.14	5275.57
469.32	5434.72
469.50	5296.63
469.69	5341.10
469.87	5413.66
470.05	5495.58
470.23	5446.43
470.41	5521.32
470.59	5533.03
470.77	5603.24
470.95	5535.37
471.14	5631.33
471.32	5598.56
471.50	5598.56
471.68	5715.59
471.86	5668.78
472.04	5696.86
472.22	5870.06
472.40	5731.97
472.58	5771.76
472.77	5827.93
472.95	5785.80
473.13	6099.44
473.31	5947.30
473.49	5795.17
473.67	5914.53
473.85	5947.30
474.03	6181.35
474.21	6043.26
474.39	6260.93
474.57	6071.35
474.75	6321.79
474.93	6289.02
475.12	6298.38
475.30	6335.83
475.48	6303.06
475.66	6347.53
475.84	6340.51
476.02	6328.81
476.20	6562.86
476.38	6413.07
476.56	6370.94
476.74	6635.42
476.92	6583.93
477.10	6677.55
477.28	6691.59
477.46	6614.35
477.64	6808.62
477.82	6916.28
478.00	7012.24
478.18	6977.14
478.36	7197.15
478.54	7229.91
478.72	7108.21
478.90	7173.74
479.08	7300.13
479.26	7403.11
479.44	7417.16
479.62	7468.65
479.80	7342.26
479.98	7522.48
480.16	7658.23
480.34	7524.82
480.52	7604.40
480.70	7686.32
480.88	7585.68
481.06	7742.49
481.24	7946.12
481.41	7936.76
481.59	8056.12
481.77	8046.76
481.95	8152.09
482.13	8102.93
482.31	8205.92
482.49	8425.93
482.67	8461.04
482.85	8575.72
483.03	8594.45
483.21	8582.74
483.39	8777.01
483.57	8716.16
483.74	8833.18
483.92	8840.20
484.10	8755.94
484.28	8966.59
484.46	9224.05
484.64	9179.58
484.82	9235.75
485.00	9291.93
485.18	9331.72
485.35	9497.89
485.53	9511.94
485.71	9563.43
485.89	9652.37
486.07	9640.67
486.25	9703.86
486.43	9865.36
486.61	9839.61
486.78	10047.92
486.96	10104.09
487.14	10373.25
487.32	10106.43
487.50	10260.91
487.68	10300.70
487.85	10396.66
488.03	10619.01
488.21	10864.77
488.39	10626.03
488.57	10698.59
488.75	10892.85
488.92	10899.87
489.10	11103.50
489.28	11108.18
489.46	11215.85
489.64	11215.85
489.81	11496.71
489.99	11250.96
490.17	11625.44
490.35	11742.47
490.53	11791.62
490.70	11946.09
490.88	11896.94
491.06	12128.66
491.24	11927.37
491.41	12072.48
491.59	12145.04
491.77	12224.62
491.95	12271.43
492.13	12219.94
492.30	12201.21
492.48	12439.95
492.66	12725.49
492.84	12482.08
493.01	12748.90
493.19	12617.83
493.37	12830.82
493.54	13039.12
493.72	12898.69
493.90	13046.15
494.08	13121.04
494.25	13338.71
494.43	13198.28
494.61	13390.20
494.79	13224.03
494.96	13572.77
495.14	13315.31
495.32	13619.58
495.49	13612.56
495.67	13923.85
495.85	14045.55
496.02	14001.08
496.20	14038.53
496.38	13996.40
496.55	14307.69
496.73	14417.70
496.91	14450.47
497.09	14310.04
497.26	14366.21
497.44	14469.19
497.62	14661.12
497.79	14888.15
497.97	14574.52
498.14	14995.81
498.32	14970.07
498.50	15026.24
498.67	15201.78
498.85	15087.09
499.03	15115.18
499.20	15522.43
499.38	15288.38
499.56	15623.08
499.73	15410.09
499.91	15644.14
500.08	15403.07
500.26	15349.23
500.44	15714.36
500.61	15695.63
500.79	15658.18
500.97	15875.85
501.14	16203.53
501.32	16049.05
501.49	16374.39
501.67	16070.12
501.84	16226.93
502.02	16243.32
502.20	16411.84
502.37	16327.58
502.55	16350.98
502.72	16603.76
502.90	16397.79
503.07	16374.39
503.25	16432.90
503.43	16798.02
503.60	17050.80
503.78	17151.45
503.95	16706.74
504.13	16697.38
504.30	16889.31
504.48	17006.33
504.65	17233.36
504.83	17032.08
505.01	17373.80
505.18	17282.52
505.36	17392.52
505.53	17153.79
505.71	17043.78
505.88	17289.54
506.06	17525.93
506.23	17432.31
506.41	17331.67
506.58	17858.29
506.76	17638.28
506.93	18066.60
507.11	17429.97
507.28	17839.56
507.46	17776.37
507.63	17937.87
507.81	17972.97
507.98	18059.57
508.16	18150.85
508.33	18181.28
508.50	18370.86
508.68	18090.00
508.85	18546.40
509.03	18338.10
509.20	18576.83
509.38	18672.79
509.55	18480.87
509.73	18579.17
509.90	18377.89
510.08	18574.49
510.25	18604.92
510.42	18565.13
510.60	18640.03
510.77	18916.21
510.95	18829.61
511.12	19077.71
511.30	19014.51
511.47	19269.63
511.64	19192.39
511.82	19173.67
511.99	19337.51
512.17	19381.98
512.34	19644.12
512.51	19367.93
512.69	19433.47
512.86	19543.47
513.04	19922.64
513.21	19737.74
513.38	19941.36
513.56	19887.53
513.73	19641.78
513.90	19894.55
514.08	19775.19
514.25	20231.59
514.43	19917.96
514.60	19955.41
514.77	20100.52
514.95	20159.03
515.12	19967.11
515.29	19978.81
515.47	20269.04
515.64	20585.01
515.81	20463.30
515.99	20369.68
516.16	20666.93
516.33	20683.31
516.51	20725.44
516.68	20673.95
516.85	20500.75
517.03	20964.18
517.20	21076.52
517.37	20823.75
517.54	20730.12
517.72	20954.82
517.89	21001.63
518.06	21022.69
518.24	20980.56
518.41	20957.16
518.58	21060.14
518.75	21151.42
518.93	21287.17
519.10	21348.03
519.27	21156.10
519.45	21565.70
519.62	21277.81
519.79	21198.23
519.96	21500.16
520.14	21577.40
520.31	21322.28
520.48	21652.30
520.65	21465.05
520.83	21778.68
521.00	21844.22
521.17	21766.98
521.34	21886.35
521.52	21893.37
521.69	21797.41
521.86	22293.60
522.03	22279.56
522.20	22050.19
522.38	22541.70
522.55	22209.34
522.72	22286.58
522.89	22326.37
523.07	22518.29
523.24	22387.22
523.41	22525.32
523.58	22253.81
523.75	22572.13
523.92	22349.78
524.10	22537.02
524.27	22487.87
524.44	22611.92
524.61	23201.73
524.78	22862.35
524.96	22771.07
525.13	22588.51
525.30	22792.14
525.47	22911.50
525.64	23166.62
525.81	23012.15
525.98	23077.68
526.16	23309.40
526.33	22871.72
526.50	22906.82
526.67	23129.17
526.84	23276.63
527.01	23328.12
527.18	23700.26
527.36	23456.85
527.53	23435.78
527.70	23634.73
527.87	23655.79
528.04	23768.14
528.21	23487.28
528.38	23527.06
528.55	23695.58
528.72	23709.63
528.89	23798.57
529.07	23714.31
529.24	23704.95
529.41	24238.59
529.58	23927.30
529.75	23960.06
529.92	24215.18
530.09	24191.78
530.26	23995.17
530.43	24088.79
530.60	23971.77
530.77	24088.79
530.94	24203.48
531.11	24332.21
531.28	24137.94
531.46	24222.20
531.63	24449.24
531.80	24589.67
531.97	24339.23
532.14	24407.11
532.31	24587.33
532.48	24781.59
532.65	24664.57
532.82	24271.36
532.99	24505.41
533.16	24421.15
533.33	24648.18
533.50	24758.19
533.67	25034.37
533.84	24482.00
534.01	25170.12
534.18	24706.70
534.35	25092.88
534.52	24535.84
534.69	25022.67
534.86	24828.40
535.03	24692.65
535.20	25032.03
535.37	25146.72
535.54	25481.41
535.71	24884.58
535.88	24975.86
536.05	25214.59
536.22	25387.79
536.38	25411.20
536.55	25296.51
536.72	25455.67
536.89	25532.90
537.06	25193.53
537.23	25621.84
537.40	25476.73
537.57	25734.19
537.74	25448.64
537.91	25736.53
538.08	25607.80
538.25	25612.48
538.42	25851.22
538.59	25724.83
538.75	25851.22
538.92	25816.11
539.09	25891.01
539.26	25951.86
539.43	25933.14
539.60	25570.35
539.77	25619.50
539.94	25912.07
540.11	25979.95
540.28	26066.55
540.44	26106.34
540.61	25872.28
540.78	25996.33
540.95	26314.64
541.12	25853.56
541.29	26272.51
541.46	26302.94
541.62	26129.74
541.79	25876.96
541.96	26078.25
542.13	26089.95
542.30	26817.86
542.47	26494.86
542.63	26567.42
542.80	26471.46
542.97	26761.69
543.14	26705.51
543.31	26778.07
543.48	26881.05
543.64	27161.92
543.81	26731.26
543.98	27005.10
544.15	27122.13
544.32	26771.05
544.48	27173.62
544.65	26988.72
544.82	26960.63
544.99	26480.82
545.16	27185.32
545.32	26986.38
545.49	27388.95
545.66	27136.17
545.83	27269.58
546.00	27421.72
546.16	27084.68
546.33	26841.26
546.50	26778.07
546.67	27608.96
546.83	27309.37
547.00	27480.23
547.17	27714.28
547.34	27510.66
547.50	27517.68
547.67	27805.56
547.84	27653.43
548.00	27510.66
548.17	27782.16
548.34	27452.14
548.51	28109.83
548.67	27843.01
548.84	27789.18
549.01	27826.63
549.18	27700.24
549.34	28025.57
549.51	28184.73
549.68	27723.65
549.84	27810.25
550.01	27824.29
550.18	27775.14
550.34	28041.96
550.51	27761.09
550.68	27955.36
550.84	27892.16
551.01	28114.52
551.18	27754.07
551.34	27398.31
551.51	28063.02
551.68	28201.11
551.84	28411.76
552.01	28168.35
552.18	28570.92
552.34	28112.17
552.51	28156.64
552.68	28444.53
552.84	28168.35
553.01	28570.92
553.18	28091.11
553.34	28910.30
553.51	28072.39
553.67	28552.20
553.84	28854.12
554.01	28467.94
554.17	28666.88
554.34	28547.51
554.51	28060.68
554.67	28566.24
554.84	28704.33
555.00	28102.81
555.17	28524.11
555.33	28861.15
555.50	28692.63
555.67	28720.71
555.83	28807.31
556.00	28683.27
556.16	29184.14
556.33	29006.26
556.50	28641.14
556.66	29127.97
556.83	28954.77
556.99	28828.38
557.16	28893.91
557.32	29268.40
557.49	29076.48
557.65	28804.97
557.82	28786.25
557.98	28926.68
558.15	28753.48
558.32	29305.85
558.48	29167.76
558.65	28961.79
558.81	29156.05
558.98	29064.77
559.14	29322.23
559.31	28931.36
559.47	28835.40
559.64	29443.94
559.80	29336.27
559.97	29268.40
560.13	29046.05
560.30	29151.37
560.46	29291.80
560.63	29324.57
560.79	29465.00
560.96	29692.04
561.12	29291.80
561.29	29158.39
561.45	29411.17
561.61	29359.68
561.78	29589.05
561.94	29614.80
562.11	29490.75
562.27	29146.69
562.44	29163.08
562.60	29298.83
562.77	29310.53
562.93	29465.00
563.10	30000.99
563.26	29362.02
563.42	29640.54
563.59	29614.80
563.75	29427.56
563.92	29853.53
564.08	29766.93
564.24	29483.73
564.41	29132.65
564.57	29575.01
564.74	29432.24
564.90	29659.27
565.07	29825.45
565.23	29820.77
565.39	29731.83
565.56	29813.74
565.72	29476.71
565.88	29811.40
566.05	29373.72
566.21	29645.23
566.38	29984.60
566.54	29572.67
566.70	29914.39
566.87	30125.04
567.03	29937.79
567.19	30171.85
567.36	30052.48
567.52	30150.78
567.68	30024.39
567.85	30031.41
568.01	29905.02
568.17	29902.68
568.34	30012.69
568.50	29895.66
568.66	29830.13
568.83	30281.85
568.99	30057.16
569.15	30087.59
569.32	29930.77
569.48	29493.09
569.64	30129.72
569.81	30174.19
569.97	30050.14
570.13	30052.48
570.30	29935.45
570.46	30139.08
570.62	30340.36
570.78	29830.13
570.95	30050.14
571.11	30382.49
571.27	29991.62
571.43	30167.16
571.60	30232.70
571.76	29972.90
571.92	29851.19
572.09	30059.50
572.25	30539.31
572.41	30436.33
572.57	30237.38
572.74	30284.19
572.90	29956.52
573.06	29944.81
573.22	30141.42
573.38	30490.16
573.55	29986.94
573.71	30441.01
573.87	30075.88
574.03	30429.30
574.20	30436.33
574.36	29912.05
574.52	30422.28
574.68	30345.05
574.84	30586.12
575.01	30036.09
575.17	30354.41
575.33	30408.24
575.49	29933.11
575.65	30532.29
575.82	30433.99
575.98	30195.25
576.14	30485.48
576.30	30178.87
576.46	30120.35
576.62	30094.61
576.79	30012.69
576.95	30338.02
577.11	30118.01
577.27	30433.99
577.43	30221.00
577.59	30412.92
577.75	30675.06
577.92	30539.31
578.08	29876.94
578.24	30312.28
578.40	30478.46
578.56	30302.92
578.72	30497.18
578.88	30904.43
579.04	30288.87
579.21	30438.67
579.37	30300.58
579.53	30670.38
579.69	30464.41
579.85	29799.70
580.01	30281.85
580.17	30024.39
580.33	30202.27
580.49	30094.61
580.65	30555.69
580.82	30735.92
580.98	30185.89
581.14	30754.64
581.30	30281.85
581.46	30586.12
581.62	30565.06
581.78	29991.62
581.94	30518.25
582.10	30338.02
582.26	30258.45
582.42	30328.66
582.58	30583.78
582.74	30675.06
582.90	30478.46
583.06	30171.85
583.22	30387.18
583.38	30831.88
583.54	30452.71
583.70	30293.55
583.86	30595.48
584.02	30352.07
584.18	31124.44
584.34	30967.63
584.50	30803.79
584.66	30244.40
584.82	30274.83
584.98	30745.28
585.14	30632.93
585.30	30019.71
585.46	30171.85
585.62	30153.12
585.78	30686.76
585.94	30562.72
586.10	30548.67
586.26	30085.25
586.42	30529.95
586.58	30679.74
586.74	30408.24
586.90	30373.13
587.06	30363.77
587.22	30897.41
587.38	30143.76
587.54	30946.56
587.70	30897.41
587.86	30546.33
588.02	30810.81
588.18	30979.33
588.34	31063.59
588.49	30464.41
588.65	30412.92
588.81	30993.37
588.97	30759.32
589.13	30593.14
589.29	30824.86
589.45	30838.90
589.61	30536.97
589.77	30749.96
589.93	30972.31
590.08	30747.62
590.24	31009.76
590.40	30913.80
590.56	31037.84
590.72	30852.94
590.88	30881.03
591.04	30408.24
591.20	31077.63
591.35	31253.17
591.51	31597.23
591.67	31180.62
591.83	31026.14
