SpectraSuite Data File
++++++++++++++++++++++++++++++++++++
Date: Fri Oct 18 13:58:39 GMT-05:00 2013
User: bianchi
Dark Spectrum Present: No
Reference Spectrum Present: No
Number of Sampled Component Spectra: 1
Spectrometers: USB2+H05261
Integration Time (usec): 50000 (USB2+H05261)
Spectra Averaged: 1 (USB2+H05261)
Boxcar Smoothing: 0 (USB2+H05261)
Correct for Electrical Dark: No (USB2+H05261)
Strobe/Lamp Enabled: No (USB2+H05261)
Correct for Detector Non-linearity: No (USB2+H05261)
Correct for Stray Light: No (USB2+H05261)
Number of Pixels in Processed Spectrum: 2048
>>>>>Begin Processed Spectral Data<<<<<
365.73	0.00
365.92	0.00
366.12	0.00
366.32	0.00
366.52	0.00
366.72	0.00
366.91	0.00
367.11	0.00
367.31	0.00
367.51	0.00
367.70	0.00
367.90	0.00
368.10	0.00
368.30	0.00
368.49	0.00
368.69	0.00
368.89	0.00
369.09	0.00
369.28	0.00
369.48	0.00
369.68	0.00
369.87	0.00
370.07	0.00
370.27	0.00
370.47	0.00
370.66	9.36
370.86	189.58
371.06	140.43
371.25	102.98
371.45	177.88
371.65	159.16
371.84	161.50
372.04	156.82
372.24	65.54
372.44	152.13
372.63	180.22
372.83	191.92
373.03	170.86
373.22	119.37
373.42	189.58
373.62	241.08
373.81	196.60
374.01	196.60
374.21	339.38
374.40	222.35
374.60	252.78
374.79	220.01
374.99	227.03
375.19	320.65
375.38	196.60
375.58	292.57
375.78	198.95
375.97	248.10
376.17	224.69
376.37	322.99
376.56	205.97
376.76	297.25
376.95	236.39
377.15	215.33
377.35	290.23
377.54	278.52
377.74	297.25
377.93	257.46
378.13	294.91
378.33	322.99
378.52	315.97
378.72	271.50
378.91	276.18
379.11	276.18
379.31	308.95
379.50	273.84
379.70	255.12
379.89	255.12
380.09	332.36
380.28	334.70
380.48	348.74
380.68	334.70
380.87	278.52
381.07	266.82
381.26	411.93
381.46	346.40
381.65	330.02
381.85	306.61
382.04	351.08
382.24	334.70
382.43	339.38
382.63	318.31
382.83	278.52
383.02	397.89
383.22	346.40
383.41	294.91
383.61	365.12
383.80	407.25
384.00	341.72
384.19	360.44
384.39	341.72
384.58	404.91
384.78	418.96
384.97	423.64
385.17	402.57
385.36	414.27
385.56	372.15
385.75	266.82
385.95	376.83
386.14	430.66
386.34	444.70
386.53	437.68
386.72	332.36
386.92	430.66
387.11	458.74
387.31	444.70
387.50	397.89
387.70	444.70
387.89	447.04
388.09	393.21
388.28	409.59
388.48	381.51
388.67	430.66
388.86	416.62
389.06	496.19
389.25	538.32
389.45	390.87
389.64	416.62
389.84	411.93
390.03	447.04
390.22	437.68
390.42	507.90
390.61	418.96
390.81	442.36
391.00	472.79
391.19	550.03
391.39	475.13
391.58	486.83
391.78	538.32
391.97	533.64
392.16	564.07
392.36	468.11
392.55	479.81
392.75	484.49
392.94	538.32
393.13	477.47
393.33	503.22
393.52	510.24
393.71	615.56
393.91	596.84
394.10	587.47
394.29	582.79
394.49	594.50
394.68	561.73
394.88	571.09
395.07	622.58
395.26	636.63
395.46	573.43
395.65	613.22
395.84	667.05
396.04	601.52
396.23	671.73
396.42	653.01
396.62	723.23
396.81	620.24
397.00	622.58
397.19	610.88
397.39	648.33
397.58	667.05
397.77	758.33
397.97	720.88
398.16	678.76
398.35	737.27
398.55	601.52
398.74	716.20
398.93	739.61
399.12	678.76
399.32	631.94
399.51	748.97
399.70	784.08
399.90	777.06
400.09	737.27
400.28	777.06
400.47	720.88
400.67	788.76
400.86	732.59
401.05	826.21
401.24	720.88
401.44	755.99
401.63	755.99
401.82	795.78
402.01	828.55
402.21	833.23
402.40	964.30
402.59	774.72
402.78	898.77
402.97	805.14
403.17	798.12
403.36	912.81
403.55	884.72
403.74	828.55
403.93	929.19
404.13	952.60
404.32	919.83
404.51	870.68
404.70	929.19
404.89	877.70
405.09	924.51
405.28	882.38
405.47	1025.15
405.66	1001.75
405.85	1004.09
406.05	980.68
406.24	964.30
406.43	997.07
406.62	980.68
406.81	1100.05
407.00	945.58
407.20	938.55
407.39	954.94
407.58	1076.65
407.77	964.30
407.96	1022.81
408.15	1025.15
408.34	1135.16
408.54	1153.88
408.73	1107.07
408.92	1104.73
409.11	1139.84
409.30	1062.60
409.49	1109.41
409.68	1142.18
409.87	1121.12
410.07	1167.93
410.26	1153.88
410.45	1137.50
410.64	1142.18
410.83	1259.21
411.02	1151.54
411.21	1193.67
411.40	1212.40
411.59	1252.19
411.78	1277.93
411.98	1224.10
412.17	1273.25
412.36	1196.01
412.55	1362.19
412.74	1401.98
412.93	1310.70
413.12	1378.58
413.31	1357.51
413.50	1324.74
413.69	1385.60
413.88	1420.71
414.07	1423.05
414.26	1455.81
414.45	1523.69
414.64	1418.36
414.83	1411.34
415.02	1497.94
415.22	1483.90
415.41	1474.54
415.60	1472.20
415.79	1591.56
415.98	1544.75
416.17	1607.95
416.36	1654.76
416.55	1575.18
416.74	1598.59
416.93	1647.74
417.12	1617.31
417.31	1647.74
417.50	1671.14
417.69	1657.10
417.88	1673.48
418.07	1643.06
418.26	1640.72
418.45	1715.61
418.64	1839.66
418.83	1825.62
419.02	1860.73
419.21	1741.36
419.39	1863.07
419.58	1886.47
419.77	1739.02
419.96	1832.64
420.15	1860.73
420.34	1844.34
420.53	1776.47
420.72	2005.84
420.91	1949.67
421.10	1956.69
421.29	1961.37
421.48	1891.15
421.67	1959.03
421.86	1982.43
422.05	2045.63
422.24	1907.54
422.43	2029.24
422.61	2097.12
422.80	2031.58
422.99	2022.22
423.18	2052.65
423.37	2001.16
423.56	1937.96
423.75	1989.46
423.94	1893.49
424.13	1940.30
424.32	1884.13
424.50	2015.20
424.69	2015.20
424.88	2038.61
425.07	1977.75
425.26	2038.61
425.45	1966.05
425.64	2008.18
425.83	2008.18
426.01	1942.64
426.20	1963.71
426.39	2059.67
426.58	2069.03
426.77	1961.37
426.96	2108.82
427.15	2087.76
427.33	2076.06
427.52	2139.25
427.71	2155.63
427.90	2076.06
428.09	2139.25
428.28	2172.02
428.46	2059.67
428.65	2162.66
428.84	2167.34
429.03	2218.83
429.22	2193.08
429.40	2200.10
429.59	2296.07
429.78	2202.44
429.97	2165.00
430.16	2218.83
430.34	2230.53
430.53	2277.34
430.72	2354.58
430.91	2321.81
431.10	2235.21
431.28	2401.39
431.47	2335.85
431.66	2298.41
431.85	2349.90
432.03	2340.54
432.22	2342.88
432.41	2436.50
432.60	2438.84
432.79	2356.92
432.97	2452.88
433.16	2459.90
433.35	2422.45
433.54	2506.71
433.72	2441.18
433.91	2352.24
434.10	2487.99
434.28	2431.82
434.47	2459.90
434.66	2562.89
434.85	2504.37
435.03	2546.50
435.22	2560.55
435.41	2665.87
435.59	2572.25
435.78	2572.25
435.97	2593.31
436.16	2658.85
436.34	2651.83
436.53	2640.12
436.72	2642.46
436.90	2600.34
437.09	2675.23
437.28	2689.28
437.46	2644.81
437.65	2703.32
437.84	2715.02
438.02	2717.36
438.21	2745.45
438.40	2764.17
438.58	2857.79
438.77	2935.03
438.96	2846.09
439.14	2965.46
439.33	2899.92
439.52	2850.77
439.70	2998.23
439.89	3002.91
440.08	2860.13
440.26	3073.12
440.45	3021.63
440.63	3028.65
440.82	3110.57
441.01	3089.51
441.19	3126.96
441.38	3185.47
441.57	3148.02
441.75	3169.09
441.94	3218.24
442.12	3321.22
442.31	3260.37
442.50	3243.98
442.68	3040.36
442.87	3393.78
443.05	3283.77
443.24	3330.58
443.43	3506.12
443.61	3435.91
443.80	3454.63
443.98	3269.73
444.17	3239.30
444.35	3330.58
444.54	3293.13
444.73	3604.42
444.91	3473.36
445.10	3508.46
445.28	3398.46
445.47	3344.63
445.65	3393.78
445.84	3501.44
446.02	3468.67
446.21	3342.28
446.39	3513.14
446.58	3435.91
446.77	3368.03
446.95	3382.07
447.14	3358.67
447.32	3506.12
447.51	3391.44
447.69	3428.88
447.88	3602.08
448.06	3517.83
448.25	3557.61
448.43	3550.59
448.62	3424.20
448.80	3571.66
448.99	3590.38
449.17	3698.05
449.36	3527.19
449.54	3674.64
449.73	3705.07
449.91	3679.32
450.10	3637.19
450.28	3688.68
450.46	3728.47
450.65	3702.73
450.83	3702.73
451.02	3667.62
451.20	3889.97
451.39	3756.56
451.57	3761.24
451.76	3634.85
451.94	3885.29
452.13	3861.88
452.31	3782.31
452.49	3695.71
452.68	3812.73
452.86	3868.91
453.05	3796.35
453.23	4016.36
453.42	3873.59
453.60	3904.01
453.78	3845.50
453.97	3978.91
454.15	3833.80
454.34	3999.98
454.52	3913.38
454.70	4049.13
454.89	4007.00
455.07	3911.04
455.26	3969.55
455.44	4091.26
455.62	4023.38
455.81	4079.55
455.99	4072.53
456.17	4191.90
456.36	4184.88
456.54	4163.81
456.73	4128.70
456.91	4407.23
457.09	4053.81
457.28	4568.73
457.46	4290.20
457.64	4173.18
457.83	4287.86
458.01	4194.24
458.19	4358.08
458.38	4397.87
458.56	4351.06
458.74	4510.21
458.93	4285.52
459.11	4461.06
459.29	4374.46
459.48	4493.83
459.66	4531.28
459.84	4461.06
460.03	4585.11
460.21	4367.44
460.39	4454.04
460.57	4479.79
460.76	4437.66
460.94	4540.64
461.12	4638.94
461.31	4552.34
461.49	4517.23
461.67	4610.86
461.85	4716.18
462.04	4650.64
462.22	4760.65
462.40	4786.40
462.59	4734.90
462.77	4716.18
462.95	4692.77
463.13	4880.02
463.32	4828.53
463.50	4732.56
463.68	4814.48
463.86	4865.97
464.05	4849.59
464.23	4816.82
464.41	4816.82
464.59	4812.14
464.78	4802.78
464.96	4896.40
465.14	4936.19
465.32	4772.35
465.50	5029.81
465.69	4924.49
465.87	4830.87
466.05	4915.12
466.23	4954.91
466.41	4966.62
466.60	5109.39
466.78	4992.36
466.96	5046.20
467.14	4992.36
467.32	5060.24
467.51	5177.26
467.69	5057.90
467.87	5074.28
468.05	5184.29
468.23	5022.79
468.41	5165.56
468.60	5071.94
468.78	5240.46
468.96	5107.05
469.14	5341.10
469.32	5298.97
469.50	5088.32
469.69	5291.95
469.87	5245.14
470.05	5355.15
470.23	5174.92
470.41	5315.36
470.59	5394.93
470.77	5355.15
470.95	5336.42
471.14	5537.71
471.32	5378.55
471.50	5636.01
471.68	5518.98
471.86	5561.11
472.04	5722.61
472.22	5713.25
472.40	5638.35
472.58	5764.74
472.77	5650.05
472.95	5743.67
473.13	5984.75
473.31	5760.06
473.49	5755.38
473.67	5743.67
473.85	5970.71
474.03	6015.18
474.21	5877.09
474.39	5975.39
474.57	6015.18
474.75	6005.81
474.93	6083.05
475.12	6071.35
475.30	6312.42
475.48	6129.86
475.66	6312.42
475.84	6221.14
476.02	6099.44
476.20	6382.64
476.38	6291.36
476.56	6572.22
476.74	6537.12
476.92	6370.94
477.10	6462.22
477.28	6656.48
477.46	6569.88
477.64	6801.60
477.82	6988.84
478.00	6944.37
478.18	6829.68
478.36	7066.08
478.54	7126.93
478.72	7023.95
478.90	7040.33
479.08	7190.13
479.26	7073.10
479.44	7288.43
479.62	7169.06
479.80	7365.67
479.98	7293.11
480.16	7403.11
480.34	7784.62
480.52	7456.95
480.70	7515.46
480.88	7510.78
481.06	7627.81
481.24	7705.04
481.41	7744.83
481.59	7908.67
481.77	7901.65
481.95	7960.16
482.13	8039.74
482.31	7974.21
482.49	8241.03
482.67	8226.98
482.85	8292.52
483.03	8521.89
483.21	8430.61
483.39	8748.92
483.57	8161.45
483.74	8535.93
483.92	8578.06
484.10	8568.70
484.28	8966.59
484.46	9104.68
484.64	8926.80
484.82	8992.34
485.00	9071.92
485.18	9125.75
485.35	9315.33
485.53	9394.91
485.71	9383.21
485.89	9563.43
486.07	9390.23
486.25	9565.77
486.43	9598.54
486.61	9661.73
486.78	9769.40
486.96	10003.45
487.14	10169.63
487.32	10183.67
487.50	10125.16
487.68	10354.53
487.85	10363.89
488.03	10221.12
488.21	10377.94
488.39	10616.67
488.57	10513.69
488.75	10626.03
488.92	10803.91
489.10	10773.49
489.28	10850.72
489.46	11040.31
489.64	11129.25
489.81	11398.41
489.99	11180.74
490.17	11274.36
490.35	11482.67
490.53	11363.30
490.70	11595.01
490.88	11382.03
491.06	11726.08
491.24	11492.03
491.41	11772.89
491.59	11822.05
491.77	11918.01
491.95	11927.37
492.13	12140.36
492.30	12367.39
492.48	12414.20
492.66	12463.35
492.84	12519.53
493.01	12425.90
493.19	12435.27
493.37	12713.79
493.54	12620.17
493.72	12908.05
493.90	12655.28
494.08	12802.73
494.25	13069.55
494.43	13242.75
494.61	12905.71
494.79	13280.20
494.96	13226.37
495.14	13350.42
495.32	13642.98
495.49	13385.52
495.67	13790.44
495.85	13724.90
496.02	14038.53
496.20	13809.16
496.38	13846.61
496.55	13956.61
496.73	14197.69
496.91	14061.94
497.09	14436.42
497.26	14420.04
497.44	14221.10
497.62	14429.40
497.79	14483.24
497.97	14125.13
498.14	14410.68
498.32	14640.05
498.50	14920.92
498.67	14902.19
498.85	14930.28
499.03	14764.10
499.20	14757.08
499.38	15105.82
499.56	15070.71
499.73	15269.66
499.91	15314.13
500.08	15396.04
500.26	15461.58
500.44	15363.28
500.61	15494.35
500.79	15290.72
500.97	15555.20
501.14	15756.49
501.32	15609.03
501.49	15735.42
501.67	15527.11
501.84	15864.15
502.02	15784.57
502.20	16100.55
502.37	16212.89
502.55	16140.33
502.72	16226.93
502.90	16205.87
503.07	15866.49
503.25	15997.56
503.43	16514.82
503.60	16140.33
503.78	16486.73
503.95	16222.25
504.13	16468.01
504.30	16470.35
504.48	16453.97
504.65	16540.57
504.83	16776.96
505.01	17025.06
505.18	16816.75
505.36	17001.65
505.53	16533.54
505.71	17142.08
505.88	16858.88
506.06	16776.96
506.23	17216.98
506.41	17219.32
506.58	17366.78
506.76	17481.46
506.93	17247.41
507.11	17324.65
507.28	17561.04
507.46	17455.72
507.63	17600.83
507.81	17547.00
507.98	17797.43
508.16	17743.60
508.33	17640.62
508.50	17703.81
508.68	17937.87
508.85	17893.40
509.03	18167.24
509.20	18200.01
509.38	18040.85
509.55	18354.48
509.73	18171.92
509.90	18288.95
510.08	18394.27
510.25	18347.46
510.42	18518.32
510.60	18558.11
510.77	18611.94
510.95	18647.05
511.12	18504.28
511.30	18633.00
511.47	18719.60
511.64	18764.07
511.82	19037.92
511.99	18647.05
512.17	18965.36
512.34	19014.51
512.51	18960.68
512.69	19033.24
512.86	19063.66
513.04	19365.59
513.21	19246.23
513.38	19468.58
513.56	19318.78
513.73	19295.38
513.90	19548.15
514.08	19311.76
514.25	19428.79
514.43	19679.22
514.60	19648.80
514.77	19300.06
514.95	19896.89
515.12	19609.01
515.29	19477.94
515.47	19576.24
515.64	19756.46
515.81	19946.05
515.99	20201.16
516.16	20154.35
516.33	20128.61
516.51	20252.66
516.68	20163.72
516.85	20168.40
517.03	20601.40
517.20	20336.91
517.37	20512.46
517.54	20643.52
517.72	20507.77
517.89	20458.62
518.06	20695.02
518.24	20453.94
518.41	20741.83
518.58	20636.50
518.75	20830.77
518.93	20692.68
519.10	20746.51
519.27	20882.26
519.45	20870.56
519.62	20931.41
519.79	20936.09
519.96	20973.54
520.14	20844.81
520.31	21387.82
520.48	21172.49
520.65	21373.77
520.83	21387.82
521.00	20994.61
521.17	21125.68
521.34	21125.68
521.52	21556.33
521.69	21261.43
521.86	21680.38
522.03	21359.73
522.20	21333.98
522.38	21682.72
522.55	21694.43
522.72	21539.95
522.89	21439.31
523.07	22059.55
523.24	21509.52
523.41	21909.75
523.58	21731.87
523.75	21991.67
523.92	21984.65
524.10	21926.14
524.27	22162.53
524.44	22211.68
524.61	22443.40
524.78	22518.29
524.96	22092.32
525.13	22670.43
525.30	22499.57
525.47	22644.68
525.64	22361.48
525.81	22499.57
525.98	22909.16
526.16	22464.46
526.33	22436.38
526.50	22541.70
526.67	22555.74
526.84	22651.70
527.01	22785.12
527.18	23035.55
527.36	23007.47
527.53	23180.67
527.70	23002.78
527.87	23012.15
528.04	22689.15
528.21	22860.01
528.38	22991.08
528.55	23075.34
528.72	23091.73
528.89	23220.45
529.07	23101.09
529.24	23297.69
529.41	23515.36
529.58	23599.62
529.75	23300.03
529.92	23302.37
530.09	23257.90
530.26	23522.38
530.43	23438.12
530.60	23508.34
530.77	23812.61
530.94	23864.10
531.11	23417.06
531.28	23749.42
531.46	23711.97
531.63	23824.31
531.80	23779.84
531.97	23798.57
532.14	24009.22
532.31	23491.96
532.48	24044.32
532.65	23857.08
532.82	23833.68
532.99	24128.58
533.16	24041.98
533.33	24224.54
533.50	24528.81
533.67	23990.49
533.84	24194.12
534.01	24465.62
534.18	24116.88
534.35	24130.92
534.52	24566.26
534.69	24339.23
534.86	24737.12
535.03	24308.80
535.20	24446.90
535.37	24650.52
535.54	24891.60
535.71	24805.00
535.88	24657.54
536.05	24510.09
536.22	24905.64
536.38	25179.48
536.55	24620.10
536.72	24800.32
536.89	24697.33
537.06	24638.82
537.23	25050.75
537.40	24709.04
537.57	25034.37
537.74	25165.44
537.91	25191.19
538.08	25331.62
538.25	25230.98
538.42	24856.49
538.59	25123.31
538.75	24730.10
538.92	25254.38
539.09	25252.04
539.26	25291.83
539.43	25200.55
539.60	25184.16
539.77	25280.13
539.94	25310.55
540.11	25551.63
540.28	25303.53
540.44	25298.85
540.61	25371.41
540.78	25455.67
540.95	25481.41
541.12	25228.63
541.29	25577.37
541.46	25743.55
541.62	25565.67
541.79	25940.16
541.96	25062.46
542.13	25668.66
542.30	25914.41
542.47	25844.20
542.63	25764.62
542.80	25958.88
542.97	26246.77
543.14	26232.72
543.31	26246.77
543.48	26384.86
543.64	26141.44
543.81	26368.48
543.98	26366.13
544.15	26267.83
544.32	26305.28
544.48	26497.20
544.65	26331.03
544.82	26366.13
544.99	26216.34
545.16	26176.55
545.32	26562.74
545.49	26487.84
545.66	26576.78
545.83	26927.86
546.00	27000.42
546.16	26639.98
546.33	26242.09
546.50	26188.25
546.67	26801.47
546.83	26429.33
547.00	26972.33
547.17	26731.26
547.34	26855.31
547.50	26899.78
547.67	27260.22
547.84	26852.97
548.00	26855.31
548.17	27030.85
548.34	26829.56
548.51	26981.70
548.67	27122.13
548.84	26991.06
549.01	26759.34
549.18	27381.93
549.34	26738.28
549.51	26829.56
549.68	27007.44
549.84	27016.80
550.01	27377.25
550.18	26895.10
550.34	27208.73
550.51	27105.74
550.68	27697.90
550.84	27124.47
551.01	27112.77
551.18	27248.52
551.34	27220.43
551.51	27587.89
551.68	27608.96
551.84	27576.19
552.01	27096.38
552.18	27536.40
552.34	27374.91
552.51	27814.93
552.68	27515.34
552.84	27637.05
553.01	27723.65
553.18	27763.43
553.34	27866.42
553.51	27655.77
553.67	27665.13
553.84	28170.69
554.01	28041.96
554.17	28013.87
554.34	27693.22
554.51	27683.86
554.67	28151.96
554.84	28142.60
555.00	27871.10
555.17	27997.49
555.33	27840.67
555.50	27817.27
555.67	28039.62
555.83	27784.50
556.00	28081.75
556.16	28271.33
556.33	27751.73
556.50	28095.79
556.66	28308.78
556.83	28196.43
556.99	28395.38
557.16	28191.75
557.32	28313.46
557.49	28219.84
557.65	28411.76
557.82	28149.62
557.98	28306.44
558.15	28371.97
558.32	28493.68
558.48	28334.53
558.65	28594.32
558.81	28577.94
558.98	28568.58
559.14	28493.68
559.31	28222.18
559.47	28278.35
559.64	28208.14
559.80	28533.47
559.97	28706.67
560.13	28446.87
560.30	28563.90
560.46	28442.19
560.63	28278.35
560.79	28446.87
560.96	28615.39
561.12	28491.34
561.29	28643.48
561.45	28236.22
561.61	28912.64
561.78	28833.06
561.94	28320.48
562.11	29205.20
562.27	28617.73
562.44	28547.51
562.60	28414.10
562.77	28610.71
562.93	28851.78
563.10	29223.93
563.26	28500.70
563.42	28617.73
563.59	28613.05
563.75	28620.07
563.92	28725.39
564.08	28608.37
564.24	28739.44
564.41	28449.21
564.57	28725.39
564.74	29024.98
564.90	29362.02
565.07	29076.48
565.23	29076.48
565.39	28697.31
565.56	29057.75
565.72	28559.22
565.88	28961.79
566.05	28575.60
566.21	28809.65
566.38	29266.06
566.54	29282.44
566.70	29268.40
566.87	28730.08
567.03	29120.95
567.19	29294.14
567.36	29223.93
567.52	28919.66
567.68	28945.41
567.85	28957.11
568.01	29383.09
568.17	29053.07
568.34	29223.93
568.50	29289.46
568.66	29333.93
568.83	29083.50
568.99	29385.43
569.15	29504.79
569.32	28912.64
569.48	29078.82
569.64	29266.06
569.81	29230.95
569.97	29186.48
570.13	29188.82
570.30	29266.06
570.46	29287.12
570.62	29261.38
570.78	28826.04
570.95	29113.92
571.11	29266.06
571.27	28910.30
571.43	29010.94
571.60	29270.74
571.76	29408.83
571.92	29701.40
572.09	29322.23
572.25	29385.43
572.41	29165.42
572.57	29326.91
572.74	29146.69
572.90	29235.63
573.06	29401.81
573.22	29586.71
573.38	29427.56
573.55	29415.85
573.71	29923.75
573.87	29575.01
574.03	29228.61
574.20	29355.00
574.36	29331.59
574.52	29642.88
574.68	29305.85
574.84	29633.52
575.01	29343.30
575.17	29572.67
575.33	29413.51
575.49	29378.40
575.65	29862.90
575.82	29539.90
575.98	29422.87
576.14	29621.82
576.30	29303.51
576.46	29322.23
576.62	29064.77
576.79	29261.38
576.95	29429.90
577.11	29628.84
577.27	29600.76
577.43	29584.37
577.59	29369.04
577.75	29439.26
577.92	29490.75
578.08	29149.03
578.24	29205.20
578.40	29254.36
578.56	29078.82
578.72	29439.26
578.88	29579.69
579.04	29720.12
579.21	29710.76
579.37	29858.21
579.53	29350.32
579.69	29401.81
579.85	29418.19
580.01	29708.42
580.17	29654.59
580.33	29598.41
580.49	29514.16
580.65	29729.48
580.82	29827.79
580.98	29553.94
581.14	29404.15
581.30	29457.98
581.46	29516.50
581.62	29642.88
581.78	28905.62
581.94	29607.78
582.10	29509.47
582.26	29970.56
582.42	29614.80
582.58	29572.67
582.74	29825.45
582.90	29553.94
583.06	29727.14
583.22	29689.70
583.38	29682.67
583.54	29516.50
583.70	29614.80
583.86	29963.54
584.02	29516.50
584.18	29776.30
584.34	29858.21
584.50	29645.23
584.66	29455.64
584.82	29488.41
584.98	30143.76
585.14	29343.30
585.30	29773.95
585.46	29572.67
585.62	29656.93
585.78	29813.74
585.94	29883.96
586.10	29848.85
586.26	29872.26
586.42	29537.56
586.58	29888.64
586.74	29280.10
586.90	29685.01
587.06	29923.75
587.22	29724.80
587.38	29937.79
587.54	29848.85
587.70	29790.34
587.86	29755.23
588.02	29905.02
588.18	30115.67
588.34	29565.65
588.49	29677.99
588.65	30003.33
588.81	29649.91
588.97	29977.58
589.13	30087.59
589.29	29675.65
589.45	29666.29
589.61	29853.53
589.77	30096.95
589.93	29996.31
590.08	30059.50
590.24	30082.91
590.40	30052.48
590.56	29989.28
590.72	30024.39
590.88	29979.92
591.04	29773.95
591.20	30078.22
591.35	30071.20
591.51	30068.86
591.67	30366.11
591.83	30333.34
591.99	30155.46
