SpectraSuite Data File
++++++++++++++++++++++++++++++++++++
Date: Fri Oct 18 13:58:05 GMT-05:00 2013
User: bianchi
Dark Spectrum Present: No
Reference Spectrum Present: No
Number of Sampled Component Spectra: 1
Spectrometers: USB2+H05261
Integration Time (usec): 50000 (USB2+H05261)
Spectra Averaged: 1 (USB2+H05261)
Boxcar Smoothing: 0 (USB2+H05261)
Correct for Electrical Dark: No (USB2+H05261)
Strobe/Lamp Enabled: No (USB2+H05261)
Correct for Detector Non-linearity: No (USB2+H05261)
Correct for Stray Light: No (USB2+H05261)
Number of Pixels in Processed Spectrum: 2048
>>>>>Begin Processed Spectral Data<<<<<
365.73	0.00
365.92	0.00
366.12	0.00
366.32	0.00
366.52	0.00
366.72	0.00
366.91	0.00
367.11	0.00
367.31	0.00
367.51	0.00
367.70	0.00
367.90	0.00
368.10	0.00
368.30	0.00
368.49	0.00
368.69	0.00
368.89	0.00
369.09	0.00
369.28	0.00
369.48	0.00
369.68	0.00
369.87	0.00
370.07	0.00
370.27	0.00
370.47	0.00
370.66	63.19
370.86	88.94
371.06	173.20
371.25	74.90
371.45	138.09
371.65	170.86
371.84	117.03
372.04	236.39
372.24	208.31
372.44	231.71
372.63	121.71
372.83	168.52
373.03	285.55
373.22	231.71
373.42	217.67
373.62	170.86
373.81	234.05
374.01	360.44
374.21	215.33
374.40	234.05
374.60	224.69
374.79	264.48
374.99	248.10
375.19	222.35
375.38	264.48
375.58	287.89
375.78	269.16
375.97	191.92
376.17	245.76
376.37	315.97
376.56	301.93
376.76	241.08
376.95	243.42
377.15	280.86
377.35	241.08
377.54	299.59
377.74	280.86
377.93	297.25
378.13	276.18
378.33	322.99
378.52	304.27
378.72	325.33
378.91	290.23
379.11	271.50
379.31	327.68
379.50	322.99
379.70	320.65
379.89	290.23
380.09	257.46
380.28	294.91
380.48	224.69
380.68	315.97
380.87	362.78
381.07	433.00
381.26	269.16
381.46	308.95
381.65	362.78
381.85	348.74
382.04	325.33
382.24	285.55
382.43	425.98
382.63	332.36
382.83	355.76
383.02	367.46
383.22	430.66
383.41	362.78
383.61	369.80
383.80	400.23
384.00	383.85
384.19	351.08
384.39	400.23
384.58	376.83
384.78	414.27
384.97	381.51
385.17	407.25
385.36	386.19
385.56	355.76
385.75	444.70
385.95	451.72
386.14	451.72
386.34	418.96
386.53	388.53
386.72	411.93
386.92	512.58
387.11	447.04
387.31	528.96
387.50	444.70
387.70	430.66
387.89	461.09
388.09	472.79
388.28	503.22
388.48	430.66
388.67	407.25
388.86	465.77
389.06	423.64
389.25	400.23
389.45	503.22
389.64	503.22
389.84	449.38
390.03	486.83
390.22	477.47
390.42	493.85
390.61	477.47
390.81	517.26
391.00	444.70
391.19	552.37
391.39	575.77
391.58	500.87
391.78	571.09
391.97	561.73
392.16	564.07
392.36	580.45
392.55	657.69
392.75	547.69
392.94	526.62
393.13	580.45
393.33	627.26
393.52	533.64
393.71	613.22
393.91	624.92
394.10	578.11
394.29	580.45
394.49	585.13
394.68	580.45
394.88	601.52
395.07	718.54
395.26	650.67
395.46	575.77
395.65	660.03
395.84	674.07
396.04	702.16
396.23	638.97
396.42	669.39
396.62	662.37
396.81	706.84
397.00	688.12
397.19	685.78
397.39	629.60
397.58	702.16
397.77	683.44
397.97	655.35
398.16	744.29
398.35	730.25
398.55	697.48
398.74	755.99
398.93	746.63
399.12	674.07
399.32	685.78
399.51	697.48
399.70	781.74
399.90	725.57
400.09	798.12
400.28	753.65
400.47	812.17
400.67	858.98
400.86	816.85
401.05	760.67
401.24	851.96
401.44	880.04
401.63	758.33
401.82	760.67
402.01	791.10
402.21	880.04
402.40	844.93
402.59	866.00
402.78	954.94
402.97	851.96
403.17	894.08
403.36	880.04
403.55	908.13
403.74	903.45
403.93	997.07
404.13	961.96
404.32	947.92
404.51	924.51
404.70	964.30
404.89	947.92
405.09	971.32
405.28	980.68
405.47	980.68
405.66	952.60
405.85	978.34
406.05	990.05
406.24	959.62
406.43	961.96
406.62	1074.31
406.81	1057.92
407.00	983.02
407.20	1074.31
407.39	1001.75
407.58	1064.94
407.77	1039.20
407.96	1200.69
408.15	1144.52
408.34	1078.99
408.54	1125.80
408.73	1160.91
408.92	1069.62
409.11	1069.62
409.30	1060.26
409.49	1135.16
409.68	1186.65
409.87	1104.73
410.07	1181.97
410.26	1165.59
410.45	1233.46
410.64	1165.59
410.83	1263.89
411.02	1196.01
411.21	1280.27
411.40	1240.48
411.59	1317.72
411.78	1280.27
411.98	1252.19
412.17	1289.64
412.36	1462.83
412.55	1458.15
412.74	1430.07
412.93	1294.32
413.12	1348.15
413.31	1446.45
413.50	1416.02
413.69	1486.24
413.88	1490.92
414.07	1488.58
414.26	1519.01
414.45	1385.60
414.64	1544.75
414.83	1500.28
415.02	1554.12
415.22	1577.52
415.41	1657.10
415.60	1603.27
415.79	1633.69
415.98	1600.93
416.17	1727.32
416.36	1605.61
416.55	1734.34
416.74	1638.38
416.93	1682.85
417.12	1699.23
417.31	1757.74
417.50	1823.28
417.69	1741.36
417.88	1713.27
418.07	1706.25
418.26	1687.53
418.45	1792.85
418.64	1844.34
418.83	1755.40
419.02	1783.49
419.21	1842.00
419.39	1839.66
419.58	1860.73
419.77	1830.30
419.96	1921.58
420.15	1961.37
420.34	1799.87
420.53	1867.75
420.72	1919.24
420.91	1888.81
421.10	1996.48
421.29	2076.06
421.48	2003.50
421.67	2120.53
421.86	1987.11
422.05	1968.39
422.24	1902.86
422.43	2012.86
422.61	1912.22
422.80	2115.84
422.99	2017.54
423.18	2104.14
423.37	2054.99
423.56	2012.86
423.75	2001.16
423.94	2022.22
424.13	2026.90
424.32	1980.09
424.50	2108.82
424.69	2083.08
424.88	2160.31
425.07	2024.56
425.26	2033.93
425.45	2015.20
425.64	2005.84
425.83	2040.95
426.01	2111.16
426.20	2118.18
426.39	2090.10
426.58	2179.04
426.77	2160.31
426.96	2043.29
427.15	2090.10
427.33	2104.14
427.52	2113.50
427.71	2216.49
427.90	2258.62
428.09	2207.13
428.28	2385.01
428.46	2275.00
428.65	2296.07
428.84	2232.87
429.03	2267.98
429.22	2312.45
429.40	2347.56
429.59	2389.69
429.78	2172.02
429.97	2209.47
430.16	2204.78
430.34	2260.96
430.53	2436.50
430.72	2354.58
430.91	2326.49
431.10	2279.68
431.28	2352.24
431.47	2359.26
431.66	2459.90
431.85	2413.09
432.03	2452.88
432.22	2576.93
432.41	2567.57
432.60	2593.31
432.79	2469.27
432.97	2502.03
433.16	2560.55
433.35	2487.99
433.54	2590.97
433.72	2654.17
433.91	2658.85
434.10	2553.52
434.28	2579.27
434.47	2562.89
434.66	2619.06
434.85	2717.36
435.03	2766.51
435.22	2677.57
435.41	2658.85
435.59	2574.59
435.78	2640.12
435.97	2736.09
436.16	2771.19
436.34	2590.97
436.53	2588.63
436.72	2827.37
436.90	2710.34
437.09	2787.58
437.28	2771.19
437.46	2738.43
437.65	2843.75
437.84	2815.66
438.02	2801.62
438.21	2855.45
438.40	2829.71
438.58	3052.06
438.77	2834.39
438.96	3007.59
439.14	3075.46
439.33	3000.57
439.52	2909.29
439.70	3059.08
439.89	3026.31
440.08	3133.98
440.26	3115.25
440.45	3141.00
440.63	3166.74
440.82	3258.03
441.01	3286.11
441.19	3286.11
441.38	3281.43
441.57	3398.46
441.75	3407.82
441.94	3534.21
442.12	3328.24
442.31	3356.33
442.50	3485.06
442.68	3211.22
442.87	3375.05
443.05	3365.69
443.24	3421.86
443.43	3536.55
443.61	3424.20
443.80	3520.17
443.98	3522.51
444.17	3398.46
444.35	3527.19
444.54	3541.23
444.73	3543.57
444.91	3473.36
445.10	3571.66
445.28	3581.02
445.47	3506.12
445.65	3691.02
445.84	3623.15
446.02	3576.34
446.21	3620.81
446.39	3557.61
446.58	3648.90
446.77	3684.00
446.95	3527.19
447.14	3548.25
447.32	3733.15
447.51	3618.47
447.69	3510.80
447.88	3716.77
448.06	3616.13
448.25	3625.49
448.43	3756.56
448.62	3538.89
448.80	3569.32
448.99	3749.54
449.17	3644.21
449.36	3667.62
449.54	3719.11
449.73	3904.01
449.91	3744.86
450.10	3782.31
450.28	3698.05
450.46	3740.18
450.65	3709.75
450.83	3859.54
451.02	3873.59
451.20	3878.27
451.39	3925.08
451.57	3700.39
451.76	3873.59
451.94	3985.93
452.13	3974.23
452.31	3997.64
452.49	3878.27
452.68	3920.40
452.86	3939.12
453.05	4007.00
453.23	4032.74
453.42	3946.14
453.60	3978.91
453.78	3990.61
453.97	4002.32
454.15	3995.29
454.34	3990.61
454.52	4065.51
454.70	3983.59
454.89	4224.67
455.07	4053.81
455.26	4084.23
455.44	4255.09
455.62	4222.33
455.81	4117.00
455.99	4252.75
456.17	4294.88
456.36	4348.72
456.54	4203.60
456.73	4318.29
456.91	4348.72
457.09	4344.03
457.28	4418.93
457.46	4360.42
457.64	4533.62
457.83	4557.02
458.01	4407.23
458.19	4404.89
458.38	4472.76
458.56	4573.41
458.74	4531.28
458.93	4592.13
459.11	4538.30
459.29	4542.98
459.48	4512.55
459.66	4622.56
459.84	4606.17
460.03	4652.98
460.21	4550.00
460.39	4713.84
460.57	4688.09
460.76	4645.96
460.94	4784.06
461.12	4681.07
461.31	4905.76
461.49	4664.69
461.67	4685.75
461.85	4781.71
462.04	4933.85
462.22	5114.07
462.40	4968.96
462.59	4875.34
462.77	4936.19
462.95	4786.40
463.13	4985.34
463.32	4887.04
463.50	5048.54
463.68	5006.41
463.86	4985.34
464.05	4777.03
464.23	4865.97
464.41	4966.62
464.59	4812.14
464.78	5069.60
464.96	5170.24
465.14	5050.88
465.32	5053.22
465.50	5076.62
465.69	5252.16
465.87	5177.26
466.05	5008.75
466.23	5083.64
466.41	5212.37
466.60	5348.12
466.78	5104.71
466.96	5111.73
467.14	5069.60
467.32	5167.90
467.51	5179.61
467.69	5188.97
467.87	5188.97
468.05	5371.53
468.23	5301.31
468.41	5430.04
468.60	5418.34
468.78	5373.87
468.96	5331.74
469.14	5378.55
469.32	5416.00
469.50	5401.96
469.69	5666.44
469.87	5547.07
470.05	5664.10
470.23	5558.77
470.41	5547.07
470.59	5628.99
470.77	5509.62
470.95	5633.67
471.14	5657.07
471.32	5586.86
471.50	5816.23
471.68	5788.14
471.86	5746.02
472.04	5687.50
472.22	5884.11
472.40	5762.40
472.58	5734.31
472.77	5935.60
472.95	5926.24
473.13	6043.26
473.31	6033.90
473.49	6054.97
473.67	5973.05
473.85	6150.93
474.03	6108.80
474.21	6258.59
474.39	6230.51
474.57	6244.55
474.75	6225.82
474.93	6296.04
475.12	6413.07
475.30	6300.72
475.48	6476.26
475.66	6307.74
475.84	6422.43
476.02	6583.93
476.20	6532.44
476.38	6628.40
476.56	6743.08
476.74	6899.90
476.92	6675.21
477.10	6715.00
477.28	6843.73
477.46	6843.73
477.64	6855.43
477.82	7009.90
478.00	7098.84
478.18	7206.51
478.36	7253.32
478.54	7372.69
478.72	7082.46
478.90	7234.60
479.08	7475.67
479.26	7463.97
479.44	7669.94
479.62	7524.82
479.80	7672.28
479.98	7714.41
480.16	7669.94
480.34	7712.07
480.52	7843.14
480.70	8013.99
480.88	7939.10
481.06	7859.52
481.24	7833.77
481.41	8070.17
481.59	8205.92
481.77	8241.03
481.95	8308.90
482.13	8308.90
482.31	8353.37
482.49	8521.89
482.67	8390.82
482.85	8592.11
483.03	8650.62
483.21	8755.94
483.39	8856.59
483.57	8807.44
483.74	8758.28
483.92	9116.39
484.10	9004.04
484.28	9151.49
484.46	9076.60
484.64	9493.21
484.82	9186.60
485.00	9327.03
485.18	9596.20
485.35	9860.68
485.53	9530.66
485.71	9621.94
485.89	10118.14
486.07	9891.10
486.25	9949.62
486.43	9792.80
486.61	9935.57
486.78	9982.38
486.96	10223.46
487.14	10277.29
487.32	10300.70
487.50	10478.58
487.68	10635.39
487.85	10499.64
488.03	10836.68
488.21	11056.69
488.39	10855.40
488.57	11052.01
488.75	11044.99
488.92	11272.02
489.10	11243.93
489.28	11147.97
489.46	11213.51
489.64	11295.43
489.81	11751.83
489.99	11545.86
490.17	11534.16
490.35	11920.35
490.53	11873.54
490.70	11960.14
490.88	11999.93
491.06	12035.03
491.24	12243.34
491.41	12248.02
491.59	12248.02
491.77	12203.55
491.95	12505.48
492.13	12617.83
492.30	12573.36
492.48	12786.35
492.66	12538.25
492.84	12683.36
493.01	12793.37
493.19	13015.72
493.37	13018.06
493.54	13034.44
493.72	13308.29
493.90	13092.96
494.08	13317.65
494.25	13469.78
494.43	13446.38
494.61	13528.30
494.79	13783.41
494.96	13610.22
495.14	13598.51
495.32	13870.01
495.49	14265.57
495.67	13980.02
495.85	14314.72
496.02	14209.39
496.20	14279.61
496.38	14464.51
496.55	14281.95
496.73	14628.35
496.91	14583.88
497.09	14555.79
497.26	14787.50
497.44	14864.74
497.62	14670.48
497.79	14967.73
497.97	14754.74
498.14	15112.84
498.32	15295.40
498.50	15117.52
498.67	15681.59
498.85	15311.78
499.03	15564.56
499.20	15445.20
499.38	15625.42
499.56	15859.47
499.73	15623.08
499.91	15885.22
500.08	15899.26
500.26	15683.93
500.44	15845.43
500.61	15885.22
500.79	15999.90
500.97	16334.60
501.14	16463.33
501.32	16332.26
501.49	16161.40
501.67	16336.94
501.84	16264.38
502.02	16428.22
502.20	16585.04
502.37	16348.64
502.55	16699.72
502.72	16510.14
502.90	16755.90
503.07	16578.01
503.25	16809.73
503.43	16659.93
503.60	17209.96
503.78	17123.36
503.95	16926.75
504.13	17013.35
504.30	17348.05
504.48	17247.41
504.65	17383.16
504.83	17532.95
505.01	17743.60
505.18	17392.52
505.36	17539.97
505.53	17671.04
505.71	17724.88
505.88	17994.04
506.06	17577.42
506.23	17834.88
506.41	17905.10
506.58	17921.48
506.76	18108.72
506.93	18190.64
507.11	18403.63
507.28	18019.78
507.46	18162.56
507.63	18118.09
507.81	18443.42
507.98	18155.54
508.16	18363.84
508.33	18553.43
508.50	18452.78
508.68	18625.98
508.85	18572.15
509.03	18651.73
509.20	18714.92
509.38	18902.17
509.55	18986.43
509.73	18775.78
509.90	18806.20
510.08	19028.56
510.25	18979.40
510.42	18827.27
510.60	19267.29
510.77	19117.50
510.95	19260.27
511.12	19002.81
511.30	19218.14
511.47	19424.11
511.64	19363.25
511.82	19646.46
511.99	19384.32
512.17	19639.44
512.34	19536.45
512.51	20046.69
512.69	19552.84
512.86	19948.39
513.04	20262.02
513.21	19887.53
513.38	20037.33
513.56	19981.15
513.73	20152.01
513.90	20102.86
514.08	20505.43
514.25	20210.53
514.43	20421.17
514.60	20367.34
514.77	20514.80
514.95	20376.70
515.12	20451.60
515.29	20723.10
515.47	20636.50
515.64	20819.07
515.81	20688.00
515.99	20641.18
516.16	20985.24
516.33	20950.14
516.51	20973.54
516.68	20549.90
516.85	21008.65
517.03	20823.75
517.20	21446.33
517.37	21233.34
517.54	21266.11
517.72	21074.18
517.89	21518.89
518.06	21474.42
518.24	21451.01
518.41	21394.84
518.58	21591.44
518.75	21659.32
518.93	21729.53
519.10	21738.90
519.27	21680.38
519.45	21572.72
519.62	21881.67
519.79	21900.39
519.96	21628.89
520.14	21664.00
520.31	21640.59
520.48	21907.41
520.65	22548.72
520.83	22272.54
521.00	22010.40
521.17	22171.89
521.34	21930.82
521.52	22459.78
521.69	22457.44
521.86	22434.03
522.03	22621.28
522.20	22724.26
522.38	22656.39
522.55	22501.91
522.72	22541.70
522.89	22724.26
523.07	22721.92
523.24	22796.82
523.41	22918.53
523.58	22546.38
523.75	22836.61
523.92	22836.61
524.10	22782.77
524.27	23154.92
524.44	22986.40
524.61	23255.56
524.78	23220.45
524.96	23358.55
525.13	23232.16
525.30	23353.87
525.47	23545.79
525.64	23616.01
525.81	23295.35
525.98	23501.32
526.16	23578.56
526.33	23791.55
526.50	23601.96
526.67	23225.14
526.84	23400.68
527.01	23388.97
527.18	23552.81
527.36	23882.83
527.53	23775.16
527.70	24177.73
527.87	23969.43
528.04	23843.04
528.21	24013.90
528.38	24154.33
528.55	24168.37
528.72	23882.83
528.89	23990.49
529.07	24240.93
529.24	24294.76
529.41	24339.23
529.58	24191.78
529.75	23953.04
529.92	24034.96
530.09	24074.75
530.26	24226.89
530.43	24439.87
530.60	24601.37
530.77	24297.10
530.94	24769.89
531.11	24474.98
531.28	24573.28
531.46	24517.11
531.63	24716.06
531.80	25001.60
531.97	24907.98
532.14	25046.07
532.31	24816.70
532.48	24402.43
532.65	25137.35
532.82	24657.54
532.99	24922.02
533.16	25125.65
533.33	25193.53
533.50	25085.86
533.67	25333.96
533.84	24835.42
534.01	24678.61
534.18	24973.52
534.35	25385.45
534.52	24922.02
534.69	25455.67
534.86	25827.81
535.03	25757.60
535.20	25317.57
535.37	25720.15
535.54	25893.35
535.71	25626.53
535.88	25696.74
536.05	25301.19
536.22	25816.11
536.38	25799.73
536.55	25802.07
536.72	26092.29
536.89	25830.15
537.06	25689.72
537.23	25846.54
537.40	26043.14
537.57	26096.97
537.74	25762.28
537.91	26125.06
538.08	26235.06
538.25	25668.66
538.42	25970.58
538.59	26281.88
538.75	26005.69
538.92	26169.53
539.09	26471.46
539.26	26576.78
539.43	26125.06
539.60	26572.10
539.77	26469.12
539.94	26314.64
540.11	26511.25
540.28	26534.65
540.44	26492.52
540.61	26401.24
540.78	26228.04
540.95	26719.56
541.12	26719.56
541.29	26551.04
541.46	26754.66
541.62	26705.51
541.79	26731.26
541.96	26492.52
542.13	26438.69
542.30	26934.88
542.47	26820.20
542.63	26759.34
542.80	27164.26
542.97	27080.00
543.14	27480.23
543.31	27269.58
543.48	27150.21
543.64	27248.52
543.81	27452.14
543.98	27414.69
544.15	27309.37
544.32	27580.87
544.48	27754.07
544.65	27400.65
544.82	27353.84
544.99	27297.67
545.16	27414.69
545.32	27594.92
545.49	27414.69
545.66	27791.52
545.83	27936.63
546.00	27831.31
546.16	27665.13
546.33	27798.54
546.50	27199.37
546.67	27667.47
546.83	27402.99
547.00	27999.83
547.17	27569.17
547.34	27566.83
547.50	27819.61
547.67	28079.41
547.84	28051.32
548.00	27861.74
548.17	28390.70
548.34	28189.41
548.51	28276.01
548.67	28077.07
548.84	28608.37
549.01	28011.53
549.18	28350.91
549.34	27852.38
549.51	28283.03
549.68	27857.06
549.84	28404.74
550.01	28376.66
550.18	28327.50
550.34	28240.90
550.51	28437.51
550.68	28704.33
550.84	27866.42
551.01	28465.60
551.18	28287.71
551.34	28346.23
551.51	28706.67
551.68	28739.44
551.84	28503.04
552.01	28339.21
552.18	28788.59
552.34	28591.98
552.51	28788.59
552.68	28865.83
552.84	28631.77
553.01	28643.48
553.18	28596.67
553.34	28608.37
553.51	28947.75
553.67	29127.97
553.84	29233.29
554.01	29142.01
554.17	28744.12
554.34	28797.95
554.51	28851.78
554.67	29024.98
554.84	29078.82
555.00	28739.44
555.17	29415.85
555.33	29123.29
555.50	29347.98
555.67	29240.31
555.83	29366.70
556.00	29057.75
556.16	29607.78
556.33	28893.91
556.50	29359.68
556.66	29132.65
556.83	29663.95
556.99	29413.51
557.16	29923.75
557.32	29628.84
557.49	29387.77
557.65	29387.77
557.82	29483.73
557.98	29322.23
558.15	29172.44
558.32	29563.31
558.48	29418.19
558.65	29635.86
558.81	29734.17
558.98	29483.73
559.14	29663.95
559.31	29610.12
559.47	29776.30
559.64	29476.71
559.80	29778.64
559.97	29888.64
560.13	29731.83
560.30	29937.79
560.46	29687.36
560.63	30164.82
560.79	29898.00
560.96	29776.30
561.12	29879.28
561.29	29916.73
561.45	29818.42
561.61	29975.24
561.78	30244.40
561.94	29993.97
562.11	30064.18
562.27	29951.84
562.44	30075.88
562.60	30267.81
562.77	29818.42
562.93	30008.01
563.10	30277.17
563.26	30230.36
563.42	30452.71
563.59	30412.92
563.75	30225.68
563.92	30148.44
564.08	29942.47
564.24	30029.07
564.41	30019.71
564.57	29855.87
564.74	29972.90
564.90	30045.46
565.07	30160.14
565.23	30307.60
565.39	30260.79
565.56	30532.29
565.72	30204.61
565.88	30188.23
566.05	30419.94
566.21	30188.23
566.38	30068.86
566.54	30080.56
566.70	30452.71
566.87	30253.76
567.03	30419.94
567.19	30691.44
567.36	30684.42
567.52	30714.85
567.68	30253.76
567.85	30359.09
568.01	30476.12
568.17	30370.79
568.34	30635.27
568.50	30499.52
568.66	30604.84
568.83	30738.26
568.99	30499.52
569.15	30565.06
569.32	30202.27
569.48	30483.14
569.64	30623.57
569.81	30974.65
569.97	30567.40
570.13	30822.51
570.30	30700.81
570.46	30525.27
570.62	30682.08
570.78	30469.09
570.95	30267.81
571.11	30703.15
571.27	30284.19
571.43	30216.32
571.60	30639.95
571.76	30586.12
571.92	30824.86
572.09	30827.20
572.25	30991.03
572.41	30534.63
572.57	30925.50
572.74	30899.75
572.90	30604.84
573.06	30590.80
573.22	30925.50
573.38	30553.35
573.55	30948.90
573.71	31023.80
573.87	30909.11
574.03	30733.57
574.20	30429.30
574.36	30764.00
574.52	30651.66
574.68	30492.50
574.84	30890.39
575.01	30661.02
575.17	30766.34
575.33	30960.61
575.49	30787.41
575.65	30930.18
575.82	30829.54
575.98	30862.30
576.14	30888.05
576.30	30490.16
576.46	30628.25
576.62	30782.73
576.79	30555.69
576.95	30256.11
577.11	30899.75
577.27	31079.97
577.43	31131.47
577.59	30799.11
577.75	30857.62
577.92	30459.73
578.08	30871.67
578.24	30841.24
578.40	30733.57
578.56	31119.76
578.72	30888.05
578.88	31143.17
579.04	31110.40
579.21	30820.17
579.37	31154.87
579.53	31075.29
579.69	30834.22
579.85	30682.08
580.01	30476.12
580.17	30876.35
580.33	31180.62
580.49	30817.83
580.65	31005.08
580.82	31096.36
580.98	30813.15
581.14	30857.62
581.30	31122.10
581.46	30951.24
581.62	31222.75
581.78	30768.68
581.94	30649.32
582.10	30808.47
582.26	30895.07
582.42	30782.73
582.58	31220.41
582.74	30916.14
582.90	31159.55
583.06	31185.30
583.22	31253.17
583.38	31016.78
583.54	31360.84
583.70	30972.31
583.86	31250.83
584.02	30815.49
584.18	30939.54
584.34	31014.44
584.50	31150.19
584.66	30899.75
584.82	31152.53
584.98	31061.25
585.14	31269.56
585.30	30764.00
585.46	30808.47
585.62	30668.04
585.78	31161.89
585.94	30815.49
586.10	31622.98
586.26	31236.79
586.42	31580.85
586.58	31487.23
586.74	31166.57
586.90	30892.73
587.06	30906.77
587.22	31026.14
587.38	31019.12
587.54	31393.61
587.70	31543.40
587.86	31164.23
588.02	31285.94
588.18	31414.67
588.34	31459.14
588.49	31510.63
588.65	31311.69
588.81	31051.89
588.97	31384.24
589.13	31229.77
589.29	31321.05
589.45	31388.92
589.61	31309.35
589.77	31840.65
589.93	31084.65
590.08	31819.58
590.24	31641.70
590.40	31424.03
590.56	31751.71
590.72	31353.82
590.88	31269.56
591.04	31192.32
591.20	31702.56
591.35	31805.54
591.51	31952.99
591.67	31452.12
591.83	31550.42
591.99	31477.86
