SpectraSuite Data File
++++++++++++++++++++++++++++++++++++
Date: Fri Oct 18 13:58:05 GMT-05:00 2013
User: bianchi
Dark Spectrum Present: No
Reference Spectrum Present: No
Number of Sampled Component Spectra: 1
Spectrometers: USB2+H05261
Integration Time (usec): 50000 (USB2+H05261)
Spectra Averaged: 1 (USB2+H05261)
Boxcar Smoothing: 0 (USB2+H05261)
Correct for Electrical Dark: No (USB2+H05261)
Strobe/Lamp Enabled: No (USB2+H05261)
Correct for Detector Non-linearity: No (USB2+H05261)
Correct for Stray Light: No (USB2+H05261)
Number of Pixels in Processed Spectrum: 2048
>>>>>Begin Processed Spectral Data<<<<<
365.73	0.00
365.92	0.00
366.12	0.00
366.32	0.00
366.52	0.00
366.72	0.00
366.91	0.00
367.11	0.00
367.31	0.00
367.51	0.00
367.70	0.00
367.90	0.00
368.10	0.00
368.30	0.00
368.49	0.00
368.69	0.00
368.89	0.00
369.09	0.00
369.28	0.00
369.48	0.00
369.68	0.00
369.87	0.00
370.07	0.00
370.27	0.00
370.47	0.00
370.66	93.62
370.86	77.24
371.06	166.18
371.25	168.52
371.45	149.79
371.65	159.16
371.84	112.35
372.04	177.88
372.24	149.79
372.44	217.67
372.63	224.69
372.83	98.30
373.03	212.99
373.22	194.26
373.42	175.54
373.62	283.20
373.81	264.48
374.01	255.12
374.21	271.50
374.40	269.16
374.60	217.67
374.79	278.52
374.99	283.20
375.19	271.50
375.38	280.86
375.58	262.14
375.78	278.52
375.97	215.33
376.17	330.02
376.37	236.39
376.56	346.40
376.76	201.29
376.95	290.23
377.15	280.86
377.35	257.46
377.54	362.78
377.74	252.78
377.93	264.48
378.13	273.84
378.33	257.46
378.52	283.20
378.72	304.27
378.91	273.84
379.11	248.10
379.31	360.44
379.50	269.16
379.70	322.99
379.89	264.48
380.09	304.27
380.28	245.76
380.48	276.18
380.68	208.31
380.87	255.12
381.07	306.61
381.26	355.76
381.46	325.33
381.65	337.04
381.85	301.93
382.04	346.40
382.24	330.02
382.43	360.44
382.63	346.40
382.83	400.23
383.02	301.93
383.22	402.57
383.41	435.34
383.61	395.55
383.80	442.36
384.00	386.19
384.19	456.40
384.39	421.30
384.58	318.31
384.78	397.89
384.97	390.87
385.17	400.23
385.36	404.91
385.56	395.55
385.75	353.42
385.95	409.59
386.14	437.68
386.34	367.46
386.53	383.85
386.72	440.02
386.92	449.38
387.11	454.06
387.31	451.72
387.50	435.34
387.70	461.09
387.89	435.34
388.09	444.70
388.28	437.68
388.48	468.11
388.67	463.43
388.86	409.59
389.06	465.77
389.25	465.77
389.45	461.09
389.64	521.94
389.84	486.83
390.03	521.94
390.22	482.15
390.42	575.77
390.61	447.04
390.81	482.15
391.00	550.03
391.19	475.13
391.39	580.45
391.58	484.49
391.78	524.28
391.97	575.77
392.16	550.03
392.36	617.90
392.55	528.96
392.75	601.52
392.94	561.73
393.13	543.00
393.33	664.71
393.52	566.41
393.71	592.16
393.91	620.24
394.10	578.11
394.29	585.13
394.49	582.79
394.68	606.20
394.88	627.26
395.07	636.63
395.26	617.90
395.46	627.26
395.65	737.27
395.84	566.41
396.04	627.26
396.23	685.78
396.42	676.41
396.62	676.41
396.81	620.24
397.00	655.35
397.19	683.44
397.39	657.69
397.58	688.12
397.77	739.61
397.97	739.61
398.16	678.76
398.35	737.27
398.55	753.65
398.74	690.46
398.93	774.72
399.12	739.61
399.32	758.33
399.51	830.89
399.70	809.83
399.90	685.78
400.09	774.72
400.28	770.04
400.47	704.50
400.67	774.72
400.86	889.40
401.05	863.66
401.24	800.46
401.44	763.01
401.63	884.72
401.82	777.06
402.01	884.72
402.21	770.04
402.40	910.47
402.59	924.51
402.78	875.36
402.97	884.72
403.17	875.36
403.36	994.73
403.55	910.47
403.74	880.04
403.93	875.36
404.13	1027.50
404.32	868.34
404.51	812.17
404.70	954.94
404.89	997.07
405.09	938.55
405.28	924.51
405.47	968.98
405.66	1081.33
405.85	1057.92
406.05	966.64
406.24	1036.86
406.43	1064.94
406.62	1078.99
406.81	1029.84
407.00	1027.50
407.20	1046.22
407.39	1011.11
407.58	1048.56
407.77	1076.65
407.96	1196.01
408.15	1086.01
408.34	1076.65
408.54	1083.67
408.73	1095.37
408.92	1200.69
409.11	1224.10
409.30	1196.01
409.49	1156.22
409.68	1188.99
409.87	1205.38
410.07	1142.18
410.26	1200.69
410.45	1268.57
410.64	1196.01
410.83	1310.70
411.02	1240.48
411.21	1188.99
411.40	1299.00
411.59	1345.81
411.78	1359.85
411.98	1261.55
412.17	1240.48
412.36	1364.53
412.55	1310.70
412.74	1331.76
412.93	1380.92
413.12	1210.06
413.31	1397.30
413.50	1303.68
413.69	1458.15
413.88	1540.07
414.07	1521.35
414.26	1441.77
414.45	1338.79
414.64	1533.05
414.83	1509.65
415.02	1584.54
415.22	1568.16
415.41	1605.61
415.60	1614.97
415.79	1614.97
415.98	1682.85
416.17	1741.36
416.36	1664.12
416.55	1570.50
416.74	1596.25
416.93	1631.35
417.12	1589.22
417.31	1710.93
417.50	1682.85
417.69	1776.47
417.88	1771.79
418.07	1701.57
418.26	1769.44
418.45	1732.00
418.64	1816.26
418.83	1937.96
419.02	1820.94
419.21	1935.62
419.39	1870.09
419.58	1863.07
419.77	1867.75
419.96	1914.56
420.15	1785.83
420.34	1853.70
420.53	1886.47
420.72	1893.49
420.91	1959.03
421.10	1909.88
421.29	1989.46
421.48	1900.52
421.67	2057.33
421.86	1996.48
422.05	2015.20
422.24	2017.54
422.43	1975.41
422.61	2062.01
422.80	1989.46
422.99	2026.90
423.18	2008.18
423.37	2017.54
423.56	2080.74
423.75	2080.74
423.94	2090.10
424.13	1912.22
424.32	1916.90
424.50	2087.76
424.69	2190.74
424.88	2083.08
425.07	2071.37
425.26	2120.53
425.45	2193.08
425.64	2122.87
425.83	2099.46
426.01	2157.97
426.20	2099.46
426.39	2134.57
426.58	2043.29
426.77	2165.00
426.96	2094.78
427.15	2113.50
427.33	2120.53
427.52	2253.94
427.71	2249.25
427.90	2162.66
428.09	2232.87
428.28	2232.87
428.46	2333.51
428.65	2228.19
428.84	2272.66
429.03	2312.45
429.22	2214.15
429.40	2298.41
429.59	2431.82
429.78	2172.02
429.97	2204.78
430.16	2328.83
430.34	2434.16
430.53	2300.75
430.72	2335.85
430.91	2354.58
431.10	2370.96
431.28	2396.71
431.47	2417.77
431.66	2462.24
431.85	2469.27
432.03	2485.65
432.22	2565.23
432.41	2492.67
432.60	2614.38
432.79	2497.35
432.97	2464.58
433.16	2619.06
433.35	2551.18
433.54	2567.57
433.72	2562.89
433.91	2569.91
434.10	2602.68
434.28	2626.08
434.47	2572.25
434.66	2588.63
434.85	2670.55
435.03	2612.04
435.22	2602.68
435.41	2782.90
435.59	2700.98
435.78	2579.27
435.97	2672.89
436.16	2782.90
436.34	2689.28
436.53	2743.11
436.72	2740.77
436.90	2684.59
437.09	2825.03
437.28	2619.06
437.46	2689.28
437.65	2733.75
437.84	2829.71
438.02	2871.84
438.21	2808.64
438.40	2717.36
438.58	3009.93
438.77	2949.08
438.96	2935.03
439.14	3023.97
439.33	2998.23
439.52	3045.04
439.70	3103.55
439.89	2993.55
440.08	3185.47
440.26	3080.14
440.45	3171.43
440.63	3206.53
440.82	3185.47
441.01	3124.62
441.19	3255.69
441.38	3265.05
441.57	3213.56
441.75	3375.05
441.94	3274.41
442.12	3232.28
442.31	3293.13
442.50	3253.34
442.68	3281.43
442.87	3454.63
443.05	3267.39
443.24	3398.46
443.43	3431.23
443.61	3332.92
443.80	3492.08
443.98	3368.03
444.17	3262.71
444.35	3463.99
444.54	3379.73
444.73	3520.17
444.91	3548.25
445.10	3541.23
445.28	3449.95
445.47	3574.00
445.65	3517.83
445.84	3468.67
446.02	3602.08
446.21	3515.48
446.39	3471.01
446.58	3592.72
446.77	3604.42
446.95	3452.29
447.14	3681.66
447.32	3581.02
447.51	3506.12
447.69	3620.81
447.88	3712.09
448.06	3604.42
448.25	3620.81
448.43	3653.58
448.62	3609.11
448.80	3545.91
448.99	3653.58
449.17	3714.43
449.36	3630.17
449.54	3786.99
449.73	3838.48
449.91	3904.01
450.10	3810.39
450.28	3714.43
450.46	3805.71
450.65	3878.27
450.83	3829.12
451.02	3885.29
451.20	3936.78
451.39	3978.91
451.57	3939.12
451.76	3803.37
451.94	3794.01
452.13	3962.53
452.31	4032.74
452.49	3847.84
452.68	3892.31
452.86	3941.46
453.05	3974.23
453.23	4044.45
453.42	3967.21
453.60	4093.60
453.78	3866.56
453.97	3920.40
454.15	3978.91
454.34	4011.68
454.52	4072.53
454.70	4023.38
454.89	4044.45
455.07	4105.30
455.26	4081.89
455.44	4072.53
455.62	4180.20
455.81	4109.98
455.99	4147.43
456.17	4273.82
456.36	4318.29
456.54	4269.14
456.73	4294.88
456.91	4393.19
457.09	4444.68
457.28	4449.36
457.46	4418.93
457.64	4458.72
457.83	4348.72
458.01	4540.64
458.19	4582.77
458.38	4465.74
458.56	4479.79
458.74	4409.57
458.93	4690.43
459.11	4440.00
459.29	4454.04
459.48	4512.55
459.66	4566.39
459.84	4683.41
460.03	4627.24
460.21	4760.65
460.39	4645.96
460.57	4681.07
460.76	4624.90
460.94	4660.01
461.12	4795.76
461.31	4877.68
461.49	4566.39
461.67	4718.52
461.85	4809.80
462.04	4851.93
462.22	5074.28
462.40	4849.59
462.59	4793.42
462.77	4800.44
462.95	4828.53
463.13	4868.31
463.32	5050.88
463.50	4992.36
463.68	4945.55
463.86	4903.42
464.05	5011.09
464.23	4957.25
464.41	5039.17
464.59	4971.30
464.78	5242.80
464.96	4868.31
465.14	4950.23
465.32	4959.60
465.50	5153.86
465.69	5406.64
465.87	4966.62
466.05	5121.09
466.23	4957.25
466.41	4985.34
466.60	5226.42
466.78	5135.14
466.96	5085.98
467.14	5149.18
467.32	5324.72
467.51	5425.36
467.69	5149.18
467.87	5130.45
468.05	5277.91
468.23	5324.72
468.41	5191.31
468.60	5390.25
468.78	5434.72
468.96	5298.97
469.14	5369.19
469.32	5530.69
469.50	5364.51
469.69	5500.26
469.87	5502.60
470.05	5600.90
470.23	5661.76
470.41	5451.11
470.59	5526.00
470.77	5455.79
470.95	5565.79
471.14	5565.79
471.32	5652.39
471.50	5678.14
471.68	5731.97
471.86	5659.42
472.04	5919.21
472.22	5933.26
472.40	5830.27
472.58	5949.64
472.77	5797.51
472.95	5900.49
473.13	6106.46
473.31	5937.94
473.49	6059.65
473.67	5977.73
473.85	6031.56
474.03	6174.33
474.21	6211.78
474.39	6305.40
474.57	6125.18
474.75	6354.55
474.93	6307.74
475.12	6235.19
475.30	6485.62
475.48	6345.19
475.66	6333.49
475.84	6228.17
476.02	6408.39
476.20	6427.11
476.38	6604.99
476.56	6630.74
476.74	6637.76
476.92	6483.28
477.10	6597.97
477.28	6843.73
477.46	6712.66
477.64	6920.96
477.82	7040.33
478.00	7206.51
478.18	7073.10
478.36	7173.74
478.54	7363.33
478.72	7236.94
478.90	7400.77
479.08	7314.17
479.26	7456.95
479.44	7583.34
479.62	7529.50
479.80	7527.16
479.98	7709.72
480.16	7786.96
480.34	7456.95
480.52	7777.60
480.70	7845.48
480.88	7705.04
481.06	7971.86
481.24	7913.35
481.41	7922.71
481.59	8142.72
481.77	8126.34
481.95	8273.79
482.13	8271.45
482.31	8257.41
482.49	8383.80
482.67	8341.67
482.85	8507.85
483.03	8439.97
483.21	8816.80
483.39	8720.84
483.57	8816.80
483.74	8800.41
483.92	8924.46
484.10	8828.50
484.28	8828.50
484.46	9191.28
484.64	9291.93
484.82	9062.55
485.00	9413.63
485.18	9469.81
485.35	9603.22
485.53	9408.95
485.71	9591.52
485.89	9982.38
486.07	9881.74
486.25	9874.72
486.43	9846.63
486.61	10054.94
486.78	9994.09
486.96	10153.24
487.14	10281.97
487.32	10438.79
487.50	10324.10
487.68	10513.69
487.85	10576.88
488.03	10750.08
488.21	10813.28
488.39	10899.87
488.57	11112.86
488.75	10923.28
488.92	11164.36
489.10	10902.22
489.28	11197.12
489.46	11309.47
489.64	11288.40
489.81	11854.81
489.99	11499.05
490.17	11576.29
490.35	11580.97
490.53	11824.39
490.70	11836.09
490.88	11798.64
491.06	12063.12
491.24	12138.02
491.41	12079.50
491.59	12194.19
491.77	12395.48
491.95	12493.78
492.13	12332.28
492.30	12540.59
492.48	12395.48
492.66	12498.46
492.84	12741.88
493.01	12945.50
493.19	12617.83
493.37	12940.82
493.54	13004.02
493.72	13275.52
493.90	13107.00
494.08	13394.89
494.25	13486.17
494.43	13657.03
494.61	13603.19
494.79	13717.88
494.96	13565.74
495.14	13790.44
495.32	13745.97
495.49	13884.06
495.67	13914.48
495.85	13942.57
496.02	14073.64
496.20	14221.10
496.38	14188.33
496.55	14567.49
496.73	14422.38
496.91	14560.47
497.09	14686.86
497.26	14899.85
497.44	14518.34
497.62	14970.07
497.79	14689.20
497.97	14806.23
498.14	15267.31
498.32	15178.37
498.50	15248.59
498.67	15440.51
498.85	15297.74
499.03	15337.53
499.20	15248.59
499.38	15538.82
499.56	15737.76
499.73	15700.31
499.91	15817.34
500.08	15967.13
500.26	15454.56
500.44	15854.79
500.61	15953.09
500.79	16135.65
500.97	15807.98
501.14	16201.19
501.32	16177.78
501.49	15871.17
501.67	16208.21
501.84	16374.39
502.02	16559.29
502.20	16645.89
502.37	16622.48
502.55	16599.08
502.72	16435.24
502.90	16369.71
503.07	16624.83
503.25	16755.90
503.43	16542.91
503.60	16933.78
503.78	17224.00
503.95	17099.95
504.13	16950.16
504.30	17158.47
504.48	16893.99
504.65	17205.28
504.83	17151.45
505.01	17296.56
505.18	17439.33
505.36	17514.23
505.53	17495.50
505.71	17547.00
505.88	17490.82
506.06	17432.31
506.23	17961.27
506.41	17771.69
506.58	17790.41
506.76	17841.90
506.93	18054.89
507.11	17755.30
507.28	17912.12
507.46	17968.29
507.63	17984.68
507.81	18167.24
507.98	18298.31
508.16	18415.34
508.33	18499.59
508.50	18445.76
508.68	18555.77
508.85	18579.17
509.03	18424.70
509.20	18773.44
509.38	18747.69
509.55	18883.44
509.73	18597.90
509.90	18771.10
510.08	19023.87
510.25	18974.72
510.42	18822.59
510.60	19098.77
510.77	18817.91
510.95	19264.95
511.12	19290.70
511.30	19058.98
511.47	19133.88
511.64	19323.46
511.82	19536.45
511.99	19293.04
512.17	19527.09
512.34	19407.72
512.51	19754.12
512.69	19714.33
512.86	19559.86
513.04	20126.27
513.21	19749.44
513.38	19992.86
513.56	19688.59
513.73	19798.59
513.90	20070.09
514.08	19908.60
514.25	20184.78
514.43	20053.71
514.60	20348.62
514.77	20367.34
514.95	20638.84
515.12	20566.29
515.29	20395.43
515.47	20437.56
515.64	20568.63
515.81	20732.47
515.99	20854.17
516.16	20884.60
516.33	21025.03
516.51	21359.73
516.68	20835.45
516.85	20566.29
517.03	21163.12
517.20	21081.21
517.37	20695.02
517.54	21254.40
517.72	21137.38
517.89	21163.12
518.06	21064.82
518.24	20996.95
518.41	21193.55
518.58	21418.24
518.75	21673.36
518.93	21755.28
519.10	21465.05
519.27	21493.14
519.45	21404.20
519.62	21685.06
519.79	21610.17
519.96	21797.41
520.14	21497.82
520.31	21680.38
520.48	21633.57
520.65	21933.16
520.83	21902.73
521.00	22071.25
521.17	21940.18
521.34	22015.08
521.52	22122.74
521.69	22066.57
521.86	22389.56
522.03	22532.34
522.20	22246.79
522.38	22148.49
522.55	22583.83
522.72	22199.98
522.89	22637.66
523.07	22668.09
523.24	22527.66
523.41	22794.48
523.58	22757.03
523.75	22703.20
523.92	22874.06
524.10	22899.80
524.27	22775.75
524.44	23157.26
524.61	23269.61
524.78	22831.93
524.96	23250.88
525.13	23014.49
525.30	23178.33
525.47	23393.65
525.64	23101.09
525.81	23007.47
525.98	23468.55
526.16	23070.66
526.33	23381.95
526.50	23688.56
526.67	23419.40
526.84	23419.40
527.01	23775.16
527.18	23346.84
527.36	23807.93
527.53	23775.16
527.70	24116.88
527.87	23894.53
528.04	24037.30
528.21	23630.05
528.38	23693.24
528.55	23716.65
528.72	23857.08
528.89	24430.51
529.07	23969.43
529.24	24383.70
529.41	24278.38
529.58	24170.71
529.75	24027.94
529.92	24304.12
530.09	24446.90
530.26	24266.67
530.43	24519.45
530.60	24161.35
530.77	23871.12
530.94	24634.14
531.11	24278.38
531.28	24437.53
531.46	24751.17
531.63	24826.06
531.80	24865.85
531.97	24648.18
532.14	24734.78
532.31	24692.65
532.48	24940.75
532.65	25057.78
532.82	24826.06
532.99	25055.43
533.16	24957.13
533.33	24999.26
533.50	25310.55
533.67	25017.99
533.84	24858.83
534.01	25181.82
534.18	24952.45
534.35	25392.47
534.52	24966.49
534.69	25455.67
534.86	25266.08
535.03	25357.36
535.20	25687.38
535.37	25303.53
535.54	25284.81
535.71	25525.88
535.88	25530.56
536.05	25465.03
536.22	25926.11
536.38	25238.00
536.55	25942.50
536.72	25708.44
536.89	25530.56
537.06	25656.95
537.23	25701.42
537.40	25715.47
537.57	25605.46
537.74	25970.58
537.91	26267.83
538.08	26178.89
538.25	25605.46
538.42	26073.57
538.59	26080.59
538.75	25773.98
538.92	26127.40
539.09	26251.45
539.26	26235.06
539.43	26267.83
539.60	26162.51
539.77	25947.18
539.94	26115.70
540.11	26738.28
540.28	25851.22
540.44	26015.05
540.61	26230.38
540.78	26415.29
540.95	26714.87
541.12	26623.59
541.29	26494.86
541.46	26604.87
541.62	26635.30
541.79	26527.63
541.96	26279.54
542.13	26120.38
542.30	26632.96
542.47	26661.04
542.63	26981.70
542.80	27105.74
542.97	27044.89
543.14	26920.84
543.31	26654.02
543.48	26958.29
543.64	27199.37
543.81	27475.55
543.98	27653.43
544.15	27232.13
544.32	27716.62
544.48	27627.68
544.65	27358.52
544.82	27344.48
544.99	26852.97
545.16	27171.28
545.32	27131.49
545.49	27716.62
545.66	27681.52
545.83	27438.10
546.00	27410.01
546.16	27204.05
546.33	27206.39
546.50	27260.22
546.67	27955.36
546.83	27190.00
547.00	27520.02
547.17	27515.34
547.34	27637.05
547.50	27908.55
547.67	28013.87
547.84	27824.29
548.00	28018.55
548.17	28484.32
548.34	27885.14
548.51	28219.84
548.67	27857.06
548.84	28098.13
549.01	27864.08
549.18	28027.92
549.34	28034.94
549.51	28009.19
549.68	28102.81
549.84	28388.36
550.01	28051.32
550.18	28023.23
550.34	28428.15
550.51	28252.61
550.68	28568.58
550.84	27953.02
551.01	28458.57
551.18	28261.97
551.34	28196.43
551.51	28367.29
551.68	28304.10
551.84	28432.83
552.01	28561.56
552.18	28638.80
552.34	28568.58
552.51	28421.13
552.68	28381.34
552.84	28563.90
553.01	28540.49
553.18	28559.22
553.34	28716.03
553.51	28596.67
553.67	28952.43
553.84	29050.73
554.01	28809.65
554.17	28971.15
554.34	28903.28
554.51	28992.22
554.67	28730.08
554.84	28725.39
555.00	28814.34
555.17	28989.88
555.33	29055.41
555.50	29036.69
555.67	29195.84
555.83	29027.32
556.00	28945.41
556.16	29186.48
556.33	29156.05
556.50	28964.13
556.66	29450.96
556.83	29235.63
556.99	29071.79
557.16	29495.43
557.32	29088.18
557.49	29315.21
557.65	29252.02
557.82	28926.68
557.98	28886.89
558.15	29326.91
558.32	29549.26
558.48	29645.23
558.65	29645.23
558.81	29570.33
558.98	29584.37
559.14	29530.54
559.31	29404.15
559.47	29736.51
559.64	29635.86
559.80	29399.47
559.97	29610.12
560.13	29951.84
560.30	29273.08
560.46	29701.40
560.63	29888.64
560.79	29736.51
560.96	29916.73
561.12	29350.32
561.29	29708.42
561.45	29792.68
561.61	29799.70
561.78	29876.94
561.94	29776.30
562.11	29958.86
562.27	29846.51
562.44	29788.00
562.60	29799.70
562.77	29284.78
562.93	29659.27
563.10	30082.91
563.26	29797.36
563.42	30029.07
563.59	29888.64
563.75	29785.66
563.92	30239.72
564.08	29687.36
564.24	29965.88
564.41	30167.16
564.57	29729.48
564.74	30015.03
564.90	29998.65
565.07	29996.31
565.23	30064.18
565.39	30089.93
565.56	30338.02
565.72	30370.79
565.88	29855.87
566.05	29923.75
566.21	29947.15
566.38	30293.55
566.54	30096.95
566.70	30352.07
566.87	30555.69
567.03	30522.93
567.19	30593.14
567.36	30469.09
567.52	30125.04
567.68	30588.46
567.85	30424.62
568.01	29771.61
568.17	30183.55
568.34	30644.63
568.50	30382.49
568.66	30937.20
568.83	30672.72
568.99	30263.13
569.15	30293.55
569.32	30272.49
569.48	30181.21
569.64	30199.93
569.81	30499.52
569.97	30302.92
570.13	30338.02
570.30	30096.95
570.46	30593.14
570.62	30160.14
570.78	30260.79
570.95	30167.16
571.11	30237.38
571.27	30118.01
571.43	30239.72
571.60	30368.45
571.76	30464.41
571.92	30539.31
572.09	30244.40
572.25	30787.41
572.41	30522.93
572.57	30581.44
572.74	30522.93
572.90	30361.43
573.06	30263.13
573.22	30672.72
573.38	30740.60
573.55	30548.67
573.71	30923.16
573.87	30801.45
574.03	30490.16
574.20	30747.62
574.36	30536.97
574.52	30654.00
574.68	30443.35
574.84	30639.95
575.01	30658.68
575.17	30752.30
575.33	30717.19
575.49	30675.06
575.65	30902.09
575.82	30855.28
575.98	30391.86
576.14	30328.66
576.30	30792.09
576.46	30162.48
576.62	30256.11
576.79	30869.33
576.95	30614.21
577.11	31026.14
577.27	30822.51
577.43	31213.38
577.59	30541.65
577.75	30696.13
577.92	30293.55
578.08	30314.62
578.24	30424.62
578.40	30761.66
578.56	30764.00
578.72	30974.65
578.88	30808.47
579.04	30838.90
579.21	30555.69
579.37	31124.44
579.53	30946.56
579.69	30871.67
579.85	30862.30
580.01	30778.04
580.17	30628.25
580.33	30569.74
580.49	30415.26
580.65	30686.76
580.82	31040.18
580.98	31129.12
581.14	30778.04
581.30	31101.04
581.46	30546.33
581.62	30881.03
581.78	30789.75
581.94	30768.68
582.10	30682.08
582.26	30635.27
582.42	30939.54
582.58	30820.17
582.74	30895.07
582.90	30693.79
583.06	30951.24
583.22	30993.37
583.38	30937.20
583.54	30703.15
583.70	30843.58
583.86	30735.92
584.02	30740.60
584.18	30888.05
584.34	30925.50
584.50	30756.98
584.66	31072.95
584.82	30459.73
584.98	30808.47
585.14	30635.27
585.30	30827.20
585.46	30803.79
585.62	30558.03
585.78	30918.48
585.94	30771.02
586.10	30969.97
586.26	31049.55
586.42	31204.02
586.58	31283.60
586.74	30625.91
586.90	30441.01
587.06	30932.52
587.22	30876.35
587.38	30719.53
587.54	30984.01
587.70	31185.30
587.86	31084.65
588.02	31377.22
588.18	31248.49
588.34	31248.49
588.49	30911.46
588.65	30864.64
588.81	30876.35
588.97	31019.12
589.13	31056.57
589.29	30602.50
589.45	31108.06
589.61	31204.02
589.77	31253.17
589.93	31299.98
590.08	31641.70
590.24	31276.58
590.40	31342.11
590.56	31370.20
590.72	31012.10
590.88	30899.75
591.04	31480.21
591.20	31622.98
591.35	31283.60
591.51	31690.85
591.67	31501.27
591.83	31955.33
