SpectraSuite Data File
++++++++++++++++++++++++++++++++++++
Date: Fri Oct 18 13:58:33 GMT-05:00 2013
User: bianchi
Dark Spectrum Present: No
Reference Spectrum Present: No
Number of Sampled Component Spectra: 1
Spectrometers: USB2+H05261
Integration Time (usec): 50000 (USB2+H05261)
Spectra Averaged: 1 (USB2+H05261)
Boxcar Smoothing: 0 (USB2+H05261)
Correct for Electrical Dark: No (USB2+H05261)
Strobe/Lamp Enabled: No (USB2+H05261)
Correct for Detector Non-linearity: No (USB2+H05261)
Correct for Stray Light: No (USB2+H05261)
Number of Pixels in Processed Spectrum: 2048
>>>>>Begin Processed Spectral Data<<<<<
365.73	0.00
365.92	0.00
366.12	0.00
366.32	0.00
366.52	0.00
366.72	0.00
366.91	0.00
367.11	0.00
367.31	0.00
367.51	0.00
367.70	0.00
367.90	0.00
368.10	0.00
368.30	0.00
368.49	0.00
368.69	0.00
368.89	0.00
369.09	0.00
369.28	0.00
369.48	0.00
369.68	0.00
369.87	0.00
370.07	0.00
370.27	0.00
370.47	0.00
370.66	60.85
370.86	58.51
371.06	142.77
371.25	98.30
371.45	161.50
371.65	163.84
371.84	112.35
372.04	133.41
372.24	131.07
372.44	194.26
372.63	177.88
372.83	287.89
373.03	175.54
373.22	154.48
373.42	112.35
373.62	271.50
373.81	187.24
374.01	159.16
374.21	238.73
374.40	215.33
374.60	252.78
374.79	198.95
374.99	227.03
375.19	243.42
375.38	266.82
375.58	222.35
375.78	259.80
375.97	229.37
376.17	257.46
376.37	264.48
376.56	227.03
376.76	227.03
376.95	306.61
377.15	255.12
377.35	306.61
377.54	285.55
377.74	222.35
377.93	212.99
378.13	322.99
378.33	325.33
378.52	269.16
378.72	299.59
378.91	280.86
379.11	266.82
379.31	271.50
379.50	248.10
379.70	280.86
379.89	271.50
380.09	374.49
380.28	358.10
380.48	212.99
380.68	287.89
380.87	262.14
381.07	313.63
381.26	330.02
381.46	320.65
381.65	330.02
381.85	259.80
382.04	374.49
382.24	290.23
382.43	320.65
382.63	271.50
382.83	313.63
383.02	374.49
383.22	353.42
383.41	292.57
383.61	367.46
383.80	381.51
384.00	390.87
384.19	318.31
384.39	355.76
384.58	367.46
384.78	355.76
384.97	346.40
385.17	407.25
385.36	388.53
385.56	393.21
385.75	423.64
385.95	489.17
386.14	400.23
386.34	440.02
386.53	341.72
386.72	407.25
386.92	407.25
387.11	355.76
387.31	397.89
387.50	414.27
387.70	444.70
387.89	477.47
388.09	505.56
388.28	421.30
388.48	442.36
388.67	461.09
388.86	475.13
389.06	482.15
389.25	498.53
389.45	454.06
389.64	454.06
389.84	395.55
390.03	472.79
390.22	514.92
390.42	463.43
390.61	468.11
390.81	517.26
391.00	475.13
391.19	468.11
391.39	503.22
391.58	519.60
391.78	524.28
391.97	580.45
392.16	531.30
392.36	510.24
392.55	498.53
392.75	587.47
392.94	505.56
393.13	552.37
393.33	521.94
393.52	599.18
393.71	613.22
393.91	552.37
394.10	580.45
394.29	587.47
394.49	566.41
394.68	566.41
394.88	559.39
395.07	582.79
395.26	559.39
395.46	564.07
395.65	554.71
395.84	692.80
396.04	599.18
396.23	599.18
396.42	585.13
396.62	685.78
396.81	503.22
397.00	634.29
397.19	751.31
397.39	641.31
397.58	755.99
397.77	678.76
397.97	681.10
398.16	552.37
398.35	653.01
398.55	683.44
398.74	653.01
398.93	758.33
399.12	669.39
399.32	645.99
399.51	770.04
399.70	807.48
399.90	748.97
400.09	760.67
400.28	763.01
400.47	716.20
400.67	699.82
400.86	784.08
401.05	800.46
401.24	840.25
401.44	784.08
401.63	800.46
401.82	819.19
402.01	760.67
402.21	828.55
402.40	882.38
402.59	786.42
402.78	795.78
402.97	793.44
403.17	936.21
403.36	819.19
403.55	835.57
403.74	922.17
403.93	774.72
404.13	933.87
404.32	898.77
404.51	851.96
404.70	983.02
404.89	985.37
405.09	985.37
405.28	891.74
405.47	987.71
405.66	992.39
405.85	908.13
406.05	1001.75
406.24	936.21
406.43	985.37
406.62	1036.86
406.81	1067.28
407.00	968.98
407.20	854.30
407.39	971.32
407.58	1125.80
407.77	1104.73
407.96	1048.56
408.15	1086.01
408.34	999.41
408.54	1114.10
408.73	1034.52
408.92	985.37
409.11	1083.67
409.30	1156.22
409.49	1060.26
409.68	1111.75
409.87	1114.10
410.07	1284.95
410.26	1097.71
410.45	1083.67
410.64	1181.97
410.83	1177.29
411.02	1135.16
411.21	1224.10
411.40	1254.53
411.59	1282.61
411.78	1289.64
411.98	1259.21
412.17	1301.34
412.36	1397.30
412.55	1313.04
412.74	1369.21
412.93	1313.04
413.12	1268.57
413.31	1467.52
413.50	1291.98
413.69	1345.81
413.88	1486.24
414.07	1411.34
414.26	1476.88
414.45	1533.05
414.64	1467.52
414.83	1481.56
415.02	1509.65
415.22	1537.73
415.41	1486.24
415.60	1483.90
415.79	1514.33
415.98	1519.01
416.17	1633.69
416.36	1563.48
416.55	1537.73
416.74	1621.99
416.93	1640.72
417.12	1652.42
417.31	1661.78
417.50	1652.42
417.69	1820.94
417.88	1743.70
418.07	1701.57
418.26	1715.61
418.45	1863.07
418.64	1748.38
418.83	1818.60
419.02	1788.17
419.21	1820.94
419.39	1872.43
419.58	1664.12
419.77	1682.85
419.96	1926.26
420.15	1856.04
420.34	1916.90
420.53	1933.28
420.72	1975.41
420.91	1959.03
421.10	1834.98
421.29	1881.79
421.48	1818.60
421.67	2054.99
421.86	1912.22
422.05	1961.37
422.24	1865.41
422.43	1973.07
422.61	2040.95
422.80	1973.07
422.99	1975.41
423.18	1980.09
423.37	2008.18
423.56	2017.54
423.75	1961.37
423.94	1956.69
424.13	1820.94
424.32	1930.94
424.50	1980.09
424.69	2101.80
424.88	2059.67
425.07	1980.09
425.26	1994.14
425.45	2064.35
425.64	2026.90
425.83	2080.74
426.01	2071.37
426.20	2047.97
426.39	2033.93
426.58	2024.56
426.77	2080.74
426.96	2031.58
427.15	2040.95
427.33	2073.71
427.52	2050.31
427.71	2052.65
427.90	2275.00
428.09	2174.36
428.28	2179.04
428.46	2303.09
428.65	2094.78
428.84	2232.87
429.03	2307.77
429.22	2106.48
429.40	2272.66
429.59	2387.35
429.78	2162.66
429.97	2108.82
430.16	2282.02
430.34	2307.77
430.53	2380.32
430.72	2410.75
430.91	2394.37
431.10	2307.77
431.28	2420.11
431.47	2415.43
431.66	2366.28
431.85	2354.58
432.03	2375.64
432.22	2466.92
432.41	2502.03
432.60	2462.24
432.79	2429.48
432.97	2495.01
433.16	2403.73
433.35	2321.81
433.54	2534.80
433.72	2471.61
433.91	2553.52
434.10	2476.29
434.28	2569.91
434.47	2452.88
434.66	2516.08
434.85	2499.69
435.03	2665.87
435.22	2480.97
435.41	2696.30
435.59	2509.05
435.78	2516.08
435.97	2562.89
436.16	2642.46
436.34	2644.81
436.53	2628.42
436.72	2761.83
436.90	2670.55
437.09	2700.98
437.28	2775.88
437.46	2696.30
437.65	2768.85
437.84	2778.22
438.02	2708.00
438.21	2677.57
438.40	2764.17
438.58	2794.60
438.77	2895.24
438.96	2801.62
439.14	2918.65
439.33	3012.27
439.52	2981.84
439.70	2920.99
439.89	2979.50
440.08	3096.53
440.26	3047.38
440.45	2984.18
440.63	3082.49
440.82	3000.57
441.01	3005.25
441.19	3122.27
441.38	3110.57
441.57	3119.93
441.75	3222.92
441.94	3169.09
442.12	3234.62
442.31	3229.94
442.50	3311.86
442.68	3187.81
442.87	3421.86
443.05	3358.67
443.24	3447.61
443.43	3410.16
443.61	3304.84
443.80	3527.19
443.98	3386.76
444.17	3246.32
444.35	3396.12
444.54	3489.74
444.73	3384.41
444.91	3445.27
445.10	3461.65
445.28	3438.25
445.47	3482.72
445.65	3412.50
445.84	3419.52
446.02	3543.57
446.21	3454.63
446.39	3398.46
446.58	3515.48
446.77	3391.44
446.95	3456.97
447.14	3442.93
447.32	3527.19
447.51	3492.08
447.69	3468.67
447.88	3503.78
448.06	3501.44
448.25	3442.93
448.43	3438.25
448.62	3562.30
448.80	3515.48
448.99	3506.12
449.17	3492.08
449.36	3463.99
449.54	3522.51
449.73	3709.75
449.91	3716.77
450.10	3667.62
450.28	3637.19
450.46	3632.51
450.65	3768.26
450.83	3667.62
451.02	3721.45
451.20	3892.31
451.39	3719.11
451.57	3824.44
451.76	3684.00
451.94	3751.88
452.13	3726.13
452.31	3756.56
452.49	3695.71
452.68	3810.39
452.86	3894.65
453.05	3878.27
453.23	3925.08
453.42	3889.97
453.60	3953.16
453.78	3836.14
453.97	3875.93
454.15	3896.99
454.34	3922.74
454.52	3976.57
454.70	4107.64
454.89	3974.23
455.07	3988.27
455.26	4194.24
455.44	4035.08
455.62	4023.38
455.81	4067.85
455.99	4147.43
456.17	4063.17
456.36	4053.81
456.54	4159.13
456.73	4243.39
456.91	4266.80
457.09	4203.60
457.28	4320.63
457.46	4234.03
457.64	4238.71
457.83	4418.93
458.01	4173.18
458.19	4329.99
458.38	4224.67
458.56	4414.25
458.74	4383.82
458.93	4472.76
459.11	4421.27
459.29	4346.37
459.48	4362.76
459.66	4348.72
459.84	4594.47
460.03	4484.47
460.21	4444.68
460.39	4435.32
460.57	4477.44
460.76	4561.70
460.94	4709.16
461.12	4610.86
461.31	4491.49
461.49	4624.90
461.67	4685.75
461.85	4657.67
462.04	4615.54
462.22	4702.14
462.40	4718.52
462.59	4573.41
462.77	4805.12
462.95	4683.41
463.13	4662.35
463.32	4823.84
463.50	4573.41
463.68	4842.57
463.86	4844.91
464.05	4873.00
464.23	4746.61
464.41	4887.04
464.59	4819.16
464.78	4919.81
464.96	4873.00
465.14	4868.31
465.32	4793.42
465.50	4908.10
465.69	4938.53
465.87	4727.88
466.05	4968.96
466.23	4975.98
466.41	5034.49
466.60	5111.73
466.78	5069.60
466.96	5011.09
467.14	5032.15
467.32	4865.97
467.51	5184.29
467.69	5128.11
467.87	5116.41
468.05	5191.31
468.23	4980.66
468.41	4943.21
468.60	5135.14
468.78	5165.56
468.96	5125.77
469.14	5116.41
469.32	5444.09
469.50	5104.71
469.69	5366.85
469.87	5448.77
470.05	5317.70
470.23	5252.16
470.41	5331.74
470.59	5401.96
470.77	5439.40
470.95	5432.38
471.14	5298.97
471.32	5425.36
471.50	5469.83
471.68	5516.64
471.86	5263.86
472.04	5579.84
472.22	5724.95
472.40	5441.75
472.58	5652.39
472.77	5701.54
472.95	5701.54
473.13	5851.34
473.31	5706.23
473.49	5858.36
473.67	5804.53
473.85	5797.51
474.03	5895.81
474.21	6001.13
474.39	5937.94
474.57	6045.60
474.75	6043.26
474.93	6017.52
475.12	6162.63
475.30	6050.28
475.48	5930.92
475.66	6174.33
475.84	6160.29
476.02	6162.63
476.20	6272.64
476.38	6324.13
476.56	6497.33
476.74	6480.94
476.92	6487.96
477.10	6370.94
477.28	6560.52
477.46	6616.69
477.64	6590.95
477.82	6705.63
478.00	7080.12
478.18	6717.34
478.36	6902.24
478.54	7014.59
478.72	6979.48
478.90	7012.24
479.08	7101.19
479.26	7105.87
479.44	7061.40
479.62	7375.03
479.80	7311.83
479.98	7234.60
480.16	7475.67
480.34	7382.05
480.52	7616.10
480.70	7662.91
480.88	7536.52
481.06	7658.23
481.24	7588.02
481.41	7850.16
481.59	7901.65
481.77	7850.16
481.95	7873.56
482.13	7999.95
482.31	7948.46
482.49	8114.64
482.67	8159.11
482.85	8339.33
483.03	8418.91
483.21	8449.33
483.39	8496.14
483.57	8571.04
483.74	8648.28
483.92	8690.41
484.10	8603.81
484.28	8861.27
484.46	8980.64
484.64	9202.99
484.82	8922.12
485.00	9165.54
485.18	9376.19
485.35	9247.46
485.53	9352.78
485.71	9343.42
485.89	9420.66
486.07	9394.91
486.25	9530.66
486.43	9570.45
486.61	9509.60
486.78	9884.08
486.96	9781.10
487.14	10003.45
487.32	9818.55
487.50	9970.68
487.68	10005.79
487.85	10272.61
488.03	10377.94
488.21	10445.81
488.39	10506.66
488.57	10778.17
488.75	10441.13
488.92	10761.78
489.10	10778.17
489.28	10890.51
489.46	11136.27
489.64	11026.26
489.81	11309.47
489.99	11236.91
490.17	11283.72
490.35	11360.96
490.53	11342.24
490.70	11426.50
490.88	11538.84
491.06	11658.21
491.24	11456.92
491.41	11618.42
491.59	11559.91
491.77	11971.84
491.95	12002.27
492.13	12318.24
492.30	12177.81
492.48	12002.27
492.66	12156.74
492.84	12058.44
493.01	12432.93
493.19	12533.57
493.37	12674.00
493.54	12606.13
493.72	12685.70
493.90	12821.45
494.08	12936.14
494.25	13209.98
494.43	12816.77
494.61	12901.03
494.79	13015.72
494.96	13186.58
495.14	13371.48
495.32	13284.88
495.49	13308.29
495.67	13535.32
495.85	13743.63
496.02	13687.45
496.20	13474.46
496.38	13802.14
496.55	13802.14
496.73	13970.66
496.91	13914.48
497.09	14111.09
497.26	14043.21
497.44	14246.84
497.62	14497.28
497.79	14274.93
497.97	14455.15
498.14	14516.00
498.32	14499.62
498.50	14883.47
498.67	14906.87
498.85	14867.08
499.03	14630.69
499.20	14909.21
499.38	14740.69
499.56	15119.86
499.73	15051.99
499.91	15325.83
500.08	15480.30
500.26	15211.14
500.44	15190.08
500.61	15346.89
500.79	15332.85
500.97	15288.38
501.14	15683.93
501.32	15852.45
501.49	15585.63
501.67	15697.97
501.84	16009.26
502.02	15723.72
502.20	15833.72
502.37	16049.05
502.55	15946.07
502.72	16400.13
502.90	16142.67
503.07	16315.87
503.25	16362.69
503.43	16259.70
503.60	16329.92
503.78	16582.70
503.95	16236.30
504.13	16372.05
504.30	16643.55
504.48	16428.22
504.65	16444.60
504.83	16592.06
505.01	16816.75
505.18	17008.67
505.36	16980.59
505.53	16652.91
505.71	16809.73
505.88	16903.35
506.06	16872.92
506.23	17511.89
506.41	17277.83
506.58	17408.90
506.76	17144.42
506.93	17415.93
507.11	17167.83
507.28	17177.19
507.46	17565.72
507.63	17645.30
507.81	17949.57
507.98	17308.26
508.16	17568.06
508.33	17661.68
508.50	17689.77
508.68	17851.27
508.85	18111.07
509.03	17963.61
509.20	17902.76
509.38	18218.73
509.55	18207.03
509.73	18155.54
509.90	18368.52
510.08	18113.41
510.25	17968.29
510.42	18225.75
510.60	18834.29
510.77	18490.23
510.95	18654.07
511.12	18544.06
511.30	18604.92
511.47	18979.40
511.64	18766.42
511.82	18717.26
511.99	18602.58
512.17	19145.58
512.34	18963.02
512.51	18876.42
512.69	19054.30
512.86	18867.06
513.04	19101.11
513.21	19311.76
513.38	19150.26
513.56	19459.21
513.73	19133.88
513.90	19030.90
514.08	19239.20
514.25	19159.63
514.43	19653.48
514.60	19686.25
514.77	19651.14
514.95	19688.59
515.12	19634.75
515.29	19510.71
515.47	19826.68
515.64	19845.40
515.81	19777.53
515.99	20210.53
516.16	19999.88
516.33	20184.78
516.51	20149.67
516.68	20004.56
516.85	20093.50
517.03	20201.16
517.20	20479.69
517.37	20034.99
517.54	20446.92
517.72	20467.98
517.89	20343.94
518.06	20498.41
518.24	20404.79
518.41	20521.82
518.58	20404.79
518.75	20552.24
518.93	20898.64
519.10	20872.90
519.27	20828.43
519.45	20704.38
519.62	20882.26
519.79	21008.65
519.96	20781.62
520.14	21160.78
520.31	20706.72
520.48	21479.10
520.65	21130.36
520.83	21223.98
521.00	21329.30
521.17	21338.66
521.34	21284.83
521.52	21366.75
521.69	21523.57
521.86	21453.35
522.03	21656.98
522.20	21701.45
522.38	21619.53
522.55	21694.43
522.72	21692.08
522.89	21781.03
523.07	22092.32
523.24	21916.78
523.41	21853.58
523.58	22022.10
523.75	22019.76
523.92	22057.21
524.10	21900.39
524.27	22036.14
524.44	21806.77
524.61	22401.27
524.78	22284.24
524.96	22277.22
525.13	22197.64
525.30	22492.55
525.47	22225.73
525.64	22586.17
525.81	22679.79
525.98	22581.49
526.16	22499.57
526.33	22801.50
526.50	22904.48
526.67	22618.94
526.84	22588.51
527.01	22544.04
527.18	22546.38
527.36	23089.38
527.53	23138.54
527.70	23222.80
527.87	22913.84
528.04	23077.68
528.21	23157.26
528.38	23098.75
528.55	23206.41
528.72	23185.35
528.89	23307.05
529.07	23255.56
529.24	23358.55
529.41	23344.50
529.58	23208.75
529.75	23126.83
529.92	23267.27
530.09	23133.86
530.26	23431.10
530.43	23339.82
530.60	23131.51
530.77	23660.48
530.94	23594.94
531.11	23522.38
531.28	23880.49
531.46	23726.01
531.63	23744.73
531.80	23798.57
531.97	23866.44
532.14	23819.63
532.31	23747.08
532.48	23873.46
532.65	24205.82
532.82	23777.50
532.99	24065.39
533.16	23878.15
533.33	24308.80
533.50	24379.02
533.67	24109.86
533.84	23786.86
534.01	24372.00
534.18	23894.53
534.35	24217.52
534.52	24257.31
534.69	24313.48
534.86	24542.86
535.03	24163.69
535.20	24634.14
535.37	24346.25
535.54	24496.05
535.71	24437.53
535.88	24341.57
536.05	24762.87
536.22	24851.81
536.38	24812.02
536.55	25013.31
536.72	24812.02
536.89	24524.13
537.06	24538.18
537.23	24739.46
537.40	24968.84
537.57	24903.30
537.74	25062.46
537.91	25085.86
538.08	25135.01
538.25	25062.46
538.42	24879.89
538.59	25322.26
538.75	24936.07
538.92	24840.11
539.09	25305.87
539.26	25336.30
539.43	25294.17
539.60	25448.64
539.77	25130.33
539.94	25584.40
540.11	25532.90
540.28	25357.36
540.44	25530.56
540.61	25193.53
540.78	25383.11
540.95	25565.67
541.12	25659.29
541.29	25467.37
541.46	25460.35
541.62	25287.15
541.79	25474.39
541.96	25429.92
542.13	25514.18
542.30	25418.22
542.47	25802.07
542.63	26022.08
542.80	25778.66
542.97	26071.23
543.14	26174.21
543.31	25968.24
543.48	26199.96
543.64	26438.69
543.81	26382.52
543.98	26363.79
544.15	25912.07
544.32	26445.71
544.48	26600.19
544.65	26429.33
544.82	26075.91
544.99	26321.66
545.16	26171.87
545.32	26415.29
545.49	26721.90
545.66	26551.04
545.83	26665.72
546.00	26588.49
546.16	26251.45
546.33	26223.36
546.50	26197.62
546.67	26745.30
546.83	26244.43
547.00	26625.93
547.17	26941.91
547.34	26499.55
547.50	27030.85
547.67	27463.85
547.84	26745.30
548.00	26955.95
548.17	27009.78
548.34	26679.77
548.51	26953.61
548.67	27026.17
548.84	27080.00
549.01	26948.93
549.18	26742.96
549.34	26958.29
549.51	27552.79
549.68	26745.30
549.84	26733.60
550.01	26958.29
550.18	26759.34
550.34	27168.94
550.51	27267.24
550.68	27358.52
550.84	27283.62
551.01	27061.27
551.18	26895.10
551.34	27419.38
551.51	27337.46
551.68	27122.13
551.84	27552.79
552.01	27414.69
552.18	27782.16
552.34	27510.66
552.51	27803.22
552.68	27222.77
552.84	27730.67
553.01	27428.74
553.18	27152.55
553.34	27571.51
553.51	27765.78
553.67	27929.61
553.84	28123.88
554.01	27880.46
554.17	27470.87
554.34	27777.48
554.51	27510.66
554.67	27700.24
554.84	27859.40
555.00	27775.14
555.17	27779.82
555.33	27828.97
555.50	27662.79
555.67	27733.01
555.83	27482.57
556.00	27894.50
556.16	28109.83
556.33	28173.03
556.50	27880.46
556.66	28116.86
556.83	28210.48
556.99	28521.77
557.16	28261.97
557.32	28498.36
557.49	28107.49
557.65	28046.64
557.82	28208.14
557.98	28056.00
558.15	28306.44
558.32	28123.88
558.48	28444.53
558.65	28652.84
558.81	27988.13
558.98	28133.24
559.14	28100.47
559.31	28301.76
559.47	28591.98
559.64	28446.87
559.80	28556.88
559.97	28538.15
560.13	28683.27
560.30	28320.48
560.46	28549.85
560.63	28624.75
560.79	28531.13
560.96	28379.00
561.12	28357.93
561.29	28222.18
561.45	28556.88
561.61	28657.52
561.78	28390.70
561.94	28718.37
562.11	28704.33
562.27	28922.00
562.44	28435.17
562.60	28861.15
562.77	28858.81
562.93	28386.02
563.10	28542.83
563.26	28800.29
563.42	28725.39
563.59	29151.37
563.75	28755.82
563.92	28889.23
564.08	28755.82
564.24	28601.35
564.41	28582.62
564.57	28369.63
564.74	28662.20
564.90	29069.45
565.07	29064.77
565.23	28720.71
565.39	28596.67
565.56	29048.39
565.72	28713.69
565.88	28842.42
566.05	28776.89
566.21	28807.31
566.38	29046.05
566.54	28760.50
566.70	29149.03
566.87	29062.43
567.03	29340.96
567.19	29429.90
567.36	29149.03
567.52	28945.41
567.68	29298.83
567.85	28723.05
568.01	29181.80
568.17	29219.25
568.34	29319.89
568.50	28987.53
568.66	29046.05
568.83	29165.42
568.99	29013.28
569.15	29230.95
569.32	28938.38
569.48	29172.44
569.64	29268.40
569.81	29123.29
569.97	28975.83
570.13	29434.58
570.30	29380.74
570.46	29277.76
570.62	29425.22
570.78	29195.84
570.95	29167.76
571.11	29523.52
571.27	29277.76
571.43	29085.84
571.60	29039.03
571.76	29394.79
571.92	28779.23
572.09	29544.58
572.25	29479.05
572.41	29359.68
572.57	29226.27
572.74	29134.99
572.90	29078.82
573.06	29149.03
573.22	29130.31
573.38	28957.11
573.55	29493.09
573.71	29610.12
573.87	29567.99
574.03	29493.09
574.20	29319.89
574.36	29249.67
574.52	29443.94
574.68	29062.43
574.84	29352.66
575.01	29282.44
575.17	29434.58
575.33	29748.21
575.49	29352.66
575.65	29336.27
575.82	29518.84
575.98	29067.11
576.14	29001.58
576.30	29415.85
576.46	29324.57
576.62	29474.37
576.79	29186.48
576.95	29413.51
577.11	29528.20
577.27	29670.97
577.43	29720.12
577.59	29612.46
577.75	29429.90
577.92	29469.69
578.08	29244.99
578.24	29149.03
578.40	29312.87
578.56	29692.04
578.72	29516.50
578.88	30089.93
579.04	29577.35
579.21	29642.88
579.37	29479.05
579.53	29429.90
579.69	29336.27
579.85	29291.80
580.01	29970.56
580.17	29301.17
580.33	29612.46
580.49	29848.85
580.65	29687.36
580.82	29600.76
580.98	29876.94
581.14	29493.09
581.30	29603.10
581.46	29329.25
581.62	29614.80
581.78	29102.22
581.94	29825.45
582.10	29572.67
582.26	29310.53
582.42	29848.85
582.58	29556.28
582.74	29488.41
582.90	29759.91
583.06	29563.31
583.22	29537.56
583.38	29542.24
583.54	29556.28
583.70	29635.86
583.86	29638.20
584.02	29443.94
584.18	29851.19
584.34	29942.47
584.50	29802.04
584.66	29701.40
584.82	29806.72
584.98	29434.58
585.14	29631.18
585.30	29212.23
585.46	29495.43
585.62	29553.94
585.78	29467.34
585.94	29188.82
586.10	29315.21
586.26	29975.24
586.42	29944.81
586.58	29708.42
586.74	29614.80
586.90	29340.96
587.06	29652.25
587.22	29593.73
587.38	29600.76
587.54	29958.86
587.70	29516.50
587.86	29895.66
588.02	29905.02
588.18	29776.30
588.34	30272.49
588.49	30033.75
588.65	29825.45
588.81	29862.90
588.97	29598.41
589.13	29823.11
589.29	29619.48
589.45	29844.17
589.61	30040.78
589.77	30103.97
589.93	30071.20
590.08	29788.00
590.24	30061.84
590.40	29790.34
590.56	30162.48
590.72	29607.78
590.88	29893.32
591.04	29874.60
591.20	30139.08
591.35	29947.15
591.51	30354.41
591.67	30377.81
591.83	30391.86
591.99	30246.74
