SpectraSuite Data File
++++++++++++++++++++++++++++++++++++
Date: Fri Oct 18 13:58:24 GMT-05:00 2013
User: bianchi
Dark Spectrum Present: No
Reference Spectrum Present: No
Number of Sampled Component Spectra: 1
Spectrometers: USB2+H05261
Integration Time (usec): 50000 (USB2+H05261)
Spectra Averaged: 1 (USB2+H05261)
Boxcar Smoothing: 0 (USB2+H05261)
Correct for Electrical Dark: No (USB2+H05261)
Strobe/Lamp Enabled: No (USB2+H05261)
Correct for Detector Non-linearity: No (USB2+H05261)
Correct for Stray Light: No (USB2+H05261)
Number of Pixels in Processed Spectrum: 2048
>>>>>Begin Processed Spectral Data<<<<<
365.73	0.00
365.92	0.00
366.12	0.00
366.32	0.00
366.52	0.00
366.72	0.00
366.91	0.00
367.11	0.00
367.31	0.00
367.51	0.00
367.70	0.00
367.90	0.00
368.10	0.00
368.30	0.00
368.49	0.00
368.69	0.00
368.89	0.00
369.09	0.00
369.28	0.00
369.48	0.00
369.68	0.00
369.87	0.00
370.07	0.00
370.27	0.00
370.47	0.00
370.66	58.51
370.86	107.66
371.06	112.35
371.25	189.58
371.45	42.13
371.65	159.16
371.84	135.75
372.04	177.88
372.24	112.35
372.44	177.88
372.63	255.12
372.83	271.50
373.03	191.92
373.22	147.45
373.42	138.09
373.62	196.60
373.81	262.14
374.01	229.37
374.21	243.42
374.40	182.56
374.60	241.08
374.79	283.20
374.99	337.04
375.19	238.73
375.38	285.55
375.58	273.84
375.78	187.24
375.97	315.97
376.17	273.84
376.37	259.80
376.56	208.31
376.76	234.05
376.95	259.80
377.15	315.97
377.35	269.16
377.54	252.78
377.74	252.78
377.93	292.57
378.13	283.20
378.33	208.31
378.52	266.82
378.72	280.86
378.91	313.63
379.11	320.65
379.31	325.33
379.50	306.61
379.70	351.08
379.89	327.68
380.09	299.59
380.28	315.97
380.48	376.83
380.68	278.52
380.87	299.59
381.07	304.27
381.26	245.76
381.46	224.69
381.65	297.25
381.85	297.25
382.04	292.57
382.24	327.68
382.43	376.83
382.63	353.42
382.83	346.40
383.02	299.59
383.22	346.40
383.41	404.91
383.61	372.15
383.80	430.66
384.00	404.91
384.19	376.83
384.39	362.78
384.58	348.74
384.78	390.87
384.97	355.76
385.17	397.89
385.36	351.08
385.56	264.48
385.75	334.70
385.95	433.00
386.14	416.62
386.34	390.87
386.53	411.93
386.72	374.49
386.92	444.70
387.11	390.87
387.31	435.34
387.50	402.57
387.70	500.87
387.89	425.98
388.09	437.68
388.28	493.85
388.48	428.32
388.67	444.70
388.86	526.62
389.06	433.00
389.25	503.22
389.45	477.47
389.64	465.77
389.84	475.13
390.03	468.11
390.22	404.91
390.42	435.34
390.61	557.05
390.81	510.24
391.00	496.19
391.19	517.26
391.39	550.03
391.58	505.56
391.78	510.24
391.97	491.51
392.16	521.94
392.36	575.77
392.55	526.62
392.75	521.94
392.94	594.50
393.13	526.62
393.33	592.16
393.52	587.47
393.71	589.82
393.91	594.50
394.10	550.03
394.29	681.10
394.49	641.31
394.68	688.12
394.88	599.18
395.07	620.24
395.26	585.13
395.46	648.33
395.65	650.67
395.84	601.52
396.04	655.35
396.23	681.10
396.42	622.58
396.62	739.61
396.81	648.33
397.00	674.07
397.19	683.44
397.39	580.45
397.58	627.26
397.77	578.11
397.97	587.47
398.16	655.35
398.35	734.93
398.55	678.76
398.74	683.44
398.93	653.01
399.12	786.42
399.32	683.44
399.51	685.78
399.70	770.04
399.90	746.63
400.09	777.06
400.28	755.99
400.47	844.93
400.67	753.65
400.86	807.48
401.05	877.70
401.24	823.87
401.44	758.33
401.63	772.38
401.82	870.68
402.01	849.61
402.21	816.85
402.40	844.93
402.59	849.61
402.78	830.89
402.97	903.45
403.17	849.61
403.36	856.64
403.55	896.43
403.74	898.77
403.93	994.73
404.13	1006.43
404.32	945.58
404.51	947.92
404.70	959.62
404.89	880.04
405.09	1064.94
405.28	957.28
405.47	903.45
405.66	980.68
405.85	957.28
406.05	971.32
406.24	1018.13
406.43	1020.47
406.62	1039.20
406.81	1093.03
407.00	1001.75
407.20	980.68
407.39	999.41
407.58	1050.90
407.77	1104.73
407.96	1102.39
408.15	1107.07
408.34	1149.20
408.54	1053.24
408.73	1020.47
408.92	1184.31
409.11	1188.99
409.30	1107.07
409.49	1144.52
409.68	1111.75
409.87	1226.44
410.07	1086.01
410.26	1254.53
410.45	1177.29
410.64	1163.25
410.83	1123.46
411.02	1217.08
411.21	1205.38
411.40	1266.23
411.59	1210.06
411.78	1219.42
411.98	1259.21
412.17	1270.91
412.36	1296.66
412.55	1341.13
412.74	1291.98
412.93	1406.66
413.12	1345.81
413.31	1406.66
413.50	1310.70
413.69	1430.07
413.88	1547.09
414.07	1359.85
414.26	1425.39
414.45	1514.33
414.64	1387.94
414.83	1474.54
415.02	1472.20
415.22	1507.30
415.41	1511.99
415.60	1654.76
415.79	1556.46
415.98	1659.44
416.17	1621.99
416.36	1654.76
416.55	1556.46
416.74	1617.31
416.93	1584.54
417.12	1652.42
417.31	1671.14
417.50	1708.59
417.69	1776.47
417.88	1713.27
418.07	1643.06
418.26	1710.93
418.45	1785.83
418.64	1813.92
418.83	1860.73
419.02	1842.00
419.21	1813.92
419.39	1856.04
419.58	1769.44
419.77	1757.74
419.96	1888.81
420.15	1914.56
420.34	1837.32
420.53	1930.94
420.72	1825.62
420.91	1984.77
421.10	1991.80
421.29	1863.07
421.48	1870.09
421.67	1933.28
421.86	1856.04
422.05	1933.28
422.24	2036.27
422.43	2029.24
422.61	2022.22
422.80	2054.99
422.99	2036.27
423.18	2038.61
423.37	2062.01
423.56	1994.14
423.75	1980.09
423.94	1991.80
424.13	1853.70
424.32	1942.64
424.50	2047.97
424.69	2062.01
424.88	2050.31
425.07	1994.14
425.26	1963.71
425.45	2033.93
425.64	1991.80
425.83	1980.09
426.01	2134.57
426.20	2127.55
426.39	2146.27
426.58	2076.06
426.77	2146.27
426.96	2200.10
427.15	2064.35
427.33	2270.32
427.52	2195.42
427.71	2148.61
427.90	2094.78
428.09	2221.17
428.28	2207.13
428.46	2267.98
428.65	2211.81
428.84	2228.19
429.03	2366.28
429.22	2188.40
429.40	2174.36
429.59	2282.02
429.78	2204.78
429.97	2265.64
430.16	2265.64
430.34	2239.89
430.53	2394.37
430.72	2387.35
430.91	2237.55
431.10	2228.19
431.28	2368.62
431.47	2326.49
431.66	2394.37
431.85	2434.16
432.03	2462.24
432.22	2523.10
432.41	2373.30
432.60	2511.39
432.79	2420.11
432.97	2431.82
433.16	2431.82
433.35	2483.31
433.54	2532.46
433.72	2628.42
433.91	2551.18
434.10	2511.39
434.28	2480.97
434.47	2633.10
434.66	2518.42
434.85	2579.27
435.03	2679.91
435.22	2626.08
435.41	2679.91
435.59	2614.38
435.78	2612.04
435.97	2637.78
436.16	2724.38
436.34	2689.28
436.53	2712.68
436.72	2818.00
436.90	2649.49
437.09	2782.90
437.28	2602.68
437.46	2672.89
437.65	2803.96
437.84	2724.38
438.02	2869.50
438.21	2771.19
438.40	2892.90
438.58	2935.03
438.77	3028.65
438.96	2846.09
439.14	2939.71
439.33	3002.91
439.52	3002.91
439.70	2974.82
439.89	3080.14
440.08	2998.23
440.26	3023.97
440.45	3045.04
440.63	3014.61
440.82	3080.14
441.01	3246.32
441.19	3180.79
441.38	3325.90
441.57	3229.94
441.75	3220.58
441.94	3276.75
442.12	3276.75
442.31	3337.60
442.50	3255.69
442.68	3351.65
442.87	3332.92
443.05	3428.88
443.24	3419.52
443.43	3421.86
443.61	3297.81
443.80	3438.25
443.98	3379.73
444.17	3290.79
444.35	3396.12
444.54	3419.52
444.73	3447.61
444.91	3517.83
445.10	3412.50
445.28	3435.91
445.47	3405.48
445.65	3478.04
445.84	3482.72
446.02	3480.38
446.21	3522.51
446.39	3506.12
446.58	3489.74
446.77	3557.61
446.95	3548.25
447.14	3583.36
447.32	3510.80
447.51	3501.44
447.69	3410.16
447.88	3471.01
448.06	3566.98
448.25	3391.44
448.43	3555.27
448.62	3592.72
448.80	3646.55
448.99	3501.44
449.17	3471.01
449.36	3571.66
449.54	3716.77
449.73	3749.54
449.91	3765.92
450.10	3632.51
450.28	3681.66
450.46	3719.11
450.65	3737.84
450.83	3733.15
451.02	3868.91
451.20	3847.84
451.39	3892.31
451.57	3777.62
451.76	3763.58
451.94	3878.27
452.13	3838.48
452.31	3815.07
452.49	3726.13
452.68	3826.78
452.86	3808.05
453.05	3805.71
453.23	3892.31
453.42	3943.80
453.60	3761.24
453.78	3922.74
453.97	3887.63
454.15	3929.76
454.34	3985.93
454.52	3995.29
454.70	3981.25
454.89	3934.44
455.07	3906.35
455.26	4088.92
455.44	4180.20
455.62	4088.92
455.81	4198.92
455.99	4035.08
456.17	4208.28
456.36	4025.72
456.54	4114.66
456.73	4173.18
456.91	4318.29
457.09	4334.67
457.28	4372.12
457.46	4318.29
457.64	4383.82
457.83	4421.27
458.01	4369.78
458.19	4432.97
458.38	4252.75
458.56	4308.93
458.74	4362.76
458.93	4346.37
459.11	4437.66
459.29	4449.36
459.48	4421.27
459.66	4489.15
459.84	4535.96
460.03	4690.43
460.21	4535.96
460.39	4503.19
460.57	4517.23
460.76	4580.43
460.94	4669.37
461.12	4573.41
461.31	4594.47
461.49	4650.64
461.67	4587.45
461.85	4596.81
462.04	4636.60
462.22	4842.57
462.40	4716.18
462.59	4819.16
462.77	4751.29
462.95	4786.40
463.13	4699.80
463.32	4753.63
463.50	4870.65
463.68	4777.03
463.86	4964.28
464.05	4805.12
464.23	4880.02
464.41	4917.47
464.59	4842.57
464.78	5006.41
464.96	4936.19
465.14	4863.63
465.32	5018.11
465.50	4947.89
465.69	5118.75
465.87	4891.72
466.05	5057.90
466.23	5060.24
466.41	4964.28
466.60	5107.05
466.78	5114.07
466.96	5181.95
467.14	5055.56
467.32	5125.77
467.51	5221.74
467.69	5060.24
467.87	5132.79
468.05	5191.31
468.23	5308.34
468.41	5102.37
468.60	5156.20
468.78	5231.10
468.96	5200.67
469.14	5207.69
469.32	5521.32
469.50	5287.27
469.69	5268.55
469.87	5294.29
470.05	5476.85
470.23	5439.40
470.41	5305.99
470.59	5626.65
470.77	5446.43
470.95	5612.60
471.14	5734.31
471.32	5638.35
471.50	5692.18
471.68	5526.00
471.86	5518.98
472.04	5767.08
472.22	5738.99
472.40	5598.56
472.58	5692.18
472.77	5734.31
472.95	5898.15
473.13	5966.03
473.31	5919.21
473.49	5863.04
473.67	5825.59
473.85	6040.92
474.03	6127.52
474.21	5879.43
474.39	6120.50
474.57	6012.84
474.75	6146.25
474.93	6148.59
475.12	6267.95
475.30	6230.51
475.48	6296.04
475.66	6230.51
475.84	6436.47
476.02	6342.85
476.20	6424.77
476.38	6539.46
476.56	6523.07
476.74	6551.16
476.92	6506.69
477.10	6626.06
477.28	6630.74
477.46	6759.47
477.64	6696.27
477.82	6916.28
478.00	7012.24
478.18	6970.12
478.36	7059.06
478.54	7166.72
478.72	7290.77
478.90	7309.49
479.08	7316.51
479.26	7475.67
479.44	7267.36
479.62	7550.57
479.80	7363.33
479.98	7265.02
480.16	7723.77
480.34	7665.25
480.52	7529.50
480.70	7712.07
480.88	7613.76
481.06	7583.34
481.24	7723.77
481.41	7960.16
481.59	7995.27
481.77	8119.32
481.95	8009.31
482.13	8065.49
482.31	8133.36
482.49	8423.59
482.67	8325.29
482.85	8428.27
483.03	8393.16
483.21	8468.06
483.39	8395.50
483.57	8571.04
483.74	8755.94
483.92	8964.25
484.10	8779.35
484.28	9008.72
484.46	9242.78
484.64	9130.43
484.82	9174.90
485.00	9067.24
485.18	9460.45
485.35	9504.92
485.53	9308.31
485.71	9514.28
485.89	9710.88
486.07	9521.30
486.25	9774.08
486.43	9652.37
486.61	9736.63
486.78	9954.30
486.96	9748.33
487.14	10087.71
487.32	10036.22
487.50	10242.18
487.68	10551.14
487.85	10466.88
488.03	10569.86
488.21	10642.42
488.39	10719.65
488.57	10558.16
488.75	10743.06
488.92	10937.32
489.10	10965.41
489.28	10993.50
489.46	11016.90
489.64	10906.90
489.81	11482.67
489.99	11503.73
490.17	11564.59
490.35	11585.65
490.53	11367.98
490.70	11815.02
490.88	11688.64
491.06	11920.35
491.24	11702.68
491.41	12109.93
491.59	12194.19
491.77	12086.53
491.95	12131.00
492.13	12257.39
492.30	12484.42
492.48	12409.52
492.66	12379.09
492.84	12404.84
493.01	12758.26
493.19	12711.45
493.37	12989.97
493.54	12674.00
493.72	12929.12
493.90	13078.91
494.08	13099.98
494.25	13085.94
494.43	13252.11
494.61	13467.44
494.79	13235.73
494.96	13504.89
495.14	13425.31
495.32	13507.23
495.49	13706.18
495.67	13642.98
495.85	13886.40
496.02	13846.61
496.20	14068.96
496.38	14085.34
496.55	13729.58
496.73	14143.86
496.91	14253.86
497.09	14157.90
497.26	14609.62
497.44	14244.50
497.62	14761.76
497.79	14665.80
497.97	14970.07
498.14	14871.76
498.32	15157.31
498.50	15035.60
498.67	14958.36
498.85	14925.60
499.03	15033.26
499.20	15042.62
499.38	15213.48
499.56	15323.49
499.73	15407.75
499.91	15662.86
500.08	15606.69
500.26	15112.84
500.44	15169.01
500.61	15700.31
500.79	15592.65
500.97	15866.49
501.14	15988.20
501.32	15861.81
501.49	16107.57
501.67	15967.13
501.84	16173.10
502.02	15824.36
502.20	16032.67
502.37	16299.49
502.55	16460.99
502.72	16655.25
502.90	16063.10
503.07	16353.32
503.25	16545.25
503.43	16212.89
503.60	16657.59
503.78	16613.12
503.95	16861.22
504.13	16463.33
504.30	16805.05
504.48	16718.45
504.65	16875.26
504.83	16851.86
505.01	17174.85
505.18	16912.71
505.36	17240.39
505.53	17074.21
505.71	17294.22
505.88	17458.06
506.06	17118.68
506.23	17394.86
506.41	17249.75
506.58	17610.19
506.76	17350.39
506.93	17364.43
507.11	17561.04
507.28	17699.13
507.46	18022.12
507.63	17799.77
507.81	17736.58
507.98	17731.90
508.16	17914.46
508.33	18059.57
508.50	17998.72
508.68	18038.51
508.85	18298.31
509.03	18190.64
509.20	18281.92
509.38	18452.78
509.55	18490.23
509.73	18506.62
509.90	18544.06
510.08	18403.63
510.25	18675.13
510.42	18686.84
510.60	18787.48
510.77	18841.31
510.95	19075.37
511.12	18766.42
511.30	18761.73
511.47	18721.95
511.64	18785.14
511.82	19534.11
511.99	19248.57
512.17	19080.05
512.34	19138.56
512.51	19080.05
512.69	19445.17
512.86	19302.40
513.04	19784.55
513.21	19683.91
513.38	19772.85
513.56	19597.31
513.73	19445.17
513.90	19520.07
514.08	19421.77
514.25	19744.76
514.43	19929.66
514.60	19625.39
514.77	19955.41
514.95	20269.04
515.12	20259.68
515.29	19826.68
515.47	19868.81
515.64	20168.40
515.81	20142.65
515.99	20688.00
516.16	20599.05
516.33	20365.00
516.51	20435.22
516.68	20613.10
516.85	20449.26
517.03	20383.73
517.20	20741.83
517.37	20479.69
517.54	20936.09
517.72	20760.55
517.89	20718.42
518.06	20627.14
518.24	20737.15
518.41	20821.41
518.58	20896.30
518.75	21025.03
518.93	21317.60
519.10	20919.71
519.27	20912.69
519.45	21240.36
519.62	21406.54
519.79	21095.25
519.96	21326.96
520.14	21205.25
520.31	21465.05
520.48	21240.36
520.65	21628.89
520.83	21511.86
521.00	21429.94
521.17	21331.64
521.34	21600.80
521.52	21514.20
521.69	21759.96
521.86	21575.06
522.03	22082.95
522.20	22085.30
522.38	21855.92
522.55	22232.75
522.72	21853.58
522.89	22024.44
523.07	22321.69
523.24	22405.95
523.41	21958.91
523.58	21905.07
523.75	22394.25
523.92	22036.14
524.10	22429.35
524.27	22293.60
524.44	22497.23
524.61	22780.43
524.78	22462.12
524.96	22778.09
525.13	22445.74
525.30	22754.69
525.47	22700.86
525.64	22930.23
525.81	22848.31
525.98	23154.92
526.16	22831.93
526.33	23143.22
526.50	23222.80
526.67	22845.97
526.84	22780.43
527.01	23005.13
527.18	22939.59
527.36	23171.30
527.53	23328.12
527.70	23454.51
527.87	23297.69
528.04	23498.98
528.21	23318.76
528.38	23321.10
528.55	23473.23
528.72	23594.94
528.89	23454.51
529.07	23339.82
529.24	23372.59
529.41	23875.80
529.58	23763.46
529.75	23555.15
529.92	23569.19
530.09	23520.04
530.26	23931.98
530.43	23782.18
530.60	24133.26
530.77	23704.95
530.94	23620.69
531.11	23990.49
531.28	24027.94
531.46	23707.29
531.63	23988.15
531.80	24116.88
531.97	24313.48
532.14	24353.27
532.31	24360.30
532.48	24421.15
532.65	24519.45
532.82	24283.06
532.99	24011.56
533.16	24254.97
533.33	24463.28
533.50	24388.38
533.67	24657.54
533.84	24692.65
534.01	24360.30
534.18	24463.28
534.35	24659.88
534.52	24482.00
534.69	24568.60
534.86	24767.55
535.03	24641.16
535.20	24917.34
535.37	24702.01
535.54	24980.54
535.71	24844.79
535.88	25083.52
536.05	24795.64
536.22	25036.71
536.38	25336.30
536.55	24950.11
536.72	25483.75
536.89	25242.68
537.06	25158.42
537.23	25202.89
537.40	25179.48
537.57	25062.46
537.74	25359.70
537.91	25619.50
538.08	25287.15
538.25	25149.06
538.42	25535.24
538.59	25362.04
538.75	25385.45
538.92	25872.28
539.09	25406.52
539.26	25518.86
539.43	25357.36
539.60	25624.18
539.77	25504.82
539.94	25603.12
540.11	25675.68
540.28	25598.44
540.44	25708.44
540.61	25895.69
540.78	25673.34
540.95	26043.14
541.12	25905.05
541.29	25874.62
541.46	26054.84
541.62	26092.29
541.79	26078.25
541.96	25645.25
542.13	26022.08
542.30	26113.36
542.47	26075.91
542.63	26522.95
542.80	26230.38
542.97	26820.20
543.14	26890.41
543.31	26300.60
543.48	26813.18
543.64	27108.08
543.81	26684.45
543.98	26927.86
544.15	26815.52
544.32	26895.10
544.48	27049.57
544.65	26792.11
544.82	26728.92
544.99	26604.87
545.16	26600.19
545.32	26513.59
545.49	27136.17
545.66	27117.45
545.83	26843.60
546.00	26838.92
546.16	26888.07
546.33	26499.55
546.50	26878.71
546.67	26920.84
546.83	26483.16
547.00	27007.44
547.17	27267.24
547.34	27016.80
547.50	27068.30
547.67	27489.59
547.84	27466.19
548.00	27597.26
548.17	27693.22
548.34	27365.54
548.51	27405.33
548.67	27484.91
548.84	27225.11
549.01	27601.94
549.18	27255.54
549.34	27452.14
549.51	27606.62
549.68	27618.32
549.84	27505.98
550.01	27557.47
550.18	27606.62
550.34	27527.04
550.51	27669.81
550.68	28081.75
550.84	27513.00
551.01	27784.50
551.18	27557.47
551.34	27438.10
551.51	27672.15
551.68	27859.40
551.84	27768.12
552.01	27700.24
552.18	28142.60
552.34	27852.38
552.51	28107.49
552.68	27946.00
552.84	27999.83
553.01	27964.72
553.18	27943.66
553.34	27941.32
553.51	28030.26
553.67	28575.60
553.84	28540.49
554.01	28554.54
554.17	28304.10
554.34	28121.54
554.51	28025.57
554.67	28308.78
554.84	28346.23
555.00	28098.13
555.17	28201.11
555.33	28327.50
555.50	27857.06
555.67	28240.90
555.83	28360.27
556.00	28334.53
556.16	28545.17
556.33	28299.42
556.50	28388.36
556.66	29324.57
556.83	28142.60
556.99	28755.82
557.16	28989.88
557.32	28549.85
557.49	28978.17
557.65	27976.42
557.82	28334.53
557.98	28690.29
558.15	28451.55
558.32	28678.58
558.48	28629.43
558.65	28645.82
558.81	29193.50
558.98	28807.31
559.14	28797.95
559.31	28760.50
559.47	28772.21
559.64	28589.64
559.80	28734.76
559.97	28872.85
560.13	29006.26
560.30	29111.58
560.46	29188.82
560.63	28891.57
560.79	28552.20
560.96	29062.43
561.12	28933.70
561.29	28966.47
561.45	28884.55
561.61	28865.83
561.78	28952.43
561.94	28954.77
562.11	29301.17
562.27	28898.59
562.44	28734.76
562.60	28992.22
562.77	29261.38
562.93	28987.53
563.10	29549.26
563.26	29340.96
563.42	29514.16
563.59	29057.75
563.75	29687.36
563.92	29174.78
564.08	29172.44
564.24	29008.60
564.41	29256.70
564.57	29156.05
564.74	29167.76
564.90	29626.50
565.07	29685.01
565.23	29350.32
565.39	29221.59
565.56	29528.20
565.72	29390.11
565.88	29247.33
566.05	29305.85
566.21	29511.81
566.38	29284.78
566.54	29277.76
566.70	29528.20
566.87	29844.17
567.03	29465.00
567.19	30197.59
567.36	29347.98
567.52	29235.63
567.68	29799.70
567.85	29340.96
568.01	29333.93
568.17	29083.50
568.34	29682.67
568.50	29696.72
568.66	29593.73
568.83	29799.70
568.99	29497.77
569.15	29879.28
569.32	29546.92
569.48	29310.53
569.64	29685.01
569.81	29694.38
569.97	29837.15
570.13	29607.78
570.30	29553.94
570.46	29720.12
570.62	29685.01
570.78	29427.56
570.95	29551.60
571.11	29710.76
571.27	29411.17
571.43	29254.36
571.60	30019.71
571.76	29558.63
571.92	29839.49
572.09	30029.07
572.25	30115.67
572.41	29649.91
572.57	29720.12
572.74	29755.23
572.90	29799.70
573.06	29900.34
573.22	29717.78
573.38	29839.49
573.55	29745.87
573.71	30391.86
573.87	30101.63
574.03	29900.34
574.20	29785.66
574.36	29813.74
574.52	29776.30
574.68	30033.75
574.84	30118.01
575.01	30132.06
575.17	29773.95
575.33	29696.72
575.49	29811.40
575.65	30080.56
575.82	30143.76
575.98	30125.04
576.14	29790.34
576.30	29523.52
576.46	29518.84
576.62	29926.09
576.79	29823.11
576.95	29909.71
577.11	30087.59
577.27	30408.24
577.43	30127.38
577.59	30038.44
577.75	29942.47
577.92	29909.71
578.08	29741.19
578.24	30132.06
578.40	29809.06
578.56	30036.09
578.72	30068.86
578.88	30176.53
579.04	30132.06
579.21	29509.47
579.37	29785.66
579.53	30361.43
579.69	29764.59
579.85	29844.17
580.01	29820.77
580.17	30064.18
580.33	30033.75
580.49	30064.18
580.65	30213.98
580.82	30323.98
580.98	30256.11
581.14	30059.50
581.30	30033.75
581.46	30213.98
581.62	29846.51
581.78	29677.99
581.94	30188.23
582.10	29860.55
582.26	29968.22
582.42	30188.23
582.58	30328.66
582.74	29778.64
582.90	30206.95
583.06	30230.36
583.22	30438.67
583.38	30176.53
583.54	30066.52
583.70	29993.97
583.86	30441.01
584.02	30075.88
584.18	30239.72
584.34	30543.99
584.50	30178.87
584.66	30110.99
584.82	30258.45
584.98	30087.59
585.14	30373.13
585.30	30326.32
585.46	30080.56
585.62	29748.21
585.78	30129.72
585.94	30132.06
586.10	30274.83
586.26	30251.42
586.42	30438.67
586.58	30419.94
586.74	30213.98
586.90	30099.29
587.06	29806.72
587.22	29893.32
587.38	30267.81
587.54	30480.80
587.70	30295.89
587.86	30623.57
588.02	30244.40
588.18	30532.29
588.34	30352.07
588.49	30377.81
588.65	30115.67
588.81	30174.19
588.97	30213.98
589.13	30061.84
589.29	30206.95
589.45	30391.86
589.61	30677.40
589.77	30775.70
589.93	30759.32
590.08	30756.98
590.24	30595.48
590.40	30616.55
590.56	30602.50
590.72	30424.62
590.88	30389.52
591.04	30258.45
591.20	30487.82
591.35	31016.78
591.51	30895.07
591.67	31033.16
591.83	30721.87
591.99	30295.89
