SpectraSuite Data File
++++++++++++++++++++++++++++++++++++
Date: Fri Oct 18 13:58:08 GMT-05:00 2013
User: bianchi
Dark Spectrum Present: No
Reference Spectrum Present: No
Number of Sampled Component Spectra: 1
Spectrometers: USB2+H05261
Integration Time (usec): 50000 (USB2+H05261)
Spectra Averaged: 1 (USB2+H05261)
Boxcar Smoothing: 0 (USB2+H05261)
Correct for Electrical Dark: No (USB2+H05261)
Strobe/Lamp Enabled: No (USB2+H05261)
Correct for Detector Non-linearity: No (USB2+H05261)
Correct for Stray Light: No (USB2+H05261)
Number of Pixels in Processed Spectrum: 2048
>>>>>Begin Processed Spectral Data<<<<<
365.73	0.00
365.92	0.00
366.12	0.00
366.32	0.00
366.52	0.00
366.72	0.00
366.91	0.00
367.11	0.00
367.31	0.00
367.51	0.00
367.70	0.00
367.90	0.00
368.10	0.00
368.30	0.00
368.49	0.00
368.69	0.00
368.89	0.00
369.09	0.00
369.28	0.00
369.48	0.00
369.68	0.00
369.87	0.00
370.07	0.00
370.27	0.00
370.47	0.00
370.66	46.81
370.86	107.66
371.06	138.09
371.25	128.73
371.45	42.13
371.65	131.07
371.84	84.26
372.04	173.20
372.24	126.39
372.44	194.26
372.63	187.24
372.83	231.71
373.03	124.05
373.22	154.48
373.42	198.95
373.62	163.84
373.81	208.31
374.01	315.97
374.21	231.71
374.40	241.08
374.60	297.25
374.79	229.37
374.99	243.42
375.19	238.73
375.38	182.56
375.58	241.08
375.78	271.50
375.97	299.59
376.17	294.91
376.37	229.37
376.56	297.25
376.76	236.39
376.95	245.76
377.15	231.71
377.35	220.01
377.54	287.89
377.74	210.65
377.93	290.23
378.13	250.44
378.33	255.12
378.52	269.16
378.72	367.46
378.91	271.50
379.11	257.46
379.31	234.05
379.50	292.57
379.70	341.72
379.89	276.18
380.09	297.25
380.28	334.70
380.48	264.48
380.68	266.82
380.87	252.78
381.07	322.99
381.26	367.46
381.46	330.02
381.65	304.27
381.85	362.78
382.04	306.61
382.24	292.57
382.43	322.99
382.63	287.89
382.83	388.53
383.02	430.66
383.22	351.08
383.41	358.10
383.61	376.83
383.80	374.49
384.00	428.32
384.19	344.06
384.39	379.17
384.58	320.65
384.78	337.04
384.97	381.51
385.17	304.27
385.36	430.66
385.56	367.46
385.75	379.17
385.95	493.85
386.14	416.62
386.34	372.15
386.53	374.49
386.72	465.77
386.92	348.74
387.11	388.53
387.31	400.23
387.50	475.13
387.70	393.21
387.89	458.74
388.09	449.38
388.28	440.02
388.48	416.62
388.67	418.96
388.86	468.11
389.06	472.79
389.25	496.19
389.45	519.60
389.64	472.79
389.84	503.22
390.03	535.98
390.22	547.69
390.42	428.32
390.61	512.58
390.81	526.62
391.00	559.39
391.19	547.69
391.39	580.45
391.58	533.64
391.78	547.69
391.97	503.22
392.16	547.69
392.36	627.26
392.55	545.34
392.75	564.07
392.94	547.69
393.13	582.79
393.33	629.60
393.52	550.03
393.71	573.43
393.91	631.94
394.10	531.30
394.29	550.03
394.49	582.79
394.68	585.13
394.88	634.29
395.07	554.71
395.26	554.71
395.46	566.41
395.65	594.50
395.84	596.84
396.04	709.18
396.23	671.73
396.42	571.09
396.62	695.14
396.81	685.78
397.00	662.37
397.19	601.52
397.39	655.35
397.58	660.03
397.77	688.12
397.97	620.24
398.16	667.05
398.35	772.38
398.55	685.78
398.74	718.54
398.93	737.27
399.12	765.36
399.32	681.10
399.51	765.36
399.70	767.70
399.90	636.63
400.09	788.76
400.28	739.61
400.47	753.65
400.67	751.31
400.86	812.17
401.05	812.17
401.24	877.70
401.44	840.25
401.63	823.87
401.82	844.93
402.01	842.59
402.21	765.36
402.40	835.57
402.59	800.46
402.78	840.25
402.97	863.66
403.17	798.12
403.36	821.53
403.55	854.30
403.74	814.51
403.93	880.04
404.13	968.98
404.32	931.53
404.51	945.58
404.70	884.72
404.89	882.38
405.09	938.55
405.28	1034.52
405.47	973.66
405.66	912.81
405.85	980.68
406.05	1001.75
406.24	987.71
406.43	861.32
406.62	1034.52
406.81	1109.41
407.00	926.85
407.20	1036.86
407.39	1036.86
407.58	1048.56
407.77	1083.67
407.96	1060.26
408.15	1064.94
408.34	1048.56
408.54	1086.01
408.73	1025.15
408.92	1172.61
409.11	1109.41
409.30	1151.54
409.49	1149.20
409.68	1198.35
409.87	1076.65
410.07	1191.33
410.26	1149.20
410.45	1128.14
410.64	1165.59
410.83	1177.29
411.02	1284.95
411.21	1210.06
411.40	1252.19
411.59	1310.70
411.78	1294.32
411.98	1240.48
412.17	1263.89
412.36	1270.91
412.55	1399.64
412.74	1341.13
412.93	1362.19
413.12	1322.40
413.31	1366.87
413.50	1390.28
413.69	1418.36
413.88	1476.88
414.07	1394.96
414.26	1437.09
414.45	1500.28
414.64	1394.96
414.83	1483.90
415.02	1568.16
415.22	1540.07
415.41	1685.19
415.60	1556.46
415.79	1694.55
415.98	1577.52
416.17	1600.93
416.36	1657.10
416.55	1647.74
416.74	1764.76
416.93	1732.00
417.12	1689.87
417.31	1696.89
417.50	1650.08
417.69	1682.85
417.88	1851.36
418.07	1804.55
418.26	1675.82
418.45	1750.72
418.64	1844.34
418.83	1865.41
419.02	1739.02
419.21	1820.94
419.39	1760.08
419.58	1795.19
419.77	1891.15
419.96	1856.04
420.15	1930.94
420.34	1989.46
420.53	1872.43
420.72	1984.77
420.91	1912.22
421.10	1937.96
421.29	1989.46
421.48	1872.43
421.67	1947.33
421.86	1930.94
422.05	2045.63
422.24	2066.69
422.43	1966.05
422.61	1870.09
422.80	1998.82
422.99	2125.21
423.18	2054.99
423.37	1959.03
423.56	2101.80
423.75	2094.78
423.94	1961.37
424.13	1802.21
424.32	1888.81
424.50	2057.33
424.69	2076.06
424.88	2181.38
425.07	2043.29
425.26	1926.26
425.45	2174.36
425.64	2097.12
425.83	2064.35
426.01	2141.59
426.20	1940.30
426.39	2040.95
426.58	2136.91
426.77	2071.37
426.96	2097.12
427.15	2090.10
427.33	2115.84
427.52	2253.94
427.71	2221.17
427.90	2127.55
428.09	2267.98
428.28	2162.66
428.46	2183.72
428.65	2200.10
428.84	2218.83
429.03	2436.50
429.22	2265.64
429.40	2232.87
429.59	2204.78
429.78	2303.09
429.97	2209.47
430.16	2204.78
430.34	2312.45
430.53	2359.26
430.72	2427.14
430.91	2373.30
431.10	2289.04
431.28	2354.58
431.47	2448.20
431.66	2452.88
431.85	2286.70
432.03	2429.48
432.22	2492.67
432.41	2382.67
432.60	2408.41
432.79	2394.37
432.97	2438.84
433.16	2509.05
433.35	2473.95
433.54	2525.44
433.72	2448.20
433.91	2588.63
434.10	2506.71
434.28	2511.39
434.47	2565.23
434.66	2525.44
434.85	2630.76
435.03	2642.46
435.22	2597.99
435.41	2719.70
435.59	2595.65
435.78	2644.81
435.97	2668.21
436.16	2747.79
436.34	2693.96
436.53	2726.72
436.72	2836.73
436.90	2679.91
437.09	2628.42
437.28	2600.34
437.46	2771.19
437.65	2595.65
437.84	2726.72
438.02	2862.48
438.21	2766.51
438.40	2775.88
438.58	2953.76
438.77	2897.58
438.96	2895.24
439.14	2902.26
439.33	2967.80
439.52	3000.57
439.70	2890.56
439.89	2972.48
440.08	3038.02
440.26	3066.10
440.45	3075.46
440.63	3141.00
440.82	3098.87
441.01	3075.46
441.19	3225.26
441.38	3222.92
441.57	3316.54
441.75	3307.18
441.94	3358.67
442.12	3239.30
442.31	3346.97
442.50	3412.50
442.68	3358.67
442.87	3386.76
443.05	3485.06
443.24	3330.58
443.43	3538.89
443.61	3363.35
443.80	3529.53
443.98	3426.54
444.17	3220.58
444.35	3534.21
444.54	3527.19
444.73	3492.08
444.91	3503.78
445.10	3576.34
445.28	3480.38
445.47	3468.67
445.65	3417.18
445.84	3489.74
446.02	3522.51
446.21	3471.01
446.39	3414.84
446.58	3527.19
446.77	3597.40
446.95	3433.57
447.14	3559.95
447.32	3527.19
447.51	3536.55
447.69	3527.19
447.88	3662.94
448.06	3632.51
448.25	3571.66
448.43	3637.19
448.62	3609.11
448.80	3620.81
448.99	3702.73
449.17	3613.79
449.36	3548.25
449.54	3527.19
449.73	3829.12
449.91	3810.39
450.10	3784.65
450.28	3688.68
450.46	3789.33
450.65	3723.79
450.83	3922.74
451.02	3740.18
451.20	3779.97
451.39	3796.35
451.57	3686.34
451.76	3707.41
451.94	3669.96
452.13	3950.82
452.31	3889.97
452.49	3733.15
452.68	4002.32
452.86	3943.80
453.05	3936.78
453.23	3852.52
453.42	3971.89
453.60	4016.36
453.78	3889.97
453.97	3786.99
454.15	3925.08
454.34	3838.48
454.52	4177.86
454.70	4173.18
454.89	4021.04
455.07	4028.06
455.26	4098.28
455.44	4229.35
455.62	4219.99
455.81	4152.11
455.99	4149.77
456.17	4187.22
456.36	4229.35
456.54	4379.14
456.73	4212.96
456.91	4325.31
457.09	4297.22
457.28	4425.95
457.46	4189.56
457.64	4440.00
457.83	4360.42
458.01	4432.97
458.19	4554.68
458.38	4414.25
458.56	4610.86
458.74	4596.81
458.93	4381.48
459.11	4367.44
459.29	4388.50
459.48	4479.79
459.66	4521.92
459.84	4484.47
460.03	4634.26
460.21	4690.43
460.39	4596.81
460.57	4655.33
460.76	4575.75
460.94	4744.27
461.12	4695.11
461.31	4674.05
461.49	4547.66
461.67	4660.01
461.85	4667.03
462.04	4718.52
462.22	5102.37
462.40	4739.58
462.59	4786.40
462.77	4784.06
462.95	4891.72
463.13	4795.76
463.32	4898.74
463.50	4863.63
463.68	4889.38
463.86	4922.15
464.05	4971.30
464.23	4868.31
464.41	4990.02
464.59	4849.59
464.78	4933.85
464.96	5184.29
465.14	4933.85
465.32	5022.79
465.50	5097.69
465.69	4997.04
465.87	4830.87
466.05	4910.44
466.23	5076.62
466.41	5083.64
466.60	5259.18
466.78	5029.81
466.96	4940.87
467.14	5146.84
467.32	5160.88
467.51	5289.61
467.69	5116.41
467.87	5266.21
468.05	5310.68
468.23	5118.75
468.41	5118.75
468.60	5280.25
468.78	5483.88
468.96	5289.61
469.14	5268.55
469.32	5458.13
469.50	5217.05
469.69	5469.83
469.87	5544.73
470.05	5467.49
470.23	5462.81
470.41	5448.77
470.59	5526.00
470.77	5413.66
470.95	5502.60
471.14	5542.39
471.32	5432.38
471.50	5666.44
471.68	5577.50
471.86	5528.35
472.04	5643.03
472.22	5884.11
472.40	5582.18
472.58	5692.18
472.77	5870.06
472.95	5942.62
473.13	5902.83
473.31	5832.62
473.49	5902.83
473.67	5870.06
473.85	5944.96
474.03	6024.54
474.21	6036.24
474.39	6097.10
474.57	6033.90
474.75	6235.19
474.93	6274.98
475.12	6195.40
475.30	6143.91
475.48	6300.72
475.66	6207.10
475.84	6356.90
476.02	6506.69
476.20	6457.54
476.38	6602.65
476.56	6707.98
476.74	6516.05
476.92	6560.52
477.10	6661.16
477.28	6686.91
477.46	6789.89
477.64	6787.55
477.82	6817.98
478.00	7033.31
478.18	7138.63
478.36	6979.48
478.54	7115.23
478.72	7075.44
478.90	7215.87
479.08	7262.68
479.26	7208.85
479.44	7323.54
479.62	7445.24
479.80	7524.82
479.98	7468.65
480.16	7829.09
480.34	7562.27
480.52	7770.58
480.70	7777.60
480.88	7442.90
481.06	7796.32
481.24	7742.49
481.41	7932.08
481.59	7955.48
481.77	8018.68
481.95	8039.74
482.13	8126.34
482.31	8245.71
482.49	8442.31
482.67	8493.80
482.85	8327.63
483.03	8762.97
483.21	8636.58
483.39	8652.96
483.57	8664.66
483.74	8734.88
483.92	9048.51
484.10	8702.11
484.28	9053.19
484.46	8943.19
484.64	9256.82
484.82	9226.39
485.00	9263.84
485.18	9280.22
485.35	9589.17
485.53	9399.59
485.71	9586.83
485.89	9579.81
486.07	9675.77
486.25	9778.76
486.43	9699.18
486.61	9727.27
486.78	10043.24
486.96	10181.33
487.14	10202.40
487.32	10211.76
487.50	10157.92
487.68	10300.70
487.85	10523.05
488.03	10724.33
488.21	10752.42
488.39	10810.93
488.57	10839.02
488.75	10937.32
488.92	11140.95
489.10	11012.22
489.28	11199.46
489.46	11234.57
489.64	11183.08
489.81	11166.70
489.99	11229.89
490.17	11393.73
490.35	11555.22
490.53	11571.61
490.70	11735.45
490.88	11562.25
491.06	11810.34
491.24	11871.20
491.41	12133.34
491.59	12140.36
491.77	12224.62
491.95	12166.10
492.13	12107.59
492.30	12355.69
492.48	12491.44
492.66	12477.40
492.84	12505.48
493.01	12732.51
493.19	12606.13
493.37	12528.89
493.54	12910.40
493.72	12842.52
493.90	13055.51
494.08	13289.56
494.25	13268.50
494.43	13380.84
494.61	13696.82
494.79	13551.70
494.96	13813.84
495.14	13469.78
495.32	13729.58
495.49	13727.24
495.67	13610.22
495.85	13816.18
496.02	14031.51
496.20	14155.56
496.38	13951.93
496.55	14054.92
496.73	14487.92
496.91	14410.68
497.09	14387.27
497.26	14782.82
497.44	14492.60
497.62	14422.38
497.79	14860.06
497.97	14752.40
498.14	14906.87
498.32	14869.42
498.50	15164.33
498.67	15087.09
498.85	15037.94
499.03	15145.61
499.20	14899.85
499.38	15337.53
499.56	15400.72
499.73	15337.53
499.91	15609.03
500.08	15527.11
500.26	15396.04
500.44	15688.61
500.61	15737.76
500.79	15681.59
500.97	15901.60
501.14	16004.58
501.32	15894.58
501.49	15974.16
501.67	16060.76
501.84	15992.88
502.02	16023.31
502.20	16130.97
502.37	16269.06
502.55	16372.05
502.72	16170.76
502.90	16252.68
503.07	16372.05
503.25	16535.88
503.43	16383.75
503.60	16580.36
503.78	16889.31
503.95	16697.38
504.13	16496.10
504.30	16910.37
504.48	16868.24
504.65	17046.12
504.83	17179.53
505.01	17315.28
505.18	17130.38
505.36	17509.55
505.53	17149.11
505.71	17514.23
505.88	17331.67
506.06	17118.68
506.23	17343.37
506.41	17521.25
506.58	17657.00
506.76	17673.39
506.93	17544.66
507.11	17664.02
507.28	17699.13
507.46	17654.66
507.63	18209.37
507.81	18183.62
507.98	17869.99
508.16	17771.69
508.33	17781.05
508.50	18108.72
508.68	17919.14
508.85	18457.46
509.03	18553.43
509.20	18260.86
509.38	18642.37
509.55	18532.36
509.73	18530.02
509.90	18635.35
510.08	18401.29
510.25	18544.06
510.42	18902.17
510.60	18754.71
510.77	19101.11
510.95	18621.30
511.12	18916.21
511.30	18796.84
511.47	19159.63
511.64	18876.42
511.82	19173.67
511.99	19183.03
512.17	19393.68
512.34	19220.48
512.51	19236.86
512.69	19592.62
512.86	19524.75
513.04	19840.72
513.21	19592.62
513.38	19651.14
513.56	19571.56
513.73	19751.78
513.90	20091.16
514.08	19861.79
514.25	19953.07
514.43	19976.47
514.60	20191.80
514.77	19878.17
514.95	20025.62
515.12	19868.81
515.29	20126.27
515.47	20198.82
515.64	20465.64
515.81	20472.67
515.99	20472.67
516.16	20879.92
516.33	20613.10
516.51	20432.88
516.68	20498.41
516.85	20262.02
517.03	20439.90
517.20	20725.44
517.37	20727.78
517.54	21032.05
517.72	21001.63
517.89	20652.89
518.06	20833.11
518.24	20891.62
518.41	20992.26
518.58	20893.96
518.75	21006.31
518.93	21289.51
519.10	21235.68
519.27	21284.83
519.45	21151.42
519.62	21118.65
519.79	21177.17
519.96	21659.32
520.14	21671.02
520.31	21582.08
520.48	21776.34
520.65	21645.27
520.83	21858.26
521.00	21474.42
521.17	21687.40
521.34	21891.03
521.52	21944.86
521.69	22122.74
521.86	21797.41
522.03	22120.40
522.20	22160.19
522.38	21891.03
522.55	22235.09
522.72	22171.89
522.89	22511.27
523.07	22499.57
523.24	22335.73
523.41	22286.58
523.58	22176.58
523.75	22228.07
523.92	22501.91
524.10	22583.83
524.27	22441.06
524.44	22752.35
524.61	22679.79
524.78	22841.29
524.96	23042.57
525.13	22539.36
525.30	22789.80
525.47	23054.28
525.64	23190.03
525.81	23140.88
525.98	23150.24
526.16	23183.01
526.33	23506.00
526.50	23386.63
526.67	23208.75
526.84	23119.81
527.01	23391.31
527.18	23229.82
527.36	23468.55
527.53	23489.62
527.70	23838.36
527.87	23578.56
528.04	23468.55
528.21	23747.08
528.38	23241.52
528.55	23630.05
528.72	23875.80
528.89	23978.79
529.07	23723.67
529.24	23417.06
529.41	23716.65
529.58	23639.41
529.75	23775.16
529.92	23742.39
530.09	23707.29
530.26	23847.72
530.43	23983.47
530.60	23821.97
530.77	24189.44
530.94	24325.19
531.11	23922.62
531.28	23873.46
531.46	24231.57
531.63	24442.21
531.80	24463.28
531.97	24226.89
532.14	24603.71
532.31	24126.24
532.48	24182.42
532.65	24624.78
532.82	24510.09
532.99	24467.96
533.16	24606.05
533.33	24734.78
533.50	25015.65
533.67	24765.21
533.84	24659.88
534.01	24531.15
534.18	24814.36
534.35	25139.69
534.52	24762.87
534.69	25088.20
534.86	25067.14
535.03	24889.26
535.20	25301.19
535.37	25118.63
535.54	25095.22
535.71	24812.02
535.88	25289.49
536.05	25221.61
536.22	24893.94
536.38	25329.28
536.55	25362.04
536.72	25408.86
536.89	25392.47
537.06	25312.89
537.23	25671.00
537.40	25387.79
537.57	25612.48
537.74	25659.29
537.91	25420.56
538.08	25881.64
538.25	25706.10
538.42	25591.42
538.59	25710.78
538.75	25671.00
538.92	25514.18
539.09	25874.62
539.26	25825.47
539.43	26080.59
539.60	25972.92
539.77	25902.71
539.94	25755.26
540.11	25642.91
540.28	26223.36
540.44	25862.92
540.61	26047.82
540.78	25996.33
540.95	25844.20
541.12	25977.61
541.29	26153.15
541.46	26052.50
541.62	26349.75
541.79	26464.44
541.96	25905.05
542.13	26148.46
542.30	26101.65
542.47	26398.90
542.63	26260.81
542.80	26576.78
542.97	26909.14
543.14	26810.84
543.31	26539.33
543.48	26668.06
543.64	27056.59
543.81	26927.86
543.98	27110.43
544.15	26749.98
544.32	27091.70
544.48	27262.56
544.65	26728.92
544.82	26883.39
544.99	26813.18
545.16	27124.47
545.32	27110.43
545.49	27241.50
545.66	27346.82
545.83	27007.44
546.00	27152.55
546.16	27166.60
546.33	27304.69
546.50	27133.83
546.67	27482.57
546.83	26869.35
547.00	27030.85
547.17	27246.18
547.34	27234.47
547.50	27316.39
547.67	27381.93
547.84	27587.89
548.00	27351.50
548.17	27510.66
548.34	27585.55
548.51	27763.43
548.67	27552.79
548.84	27793.86
549.01	27714.28
549.18	27548.11
549.34	27604.28
549.51	27615.98
549.68	27662.79
549.84	27700.24
550.01	27782.16
550.18	27887.48
550.34	27725.99
550.51	27997.49
550.68	28304.10
550.84	27733.01
551.01	28219.84
551.18	27929.61
551.34	27838.33
551.51	27859.40
551.68	27824.29
551.84	28259.63
552.01	28121.54
552.18	28261.97
552.34	28065.36
552.51	27983.44
552.68	28147.28
552.84	28301.76
553.01	28266.65
553.18	28346.23
553.34	28100.47
553.51	28109.83
553.67	28449.21
553.84	28449.21
554.01	28713.69
554.17	28322.82
554.34	28421.13
554.51	28364.95
554.67	28472.62
554.84	28259.63
555.00	28109.83
555.17	28278.35
555.33	28727.74
555.50	28414.10
555.67	28657.52
555.83	28549.85
556.00	28697.31
556.16	28886.89
556.33	28669.22
556.50	28531.13
556.66	28854.12
556.83	28851.78
556.99	28964.13
557.16	29043.71
557.32	28790.93
557.49	28947.75
557.65	28924.34
557.82	29233.29
557.98	28575.60
558.15	28755.82
558.32	28971.15
558.48	28833.06
558.65	29027.32
558.81	28807.31
558.98	28959.45
559.14	28973.49
559.31	28900.94
559.47	29343.30
559.64	29240.31
559.80	29242.65
559.97	28865.83
560.13	29039.03
560.30	29170.10
560.46	29399.47
560.63	29010.94
560.79	29373.72
560.96	29298.83
561.12	28882.21
561.29	29163.08
561.45	29427.56
561.61	29294.14
561.78	29088.18
561.94	29366.70
562.11	29317.55
562.27	29560.97
562.44	29535.22
562.60	29441.60
562.77	29490.75
562.93	29305.85
563.10	29436.92
563.26	29460.32
563.42	29865.24
563.59	29156.05
563.75	29820.77
563.92	29582.03
564.08	29270.74
564.24	29373.72
564.41	29134.99
564.57	29764.59
564.74	29472.03
564.90	29322.23
565.07	29706.08
565.23	29825.45
565.39	29593.73
565.56	29914.39
565.72	29649.91
565.88	29542.24
566.05	29614.80
566.21	29394.79
566.38	29486.07
566.54	29530.54
566.70	30171.85
566.87	29902.68
567.03	30017.37
567.19	29591.39
567.36	29893.32
567.52	30071.20
567.68	29692.04
567.85	29638.20
568.01	29816.08
568.17	29696.72
568.34	29893.32
568.50	29771.61
568.66	29827.79
568.83	30291.21
568.99	30012.69
569.15	29687.36
569.32	29715.44
569.48	29841.83
569.64	29706.08
569.81	29996.31
569.97	30103.97
570.13	30033.75
570.30	29654.59
570.46	29846.51
570.62	29837.15
570.78	29979.92
570.95	30017.37
571.11	29935.45
571.27	29766.93
571.43	29708.42
571.60	30410.58
571.76	29788.00
571.92	29912.05
572.09	30071.20
572.25	29790.34
572.41	30195.25
572.57	30244.40
572.74	30405.90
572.90	30127.38
573.06	30024.39
573.22	29890.98
573.38	30417.60
573.55	29986.94
573.71	30677.40
573.87	30338.02
574.03	30356.75
574.20	30141.42
574.36	29839.49
574.52	30085.25
574.68	29947.15
574.84	30331.00
575.01	30047.80
575.17	30136.74
575.33	30321.64
575.49	30033.75
575.65	30415.26
575.82	30363.77
575.98	29933.11
576.14	30464.41
576.30	30387.18
576.46	29998.65
576.62	30010.35
576.79	30279.51
576.95	30092.27
577.11	30338.02
577.27	29958.86
577.43	30328.66
577.59	30010.35
577.75	30244.40
577.92	30326.32
578.08	30003.33
578.24	30000.99
578.40	30036.09
578.56	30501.86
578.72	30216.32
578.88	30583.78
579.04	30359.09
579.21	30424.62
579.37	30433.99
579.53	30228.02
579.69	30101.63
579.85	29902.68
580.01	30403.56
580.17	30085.25
580.33	30279.51
580.49	29991.62
580.65	30618.89
580.82	30089.93
580.98	30487.82
581.14	30518.25
581.30	30731.23
581.46	30176.53
581.62	30333.34
581.78	30150.78
581.94	30476.12
582.10	30132.06
582.26	30541.65
582.42	30323.98
582.58	30658.68
582.74	30464.41
582.90	30642.29
583.06	30309.94
583.22	30845.92
583.38	30656.34
583.54	30391.86
583.70	30429.30
583.86	30375.47
584.02	30132.06
584.18	30319.30
584.34	30782.73
584.50	30632.93
584.66	30543.99
584.82	30555.69
584.98	30478.46
585.14	30396.54
585.30	30679.74
585.46	30588.46
585.62	30424.62
585.78	30387.18
585.94	30389.52
586.10	30288.87
586.26	30689.10
586.42	31058.91
586.58	30623.57
586.74	30478.46
586.90	30113.33
587.06	30118.01
587.22	30621.23
587.38	30377.81
587.54	30824.86
587.70	30953.58
587.86	30714.85
588.02	30410.58
588.18	30815.49
588.34	30373.13
588.49	30602.50
588.65	30665.70
588.81	30366.11
588.97	30663.36
589.13	30457.39
589.29	30735.92
589.45	30815.49
589.61	30639.95
589.77	30794.43
589.93	31026.14
590.08	31070.61
590.24	30799.11
590.40	30958.27
590.56	30714.85
590.72	30810.81
590.88	30478.46
591.04	30796.77
591.20	30981.67
591.35	30984.01
591.51	30759.32
591.67	30881.03
591.83	31079.97
591.99	30551.01
