SpectraSuite Data File
++++++++++++++++++++++++++++++++++++
Date: Fri Oct 18 13:58:06 GMT-05:00 2013
User: bianchi
Dark Spectrum Present: No
Reference Spectrum Present: No
Number of Sampled Component Spectra: 1
Spectrometers: USB2+H05261
Integration Time (usec): 50000 (USB2+H05261)
Spectra Averaged: 1 (USB2+H05261)
Boxcar Smoothing: 0 (USB2+H05261)
Correct for Electrical Dark: No (USB2+H05261)
Strobe/Lamp Enabled: No (USB2+H05261)
Correct for Detector Non-linearity: No (USB2+H05261)
Correct for Stray Light: No (USB2+H05261)
Number of Pixels in Processed Spectrum: 2048
>>>>>Begin Processed Spectral Data<<<<<
365.73	0.00
365.92	0.00
366.12	0.00
366.32	0.00
366.52	0.00
366.72	0.00
366.91	0.00
367.11	0.00
367.31	0.00
367.51	0.00
367.70	0.00
367.90	0.00
368.10	0.00
368.30	0.00
368.49	0.00
368.69	0.00
368.89	0.00
369.09	0.00
369.28	0.00
369.48	0.00
369.68	0.00
369.87	0.00
370.07	0.00
370.27	0.00
370.47	0.00
370.66	49.15
370.86	102.98
371.06	149.79
371.25	133.41
371.45	72.56
371.65	220.01
371.84	152.13
372.04	210.65
372.24	161.50
372.44	110.01
372.63	184.90
372.83	245.76
373.03	210.65
373.22	149.79
373.42	203.63
373.62	224.69
373.81	243.42
374.01	184.90
374.21	241.08
374.40	212.99
374.60	227.03
374.79	283.20
374.99	287.89
375.19	283.20
375.38	290.23
375.58	262.14
375.78	280.86
375.97	362.78
376.17	297.25
376.37	266.82
376.56	311.29
376.76	224.69
376.95	196.60
377.15	322.99
377.35	266.82
377.54	294.91
377.74	266.82
377.93	304.27
378.13	292.57
378.33	245.76
378.52	276.18
378.72	339.38
378.91	308.95
379.11	297.25
379.31	299.59
379.50	299.59
379.70	339.38
379.89	325.33
380.09	337.04
380.28	231.71
380.48	416.62
380.68	318.31
380.87	280.86
381.07	369.80
381.26	318.31
381.46	299.59
381.65	367.46
381.85	353.42
382.04	306.61
382.24	339.38
382.43	344.06
382.63	379.17
382.83	341.72
383.02	341.72
383.22	339.38
383.41	447.04
383.61	285.55
383.80	376.83
384.00	327.68
384.19	423.64
384.39	393.21
384.58	423.64
384.78	379.17
384.97	360.44
385.17	365.12
385.36	365.12
385.56	421.30
385.75	404.91
385.95	397.89
386.14	379.17
386.34	440.02
386.53	414.27
386.72	365.12
386.92	456.40
387.11	414.27
387.31	461.09
387.50	456.40
387.70	484.49
387.89	418.96
388.09	379.17
388.28	447.04
388.48	468.11
388.67	461.09
388.86	425.98
389.06	430.66
389.25	458.74
389.45	461.09
389.64	528.96
389.84	458.74
390.03	519.60
390.22	540.66
390.42	458.74
390.61	503.22
390.81	498.53
391.00	479.81
391.19	524.28
391.39	528.96
391.58	615.56
391.78	543.00
391.97	573.43
392.16	500.87
392.36	550.03
392.55	561.73
392.75	528.96
392.94	596.84
393.13	505.56
393.33	564.07
393.52	550.03
393.71	589.82
393.91	674.07
394.10	561.73
394.29	547.69
394.49	561.73
394.68	575.77
394.88	531.30
395.07	655.35
395.26	634.29
395.46	559.39
395.65	669.39
395.84	627.26
396.04	706.84
396.23	603.86
396.42	657.69
396.62	690.46
396.81	615.56
397.00	727.91
397.19	681.10
397.39	643.65
397.58	620.24
397.77	692.80
397.97	840.25
398.16	702.16
398.35	711.52
398.55	725.57
398.74	643.65
398.93	760.67
399.12	777.06
399.32	720.88
399.51	723.23
399.70	739.61
399.90	753.65
400.09	741.95
400.28	751.31
400.47	716.20
400.67	763.01
400.86	772.38
401.05	788.76
401.24	755.99
401.44	786.42
401.63	748.97
401.82	854.30
402.01	791.10
402.21	828.55
402.40	844.93
402.59	851.96
402.78	809.83
402.97	870.68
403.17	877.70
403.36	891.74
403.55	929.19
403.74	861.32
403.93	901.11
404.13	854.30
404.32	924.51
404.51	924.51
404.70	931.53
404.89	898.77
405.09	933.87
405.28	910.47
405.47	961.96
405.66	926.85
405.85	1057.92
406.05	966.64
406.24	990.05
406.43	992.39
406.62	985.37
406.81	990.05
407.00	973.66
407.20	1064.94
407.39	1151.54
407.58	1041.54
407.77	1184.31
407.96	1156.22
408.15	1034.52
408.34	1078.99
408.54	1001.75
408.73	1062.60
408.92	1004.09
409.11	1121.12
409.30	1151.54
409.49	1132.82
409.68	1156.22
409.87	1097.71
410.07	1193.67
410.26	1207.72
410.45	1231.12
410.64	1163.25
410.83	1306.02
411.02	1217.08
411.21	1238.14
411.40	1308.36
411.59	1245.16
411.78	1343.47
411.98	1299.00
412.17	1308.36
412.36	1242.82
412.55	1427.73
412.74	1308.36
412.93	1357.51
413.12	1280.27
413.31	1390.28
413.50	1373.89
413.69	1411.34
413.88	1444.11
414.07	1394.96
414.26	1500.28
414.45	1504.96
414.64	1458.15
414.83	1486.24
415.02	1458.15
415.22	1544.75
415.41	1565.82
415.60	1610.29
415.79	1624.33
415.98	1631.35
416.17	1540.07
416.36	1621.99
416.55	1724.97
416.74	1614.97
416.93	1631.35
417.12	1753.06
417.31	1675.82
417.50	1827.96
417.69	1661.78
417.88	1657.10
418.07	1760.08
418.26	1755.40
418.45	1666.46
418.64	1905.20
418.83	1799.87
419.02	1741.36
419.21	1839.66
419.39	1846.68
419.58	1788.17
419.77	1926.26
419.96	1877.11
420.15	1928.60
420.34	1849.02
420.53	1839.66
420.72	1968.39
420.91	1856.04
421.10	1954.35
421.29	1884.13
421.48	1977.75
421.67	1891.15
421.86	1797.53
422.05	1984.77
422.24	1898.17
422.43	1959.03
422.61	2057.33
422.80	1954.35
422.99	2115.84
423.18	2083.08
423.37	2073.71
423.56	1980.09
423.75	1968.39
423.94	1998.82
424.13	1909.88
424.32	1996.48
424.50	2132.23
424.69	2211.81
424.88	2040.95
425.07	2003.50
425.26	2054.99
425.45	2052.65
425.64	2085.42
425.83	1963.71
426.01	2033.93
426.20	2083.08
426.39	2090.10
426.58	2111.16
426.77	2054.99
426.96	2050.31
427.15	2059.67
427.33	2260.96
427.52	2069.03
427.71	2132.23
427.90	2111.16
428.09	2340.54
428.28	2204.78
428.46	2193.08
428.65	2179.04
428.84	2284.36
429.03	2282.02
429.22	2214.15
429.40	2347.56
429.59	2242.23
429.78	2125.21
429.97	2228.19
430.16	2298.41
430.34	2305.43
430.53	2406.07
430.72	2335.85
430.91	2394.37
431.10	2310.11
431.28	2340.54
431.47	2312.45
431.66	2420.11
431.85	2422.45
432.03	2532.46
432.22	2562.89
432.41	2502.03
432.60	2408.41
432.79	2363.94
432.97	2480.97
433.16	2480.97
433.35	2408.41
433.54	2553.52
433.72	2473.95
433.91	2583.95
434.10	2506.71
434.28	2497.35
434.47	2504.37
434.66	2583.95
434.85	2576.93
435.03	2555.86
435.22	2656.51
435.41	2785.24
435.59	2677.57
435.78	2663.53
435.97	2668.21
436.16	2750.13
436.34	2764.17
436.53	2569.91
436.72	2738.43
436.90	2715.02
437.09	2689.28
437.28	2693.96
437.46	2719.70
437.65	2719.70
437.84	2897.58
438.02	2726.72
438.21	2750.13
438.40	2796.94
438.58	2998.23
438.77	2883.54
438.96	2904.60
439.14	3014.61
439.33	2902.26
439.52	3040.36
439.70	2911.63
439.89	2970.14
440.08	3148.02
440.26	3066.10
440.45	3070.78
440.63	3073.12
440.82	3150.36
441.01	3117.59
441.19	3171.43
441.38	3290.79
441.57	3171.43
441.75	3206.53
441.94	3405.48
442.12	3377.39
442.31	3389.10
442.50	3407.82
442.68	3372.71
442.87	3213.56
443.05	3372.71
443.24	3438.25
443.43	3431.23
443.61	3386.76
443.80	3522.51
443.98	3473.36
444.17	3218.24
444.35	3447.61
444.54	3438.25
444.73	3435.91
444.91	3501.44
445.10	3421.86
445.28	3492.08
445.47	3482.72
445.65	3393.78
445.84	3414.84
446.02	3475.70
446.21	3496.76
446.39	3403.14
446.58	3459.31
446.77	3503.78
446.95	3515.48
447.14	3445.27
447.32	3503.78
447.51	3531.87
447.69	3433.57
447.88	3527.19
448.06	3485.06
448.25	3545.91
448.43	3606.77
448.62	3574.00
448.80	3447.61
448.99	3583.36
449.17	3609.11
449.36	3552.93
449.54	3801.03
449.73	3506.12
449.91	3852.52
450.10	3789.33
450.28	3840.82
450.46	3805.71
450.65	3737.84
450.83	3784.65
451.02	3922.74
451.20	3815.07
451.39	3859.54
451.57	3854.86
451.76	3840.82
451.94	3906.35
452.13	3988.27
452.31	3796.35
452.49	3908.69
452.68	3955.51
452.86	3918.06
453.05	3962.53
453.23	3885.29
453.42	3992.95
453.60	3934.44
453.78	3990.61
453.97	3873.59
454.15	3995.29
454.34	4170.83
454.52	4093.60
454.70	3969.55
454.89	3955.51
455.07	3967.21
455.26	4077.21
455.44	4147.43
455.62	4257.43
455.81	4196.58
455.99	4107.64
456.17	4238.71
456.36	4191.90
456.54	4161.47
456.73	4241.05
456.91	4346.37
457.09	4306.59
457.28	4297.22
457.46	4334.67
457.64	4400.21
457.83	4367.44
458.01	4428.29
458.19	4435.32
458.38	4542.98
458.56	4636.60
458.74	4400.21
458.93	4547.66
459.11	4414.25
459.29	4416.59
459.48	4540.64
459.66	4479.79
459.84	4596.81
460.03	4662.35
460.21	4608.51
460.39	4615.54
460.57	4629.58
460.76	4798.10
460.94	4723.20
461.12	4634.26
461.31	4582.77
461.49	4688.09
461.67	4650.64
461.85	4716.18
462.04	4835.55
462.22	4994.70
462.40	4917.47
462.59	4671.71
462.77	4926.83
462.95	4887.04
463.13	4849.59
463.32	4919.81
463.50	4943.21
463.68	4898.74
463.86	4929.17
464.05	4809.80
464.23	4847.25
464.41	4891.72
464.59	4854.27
464.78	5132.79
464.96	4940.87
465.14	4901.08
465.32	5008.75
465.50	5048.54
465.69	5125.77
465.87	5163.22
466.05	5034.49
466.23	4945.55
466.41	5130.45
466.60	5404.30
466.78	5018.11
466.96	5102.37
467.14	4975.98
467.32	5259.18
467.51	5212.37
467.69	5013.43
467.87	5263.86
468.05	5186.63
468.23	5259.18
468.41	5191.31
468.60	5277.91
468.78	5362.17
468.96	5294.29
469.14	5373.87
469.32	5294.29
469.50	5357.49
469.69	5444.09
469.87	5275.57
470.05	5418.34
470.23	5572.82
470.41	5558.77
470.59	5659.42
470.77	5416.00
470.95	5664.10
471.14	5717.93
471.32	5458.13
471.50	5533.03
471.68	5746.02
471.86	5792.83
472.04	5589.20
472.22	5816.23
472.40	5710.91
472.58	5841.98
472.77	5937.94
472.95	5963.68
473.13	6223.48
473.31	5846.66
473.49	5921.56
473.67	5769.42
473.85	5916.87
474.03	6033.90
474.21	5996.45
474.39	6066.67
474.57	6263.27
474.75	6235.19
474.93	6239.87
475.12	6298.38
475.30	6083.05
475.48	6286.68
475.66	6314.77
475.84	6389.66
476.02	6565.20
476.20	6520.73
476.38	6572.22
476.56	6551.16
476.74	6602.65
476.92	6602.65
477.10	6597.97
477.28	6675.21
477.46	6668.19
477.64	6888.20
477.82	6998.20
478.00	7157.36
478.18	6970.12
478.36	6942.03
478.54	7227.57
478.72	7054.37
478.90	7185.44
479.08	7382.05
479.26	7363.33
479.44	7442.90
479.62	7431.20
479.80	7492.05
479.98	7520.14
480.16	7625.47
480.34	7534.18
480.52	7812.71
480.70	7873.56
480.88	7588.02
481.06	7854.84
481.24	7906.33
481.41	7915.69
481.59	8093.57
481.77	7988.25
481.95	8081.87
482.13	8234.00
482.31	8250.39
482.49	8449.33
482.67	8407.20
482.85	8542.96
483.03	8669.34
483.21	8341.67
483.39	8816.80
483.57	8634.24
483.74	8999.36
483.92	8753.60
484.10	8744.24
484.28	8894.04
484.46	9156.18
484.64	9245.12
484.82	9060.21
485.00	9415.98
485.18	9413.63
485.35	9745.99
485.53	9507.26
485.71	9582.15
485.89	9643.01
486.07	9776.42
486.25	9713.22
486.43	9891.10
486.61	10010.47
486.78	9914.51
486.96	10076.01
487.14	10115.80
487.32	10134.52
487.50	10403.68
487.68	10214.10
487.85	10574.54
488.03	10494.96
488.21	10965.41
488.39	10663.48
488.57	10562.84
488.75	10829.66
488.92	10752.42
489.10	10974.77
489.28	11080.10
489.46	11180.74
489.64	11192.44
489.81	11604.38
489.99	11538.84
490.17	11726.08
490.35	11740.13
490.53	11604.38
490.70	11908.65
490.88	11723.74
491.06	12006.95
491.24	11969.50
491.41	12166.10
491.59	12114.61
491.77	12233.98
491.95	12161.42
492.13	12367.39
492.30	12561.66
492.48	12402.50
492.66	12556.97
492.84	12620.17
493.01	12746.56
493.19	12650.60
493.37	13018.06
493.54	13092.96
493.72	13018.06
493.90	13160.83
494.08	13153.81
494.25	13383.18
494.43	13322.33
494.61	13364.46
494.79	13317.65
494.96	13429.99
495.14	13584.47
495.32	13738.94
495.49	13834.91
495.67	13722.56
495.85	13926.19
496.02	14349.82
496.20	14314.72
496.38	14019.81
496.55	13914.48
496.73	14340.46
496.91	14551.11
497.09	14473.87
497.26	14551.11
497.44	14384.93
497.62	14544.09
497.79	14803.89
497.97	14988.79
498.14	14864.74
498.32	15232.21
498.50	15138.58
498.67	15190.08
498.85	14998.15
499.03	14920.92
499.20	15246.25
499.38	15393.70
499.56	15360.94
499.73	15454.56
499.91	15756.49
500.08	15463.92
500.26	15470.94
500.44	15527.11
500.61	15756.49
500.79	15571.58
500.97	15737.76
501.14	16259.70
501.32	15981.18
501.49	16088.84
501.67	15763.51
501.84	16484.39
502.02	16210.55
502.20	16290.13
502.37	16084.16
502.55	16240.98
502.72	16634.19
502.90	16706.74
503.07	16547.59
503.25	16727.81
503.43	16629.51
503.60	16727.81
503.78	16919.73
503.95	16566.31
504.13	16741.85
504.30	17034.42
504.48	16901.01
504.65	16924.41
504.83	17270.81
505.01	17458.06
505.18	17385.50
505.36	17387.84
505.53	17270.81
505.71	17369.12
505.88	17359.75
506.06	17418.27
506.23	17682.75
506.41	17631.26
506.58	17523.59
506.76	17675.73
506.93	17458.06
507.11	17731.90
507.28	18040.85
507.46	17895.74
507.63	17710.83
507.81	18052.55
507.98	18094.68
508.16	18214.05
508.33	18302.99
508.50	18111.07
508.68	18218.73
508.85	18136.81
509.03	18314.69
509.20	18530.02
509.38	18808.54
509.55	18225.75
509.73	18600.24
509.90	18656.41
510.08	18525.34
510.25	18640.03
510.42	18583.85
510.60	18642.37
510.77	19082.39
510.95	18939.62
511.12	19119.84
511.30	19168.99
511.47	19178.35
511.64	19201.76
511.82	19260.27
511.99	19445.17
512.17	19758.80
512.34	19194.73
512.51	19569.22
512.69	19550.49
512.86	19601.99
513.04	19789.23
513.21	19637.09
513.38	19637.09
513.56	19941.36
513.73	19737.74
513.90	20191.80
514.08	19838.38
514.25	20006.90
514.43	20215.21
514.60	20025.62
514.77	20159.03
514.95	20109.88
515.12	19924.98
515.29	19936.68
515.47	20617.78
515.64	20418.83
515.81	20540.54
515.99	20716.08
516.16	20645.87
516.33	20542.88
516.51	20533.52
516.68	20662.25
516.85	20709.06
517.03	20931.41
517.20	21041.42
517.37	20800.34
517.54	21404.20
517.72	21088.23
517.89	21092.91
518.06	20936.09
518.24	20919.71
518.41	21013.33
518.58	21399.52
518.75	21472.07
518.93	21420.58
519.10	21322.28
519.27	21446.33
519.45	21408.88
519.62	21490.80
519.79	21502.50
519.96	21394.84
520.14	21472.07
520.31	21413.56
520.48	21930.82
520.65	21647.61
520.83	22012.74
521.00	21752.94
521.17	21755.28
521.34	21750.60
521.52	21724.85
521.69	21844.22
521.86	22087.64
522.03	22120.40
522.20	22265.52
522.38	22139.13
522.55	22249.13
522.72	22396.59
522.89	22094.66
523.07	22391.91
523.24	22129.77
523.41	22874.06
523.58	22354.46
523.75	22747.67
523.92	22281.90
524.10	22703.20
524.27	22895.12
524.44	22651.70
524.61	23021.51
524.78	22874.06
524.96	22579.15
525.13	22696.17
525.30	22848.31
525.47	22738.30
525.64	22801.50
525.81	23194.71
525.98	23337.48
526.16	22932.57
526.33	23243.86
526.50	23246.20
526.67	23157.26
526.84	23065.98
527.01	23307.05
527.18	23168.96
527.36	23817.29
527.53	23482.59
527.70	23840.70
527.87	23988.15
528.04	23667.50
528.21	23543.45
528.38	23419.40
528.55	23796.23
528.72	23576.22
528.89	23941.34
529.07	24063.05
529.24	23995.17
529.41	23990.49
529.58	23915.59
529.75	24079.43
529.92	23887.51
530.09	24114.54
530.26	23976.45
530.43	24098.16
530.60	24283.06
530.77	24219.86
530.94	24432.85
531.11	24151.99
531.28	24395.40
531.46	24142.63
531.63	24360.30
531.80	24390.72
531.97	24395.40
532.14	24624.78
532.31	24606.05
532.48	24622.44
532.65	24428.17
532.82	24411.79
532.99	24643.50
533.16	24709.04
533.33	24690.31
533.50	25282.47
533.67	25179.48
533.84	24479.66
534.01	24636.48
534.18	25043.73
534.35	25025.01
534.52	24992.24
534.69	24964.15
534.86	25048.41
535.03	25036.71
535.20	25069.48
535.37	25167.78
535.54	25261.40
535.71	24994.58
535.88	25109.27
536.05	25303.53
536.22	25380.77
536.38	25425.24
536.55	25504.82
536.72	25340.98
536.89	25446.30
537.06	25170.12
537.23	25694.40
537.40	25621.84
537.57	25799.73
537.74	25944.84
537.91	25867.60
538.08	25792.70
538.25	25675.68
538.42	25769.30
538.59	25523.54
538.75	25528.22
538.92	25579.71
539.09	25628.87
539.26	25750.57
539.43	25968.24
539.60	26101.65
539.77	26075.91
539.94	26143.78
540.11	25745.89
540.28	26024.42
540.44	25914.41
540.61	26087.61
540.78	26211.66
540.95	26209.32
541.12	26153.15
541.29	26342.73
541.46	26260.81
541.62	26214.00
541.79	26153.15
541.96	26401.24
542.13	26153.15
542.30	26560.40
542.47	26520.61
542.63	27037.87
542.80	26735.94
542.97	26693.81
543.14	26735.94
543.31	26953.61
543.48	26742.96
543.64	27150.21
543.81	26998.08
543.98	27075.32
544.15	27157.24
544.32	27023.83
544.48	27428.74
544.65	26845.94
544.82	27124.47
544.99	26775.73
545.16	26967.65
545.32	26859.99
545.49	27522.36
545.66	27344.48
545.83	27484.91
546.00	27709.60
546.16	27407.67
546.33	27063.61
546.50	26845.94
546.67	27798.54
546.83	26862.33
547.00	27335.12
547.17	27426.40
547.34	27351.50
547.50	27894.50
547.67	27772.80
547.84	27440.44
548.00	27786.84
548.17	27690.88
548.34	27566.83
548.51	27924.93
548.67	27824.29
548.84	27938.97
549.01	27611.30
549.18	27742.37
549.34	27725.99
549.51	27686.20
549.68	28039.62
549.84	27796.20
550.01	27978.76
550.18	27702.58
550.34	28329.84
550.51	27840.67
550.68	28084.09
550.84	28056.00
551.01	28102.81
551.18	27536.40
551.34	28170.69
551.51	28140.26
551.68	27920.25
551.84	28032.60
552.01	28280.69
552.18	28222.18
552.34	28327.50
552.51	28203.46
552.68	28432.83
552.84	28442.19
553.01	28084.09
553.18	28357.93
553.34	28414.10
553.51	28400.06
553.67	28388.36
553.84	28886.89
554.01	28732.42
554.17	28601.35
554.34	28863.49
554.51	28540.49
554.67	28065.36
554.84	28720.71
555.00	28496.02
555.17	28896.25
555.33	28706.67
555.50	28648.16
555.67	28872.85
555.83	28542.83
556.00	28594.32
556.16	29067.11
556.33	29123.29
556.50	28858.81
556.66	28821.36
556.83	28891.57
556.99	29078.82
557.16	29139.67
557.32	29261.38
557.49	29291.80
557.65	28594.32
557.82	29102.22
557.98	28893.91
558.15	28851.78
558.32	29495.43
558.48	29118.60
558.65	29331.59
558.81	29230.95
558.98	29408.83
559.14	29329.25
559.31	29046.05
559.47	29041.37
559.64	29060.09
559.80	29467.34
559.97	29076.48
560.13	29443.94
560.30	28840.08
560.46	29202.86
560.63	29453.30
560.79	29467.34
560.96	29481.39
561.12	29156.05
561.29	29013.28
561.45	29034.35
561.61	29532.88
561.78	29738.85
561.94	29422.87
562.11	29893.32
562.27	29666.29
562.44	29783.32
562.60	29174.78
562.77	29186.48
562.93	29422.87
563.10	29635.86
563.26	29303.51
563.42	29764.59
563.59	29551.60
563.75	30029.07
563.92	29855.87
564.08	29481.39
564.24	29532.88
564.41	29670.97
564.57	29446.28
564.74	29345.64
564.90	30150.78
565.07	29652.25
565.23	29991.62
565.39	29827.79
565.56	30061.84
565.72	30113.33
565.88	29902.68
566.05	29266.06
566.21	29783.32
566.38	29687.36
566.54	30272.49
566.70	29907.37
566.87	30410.58
567.03	29556.28
567.19	30089.93
567.36	29935.45
567.52	29881.62
567.68	30127.38
567.85	29970.56
568.01	30008.01
568.17	29500.11
568.34	29944.81
568.50	30064.18
568.66	29916.73
568.83	30288.87
568.99	30022.05
569.15	29926.09
569.32	30005.67
569.48	29764.59
569.64	30087.59
569.81	30015.03
569.97	30291.21
570.13	30075.88
570.30	30185.89
570.46	29958.86
570.62	30347.39
570.78	29947.15
570.95	29806.72
571.11	30089.93
571.27	29874.60
571.43	29846.51
571.60	30005.67
571.76	30258.45
571.92	30113.33
572.09	30221.00
572.25	30431.65
572.41	30181.21
572.57	30087.59
572.74	30312.28
572.90	30000.99
573.06	30024.39
573.22	30129.72
573.38	29949.50
573.55	30115.67
573.71	30380.15
573.87	30555.69
574.03	30515.90
574.20	30632.93
574.36	30127.38
574.52	30300.58
574.68	30146.10
574.84	30167.16
575.01	30202.27
575.17	30555.69
575.33	29979.92
575.49	30209.29
575.65	30316.96
575.82	30529.95
575.98	30539.31
576.14	30183.55
576.30	29902.68
576.46	30125.04
576.62	30274.83
576.79	30677.40
576.95	30759.32
577.11	30359.09
577.27	30937.20
577.43	31091.68
577.59	30314.62
577.75	30057.16
577.92	30466.75
578.08	30366.11
578.24	29989.28
578.40	30293.55
578.56	30862.30
578.72	30265.47
578.88	30323.98
579.04	30541.65
579.21	30476.12
579.37	30635.27
579.53	30504.20
579.69	30501.86
579.85	30693.79
580.01	30375.47
580.17	30024.39
580.33	30595.48
580.49	30501.86
580.65	30796.77
580.82	30452.71
580.98	30773.36
581.14	30419.94
581.30	30675.06
581.46	30569.74
581.62	30455.05
581.78	30333.34
581.94	30314.62
582.10	30267.81
582.26	30862.30
582.42	30962.95
582.58	30448.03
582.74	30150.78
582.90	30906.77
583.06	30628.25
583.22	30511.22
583.38	30284.19
583.54	30576.76
583.70	30466.75
583.86	30445.69
584.02	30426.96
584.18	30679.74
584.34	30471.43
584.50	30616.55
584.66	30576.76
584.82	30382.49
584.98	30668.04
585.14	30321.64
585.30	30396.54
585.46	30300.58
585.62	30295.89
585.78	30515.90
585.94	30382.49
586.10	30321.64
586.26	30817.83
586.42	31042.53
586.58	31103.38
586.74	30316.96
586.90	30609.53
587.06	30609.53
587.22	30663.36
587.38	30731.23
587.54	31037.84
587.70	30738.26
587.86	31021.46
588.02	30951.24
588.18	30855.28
588.34	30686.76
588.49	30368.45
588.65	30782.73
588.81	30249.08
588.97	30756.98
589.13	30923.16
589.29	30654.00
589.45	30569.74
589.61	30979.33
589.77	31229.77
589.93	30862.30
590.08	30902.09
590.24	31178.28
590.40	31021.46
590.56	31267.22
590.72	30478.46
590.88	30820.17
591.04	30852.94
591.20	31019.12
591.35	30972.31
591.51	31531.70
591.67	31438.08
591.83	31419.35
591.99	31033.16
