SpectraSuite Data File
++++++++++++++++++++++++++++++++++++
Date: Fri Oct 18 13:58:08 GMT-05:00 2013
User: bianchi
Dark Spectrum Present: No
Reference Spectrum Present: No
Number of Sampled Component Spectra: 1
Spectrometers: USB2+H05261
Integration Time (usec): 50000 (USB2+H05261)
Spectra Averaged: 1 (USB2+H05261)
Boxcar Smoothing: 0 (USB2+H05261)
Correct for Electrical Dark: No (USB2+H05261)
Strobe/Lamp Enabled: No (USB2+H05261)
Correct for Detector Non-linearity: No (USB2+H05261)
Correct for Stray Light: No (USB2+H05261)
Number of Pixels in Processed Spectrum: 2048
>>>>>Begin Processed Spectral Data<<<<<
365.73	0.00
365.92	0.00
366.12	0.00
366.32	0.00
366.52	0.00
366.72	0.00
366.91	0.00
367.11	0.00
367.31	0.00
367.51	0.00
367.70	0.00
367.90	0.00
368.10	0.00
368.30	0.00
368.49	0.00
368.69	0.00
368.89	0.00
369.09	0.00
369.28	0.00
369.48	0.00
369.68	0.00
369.87	0.00
370.07	0.00
370.27	0.00
370.47	0.00
370.66	105.32
370.86	126.39
371.06	84.26
371.25	159.16
371.45	161.50
371.65	145.11
371.84	65.54
372.04	180.22
372.24	205.97
372.44	149.79
372.63	208.31
372.83	248.10
373.03	173.20
373.22	205.97
373.42	257.46
373.62	217.67
373.81	210.65
374.01	205.97
374.21	229.37
374.40	210.65
374.60	238.73
374.79	248.10
374.99	278.52
375.19	250.44
375.38	189.58
375.58	278.52
375.78	248.10
375.97	250.44
376.17	304.27
376.37	322.99
376.56	245.76
376.76	292.57
376.95	259.80
377.15	271.50
377.35	287.89
377.54	304.27
377.74	264.48
377.93	264.48
378.13	259.80
378.33	285.55
378.52	210.65
378.72	227.03
378.91	269.16
379.11	236.39
379.31	273.84
379.50	255.12
379.70	339.38
379.89	297.25
380.09	369.80
380.28	283.20
380.48	266.82
380.68	290.23
380.87	287.89
381.07	325.33
381.26	322.99
381.46	346.40
381.65	278.52
381.85	341.72
382.04	362.78
382.24	416.62
382.43	294.91
382.63	358.10
382.83	444.70
383.02	372.15
383.22	339.38
383.41	381.51
383.61	362.78
383.80	344.06
384.00	330.02
384.19	367.46
384.39	388.53
384.58	276.18
384.78	369.80
384.97	430.66
385.17	390.87
385.36	407.25
385.56	404.91
385.75	379.17
385.95	327.68
386.14	423.64
386.34	407.25
386.53	381.51
386.72	386.19
386.92	395.55
387.11	428.32
387.31	400.23
387.50	414.27
387.70	500.87
387.89	393.21
388.09	402.57
388.28	444.70
388.48	477.47
388.67	484.49
388.86	449.38
389.06	547.69
389.25	477.47
389.45	475.13
389.64	379.17
389.84	470.45
390.03	477.47
390.22	517.26
390.42	477.47
390.61	463.43
390.81	470.45
391.00	496.19
391.19	512.58
391.39	526.62
391.58	435.34
391.78	535.98
391.97	620.24
392.16	531.30
392.36	475.13
392.55	505.56
392.75	550.03
392.94	585.13
393.13	587.47
393.33	589.82
393.52	589.82
393.71	561.73
393.91	550.03
394.10	622.58
394.29	517.26
394.49	493.85
394.68	599.18
394.88	582.79
395.07	653.01
395.26	559.39
395.46	575.77
395.65	599.18
395.84	599.18
396.04	634.29
396.23	601.52
396.42	685.78
396.62	653.01
396.81	547.69
397.00	699.82
397.19	732.59
397.39	669.39
397.58	737.27
397.77	545.34
397.97	662.37
398.16	685.78
398.35	692.80
398.55	734.93
398.74	821.53
398.93	716.20
399.12	809.83
399.32	678.76
399.51	709.18
399.70	807.48
399.90	713.86
400.09	884.72
400.28	837.91
400.47	826.21
400.67	802.80
400.86	816.85
401.05	744.29
401.24	800.46
401.44	751.31
401.63	819.19
401.82	816.85
402.01	908.13
402.21	748.97
402.40	751.31
402.59	856.64
402.78	844.93
402.97	891.74
403.17	943.24
403.36	882.38
403.55	858.98
403.74	889.40
403.93	835.57
404.13	926.85
404.32	912.81
404.51	926.85
404.70	940.90
404.89	966.64
405.09	903.45
405.28	931.53
405.47	1048.56
405.66	1050.90
405.85	1034.52
406.05	1076.65
406.24	903.45
406.43	990.05
406.62	1025.15
406.81	1132.82
407.00	1053.24
407.20	1090.69
407.39	987.71
407.58	973.66
407.77	1027.50
407.96	1027.50
408.15	994.73
408.34	1116.44
408.54	1205.38
408.73	1186.65
408.92	1184.31
409.11	1036.86
409.30	1095.37
409.49	1156.22
409.68	1062.60
409.87	1109.41
410.07	1142.18
410.26	1198.35
410.45	1130.48
410.64	1219.42
410.83	1196.01
411.02	1224.10
411.21	1240.48
411.40	1242.82
411.59	1294.32
411.78	1266.23
411.98	1291.98
412.17	1357.51
412.36	1317.72
412.55	1331.76
412.74	1411.34
412.93	1383.26
413.12	1399.64
413.31	1437.09
413.50	1352.83
413.69	1369.21
413.88	1324.74
414.07	1483.90
414.26	1554.12
414.45	1469.86
414.64	1404.32
414.83	1526.03
415.02	1551.78
415.22	1460.49
415.41	1605.61
415.60	1614.97
415.79	1561.14
415.98	1537.73
416.17	1558.80
416.36	1650.08
416.55	1582.20
416.74	1647.74
416.93	1647.74
417.12	1685.19
417.31	1668.80
417.50	1748.38
417.69	1802.21
417.88	1741.36
418.07	1664.12
418.26	1764.76
418.45	1722.63
418.64	1881.79
418.83	1757.74
419.02	1893.49
419.21	1792.85
419.39	1853.70
419.58	1914.56
419.77	1774.13
419.96	1853.70
420.15	1832.64
420.34	1806.89
420.53	1900.52
420.72	1881.79
420.91	1933.28
421.10	2073.71
421.29	1984.77
421.48	1973.07
421.67	1973.07
421.86	1907.54
422.05	2031.58
422.24	1977.75
422.43	1940.30
422.61	2045.63
422.80	2108.82
422.99	1942.64
423.18	2019.88
423.37	2071.37
423.56	2045.63
423.75	2062.01
423.94	1994.14
424.13	1900.52
424.32	1942.64
424.50	2017.54
424.69	2139.25
424.88	2139.25
425.07	1991.80
425.26	1989.46
425.45	2059.67
425.64	2064.35
425.83	1991.80
426.01	2071.37
426.20	2134.57
426.39	2108.82
426.58	1973.07
426.77	2057.33
426.96	2125.21
427.15	2195.42
427.33	2106.48
427.52	2165.00
427.71	2237.55
427.90	2197.76
428.09	2104.14
428.28	2200.10
428.46	2279.68
428.65	2214.15
428.84	2263.30
429.03	2345.22
429.22	2214.15
429.40	2256.28
429.59	2363.94
429.78	2111.16
429.97	2169.68
430.16	2417.77
430.34	2300.75
430.53	2356.92
430.72	2347.56
430.91	2286.70
431.10	2352.24
431.28	2422.45
431.47	2347.56
431.66	2487.99
431.85	2349.90
432.03	2377.98
432.22	2462.24
432.41	2466.92
432.60	2480.97
432.79	2455.22
432.97	2427.14
433.16	2544.16
433.35	2427.14
433.54	2443.52
433.72	2452.88
433.91	2452.88
434.10	2548.84
434.28	2476.29
434.47	2560.55
434.66	2700.98
434.85	2562.89
435.03	2633.10
435.22	2590.97
435.41	2792.26
435.59	2640.12
435.78	2605.02
435.97	2700.98
436.16	2569.91
436.34	2719.70
436.53	2768.85
436.72	2799.28
436.90	2668.21
437.09	2686.94
437.28	2717.36
437.46	2693.96
437.65	2761.83
437.84	2747.79
438.02	2787.58
438.21	2759.49
438.40	2736.09
438.58	2967.80
438.77	2946.73
438.96	2932.69
439.14	2958.44
439.33	2974.82
439.52	2988.86
439.70	3094.19
439.89	3110.57
440.08	3061.42
440.26	3152.70
440.45	3087.17
440.63	3112.91
440.82	3091.85
441.01	3035.67
441.19	3199.51
441.38	3220.58
441.57	3297.81
441.75	3267.39
441.94	3346.97
442.12	3227.60
442.31	3400.80
442.50	3365.69
442.68	3342.28
442.87	3412.50
443.05	3417.18
443.24	3466.33
443.43	3480.38
443.61	3527.19
443.80	3475.70
443.98	3316.54
444.17	3180.79
444.35	3559.95
444.54	3489.74
444.73	3286.11
444.91	3368.03
445.10	3485.06
445.28	3414.84
445.47	3557.61
445.65	3412.50
445.84	3414.84
446.02	3618.47
446.21	3620.81
446.39	3368.03
446.58	3510.80
446.77	3515.48
446.95	3438.25
447.14	3541.23
447.32	3529.53
447.51	3449.95
447.69	3499.10
447.88	3602.08
448.06	3468.67
448.25	3480.38
448.43	3538.89
448.62	3445.27
448.80	3665.28
448.99	3606.77
449.17	3583.36
449.36	3616.13
449.54	3709.75
449.73	3686.34
449.91	3700.39
450.10	3709.75
450.28	3794.01
450.46	3609.11
450.65	3786.99
450.83	3660.60
451.02	3777.62
451.20	3957.85
451.39	3768.26
451.57	3789.33
451.76	3836.14
451.94	3833.80
452.13	3803.37
452.31	3906.35
452.49	3878.27
452.68	3904.01
452.86	3913.38
453.05	4067.85
453.23	3873.59
453.42	3992.95
453.60	3969.55
453.78	3955.51
453.97	4016.36
454.15	3981.25
454.34	3798.69
454.52	4025.72
454.70	4035.08
454.89	3908.69
455.07	4112.32
455.26	4124.02
455.44	4203.60
455.62	4016.36
455.81	4243.39
455.99	4283.18
456.17	4184.88
456.36	4133.39
456.54	4315.95
456.73	4227.01
456.91	4346.37
457.09	4498.51
457.28	4465.74
457.46	4332.33
457.64	4259.78
457.83	4400.21
458.01	4198.92
458.19	4297.22
458.38	4334.67
458.56	4362.76
458.74	4381.48
458.93	4346.37
459.11	4421.27
459.29	4418.93
459.48	4461.06
459.66	4458.72
459.84	4622.56
460.03	4791.08
460.21	4592.13
460.39	4507.87
460.57	4599.15
460.76	4730.22
460.94	4629.58
461.12	4585.11
461.31	4540.64
461.49	4575.75
461.67	4645.96
461.85	4741.93
462.04	4671.71
462.22	5041.51
462.40	4849.59
462.59	4730.22
462.77	4917.47
462.95	5013.43
463.13	4816.82
463.32	4851.93
463.50	4865.97
463.68	4877.68
463.86	4744.27
464.05	4816.82
464.23	4835.55
464.41	4992.36
464.59	5020.45
464.78	5137.48
464.96	4964.28
465.14	4971.30
465.32	5018.11
465.50	5107.05
465.69	5165.56
465.87	4919.81
466.05	5139.82
466.23	5036.83
466.41	5172.58
466.60	5163.22
466.78	5132.79
466.96	5013.43
467.14	5004.07
467.32	5238.12
467.51	5408.98
467.69	5071.94
467.87	5170.24
468.05	5163.22
468.23	5032.15
468.41	5160.88
468.60	5313.02
468.78	5315.36
468.96	5336.42
469.14	5451.11
469.32	5263.86
469.50	5219.39
469.69	5338.76
469.87	5315.36
470.05	5565.79
470.23	5495.58
470.41	5350.46
470.59	5596.22
470.77	5357.49
470.95	5528.35
471.14	5605.58
471.32	5544.73
471.50	5577.50
471.68	5703.89
471.86	5736.65
472.04	5689.84
472.22	5865.38
472.40	5645.37
472.58	5680.48
472.77	5818.57
472.95	5839.64
473.13	6129.86
473.31	5947.30
473.49	5753.04
473.67	6005.81
473.85	6059.65
474.03	6111.14
474.21	6038.58
474.39	6022.20
474.57	6134.54
474.75	6195.40
474.93	6291.36
475.12	6169.65
475.30	6176.67
475.48	6382.64
475.66	6272.64
475.84	6387.32
476.02	6572.22
476.20	6483.28
476.38	6586.27
476.56	6586.27
476.74	6609.67
476.92	6647.12
477.10	6612.01
477.28	6504.35
477.46	6684.57
477.64	6736.06
477.82	6937.35
478.00	7129.27
478.18	7166.72
478.36	7318.86
478.54	7087.14
478.72	7201.83
478.90	7183.10
479.08	7360.98
479.26	7248.64
479.44	7375.03
479.62	7386.73
479.80	7592.70
479.98	7674.62
480.16	7611.42
480.34	7688.66
480.52	7768.24
480.70	7719.09
480.88	7712.07
481.06	7833.77
481.24	7585.68
481.41	7857.18
481.59	8191.88
481.77	8098.25
481.95	8074.85
482.13	8259.75
482.31	8156.77
482.49	8510.19
482.67	8287.84
482.85	8423.59
483.03	8650.62
483.21	8758.28
483.39	8737.22
483.57	8627.21
483.74	8725.52
483.92	8992.34
484.10	8849.57
484.28	9036.81
484.46	9261.50
484.64	9373.85
484.82	9081.28
485.00	9111.71
485.18	9364.48
485.35	9563.43
485.53	9624.28
485.71	9483.85
485.89	9628.96
486.07	9666.41
486.25	9750.67
486.43	9771.74
486.61	10036.22
486.78	9872.38
486.96	9874.72
487.14	10277.29
487.32	10270.27
487.50	10298.36
487.68	10523.05
487.85	10530.07
488.03	10555.82
488.21	10597.95
488.39	10782.85
488.57	10686.89
488.75	10960.73
488.92	11019.24
489.10	11026.26
489.28	11178.40
489.46	11356.28
489.64	11126.91
489.81	11236.91
489.99	11405.43
490.17	11524.80
490.35	11719.06
490.53	11672.25
490.70	11793.96
490.88	11910.99
491.06	11932.05
491.24	11932.05
491.41	12112.27
491.59	11957.80
491.77	12002.27
491.95	12379.09
492.13	12301.86
492.30	12594.42
492.48	12622.51
492.66	12638.89
492.84	12781.67
493.01	12718.47
493.19	12879.97
493.37	13116.36
493.54	13069.55
493.72	12989.97
493.90	12985.29
494.08	13259.13
494.25	13149.13
494.43	13252.11
494.61	13486.17
494.79	13657.03
494.96	13540.00
495.14	13755.33
495.32	14033.85
495.49	13994.06
495.67	13652.34
495.85	13963.64
496.02	13982.36
496.20	14242.16
496.38	13891.08
496.55	14057.26
496.73	14288.97
496.91	14272.59
497.09	14377.91
497.26	14265.57
497.44	14700.90
497.62	14462.17
497.79	14918.57
497.97	14897.51
498.14	14871.76
498.32	15129.22
498.50	15117.52
498.67	15239.23
498.85	14986.45
499.03	15159.65
499.20	15372.64
499.38	15318.81
499.56	15314.13
499.73	15709.68
499.91	15658.18
500.08	15552.86
500.26	15707.34
500.44	15847.77
500.61	15850.11
500.79	15726.06
500.97	15957.77
501.14	16212.89
501.32	16119.27
501.49	15852.45
501.67	16093.52
501.84	16081.82
502.02	16414.18
502.20	16049.05
502.37	16470.35
502.55	16575.67
502.72	16313.53
502.90	16301.83
503.07	16594.40
503.25	16568.65
503.43	16833.13
503.60	16683.34
503.78	17097.61
503.95	16854.20
504.13	16629.51
504.30	16659.93
504.48	17048.46
504.65	17015.69
504.83	17247.41
505.01	17275.49
505.18	17788.07
505.36	17380.82
505.53	17125.70
505.71	17214.64
505.88	17628.92
506.06	17240.39
506.23	17729.56
506.41	17521.25
506.58	17755.30
506.76	17528.27
506.93	17596.15
507.11	17591.47
507.28	17851.27
507.46	17797.43
507.63	18094.68
507.81	17764.67
507.98	17994.04
508.16	17963.61
508.33	18040.85
508.50	18216.39
508.68	18361.50
508.85	18462.15
509.03	18387.25
509.20	18181.28
509.38	18576.83
509.55	18515.98
509.73	18794.50
509.90	18621.30
510.08	18504.28
510.25	18532.36
510.42	18862.38
510.60	18651.73
510.77	19278.99
510.95	19250.91
511.12	19194.73
511.30	18965.36
511.47	19171.33
511.64	18960.68
511.82	19552.84
511.99	19300.06
512.17	19321.12
512.34	19489.64
512.51	19342.19
512.69	19440.49
512.86	19314.10
513.04	19552.84
513.21	19473.26
513.38	19716.67
513.56	19934.34
513.73	19548.15
513.90	19674.54
514.08	19702.63
514.25	20056.05
514.43	20140.31
514.60	20191.80
514.77	19864.13
514.95	20393.09
515.12	19946.05
515.29	19775.19
515.47	20084.14
515.64	20666.93
515.81	20222.23
515.99	20795.66
516.16	20676.29
516.33	20563.95
516.51	20575.65
516.68	20589.69
516.85	20734.81
517.03	20823.75
517.20	21015.67
517.37	21128.02
517.54	21186.53
517.72	20790.98
517.89	20814.38
518.06	21380.79
518.24	20896.30
518.41	20980.56
518.58	21233.34
518.75	20938.43
518.93	21289.51
519.10	21202.91
519.27	21418.24
519.45	21261.43
519.62	21378.45
519.79	21266.11
519.96	21694.43
520.14	21422.92
520.31	21696.77
520.48	21329.30
520.65	21701.45
520.83	21991.67
521.00	21844.22
521.17	21844.22
521.34	21806.77
521.52	21736.56
521.69	21970.61
521.86	21881.67
522.03	22218.71
522.20	22359.14
522.38	21942.52
522.55	22317.01
522.72	22167.21
522.89	22150.83
523.07	22391.91
523.24	22618.94
523.41	22544.04
523.58	22302.96
523.75	22436.38
523.92	22625.96
524.10	22214.02
524.27	22618.94
524.44	22864.69
524.61	23035.55
524.78	22735.96
524.96	23175.98
525.13	23115.13
525.30	22972.36
525.47	22431.69
525.64	23089.38
525.81	22778.09
525.98	23084.70
526.16	22960.66
526.33	23220.45
526.50	23192.37
526.67	23187.69
526.84	23222.80
527.01	22967.68
527.18	23227.48
527.36	23672.18
527.53	23557.49
527.70	23711.97
527.87	24027.94
528.04	23782.18
528.21	23885.17
528.38	23718.99
528.55	23721.33
528.72	23840.70
528.89	23852.40
529.07	23826.65
529.24	23880.49
529.41	23962.40
529.58	23864.10
529.75	23763.46
529.92	24086.45
530.09	23604.30
530.26	24067.73
530.43	24154.33
530.60	24140.29
530.77	23999.85
530.94	24154.33
531.11	23859.42
531.28	24051.34
531.46	24297.10
531.63	24652.86
531.80	24395.40
531.97	24561.58
532.14	24437.53
532.31	24631.80
532.48	24491.37
532.65	24400.08
532.82	24505.41
532.99	24212.84
533.16	24690.31
533.33	24837.76
533.50	24837.76
533.67	24755.85
533.84	24086.45
534.01	24645.84
534.18	24776.91
534.35	24952.45
534.52	25165.44
534.69	25083.52
534.86	25106.93
535.03	25200.55
535.20	24835.42
535.37	25275.45
535.54	25230.98
535.71	25181.82
535.88	25034.37
536.05	25069.48
536.22	25102.25
536.38	25481.41
536.55	25383.11
536.72	25366.73
536.89	25186.50
537.06	25387.79
537.23	25493.12
537.40	25291.83
537.57	25364.39
537.74	25825.47
537.91	25525.88
538.08	25717.81
538.25	25486.09
538.42	25956.54
538.59	25488.43
538.75	25322.26
538.92	25956.54
539.09	25738.87
539.26	25858.24
539.43	25654.61
539.60	26321.66
539.77	26094.63
539.94	26199.96
540.11	25954.20
540.28	25914.41
540.44	25879.30
540.61	25956.54
540.78	26190.59
540.95	26237.41
541.12	26047.82
541.29	26246.77
541.46	26338.05
541.62	26136.76
541.79	26127.40
541.96	26003.35
542.13	26185.91
542.30	26260.81
542.47	26401.24
542.63	26326.35
542.80	26712.53
542.97	26974.67
543.14	27260.22
543.31	26698.49
543.48	26661.04
543.64	27063.61
543.81	26916.16
543.98	27180.64
544.15	26487.84
544.32	27339.80
544.48	27164.26
544.65	26731.26
544.82	27166.60
544.99	26632.96
545.16	27063.61
545.32	26869.35
545.49	27009.78
545.66	27557.47
545.83	27295.33
546.00	27215.75
546.16	27274.26
546.33	27087.02
546.50	26920.84
546.67	27187.66
546.83	26768.71
547.00	27363.20
547.17	27094.04
547.34	27264.90
547.50	27648.75
547.67	27740.03
547.84	27391.29
548.00	27541.08
548.17	27686.20
548.34	28051.32
548.51	27344.48
548.67	27910.89
548.84	27599.60
549.01	27737.69
549.18	27763.43
549.34	27948.34
549.51	27964.72
549.68	27707.26
549.84	28018.55
550.01	28343.89
550.18	27903.87
550.34	28037.28
550.51	27948.34
550.68	27796.20
550.84	27548.11
551.01	28259.63
551.18	27594.92
551.34	28147.28
551.51	28006.85
551.68	27826.63
551.84	28304.10
552.01	28182.39
552.18	28327.50
552.34	27843.01
552.51	28278.35
552.68	28112.17
552.84	28268.99
553.01	28512.41
553.18	28692.63
553.34	28449.21
553.51	28493.68
553.67	28603.69
553.84	28659.86
554.01	28767.52
554.17	28086.43
554.34	28393.04
554.51	28463.25
554.67	28755.82
554.84	28744.12
555.00	28212.82
555.17	28788.59
555.33	28861.15
555.50	28610.71
555.67	28741.78
555.83	28587.30
556.00	28797.95
556.16	28599.01
556.33	28807.31
556.50	28591.98
556.66	28631.77
556.83	28996.90
556.99	29003.92
557.16	28929.02
557.32	29118.60
557.49	29378.40
557.65	28907.96
557.82	28748.80
557.98	28407.08
558.15	28589.64
558.32	29256.70
558.48	28905.62
558.65	29317.55
558.81	29163.08
558.98	28945.41
559.14	29289.46
559.31	29209.89
559.47	29415.85
559.64	29319.89
559.80	29399.47
559.97	29408.83
560.13	29118.60
560.30	29256.70
560.46	29113.92
560.63	29053.07
560.79	29120.95
560.96	29383.09
561.12	28996.90
561.29	29139.67
561.45	29455.64
561.61	29567.99
561.78	29322.23
561.94	29294.14
562.11	29549.26
562.27	29607.78
562.44	29235.63
562.60	29380.74
562.77	29752.89
562.93	29371.38
563.10	29689.70
563.26	29509.47
563.42	29834.81
563.59	29514.16
563.75	29759.91
563.92	29509.47
564.08	29387.77
564.24	29572.67
564.41	29174.78
564.57	29369.04
564.74	29385.43
564.90	29584.37
565.07	29783.32
565.23	29668.63
565.39	29809.06
565.56	29937.79
565.72	29439.26
565.88	29890.98
566.05	29584.37
566.21	29830.13
566.38	30092.27
566.54	29834.81
566.70	29881.62
566.87	30103.97
567.03	29907.37
567.19	30239.72
567.36	29823.11
567.52	30015.03
567.68	30431.65
567.85	29834.81
568.01	29813.74
568.17	29586.71
568.34	29813.74
568.50	29890.98
568.66	29886.30
568.83	30232.70
568.99	30122.69
569.15	29888.64
569.32	29984.60
569.48	29886.30
569.64	30183.55
569.81	30066.52
569.97	30082.91
570.13	30003.33
570.30	29830.13
570.46	30150.78
570.62	29677.99
570.78	29869.92
570.95	29802.04
571.11	30302.92
571.27	29530.54
571.43	29923.75
571.60	29942.47
571.76	30129.72
571.92	30286.53
572.09	30314.62
572.25	30347.39
572.41	30504.20
572.57	30412.92
572.74	30206.95
572.90	30157.80
573.06	29963.54
573.22	30139.08
573.38	30202.27
573.55	30059.50
573.71	30150.78
573.87	30436.33
574.03	30045.46
574.20	30391.86
574.36	30082.91
574.52	29780.98
574.68	29951.84
574.84	30185.89
575.01	29890.98
575.17	29977.58
575.33	30150.78
575.49	30333.34
575.65	30443.35
575.82	30536.97
575.98	30157.80
576.14	30607.19
576.30	30029.07
576.46	30335.68
576.62	30188.23
576.79	30122.69
576.95	30040.78
577.11	30483.14
577.27	30270.15
577.43	30813.15
577.59	30316.96
577.75	30504.20
577.92	30368.45
578.08	30075.88
578.24	30120.35
578.40	30471.43
578.56	30527.61
578.72	30340.36
578.88	30855.28
579.04	31005.08
579.21	30305.26
579.37	30398.88
579.53	30438.67
579.69	30150.78
579.85	30665.70
580.01	30543.99
580.17	30216.32
580.33	30195.25
580.49	30171.85
580.65	30738.26
580.82	30389.52
580.98	30433.99
581.14	30162.48
581.30	30939.54
581.46	30511.22
581.62	30335.68
581.78	30433.99
581.94	30679.74
582.10	30328.66
582.26	30284.19
582.42	30157.80
582.58	30726.55
582.74	30525.27
582.90	30340.36
583.06	30513.56
583.22	30522.93
583.38	30642.29
583.54	30635.27
583.70	30405.90
583.86	30478.46
584.02	30398.88
584.18	30562.72
584.34	30625.91
584.50	30684.42
584.66	30188.23
584.82	30396.54
584.98	30363.77
585.14	30782.73
585.30	30246.74
585.46	30267.81
585.62	30403.56
585.78	30586.12
585.94	30501.86
586.10	30586.12
586.26	30646.97
586.42	30363.77
586.58	30595.48
586.74	30930.18
586.90	30567.40
587.06	30415.26
587.22	30452.71
587.38	30494.84
587.54	30555.69
587.70	30831.88
587.86	30515.90
588.02	30569.74
588.18	30822.51
588.34	31044.87
588.49	31014.44
588.65	30464.41
588.81	30396.54
588.97	30632.93
589.13	30431.65
589.29	30628.25
589.45	30773.36
589.61	30991.03
589.77	31037.84
589.93	30951.24
590.08	31115.08
590.24	30934.86
590.40	30850.60
590.56	30810.81
590.72	30380.15
590.88	30890.39
591.04	30738.26
591.20	30841.24
591.35	31374.88
591.51	31023.80
591.67	31070.61
591.83	31395.95
591.99	31112.74
