SpectraSuite Data File
++++++++++++++++++++++++++++++++++++
Date: Fri Oct 18 13:58:43 GMT-05:00 2013
User: bianchi
Dark Spectrum Present: No
Reference Spectrum Present: No
Number of Sampled Component Spectra: 1
Spectrometers: USB2+H05261
Integration Time (usec): 50000 (USB2+H05261)
Spectra Averaged: 1 (USB2+H05261)
Boxcar Smoothing: 0 (USB2+H05261)
Correct for Electrical Dark: No (USB2+H05261)
Strobe/Lamp Enabled: No (USB2+H05261)
Correct for Detector Non-linearity: No (USB2+H05261)
Correct for Stray Light: No (USB2+H05261)
Number of Pixels in Processed Spectrum: 2048
>>>>>Begin Processed Spectral Data<<<<<
365.73	0.00
365.92	0.00
366.12	0.00
366.32	0.00
366.52	0.00
366.72	0.00
366.91	0.00
367.11	0.00
367.31	0.00
367.51	0.00
367.70	0.00
367.90	0.00
368.10	0.00
368.30	0.00
368.49	0.00
368.69	0.00
368.89	0.00
369.09	0.00
369.28	0.00
369.48	0.00
369.68	0.00
369.87	0.00
370.07	0.00
370.27	0.00
370.47	0.00
370.66	72.56
370.86	100.64
371.06	138.09
371.25	161.50
371.45	133.41
371.65	191.92
371.84	163.84
372.04	128.73
372.24	189.58
372.44	133.41
372.63	196.60
372.83	255.12
373.03	248.10
373.22	119.37
373.42	229.37
373.62	252.78
373.81	264.48
374.01	320.65
374.21	346.40
374.40	184.90
374.60	243.42
374.79	264.48
374.99	212.99
375.19	131.07
375.38	217.67
375.58	198.95
375.78	290.23
375.97	177.88
376.17	322.99
376.37	273.84
376.56	227.03
376.76	210.65
376.95	166.18
377.15	266.82
377.35	308.95
377.54	276.18
377.74	205.97
377.93	325.33
378.13	353.42
378.33	332.36
378.52	428.32
378.72	266.82
378.91	351.08
379.11	285.55
379.31	304.27
379.50	273.84
379.70	341.72
379.89	308.95
380.09	297.25
380.28	245.76
380.48	276.18
380.68	344.06
380.87	250.44
381.07	276.18
381.26	327.68
381.46	355.76
381.65	330.02
381.85	348.74
382.04	334.70
382.24	273.84
382.43	376.83
382.63	376.83
382.83	346.40
383.02	407.25
383.22	379.17
383.41	416.62
383.61	353.42
383.80	397.89
384.00	299.59
384.19	294.91
384.39	334.70
384.58	416.62
384.78	407.25
384.97	411.93
385.17	365.12
385.36	402.57
385.56	409.59
385.75	411.93
385.95	393.21
386.14	407.25
386.34	425.98
386.53	360.44
386.72	337.04
386.92	433.00
387.11	458.74
387.31	358.10
387.50	414.27
387.70	390.87
387.89	367.46
388.09	486.83
388.28	470.45
388.48	430.66
388.67	468.11
388.86	369.80
389.06	482.15
389.25	435.34
389.45	437.68
389.64	465.77
389.84	510.24
390.03	617.90
390.22	493.85
390.42	461.09
390.61	447.04
390.81	470.45
391.00	479.81
391.19	458.74
391.39	411.93
391.58	484.49
391.78	442.36
391.97	416.62
392.16	496.19
392.36	592.16
392.55	517.26
392.75	606.20
392.94	433.00
393.13	517.26
393.33	526.62
393.52	524.28
393.71	585.13
393.91	620.24
394.10	608.54
394.29	655.35
394.49	638.97
394.68	596.84
394.88	526.62
395.07	550.03
395.26	545.34
395.46	655.35
395.65	568.75
395.84	587.47
396.04	713.86
396.23	638.97
396.42	557.05
396.62	699.82
396.81	603.86
397.00	627.26
397.19	730.25
397.39	610.88
397.58	653.01
397.77	744.29
397.97	725.57
398.16	671.73
398.35	641.31
398.55	662.37
398.74	676.41
398.93	699.82
399.12	641.31
399.32	711.52
399.51	697.48
399.70	734.93
399.90	681.10
400.09	737.27
400.28	744.29
400.47	774.72
400.67	802.80
400.86	732.59
401.05	802.80
401.24	800.46
401.44	851.96
401.63	833.23
401.82	791.10
402.01	788.76
402.21	772.38
402.40	739.61
402.59	877.70
402.78	919.83
402.97	821.53
403.17	809.83
403.36	844.93
403.55	877.70
403.74	861.32
403.93	828.55
404.13	917.49
404.32	936.21
404.51	851.96
404.70	866.00
404.89	842.59
405.09	908.13
405.28	945.58
405.47	933.87
405.66	908.13
405.85	971.32
406.05	980.68
406.24	1020.47
406.43	966.64
406.62	1100.05
406.81	1022.81
407.00	954.94
407.20	1053.24
407.39	1032.18
407.58	954.94
407.77	1027.50
407.96	1062.60
408.15	954.94
408.34	1146.86
408.54	1022.81
408.73	1128.14
408.92	1116.44
409.11	1132.82
409.30	1151.54
409.49	1097.71
409.68	1205.38
409.87	1102.39
410.07	1203.04
410.26	1181.97
410.45	1156.22
410.64	1160.91
410.83	1163.25
411.02	1217.08
411.21	1212.40
411.40	1174.95
411.59	1207.72
411.78	1299.00
411.98	1322.40
412.17	1294.32
412.36	1320.06
412.55	1303.68
412.74	1284.95
412.93	1291.98
413.12	1235.80
413.31	1331.76
413.50	1362.19
413.69	1380.92
413.88	1385.60
414.07	1284.95
414.26	1397.30
414.45	1444.11
414.64	1495.60
414.83	1500.28
415.02	1430.07
415.22	1481.56
415.41	1577.52
415.60	1572.84
415.79	1565.82
415.98	1565.82
416.17	1633.69
416.36	1537.73
416.55	1614.97
416.74	1556.46
416.93	1647.74
417.12	1713.27
417.31	1732.00
417.50	1694.55
417.69	1673.48
417.88	1671.14
418.07	1591.56
418.26	1650.08
418.45	1715.61
418.64	1830.30
418.83	1837.32
419.02	1746.04
419.21	1746.04
419.39	1760.08
419.58	1753.06
419.77	1774.13
419.96	1872.43
420.15	1830.30
420.34	1806.89
420.53	1788.17
420.72	1799.87
420.91	1837.32
421.10	1893.49
421.29	1872.43
421.48	1944.99
421.67	1996.48
421.86	1905.20
422.05	1886.47
422.24	1928.60
422.43	1877.11
422.61	1902.86
422.80	2024.56
422.99	2026.90
423.18	1923.92
423.37	2019.88
423.56	1930.94
423.75	1975.41
423.94	1921.58
424.13	1844.34
424.32	1919.24
424.50	2008.18
424.69	2071.37
424.88	2085.42
425.07	1963.71
425.26	1989.46
425.45	2005.84
425.64	2052.65
425.83	2040.95
426.01	2054.99
426.20	2080.74
426.39	2066.69
426.58	2050.31
426.77	2078.40
426.96	2120.53
427.15	2057.33
427.33	2188.40
427.52	2099.46
427.71	2228.19
427.90	2167.34
428.09	2162.66
428.28	2120.53
428.46	2214.15
428.65	2190.74
428.84	2216.49
429.03	2202.44
429.22	2099.46
429.40	2200.10
429.59	2165.00
429.78	2207.13
429.97	2092.44
430.16	2242.23
430.34	2291.38
430.53	2314.79
430.72	2319.47
430.91	2169.68
431.10	2335.85
431.28	2373.30
431.47	2441.18
431.66	2401.39
431.85	2204.78
432.03	2455.22
432.22	2326.49
432.41	2291.38
432.60	2366.28
432.79	2380.32
432.97	2558.21
433.16	2415.43
433.35	2422.45
433.54	2546.50
433.72	2410.75
433.91	2473.95
434.10	2417.77
434.28	2518.42
434.47	2443.52
434.66	2537.14
434.85	2544.16
435.03	2565.23
435.22	2469.27
435.41	2799.28
435.59	2705.66
435.78	2642.46
435.97	2640.12
436.16	2595.65
436.34	2546.50
436.53	2574.59
436.72	2593.31
436.90	2619.06
437.09	2689.28
437.28	2612.04
437.46	2836.73
437.65	2656.51
437.84	2717.36
438.02	2780.56
438.21	2712.68
438.40	2794.60
438.58	2827.37
438.77	2862.48
438.96	2832.05
439.14	2876.52
439.33	2946.73
439.52	2778.22
439.70	3096.53
439.89	3019.29
440.08	3087.17
440.26	2963.12
440.45	3012.27
440.63	3070.78
440.82	3117.59
441.01	3059.08
441.19	3087.17
441.38	3070.78
441.57	3180.79
441.75	3173.77
441.94	3208.87
442.12	3276.75
442.31	3361.01
442.50	3335.26
442.68	3309.52
442.87	3309.52
443.05	3344.63
443.24	3311.86
443.43	3358.67
443.61	3346.97
443.80	3571.66
443.98	3232.28
444.17	3260.37
444.35	3363.35
444.54	3391.44
444.73	3433.57
444.91	3361.01
445.10	3438.25
445.28	3379.73
445.47	3246.32
445.65	3424.20
445.84	3447.61
446.02	3569.32
446.21	3487.40
446.39	3456.97
446.58	3485.06
446.77	3412.50
446.95	3358.67
447.14	3440.59
447.32	3569.32
447.51	3417.18
447.69	3396.12
447.88	3522.51
448.06	3463.99
448.25	3538.89
448.43	3480.38
448.62	3501.44
448.80	3548.25
448.99	3463.99
449.17	3552.93
449.36	3599.74
449.54	3674.64
449.73	3777.62
449.91	3517.83
450.10	3613.79
450.28	3765.92
450.46	3791.67
450.65	3719.11
450.83	3751.88
451.02	3669.96
451.20	3808.05
451.39	3836.14
451.57	3754.22
451.76	3693.37
451.94	3777.62
452.13	3833.80
452.31	3721.45
452.49	3911.04
452.68	3742.52
452.86	3765.92
453.05	3861.88
453.23	3847.84
453.42	3861.88
453.60	3901.67
453.78	3899.33
453.97	3817.41
454.15	3836.14
454.34	3925.08
454.52	3889.97
454.70	4025.72
454.89	4147.43
455.07	4002.32
455.26	4053.81
455.44	4023.38
455.62	4079.55
455.81	3908.69
455.99	3988.27
456.17	4070.19
456.36	4142.75
456.54	4201.26
456.73	4229.35
456.91	4224.67
457.09	4351.06
457.28	4285.52
457.46	4250.41
457.64	4468.08
457.83	4301.90
458.01	4285.52
458.19	4297.22
458.38	4285.52
458.56	4423.61
458.74	4348.72
458.93	4388.50
459.11	4447.02
459.29	4355.74
459.48	4442.34
459.66	4517.23
459.84	4461.06
460.03	4585.11
460.21	4491.49
460.39	4533.62
460.57	4479.79
460.76	4475.10
460.94	4723.20
461.12	4454.04
461.31	4603.83
461.49	4610.86
461.67	4517.23
461.85	4594.47
462.04	4493.83
462.22	4685.75
462.40	4732.56
462.59	4690.43
462.77	4793.42
462.95	4608.51
463.13	4660.01
463.32	4753.63
463.50	4739.58
463.68	4786.40
463.86	4699.80
464.05	4800.44
464.23	4898.74
464.41	4882.36
464.59	4767.67
464.78	5095.35
464.96	5093.01
465.14	5006.41
465.32	5048.54
465.50	5025.13
465.69	4652.98
465.87	4835.55
466.05	5008.75
466.23	4868.31
466.41	4978.32
466.60	5123.43
466.78	4983.00
466.96	5043.85
467.14	5041.51
467.32	5041.51
467.51	5130.45
467.69	5008.75
467.87	5233.44
468.05	5308.34
468.23	4985.34
468.41	4992.36
468.60	5043.85
468.78	5303.65
468.96	5116.41
469.14	5268.55
469.32	5226.42
469.50	5029.81
469.69	5203.01
469.87	5270.89
470.05	5177.26
470.23	5289.61
470.41	5334.08
470.59	5427.70
470.77	5348.12
470.95	5376.21
471.14	5528.35
471.32	5427.70
471.50	5418.34
471.68	5528.35
471.86	5561.11
472.04	5561.11
472.22	5795.17
472.40	5528.35
472.58	5724.95
472.77	5844.32
472.95	5675.80
473.13	5956.66
473.31	5743.67
473.49	5788.14
473.67	5687.50
473.85	5657.07
474.03	5914.53
474.21	5891.13
474.39	6017.52
474.57	6059.65
474.75	6090.07
474.93	6146.25
475.12	6054.97
475.30	6080.71
475.48	6022.20
475.66	6291.36
475.84	5921.56
476.02	6225.82
476.20	6303.06
476.38	6401.37
476.56	6434.13
476.74	6462.22
476.92	6377.96
477.10	6478.60
477.28	6452.86
477.46	6579.25
477.64	6707.98
477.82	6925.65
478.00	6946.71
478.18	6782.87
478.36	6864.79
478.54	6920.96
478.72	7124.59
478.90	7063.74
479.08	7148.00
479.26	7201.83
479.44	7131.61
479.62	7157.36
479.80	7241.62
479.98	7386.73
480.16	7386.73
480.34	7332.90
480.52	7714.41
480.70	7508.44
480.88	7447.58
481.06	7688.66
481.24	7819.73
481.41	7676.96
481.59	7845.48
481.77	7978.89
481.95	8042.08
482.13	8088.89
482.31	7964.84
482.49	8292.52
482.67	8159.11
482.85	8222.30
483.03	8479.76
483.21	8344.01
483.39	8608.49
483.57	8437.63
483.74	8531.25
483.92	8737.22
484.10	8585.08
484.28	9018.08
484.46	8973.61
484.64	9125.75
484.82	8840.20
485.00	9029.79
485.18	9212.35
485.35	9387.89
485.53	9221.71
485.71	9254.48
485.89	9399.59
486.07	9380.87
486.25	9423.00
486.43	9563.43
486.61	9699.18
486.78	9853.66
486.96	9696.84
487.14	9839.61
487.32	9865.36
487.50	10150.90
487.68	10015.15
487.85	10232.82
488.03	10452.83
488.21	10394.32
488.39	10335.81
488.57	10546.45
488.75	10677.52
488.92	10670.50
489.10	10834.34
489.28	10860.09
489.46	11082.44
489.64	11070.73
489.81	11234.57
489.99	11293.08
490.17	11311.81
490.35	11239.25
490.53	11545.86
490.70	11328.19
490.88	11339.90
491.06	11599.70
491.24	11644.17
491.41	11885.24
491.59	11946.09
491.77	11866.52
491.95	12182.49
492.13	12098.23
492.30	12388.46
492.48	12107.59
492.66	12439.95
492.84	12329.94
493.01	12428.24
493.19	12301.86
493.37	12692.73
493.54	12896.35
493.72	12615.49
493.90	13013.38
494.08	12762.94
494.25	13132.75
494.43	12912.74
494.61	13181.90
494.79	12882.31
494.96	13317.65
495.14	13359.78
495.32	13497.87
495.49	13296.58
495.67	13460.42
495.85	13659.37
496.02	13825.54
496.20	13956.61
496.38	13891.08
496.55	13640.64
496.73	14134.50
496.91	13884.06
497.09	14235.14
497.26	14113.43
497.44	14111.09
497.62	14520.68
497.79	14431.74
497.97	14314.72
498.14	14712.61
498.32	14810.91
498.50	15056.67
498.67	14801.55
498.85	14888.15
499.03	14759.42
499.20	14724.31
499.38	15126.88
499.56	15033.26
499.73	14883.47
499.91	15328.17
500.08	15300.08
500.26	15241.57
500.44	15204.12
500.61	15410.09
500.79	15311.78
500.97	15477.96
501.14	15655.84
501.32	15534.14
501.49	15674.57
501.67	15735.42
501.84	15803.30
502.02	15899.26
502.20	15943.73
502.37	15768.19
502.55	16084.16
502.72	16035.01
502.90	15800.96
503.07	16428.22
503.25	16098.20
503.43	16112.25
503.60	16556.95
503.78	16559.29
503.95	16229.27
504.13	16505.46
504.30	16779.30
504.48	16407.16
504.65	16400.13
504.83	16989.95
505.01	16863.56
505.18	16725.47
505.36	17046.12
505.53	17006.33
505.71	16903.35
505.88	16931.44
506.06	16851.86
506.23	17212.30
506.41	17015.69
506.58	17294.22
506.76	17266.13
506.93	17284.86
507.11	17404.22
507.28	17596.15
507.46	17284.86
507.63	17436.99
507.81	17734.24
507.98	17495.50
508.16	17666.36
508.33	17387.84
508.50	17996.38
508.68	17640.62
508.85	17813.82
509.03	17947.23
509.20	18258.52
509.38	18122.77
509.55	17841.90
509.73	18277.24
509.90	18218.73
510.08	18087.66
510.25	18310.01
510.42	18324.05
510.60	18649.39
510.77	18831.95
510.95	18698.54
511.12	18429.38
511.30	18501.93
511.47	18609.60
511.64	18420.02
511.82	18775.78
511.99	18806.20
512.17	18785.14
512.34	18902.17
512.51	19082.39
512.69	19295.38
512.86	18888.12
513.04	19197.07
513.21	19166.65
513.38	19255.59
513.56	19098.77
513.73	19580.92
513.90	19445.17
514.08	18967.70
514.25	19449.85
514.43	19353.89
514.60	19576.24
514.77	19754.12
514.95	19843.06
515.12	19697.95
515.29	19576.24
515.47	19903.92
515.64	20238.61
515.81	19566.88
515.99	19772.85
516.16	20308.83
516.33	19824.34
516.51	20154.35
516.68	20060.73
516.85	19903.92
517.03	20222.23
517.20	20205.84
517.37	19978.81
517.54	20545.22
517.72	20613.10
517.89	20027.96
518.06	20320.53
518.24	20545.22
518.41	20517.14
518.58	20561.61
518.75	20702.04
518.93	20662.25
519.10	20865.88
519.27	20837.79
519.45	20819.07
519.62	20798.00
519.79	20807.36
519.96	20788.64
520.14	21254.40
520.31	20961.84
520.48	21181.85
520.65	21111.63
520.83	21195.89
521.00	21261.43
521.17	21238.02
521.34	21535.27
521.52	21579.74
521.69	21488.46
521.86	21610.17
522.03	21546.97
522.20	21633.57
522.38	21694.43
522.55	21635.91
522.72	21869.97
522.89	21820.81
523.07	22061.89
523.24	21731.87
523.41	22057.21
523.58	21799.75
523.75	21902.73
523.92	22101.68
524.10	21792.73
524.27	22143.81
524.44	22132.11
524.61	22576.81
524.78	22263.18
524.96	22092.32
525.13	22352.12
525.30	22188.28
525.47	22497.23
525.64	22740.64
525.81	22403.61
525.98	22635.32
526.16	22668.09
526.33	22560.42
526.50	22712.56
526.67	22445.74
526.84	22717.24
527.01	22761.71
527.18	22913.84
527.36	22918.53
527.53	23051.94
527.70	23470.89
527.87	23054.28
528.04	23227.48
528.21	23358.55
528.38	23047.26
528.55	23084.70
528.72	23140.88
528.89	23012.15
529.07	23138.54
529.24	23243.86
529.41	23276.63
529.58	23267.27
529.75	23496.64
529.92	23454.51
530.09	23405.36
530.26	23447.49
530.43	23405.36
530.60	23379.61
530.77	23749.42
530.94	23693.24
531.11	23136.20
531.28	23498.98
531.46	23405.36
531.63	23735.37
531.80	23847.72
531.97	23690.90
532.14	23637.07
532.31	23983.47
532.48	23690.90
532.65	24060.71
532.82	23833.68
532.99	23819.63
533.16	23882.83
533.33	24147.31
533.50	24442.21
533.67	24521.79
533.84	23924.96
534.01	24119.22
534.18	23990.49
534.35	24575.62
534.52	24301.78
534.69	24463.28
534.86	24514.77
535.03	24203.48
535.20	24507.75
535.37	24652.86
535.54	24781.59
535.71	24755.85
535.88	24301.78
536.05	24666.91
536.22	24584.99
536.38	24783.93
536.55	24709.04
536.72	25223.95
536.89	24491.37
537.06	24730.10
537.23	24884.58
537.40	24720.74
537.57	25095.22
537.74	24957.13
537.91	25340.98
538.08	25078.84
538.25	24748.82
538.42	24847.13
538.59	25076.50
538.75	25013.31
538.92	25125.65
539.09	24802.66
539.26	25205.23
539.43	25160.76
539.60	25446.30
539.77	25025.01
539.94	25378.43
540.11	25441.62
540.28	25458.01
540.44	25376.09
540.61	25472.05
540.78	25184.16
540.95	25586.74
541.12	25352.68
541.29	25701.42
541.46	25558.65
541.62	25834.83
541.79	25668.66
541.96	25116.29
542.13	25614.82
542.30	25759.94
542.47	25575.03
542.63	25736.53
542.80	25741.21
542.97	26352.09
543.14	25909.73
543.31	25968.24
543.48	25855.90
543.64	26246.77
543.81	26352.09
543.98	26466.78
544.15	26532.31
544.32	26267.83
544.48	26228.04
544.65	26506.57
544.82	26143.78
544.99	25905.05
545.16	26473.80
545.32	26267.83
545.49	26747.64
545.66	26616.57
545.83	26445.71
546.00	26871.69
546.16	26265.49
546.33	26223.36
546.50	26485.50
546.67	26431.67
546.83	26113.36
547.00	26665.72
547.17	26740.62
547.34	26611.89
547.50	26806.16
547.67	26789.77
547.84	26691.47
548.00	26679.77
548.17	26712.53
548.34	27161.92
548.51	26916.16
548.67	27063.61
548.84	27080.00
549.01	26785.09
549.18	26967.65
549.34	26946.59
549.51	27035.53
549.68	27531.72
549.84	26988.72
550.01	27473.21
550.18	27374.91
550.34	27140.85
550.51	27360.86
550.68	27452.14
550.84	27047.23
551.01	27400.65
551.18	27089.36
551.34	27211.07
551.51	27082.34
551.68	27337.46
551.84	27349.16
552.01	26899.78
552.18	27835.99
552.34	27496.61
552.51	27583.21
552.68	27255.54
552.84	27379.59
553.01	27623.00
553.18	27395.97
553.34	27552.79
553.51	27552.79
553.67	27960.04
553.84	27861.74
554.01	27711.94
554.17	27651.09
554.34	27606.62
554.51	27704.92
554.67	27693.22
554.84	27913.23
555.00	28428.15
555.17	27929.61
555.33	28013.87
555.50	27854.72
555.67	27873.44
555.83	28233.88
556.00	27819.61
556.16	28247.93
556.33	27927.27
556.50	27999.83
556.66	28093.45
556.83	27777.48
556.99	28339.21
557.16	28306.44
557.32	28463.25
557.49	28336.87
557.65	28276.01
557.82	27943.66
557.98	28432.83
558.15	28088.77
558.32	28187.07
558.48	28519.43
558.65	28505.38
558.81	28645.82
558.98	28135.58
559.14	28533.47
559.31	28386.02
559.47	28212.82
559.64	28364.95
559.80	28283.03
559.97	28739.44
560.13	28259.63
560.30	28287.71
560.46	28671.56
560.63	28601.35
560.79	28187.07
560.96	28648.16
561.12	28912.64
561.29	28278.35
561.45	28512.41
561.61	28329.84
561.78	29015.62
561.94	28978.17
562.11	28540.49
562.27	28751.14
562.44	28442.19
562.60	28460.91
562.77	28491.34
562.93	28521.77
563.10	28439.85
563.26	28872.85
563.42	29312.87
563.59	28678.58
563.75	28804.97
563.92	29123.29
564.08	29020.30
564.24	28622.41
564.41	28896.25
564.57	28797.95
564.74	28741.78
564.90	28783.91
565.07	29546.92
565.23	29083.50
565.39	28774.55
565.56	29017.96
565.72	28959.45
565.88	28716.03
566.05	28922.00
566.21	28961.79
566.38	29024.98
566.54	28985.19
566.70	28994.56
566.87	29020.30
567.03	29317.55
567.19	29223.93
567.36	29181.80
567.52	29259.04
567.68	29041.37
567.85	29057.75
568.01	29144.35
568.17	29247.33
568.34	29392.45
568.50	29207.55
568.66	28680.92
568.83	29340.96
568.99	29282.44
569.15	28987.53
569.32	28767.52
569.48	29233.29
569.64	29322.23
569.81	29518.84
569.97	29228.61
570.13	29425.22
570.30	29200.52
570.46	29125.63
570.62	29160.73
570.78	29345.64
570.95	28851.78
571.11	29254.36
571.27	28769.86
571.43	28968.81
571.60	29394.79
571.76	29647.57
571.92	29324.57
572.09	29343.30
572.25	29429.90
572.41	29266.06
572.57	29504.79
572.74	29436.92
572.90	29336.27
573.06	29401.81
573.22	29177.12
573.38	29453.30
573.55	29315.21
573.71	29282.44
573.87	29773.95
574.03	29486.07
574.20	29783.32
574.36	29532.88
574.52	29565.65
574.68	29235.63
574.84	29703.74
575.01	29355.00
575.17	29469.69
575.33	29324.57
575.49	29139.67
575.65	29631.18
575.82	29472.03
575.98	29338.62
576.14	30000.99
576.30	29397.13
576.46	29596.07
576.62	29528.20
576.79	29514.16
576.95	29806.72
577.11	29614.80
577.27	29502.45
577.43	29369.04
577.59	29640.54
577.75	29406.49
577.92	29216.91
578.08	29275.42
578.24	29582.03
578.40	29357.34
578.56	30221.00
578.72	29619.48
578.88	29446.28
579.04	29659.27
579.21	29589.05
579.37	29565.65
579.53	29825.45
579.69	29500.11
579.85	29521.18
580.01	29734.17
580.17	29373.72
580.33	29570.33
580.49	29338.62
580.65	29776.30
580.82	29177.12
580.98	29748.21
581.14	29259.04
581.30	29457.98
581.46	29483.73
581.62	29542.24
581.78	29331.59
581.94	29289.46
582.10	29776.30
582.26	29385.43
582.42	29303.51
582.58	29607.78
582.74	29816.08
582.90	29729.48
583.06	30005.67
583.22	29446.28
583.38	29511.81
583.54	29701.40
583.70	29514.16
583.86	29729.48
584.02	29474.37
584.18	29715.44
584.34	29769.27
584.50	29301.17
584.66	29570.33
584.82	29394.79
584.98	29914.39
585.14	29727.14
585.30	29032.00
585.46	29741.19
585.62	29621.82
585.78	29780.98
585.94	29593.73
586.10	29507.13
586.26	29727.14
586.42	29839.49
586.58	29717.78
586.74	29776.30
586.90	29876.94
587.06	29450.96
587.22	29633.52
587.38	29333.93
587.54	29666.29
587.70	29895.66
587.86	30036.09
588.02	29666.29
588.18	30000.99
588.34	29977.58
588.49	29785.66
588.65	29947.15
588.81	29514.16
588.97	29474.37
589.13	29710.76
589.29	29336.27
589.45	29851.19
589.61	30228.02
589.77	30019.71
589.93	30038.44
590.08	29886.30
590.24	30221.00
590.40	29965.88
590.56	29926.09
590.72	29926.09
590.88	29514.16
591.04	29860.55
591.20	30064.18
591.35	30068.86
591.51	30246.74
591.67	29944.81
591.83	30155.46
591.99	30209.29
