SpectraSuite Data File
++++++++++++++++++++++++++++++++++++
Date: Fri Oct 18 13:58:30 GMT-05:00 2013
User: bianchi
Dark Spectrum Present: No
Reference Spectrum Present: No
Number of Sampled Component Spectra: 1
Spectrometers: USB2+H05261
Integration Time (usec): 50000 (USB2+H05261)
Spectra Averaged: 1 (USB2+H05261)
Boxcar Smoothing: 0 (USB2+H05261)
Correct for Electrical Dark: No (USB2+H05261)
Strobe/Lamp Enabled: No (USB2+H05261)
Correct for Detector Non-linearity: No (USB2+H05261)
Correct for Stray Light: No (USB2+H05261)
Number of Pixels in Processed Spectrum: 2048
>>>>>Begin Processed Spectral Data<<<<<
365.73	0.00
365.92	0.00
366.12	0.00
366.32	0.00
366.52	0.00
366.72	0.00
366.91	0.00
367.11	0.00
367.31	0.00
367.51	0.00
367.70	0.00
367.90	0.00
368.10	0.00
368.30	0.00
368.49	0.00
368.69	0.00
368.89	0.00
369.09	0.00
369.28	0.00
369.48	0.00
369.68	0.00
369.87	0.00
370.07	0.00
370.27	0.00
370.47	14.04
370.66	88.94
370.86	93.62
371.06	119.37
371.25	102.98
371.45	39.79
371.65	175.54
371.84	163.84
372.04	180.22
372.24	168.52
372.44	138.09
372.63	102.98
372.83	142.77
373.03	238.73
373.22	212.99
373.42	229.37
373.62	222.35
373.81	245.76
374.01	271.50
374.21	224.69
374.40	229.37
374.60	208.31
374.79	220.01
374.99	238.73
375.19	212.99
375.38	224.69
375.58	280.86
375.78	266.82
375.97	259.80
376.17	273.84
376.37	215.33
376.56	322.99
376.76	264.48
376.95	222.35
377.15	248.10
377.35	220.01
377.54	191.92
377.74	189.58
377.93	315.97
378.13	306.61
378.33	273.84
378.52	212.99
378.72	241.08
378.91	330.02
379.11	337.04
379.31	189.58
379.50	259.80
379.70	236.39
379.89	252.78
380.09	229.37
380.28	290.23
380.48	313.63
380.68	334.70
380.87	332.36
381.07	299.59
381.26	313.63
381.46	362.78
381.65	365.12
381.85	325.33
382.04	341.72
382.24	369.80
382.43	327.68
382.63	362.78
382.83	325.33
383.02	383.85
383.22	393.21
383.41	318.31
383.61	327.68
383.80	351.08
384.00	320.65
384.19	358.10
384.39	386.19
384.58	369.80
384.78	325.33
384.97	351.08
385.17	388.53
385.36	395.55
385.56	330.02
385.75	330.02
385.95	372.15
386.14	440.02
386.34	367.46
386.53	416.62
386.72	362.78
386.92	500.87
387.11	390.87
387.31	376.83
387.50	374.49
387.70	355.76
387.89	418.96
388.09	430.66
388.28	381.51
388.48	383.85
388.67	440.02
388.86	404.91
389.06	468.11
389.25	477.47
389.45	458.74
389.64	454.06
389.84	414.27
390.03	496.19
390.22	489.17
390.42	550.03
390.61	479.81
390.81	489.17
391.00	416.62
391.19	440.02
391.39	582.79
391.58	472.79
391.78	521.94
391.97	484.49
392.16	505.56
392.36	526.62
392.55	603.86
392.75	540.66
392.94	554.71
393.13	634.29
393.33	533.64
393.52	500.87
393.71	613.22
393.91	667.05
394.10	615.56
394.29	554.71
394.49	564.07
394.68	538.32
394.88	587.47
395.07	545.34
395.26	610.88
395.46	596.84
395.65	653.01
395.84	615.56
396.04	575.77
396.23	594.50
396.42	624.92
396.62	643.65
396.81	608.54
397.00	603.86
397.19	594.50
397.39	641.31
397.58	699.82
397.77	606.20
397.97	613.22
398.16	592.16
398.35	704.50
398.55	634.29
398.74	713.86
398.93	753.65
399.12	725.57
399.32	634.29
399.51	674.07
399.70	683.44
399.90	767.70
400.09	807.48
400.28	732.59
400.47	676.41
400.67	730.25
400.86	793.44
401.05	798.12
401.24	765.36
401.44	784.08
401.63	753.65
401.82	763.01
402.01	753.65
402.21	760.67
402.40	753.65
402.59	814.51
402.78	889.40
402.97	858.98
403.17	840.25
403.36	816.85
403.55	847.27
403.74	884.72
403.93	835.57
404.13	964.30
404.32	877.70
404.51	903.45
404.70	924.51
404.89	957.28
405.09	943.24
405.28	821.53
405.47	926.85
405.66	966.64
405.85	940.90
406.05	1041.54
406.24	992.39
406.43	901.11
406.62	1029.84
406.81	1015.79
407.00	990.05
407.20	1011.11
407.39	1041.54
407.58	1048.56
407.77	1132.82
407.96	1121.12
408.15	961.96
408.34	1001.75
408.54	1029.84
408.73	1048.56
408.92	1071.97
409.11	1170.27
409.30	1163.25
409.49	1165.59
409.68	1067.28
409.87	1107.07
410.07	1226.44
410.26	1268.57
410.45	1240.48
410.64	1142.18
410.83	1181.97
411.02	1151.54
411.21	1102.39
411.40	1275.59
411.59	1153.88
411.78	1235.80
411.98	1263.89
412.17	1320.06
412.36	1308.36
412.55	1355.17
412.74	1387.94
412.93	1366.87
413.12	1266.23
413.31	1448.79
413.50	1357.51
413.69	1371.55
413.88	1469.86
414.07	1380.92
414.26	1504.96
414.45	1392.62
414.64	1434.75
414.83	1453.47
415.02	1540.07
415.22	1472.20
415.41	1579.86
415.60	1521.35
415.79	1542.41
415.98	1526.03
416.17	1535.39
416.36	1504.96
416.55	1582.20
416.74	1537.73
416.93	1652.42
417.12	1661.78
417.31	1582.20
417.50	1626.67
417.69	1717.95
417.88	1614.97
418.07	1643.06
418.26	1673.48
418.45	1739.02
418.64	1853.70
418.83	1771.79
419.02	1776.47
419.21	1856.04
419.39	1823.28
419.58	1832.64
419.77	1788.17
419.96	1811.57
420.15	1830.30
420.34	1832.64
420.53	1816.26
420.72	1832.64
420.91	1816.26
421.10	1886.47
421.29	1961.37
421.48	1884.13
421.67	1954.35
421.86	1858.39
422.05	1909.88
422.24	1930.94
422.43	2010.52
422.61	2054.99
422.80	2017.54
422.99	2003.50
423.18	2092.44
423.37	2033.93
423.56	2062.01
423.75	1942.64
423.94	1984.77
424.13	1830.30
424.32	1947.33
424.50	2090.10
424.69	2120.53
424.88	2080.74
425.07	2010.52
425.26	1968.39
425.45	2104.14
425.64	1952.01
425.83	1935.62
426.01	2036.27
426.20	2022.22
426.39	2062.01
426.58	2069.03
426.77	2050.31
426.96	2115.84
427.15	2069.03
427.33	2118.18
427.52	2111.16
427.71	2059.67
427.90	2204.78
428.09	2101.80
428.28	2155.63
428.46	2174.36
428.65	2162.66
428.84	2202.44
429.03	2251.60
429.22	2176.70
429.40	2129.89
429.59	2218.83
429.78	2045.63
429.97	2146.27
430.16	2190.74
430.34	2235.21
430.53	2195.42
430.72	2307.77
430.91	2179.04
431.10	2331.17
431.28	2389.69
431.47	2300.75
431.66	2218.83
431.85	2375.64
432.03	2401.39
432.22	2443.52
432.41	2420.11
432.60	2469.27
432.79	2445.86
432.97	2375.64
433.16	2452.88
433.35	2366.28
433.54	2459.90
433.72	2473.95
433.91	2450.54
434.10	2497.35
434.28	2429.48
434.47	2452.88
434.66	2495.01
434.85	2490.33
435.03	2614.38
435.22	2602.68
435.41	2541.82
435.59	2534.80
435.78	2654.17
435.97	2654.17
436.16	2574.59
436.34	2642.46
436.53	2705.66
436.72	2640.12
436.90	2513.74
437.09	2733.75
437.28	2715.02
437.46	2712.68
437.65	2778.22
437.84	2759.49
438.02	2759.49
438.21	2782.90
438.40	2803.96
438.58	2761.83
438.77	2832.05
438.96	2857.79
439.14	2867.16
439.33	2792.26
439.52	2911.63
439.70	2925.67
439.89	3000.57
440.08	2951.42
440.26	2881.20
440.45	2925.67
440.63	3094.19
440.82	3070.78
441.01	3094.19
441.19	3047.38
441.38	3056.74
441.57	3105.89
441.75	3293.13
441.94	3232.28
442.12	3101.21
442.31	3286.11
442.50	3199.51
442.68	3117.59
442.87	3318.88
443.05	3267.39
443.24	3358.67
443.43	3211.22
443.61	3389.10
443.80	3389.10
443.98	3372.71
444.17	3227.60
444.35	3197.17
444.54	3379.73
444.73	3274.41
444.91	3431.23
445.10	3279.09
445.28	3265.05
445.47	3346.97
445.65	3410.16
445.84	3393.78
446.02	3468.67
446.21	3478.04
446.39	3386.76
446.58	3496.76
446.77	3405.48
446.95	3435.91
447.14	3426.54
447.32	3501.44
447.51	3433.57
447.69	3494.42
447.88	3438.25
448.06	3475.70
448.25	3386.76
448.43	3499.10
448.62	3405.48
448.80	3531.87
448.99	3440.59
449.17	3410.16
449.36	3543.57
449.54	3684.00
449.73	3695.71
449.91	3522.51
450.10	3590.38
450.28	3681.66
450.46	3485.06
450.65	3583.36
450.83	3674.64
451.02	3782.31
451.20	3716.77
451.39	3892.31
451.57	3702.73
451.76	3798.69
451.94	3662.94
452.13	3929.76
452.31	3925.08
452.49	3768.26
452.68	3744.86
452.86	3887.63
453.05	3983.59
453.23	3791.67
453.42	3772.94
453.60	3866.56
453.78	3819.75
453.97	3831.46
454.15	3873.59
454.34	3878.27
454.52	3918.06
454.70	3990.61
454.89	3904.01
455.07	4107.64
455.26	4028.06
455.44	3962.53
455.62	4138.07
455.81	3992.95
455.99	4159.13
456.17	4124.02
456.36	4072.53
456.54	4320.63
456.73	4114.66
456.91	4255.09
457.09	4229.35
457.28	4238.71
457.46	4339.35
457.64	4344.03
457.83	4273.82
458.01	4196.58
458.19	4379.14
458.38	4348.72
458.56	4409.57
458.74	4264.46
458.93	4348.72
459.11	4365.10
459.29	4449.36
459.48	4379.14
459.66	4379.14
459.84	4610.86
460.03	4535.96
460.21	4587.45
460.39	4503.19
460.57	4514.89
460.76	4482.13
460.94	4674.05
461.12	4643.62
461.31	4613.20
461.49	4608.51
461.67	4559.36
461.85	4634.26
462.04	4624.90
462.22	4730.22
462.40	4711.50
462.59	4746.61
462.77	4608.51
462.95	4636.60
463.13	4730.22
463.32	4896.40
463.50	4858.95
463.68	4770.01
463.86	4730.22
464.05	4915.12
464.23	4788.74
464.41	4858.95
464.59	4709.16
464.78	4975.98
464.96	4812.14
465.14	4835.55
465.32	4943.21
465.50	4837.89
465.69	5048.54
465.87	4910.44
466.05	4931.51
466.23	4833.21
466.41	4985.34
466.60	5118.75
466.78	4915.12
466.96	4968.96
467.14	4945.55
467.32	4912.78
467.51	5013.43
467.69	4990.02
467.87	5032.15
468.05	5104.71
468.23	5116.41
468.41	5060.24
468.60	5193.65
468.78	5123.43
468.96	5174.92
469.14	5275.57
469.32	5266.21
469.50	5123.43
469.69	5296.63
469.87	5406.64
470.05	5455.79
470.23	5394.93
470.41	5266.21
470.59	5542.39
470.77	5303.65
470.95	5479.19
471.14	5537.71
471.32	5305.99
471.50	5586.86
471.68	5444.09
471.86	5598.56
472.04	5582.18
472.22	5516.64
472.40	5544.73
472.58	5715.59
472.77	5626.65
472.95	5647.71
473.13	5935.60
473.31	5729.63
473.49	5746.02
473.67	5874.74
473.85	5846.66
474.03	5921.56
474.21	5839.64
474.39	5944.96
474.57	6010.50
474.75	6059.65
474.93	6244.55
475.12	6003.47
475.30	6003.47
475.48	6076.03
475.66	6317.11
475.84	6122.84
476.02	6436.47
476.20	6279.66
476.38	6530.09
476.56	6597.97
476.74	6448.18
476.92	6427.11
477.10	6569.88
477.28	6768.83
477.46	6410.73
477.64	6541.80
477.82	6621.38
478.00	6944.37
478.18	6806.28
478.36	6806.28
478.54	7016.93
478.72	7098.84
478.90	6956.07
479.08	7047.35
479.26	7005.22
479.44	7014.59
479.62	7222.89
479.80	7126.93
479.98	7391.41
480.16	7480.35
480.34	7314.17
480.52	7630.15
480.70	7480.35
480.88	7590.36
481.06	7698.02
481.24	7424.18
481.41	7592.70
481.59	7803.35
481.77	7915.69
481.95	7824.41
482.13	7789.30
482.31	7967.18
482.49	8222.30
482.67	8039.74
482.85	8318.26
483.03	8482.10
483.21	8489.12
483.39	8603.81
483.57	8418.91
483.74	8683.39
483.92	8594.45
484.10	8601.47
484.28	8767.65
484.46	8837.86
484.64	9291.93
484.82	8971.27
485.00	8795.73
485.18	9060.21
485.35	9224.05
485.53	9149.15
485.71	9352.78
485.89	9460.45
486.07	9329.38
486.25	9483.85
486.43	9467.47
486.61	9731.95
486.78	9720.24
486.96	9760.03
487.14	9893.44
487.32	10054.94
487.50	9886.42
487.68	10188.35
487.85	10202.40
488.03	10267.93
488.21	10307.72
488.39	10466.88
488.57	10466.88
488.75	10445.81
488.92	10546.45
489.10	10691.57
489.28	10726.68
489.46	10981.79
489.64	10656.46
489.81	11028.60
489.99	11201.80
490.17	11281.38
490.35	11435.86
490.53	11513.10
490.70	11604.38
490.88	11405.43
491.06	11536.50
491.24	11611.40
491.41	11763.53
491.59	11707.36
491.77	11733.11
491.95	11885.24
492.13	12156.74
492.30	12016.31
492.48	12074.82
492.66	12205.89
492.84	12278.45
493.01	12327.60
493.19	12149.72
493.37	12542.93
493.54	12636.55
493.72	12678.68
493.90	12730.17
494.08	12931.46
494.25	12793.37
494.43	13043.81
494.61	12957.21
494.79	12982.95
494.96	13015.72
495.14	13053.17
495.32	13277.86
495.49	13451.06
495.67	13509.57
495.85	13537.66
496.02	13743.63
496.20	13642.98
496.38	13760.01
496.55	13577.45
496.73	13998.74
496.91	13741.29
497.09	14150.88
497.26	13963.64
497.44	14258.54
497.62	14047.90
497.79	14185.99
497.97	14462.17
498.14	14637.71
498.32	14483.24
498.50	14808.57
498.67	14761.76
498.85	14885.81
499.03	14635.37
499.20	14867.08
499.38	14560.47
499.56	14764.10
499.73	15080.07
499.91	15105.82
500.08	15061.35
500.26	15056.67
500.44	15089.43
500.61	15419.45
500.79	15283.70
500.97	15314.13
501.14	15641.80
501.32	15604.35
501.49	15819.68
501.67	15559.88
501.84	15606.69
502.02	15499.03
502.20	15793.94
502.37	15840.75
502.55	15854.79
502.72	15892.24
502.90	16156.72
503.07	15941.39
503.25	16037.35
503.43	15878.19
503.60	16023.31
503.78	16678.66
503.95	16416.52
504.13	16266.72
504.30	16414.18
504.48	16250.34
504.65	16276.09
504.83	16655.25
505.01	16938.46
505.18	16961.86
505.36	16821.43
505.53	16697.38
505.71	16411.84
505.88	16830.79
506.06	16786.32
506.23	17355.07
506.41	16994.63
506.58	17172.51
506.76	17088.25
506.93	17069.53
507.11	17074.21
507.28	17378.48
507.46	17446.35
507.63	17530.61
507.81	17666.36
507.98	17378.48
508.16	17525.93
508.33	17525.93
508.50	17495.50
508.68	17572.74
508.85	17738.92
509.03	17645.30
509.20	18066.60
509.38	18263.20
509.55	18169.58
509.73	18286.61
509.90	18108.72
510.08	17928.50
510.25	18246.82
510.42	18232.77
510.60	18515.98
510.77	18335.76
510.95	18473.85
511.12	18338.10
511.30	18480.87
511.47	18504.28
511.64	18415.34
511.82	18850.67
511.99	18717.26
512.17	19124.52
512.34	18661.09
512.51	18876.42
512.69	19012.17
512.86	18686.84
513.04	19138.56
513.21	19098.77
513.38	19208.78
513.56	19391.34
513.73	18953.66
513.90	18956.00
514.08	18986.43
514.25	19124.52
514.43	19543.47
514.60	19564.54
514.77	19868.81
514.95	19749.44
515.12	19527.09
515.29	19360.91
515.47	19800.93
515.64	19880.51
515.81	19459.21
515.99	20042.01
516.16	20042.01
516.33	19796.25
516.51	20348.62
516.68	20042.01
516.85	19924.98
517.03	19845.40
517.20	20004.56
517.37	20219.89
517.54	20152.01
517.72	20105.20
517.89	20484.37
518.06	20334.57
518.24	20034.99
518.41	20320.53
518.58	20570.97
518.75	20304.15
518.93	20954.82
519.10	20676.29
519.27	20252.66
519.45	20798.00
519.62	20678.63
519.79	20627.14
519.96	20685.65
520.14	20683.31
520.31	20989.92
520.48	21160.78
520.65	20819.07
520.83	21111.63
521.00	21205.25
521.17	21006.31
521.34	21418.24
521.52	21193.55
521.69	21460.37
521.86	21289.51
522.03	21682.72
522.20	21788.05
522.38	21446.33
522.55	21413.56
522.72	21490.80
522.89	21745.92
523.07	21912.10
523.24	21846.56
523.41	21874.65
523.58	21610.17
523.75	21762.30
523.92	21774.00
524.10	21724.85
524.27	21895.71
524.44	22270.20
524.61	22139.13
524.78	22459.78
524.96	22078.27
525.13	22101.68
525.30	22443.40
525.47	22249.13
525.64	22043.17
525.81	22207.00
525.98	22412.97
526.16	22405.95
526.33	22380.20
526.50	22576.81
526.67	22522.98
526.84	22534.68
527.01	22080.61
527.18	22654.05
527.36	23005.13
527.53	22923.21
527.70	22932.57
527.87	23192.37
528.04	22796.82
528.21	22995.76
528.38	22693.83
528.55	23110.45
528.72	22754.69
528.89	23381.95
529.07	23302.37
529.24	23016.83
529.41	23337.48
529.58	23204.07
529.75	23028.53
529.92	23087.04
530.09	22955.97
530.26	23489.62
530.43	23403.02
530.60	23484.94
530.77	23213.43
530.94	23400.68
531.11	22995.76
531.28	23314.08
531.46	23644.09
531.63	23445.15
531.80	23587.92
531.97	23812.61
532.14	23672.18
532.31	23637.07
532.48	23903.89
532.65	24051.34
532.82	23882.83
532.99	23709.63
533.16	23426.42
533.33	23976.45
533.50	24100.50
533.67	24156.67
533.84	23838.36
534.01	24002.19
534.18	24004.53
534.35	24313.48
534.52	23892.19
534.69	24360.30
534.86	24339.23
535.03	23943.68
535.20	24245.61
535.37	24381.36
535.54	24517.11
535.71	24226.89
535.88	24634.14
536.05	24306.46
536.22	24643.50
536.38	24711.38
536.55	24191.78
536.72	24622.44
536.89	24336.89
537.06	24542.86
537.23	24542.86
537.40	24533.50
537.57	25034.37
537.74	24795.64
537.91	24987.56
538.08	24849.47
538.25	24858.83
538.42	24891.60
538.59	24964.15
538.75	24987.56
538.92	24903.30
539.09	25008.62
539.26	24898.62
539.43	24975.86
539.60	25067.14
539.77	25188.85
539.94	25252.04
540.11	25081.18
540.28	25465.03
540.44	25132.67
540.61	25020.33
540.78	25305.87
540.95	25652.27
541.12	25160.76
541.29	25392.47
541.46	25340.98
541.62	25427.58
541.79	25724.83
541.96	25259.06
542.13	25277.79
542.30	25584.40
542.47	25635.89
542.63	25521.20
542.80	25942.50
542.97	25685.04
543.14	25979.95
543.31	25900.37
543.48	25832.49
543.64	25991.65
543.81	26043.14
543.98	26134.42
544.15	26026.76
544.32	26008.03
544.48	26412.95
544.65	26319.32
544.82	26223.36
544.99	25893.35
545.16	26064.21
545.32	26202.30
545.49	26155.49
545.66	26698.49
545.83	26389.54
546.00	26597.85
546.16	26031.44
546.33	26415.29
546.50	26012.71
546.67	26487.84
546.83	26181.23
547.00	26394.22
547.17	26305.28
547.34	26864.67
547.50	26363.79
547.67	26513.59
547.84	26569.76
548.00	26581.46
548.17	27103.40
548.34	26281.88
548.51	26539.33
548.67	27496.61
548.84	26668.06
549.01	26698.49
549.18	27051.91
549.34	26632.96
549.51	26787.43
549.68	26628.27
549.84	27014.46
550.01	26955.95
550.18	26829.56
550.34	27021.48
550.51	27325.75
550.68	27000.42
550.84	26462.10
551.01	27243.84
551.18	27051.91
551.34	26941.91
551.51	27424.06
551.68	27175.96
551.84	27398.31
552.01	27110.43
552.18	27428.74
552.34	27129.15
552.51	27505.98
552.68	26899.78
552.84	27407.67
553.01	27386.61
553.18	27201.71
553.34	27351.50
553.51	27573.85
553.67	27718.96
553.84	27866.42
554.01	27751.73
554.17	27424.06
554.34	27971.74
554.51	27335.12
554.67	27704.92
554.84	27494.27
555.00	27835.99
555.17	27695.56
555.33	27735.35
555.50	27536.40
555.67	27733.01
555.83	27501.29
556.00	27662.79
556.16	27995.15
556.33	27758.75
556.50	27873.44
556.66	28137.92
556.83	27742.37
556.99	27887.48
557.16	28318.14
557.32	28332.18
557.49	28163.67
557.65	27924.93
557.82	28020.89
557.98	27784.50
558.15	27873.44
558.32	28257.29
558.48	27810.25
558.65	28168.35
558.81	27913.23
558.98	28051.32
559.14	28128.56
559.31	27852.38
559.47	28203.46
559.64	27964.72
559.80	28182.39
559.97	28109.83
560.13	28381.34
560.30	28144.94
560.46	28430.49
560.63	28423.47
560.79	28292.40
560.96	28664.54
561.12	28341.55
561.29	28182.39
561.45	28322.82
561.61	28341.55
561.78	28259.63
561.94	28261.97
562.11	28577.94
562.27	28500.70
562.44	28320.48
562.60	28809.65
562.77	28411.76
562.93	28268.99
563.10	28669.22
563.26	28589.64
563.42	28669.22
563.59	28561.56
563.75	28716.03
563.92	28638.80
564.08	28437.51
564.24	28720.71
564.41	28294.74
564.57	28521.77
564.74	28505.38
564.90	28591.98
565.07	28531.13
565.23	28844.76
565.39	28826.04
565.56	28669.22
565.72	28407.08
565.88	28732.42
566.05	28685.61
566.21	28355.59
566.38	28573.26
566.54	28854.12
566.70	28687.95
566.87	29020.30
567.03	28746.46
567.19	29209.89
567.36	28917.32
567.52	28608.37
567.68	28837.74
567.85	28561.56
568.01	28790.93
568.17	28627.09
568.34	28802.63
568.50	28931.36
568.66	29186.48
568.83	29120.95
568.99	28854.12
569.15	28933.70
569.32	28589.64
569.48	28446.87
569.64	29050.73
569.81	29022.64
569.97	28964.13
570.13	29001.58
570.30	29010.94
570.46	28914.98
570.62	28954.77
570.78	29163.08
570.95	28861.15
571.11	28950.09
571.27	28568.58
571.43	29291.80
571.60	29153.71
571.76	28954.77
571.92	29046.05
572.09	29017.96
572.25	28833.06
572.41	29275.42
572.57	28596.67
572.74	29221.59
572.90	28893.91
573.06	29142.01
573.22	28879.87
573.38	28966.47
573.55	29134.99
573.71	29259.04
573.87	29261.38
574.03	29158.39
574.20	29394.79
574.36	29055.41
574.52	29020.30
574.68	28891.57
574.84	29474.37
575.01	29240.31
575.17	29237.97
575.33	28924.34
575.49	28968.81
575.65	29240.31
575.82	29270.74
575.98	29296.49
576.14	29355.00
576.30	29319.89
576.46	28945.41
576.62	29170.10
576.79	29174.78
576.95	29369.04
577.11	29242.65
577.27	29266.06
577.43	29713.10
577.59	29689.70
577.75	29376.06
577.92	29259.04
578.08	29244.99
578.24	28772.21
578.40	28835.40
578.56	29553.94
578.72	29024.98
578.88	29450.96
579.04	29584.37
579.21	29364.36
579.37	29448.62
579.53	29710.76
579.69	29455.64
579.85	29256.70
580.01	29457.98
580.17	28701.99
580.33	29163.08
580.49	29324.57
580.65	29752.89
580.82	29546.92
580.98	29647.57
581.14	29181.80
581.30	29455.64
581.46	29165.42
581.62	29397.13
581.78	29275.42
581.94	29343.30
582.10	28732.42
582.26	29259.04
582.42	29366.70
582.58	29376.06
582.74	29741.19
582.90	29160.73
583.06	29415.85
583.22	29277.76
583.38	29453.30
583.54	29364.36
583.70	29322.23
583.86	29350.32
584.02	29055.41
584.18	29565.65
584.34	29666.29
584.50	29666.29
584.66	29195.84
584.82	29308.19
584.98	29369.04
585.14	29537.56
585.30	28882.21
585.46	29420.53
585.62	29027.32
585.78	29195.84
585.94	29296.49
586.10	29692.04
586.26	29727.14
586.42	29607.78
586.58	29598.41
586.74	29802.04
586.90	29202.86
587.06	29146.69
587.22	29518.84
587.38	29369.04
587.54	29834.81
587.70	29898.00
587.86	29923.75
588.02	29818.42
588.18	29523.52
588.34	29727.14
588.49	29521.18
588.65	29399.47
588.81	29193.50
588.97	29446.28
589.13	29186.48
589.29	29465.00
589.45	29743.53
589.61	29509.47
589.77	29895.66
589.93	29420.53
590.08	29738.85
590.24	29621.82
590.40	29886.30
590.56	30181.21
590.72	29619.48
590.88	29591.39
591.04	29659.27
591.20	30139.08
591.35	29851.19
591.51	30239.72
591.67	29888.64
591.83	30316.96
591.99	30213.98
