SpectraSuite Data File
++++++++++++++++++++++++++++++++++++
Date: Fri Oct 18 13:58:01 GMT-05:00 2013
User: bianchi
Dark Spectrum Present: No
Reference Spectrum Present: No
Number of Sampled Component Spectra: 1
Spectrometers: USB2+H05261
Integration Time (usec): 50000 (USB2+H05261)
Spectra Averaged: 1 (USB2+H05261)
Boxcar Smoothing: 0 (USB2+H05261)
Correct for Electrical Dark: No (USB2+H05261)
Strobe/Lamp Enabled: No (USB2+H05261)
Correct for Detector Non-linearity: No (USB2+H05261)
Correct for Stray Light: No (USB2+H05261)
Number of Pixels in Processed Spectrum: 2048
>>>>>Begin Processed Spectral Data<<<<<
365.73	0.00
365.92	0.00
366.12	0.00
366.32	0.00
366.52	0.00
366.72	0.00
366.91	0.00
367.11	0.00
367.31	0.00
367.51	0.00
367.70	0.00
367.90	0.00
368.10	0.00
368.30	0.00
368.49	0.00
368.69	0.00
368.89	0.00
369.09	0.00
369.28	0.00
369.48	0.00
369.68	0.00
369.87	0.00
370.07	0.00
370.27	0.00
370.47	0.00
370.66	135.75
370.86	58.51
371.06	117.03
371.25	91.28
371.45	77.24
371.65	126.39
371.84	114.69
372.04	177.88
372.24	163.84
372.44	191.92
372.63	210.65
372.83	229.37
373.03	161.50
373.22	227.03
373.42	236.39
373.62	276.18
373.81	243.42
374.01	271.50
374.21	276.18
374.40	285.55
374.60	201.29
374.79	205.97
374.99	257.46
375.19	208.31
375.38	168.52
375.58	245.76
375.78	245.76
375.97	292.57
376.17	259.80
376.37	212.99
376.56	287.89
376.76	220.01
376.95	229.37
377.15	231.71
377.35	276.18
377.54	255.12
377.74	318.31
377.93	320.65
378.13	257.46
378.33	252.78
378.52	308.95
378.72	271.50
378.91	210.65
379.11	313.63
379.31	297.25
379.50	269.16
379.70	257.46
379.89	299.59
380.09	297.25
380.28	334.70
380.48	334.70
380.68	339.38
380.87	304.27
381.07	236.39
381.26	294.91
381.46	304.27
381.65	301.93
381.85	262.14
382.04	332.36
382.24	360.44
382.43	301.93
382.63	262.14
382.83	381.51
383.02	428.32
383.22	304.27
383.41	397.89
383.61	355.76
383.80	416.62
384.00	437.68
384.19	374.49
384.39	400.23
384.58	341.72
384.78	353.42
384.97	463.43
385.17	341.72
385.36	353.42
385.56	374.49
385.75	442.36
385.95	418.96
386.14	376.83
386.34	315.97
386.53	465.77
386.72	318.31
386.92	416.62
387.11	400.23
387.31	418.96
387.50	414.27
387.70	472.79
387.89	369.80
388.09	454.06
388.28	479.81
388.48	430.66
388.67	564.07
388.86	461.09
389.06	383.85
389.25	456.40
389.45	451.72
389.64	477.47
389.84	465.77
390.03	451.72
390.22	533.64
390.42	531.30
390.61	496.19
390.81	493.85
391.00	557.05
391.19	526.62
391.39	461.09
391.58	610.88
391.78	594.50
391.97	643.65
392.16	482.15
392.36	587.47
392.55	622.58
392.75	554.71
392.94	613.22
393.13	564.07
393.33	444.70
393.52	585.13
393.71	571.09
393.91	596.84
394.10	519.60
394.29	627.26
394.49	582.79
394.68	575.77
394.88	573.43
395.07	543.00
395.26	526.62
395.46	500.87
395.65	627.26
395.84	685.78
396.04	683.44
396.23	566.41
396.42	657.69
396.62	580.45
396.81	585.13
397.00	613.22
397.19	662.37
397.39	685.78
397.58	624.92
397.77	660.03
397.97	699.82
398.16	725.57
398.35	702.16
398.55	653.01
398.74	716.20
398.93	688.12
399.12	709.18
399.32	697.48
399.51	676.41
399.70	741.95
399.90	777.06
400.09	763.01
400.28	713.86
400.47	720.88
400.67	816.85
400.86	781.74
401.05	706.84
401.24	786.42
401.44	835.57
401.63	795.78
401.82	870.68
402.01	802.80
402.21	840.25
402.40	929.19
402.59	866.00
402.78	807.48
402.97	884.72
403.17	793.44
403.36	830.89
403.55	889.40
403.74	842.59
403.93	847.27
404.13	968.98
404.32	964.30
404.51	819.19
404.70	915.15
404.89	929.19
405.09	929.19
405.28	903.45
405.47	959.62
405.66	999.41
405.85	938.55
406.05	976.00
406.24	994.73
406.43	936.21
406.62	950.26
406.81	1128.14
407.00	1048.56
407.20	997.07
407.39	1006.43
407.58	1034.52
407.77	1050.90
407.96	1020.47
408.15	1025.15
408.34	1104.73
408.54	1041.54
408.73	1102.39
408.92	1151.54
409.11	1055.58
409.30	1191.33
409.49	1139.84
409.68	1039.20
409.87	1174.95
410.07	1252.19
410.26	1219.42
410.45	1217.08
410.64	1081.33
410.83	1186.65
411.02	1284.95
411.21	1186.65
411.40	1217.08
411.59	1303.68
411.78	1256.87
411.98	1231.12
412.17	1390.28
412.36	1240.48
412.55	1252.19
412.74	1416.02
412.93	1336.45
413.12	1238.14
413.31	1371.55
413.50	1406.66
413.69	1418.36
413.88	1514.33
414.07	1502.62
414.26	1519.01
414.45	1495.60
414.64	1497.94
414.83	1551.78
415.02	1493.26
415.22	1657.10
415.41	1586.88
415.60	1462.83
415.79	1521.35
415.98	1572.84
416.17	1502.62
416.36	1619.65
416.55	1521.35
416.74	1685.19
416.93	1652.42
417.12	1750.72
417.31	1671.14
417.50	1647.74
417.69	1760.08
417.88	1764.76
418.07	1748.38
418.26	1764.76
418.45	1823.28
418.64	1820.94
418.83	1682.85
419.02	1724.97
419.21	1839.66
419.39	1813.92
419.58	1816.26
419.77	1734.34
419.96	1811.57
420.15	1872.43
420.34	1891.15
420.53	1853.70
420.72	1982.43
420.91	1928.60
421.10	1977.75
421.29	1907.54
421.48	1884.13
421.67	1963.71
421.86	1956.69
422.05	1989.46
422.24	1982.43
422.43	1956.69
422.61	1984.77
422.80	2062.01
422.99	2090.10
423.18	2024.56
423.37	2090.10
423.56	2108.82
423.75	2073.71
423.94	1893.49
424.13	1893.49
424.32	1921.58
424.50	2017.54
424.69	2064.35
424.88	2001.16
425.07	2015.20
425.26	2050.31
425.45	1982.43
425.64	2033.93
425.83	2073.71
426.01	2153.29
426.20	1895.83
426.39	2143.93
426.58	1940.30
426.77	2019.88
426.96	2087.76
427.15	2064.35
427.33	2085.42
427.52	2122.87
427.71	2179.04
427.90	2162.66
428.09	2087.76
428.28	2127.55
428.46	2207.13
428.65	2150.95
428.84	2340.54
429.03	2377.98
429.22	2153.29
429.40	2286.70
429.59	2342.88
429.78	2085.42
429.97	2118.18
430.16	2251.60
430.34	2216.49
430.53	2267.98
430.72	2431.82
430.91	2267.98
431.10	2382.67
431.28	2368.62
431.47	2310.11
431.66	2502.03
431.85	2530.12
432.03	2511.39
432.22	2345.22
432.41	2347.56
432.60	2483.31
432.79	2406.07
432.97	2495.01
433.16	2623.74
433.35	2427.14
433.54	2438.84
433.72	2516.08
433.91	2466.92
434.10	2537.14
434.28	2459.90
434.47	2504.37
434.66	2502.03
434.85	2651.83
435.03	2609.70
435.22	2525.44
435.41	2576.93
435.59	2661.19
435.78	2672.89
435.97	2607.36
436.16	2579.27
436.34	2626.08
436.53	2684.59
436.72	2705.66
436.90	2635.44
437.09	2750.13
437.28	2696.30
437.46	2679.91
437.65	2789.92
437.84	2890.56
438.02	2766.51
438.21	2724.38
438.40	2668.21
438.58	2836.73
438.77	2862.48
438.96	2935.03
439.14	2944.39
439.33	2932.69
439.52	2981.84
439.70	2918.65
439.89	3101.21
440.08	2935.03
440.26	3157.38
440.45	3059.08
440.63	3126.96
440.82	3138.66
441.01	3232.28
441.19	3162.06
441.38	3220.58
441.57	3164.40
441.75	3288.45
441.94	3372.71
442.12	3236.96
442.31	3337.60
442.50	3351.65
442.68	3274.41
442.87	3267.39
443.05	3258.03
443.24	3400.80
443.43	3513.14
443.61	3442.93
443.80	3527.19
443.98	3454.63
444.17	3279.09
444.35	3370.37
444.54	3492.08
444.73	3499.10
444.91	3454.63
445.10	3566.98
445.28	3555.27
445.47	3344.63
445.65	3426.54
445.84	3431.23
446.02	3548.25
446.21	3449.95
446.39	3520.17
446.58	3543.57
446.77	3449.95
446.95	3377.39
447.14	3396.12
447.32	3517.83
447.51	3569.32
447.69	3428.88
447.88	3515.48
448.06	3632.51
448.25	3672.30
448.43	3550.59
448.62	3531.87
448.80	3435.91
448.99	3613.79
449.17	3604.42
449.36	3541.23
449.54	3669.96
449.73	3684.00
449.91	3639.53
450.10	3817.41
450.28	3674.64
450.46	3719.11
450.65	3688.68
450.83	3836.14
451.02	3569.32
451.20	3756.56
451.39	3747.20
451.57	3789.33
451.76	3772.94
451.94	3740.18
452.13	3981.25
452.31	3915.72
452.49	3782.31
452.68	3985.93
452.86	3878.27
453.05	3845.50
453.23	3983.59
453.42	3969.55
453.60	4037.42
453.78	3967.21
453.97	3906.35
454.15	3960.19
454.34	4180.20
454.52	4135.73
454.70	4070.19
454.89	4074.87
455.07	4046.79
455.26	4072.53
455.44	4304.25
455.62	3932.10
455.81	4114.66
455.99	4189.56
456.17	4227.01
456.36	4259.78
456.54	4348.72
456.73	4215.30
456.91	4383.82
457.09	4290.20
457.28	4411.91
457.46	4297.22
457.64	4208.28
457.83	4269.14
458.01	4255.09
458.19	4484.47
458.38	4491.49
458.56	4351.06
458.74	4430.63
458.93	4301.90
459.11	4486.81
459.29	4505.53
459.48	4472.76
459.66	4526.60
459.84	4437.66
460.03	4650.64
460.21	4571.07
460.39	4582.77
460.57	4470.42
460.76	4622.56
460.94	4706.82
461.12	4514.89
461.31	4655.33
461.49	4685.75
461.67	4557.02
461.85	4791.08
462.04	4671.71
462.22	4966.62
462.40	4814.48
462.59	4730.22
462.77	4767.67
462.95	4802.78
463.13	4940.87
463.32	4861.29
463.50	4945.55
463.68	4870.65
463.86	4819.16
464.05	4807.46
464.23	4814.48
464.41	4781.71
464.59	4819.16
464.78	5034.49
464.96	4880.02
465.14	4940.87
465.32	4908.10
465.50	5104.71
465.69	5085.98
465.87	5060.24
466.05	4924.49
466.23	5046.20
466.41	5057.90
466.60	5165.56
466.78	4926.83
466.96	4992.36
467.14	4950.23
467.32	5116.41
467.51	5284.93
467.69	5181.95
467.87	5203.01
468.05	5195.99
468.23	4947.89
468.41	5172.58
468.60	5186.63
468.78	5411.32
468.96	5242.80
469.14	5188.97
469.32	5432.38
469.50	5156.20
469.69	5193.65
469.87	5521.32
470.05	5572.82
470.23	5420.68
470.41	5521.32
470.59	5453.45
470.77	5373.87
470.95	5596.22
471.14	5493.24
471.32	5418.34
471.50	5675.80
471.68	5720.27
471.86	5689.84
472.04	5636.01
472.22	5717.93
472.40	5671.12
472.58	5895.81
472.77	5556.43
472.95	6001.13
473.13	5991.77
473.31	5724.95
473.49	5741.33
473.67	5738.99
473.85	5944.96
474.03	5980.07
474.21	6047.94
474.39	6003.47
474.57	6263.27
474.75	6174.33
474.93	6223.48
475.12	6284.34
475.30	6352.21
475.48	6373.28
475.66	6193.06
475.84	6403.71
476.02	6307.74
476.20	6473.92
476.38	6476.26
476.56	6649.46
476.74	6724.36
476.92	6455.20
477.10	6509.03
477.28	6740.74
477.46	6759.47
477.64	6918.62
477.82	6719.68
478.00	6876.49
478.18	6705.63
478.36	7089.48
478.54	7068.42
478.72	7059.06
478.90	7159.70
479.08	7307.15
479.26	7194.81
479.44	7335.24
479.62	7258.00
479.80	7517.80
479.98	7522.48
480.16	7660.57
480.34	7693.34
480.52	7632.49
480.70	7716.75
480.88	7468.65
481.06	7793.98
481.24	7630.15
481.41	8100.59
481.59	8037.40
481.77	8124.00
481.95	8105.28
482.13	8229.32
482.31	8222.30
482.49	8280.82
482.67	8292.52
482.85	8416.57
483.03	8608.49
483.21	8559.34
483.39	8664.66
483.57	8383.80
483.74	8823.82
483.92	8828.50
484.10	8791.05
484.28	8882.33
484.46	9074.26
484.64	9179.58
484.82	9235.75
485.00	9195.96
485.18	9245.12
485.35	9607.90
485.53	9277.88
485.71	9540.02
485.89	9563.43
486.07	9605.56
486.25	9846.63
486.43	9799.82
486.61	9797.48
486.78	10076.01
486.96	9717.90
487.14	10001.11
487.32	10157.92
487.50	10246.87
487.68	10080.69
487.85	10539.43
488.03	10558.16
488.21	10743.06
488.39	10597.95
488.57	10796.89
488.75	10548.79
488.92	11026.26
489.10	10808.59
489.28	10937.32
489.46	11309.47
489.64	11262.66
489.81	11225.21
489.99	11379.68
490.17	11555.22
490.35	11630.12
490.53	11470.97
490.70	11688.64
490.88	11672.25
491.06	11953.12
491.24	11866.52
491.41	12044.40
491.59	12138.02
491.77	12067.80
491.95	12070.14
492.13	12217.60
492.30	12109.93
492.48	12198.87
492.66	12449.31
492.84	12465.69
493.01	12531.23
493.19	12587.40
493.37	12755.92
493.54	12732.51
493.72	13085.94
493.90	12886.99
494.08	12905.71
494.25	13404.25
494.43	13135.09
494.61	13238.07
494.79	13537.66
494.96	13434.68
495.14	13479.15
495.32	13469.78
495.49	13544.68
495.67	13748.31
495.85	13518.93
496.02	13968.32
496.20	14087.68
496.38	14071.30
496.55	13912.14
496.73	14317.06
496.91	14256.20
497.09	14494.94
497.26	14438.76
497.44	14253.86
497.62	14319.40
497.79	14324.08
497.97	14721.97
498.14	14768.78
498.32	14808.57
498.50	14827.29
498.67	15105.82
498.85	14984.11
499.03	14913.89
499.20	15122.20
499.38	15129.22
499.56	15484.98
499.73	15426.47
499.91	15501.37
500.08	15693.29
500.26	15421.79
500.44	15566.90
500.61	15639.46
500.79	15641.80
500.97	15763.51
501.14	15723.72
501.32	15934.37
501.49	15866.49
501.67	15810.32
501.84	15723.72
502.02	15796.28
502.20	16283.11
502.37	16154.38
502.55	16313.53
502.72	16470.35
502.90	16372.05
503.07	16245.66
503.25	16273.74
503.43	16526.52
503.60	16540.57
503.78	16793.34
503.95	16648.23
504.13	16601.42
504.30	16713.77
504.48	16847.18
504.65	17011.01
504.83	16791.00
505.01	17317.62
505.18	17039.10
505.36	17146.76
505.53	16982.93
505.71	17121.02
505.88	17301.24
506.06	17259.11
506.23	17371.46
506.41	17427.63
506.58	17528.27
506.76	17561.04
506.93	17371.46
507.11	17781.05
507.28	17497.84
507.46	17539.97
507.63	17813.82
507.81	17977.65
507.98	17692.11
508.16	17804.46
508.33	18031.49
508.50	17738.92
508.68	17926.16
508.85	18513.64
509.03	18195.32
509.20	18204.69
509.38	18335.76
509.55	18380.23
509.73	18420.02
509.90	18356.82
510.08	18321.71
510.25	18637.69
510.42	18654.07
510.60	18728.97
510.77	18600.24
510.95	18963.02
511.12	18815.57
511.30	18853.02
511.47	18888.12
511.64	19007.49
511.82	18981.74
511.99	19220.48
512.17	19295.38
512.34	19103.45
512.51	19105.79
512.69	19215.80
512.86	19344.53
513.04	19601.99
513.21	19545.81
513.38	19587.94
513.56	19527.09
513.73	19211.12
513.90	19440.49
514.08	19829.02
514.25	19775.19
514.43	19868.81
514.60	19838.38
514.77	19667.52
514.95	20046.69
515.12	19873.49
515.29	19786.89
515.47	19920.30
515.64	20229.25
515.81	20285.42
515.99	20243.29
516.16	20533.52
516.33	20409.47
516.51	20540.54
516.68	20329.89
516.85	20318.19
517.03	20624.80
517.20	20563.95
517.37	20313.51
517.54	20830.77
517.72	20720.76
517.89	20599.05
518.06	20840.13
518.24	20570.97
518.41	21032.05
518.58	20854.17
518.75	20861.19
518.93	20893.96
519.10	21179.51
519.27	21123.33
519.45	20734.81
519.62	21062.48
519.79	21209.93
519.96	21235.68
520.14	21202.91
520.31	21001.63
520.48	21507.18
520.65	21708.47
520.83	21549.31
521.00	21699.11
521.17	21294.19
521.34	21411.22
521.52	21832.52
521.69	21731.87
521.86	21790.39
522.03	21872.31
522.20	21862.94
522.38	21968.27
522.55	21715.49
522.72	22127.42
522.89	22127.42
523.07	22398.93
523.24	22382.54
523.41	22122.74
523.58	22134.45
523.75	22239.77
523.92	22113.38
524.10	22375.52
524.27	22466.80
524.44	22361.48
524.61	22396.59
524.78	22794.48
524.96	22333.39
525.13	22890.44
525.30	22628.30
525.47	22438.72
525.64	23005.13
525.81	23030.87
525.98	23178.33
526.16	22934.91
526.33	22642.34
526.50	22857.67
526.67	22988.74
526.84	22888.10
527.01	23190.03
527.18	23206.41
527.36	23157.26
527.53	23255.56
527.70	23325.78
527.87	23667.50
528.04	23510.68
528.21	23473.23
528.38	23484.94
528.55	23552.81
528.72	23484.94
528.89	23618.35
529.07	23510.68
529.24	23255.56
529.41	23744.73
529.58	23679.20
529.75	23527.06
529.92	23927.30
530.09	23686.22
530.26	23590.26
530.43	23936.66
530.60	23765.80
530.77	23941.34
530.94	23798.57
531.11	24100.50
531.28	23756.44
531.46	23950.70
531.63	23620.69
531.80	24130.92
531.97	24489.03
532.14	24519.45
532.31	24205.82
532.48	24187.10
532.65	24458.60
532.82	24201.14
532.99	24273.70
533.16	24355.61
533.33	24437.53
533.50	24610.73
533.67	24608.39
533.84	24648.18
534.01	24533.50
534.18	24711.38
534.35	24580.31
534.52	24683.29
534.69	25092.88
534.86	24828.40
535.03	24924.36
535.20	24959.47
535.37	25170.12
535.54	25303.53
535.71	24783.93
535.88	24959.47
536.05	25036.71
536.22	25153.74
536.38	25109.27
536.55	24917.34
536.72	25462.69
536.89	25266.08
537.06	25017.99
537.23	25273.10
537.40	25322.26
537.57	25371.41
537.74	25254.38
537.91	25067.14
538.08	25472.05
538.25	25331.62
538.42	25397.15
538.59	25282.47
538.75	25556.31
538.92	25336.30
539.09	25614.82
539.26	25532.90
539.43	25631.21
539.60	25811.43
539.77	25708.44
539.94	26120.38
540.11	25647.59
540.28	25853.56
540.44	25598.44
540.61	25553.97
540.78	25692.06
540.95	25743.55
541.12	25729.51
541.29	26120.38
541.46	26150.81
541.62	25757.60
541.79	25455.67
541.96	25773.98
542.13	25916.75
542.30	26057.18
542.47	26209.32
542.63	26302.94
542.80	26649.34
542.97	26738.28
543.14	26532.31
543.31	26316.98
543.48	26424.65
543.64	26368.48
543.81	26565.08
543.98	26724.24
544.15	26511.25
544.32	26522.95
544.48	26719.56
544.65	26684.45
544.82	26785.09
544.99	26553.38
545.16	26810.84
545.32	26654.02
545.49	27068.30
545.66	26799.13
545.83	27349.16
546.00	27096.38
546.16	26918.50
546.33	26551.04
546.50	26558.06
546.67	27087.02
546.83	26686.79
547.00	26951.27
547.17	27173.62
547.34	27089.36
547.50	27517.68
547.67	27508.32
547.84	27428.74
548.00	27332.78
548.17	27253.20
548.34	27101.06
548.51	27044.89
548.67	27487.25
548.84	27199.37
549.01	27215.75
549.18	27318.73
549.34	27318.73
549.51	27417.04
549.68	27395.97
549.84	27601.94
550.01	27676.83
550.18	27693.22
550.34	27571.51
550.51	27672.15
550.68	27878.12
550.84	27487.25
551.01	27686.20
551.18	27431.08
551.34	27676.83
551.51	27985.79
551.68	27927.27
551.84	27812.59
552.01	27714.28
552.18	27906.21
552.34	27857.06
552.51	28166.01
552.68	28156.64
552.84	27878.12
553.01	28119.20
553.18	27580.87
553.34	28123.88
553.51	28201.11
553.67	28517.09
553.84	28739.44
554.01	28400.06
554.17	28126.22
554.34	27964.72
554.51	27946.00
554.67	28465.60
554.84	28182.39
555.00	28177.71
555.17	28367.29
555.33	28339.21
555.50	28203.46
555.67	28243.24
555.83	28243.24
556.00	28552.20
556.16	28510.07
556.33	28442.19
556.50	28432.83
556.66	28734.76
556.83	28591.98
556.99	28919.66
557.16	29172.44
557.32	28938.38
557.49	28765.18
557.65	28442.19
557.82	28591.98
557.98	29034.35
558.15	28489.00
558.32	28788.59
558.48	28596.67
558.65	29090.52
558.81	29120.95
558.98	29006.26
559.14	28982.85
559.31	28903.28
559.47	28535.81
559.64	28980.51
559.80	28819.02
559.97	28903.28
560.13	28835.40
560.30	28945.41
560.46	28952.43
560.63	29064.77
560.79	29207.55
560.96	29172.44
561.12	28898.59
561.29	29385.43
561.45	29010.94
561.61	29020.30
561.78	28938.38
561.94	29254.36
562.11	29170.10
562.27	29315.21
562.44	29284.78
562.60	29186.48
562.77	29305.85
562.93	28865.83
563.10	29591.39
563.26	29060.09
563.42	29942.47
563.59	29158.39
563.75	29572.67
563.92	29689.70
564.08	29048.39
564.24	29469.69
564.41	28882.21
564.57	29006.26
564.74	29200.52
564.90	29378.40
565.07	29198.18
565.23	29422.87
565.39	29343.30
565.56	29537.56
565.72	29596.07
565.88	29708.42
566.05	29418.19
566.21	29212.23
566.38	29460.32
566.54	29598.41
566.70	29598.41
566.87	29710.76
567.03	29486.07
567.19	29820.77
567.36	30216.32
567.52	29420.53
567.68	29628.84
567.85	29598.41
568.01	29589.05
568.17	29085.84
568.34	29766.93
568.50	29392.45
568.66	29490.75
568.83	30059.50
568.99	29593.73
569.15	29486.07
569.32	29642.88
569.48	29558.63
569.64	29673.31
569.81	29612.46
569.97	29942.47
570.13	29493.09
570.30	29596.07
570.46	29572.67
570.62	29371.38
570.78	29642.88
570.95	29362.02
571.11	29617.14
571.27	29663.95
571.43	29764.59
571.60	29729.48
571.76	29656.93
571.92	29593.73
572.09	29455.64
572.25	29539.90
572.41	29853.53
572.57	29914.39
572.74	30003.33
572.90	29490.75
573.06	30038.44
573.22	29979.92
573.38	29883.96
573.55	29867.58
573.71	30115.67
573.87	29937.79
574.03	30209.29
574.20	30075.88
574.36	30143.76
574.52	29516.50
574.68	29724.80
574.84	29834.81
575.01	30249.08
575.17	29682.67
575.33	30036.09
575.49	29851.19
575.65	29839.49
575.82	29736.51
575.98	29895.66
576.14	29862.90
576.30	29539.90
576.46	30000.99
576.62	30031.41
576.79	29816.08
576.95	29998.65
577.11	30087.59
577.27	29876.94
577.43	30003.33
577.59	29663.95
577.75	30405.90
577.92	29975.24
578.08	29713.10
578.24	29530.54
578.40	29537.56
578.56	30026.73
578.72	30321.64
578.88	30572.08
579.04	30639.95
579.21	30080.56
579.37	30195.25
579.53	30188.23
579.69	30036.09
579.85	29996.31
580.01	30291.21
580.17	29563.31
580.33	30071.20
580.49	29855.87
580.65	30321.64
580.82	30410.58
580.98	30089.93
581.14	29986.94
581.30	30307.60
581.46	29837.15
581.62	30164.82
581.78	29834.81
581.94	30052.48
582.10	30017.37
582.26	29982.26
582.42	30015.03
582.58	30553.35
582.74	29933.11
582.90	30326.32
583.06	30008.01
583.22	29839.49
583.38	29895.66
583.54	30569.74
583.70	30031.41
583.86	30005.67
584.02	29944.81
584.18	30431.65
584.34	30340.36
584.50	30469.09
584.66	30092.27
584.82	30089.93
584.98	29991.62
585.14	30274.83
585.30	30022.05
585.46	30228.02
585.62	29645.23
585.78	29867.58
585.94	30078.22
586.10	30162.48
586.26	30218.66
586.42	30272.49
586.58	30202.27
586.74	30195.25
586.90	30323.98
587.06	30167.16
587.22	30125.04
587.38	30281.85
587.54	30176.53
587.70	30352.07
587.86	30473.78
588.02	30483.14
588.18	30588.46
588.34	30478.46
588.49	30684.42
588.65	30279.51
588.81	30581.44
588.97	30284.19
589.13	30433.99
589.29	30188.23
589.45	30527.61
589.61	30717.19
589.77	30597.82
589.93	31075.29
590.08	30621.23
590.24	31033.16
590.40	30820.17
590.56	30485.48
590.72	30377.81
590.88	29776.30
591.04	30340.36
591.20	30487.82
591.35	30572.08
591.51	30551.01
591.67	30691.44
591.83	30906.77
591.99	30768.68
