SpectraSuite Data File
++++++++++++++++++++++++++++++++++++
Date: Fri Oct 18 13:58:05 GMT-05:00 2013
User: bianchi
Dark Spectrum Present: No
Reference Spectrum Present: No
Number of Sampled Component Spectra: 1
Spectrometers: USB2+H05261
Integration Time (usec): 50000 (USB2+H05261)
Spectra Averaged: 1 (USB2+H05261)
Boxcar Smoothing: 0 (USB2+H05261)
Correct for Electrical Dark: No (USB2+H05261)
Strobe/Lamp Enabled: No (USB2+H05261)
Correct for Detector Non-linearity: No (USB2+H05261)
Correct for Stray Light: No (USB2+H05261)
Number of Pixels in Processed Spectrum: 2048
>>>>>Begin Processed Spectral Data<<<<<
365.73	0.00
365.92	0.00
366.12	0.00
366.32	0.00
366.52	0.00
366.72	0.00
366.91	0.00
367.11	0.00
367.31	0.00
367.51	0.00
367.70	0.00
367.90	0.00
368.10	0.00
368.30	0.00
368.49	0.00
368.69	0.00
368.89	0.00
369.09	0.00
369.28	0.00
369.48	0.00
369.68	0.00
369.87	0.00
370.07	0.00
370.27	0.00
370.47	0.00
370.66	163.84
370.86	217.67
371.06	149.79
371.25	187.24
371.45	79.58
371.65	154.48
371.84	191.92
372.04	198.95
372.24	229.37
372.44	205.97
372.63	166.18
372.83	210.65
373.03	194.26
373.22	215.33
373.42	175.54
373.62	196.60
373.81	189.58
374.01	227.03
374.21	266.82
374.40	236.39
374.60	294.91
374.79	241.08
374.99	210.65
375.19	241.08
375.38	245.76
375.58	236.39
375.78	292.57
375.97	294.91
376.17	334.70
376.37	285.55
376.56	217.67
376.76	236.39
376.95	236.39
377.15	255.12
377.35	297.25
377.54	304.27
377.74	320.65
377.93	292.57
378.13	290.23
378.33	294.91
378.52	311.29
378.72	301.93
378.91	325.33
379.11	327.68
379.31	269.16
379.50	297.25
379.70	411.93
379.89	341.72
380.09	243.42
380.28	301.93
380.48	325.33
380.68	386.19
380.87	348.74
381.07	212.99
381.26	341.72
381.46	411.93
381.65	355.76
381.85	337.04
382.04	285.55
382.24	276.18
382.43	376.83
382.63	346.40
382.83	388.53
383.02	299.59
383.22	390.87
383.41	411.93
383.61	353.42
383.80	435.34
384.00	327.68
384.19	372.15
384.39	421.30
384.58	430.66
384.78	411.93
384.97	365.12
385.17	416.62
385.36	421.30
385.56	351.08
385.75	337.04
385.95	355.76
386.14	472.79
386.34	395.55
386.53	425.98
386.72	437.68
386.92	449.38
387.11	447.04
387.31	393.21
387.50	535.98
387.70	351.08
387.89	428.32
388.09	409.59
388.28	425.98
388.48	386.19
388.67	430.66
388.86	475.13
389.06	479.81
389.25	496.19
389.45	592.16
389.64	484.49
389.84	510.24
390.03	528.96
390.22	461.09
390.42	500.87
390.61	479.81
390.81	526.62
391.00	484.49
391.19	435.34
391.39	519.60
391.58	559.39
391.78	505.56
391.97	540.66
392.16	524.28
392.36	561.73
392.55	552.37
392.75	566.41
392.94	545.34
393.13	578.11
393.33	482.15
393.52	582.79
393.71	613.22
393.91	575.77
394.10	585.13
394.29	608.54
394.49	592.16
394.68	620.24
394.88	697.48
395.07	643.65
395.26	615.56
395.46	615.56
395.65	667.05
395.84	655.35
396.04	671.73
396.23	613.22
396.42	608.54
396.62	704.50
396.81	720.88
397.00	645.99
397.19	711.52
397.39	653.01
397.58	734.93
397.77	683.44
397.97	636.63
398.16	695.14
398.35	711.52
398.55	765.36
398.74	758.33
398.93	711.52
399.12	725.57
399.32	688.12
399.51	683.44
399.70	748.97
399.90	786.42
400.09	800.46
400.28	713.86
400.47	828.55
400.67	779.40
400.86	777.06
401.05	772.38
401.24	690.46
401.44	870.68
401.63	866.00
401.82	793.44
402.01	807.48
402.21	739.61
402.40	851.96
402.59	983.02
402.78	830.89
402.97	791.10
403.17	863.66
403.36	875.36
403.55	933.87
403.74	990.05
403.93	912.81
404.13	933.87
404.32	997.07
404.51	905.79
404.70	957.28
404.89	936.21
405.09	980.68
405.28	858.98
405.47	999.41
405.66	1067.28
405.85	1055.58
406.05	954.94
406.24	1029.84
406.43	1060.26
406.62	976.00
406.81	1071.97
407.00	1123.46
407.20	1008.77
407.39	1093.03
407.58	1125.80
407.77	1123.46
407.96	1041.54
408.15	1069.62
408.34	1123.46
408.54	1107.07
408.73	1118.78
408.92	1163.25
409.11	1177.29
409.30	1214.74
409.49	1200.69
409.68	1303.68
409.87	1242.82
410.07	1228.78
410.26	1179.63
410.45	1198.35
410.64	1191.33
410.83	1139.84
411.02	1268.57
411.21	1226.44
411.40	1352.83
411.59	1252.19
411.78	1247.51
411.98	1245.16
412.17	1268.57
412.36	1348.15
412.55	1390.28
412.74	1310.70
412.93	1385.60
413.12	1371.55
413.31	1345.81
413.50	1394.96
413.69	1507.30
413.88	1437.09
414.07	1380.92
414.26	1430.07
414.45	1432.41
414.64	1483.90
414.83	1537.73
415.02	1535.39
415.22	1605.61
415.41	1497.94
415.60	1549.43
415.79	1678.16
415.98	1724.97
416.17	1687.53
416.36	1685.19
416.55	1689.87
416.74	1694.55
416.93	1659.44
417.12	1717.95
417.31	1755.40
417.50	1771.79
417.69	1767.10
417.88	1830.30
418.07	1797.53
418.26	1706.25
418.45	2010.52
418.64	1935.62
418.83	1846.68
419.02	1834.98
419.21	1778.81
419.39	1849.02
419.58	1795.19
419.77	1870.09
419.96	1905.20
420.15	1820.94
420.34	1872.43
420.53	1820.94
420.72	1996.48
420.91	1907.54
421.10	2005.84
421.29	2008.18
421.48	1902.86
421.67	2078.40
421.86	1891.15
422.05	1970.73
422.24	2024.56
422.43	1944.99
422.61	1984.77
422.80	2064.35
422.99	2071.37
423.18	2090.10
423.37	2038.61
423.56	2076.06
423.75	2101.80
423.94	2080.74
424.13	1947.33
424.32	1895.83
424.50	2101.80
424.69	2195.42
424.88	2050.31
425.07	2059.67
425.26	2265.64
425.45	2008.18
425.64	2085.42
425.83	2054.99
426.01	2106.48
426.20	2097.12
426.39	2054.99
426.58	2078.40
426.77	2160.31
426.96	2108.82
427.15	2146.27
427.33	2150.95
427.52	2108.82
427.71	2188.40
427.90	2251.60
428.09	2172.02
428.28	2263.30
428.46	2303.09
428.65	2195.42
428.84	2242.23
429.03	2293.72
429.22	2260.96
429.40	2286.70
429.59	2251.60
429.78	2256.28
429.97	2071.37
430.16	2179.04
430.34	2375.64
430.53	2314.79
430.72	2373.30
430.91	2382.67
431.10	2359.26
431.28	2296.07
431.47	2296.07
431.66	2410.75
431.85	2394.37
432.03	2434.16
432.22	2525.44
432.41	2392.03
432.60	2394.37
432.79	2466.92
432.97	2450.54
433.16	2457.56
433.35	2539.48
433.54	2691.62
433.72	2679.91
433.91	2597.99
434.10	2539.48
434.28	2551.18
434.47	2574.59
434.66	2672.89
434.85	2696.30
435.03	2736.09
435.22	2597.99
435.41	2693.96
435.59	2689.28
435.78	2654.17
435.97	2579.27
436.16	2642.46
436.34	2628.42
436.53	2752.47
436.72	2913.97
436.90	2733.75
437.09	2864.82
437.28	2785.24
437.46	2771.19
437.65	2815.66
437.84	2911.63
438.02	2874.18
438.21	2916.31
438.40	2766.51
438.58	2904.60
438.77	2965.46
438.96	2956.10
439.14	3014.61
439.33	3019.29
439.52	3136.32
439.70	3026.31
439.89	3101.21
440.08	3096.53
440.26	3049.72
440.45	3197.17
440.63	3082.49
440.82	3052.06
441.01	3227.60
441.19	3129.30
441.38	3419.52
441.57	3475.70
441.75	3192.49
441.94	3178.45
442.12	3384.41
442.31	3389.10
442.50	3468.67
442.68	3344.63
442.87	3314.20
443.05	3428.88
443.24	3524.85
443.43	3417.18
443.61	3478.04
443.80	3597.40
443.98	3349.31
444.17	3403.14
444.35	3438.25
444.54	3487.40
444.73	3456.97
444.91	3431.23
445.10	3524.85
445.28	3515.48
445.47	3485.06
445.65	3494.42
445.84	3499.10
446.02	3684.00
446.21	3487.40
446.39	3461.65
446.58	3517.83
446.77	3646.55
446.95	3559.95
447.14	3475.70
447.32	3555.27
447.51	3541.23
447.69	3522.51
447.88	3662.94
448.06	3728.47
448.25	3508.46
448.43	3583.36
448.62	3693.37
448.80	3611.45
448.99	3707.41
449.17	3555.27
449.36	3716.77
449.54	3707.41
449.73	3906.35
449.91	3679.32
450.10	3819.75
450.28	3798.69
450.46	3824.44
450.65	3784.65
450.83	3768.26
451.02	3911.04
451.20	4007.00
451.39	3913.38
451.57	3875.93
451.76	3754.22
451.94	3911.04
452.13	3974.23
452.31	3904.01
452.49	3861.88
452.68	3918.06
452.86	3981.25
453.05	3915.72
453.23	3929.76
453.42	3929.76
453.60	4007.00
453.78	4105.30
453.97	4180.20
454.15	3999.98
454.34	3911.04
454.52	4060.83
454.70	4102.96
454.89	4049.13
455.07	4131.05
455.26	4203.60
455.44	4180.20
455.62	4219.99
455.81	4081.89
455.99	4191.90
456.17	4231.69
456.36	4306.59
456.54	4269.14
456.73	4269.14
456.91	4404.89
457.09	4454.04
457.28	4374.46
457.46	4311.27
457.64	4442.34
457.83	4435.32
458.01	4444.68
458.19	4594.47
458.38	4400.21
458.56	4496.17
458.74	4667.03
458.93	4428.29
459.11	4505.53
459.29	4592.13
459.48	4720.86
459.66	4648.30
459.84	4631.92
460.03	4702.14
460.21	4657.67
460.39	4683.41
460.57	4608.51
460.76	4608.51
460.94	4685.75
461.12	4868.31
461.31	4770.01
461.49	4823.84
461.67	4699.80
461.85	4805.12
462.04	4873.00
462.22	5165.56
462.40	4940.87
462.59	4868.31
462.77	4940.87
462.95	4840.23
463.13	4807.46
463.32	4985.34
463.50	4894.06
463.68	4938.53
463.86	4929.17
464.05	4961.94
464.23	4898.74
464.41	5013.43
464.59	4985.34
464.78	5085.98
464.96	5146.84
465.14	5043.85
465.32	5081.30
465.50	5242.80
465.69	5078.96
465.87	5212.37
466.05	5053.22
466.23	5228.76
466.41	5280.25
466.60	5268.55
466.78	5170.24
466.96	5231.10
467.14	5305.99
467.32	5224.08
467.51	5317.70
467.69	5149.18
467.87	5210.03
468.05	5320.04
468.23	5366.85
468.41	5263.86
468.60	5214.71
468.78	5373.87
468.96	4994.70
469.14	5294.29
469.32	5650.05
469.50	5542.39
469.69	5479.19
469.87	5619.63
470.05	5778.78
470.23	5596.22
470.41	5511.96
470.59	5533.03
470.77	5509.62
470.95	5535.37
471.14	5720.27
471.32	5673.46
471.50	5790.49
471.68	5654.73
471.86	5769.42
472.04	5949.64
472.22	6029.22
472.40	5830.27
472.58	5760.06
472.77	5944.96
472.95	5942.62
473.13	6045.60
473.31	5879.43
473.49	6010.50
473.67	6040.92
473.85	6015.18
474.03	6171.99
474.21	6113.48
474.39	6204.76
474.57	6167.31
474.75	6218.80
474.93	6396.68
475.12	6333.49
475.30	6368.60
475.48	6176.67
475.66	6375.62
475.84	6487.96
476.02	6469.24
476.20	6537.12
476.38	6628.40
476.56	6764.15
476.74	6787.55
476.92	6771.17
477.10	6614.35
477.28	6881.18
477.46	6836.70
477.64	6855.43
477.82	7000.54
478.00	7269.70
478.18	7052.03
478.36	7014.59
478.54	7119.91
478.72	7197.15
478.90	7288.43
479.08	7208.85
479.26	7566.95
479.44	7609.08
479.62	7456.95
479.80	7475.67
479.98	7712.07
480.16	7665.25
480.34	7669.94
480.52	7793.98
480.70	7936.76
480.88	7721.43
481.06	7934.42
481.24	8051.44
481.41	8004.63
481.59	8259.75
481.77	8205.92
481.95	8219.96
482.13	8292.52
482.31	8201.24
482.49	8580.40
482.67	8423.59
482.85	8561.68
483.03	8526.57
483.21	8697.43
483.39	8929.14
483.57	8594.45
483.74	8933.82
483.92	8823.82
484.10	9095.32
484.28	9109.36
484.46	9111.71
484.64	9280.22
484.82	9294.27
485.00	9261.50
485.18	9575.13
485.35	9710.88
485.53	9537.68
485.71	9624.28
485.89	9750.67
486.07	9860.68
486.25	9844.29
486.43	9909.83
486.61	9919.19
486.78	10097.07
486.96	10256.23
487.14	10277.29
487.32	10382.62
487.50	10345.17
487.68	10394.32
487.85	10698.59
488.03	10633.05
488.21	10820.30
488.39	10934.98
488.57	10871.79
488.75	11005.20
488.92	11246.27
489.10	11098.82
489.28	11339.90
489.46	11328.19
489.64	11520.12
489.81	11646.51
489.99	11545.86
490.17	11903.96
490.35	11925.03
490.53	12020.99
490.70	12222.28
490.88	11981.20
491.06	11887.58
491.24	12100.57
491.41	12175.47
491.59	12142.70
491.77	12334.62
491.95	12336.96
492.13	12320.58
492.30	12716.13
492.48	12512.50
492.66	12706.77
492.84	12706.77
493.01	12926.78
493.19	13095.30
493.37	13226.37
493.54	12879.97
493.72	13280.20
493.90	13266.16
494.08	13345.73
494.25	13521.27
494.43	13394.89
494.61	13390.20
494.79	13589.15
494.96	13858.31
495.14	13764.69
495.32	13668.73
495.49	13965.98
495.67	13949.59
495.85	14094.71
496.02	14190.67
496.20	14523.02
496.38	14366.21
496.55	14548.77
496.73	14733.67
496.91	14710.27
497.09	14677.50
497.26	14871.76
497.44	14724.31
497.62	14815.59
497.79	15215.82
497.97	14991.13
498.14	15206.46
498.32	15119.86
498.50	15126.88
498.67	15272.00
498.85	15169.01
499.03	15487.32
499.20	15431.15
499.38	15543.50
499.56	15585.63
499.73	15667.55
499.91	15873.51
500.08	15878.19
500.26	15824.36
500.44	15840.75
500.61	15932.03
500.79	15831.38
500.97	16177.78
501.14	16222.25
501.32	16285.45
501.49	16238.64
501.67	16491.41
501.84	16671.64
502.02	16332.26
502.20	16470.35
502.37	16482.05
502.55	16709.08
502.72	16924.41
502.90	16634.19
503.07	16507.80
503.25	16863.56
503.43	16718.45
503.60	16872.92
503.78	17135.06
503.95	17137.40
504.13	17095.27
504.30	17039.10
504.48	17184.21
504.65	17254.43
504.83	17455.72
505.01	17287.20
505.18	17444.01
505.36	17582.10
505.53	17568.06
505.71	17593.81
505.88	17469.76
506.06	17355.07
506.23	18033.83
506.41	17855.95
506.58	17820.84
506.76	18094.68
506.93	17846.58
507.11	17703.81
507.28	17881.69
507.46	18188.30
507.63	18546.40
507.81	18466.83
507.98	18457.46
508.16	18464.49
508.33	18410.65
508.50	18335.76
508.68	18485.55
508.85	18530.02
509.03	18244.48
509.20	18682.16
509.38	18984.09
509.55	19012.17
509.73	18892.80
509.90	18899.83
510.08	18834.29
510.25	18768.76
510.42	19419.42
510.60	19229.84
510.77	19119.84
510.95	19267.29
511.12	19030.90
511.30	19337.51
511.47	19276.65
511.64	19510.71
511.82	19758.80
511.99	19538.79
512.17	19545.81
512.34	19688.59
512.51	19873.49
512.69	19899.23
512.86	19559.86
513.04	19983.49
513.21	19978.81
513.38	20180.10
513.56	19932.00
513.73	20009.24
513.90	20098.18
514.08	20077.12
514.25	19964.77
514.43	20355.64
514.60	20341.60
514.77	20547.56
514.95	20449.26
515.12	20081.80
515.29	20355.64
515.47	20688.00
515.64	20685.65
515.81	20786.30
515.99	20769.91
516.16	20730.12
516.33	20964.18
516.51	20676.29
516.68	20863.54
516.85	21191.21
517.03	21074.18
517.20	21167.80
517.37	21165.46
517.54	21177.17
517.72	21055.46
517.89	21284.83
518.06	21312.92
518.24	21130.36
518.41	21303.56
518.58	21448.67
518.75	21420.58
518.93	20964.18
519.10	21500.16
519.27	21605.49
519.45	21598.46
519.62	21790.39
519.79	21958.91
519.96	21699.11
520.14	21965.93
520.31	21781.03
520.48	22118.06
520.65	21858.26
520.83	22230.41
521.00	22242.11
521.17	22127.42
521.34	22307.65
521.52	22466.80
521.69	22153.17
521.86	22216.36
522.03	22525.32
522.20	22544.04
522.38	22682.13
522.55	22700.86
522.72	22464.46
522.89	22691.49
523.07	22764.05
523.24	22717.24
523.41	22766.39
523.58	22618.94
523.75	22820.22
523.92	22569.79
524.10	22616.60
524.27	23314.08
524.44	23054.28
524.61	23353.87
524.78	23183.01
524.96	23021.51
525.13	23220.45
525.30	23473.23
525.47	23400.68
525.64	23185.35
525.81	23660.48
525.98	23665.16
526.16	23697.92
526.33	23718.99
526.50	23754.10
526.67	23470.89
526.84	23276.63
527.01	23498.98
527.18	23587.92
527.36	23611.32
527.53	23857.08
527.70	24041.98
527.87	23990.49
528.04	23814.95
528.21	24002.19
528.38	23655.79
528.55	23948.36
528.72	23964.75
528.89	24091.13
529.07	24140.29
529.24	24039.64
529.41	24276.04
529.58	24290.08
529.75	24072.41
529.92	24456.26
530.09	24683.29
530.26	24266.67
530.43	24360.30
530.60	24217.52
530.77	24238.59
530.94	24442.21
531.11	24374.34
531.28	24278.38
531.46	24320.51
531.63	24734.78
531.80	24805.00
531.97	24954.79
532.14	25064.80
532.31	24690.31
532.48	24828.40
532.65	24676.27
532.82	24402.43
532.99	25003.94
533.16	25109.27
533.33	24954.79
533.50	25495.46
533.67	25446.30
533.84	25104.59
534.01	25099.90
534.18	24856.49
534.35	25373.75
534.52	25254.38
534.69	25245.02
534.86	25462.69
535.03	25294.17
535.20	25626.53
535.37	25404.17
535.54	25465.03
535.71	25216.93
535.88	25598.44
536.05	25380.77
536.22	25408.86
536.38	25881.64
536.55	25710.78
536.72	25773.98
536.89	25654.61
537.06	25965.90
537.23	25895.69
537.40	25788.02
537.57	25912.07
537.74	26052.50
537.91	26328.69
538.08	25956.54
538.25	26106.34
538.42	25893.35
538.59	26204.64
538.75	26024.42
538.92	25827.81
539.09	26239.75
539.26	26384.86
539.43	25937.82
539.60	25720.15
539.77	26164.85
539.94	26286.56
540.11	26071.23
540.28	26518.27
540.44	26499.55
540.61	26307.62
540.78	26319.32
540.95	26356.77
541.12	26490.18
541.29	26691.47
541.46	26661.04
541.62	26471.46
541.79	26754.66
541.96	26333.37
542.13	26595.51
542.30	26859.99
542.47	26927.86
542.63	26955.95
542.80	27150.21
542.97	27227.45
543.14	27243.84
543.31	27019.14
543.48	27126.81
543.64	27496.61
543.81	27452.14
543.98	27491.93
544.15	27510.66
544.32	27365.54
544.48	27536.40
544.65	27384.27
544.82	27213.41
544.99	27122.13
545.16	27250.86
545.32	27594.92
545.49	27601.94
545.66	27538.74
545.83	27470.87
546.00	27608.96
546.16	27623.00
546.33	27304.69
546.50	27108.08
546.67	27501.29
546.83	27260.22
547.00	27697.90
547.17	27632.36
547.34	27838.33
547.50	28067.70
547.67	28006.85
547.84	28044.30
548.00	28093.45
548.17	27997.49
548.34	28084.09
548.51	28334.53
548.67	28205.80
548.84	28166.01
549.01	28009.19
549.18	28226.86
549.34	28084.09
549.51	27978.76
549.68	28205.80
549.84	27988.13
550.01	28418.78
550.18	28020.89
550.34	28222.18
550.51	28224.52
550.68	28147.28
550.84	27960.04
551.01	28285.37
551.18	28273.67
551.34	28439.85
551.51	28355.59
551.68	28451.55
551.84	28517.09
552.01	28673.90
552.18	28533.47
552.34	28666.88
552.51	28823.70
552.68	28512.41
552.84	28449.21
553.01	28692.63
553.18	28823.70
553.34	28496.02
553.51	28730.08
553.67	29158.39
553.84	29064.77
554.01	29099.88
554.17	29036.69
554.34	28947.75
554.51	29015.62
554.67	28514.75
554.84	28903.28
555.00	29230.95
555.17	29256.70
555.33	28982.85
555.50	29149.03
555.67	29043.71
555.83	28861.15
556.00	29137.33
556.16	29153.71
556.33	29413.51
556.50	29287.12
556.66	29399.47
556.83	29369.04
556.99	29310.53
557.16	29619.48
557.32	29654.59
557.49	29394.79
557.65	29247.33
557.82	29172.44
557.98	29315.21
558.15	29214.57
558.32	29268.40
558.48	29560.97
558.65	29776.30
558.81	29401.81
558.98	30008.01
559.14	29514.16
559.31	29448.62
559.47	29523.52
559.64	29659.27
559.80	29844.17
559.97	29717.78
560.13	29687.36
560.30	29675.65
560.46	30078.22
560.63	29785.66
560.79	29865.24
560.96	30129.72
561.12	29490.75
561.29	29694.38
561.45	29502.45
561.61	29729.48
561.78	29998.65
561.94	29818.42
562.11	30099.29
562.27	30237.38
562.44	29635.86
562.60	30153.12
562.77	30190.57
562.93	29816.08
563.10	29940.13
563.26	29799.70
563.42	30277.17
563.59	30389.52
563.75	30260.79
563.92	30183.55
564.08	29996.31
564.24	29858.21
564.41	29879.28
564.57	29654.59
564.74	30335.68
564.90	30132.06
565.07	30178.87
565.23	30038.44
565.39	30080.56
565.56	30195.25
565.72	30242.06
565.88	30139.08
566.05	30092.27
566.21	29883.96
566.38	30377.81
566.54	30036.09
566.70	30171.85
566.87	30785.07
567.03	30469.09
567.19	30958.27
567.36	30106.31
567.52	30424.62
567.68	30471.43
567.85	30127.38
568.01	30452.71
568.17	30108.65
568.34	30843.58
568.50	30469.09
568.66	30396.54
568.83	30548.67
568.99	30600.16
569.15	30125.04
569.32	30710.17
569.48	30160.14
569.64	30005.67
569.81	30466.75
569.97	30426.96
570.13	30941.88
570.30	30473.78
570.46	30656.34
570.62	30342.70
570.78	30579.10
570.95	30621.23
571.11	30457.39
571.27	30335.68
571.43	30293.55
571.60	30895.07
571.76	30558.03
571.92	30424.62
572.09	30759.32
572.25	31028.48
572.41	30651.66
572.57	30464.41
572.74	30529.95
572.90	30134.40
573.06	30696.13
573.22	30520.59
573.38	30799.11
573.55	30302.92
573.71	30719.53
573.87	30829.54
574.03	30466.75
574.20	30897.41
574.36	30567.40
574.52	31005.08
574.68	30890.39
574.84	30670.38
575.01	30712.51
575.17	30785.07
575.33	30384.83
575.49	30724.21
575.65	30771.02
575.82	30279.51
575.98	30717.19
576.14	30881.03
576.30	30927.84
576.46	30710.17
576.62	30600.16
576.79	31014.44
576.95	30829.54
577.11	31040.18
577.27	30642.29
577.43	30813.15
577.59	31147.85
577.75	30359.09
577.92	30761.66
578.08	30466.75
578.24	30639.95
578.40	30803.79
578.56	30890.39
578.72	30937.20
578.88	31250.83
579.04	30782.73
579.21	30862.30
579.37	30822.51
579.53	30551.01
579.69	30618.89
579.85	30789.75
580.01	30752.30
580.17	30684.42
580.33	30621.23
580.49	30654.00
580.65	30906.77
580.82	30991.03
580.98	30953.58
581.14	31072.95
581.30	30953.58
581.46	30934.86
581.62	30726.55
581.78	30714.85
581.94	30635.27
582.10	30778.04
582.26	30852.94
582.42	31290.62
582.58	30962.95
582.74	30593.14
582.90	30771.02
583.06	31000.40
583.22	31243.81
583.38	31049.55
583.54	30684.42
583.70	30984.01
583.86	31119.76
584.02	30754.64
584.18	31180.62
584.34	30939.54
584.50	31541.06
584.66	30967.63
584.82	30696.13
584.98	31096.36
585.14	30850.60
585.30	30700.81
585.46	30881.03
585.62	30925.50
585.78	30965.29
585.94	30871.67
586.10	30941.88
586.26	31243.81
586.42	31152.53
586.58	31395.95
586.74	30827.20
586.90	30967.63
587.06	30913.80
587.22	30874.01
587.38	30932.52
587.54	31101.04
587.70	31171.25
587.86	31133.81
588.02	30976.99
588.18	31388.92
588.34	31131.47
588.49	31428.71
588.65	30827.20
588.81	30913.80
588.97	31351.48
589.13	31054.23
589.29	31154.87
589.45	31314.03
589.61	31168.91
589.77	31468.50
589.93	31459.14
590.08	31566.81
590.24	31342.11
590.40	31634.68
590.56	31218.07
590.72	31101.04
590.88	31152.53
591.04	31267.22
591.20	31594.89
591.35	31672.13
591.51	31728.30
591.67	31833.63
591.83	32011.51
