SpectraSuite Data File
++++++++++++++++++++++++++++++++++++
Date: Fri Oct 18 13:58:36 GMT-05:00 2013
User: bianchi
Dark Spectrum Present: No
Reference Spectrum Present: No
Number of Sampled Component Spectra: 1
Spectrometers: USB2+H05261
Integration Time (usec): 50000 (USB2+H05261)
Spectra Averaged: 1 (USB2+H05261)
Boxcar Smoothing: 0 (USB2+H05261)
Correct for Electrical Dark: No (USB2+H05261)
Strobe/Lamp Enabled: No (USB2+H05261)
Correct for Detector Non-linearity: No (USB2+H05261)
Correct for Stray Light: No (USB2+H05261)
Number of Pixels in Processed Spectrum: 2048
>>>>>Begin Processed Spectral Data<<<<<
365.73	23.41
365.92	23.41
366.12	23.41
366.32	0.00
366.52	0.00
366.72	0.00
366.91	0.00
367.11	0.00
367.31	0.00
367.51	0.00
367.70	0.00
367.90	0.00
368.10	0.00
368.30	0.00
368.49	0.00
368.69	0.00
368.89	0.00
369.09	0.00
369.28	0.00
369.48	0.00
369.68	0.00
369.87	0.00
370.07	0.00
370.27	0.00
370.47	0.00
370.66	53.83
370.86	65.54
371.06	86.60
371.25	145.11
371.45	107.66
371.65	152.13
371.84	182.56
372.04	170.86
372.24	142.77
372.44	212.99
372.63	168.52
372.83	198.95
373.03	191.92
373.22	168.52
373.42	215.33
373.62	234.05
373.81	203.63
374.01	220.01
374.21	194.26
374.40	344.06
374.60	198.95
374.79	262.14
374.99	203.63
375.19	229.37
375.38	210.65
375.58	191.92
375.78	322.99
375.97	227.03
376.17	234.05
376.37	266.82
376.56	191.92
376.76	238.73
376.95	250.44
377.15	283.20
377.35	280.86
377.54	259.80
377.74	266.82
377.93	238.73
378.13	397.89
378.33	264.48
378.52	229.37
378.72	351.08
378.91	332.36
379.11	215.33
379.31	318.31
379.50	212.99
379.70	257.46
379.89	330.02
380.09	341.72
380.28	325.33
380.48	250.44
380.68	264.48
380.87	287.89
381.07	327.68
381.26	280.86
381.46	308.95
381.65	297.25
381.85	315.97
382.04	325.33
382.24	374.49
382.43	304.27
382.63	327.68
382.83	449.38
383.02	339.38
383.22	301.93
383.41	313.63
383.61	416.62
383.80	355.76
384.00	418.96
384.19	348.74
384.39	447.04
384.58	397.89
384.78	341.72
384.97	390.87
385.17	395.55
385.36	376.83
385.56	409.59
385.75	348.74
385.95	306.61
386.14	411.93
386.34	376.83
386.53	430.66
386.72	346.40
386.92	404.91
387.11	510.24
387.31	437.68
387.50	390.87
387.70	458.74
387.89	409.59
388.09	355.76
388.28	430.66
388.48	400.23
388.67	463.43
388.86	472.79
389.06	379.17
389.25	484.49
389.45	531.30
389.64	416.62
389.84	496.19
390.03	456.40
390.22	503.22
390.42	557.05
390.61	517.26
390.81	486.83
391.00	475.13
391.19	533.64
391.39	491.51
391.58	519.60
391.78	491.51
391.97	566.41
392.16	479.81
392.36	500.87
392.55	613.22
392.75	521.94
392.94	552.37
393.13	491.51
393.33	596.84
393.52	575.77
393.71	566.41
393.91	573.43
394.10	557.05
394.29	554.71
394.49	554.71
394.68	622.58
394.88	561.73
395.07	561.73
395.26	531.30
395.46	631.94
395.65	697.48
395.84	702.16
396.04	732.59
396.23	543.00
396.42	606.20
396.62	655.35
396.81	615.56
397.00	648.33
397.19	699.82
397.39	547.69
397.58	641.31
397.77	667.05
397.97	676.41
398.16	664.71
398.35	599.18
398.55	653.01
398.74	674.07
398.93	758.33
399.12	753.65
399.32	667.05
399.51	746.63
399.70	770.04
399.90	706.84
400.09	781.74
400.28	791.10
400.47	739.61
400.67	734.93
400.86	781.74
401.05	779.40
401.24	760.67
401.44	781.74
401.63	821.53
401.82	748.97
402.01	837.91
402.21	830.89
402.40	828.55
402.59	786.42
402.78	777.06
402.97	854.30
403.17	861.32
403.36	870.68
403.55	851.96
403.74	917.49
403.93	971.32
404.13	931.53
404.32	947.92
404.51	889.40
404.70	985.37
404.89	835.57
405.09	919.83
405.28	922.17
405.47	978.34
405.66	1029.84
405.85	1006.43
406.05	985.37
406.24	968.98
406.43	952.60
406.62	1013.45
406.81	1076.65
407.00	964.30
407.20	997.07
407.39	973.66
407.58	994.73
407.77	1013.45
407.96	1062.60
408.15	978.34
408.34	1032.18
408.54	966.64
408.73	1100.05
408.92	1090.69
409.11	1107.07
409.30	1158.57
409.49	1062.60
409.68	1074.31
409.87	1118.78
410.07	1102.39
410.26	1224.10
410.45	1245.16
410.64	1210.06
410.83	1165.59
411.02	1224.10
411.21	1235.80
411.40	1142.18
411.59	1219.42
411.78	1291.98
411.98	1270.91
412.17	1294.32
412.36	1348.15
412.55	1287.29
412.74	1385.60
412.93	1350.49
413.12	1315.38
413.31	1465.18
413.50	1270.91
413.69	1472.20
413.88	1383.26
414.07	1472.20
414.26	1514.33
414.45	1434.75
414.64	1469.86
414.83	1462.83
415.02	1472.20
415.22	1458.15
415.41	1558.80
415.60	1617.31
415.79	1530.71
415.98	1607.95
416.17	1568.16
416.36	1584.54
416.55	1504.96
416.74	1647.74
416.93	1729.66
417.12	1760.08
417.31	1659.44
417.50	1776.47
417.69	1750.72
417.88	1757.74
418.07	1774.13
418.26	1748.38
418.45	1804.55
418.64	1797.53
418.83	1741.36
419.02	1797.53
419.21	1827.96
419.39	1874.77
419.58	1853.70
419.77	1827.96
419.96	1856.04
420.15	1839.66
420.34	1839.66
420.53	1893.49
420.72	1937.96
420.91	1860.73
421.10	1905.20
421.29	1973.07
421.48	1858.39
421.67	2017.54
421.86	1926.26
422.05	1998.82
422.24	1877.11
422.43	1961.37
422.61	1909.88
422.80	1994.14
422.99	2045.63
423.18	2036.27
423.37	2008.18
423.56	1968.39
423.75	1895.83
423.94	1891.15
424.13	1842.00
424.32	1905.20
424.50	2052.65
424.69	2031.58
424.88	2073.71
425.07	1940.30
425.26	2022.22
425.45	2059.67
425.64	2047.97
425.83	2113.50
426.01	2118.18
426.20	1994.14
426.39	2092.44
426.58	2078.40
426.77	2169.68
426.96	2010.52
427.15	2050.31
427.33	2174.36
427.52	2045.63
427.71	2204.78
427.90	2162.66
428.09	2169.68
428.28	2115.84
428.46	2111.16
428.65	2300.75
428.84	2239.89
429.03	2176.70
429.22	2256.28
429.40	2146.27
429.59	2249.25
429.78	2193.08
429.97	2125.21
430.16	2111.16
430.34	2265.64
430.53	2394.37
430.72	2307.77
430.91	2319.47
431.10	2321.81
431.28	2450.54
431.47	2377.98
431.66	2354.58
431.85	2328.83
432.03	2359.26
432.22	2448.20
432.41	2275.00
432.60	2485.65
432.79	2483.31
432.97	2520.76
433.16	2583.95
433.35	2551.18
433.54	2452.88
433.72	2588.63
433.91	2422.45
434.10	2551.18
434.28	2520.76
434.47	2555.86
434.66	2583.95
434.85	2616.72
435.03	2518.42
435.22	2487.99
435.41	2621.40
435.59	2651.83
435.78	2635.44
435.97	2670.55
436.16	2626.08
436.34	2729.06
436.53	2715.02
436.72	2689.28
436.90	2619.06
437.09	2722.04
437.28	2675.23
437.46	2715.02
437.65	2738.43
437.84	2773.53
438.02	2789.92
438.21	2829.71
438.40	2665.87
438.58	2822.69
438.77	2818.00
438.96	2874.18
439.14	3005.25
439.33	2895.24
439.52	2904.60
439.70	2920.99
439.89	2899.92
440.08	2862.48
440.26	3023.97
440.45	3082.49
440.63	3054.40
440.82	3112.91
441.01	3023.97
441.19	3077.80
441.38	3225.26
441.57	3213.56
441.75	3260.37
441.94	3222.92
442.12	3300.16
442.31	3368.03
442.50	3276.75
442.68	3403.14
442.87	3318.88
443.05	3234.62
443.24	3513.14
443.43	3463.99
443.61	3461.65
443.80	3595.06
443.98	3276.75
444.17	3220.58
444.35	3389.10
444.54	3506.12
444.73	3466.33
444.91	3419.52
445.10	3461.65
445.28	3440.59
445.47	3538.89
445.65	3382.07
445.84	3515.48
446.02	3410.16
446.21	3489.74
446.39	3468.67
446.58	3576.34
446.77	3543.57
446.95	3445.27
447.14	3433.57
447.32	3616.13
447.51	3384.41
447.69	3566.98
447.88	3564.64
448.06	3417.18
448.25	3435.91
448.43	3482.72
448.62	3541.23
448.80	3564.64
448.99	3669.96
449.17	3599.74
449.36	3641.87
449.54	3669.96
449.73	3658.26
449.91	3751.88
450.10	3735.50
450.28	3763.58
450.46	3695.71
450.65	3555.27
450.83	3735.50
451.02	3824.44
451.20	3772.94
451.39	3742.52
451.57	3684.00
451.76	3716.77
451.94	3709.75
452.13	3845.50
452.31	3864.22
452.49	3845.50
452.68	3983.59
452.86	3936.78
453.05	3929.76
453.23	4023.38
453.42	3892.31
453.60	3808.05
453.78	3936.78
453.97	3925.08
454.15	3824.44
454.34	3847.84
454.52	4037.42
454.70	3999.98
454.89	4109.98
455.07	3950.82
455.26	4009.34
455.44	4051.47
455.62	4014.02
455.81	4102.96
455.99	4105.30
456.17	4184.88
456.36	4154.45
456.54	4222.33
456.73	4212.96
456.91	4386.16
457.09	4149.77
457.28	4264.46
457.46	4283.18
457.64	4432.97
457.83	4360.42
458.01	4271.48
458.19	4514.89
458.38	4372.12
458.56	4372.12
458.74	4376.80
458.93	4379.14
459.11	4348.72
459.29	4344.03
459.48	4542.98
459.66	4472.76
459.84	4482.13
460.03	4610.86
460.21	4404.89
460.39	4578.09
460.57	4514.89
460.76	4550.00
460.94	4669.37
461.12	4615.54
461.31	4585.11
461.49	4596.81
461.67	4564.04
461.85	4725.54
462.04	4755.97
462.22	4933.85
462.40	4751.29
462.59	4655.33
462.77	4638.94
462.95	4723.20
463.13	4786.40
463.32	4910.44
463.50	4903.42
463.68	4915.12
463.86	4767.67
464.05	4802.78
464.23	4809.80
464.41	4997.04
464.59	4826.18
464.78	4945.55
464.96	4877.68
465.14	5069.60
465.32	5107.05
465.50	5289.61
465.69	4975.98
465.87	5217.05
466.05	5062.58
466.23	4952.57
466.41	4973.64
466.60	5268.55
466.78	4980.66
466.96	4999.38
467.14	5181.95
467.32	5043.85
467.51	5205.35
467.69	5057.90
467.87	5181.95
468.05	5188.97
468.23	5069.60
468.41	5165.56
468.60	5305.99
468.78	5273.23
468.96	5128.11
469.14	5273.23
469.32	5338.76
469.50	5170.24
469.69	5259.18
469.87	5390.25
470.05	5397.28
470.23	5406.64
470.41	5453.45
470.59	5462.81
470.77	5418.34
470.95	5437.06
471.14	5614.95
471.32	5277.91
471.50	5462.81
471.68	5586.86
471.86	5675.80
472.04	5434.72
472.22	5738.99
472.40	5509.62
472.58	5636.01
472.77	5717.93
472.95	5827.93
473.13	5959.00
473.31	6026.88
473.49	5643.03
473.67	5888.79
473.85	5846.66
474.03	5884.11
474.21	6019.86
474.39	6033.90
474.57	5959.00
474.75	5930.92
474.93	6160.29
475.12	6272.64
475.30	6047.94
475.48	6162.63
475.66	6413.07
475.84	6305.40
476.02	6246.89
476.20	6349.87
476.38	6511.37
476.56	6661.16
476.74	6544.14
476.92	6513.71
477.10	6452.86
477.28	6761.81
477.46	6541.80
477.64	6761.81
477.82	6661.16
478.00	6918.62
478.18	6843.73
478.36	6862.45
478.54	6974.80
478.72	6930.33
478.90	7016.93
479.08	7286.09
479.26	7042.67
479.44	7377.37
479.62	7300.13
479.80	7527.16
479.98	7475.67
480.16	7389.07
480.34	7391.41
480.52	7496.74
480.70	7719.09
480.88	7552.91
481.06	7681.64
481.24	7740.15
481.41	7793.98
481.59	8018.68
481.77	7995.27
481.95	7817.39
482.13	8229.32
482.31	8032.72
482.49	8070.17
482.67	8116.98
482.85	8423.59
483.03	8383.80
483.21	8482.10
483.39	8659.98
483.57	8425.93
483.74	8692.75
483.92	8887.01
484.10	8599.13
484.28	8800.41
484.46	9013.40
484.64	9092.98
484.82	9095.32
485.00	9029.79
485.18	9432.36
485.35	9453.42
485.53	9305.97
485.71	9308.31
485.89	9582.15
486.07	9331.72
486.25	9507.26
486.43	9542.36
486.61	9633.64
486.78	10015.15
486.96	9846.63
487.14	10125.16
487.32	10066.64
487.50	10090.05
487.68	10083.03
487.85	10293.68
488.03	10539.43
488.21	10565.18
488.39	10647.10
488.57	10464.54
488.75	10579.22
488.92	10689.23
489.10	10637.73
489.28	11061.37
489.46	11173.72
489.64	10897.53
489.81	11379.68
489.99	11227.55
490.17	11241.59
490.35	11447.56
490.53	11501.39
490.70	11730.76
490.88	11527.14
491.06	11768.21
491.24	11627.78
491.41	12072.48
491.59	11896.94
491.77	12058.44
491.95	12086.53
492.13	11894.60
492.30	12418.88
492.48	12116.95
492.66	12379.09
492.84	12280.79
493.01	12374.41
493.19	12767.62
493.37	12540.59
493.54	12674.00
493.72	12894.01
493.90	13188.92
494.08	12938.48
494.25	13092.96
494.43	13004.02
494.61	13315.31
494.79	13128.06
494.96	13151.47
495.14	13364.46
495.32	13420.63
495.49	13352.76
495.67	13736.60
495.85	13914.48
496.02	13664.05
496.20	13827.88
496.38	13722.56
496.55	13954.27
496.73	14083.00
496.91	14113.43
497.09	14473.87
497.26	14345.14
497.44	14253.86
497.62	14401.32
497.79	14670.48
497.97	14478.55
498.14	14600.26
498.32	14871.76
498.50	14747.72
498.67	14895.17
498.85	15154.97
499.03	14906.87
499.20	15087.09
499.38	15136.24
499.56	15197.10
499.73	15119.86
499.91	15208.80
500.08	15372.64
500.26	15171.35
500.44	15499.03
500.61	15164.33
500.79	15330.51
500.97	15609.03
501.14	15903.94
501.32	15836.06
501.49	16116.93
501.67	15690.95
501.84	16006.92
502.02	15885.22
502.20	16077.14
502.37	16130.97
502.55	16304.17
502.72	16257.36
502.90	16233.96
503.07	16215.23
503.25	16379.07
503.43	16168.42
503.60	16730.15
503.78	16596.74
503.95	16638.87
504.13	16901.01
504.30	16732.49
504.48	16699.72
504.65	16947.82
504.83	17015.69
505.01	17102.29
505.18	16980.59
505.36	16847.18
505.53	16964.20
505.71	16989.95
505.88	17149.11
506.06	16847.18
506.23	17200.60
506.41	17324.65
506.58	17224.00
506.76	17462.74
506.93	17518.91
507.11	17378.48
507.28	17341.03
507.46	17619.55
507.63	17755.30
507.81	17525.93
507.98	17666.36
508.16	17839.56
508.33	17713.17
508.50	17767.01
508.68	17975.31
508.85	18040.85
509.03	17888.71
509.20	17923.82
509.38	18181.28
509.55	18188.30
509.73	18436.40
509.90	18101.70
510.08	18366.18
510.25	18422.36
510.42	18483.21
510.60	18642.37
510.77	18583.85
510.95	18747.69
511.12	18548.75
511.30	18590.88
511.47	18733.65
511.64	18941.96
511.82	19328.14
511.99	19194.73
512.17	19094.09
512.34	19133.88
512.51	19257.93
512.69	19438.15
512.86	19047.28
513.04	19400.70
513.21	19339.85
513.38	19461.55
513.56	19583.26
513.73	19613.69
513.90	19630.07
514.08	19466.24
514.25	19564.54
514.43	19674.54
514.60	19641.78
514.77	19924.98
514.95	20086.48
515.12	19871.15
515.29	19585.60
515.47	19751.78
515.64	19775.19
515.81	20109.88
515.99	19967.11
516.16	20102.86
516.33	20299.47
516.51	20357.98
516.68	20084.14
516.85	20374.36
517.03	20287.76
517.20	20594.37
517.37	20547.56
517.54	20697.36
517.72	20718.42
517.89	20709.06
518.06	20697.36
518.24	20643.52
518.41	20540.54
518.58	20688.00
518.75	20739.49
518.93	21181.85
519.10	20915.03
519.27	21069.50
519.45	21111.63
519.62	21078.86
519.79	20952.48
519.96	20999.29
520.14	21158.44
520.31	21137.38
520.48	21266.11
520.65	21357.39
520.83	21532.93
521.00	21191.21
521.17	21504.84
521.34	21240.36
521.52	21853.58
521.69	21685.06
521.86	21563.36
522.03	21589.10
522.20	21774.00
522.38	21905.07
522.55	21902.73
522.72	21916.78
522.89	21802.09
523.07	22202.32
523.24	21970.61
523.41	22122.74
523.58	21720.17
523.75	22356.80
523.92	22335.73
524.10	21961.25
524.27	22265.52
524.44	22647.02
524.61	22239.77
524.78	22548.72
524.96	22501.91
525.13	22595.53
525.30	22539.36
525.47	22199.98
525.64	22546.38
525.81	22728.94
525.98	22967.68
526.16	23049.60
526.33	22857.67
526.50	22707.88
526.67	22890.44
526.84	22757.03
527.01	22656.39
527.18	23178.33
527.36	22918.53
527.53	23030.87
527.70	23473.23
527.87	23194.71
528.04	23178.33
528.21	23157.26
528.38	23253.22
528.55	23356.21
528.72	23548.13
528.89	23459.19
529.07	23510.68
529.24	23468.55
529.41	23754.10
529.58	23578.56
529.75	23550.47
529.92	23772.82
530.09	23761.12
530.26	23576.22
530.43	23583.24
530.60	23997.51
530.77	23461.53
530.94	23838.36
531.11	23627.71
531.28	23939.00
531.46	23520.04
531.63	23941.34
531.80	24056.03
531.97	24151.99
532.14	24531.15
532.31	24517.11
532.48	24058.37
532.65	24063.05
532.82	24210.50
532.99	24133.26
533.16	23805.59
533.33	24187.10
533.50	24240.93
533.67	24465.62
533.84	24421.15
534.01	24432.85
534.18	24198.80
534.35	24669.25
534.52	24697.33
534.69	24556.90
534.86	24875.21
535.03	24470.30
535.20	24411.79
535.37	24877.55
535.54	24917.34
535.71	24231.57
535.88	24865.85
536.05	24613.07
536.22	24926.71
536.38	25167.78
536.55	25144.38
536.72	25053.09
536.89	24903.30
537.06	24760.53
537.23	24795.64
537.40	25142.03
537.57	25165.44
537.74	25144.38
537.91	25249.70
538.08	25685.04
538.25	25127.99
538.42	25135.01
538.59	25233.32
538.75	25172.46
538.92	25376.09
539.09	25263.74
539.26	25408.86
539.43	25420.56
539.60	25584.40
539.77	25390.13
539.94	25579.71
540.11	25642.91
540.28	25614.82
540.44	25483.75
540.61	25575.03
540.78	25376.09
540.95	25902.71
541.12	26125.06
541.29	26064.21
541.46	25860.58
541.62	25701.42
541.79	25654.61
541.96	25907.39
542.13	25703.76
542.30	26113.36
542.47	26373.16
542.63	26342.73
542.80	25778.66
542.97	26300.60
543.14	26534.65
543.31	26230.38
543.48	26221.02
543.64	26277.19
543.81	26567.42
543.98	26672.74
544.15	26899.78
544.32	26380.18
544.48	26590.83
544.65	26576.78
544.82	26944.25
544.99	26340.39
545.16	26256.13
545.32	26515.93
545.49	26988.72
545.66	26757.00
545.83	26991.06
546.00	26981.70
546.16	26920.84
546.33	26387.20
546.50	26616.57
546.67	27087.02
546.83	26506.57
547.00	27110.43
547.17	26895.10
547.34	26735.94
547.50	27119.79
547.67	26981.70
547.84	27014.46
548.00	27023.83
548.17	27417.04
548.34	26962.97
548.51	27360.86
548.67	27393.63
548.84	27325.75
549.01	27239.15
549.18	27234.47
549.34	26958.29
549.51	27686.20
549.68	27421.72
549.84	27339.80
550.01	27428.74
550.18	27431.08
550.34	27716.62
550.51	27262.56
550.68	27924.93
550.84	27204.05
551.01	27585.55
551.18	27445.12
551.34	27721.30
551.51	27381.93
551.68	27758.75
551.84	28121.54
552.01	27363.20
552.18	27803.22
552.34	27735.35
552.51	27910.89
552.68	27557.47
552.84	27737.69
553.01	27374.91
553.18	27782.16
553.34	28002.17
553.51	27782.16
553.67	28053.66
553.84	28252.61
554.01	28056.00
554.17	28210.48
554.34	27889.82
554.51	28009.19
554.67	28086.43
554.84	28020.89
555.00	27784.50
555.17	28006.85
555.33	28184.73
555.50	27990.47
555.67	28290.06
555.83	28484.32
556.00	28163.67
556.16	28418.78
556.33	28151.96
556.50	28474.96
556.66	28411.76
556.83	28418.78
556.99	28472.62
557.16	28580.28
557.32	28386.02
557.49	28776.89
557.65	28130.90
557.82	28119.20
557.98	28369.63
558.15	28334.53
558.32	28655.18
558.48	28540.49
558.65	28393.04
558.81	28393.04
558.98	28711.35
559.14	28727.74
559.31	28692.63
559.47	28524.11
559.64	28786.25
559.80	28746.46
559.97	28645.82
560.13	28341.55
560.30	28863.49
560.46	29013.28
560.63	28907.96
560.79	28903.28
560.96	28706.67
561.12	28683.27
561.29	28517.09
561.45	28734.76
561.61	28985.19
561.78	29163.08
561.94	28931.36
562.11	28840.08
562.27	29186.48
562.44	28936.04
562.60	28926.68
562.77	28910.30
562.93	29074.13
563.10	29432.24
563.26	28870.51
563.42	29317.55
563.59	28807.31
563.75	28980.51
563.92	28910.30
564.08	28919.66
564.24	29237.97
564.41	28678.58
564.57	29256.70
564.74	29078.82
564.90	29460.32
565.07	29024.98
565.23	29146.69
565.39	29153.71
565.56	29642.88
565.72	29186.48
565.88	29003.92
566.05	28957.11
566.21	29235.63
566.38	29230.95
566.54	28996.90
566.70	29729.48
566.87	29434.58
567.03	29539.90
567.19	29343.30
567.36	29387.77
567.52	29364.36
567.68	29593.73
567.85	29319.89
568.01	29579.69
568.17	29462.66
568.34	29504.79
568.50	29474.37
568.66	29584.37
568.83	29434.58
568.99	29200.52
569.15	29455.64
569.32	29394.79
569.48	29640.54
569.64	29296.49
569.81	29930.77
569.97	29535.22
570.13	29734.17
570.30	29542.24
570.46	29207.55
570.62	29219.25
570.78	29727.14
570.95	29202.86
571.11	29708.42
571.27	28872.85
571.43	29434.58
571.60	29928.43
571.76	29495.43
571.92	29694.38
572.09	29738.85
572.25	29914.39
572.41	29848.85
572.57	29769.27
572.74	29530.54
572.90	29116.26
573.06	29575.01
573.22	29736.51
573.38	29537.56
573.55	29759.91
573.71	29624.16
573.87	29792.68
574.03	29586.71
574.20	29881.62
574.36	29472.03
574.52	29600.76
574.68	29577.35
574.84	29792.68
575.01	29799.70
575.17	29825.45
575.33	29467.34
575.49	29638.20
575.65	29902.68
575.82	29729.48
575.98	29806.72
576.14	29598.41
576.30	29841.83
576.46	29514.16
576.62	29755.23
576.79	29582.03
576.95	29289.46
577.11	29656.93
577.27	29680.33
577.43	29518.84
577.59	30148.44
577.75	30134.40
577.92	29809.06
578.08	29617.14
578.24	29954.18
578.40	29923.75
578.56	29738.85
578.72	29979.92
578.88	30246.74
579.04	30092.27
579.21	29776.30
579.37	30003.33
579.53	29734.17
579.69	29624.16
579.85	29851.19
580.01	29855.87
580.17	29546.92
580.33	29762.25
580.49	29661.61
580.65	29944.81
580.82	29972.90
580.98	30047.80
581.14	30459.73
581.30	30059.50
581.46	29802.04
581.62	29923.75
581.78	29575.01
581.94	29900.34
582.10	29666.29
582.26	29703.74
582.42	30029.07
582.58	29759.91
582.74	30209.29
582.90	29975.24
583.06	30075.88
583.22	29982.26
583.38	29851.19
583.54	30010.35
583.70	29577.35
583.86	29923.75
584.02	29577.35
584.18	30235.04
584.34	29795.02
584.50	30230.36
584.66	30211.64
584.82	29963.54
584.98	29830.13
585.14	29724.80
585.30	29521.18
585.46	30169.51
585.62	30003.33
585.78	29720.12
585.94	30029.07
586.10	30190.57
586.26	30190.57
586.42	30396.54
586.58	30274.83
586.74	29722.46
586.90	29617.14
587.06	29834.81
587.22	29879.28
587.38	29661.61
587.54	30300.58
587.70	30331.00
587.86	29968.22
588.02	30338.02
588.18	30359.09
588.34	29914.39
588.49	30171.85
588.65	29834.81
588.81	30008.01
588.97	30008.01
589.13	29820.77
589.29	30513.56
589.45	30108.65
589.61	30068.86
589.77	30331.00
589.93	30314.62
590.08	30476.12
590.24	30246.74
590.40	30242.06
590.56	30558.03
590.72	30448.03
590.88	30099.29
591.04	29963.54
591.20	30228.02
591.35	30263.13
591.51	30274.83
591.67	30291.21
591.83	30693.79
591.99	30469.09
