SpectraSuite Data File
++++++++++++++++++++++++++++++++++++
Date: Fri Oct 18 13:57:57 GMT-05:00 2013
User: bianchi
Dark Spectrum Present: No
Reference Spectrum Present: No
Number of Sampled Component Spectra: 1
Spectrometers: USB2+H05261
Integration Time (usec): 50000 (USB2+H05261)
Spectra Averaged: 1 (USB2+H05261)
Boxcar Smoothing: 0 (USB2+H05261)
Correct for Electrical Dark: No (USB2+H05261)
Strobe/Lamp Enabled: No (USB2+H05261)
Correct for Detector Non-linearity: No (USB2+H05261)
Correct for Stray Light: No (USB2+H05261)
Number of Pixels in Processed Spectrum: 2048
>>>>>Begin Processed Spectral Data<<<<<
365.73	0.00
365.92	0.00
366.12	0.00
366.32	0.00
366.52	0.00
366.72	0.00
366.91	0.00
367.11	0.00
367.31	0.00
367.51	0.00
367.70	0.00
367.90	0.00
368.10	0.00
368.30	0.00
368.49	0.00
368.69	0.00
368.89	0.00
369.09	0.00
369.28	0.00
369.48	0.00
369.68	0.00
369.87	0.00
370.07	0.00
370.27	0.00
370.47	0.00
370.66	88.94
370.86	159.16
371.06	147.45
371.25	182.56
371.45	166.18
371.65	142.77
371.84	198.95
372.04	133.41
372.24	121.71
372.44	58.51
372.63	173.20
372.83	257.46
373.03	227.03
373.22	306.61
373.42	208.31
373.62	156.82
373.81	227.03
374.01	180.22
374.21	236.39
374.40	205.97
374.60	194.26
374.79	266.82
374.99	236.39
375.19	201.29
375.38	238.73
375.58	229.37
375.78	259.80
375.97	294.91
376.17	294.91
376.37	229.37
376.56	294.91
376.76	259.80
376.95	250.44
377.15	212.99
377.35	273.84
377.54	255.12
377.74	301.93
377.93	294.91
378.13	264.48
378.33	395.55
378.52	301.93
378.72	376.83
378.91	360.44
379.11	250.44
379.31	308.95
379.50	287.89
379.70	313.63
379.89	273.84
380.09	322.99
380.28	344.06
380.48	353.42
380.68	266.82
380.87	245.76
381.07	369.80
381.26	341.72
381.46	308.95
381.65	278.52
381.85	294.91
382.04	362.78
382.24	285.55
382.43	297.25
382.63	372.15
382.83	355.76
383.02	362.78
383.22	383.85
383.41	376.83
383.61	461.09
383.80	421.30
384.00	346.40
384.19	372.15
384.39	315.97
384.58	425.98
384.78	376.83
384.97	397.89
385.17	409.59
385.36	369.80
385.56	454.06
385.75	440.02
385.95	397.89
386.14	493.85
386.34	292.57
386.53	423.64
386.72	416.62
386.92	484.49
387.11	402.57
387.31	461.09
387.50	503.22
387.70	500.87
387.89	421.30
388.09	400.23
388.28	386.19
388.48	479.81
388.67	449.38
388.86	463.43
389.06	517.26
389.25	383.85
389.45	430.66
389.64	491.51
389.84	395.55
390.03	486.83
390.22	510.24
390.42	498.53
390.61	564.07
390.81	505.56
391.00	442.36
391.19	484.49
391.39	496.19
391.58	465.77
391.78	580.45
391.97	477.47
392.16	554.71
392.36	564.07
392.55	571.09
392.75	543.00
392.94	503.22
393.13	503.22
393.33	510.24
393.52	596.84
393.71	585.13
393.91	589.82
394.10	552.37
394.29	608.54
394.49	585.13
394.68	524.28
394.88	594.50
395.07	641.31
395.26	653.01
395.46	674.07
395.65	629.60
395.84	627.26
396.04	653.01
396.23	657.69
396.42	641.31
396.62	685.78
396.81	723.23
397.00	692.80
397.19	809.83
397.39	669.39
397.58	720.88
397.77	716.20
397.97	634.29
398.16	660.03
398.35	781.74
398.55	706.84
398.74	732.59
398.93	781.74
399.12	692.80
399.32	788.76
399.51	739.61
399.70	741.95
399.90	758.33
400.09	877.70
400.28	770.04
400.47	779.40
400.67	849.61
400.86	774.72
401.05	816.85
401.24	793.44
401.44	856.64
401.63	788.76
401.82	781.74
402.01	786.42
402.21	873.02
402.40	786.42
402.59	812.17
402.78	767.70
402.97	887.06
403.17	894.08
403.36	851.96
403.55	898.77
403.74	861.32
403.93	858.98
404.13	973.66
404.32	936.21
404.51	950.26
404.70	919.83
404.89	924.51
405.09	992.39
405.28	917.49
405.47	964.30
405.66	1013.45
405.85	973.66
406.05	952.60
406.24	994.73
406.43	1011.11
406.62	1086.01
406.81	1102.39
407.00	1022.81
407.20	1086.01
407.39	1083.67
407.58	1151.54
407.77	1097.71
407.96	1076.65
408.15	1123.46
408.34	1090.69
408.54	1048.56
408.73	1144.52
408.92	1090.69
409.11	1074.31
409.30	1151.54
409.49	1196.01
409.68	1135.16
409.87	1233.46
410.07	1224.10
410.26	1228.78
410.45	1200.69
410.64	1146.86
410.83	1235.80
411.02	1170.27
411.21	1313.04
411.40	1357.51
411.59	1242.82
411.78	1247.51
411.98	1350.49
412.17	1289.64
412.36	1291.98
412.55	1409.00
412.74	1448.79
412.93	1392.62
413.12	1392.62
413.31	1425.39
413.50	1437.09
413.69	1474.54
413.88	1423.05
414.07	1458.15
414.26	1500.28
414.45	1561.14
414.64	1425.39
414.83	1561.14
415.02	1460.49
415.22	1600.93
415.41	1617.31
415.60	1502.62
415.79	1619.65
415.98	1685.19
416.17	1666.46
416.36	1603.27
416.55	1687.53
416.74	1678.16
416.93	1699.23
417.12	1778.81
417.31	1771.79
417.50	1720.29
417.69	1771.79
417.88	1689.87
418.07	1755.40
418.26	1811.57
418.45	1757.74
418.64	1851.36
418.83	1937.96
419.02	1849.02
419.21	1832.64
419.39	1893.49
419.58	1823.28
419.77	1872.43
419.96	1872.43
420.15	1853.70
420.34	1877.11
420.53	1919.24
420.72	2036.27
420.91	1877.11
421.10	1975.41
421.29	1947.33
421.48	1870.09
421.67	1935.62
421.86	1912.22
422.05	1977.75
422.24	1984.77
422.43	2080.74
422.61	2062.01
422.80	2017.54
422.99	2101.80
423.18	2087.76
423.37	2078.40
423.56	2062.01
423.75	1998.82
423.94	1940.30
424.13	1902.86
424.32	2005.84
424.50	2078.40
424.69	2113.50
424.88	2134.57
425.07	2043.29
425.26	2005.84
425.45	2001.16
425.64	2036.27
425.83	2073.71
426.01	2108.82
426.20	2111.16
426.39	2090.10
426.58	2069.03
426.77	2099.46
426.96	2169.68
427.15	2090.10
427.33	2179.04
427.52	2232.87
427.71	2228.19
427.90	2125.21
428.09	2237.55
428.28	2251.60
428.46	2214.15
428.65	2207.13
428.84	2244.57
429.03	2326.49
429.22	2246.91
429.40	2260.96
429.59	2352.24
429.78	2188.40
429.97	2258.62
430.16	2153.29
430.34	2354.58
430.53	2396.71
430.72	2539.48
430.91	2363.94
431.10	2305.43
431.28	2471.61
431.47	2497.35
431.66	2530.12
431.85	2497.35
432.03	2492.67
432.22	2509.05
432.41	2487.99
432.60	2555.86
432.79	2495.01
432.97	2399.05
433.16	2487.99
433.35	2445.86
433.54	2569.91
433.72	2654.17
433.91	2523.10
434.10	2633.10
434.28	2513.74
434.47	2656.51
434.66	2626.08
434.85	2616.72
435.03	2452.88
435.22	2597.99
435.41	2729.06
435.59	2717.36
435.78	2651.83
435.97	2719.70
436.16	2710.34
436.34	2785.24
436.53	2672.89
436.72	2892.90
436.90	2799.28
437.09	2818.00
437.28	2715.02
437.46	2813.32
437.65	2745.45
437.84	2848.43
438.02	2761.83
438.21	2928.01
438.40	2878.86
438.58	2902.26
438.77	2930.35
438.96	2888.22
439.14	2981.84
439.33	2963.12
439.52	2984.18
439.70	2993.55
439.89	3105.89
440.08	3066.10
440.26	3026.31
440.45	3143.34
440.63	3171.43
440.82	3150.36
441.01	3164.40
441.19	3187.81
441.38	3141.00
441.57	3316.54
441.75	3293.13
441.94	3449.95
442.12	3311.86
442.31	3447.61
442.50	3492.08
442.68	3361.01
442.87	3471.01
443.05	3323.56
443.24	3440.59
443.43	3318.88
443.61	3471.01
443.80	3590.38
443.98	3384.41
444.17	3349.31
444.35	3522.51
444.54	3372.71
444.73	3555.27
444.91	3389.10
445.10	3524.85
445.28	3548.25
445.47	3499.10
445.65	3487.40
445.84	3485.06
446.02	3501.44
446.21	3513.14
446.39	3641.87
446.58	3545.91
446.77	3637.19
446.95	3581.02
447.14	3625.49
447.32	3595.06
447.51	3583.36
447.69	3574.00
447.88	3585.70
448.06	3637.19
448.25	3576.34
448.43	3510.80
448.62	3602.08
448.80	3618.47
448.99	3566.98
449.17	3597.40
449.36	3779.97
449.54	3681.66
449.73	3784.65
449.91	3719.11
450.10	3721.45
450.28	3889.97
450.46	3857.20
450.65	3815.07
450.83	3882.95
451.02	3803.37
451.20	3948.48
451.39	3822.09
451.57	3843.16
451.76	3838.48
451.94	3896.99
452.13	3794.01
452.31	3819.75
452.49	3908.69
452.68	3964.87
452.86	4046.79
453.05	3943.80
453.23	4009.34
453.42	4105.30
453.60	3983.59
453.78	4131.05
453.97	4084.23
454.15	3948.48
454.34	4072.53
454.52	4042.11
454.70	4133.39
454.89	4142.75
455.07	4121.68
455.26	4107.64
455.44	4234.03
455.62	4189.56
455.81	4210.62
455.99	4341.69
456.17	4224.67
456.36	4271.48
456.54	4219.99
456.73	4301.90
456.91	4465.74
457.09	4283.18
457.28	4388.50
457.46	4255.09
457.64	4550.00
457.83	4437.66
458.01	4486.81
458.19	4589.79
458.38	4514.89
458.56	4346.37
458.74	4557.02
458.93	4585.11
459.11	4557.02
459.29	4435.32
459.48	4662.35
459.66	4531.28
459.84	4484.47
460.03	4681.07
460.21	4681.07
460.39	4676.39
460.57	4564.04
460.76	4674.05
460.94	4692.77
461.12	4631.92
461.31	4657.67
461.49	4774.69
461.67	4755.97
461.85	4966.62
462.04	4695.11
462.22	5135.14
462.40	4727.88
462.59	4903.42
462.77	4720.86
462.95	4933.85
463.13	4943.21
463.32	4819.16
463.50	4978.32
463.68	5027.47
463.86	4854.27
464.05	4922.15
464.23	4929.17
464.41	5102.37
464.59	4858.95
464.78	4999.38
464.96	5011.09
465.14	4959.60
465.32	4978.32
465.50	5111.73
465.69	5289.61
465.87	5146.84
466.05	4931.51
466.23	5046.20
466.41	5109.39
466.60	5224.08
466.78	4959.60
466.96	5203.01
467.14	5048.54
467.32	5139.82
467.51	5249.82
467.69	5032.15
467.87	5132.79
468.05	5228.76
468.23	5193.65
468.41	5291.95
468.60	5343.44
468.78	5341.10
468.96	5242.80
469.14	5441.75
469.32	5404.30
469.50	5390.25
469.69	5523.66
469.87	5453.45
470.05	5600.90
470.23	5699.20
470.41	5633.67
470.59	5483.88
470.77	5568.13
470.95	5479.19
471.14	5818.57
471.32	5486.22
471.50	5708.57
471.68	5734.31
471.86	5823.25
472.04	5898.15
472.22	5856.02
472.40	5891.13
472.58	5947.30
472.77	5919.21
472.95	6038.58
473.13	6190.72
473.31	6010.50
473.49	5825.59
473.67	5832.62
473.85	6061.99
474.03	6003.47
474.21	6132.20
474.39	6202.42
474.57	6094.76
474.75	6417.75
474.93	6321.79
475.12	6127.52
475.30	6331.15
475.48	6286.68
475.66	6403.71
475.84	6370.94
476.02	6373.28
476.20	6502.01
476.38	6693.93
476.56	6665.85
476.74	6579.25
476.92	6633.08
477.10	6724.36
477.28	6810.96
477.46	6616.69
477.64	6935.01
477.82	7014.59
478.00	6972.46
478.18	7070.76
478.36	7194.81
478.54	7232.26
478.72	7363.33
478.90	7229.91
479.08	7405.46
479.26	7335.24
479.44	7454.61
479.62	7435.88
479.80	7442.90
479.98	7489.71
480.16	7777.60
480.34	7737.81
480.52	7803.35
480.70	7691.00
480.88	7786.96
481.06	7920.37
481.24	7925.05
481.41	8042.08
481.59	8063.15
481.77	8128.68
481.95	8060.80
482.13	8269.11
482.31	8336.99
482.49	8414.23
482.67	8470.40
482.85	8432.95
483.03	8617.85
483.21	8758.28
483.39	8851.91
483.57	8725.52
483.74	9062.55
483.92	8917.44
484.10	9013.40
484.28	9327.03
484.46	9214.69
484.64	9551.73
484.82	9191.28
485.00	9415.98
485.18	9514.28
485.35	9537.68
485.53	9650.03
485.71	9643.01
485.89	9923.87
486.07	9858.34
486.25	9753.01
486.43	9799.82
486.61	9863.02
486.78	10169.63
486.96	10209.42
487.14	10246.87
487.32	10188.35
487.50	10317.08
487.68	10160.27
487.85	10516.03
488.03	10848.38
488.21	10686.89
488.39	10768.80
488.57	10892.85
488.75	10764.12
488.92	11330.53
489.10	11321.17
489.28	11269.68
489.46	11147.97
489.64	11470.97
489.81	11651.19
489.99	11756.51
490.17	11599.70
490.35	11903.96
490.53	11576.29
490.70	11903.96
490.88	11829.07
491.06	12091.21
491.24	11950.78
491.41	12224.62
491.59	12217.60
491.77	12318.24
491.95	12472.71
492.13	12685.70
492.30	12762.94
492.48	12512.50
492.66	12526.55
492.84	12556.97
493.01	12636.55
493.19	12779.32
493.37	13172.54
493.54	13289.56
493.72	13317.65
493.90	13226.37
494.08	13413.61
494.25	13411.27
494.43	13626.60
494.61	13710.86
494.79	13586.81
494.96	13497.87
495.14	13989.38
495.32	13776.39
495.49	14033.85
495.67	13909.80
495.85	14026.83
496.02	14157.90
496.20	14270.25
496.38	14303.01
496.55	14373.23
496.73	14410.68
496.91	14544.09
497.09	14518.34
497.26	14941.98
497.44	14544.09
497.62	14792.19
497.79	14860.06
497.97	14665.80
498.14	15197.10
498.32	15346.89
498.50	15098.80
498.67	15461.58
498.85	15147.95
499.03	15372.64
499.20	15208.80
499.38	15367.96
499.56	15541.16
499.73	15784.57
499.91	15651.16
500.08	15784.57
500.26	15616.05
500.44	15695.63
500.61	15941.39
500.79	15836.06
500.97	16006.92
501.14	16217.57
501.32	16123.95
501.49	16107.57
501.67	16119.27
501.84	16250.34
502.02	16343.96
502.20	16500.78
502.37	16432.90
502.55	16603.76
502.72	16484.39
502.90	16418.86
503.07	16381.41
503.25	16875.26
503.43	16786.32
503.60	16776.96
503.78	16889.31
503.95	16870.58
504.13	17001.65
504.30	16732.49
504.48	17039.10
504.65	17317.62
504.83	17268.47
505.01	17324.65
505.18	17537.63
505.36	17661.68
505.53	17621.89
505.71	17221.66
505.88	17619.55
506.06	17486.14
506.23	17853.61
506.41	17881.69
506.58	17853.61
506.76	17804.46
506.93	17715.51
507.11	18127.45
507.28	17874.67
507.46	18017.44
507.63	18338.10
507.81	18225.75
507.98	18026.81
508.16	17972.97
508.33	18326.39
508.50	18401.29
508.68	18059.57
508.85	18775.78
509.03	18455.12
509.20	18686.84
509.38	18906.85
509.55	18614.28
509.73	18771.10
509.90	18869.40
510.08	18750.03
510.25	18995.79
510.42	19183.03
510.60	19101.11
510.77	19094.09
510.95	19183.03
511.12	19159.63
511.30	18853.02
511.47	19283.67
511.64	19365.59
511.82	19672.20
511.99	19377.30
512.17	19557.52
512.34	19367.93
512.51	19716.67
512.69	19740.08
512.86	19836.04
513.04	19976.47
513.21	19932.00
513.38	20250.32
513.56	20053.71
513.73	19936.68
513.90	20044.35
514.08	19719.01
514.25	20093.50
514.43	20308.83
514.60	20306.49
514.77	20233.93
514.95	20594.37
515.12	20341.60
515.29	20559.27
515.47	20360.32
515.64	20751.19
515.81	20638.84
515.99	20746.51
516.16	20917.37
516.33	20964.18
516.51	21034.39
516.68	20615.44
516.85	20526.50
517.03	20662.25
517.20	21214.62
517.37	21488.46
517.54	21266.11
517.72	21170.15
517.89	20971.20
518.06	21104.61
518.24	21207.59
518.41	21200.57
518.58	21120.99
518.75	21219.30
518.93	21493.14
519.10	21429.94
519.27	22094.66
519.45	21474.42
519.62	21537.61
519.79	21099.93
519.96	21591.44
520.14	21537.61
520.31	21441.65
520.48	22202.32
520.65	21916.78
520.83	22106.36
521.00	21984.65
521.17	21790.39
521.34	21949.54
521.52	22497.23
521.69	22253.81
521.86	22331.05
522.03	22530.00
522.20	22312.33
522.38	22417.65
522.55	22300.62
522.72	22670.43
522.89	22139.13
523.07	22991.08
523.24	22672.77
523.41	22750.01
523.58	22326.37
523.75	22567.45
523.92	22366.16
524.10	22754.69
524.27	23007.47
524.44	22829.59
524.61	23103.43
524.78	23133.86
524.96	22944.27
525.13	23040.23
525.30	23403.02
525.47	22895.12
525.64	23040.23
525.81	23381.95
525.98	22995.76
526.16	23264.92
526.33	23342.16
526.50	23396.00
526.67	23180.67
526.84	23417.06
527.01	23496.64
527.18	23843.04
527.36	23351.52
527.53	23740.05
527.70	23564.51
527.87	24070.07
528.04	23232.16
528.21	23454.51
528.38	23803.25
528.55	23854.74
528.72	24070.07
528.89	23761.12
529.07	23920.28
529.24	23761.12
529.41	24151.99
529.58	24374.34
529.75	24203.48
529.92	23854.74
530.09	24247.95
530.26	24105.18
530.43	24514.77
530.60	24041.98
530.77	24474.98
530.94	24257.31
531.11	24236.25
531.28	24308.80
531.46	24498.39
531.63	24580.31
531.80	24500.73
531.97	24746.48
532.14	24744.14
532.31	24299.44
532.48	24528.81
532.65	24680.95
532.82	24711.38
532.99	24896.28
533.16	24746.48
533.33	24783.93
533.50	24898.62
533.67	25177.14
533.84	24847.13
534.01	25001.60
534.18	25245.02
534.35	25088.20
534.52	25111.61
534.69	25181.82
534.86	25383.11
535.03	25333.96
535.20	25394.81
535.37	25362.04
535.54	25785.68
535.71	25205.23
535.88	25401.83
536.05	25287.15
536.22	25493.12
536.38	25678.02
536.55	25680.36
536.72	25628.87
536.89	25603.12
537.06	25654.61
537.23	25839.51
537.40	25486.09
537.57	25511.84
537.74	25778.66
537.91	25883.98
538.08	25659.29
538.25	25771.64
538.42	25827.81
538.59	25846.54
538.75	25996.33
538.92	26228.04
539.09	25879.30
539.26	26155.49
539.43	26246.77
539.60	26455.08
539.77	26085.27
539.94	26424.65
540.11	26300.60
540.28	26321.66
540.44	26473.80
540.61	26244.43
540.78	26335.71
540.95	26249.11
541.12	26316.98
541.29	26288.90
541.46	26490.18
541.62	26448.05
541.79	26742.96
541.96	26267.83
542.13	26583.80
542.30	26647.00
542.47	26345.07
542.63	27180.64
542.80	26916.16
542.97	26871.69
543.14	27110.43
543.31	27021.48
543.48	26679.77
543.64	26932.54
543.81	27180.64
543.98	27370.22
544.15	27295.33
544.32	27424.06
544.48	27372.57
544.65	27051.91
544.82	27199.37
544.99	27253.20
545.16	27185.32
545.32	27302.35
545.49	27316.39
545.66	27791.52
545.83	27634.71
546.00	27510.66
546.16	27356.18
546.33	27295.33
546.50	27370.22
546.67	27391.29
546.83	27201.71
547.00	27288.31
547.17	27463.85
547.34	27555.13
547.50	27812.59
547.67	27887.48
547.84	27473.21
548.00	27894.50
548.17	27648.75
548.34	28020.89
548.51	27725.99
548.67	28182.39
548.84	27763.43
549.01	27901.53
549.18	28032.60
549.34	27824.29
549.51	27934.29
549.68	27892.16
549.84	27953.02
550.01	28060.68
550.18	27541.08
550.34	28191.75
550.51	28266.65
550.68	28128.56
550.84	28247.93
551.01	28006.85
551.18	28100.47
551.34	28060.68
551.51	28350.91
551.68	28332.18
551.84	28182.39
552.01	28458.57
552.18	28861.15
552.34	28093.45
552.51	28034.94
552.68	28379.00
552.84	28912.64
553.01	28254.95
553.18	28493.68
553.34	28610.71
553.51	28503.04
553.67	28807.31
553.84	29142.01
554.01	28587.30
554.17	28889.23
554.34	28680.92
554.51	28521.77
554.67	28973.49
554.84	28807.31
555.00	28973.49
555.17	29015.62
555.33	28552.20
555.50	28746.46
555.67	29010.94
555.83	28992.22
556.00	28711.35
556.16	28992.22
556.33	28989.88
556.50	29097.54
556.66	29111.58
556.83	29060.09
556.99	29177.12
557.16	29296.49
557.32	29352.66
557.49	29163.08
557.65	29116.26
557.82	29039.03
557.98	29001.58
558.15	29390.11
558.32	29015.62
558.48	29315.21
558.65	29556.28
558.81	29242.65
558.98	29436.92
559.14	29544.58
559.31	29310.53
559.47	29305.85
559.64	29284.78
559.80	29268.40
559.97	29537.56
560.13	29443.94
560.30	29535.22
560.46	29486.07
560.63	29778.64
560.79	29668.63
560.96	29394.79
561.12	29390.11
561.29	29326.91
561.45	29579.69
561.61	29596.07
561.78	29713.10
561.94	29802.04
562.11	29624.16
562.27	29731.83
562.44	29858.21
562.60	29993.97
562.77	29397.13
562.93	29846.51
563.10	29905.02
563.26	29699.06
563.42	30052.48
563.59	29759.91
563.75	30209.29
563.92	30426.96
564.08	29757.57
564.24	29937.79
564.41	29635.86
564.57	29579.69
564.74	29923.75
564.90	29546.92
565.07	29846.51
565.23	30209.29
565.39	29965.88
565.56	30073.54
565.72	29865.24
565.88	30031.41
566.05	29916.73
566.21	29841.83
566.38	29900.34
566.54	30080.56
566.70	30178.87
566.87	30183.55
567.03	30171.85
567.19	30225.68
567.36	30258.45
567.52	30181.21
567.68	30433.99
567.85	29795.02
568.01	30162.48
568.17	30419.94
568.34	30202.27
568.50	30249.08
568.66	30136.74
568.83	30391.86
568.99	30185.89
569.15	30478.46
569.32	30167.16
569.48	29680.33
569.64	30382.49
569.81	30211.64
569.97	29872.26
570.13	30230.36
570.30	29703.74
570.46	30295.89
570.62	30082.91
570.78	29888.64
570.95	30199.93
571.11	30277.17
571.27	30251.42
571.43	30169.51
571.60	30340.36
571.76	30096.95
571.92	30171.85
572.09	30457.39
572.25	30586.12
572.41	30644.63
572.57	30352.07
572.74	30473.78
572.90	30331.00
573.06	30045.46
573.22	30092.27
573.38	30429.30
573.55	30532.29
573.71	30335.68
573.87	30883.37
574.03	30740.60
574.20	30476.12
574.36	30476.12
574.52	30199.93
574.68	30197.59
574.84	30284.19
575.01	30450.37
575.17	30593.14
575.33	30464.41
575.49	30153.12
575.65	30286.53
575.82	30539.31
575.98	30705.49
576.14	30794.43
576.30	30749.96
576.46	30532.29
576.62	30499.52
576.79	30384.83
576.95	30061.84
577.11	30354.41
577.27	30459.73
577.43	30469.09
577.59	30555.69
577.75	31012.10
577.92	30089.93
578.08	30298.23
578.24	30520.59
578.40	30183.55
578.56	30923.16
578.72	30426.96
578.88	31084.65
579.04	31166.57
579.21	30728.89
579.37	30822.51
579.53	30995.71
579.69	30281.85
579.85	30724.21
580.01	30314.62
580.17	30429.30
580.33	30567.40
580.49	30930.18
580.65	30909.11
580.82	31019.12
580.98	30726.55
581.14	30876.35
581.30	30717.19
581.46	30513.56
581.62	30597.82
581.78	30614.21
581.94	30766.34
582.10	30707.83
582.26	30691.44
582.42	30661.02
582.58	31042.53
582.74	30960.61
582.90	31122.10
583.06	30501.86
583.22	30684.42
583.38	30974.65
583.54	30597.82
583.70	30668.04
583.86	30565.06
584.02	30567.40
584.18	30911.46
584.34	30742.94
584.50	30726.55
584.66	30462.07
584.82	30817.83
584.98	30628.25
585.14	30813.15
585.30	30541.65
585.46	30824.86
585.62	30431.65
585.78	30808.47
585.94	30232.70
586.10	30976.99
586.26	30876.35
586.42	30424.62
586.58	30831.88
586.74	30869.33
586.90	30560.37
587.06	30352.07
587.22	30993.37
587.38	30899.75
587.54	31094.02
587.70	31035.50
587.86	30878.69
588.02	30649.32
588.18	31110.40
588.34	30771.02
588.49	30878.69
588.65	31014.44
588.81	31021.46
588.97	30855.28
589.13	31051.89
589.29	30850.60
589.45	31316.37
589.61	30906.77
589.77	30995.71
589.93	31122.10
590.08	31227.43
590.24	31461.48
590.40	31040.18
590.56	31508.29
590.72	31152.53
590.88	30876.35
591.04	30871.67
591.20	31215.72
591.35	31302.32
591.51	31065.93
591.67	31323.39
591.83	31875.76
591.99	31391.26
