SpectraSuite Data File
++++++++++++++++++++++++++++++++++++
Date: Fri Oct 18 13:58:03 GMT-05:00 2013
User: bianchi
Dark Spectrum Present: No
Reference Spectrum Present: No
Number of Sampled Component Spectra: 1
Spectrometers: USB2+H05261
Integration Time (usec): 50000 (USB2+H05261)
Spectra Averaged: 1 (USB2+H05261)
Boxcar Smoothing: 0 (USB2+H05261)
Correct for Electrical Dark: No (USB2+H05261)
Strobe/Lamp Enabled: No (USB2+H05261)
Correct for Detector Non-linearity: No (USB2+H05261)
Correct for Stray Light: No (USB2+H05261)
Number of Pixels in Processed Spectrum: 2048
>>>>>Begin Processed Spectral Data<<<<<
365.73	0.00
365.92	0.00
366.12	0.00
366.32	0.00
366.52	0.00
366.72	0.00
366.91	0.00
367.11	0.00
367.31	0.00
367.51	0.00
367.70	0.00
367.90	0.00
368.10	0.00
368.30	0.00
368.49	0.00
368.69	0.00
368.89	0.00
369.09	0.00
369.28	0.00
369.48	0.00
369.68	0.00
369.87	0.00
370.07	0.00
370.27	0.00
370.47	46.81
370.66	53.83
370.86	100.64
371.06	138.09
371.25	140.43
371.45	128.73
371.65	163.84
371.84	175.54
372.04	184.90
372.24	177.88
372.44	173.20
372.63	252.78
372.83	187.24
373.03	208.31
373.22	220.01
373.42	201.29
373.62	173.20
373.81	177.88
374.01	208.31
374.21	234.05
374.40	201.29
374.60	287.89
374.79	241.08
374.99	201.29
375.19	220.01
375.38	259.80
375.58	205.97
375.78	238.73
375.97	215.33
376.17	301.93
376.37	271.50
376.56	259.80
376.76	273.84
376.95	269.16
377.15	266.82
377.35	306.61
377.54	243.42
377.74	294.91
377.93	306.61
378.13	269.16
378.33	264.48
378.52	266.82
378.72	355.76
378.91	341.72
379.11	278.52
379.31	280.86
379.50	210.65
379.70	285.55
379.89	262.14
380.09	304.27
380.28	330.02
380.48	327.68
380.68	301.93
380.87	313.63
381.07	299.59
381.26	379.17
381.46	297.25
381.65	318.31
381.85	294.91
382.04	266.82
382.24	276.18
382.43	362.78
382.63	327.68
382.83	341.72
383.02	294.91
383.22	344.06
383.41	327.68
383.61	367.46
383.80	407.25
384.00	374.49
384.19	418.96
384.39	386.19
384.58	306.61
384.78	304.27
384.97	442.36
385.17	341.72
385.36	325.33
385.56	365.12
385.75	353.42
385.95	430.66
386.14	383.85
386.34	400.23
386.53	463.43
386.72	479.81
386.92	456.40
387.11	409.59
387.31	477.47
387.50	362.78
387.70	409.59
387.89	482.15
388.09	461.09
388.28	367.46
388.48	369.80
388.67	425.98
388.86	479.81
389.06	461.09
389.25	461.09
389.45	442.36
389.64	407.25
389.84	440.02
390.03	437.68
390.22	479.81
390.42	472.79
390.61	491.51
390.81	486.83
391.00	447.04
391.19	414.27
391.39	479.81
391.58	557.05
391.78	533.64
391.97	505.56
392.16	538.32
392.36	489.17
392.55	486.83
392.75	477.47
392.94	528.96
393.13	552.37
393.33	482.15
393.52	578.11
393.71	519.60
393.91	601.52
394.10	667.05
394.29	573.43
394.49	533.64
394.68	580.45
394.88	552.37
395.07	599.18
395.26	526.62
395.46	580.45
395.65	582.79
395.84	580.45
396.04	741.95
396.23	610.88
396.42	641.31
396.62	610.88
396.81	627.26
397.00	720.88
397.19	653.01
397.39	702.16
397.58	732.59
397.77	688.12
397.97	655.35
398.16	674.07
398.35	638.97
398.55	709.18
398.74	699.82
398.93	793.44
399.12	706.84
399.32	589.82
399.51	650.67
399.70	751.31
399.90	779.40
400.09	683.44
400.28	755.99
400.47	772.38
400.67	833.23
400.86	802.80
401.05	816.85
401.24	772.38
401.44	821.53
401.63	837.91
401.82	821.53
402.01	891.74
402.21	847.27
402.40	809.83
402.59	875.36
402.78	851.96
402.97	788.76
403.17	880.04
403.36	779.40
403.55	840.25
403.74	805.14
403.93	866.00
404.13	959.62
404.32	912.81
404.51	849.61
404.70	912.81
404.89	901.11
405.09	891.74
405.28	1008.77
405.47	1001.75
405.66	952.60
405.85	971.32
406.05	1018.13
406.24	936.21
406.43	1053.24
406.62	954.94
406.81	1100.05
407.00	980.68
407.20	1025.15
407.39	978.34
407.58	992.39
407.77	1111.75
407.96	1011.11
408.15	1041.54
408.34	1018.13
408.54	1057.92
408.73	1086.01
408.92	1142.18
409.11	1144.52
409.30	1188.99
409.49	1139.84
409.68	1132.82
409.87	1156.22
410.07	1116.44
410.26	1238.14
410.45	1238.14
410.64	1198.35
410.83	1193.67
411.02	1186.65
411.21	1203.04
411.40	1263.89
411.59	1329.42
411.78	1238.14
411.98	1308.36
412.17	1366.87
412.36	1336.45
412.55	1282.61
412.74	1331.76
412.93	1390.28
413.12	1259.21
413.31	1441.77
413.50	1462.83
413.69	1385.60
413.88	1322.40
414.07	1371.55
414.26	1523.69
414.45	1427.73
414.64	1465.18
414.83	1476.88
415.02	1451.13
415.22	1593.90
415.41	1561.14
415.60	1572.84
415.79	1570.50
415.98	1502.62
416.17	1710.93
416.36	1647.74
416.55	1542.41
416.74	1626.67
416.93	1643.06
417.12	1694.55
417.31	1736.68
417.50	1568.16
417.69	1818.60
417.88	1724.97
418.07	1722.63
418.26	1743.70
418.45	1767.10
418.64	1823.28
418.83	1757.74
419.02	1682.85
419.21	1834.98
419.39	1834.98
419.58	1813.92
419.77	1870.09
419.96	1839.66
420.15	1760.08
420.34	1881.79
420.53	1844.34
420.72	1916.90
420.91	1923.92
421.10	1949.67
421.29	1954.35
421.48	1872.43
421.67	1933.28
421.86	1928.60
422.05	1963.71
422.24	1914.56
422.43	1888.81
422.61	2038.61
422.80	1984.77
422.99	2029.24
423.18	1949.67
423.37	1970.73
423.56	2033.93
423.75	2111.16
423.94	2054.99
424.13	1893.49
424.32	1881.79
424.50	2012.86
424.69	1991.80
424.88	2094.78
425.07	2031.58
425.26	2026.90
425.45	2141.59
425.64	2113.50
425.83	2122.87
426.01	2094.78
426.20	2050.31
426.39	2139.25
426.58	2085.42
426.77	2111.16
426.96	2113.50
427.15	2045.63
427.33	2134.57
427.52	2165.00
427.71	2071.37
427.90	2200.10
428.09	2172.02
428.28	2129.89
428.46	2120.53
428.65	2237.55
428.84	2221.17
429.03	2232.87
429.22	2211.81
429.40	2225.85
429.59	2359.26
429.78	2298.41
429.97	2207.13
430.16	2181.38
430.34	2331.17
430.53	2359.26
430.72	2408.41
430.91	2312.45
431.10	2279.68
431.28	2331.17
431.47	2335.85
431.66	2289.04
431.85	2303.09
432.03	2441.18
432.22	2495.01
432.41	2417.77
432.60	2406.07
432.79	2356.92
432.97	2471.61
433.16	2485.65
433.35	2317.13
433.54	2422.45
433.72	2553.52
433.91	2420.11
434.10	2490.33
434.28	2539.48
434.47	2567.57
434.66	2544.16
434.85	2691.62
435.03	2661.19
435.22	2544.16
435.41	2649.49
435.59	2626.08
435.78	2586.29
435.97	2616.72
436.16	2679.91
436.34	2640.12
436.53	2750.13
436.72	2712.68
436.90	2656.51
437.09	2729.06
437.28	2780.56
437.46	2754.81
437.65	2750.13
437.84	2869.50
438.02	2829.71
438.21	2869.50
438.40	2815.66
438.58	2789.92
438.77	2928.01
438.96	2892.90
439.14	3019.29
439.33	2867.16
439.52	2967.80
439.70	3098.87
439.89	2970.14
440.08	3052.06
440.26	2991.20
440.45	3068.44
440.63	3096.53
440.82	3063.76
441.01	3157.38
441.19	3211.22
441.38	3145.68
441.57	3229.94
441.75	3328.24
441.94	3258.03
442.12	3304.84
442.31	3372.71
442.50	3316.54
442.68	3258.03
442.87	3307.18
443.05	3400.80
443.24	3222.92
443.43	3452.29
443.61	3391.44
443.80	3442.93
443.98	3370.37
444.17	3421.86
444.35	3445.27
444.54	3421.86
444.73	3485.06
444.91	3363.35
445.10	3393.78
445.28	3372.71
445.47	3356.33
445.65	3454.63
445.84	3463.99
446.02	3478.04
446.21	3356.33
446.39	3454.63
446.58	3595.06
446.77	3536.55
446.95	3468.67
447.14	3536.55
447.32	3471.01
447.51	3281.43
447.69	3609.11
447.88	3646.55
448.06	3510.80
448.25	3524.85
448.43	3562.30
448.62	3588.04
448.80	3515.48
448.99	3648.90
449.17	3571.66
449.36	3730.81
449.54	3709.75
449.73	3662.94
449.91	3782.31
450.10	3693.37
450.28	3754.22
450.46	3730.81
450.65	3637.19
450.83	3758.90
451.02	3751.88
451.20	3805.71
451.39	3735.50
451.57	3824.44
451.76	3761.24
451.94	3803.37
452.13	3810.39
452.31	3843.16
452.49	3829.12
452.68	3995.29
452.86	3770.60
453.05	3674.64
453.23	4100.62
453.42	3920.40
453.60	3861.88
453.78	3925.08
453.97	3957.85
454.15	3815.07
454.34	3896.99
454.52	4025.72
454.70	4035.08
454.89	4067.85
455.07	3939.12
455.26	3915.72
455.44	4051.47
455.62	4058.49
455.81	4088.92
455.99	4229.35
456.17	4100.62
456.36	4236.37
456.54	4184.88
456.73	4360.42
456.91	4311.27
457.09	4381.48
457.28	4407.23
457.46	4166.15
457.64	4414.25
457.83	4435.32
458.01	4250.41
458.19	4388.50
458.38	4376.80
458.56	4564.04
458.74	4407.23
458.93	4308.93
459.11	4402.55
459.29	4416.59
459.48	4451.70
459.66	4411.91
459.84	4390.84
460.03	4664.69
460.21	4519.57
460.39	4477.44
460.57	4664.69
460.76	4695.11
460.94	4645.96
461.12	4468.08
461.31	4699.80
461.49	4704.48
461.67	4568.73
461.85	4770.01
462.04	4615.54
462.22	4975.98
462.40	4863.63
462.59	4718.52
462.77	4711.50
462.95	4961.94
463.13	4865.97
463.32	4856.61
463.50	5036.83
463.68	4762.99
463.86	4807.46
464.05	4730.22
464.23	4929.17
464.41	4997.04
464.59	4875.34
464.78	5081.30
464.96	4926.83
465.14	4858.95
465.32	5074.28
465.50	5053.22
465.69	5062.58
465.87	4943.21
466.05	5088.32
466.23	5034.49
466.41	5064.92
466.60	5221.74
466.78	4945.55
466.96	5118.75
467.14	5177.26
467.32	5151.52
467.51	5027.47
467.69	5013.43
467.87	5078.96
468.05	5289.61
468.23	5151.52
468.41	5069.60
468.60	5198.33
468.78	5226.42
468.96	5331.74
469.14	5219.39
469.32	5287.27
469.50	5064.92
469.69	5329.40
469.87	5383.23
470.05	5247.48
470.23	5530.69
470.41	5469.83
470.59	5689.84
470.77	5523.66
470.95	5540.05
471.14	5593.88
471.32	5448.77
471.50	5701.54
471.68	5710.91
471.86	5799.85
472.04	5727.29
472.22	5734.31
472.40	5729.63
472.58	5853.68
472.77	5846.66
472.95	5865.38
473.13	5987.09
473.31	5937.94
473.49	5790.49
473.67	5923.90
473.85	6054.97
474.03	5886.45
474.21	6085.39
474.39	6209.44
474.57	6120.50
474.75	6136.88
474.93	6366.26
475.12	6223.48
475.30	6171.99
475.48	5930.92
475.66	6293.70
475.84	6057.31
476.02	6525.41
476.20	6157.95
476.38	6427.11
476.56	6506.69
476.74	6630.74
476.92	6616.69
477.10	6548.82
477.28	6686.91
477.46	6628.40
477.64	6930.33
477.82	6834.36
478.00	7002.88
478.18	7035.65
478.36	7035.65
478.54	7042.67
478.72	7155.02
478.90	7138.63
479.08	7180.76
479.26	7204.17
479.44	7183.10
479.62	7272.04
479.80	7377.37
479.98	7407.80
480.16	7482.69
480.34	7536.52
480.52	7756.54
480.70	7815.05
480.88	7854.84
481.06	7775.26
481.24	7728.45
481.41	7957.82
481.59	7929.74
481.77	8121.66
481.95	8180.17
482.13	8222.30
482.31	8236.35
482.49	8318.26
482.67	8339.33
482.85	8379.12
483.03	8493.80
483.21	8514.87
483.39	8641.26
483.57	8674.03
483.74	8872.97
483.92	8929.14
484.10	8746.58
484.28	8952.55
484.46	9144.47
484.64	9413.63
484.82	8931.48
485.00	9200.65
485.18	9202.99
485.35	9530.66
485.53	9495.55
485.71	9743.65
485.89	9668.75
486.07	9518.96
486.25	9661.73
486.43	9832.59
486.61	9547.05
486.78	9914.51
486.96	9909.83
487.14	10169.63
487.32	9907.49
487.50	10429.43
487.68	10221.12
487.85	10485.60
488.03	10279.63
488.21	10824.98
488.39	10588.58
488.57	10642.42
488.75	10796.89
488.92	10991.16
489.10	10853.06
489.28	10991.16
489.46	11199.46
489.64	11403.09
489.81	11185.42
489.99	11262.66
490.17	11365.64
490.35	11602.04
490.53	11616.08
490.70	11693.32
490.88	11719.06
491.06	11822.05
491.24	11929.71
491.41	12088.87
491.59	12028.01
491.77	11925.03
491.95	12163.76
492.13	12493.78
492.30	12624.85
492.48	12367.39
492.66	12475.06
492.84	12496.12
493.01	12512.50
493.19	12924.44
493.37	12802.73
493.54	12589.74
493.72	13221.69
493.90	12753.58
494.08	12992.31
494.25	13238.07
494.43	13172.54
494.61	13495.53
494.79	13282.54
494.96	13327.01
495.14	13387.86
495.32	13797.46
495.49	13493.19
495.67	13947.25
495.85	13870.01
496.02	13860.65
496.20	14167.26
496.38	14209.39
496.55	14029.17
496.73	14244.50
496.91	14298.33
497.09	14127.47
497.26	14600.26
497.44	14483.24
497.62	14506.64
497.79	14630.69
497.97	14623.67
498.14	14534.73
498.32	14771.12
498.50	15073.05
498.67	15115.18
498.85	14885.81
499.03	15147.95
499.20	15098.80
499.38	15459.24
499.56	15541.16
499.73	15445.20
499.91	15688.61
500.08	15726.06
500.26	15431.15
500.44	15637.12
500.61	15742.44
500.79	15796.28
500.97	15702.65
501.14	15829.04
501.32	15999.90
501.49	15892.24
501.67	15941.39
501.84	16208.21
502.02	16056.08
502.20	16154.38
502.37	16383.75
502.55	16374.39
502.72	16472.69
502.90	16608.44
503.07	15932.03
503.25	16400.13
503.43	16383.75
503.60	16311.19
503.78	16229.27
503.95	16901.01
504.13	16861.22
504.30	16826.11
504.48	16791.00
504.65	16943.14
504.83	17025.06
505.01	17252.09
505.18	17252.09
505.36	17252.09
505.53	17174.85
505.71	17137.40
505.88	17165.49
506.06	17277.83
506.23	17418.27
506.41	17406.56
506.58	17500.19
506.76	17425.29
506.93	17460.40
507.11	17769.35
507.28	17844.24
507.46	17776.37
507.63	18104.04
507.81	18017.44
507.98	17841.90
508.16	17921.48
508.33	18242.14
508.50	18265.54
508.68	18136.81
508.85	18331.08
509.03	18237.45
509.20	18218.73
509.38	18504.28
509.55	18635.35
509.73	18281.92
509.90	18698.54
510.08	18258.52
510.25	18766.42
510.42	18845.99
510.60	18890.46
510.77	18649.39
510.95	19115.16
511.12	18712.58
511.30	18967.70
511.47	19129.20
511.64	19211.12
511.82	19286.01
511.99	19267.29
512.17	19398.36
512.34	19129.20
512.51	19440.49
512.69	19356.23
512.86	19510.71
513.04	19543.47
513.21	19744.76
513.38	19777.53
513.56	19845.40
513.73	19503.68
513.90	19817.32
514.08	19751.78
514.25	19997.54
514.43	19850.08
514.60	20004.56
514.77	19992.86
514.95	20163.72
515.12	19772.85
515.29	19917.96
515.47	20077.12
515.64	20526.50
515.81	20154.35
515.99	20489.05
516.16	20367.34
516.33	20287.76
516.51	20610.76
516.68	20512.46
516.85	20456.28
517.03	20432.88
517.20	21010.99
517.37	20680.97
517.54	20662.25
517.72	20877.58
517.89	20577.99
518.06	20908.01
518.24	20720.76
518.41	21055.46
518.58	21025.03
518.75	20849.49
518.93	21102.27
519.10	20978.22
519.27	20936.09
519.45	20968.86
519.62	21310.58
519.79	21376.11
519.96	21603.14
520.14	21366.75
520.31	21549.31
520.48	21521.23
520.65	21252.06
520.83	21612.51
521.00	21638.25
521.17	21558.67
521.34	21745.92
521.52	21848.90
521.69	21759.96
521.86	22075.93
522.03	21884.01
522.20	22167.21
522.38	22338.07
522.55	22136.79
522.72	21916.78
522.89	22260.84
523.07	22324.03
523.24	22263.18
523.41	22382.54
523.58	22052.53
523.75	22530.00
523.92	22452.76
524.10	22321.69
524.27	22658.73
524.44	22918.53
524.61	22883.42
524.78	22473.82
524.96	22829.59
525.13	22895.12
525.30	22686.81
525.47	22890.44
525.64	22724.26
525.81	23051.94
525.98	23101.09
526.16	22738.30
526.33	23178.33
526.50	23513.02
526.67	22867.03
526.84	23229.82
527.01	23019.17
527.18	23070.66
527.36	23241.52
527.53	23304.71
527.70	23740.05
527.87	23283.65
528.04	23370.25
528.21	23555.15
528.38	23527.06
528.55	23489.62
528.72	23704.95
528.89	23812.61
529.07	23667.50
529.24	23662.82
529.41	23683.88
529.58	23812.61
529.75	23520.04
529.92	23758.78
530.09	23648.77
530.26	23929.64
530.43	23800.91
530.60	23618.35
530.77	23761.12
530.94	24194.12
531.11	24196.46
531.28	24233.91
531.46	24144.97
531.63	24374.34
531.80	24386.04
531.97	24215.18
532.14	24411.79
532.31	24130.92
532.48	24086.45
532.65	24510.09
532.82	24484.34
532.99	24538.18
533.16	24374.34
533.33	24486.68
533.50	25165.44
533.67	24482.00
533.84	24442.21
534.01	24519.45
534.18	24671.59
534.35	24912.66
534.52	24666.91
534.69	25142.03
534.86	25160.76
535.03	24947.77
535.20	24980.54
535.37	24744.14
535.54	25106.93
535.71	24758.19
535.88	24978.20
536.05	25017.99
536.22	25184.16
536.38	25317.57
536.55	25092.88
536.72	25216.93
536.89	24725.42
537.06	24940.75
537.23	25252.04
537.40	25436.94
537.57	25685.04
537.74	25483.75
537.91	25083.52
538.08	25572.69
538.25	25394.81
538.42	25326.94
538.59	25663.97
538.75	25479.07
538.92	25710.78
539.09	25598.44
539.26	26036.12
539.43	25778.66
539.60	25881.64
539.77	25413.54
539.94	25832.49
540.11	25820.79
540.28	25614.82
540.44	25783.34
540.61	25984.63
540.78	25706.10
540.95	26253.79
541.12	25640.57
541.29	25867.60
541.46	26335.71
541.62	25834.83
541.79	25631.21
541.96	25898.03
542.13	26061.87
542.30	26480.82
542.47	26309.96
542.63	26536.99
542.80	26639.98
542.97	26157.83
543.14	26602.53
543.31	26361.45
543.48	26139.10
543.64	26766.37
543.81	26607.21
543.98	27042.55
544.15	26815.52
544.32	26897.44
544.48	26831.90
544.65	26553.38
544.82	26651.68
544.99	26642.32
545.16	26565.08
545.32	26544.02
545.49	27206.39
545.66	27061.27
545.83	26969.99
546.00	27080.00
546.16	27070.64
546.33	27197.02
546.50	27152.55
546.67	27311.71
546.83	26822.54
547.00	26981.70
547.17	27190.00
547.34	27344.48
547.50	27447.46
547.67	27620.66
547.84	27587.89
548.00	27395.97
548.17	27761.09
548.34	27377.25
548.51	27695.56
548.67	27665.13
548.84	27491.93
549.01	27227.45
549.18	27733.01
549.34	27473.21
549.51	27447.46
549.68	27531.72
549.84	27772.80
550.01	27620.66
550.18	27260.22
550.34	27634.71
550.51	27810.25
550.68	27955.36
550.84	27625.34
551.01	28154.30
551.18	27887.48
551.34	27896.85
551.51	27466.19
551.68	28119.20
551.84	27999.83
552.01	28098.13
552.18	28088.77
552.34	27910.89
552.51	28039.62
552.68	28109.83
552.84	27992.81
553.01	28294.74
553.18	28226.86
553.34	27885.14
553.51	28531.13
553.67	28252.61
553.84	28470.28
554.01	28273.67
554.17	28339.21
554.34	28264.31
554.51	28182.39
554.67	28259.63
554.84	28446.87
555.00	27990.47
555.17	28669.22
555.33	28500.70
555.50	28453.89
555.67	28601.35
555.83	28725.39
556.00	28332.18
556.16	29280.10
556.33	28250.27
556.50	28477.30
556.66	28943.06
556.83	29095.20
556.99	28868.17
557.16	28697.31
557.32	28737.10
557.49	28563.90
557.65	28720.71
557.82	28659.86
557.98	28315.80
558.15	28676.24
558.32	29156.05
558.48	28790.93
558.65	28788.59
558.81	28931.36
558.98	28690.29
559.14	28655.18
559.31	28821.36
559.47	29055.41
559.64	29149.03
559.80	29015.62
559.97	29355.00
560.13	29090.52
560.30	29060.09
560.46	29518.84
560.63	29024.98
560.79	29048.39
560.96	29413.51
561.12	29240.31
561.29	28833.06
561.45	29209.89
561.61	29127.97
561.78	29085.84
561.94	29254.36
562.11	29209.89
562.27	29163.08
562.44	29439.26
562.60	29193.50
562.77	29088.18
562.93	29317.55
563.10	29771.61
563.26	29511.81
563.42	29745.87
563.59	29226.27
563.75	29446.28
563.92	29448.62
564.08	29242.65
564.24	29427.56
564.41	29355.00
564.57	29326.91
564.74	29560.97
564.90	29687.36
565.07	29542.24
565.23	29820.77
565.39	29418.19
565.56	29624.16
565.72	29579.69
565.88	29535.22
566.05	29497.77
566.21	29340.96
566.38	29420.53
566.54	29516.50
566.70	29977.58
566.87	29965.88
567.03	29542.24
567.19	30113.33
567.36	29467.34
567.52	29713.10
567.68	29823.11
567.85	29780.98
568.01	29694.38
568.17	29479.05
568.34	29699.06
568.50	29642.88
568.66	29619.48
568.83	30298.23
568.99	29706.08
569.15	29694.38
569.32	29752.89
569.48	29373.72
569.64	29860.55
569.81	29872.26
569.97	29383.09
570.13	29890.98
570.30	29706.08
570.46	30157.80
570.62	30185.89
570.78	29556.28
570.95	29572.67
571.11	29947.15
571.27	29436.92
571.43	29607.78
571.60	29743.53
571.76	29715.44
571.92	29722.46
572.09	29895.66
572.25	30045.46
572.41	30108.65
572.57	30094.61
572.74	30064.18
572.90	29898.00
573.06	29860.55
573.22	29757.57
573.38	30085.25
573.55	29799.70
573.71	30373.13
573.87	29968.22
574.03	30108.65
574.20	30029.07
574.36	29523.52
574.52	30057.16
574.68	29816.08
574.84	30113.33
575.01	30375.47
575.17	30129.72
575.33	30164.82
575.49	29986.94
575.65	30017.37
575.82	30408.24
575.98	29926.09
576.14	29855.87
576.30	30132.06
576.46	29905.02
576.62	30328.66
576.79	30061.84
576.95	29876.94
577.11	30543.99
577.27	30024.39
577.43	30228.02
577.59	30260.79
577.75	29764.59
577.92	29715.44
578.08	29729.48
578.24	30375.47
578.40	30235.04
578.56	30225.68
578.72	30389.52
578.88	29986.94
579.04	30354.41
579.21	29961.20
579.37	29991.62
579.53	30169.51
579.69	30153.12
579.85	30178.87
580.01	29993.97
580.17	30085.25
580.33	30213.98
580.49	30251.42
580.65	30118.01
580.82	30235.04
580.98	30448.03
581.14	30087.59
581.30	30466.75
581.46	29907.37
581.62	30022.05
581.78	29996.31
581.94	30562.72
582.10	30005.67
582.26	30323.98
582.42	30267.81
582.58	30239.72
582.74	30380.15
582.90	30178.87
583.06	30181.21
583.22	30473.78
583.38	30279.51
583.54	30522.93
583.70	30314.62
583.86	30389.52
584.02	29846.51
584.18	30148.44
584.34	30326.32
584.50	30490.16
584.66	30335.68
584.82	29926.09
584.98	30670.38
585.14	30363.77
585.30	29862.90
585.46	30071.20
585.62	30253.76
585.78	30703.15
585.94	30103.97
586.10	30312.28
586.26	30277.17
586.42	30551.01
586.58	30579.10
586.74	30213.98
586.90	30464.41
587.06	30258.45
587.22	30445.69
587.38	30277.17
587.54	30352.07
587.70	30396.54
587.86	30675.06
588.02	30316.96
588.18	30417.60
588.34	30909.11
588.49	30756.98
588.65	30108.65
588.81	29970.56
588.97	30288.87
589.13	30263.13
589.29	30338.02
589.45	30366.11
589.61	30756.98
589.77	30918.48
589.93	30731.23
590.08	30752.30
590.24	31021.46
590.40	30962.95
590.56	30813.15
590.72	30312.28
590.88	30237.38
591.04	30405.90
591.20	30719.53
591.35	30906.77
591.51	31105.72
591.67	30558.03
591.83	30955.93
591.99	30895.07
