SpectraSuite Data File
++++++++++++++++++++++++++++++++++++
Date: Fri Oct 18 13:58:22 GMT-05:00 2013
User: bianchi
Dark Spectrum Present: No
Reference Spectrum Present: No
Number of Sampled Component Spectra: 1
Spectrometers: USB2+H05261
Integration Time (usec): 50000 (USB2+H05261)
Spectra Averaged: 1 (USB2+H05261)
Boxcar Smoothing: 0 (USB2+H05261)
Correct for Electrical Dark: No (USB2+H05261)
Strobe/Lamp Enabled: No (USB2+H05261)
Correct for Detector Non-linearity: No (USB2+H05261)
Correct for Stray Light: No (USB2+H05261)
Number of Pixels in Processed Spectrum: 2048
>>>>>Begin Processed Spectral Data<<<<<
365.73	0.00
365.92	0.00
366.12	0.00
366.32	0.00
366.52	0.00
366.72	0.00
366.91	0.00
367.11	0.00
367.31	0.00
367.51	0.00
367.70	0.00
367.90	0.00
368.10	0.00
368.30	0.00
368.49	0.00
368.69	0.00
368.89	0.00
369.09	0.00
369.28	0.00
369.48	0.00
369.68	0.00
369.87	0.00
370.07	0.00
370.27	0.00
370.47	0.00
370.66	110.01
370.86	131.07
371.06	163.84
371.25	117.03
371.45	117.03
371.65	196.60
371.84	194.26
372.04	175.54
372.24	170.86
372.44	170.86
372.63	161.50
372.83	177.88
373.03	194.26
373.22	229.37
373.42	262.14
373.62	238.73
373.81	173.20
374.01	198.95
374.21	238.73
374.40	241.08
374.60	294.91
374.79	287.89
374.99	196.60
375.19	175.54
375.38	287.89
375.58	241.08
375.78	280.86
375.97	187.24
376.17	318.31
376.37	201.29
376.56	208.31
376.76	177.88
376.95	224.69
377.15	264.48
377.35	241.08
377.54	184.90
377.74	278.52
377.93	252.78
378.13	236.39
378.33	231.71
378.52	259.80
378.72	339.38
378.91	358.10
379.11	358.10
379.31	290.23
379.50	236.39
379.70	220.01
379.89	372.15
380.09	308.95
380.28	327.68
380.48	327.68
380.68	266.82
380.87	236.39
381.07	280.86
381.26	334.70
381.46	358.10
381.65	358.10
381.85	311.29
382.04	388.53
382.24	374.49
382.43	374.49
382.63	283.20
382.83	414.27
383.02	337.04
383.22	355.76
383.41	297.25
383.61	348.74
383.80	360.44
384.00	428.32
384.19	381.51
384.39	397.89
384.58	430.66
384.78	346.40
384.97	372.15
385.17	369.80
385.36	428.32
385.56	367.46
385.75	425.98
385.95	355.76
386.14	409.59
386.34	463.43
386.53	407.25
386.72	395.55
386.92	425.98
387.11	395.55
387.31	393.21
387.50	367.46
387.70	418.96
387.89	416.62
388.09	376.83
388.28	442.36
388.48	454.06
388.67	486.83
388.86	355.76
389.06	451.72
389.25	437.68
389.45	358.10
389.64	437.68
389.84	454.06
390.03	514.92
390.22	519.60
390.42	465.77
390.61	449.38
390.81	425.98
391.00	475.13
391.19	552.37
391.39	458.74
391.58	465.77
391.78	463.43
391.97	465.77
392.16	470.45
392.36	533.64
392.55	479.81
392.75	475.13
392.94	566.41
393.13	578.11
393.33	507.90
393.52	559.39
393.71	521.94
393.91	571.09
394.10	566.41
394.29	571.09
394.49	559.39
394.68	531.30
394.88	599.18
395.07	571.09
395.26	631.94
395.46	610.88
395.65	655.35
395.84	578.11
396.04	699.82
396.23	650.67
396.42	697.48
396.62	528.96
396.81	638.97
397.00	594.50
397.19	624.92
397.39	716.20
397.58	617.90
397.77	660.03
397.97	702.16
398.16	662.37
398.35	648.33
398.55	638.97
398.74	685.78
398.93	784.08
399.12	720.88
399.32	695.14
399.51	622.58
399.70	739.61
399.90	805.14
400.09	753.65
400.28	819.19
400.47	720.88
400.67	772.38
400.86	788.76
401.05	777.06
401.24	819.19
401.44	819.19
401.63	814.51
401.82	851.96
402.01	763.01
402.21	716.20
402.40	823.87
402.59	786.42
402.78	770.04
402.97	903.45
403.17	786.42
403.36	880.04
403.55	748.97
403.74	791.10
403.93	887.06
404.13	952.60
404.32	844.93
404.51	1015.79
404.70	887.06
404.89	1011.11
405.09	1022.81
405.28	938.55
405.47	931.53
405.66	1004.09
405.85	957.28
406.05	964.30
406.24	938.55
406.43	990.05
406.62	1025.15
406.81	1109.41
407.00	1008.77
407.20	983.02
407.39	957.28
407.58	1088.35
407.77	1004.09
407.96	1071.97
408.15	1193.67
408.34	1111.75
408.54	1102.39
408.73	1097.71
408.92	1097.71
409.11	1090.69
409.30	1036.86
409.49	1135.16
409.68	1137.50
409.87	1093.03
410.07	1128.14
410.26	1156.22
410.45	1039.20
410.64	1191.33
410.83	1123.46
411.02	1254.53
411.21	1259.21
411.40	1266.23
411.59	1214.74
411.78	1284.95
411.98	1249.85
412.17	1273.25
412.36	1282.61
412.55	1277.93
412.74	1284.95
412.93	1263.89
413.12	1303.68
413.31	1380.92
413.50	1406.66
413.69	1390.28
413.88	1383.26
414.07	1509.65
414.26	1338.79
414.45	1551.78
414.64	1376.24
414.83	1465.18
415.02	1572.84
415.22	1547.09
415.41	1511.99
415.60	1465.18
415.79	1638.38
415.98	1596.25
416.17	1549.43
416.36	1514.33
416.55	1657.10
416.74	1591.56
416.93	1603.27
417.12	1600.93
417.31	1710.93
417.50	1769.44
417.69	1809.23
417.88	1703.91
418.07	1720.29
418.26	1774.13
418.45	1797.53
418.64	1802.21
418.83	1881.79
419.02	1891.15
419.21	1781.15
419.39	1753.06
419.58	1872.43
419.77	1816.26
419.96	1825.62
420.15	1881.79
420.34	1872.43
420.53	1790.51
420.72	1914.56
420.91	1916.90
421.10	1909.88
421.29	1902.86
421.48	1923.92
421.67	1902.86
421.86	2029.24
422.05	1900.52
422.24	1949.67
422.43	1853.70
422.61	1961.37
422.80	2033.93
422.99	2024.56
423.18	1987.11
423.37	2139.25
423.56	2078.40
423.75	2031.58
423.94	1996.48
424.13	1970.73
424.32	1930.94
424.50	2062.01
424.69	2087.76
424.88	2174.36
425.07	2106.48
425.26	1998.82
425.45	2064.35
425.64	1935.62
425.83	1942.64
426.01	1963.71
426.20	2101.80
426.39	2066.69
426.58	2026.90
426.77	2134.57
426.96	2087.76
427.15	2108.82
427.33	2174.36
427.52	2111.16
427.71	2134.57
427.90	2132.23
428.09	2073.71
428.28	2143.93
428.46	2157.97
428.65	2169.68
428.84	2223.51
429.03	2256.28
429.22	2125.21
429.40	2188.40
429.59	2251.60
429.78	2167.34
429.97	2204.78
430.16	2169.68
430.34	2284.36
430.53	2300.75
430.72	2366.28
430.91	2333.51
431.10	2260.96
431.28	2246.91
431.47	2307.77
431.66	2331.17
431.85	2317.13
432.03	2356.92
432.22	2473.95
432.41	2424.80
432.60	2424.80
432.79	2394.37
432.97	2485.65
433.16	2410.75
433.35	2502.03
433.54	2495.01
433.72	2499.69
433.91	2438.84
434.10	2523.10
434.28	2502.03
434.47	2539.48
434.66	2537.14
434.85	2544.16
435.03	2649.49
435.22	2555.86
435.41	2637.78
435.59	2473.95
435.78	2651.83
435.97	2576.93
436.16	2757.15
436.34	2656.51
436.53	2537.14
436.72	2733.75
436.90	2534.80
437.09	2768.85
437.28	2640.12
437.46	2630.76
437.65	2794.60
437.84	2555.86
438.02	2726.72
438.21	2794.60
438.40	2635.44
438.58	2857.79
438.77	2869.50
438.96	2780.56
439.14	3087.17
439.33	2904.60
439.52	2963.12
439.70	2979.50
439.89	2998.23
440.08	2995.89
440.26	3005.25
440.45	2953.76
440.63	3056.74
440.82	3005.25
441.01	3152.70
441.19	3068.44
441.38	3187.81
441.57	3103.55
441.75	3199.51
441.94	3391.44
442.12	3339.94
442.31	3290.79
442.50	3356.33
442.68	3290.79
442.87	3361.01
443.05	3208.87
443.24	3211.22
443.43	3346.97
443.61	3403.14
443.80	3426.54
443.98	3344.63
444.17	3295.47
444.35	3368.03
444.54	3393.78
444.73	3361.01
444.91	3398.46
445.10	3510.80
445.28	3499.10
445.47	3358.67
445.65	3482.72
445.84	3414.84
446.02	3337.60
446.21	3356.33
446.39	3403.14
446.58	3410.16
446.77	3496.76
446.95	3403.14
447.14	3508.46
447.32	3660.60
447.51	3435.91
447.69	3482.72
447.88	3517.83
448.06	3478.04
448.25	3524.85
448.43	3515.48
448.62	3449.95
448.80	3655.92
448.99	3557.61
449.17	3581.02
449.36	3447.61
449.54	3798.69
449.73	3705.07
449.91	3625.49
450.10	3700.39
450.28	3763.58
450.46	3674.64
450.65	3700.39
450.83	3796.35
451.02	3632.51
451.20	3747.20
451.39	3939.12
451.57	3719.11
451.76	3770.60
451.94	3852.52
452.13	3845.50
452.31	3758.90
452.49	3749.54
452.68	3887.63
452.86	3908.69
453.05	3815.07
453.23	3964.87
453.42	3857.20
453.60	3674.64
453.78	3845.50
453.97	3997.64
454.15	3875.93
454.34	3798.69
454.52	4021.04
454.70	3967.21
454.89	4065.51
455.07	3992.95
455.26	3997.64
455.44	4166.15
455.62	3829.12
455.81	3990.61
455.99	4056.15
456.17	4161.47
456.36	4102.96
456.54	4067.85
456.73	4208.28
456.91	4278.50
457.09	4250.41
457.28	4234.03
457.46	4271.48
457.64	4292.54
457.83	4414.25
458.01	4219.99
458.19	4365.10
458.38	4348.72
458.56	4367.44
458.74	4449.36
458.93	4517.23
459.11	4339.35
459.29	4407.23
459.48	4475.10
459.66	4517.23
459.84	4290.20
460.03	4430.63
460.21	4482.13
460.39	4533.62
460.57	4624.90
460.76	4566.39
460.94	4578.09
461.12	4650.64
461.31	4552.34
461.49	4608.51
461.67	4615.54
461.85	4671.71
462.04	4725.54
462.22	4812.14
462.40	4613.20
462.59	4795.76
462.77	4767.67
462.95	4819.16
463.13	4748.95
463.32	4802.78
463.50	4873.00
463.68	4985.34
463.86	4894.06
464.05	4795.76
464.23	4861.29
464.41	4823.84
464.59	4842.57
464.78	4861.29
464.96	4849.59
465.14	4978.32
465.32	5095.35
465.50	4990.02
465.69	5006.41
465.87	4952.57
466.05	4940.87
466.23	4856.61
466.41	5118.75
466.60	4926.83
466.78	5043.85
466.96	5069.60
467.14	4966.62
467.32	5048.54
467.51	5275.57
467.69	5062.58
467.87	5128.11
468.05	5221.74
468.23	5046.20
468.41	5280.25
468.60	5160.88
468.78	5313.02
468.96	5179.61
469.14	5205.35
469.32	5383.23
469.50	5116.41
469.69	5364.51
469.87	5387.91
470.05	5399.62
470.23	5406.64
470.41	5446.43
470.59	5345.78
470.77	5444.09
470.95	5334.08
471.14	5535.37
471.32	5514.30
471.50	5598.56
471.68	5507.28
471.86	5605.58
472.04	5668.78
472.22	5748.36
472.40	5462.81
472.58	5680.48
472.77	5682.82
472.95	5881.77
473.13	6080.71
473.31	5738.99
473.49	5874.74
473.67	5767.08
473.85	5804.53
474.03	6129.86
474.21	5858.36
474.39	6094.76
474.57	6097.10
474.75	5940.28
474.93	5851.34
475.12	6260.93
475.30	6127.52
475.48	6265.61
475.66	6237.53
475.84	6214.12
476.02	6307.74
476.20	6361.58
476.38	6431.79
476.56	6661.16
476.74	6415.41
476.92	6499.67
477.10	6544.14
477.28	6661.16
477.46	6738.40
477.64	6682.23
477.82	6719.68
478.00	6939.69
478.18	6942.03
478.36	6848.41
478.54	7000.54
478.72	7045.01
478.90	7145.66
479.08	7208.85
479.26	7185.44
479.44	6995.86
479.62	7103.53
479.80	7391.41
479.98	7442.90
480.16	7543.55
480.34	7421.84
480.52	7569.29
480.70	7728.45
480.88	7405.46
481.06	7632.49
481.24	7585.68
481.41	7763.56
481.59	7803.35
481.77	7995.27
481.95	8058.46
482.13	7927.39
482.31	7957.82
482.49	8322.94
482.67	8259.75
482.85	8306.56
483.03	8510.19
483.21	8428.27
483.39	8535.93
483.57	8404.86
483.74	8507.85
483.92	8578.06
484.10	8592.11
484.28	8807.44
484.46	8777.01
484.64	9032.13
484.82	8821.48
485.00	9146.81
485.18	9207.67
485.35	9350.44
485.53	9207.67
485.71	9149.15
485.89	9600.88
486.07	9397.25
486.25	9521.30
486.43	9547.05
486.61	9593.86
486.78	9710.88
486.96	9827.91
487.14	10005.79
487.32	9907.49
487.50	10026.86
487.68	10139.20
487.85	10310.06
488.03	10417.72
488.21	10583.90
488.39	10361.55
488.57	10743.06
488.75	10466.88
488.92	10979.45
489.10	10904.56
489.28	10967.75
489.46	10927.96
489.64	11047.33
489.81	11145.63
489.99	11241.59
490.17	11129.25
490.35	11377.34
490.53	11527.14
490.70	11496.71
490.88	11438.20
491.06	11878.22
491.24	11798.64
491.41	11742.47
491.59	11903.96
491.77	12035.03
491.95	12084.19
492.13	12138.02
492.30	12086.53
492.48	11910.99
492.66	12526.55
492.84	12407.18
493.01	12463.35
493.19	12472.71
493.37	12830.82
493.54	12615.49
493.72	12795.71
493.90	12486.76
494.08	12889.33
494.25	13081.25
494.43	13060.19
494.61	13132.75
494.79	13198.28
494.96	13338.71
495.14	13195.94
495.32	13481.49
495.49	13495.53
495.67	13664.05
495.85	13701.50
496.02	13647.66
496.20	13760.01
496.38	13858.31
496.55	14033.85
496.73	14214.07
496.91	14061.94
497.09	14286.63
497.26	14171.94
497.44	14267.91
497.62	14391.95
497.79	14593.24
497.97	14530.05
498.14	14689.20
498.32	14841.34
498.50	14576.86
498.67	14979.43
498.85	14726.65
499.03	14831.97
499.20	14991.13
499.38	15197.10
499.56	15199.44
499.73	15173.69
499.91	15325.83
500.08	15391.36
500.26	15213.48
500.44	15220.50
500.61	15419.45
500.79	15428.81
500.97	15494.35
501.14	16023.31
501.32	15974.16
501.49	15611.37
501.67	15573.92
501.84	15971.82
502.02	15910.96
502.20	15908.62
502.37	16166.08
502.55	16217.57
502.72	15941.39
502.90	15971.82
503.07	16020.97
503.25	16299.49
503.43	16444.60
503.60	16751.21
503.78	16423.54
503.95	16271.40
504.13	16622.48
504.30	16498.44
504.48	16823.77
504.65	16730.15
504.83	16847.18
505.01	16961.86
505.18	17102.29
505.36	17025.06
505.53	16592.06
505.71	16816.75
505.88	17146.76
506.06	16795.68
506.23	17224.00
506.41	17209.96
506.58	17467.42
506.76	17191.23
506.93	17678.07
507.11	17303.58
507.28	17502.53
507.46	17558.70
507.63	17582.10
507.81	18122.77
507.98	17635.94
508.16	17867.65
508.33	17547.00
508.50	17926.16
508.68	17769.35
508.85	18008.08
509.03	18026.81
509.20	17968.29
509.38	18101.70
509.55	18420.02
509.73	18111.07
509.90	18405.97
510.08	18291.29
510.25	18312.35
510.42	18434.06
510.60	18417.68
510.77	18801.52
510.95	18735.99
511.12	18223.41
511.30	18743.01
511.47	18724.29
511.64	18595.56
511.82	19103.45
511.99	18778.12
512.17	19000.47
512.34	18871.74
512.51	18883.44
512.69	18995.79
512.86	19094.09
513.04	19494.32
513.21	19403.04
513.38	19356.23
513.56	19246.23
513.73	19440.49
513.90	19552.84
514.08	19379.64
514.25	19499.00
514.43	19522.41
514.60	19641.78
514.77	19784.55
514.95	19969.45
515.12	19852.42
515.29	19576.24
515.47	19716.67
515.64	20030.30
515.81	19999.88
515.99	20051.37
516.16	20479.69
516.33	20177.76
516.51	20308.83
516.68	20100.52
516.85	20130.95
517.03	20194.14
517.20	20423.51
517.37	20374.36
517.54	20306.49
517.72	20458.62
517.89	20491.39
518.06	21001.63
518.24	20615.44
518.41	20453.94
518.58	20585.01
518.75	20819.07
518.93	20655.23
519.10	20950.14
519.27	20769.91
519.45	20673.95
519.62	20856.51
519.79	20807.36
519.96	21263.77
520.14	21343.35
520.31	21184.19
520.48	21132.70
520.65	20989.92
520.83	21296.53
521.00	21226.32
521.17	21188.87
521.34	21221.64
521.52	21301.22
521.69	21509.52
521.86	21678.04
522.03	21687.40
522.20	21717.83
522.38	21813.79
522.55	21628.89
522.72	21762.30
522.89	22066.57
523.07	22253.81
523.24	21699.11
523.41	22054.87
523.58	21975.29
523.75	22164.87
523.92	22050.19
524.10	21820.81
524.27	22302.96
524.44	22174.24
524.61	22548.72
524.78	22272.54
524.96	22340.41
525.13	22340.41
525.30	22553.40
525.47	22333.39
525.64	22656.39
525.81	22632.98
525.98	22951.29
526.16	22803.84
526.33	22668.09
526.50	22803.84
526.67	22712.56
526.84	22925.55
527.01	22588.51
527.18	22661.07
527.36	23089.38
527.53	23002.78
527.70	23234.50
527.87	23573.88
528.04	23218.11
528.21	22963.00
528.38	23227.48
528.55	23356.21
528.72	23058.96
528.89	23175.98
529.07	23351.52
529.24	23274.29
529.41	22974.70
529.58	23321.10
529.75	23222.80
529.92	23393.65
530.09	23087.04
530.26	23346.84
530.43	23585.58
530.60	23522.38
530.77	23896.87
530.94	23704.95
531.11	23620.69
531.28	23751.76
531.46	23686.22
531.63	23644.09
531.80	23779.84
531.97	23847.72
532.14	23976.45
532.31	23817.29
532.48	24098.16
532.65	24009.22
532.82	24182.42
532.99	24133.26
533.16	23864.10
533.33	24524.13
533.50	24449.24
533.67	24219.86
533.84	24077.09
534.01	24196.46
534.18	24353.27
534.35	24343.91
534.52	24507.75
534.69	24615.41
534.86	24343.91
535.03	24524.13
535.20	24449.24
535.37	24538.18
535.54	24746.48
535.71	24201.14
535.88	24725.42
536.05	24573.28
536.22	25167.78
536.38	24858.83
536.55	24891.60
536.72	25050.75
536.89	24657.54
537.06	25102.25
537.23	25039.05
537.40	25043.73
537.57	24453.92
537.74	24926.71
537.91	25298.85
538.08	25544.61
538.25	24964.15
538.42	25413.54
538.59	25010.96
538.75	25104.59
538.92	25130.33
539.09	25600.78
539.26	25364.39
539.43	25135.01
539.60	25268.42
539.77	25776.32
539.94	25577.37
540.11	25319.92
540.28	25694.40
540.44	25490.77
540.61	25422.90
540.78	25050.75
540.95	25661.63
541.12	25612.48
541.29	25745.89
541.46	25387.79
541.62	25593.76
541.79	25593.76
541.96	25355.02
542.13	25530.56
542.30	25729.51
542.47	26143.78
542.63	26010.37
542.80	26326.35
542.97	26017.40
543.14	26246.77
543.31	26183.57
543.48	26309.96
543.64	26714.87
543.81	26106.34
543.98	26380.18
544.15	26485.50
544.32	26700.83
544.48	26742.96
544.65	26480.82
544.82	26263.15
544.99	26251.45
545.16	26319.32
545.32	26462.10
545.49	26560.40
545.66	26499.55
545.83	26588.49
546.00	26686.79
546.16	26579.12
546.33	26675.09
546.50	26260.81
546.67	26415.29
546.83	26665.72
547.00	26614.23
547.17	26661.04
547.34	26974.67
547.50	26972.33
547.67	27049.57
547.84	27056.59
548.00	27213.41
548.17	26824.88
548.34	26850.63
548.51	27182.98
548.67	27007.44
548.84	27051.91
549.01	27101.06
549.18	27278.94
549.34	27215.75
549.51	27080.00
549.68	26995.74
549.84	27152.55
550.01	27484.91
550.18	27459.16
550.34	27374.91
550.51	27552.79
550.68	27304.69
550.84	27047.23
551.01	27384.27
551.18	27337.46
551.34	27185.32
551.51	27307.03
551.68	27133.83
551.84	27648.75
552.01	27583.21
552.18	27658.11
552.34	27304.69
552.51	27941.32
552.68	26988.72
552.84	27637.05
553.01	27566.83
553.18	27648.75
553.34	27637.05
553.51	27814.93
553.67	27981.10
553.84	27828.97
554.01	27728.33
554.17	27728.33
554.34	27798.54
554.51	27679.18
554.67	27892.16
554.84	28079.41
555.00	27901.53
555.17	28023.23
555.33	27990.47
555.50	27702.58
555.67	27969.40
555.83	28112.17
556.00	28444.53
556.16	28435.17
556.33	27927.27
556.50	27887.48
556.66	28191.75
556.83	28119.20
556.99	28430.49
557.16	28446.87
557.32	28329.84
557.49	28276.01
557.65	28236.22
557.82	28215.16
557.98	27903.87
558.15	28294.74
558.32	28168.35
558.48	28070.04
558.65	28526.45
558.81	28446.87
558.98	28580.28
559.14	28315.80
559.31	28954.77
559.47	28491.34
559.64	28671.56
559.80	28524.11
559.97	28753.48
560.13	28463.25
560.30	28517.09
560.46	28762.84
560.63	28549.85
560.79	28491.34
560.96	28512.41
561.12	28648.16
561.29	28577.94
561.45	28868.17
561.61	28797.95
561.78	28879.87
561.94	28877.53
562.11	28690.29
562.27	28711.35
562.44	28706.67
562.60	29027.32
562.77	28800.29
562.93	28606.03
563.10	28795.61
563.26	28751.14
563.42	28842.42
563.59	28584.96
563.75	28718.37
563.92	29139.67
564.08	28889.23
564.24	28968.81
564.41	28364.95
564.57	28662.20
564.74	28940.72
564.90	28900.94
565.07	28929.02
565.23	29034.35
565.39	28964.13
565.56	29142.01
565.72	28577.94
565.88	28891.57
566.05	28713.69
566.21	29006.26
566.38	28659.86
566.54	29034.35
566.70	29535.22
566.87	29127.97
567.03	29226.27
567.19	29586.71
567.36	29214.57
567.52	29106.90
567.68	29062.43
567.85	29149.03
568.01	29039.03
568.17	28793.27
568.34	29230.95
568.50	29486.07
568.66	29359.68
568.83	29479.05
568.99	29223.93
569.15	28905.62
569.32	29263.72
569.48	28732.42
569.64	28774.55
569.81	28966.47
569.97	29188.82
570.13	29120.95
570.30	29338.62
570.46	29373.72
570.62	29340.96
570.78	29298.83
570.95	28917.32
571.11	29270.74
571.27	29085.84
571.43	28709.01
571.60	29408.83
571.76	28982.85
571.92	29446.28
572.09	29347.98
572.25	29525.86
572.41	29385.43
572.57	29282.44
572.74	29645.23
572.90	29401.81
573.06	29355.00
573.22	29125.63
573.38	29242.65
573.55	29310.53
573.71	29628.84
573.87	29923.75
574.03	29212.23
574.20	29532.88
574.36	29598.41
574.52	29532.88
574.68	29088.18
574.84	29476.71
575.01	29467.34
575.17	29668.63
575.33	29144.35
575.49	29345.64
575.65	29521.18
575.82	29467.34
575.98	29457.98
576.14	29457.98
576.30	29429.90
576.46	29202.86
576.62	29242.65
576.79	29490.75
576.95	29457.98
577.11	29539.90
577.27	29179.46
577.43	29738.85
577.59	29521.18
577.75	29385.43
577.92	29364.36
578.08	29518.84
578.24	29841.83
578.40	29441.60
578.56	29603.10
578.72	29546.92
578.88	29975.24
579.04	29926.09
579.21	29883.96
579.37	29717.78
579.53	29926.09
579.69	29411.17
579.85	29488.41
580.01	29549.26
580.17	29387.77
580.33	29443.94
580.49	29722.46
580.65	29675.65
580.82	29951.84
580.98	29663.95
581.14	29825.45
581.30	29827.79
581.46	29493.09
581.62	29490.75
581.78	29722.46
581.94	29965.88
582.10	29525.86
582.26	29895.66
582.42	29670.97
582.58	29963.54
582.74	29752.89
582.90	29724.80
583.06	29558.63
583.22	29734.17
583.38	30057.16
583.54	29497.77
583.70	29298.83
583.86	29666.29
584.02	29523.52
584.18	29823.11
584.34	30092.27
584.50	29905.02
584.66	30017.37
584.82	29769.27
584.98	29862.90
585.14	29788.00
585.30	29298.83
585.46	29766.93
585.62	29390.11
585.78	29890.98
585.94	29692.04
586.10	30022.05
586.26	29776.30
586.42	29666.29
586.58	30321.64
586.74	29387.77
586.90	29584.37
587.06	29376.06
587.22	29752.89
587.38	29745.87
587.54	29841.83
587.70	30167.16
587.86	30153.12
588.02	30024.39
588.18	29823.11
588.34	29881.62
588.49	29748.21
588.65	29895.66
588.81	29804.38
588.97	29898.00
589.13	30033.75
589.29	29706.08
589.45	30108.65
589.61	30302.92
589.77	30429.30
589.93	30103.97
590.08	30120.35
590.24	30221.00
590.40	29792.68
590.56	30038.44
590.72	29687.36
590.88	29743.53
591.04	29778.64
591.20	30279.51
591.35	30211.64
591.51	30342.70
591.67	30473.78
591.83	30560.37
591.99	30309.94
