SpectraSuite Data File
++++++++++++++++++++++++++++++++++++
Date: Fri Oct 18 13:57:54 GMT-05:00 2013
User: bianchi
Dark Spectrum Present: No
Reference Spectrum Present: No
Number of Sampled Component Spectra: 1
Spectrometers: USB2+H05261
Integration Time (usec): 50000 (USB2+H05261)
Spectra Averaged: 1 (USB2+H05261)
Boxcar Smoothing: 0 (USB2+H05261)
Correct for Electrical Dark: No (USB2+H05261)
Strobe/Lamp Enabled: No (USB2+H05261)
Correct for Detector Non-linearity: No (USB2+H05261)
Correct for Stray Light: No (USB2+H05261)
Number of Pixels in Processed Spectrum: 2048
>>>>>Begin Processed Spectral Data<<<<<
365.73	0.00
365.92	0.00
366.12	0.00
366.32	0.00
366.52	0.00
366.72	0.00
366.91	0.00
367.11	0.00
367.31	0.00
367.51	0.00
367.70	0.00
367.90	0.00
368.10	0.00
368.30	0.00
368.49	0.00
368.69	0.00
368.89	0.00
369.09	0.00
369.28	0.00
369.48	0.00
369.68	0.00
369.87	0.00
370.07	0.00
370.27	0.00
370.47	0.00
370.66	81.92
370.86	51.49
371.06	180.22
371.25	177.88
371.45	135.75
371.65	191.92
371.84	187.24
372.04	159.16
372.24	173.20
372.44	170.86
372.63	180.22
372.83	208.31
373.03	191.92
373.22	201.29
373.42	187.24
373.62	222.35
373.81	215.33
374.01	348.74
374.21	278.52
374.40	271.50
374.60	259.80
374.79	292.57
374.99	250.44
375.19	297.25
375.38	257.46
375.58	301.93
375.78	224.69
375.97	353.42
376.17	292.57
376.37	194.26
376.56	266.82
376.76	294.91
376.95	243.42
377.15	322.99
377.35	290.23
377.54	198.95
377.74	315.97
377.93	238.73
378.13	308.95
378.33	276.18
378.52	381.51
378.72	269.16
378.91	194.26
379.11	365.12
379.31	339.38
379.50	287.89
379.70	320.65
379.89	318.31
380.09	330.02
380.28	320.65
380.48	285.55
380.68	308.95
380.87	322.99
381.07	355.76
381.26	390.87
381.46	294.91
381.65	367.46
381.85	306.61
382.04	383.85
382.24	330.02
382.43	283.20
382.63	346.40
382.83	407.25
383.02	353.42
383.22	456.40
383.41	355.76
383.61	400.23
383.80	407.25
384.00	409.59
384.19	393.21
384.39	393.21
384.58	409.59
384.78	491.51
384.97	355.76
385.17	472.79
385.36	332.36
385.56	409.59
385.75	447.04
385.95	503.22
386.14	430.66
386.34	447.04
386.53	456.40
386.72	341.72
386.92	421.30
387.11	447.04
387.31	379.17
387.50	454.06
387.70	416.62
387.89	475.13
388.09	379.17
388.28	447.04
388.48	395.55
388.67	472.79
388.86	470.45
389.06	482.15
389.25	472.79
389.45	477.47
389.64	538.32
389.84	517.26
390.03	561.73
390.22	491.51
390.42	500.87
390.61	470.45
390.81	503.22
391.00	449.38
391.19	498.53
391.39	526.62
391.58	512.58
391.78	587.47
391.97	564.07
392.16	538.32
392.36	531.30
392.55	589.82
392.75	571.09
392.94	566.41
393.13	550.03
393.33	643.65
393.52	545.34
393.71	643.65
393.91	653.01
394.10	592.16
394.29	566.41
394.49	589.82
394.68	582.79
394.88	645.99
395.07	596.84
395.26	613.22
395.46	655.35
395.65	674.07
395.84	620.24
396.04	669.39
396.23	573.43
396.42	709.18
396.62	704.50
396.81	669.39
397.00	582.79
397.19	615.56
397.39	613.22
397.58	685.78
397.77	739.61
397.97	620.24
398.16	734.93
398.35	744.29
398.55	755.99
398.74	730.25
398.93	744.29
399.12	774.72
399.32	674.07
399.51	739.61
399.70	765.36
399.90	767.70
400.09	807.48
400.28	732.59
400.47	779.40
400.67	760.67
400.86	812.17
401.05	727.91
401.24	842.59
401.44	870.68
401.63	791.10
401.82	947.92
402.01	802.80
402.21	870.68
402.40	809.83
402.59	854.30
402.78	851.96
402.97	938.55
403.17	842.59
403.36	880.04
403.55	936.21
403.74	901.11
403.93	945.58
404.13	1001.75
404.32	1046.22
404.51	961.96
404.70	994.73
404.89	938.55
405.09	943.24
405.28	1004.09
405.47	926.85
405.66	985.37
405.85	1018.13
406.05	1029.84
406.24	1001.75
406.43	1050.90
406.62	1034.52
406.81	1107.07
407.00	1093.03
407.20	1027.50
407.39	1027.50
407.58	1060.26
407.77	1067.28
407.96	1029.84
408.15	1109.41
408.34	1156.22
408.54	1125.80
408.73	1069.62
408.92	1210.06
409.11	1181.97
409.30	1144.52
409.49	1076.65
409.68	1203.04
409.87	1186.65
410.07	1198.35
410.26	1242.82
410.45	1219.42
410.64	1179.63
410.83	1207.72
411.02	1158.57
411.21	1413.68
411.40	1299.00
411.59	1306.02
411.78	1275.59
411.98	1277.93
412.17	1369.21
412.36	1266.23
412.55	1430.07
412.74	1462.83
412.93	1437.09
413.12	1418.36
413.31	1425.39
413.50	1425.39
413.69	1409.00
413.88	1535.39
414.07	1509.65
414.26	1455.81
414.45	1500.28
414.64	1593.90
414.83	1467.52
415.02	1603.27
415.22	1589.22
415.41	1612.63
415.60	1577.52
415.79	1502.62
415.98	1626.67
416.17	1607.95
416.36	1680.50
416.55	1591.56
416.74	1673.48
416.93	1734.34
417.12	1806.89
417.31	1577.52
417.50	1764.76
417.69	1804.55
417.88	1785.83
418.07	1825.62
418.26	1790.51
418.45	1778.81
418.64	1923.92
418.83	1776.47
419.02	1884.13
419.21	1893.49
419.39	1846.68
419.58	1853.70
419.77	1856.04
419.96	1898.17
420.15	1849.02
420.34	1912.22
420.53	1860.73
420.72	2010.52
420.91	2008.18
421.10	1963.71
421.29	2026.90
421.48	2029.24
421.67	2064.35
421.86	1818.60
422.05	2073.71
422.24	2076.06
422.43	1956.69
422.61	1952.01
422.80	2038.61
422.99	2040.95
423.18	2022.22
423.37	2153.29
423.56	2033.93
423.75	2057.33
423.94	2022.22
424.13	1895.83
424.32	2083.08
424.50	1980.09
424.69	2031.58
424.88	2143.93
425.07	2015.20
425.26	2176.70
425.45	2106.48
425.64	2087.76
425.83	1954.35
426.01	2167.34
426.20	2113.50
426.39	2104.14
426.58	2059.67
426.77	2188.40
426.96	2120.53
427.15	2181.38
427.33	2146.27
427.52	2246.91
427.71	2237.55
427.90	2214.15
428.09	2277.34
428.28	2225.85
428.46	2321.81
428.65	2181.38
428.84	2270.32
429.03	2340.54
429.22	2190.74
429.40	2244.57
429.59	2307.77
429.78	2160.31
429.97	2296.07
430.16	2363.94
430.34	2387.35
430.53	2480.97
430.72	2406.07
430.91	2380.32
431.10	2319.47
431.28	2354.58
431.47	2464.58
431.66	2434.16
431.85	2417.77
432.03	2523.10
432.22	2581.61
432.41	2553.52
432.60	2537.14
432.79	2490.33
432.97	2499.69
433.16	2537.14
433.35	2565.23
433.54	2527.78
433.72	2499.69
433.91	2658.85
434.10	2537.14
434.28	2551.18
434.47	2600.34
434.66	2593.31
434.85	2677.57
435.03	2597.99
435.22	2698.64
435.41	2698.64
435.59	2576.93
435.78	2640.12
435.97	2633.10
436.16	2736.09
436.34	2689.28
436.53	2757.15
436.72	2747.79
436.90	2712.68
437.09	2829.71
437.28	2752.47
437.46	2801.62
437.65	2920.99
437.84	2909.29
438.02	2953.76
438.21	2862.48
438.40	2789.92
438.58	2944.39
438.77	2965.46
438.96	2951.42
439.14	3012.27
439.33	3082.49
439.52	3000.57
439.70	3000.57
439.89	3012.27
440.08	3089.51
440.26	3164.40
440.45	3148.02
440.63	3117.59
440.82	3265.05
441.01	3052.06
441.19	3138.66
441.38	3297.81
441.57	3323.56
441.75	3361.01
441.94	3262.71
442.12	3241.64
442.31	3311.86
442.50	3410.16
442.68	3428.88
442.87	3426.54
443.05	3400.80
443.24	3503.78
443.43	3323.56
443.61	3410.16
443.80	3602.08
443.98	3316.54
444.17	3332.92
444.35	3641.87
444.54	3712.09
444.73	3569.32
444.91	3473.36
445.10	3428.88
445.28	3522.51
445.47	3595.06
445.65	3571.66
445.84	3660.60
446.02	3548.25
446.21	3541.23
446.39	3620.81
446.58	3676.98
446.77	3679.32
446.95	3611.45
447.14	3639.53
447.32	3627.83
447.51	3522.51
447.69	3702.73
447.88	3536.55
448.06	3676.98
448.25	3625.49
448.43	3665.28
448.62	3646.55
448.80	3632.51
448.99	3658.26
449.17	3829.12
449.36	3688.68
449.54	3733.15
449.73	3782.31
449.91	3850.18
450.10	3850.18
450.28	3852.52
450.46	3908.69
450.65	3737.84
450.83	3936.78
451.02	3817.41
451.20	3728.47
451.39	3932.10
451.57	3845.50
451.76	3857.20
451.94	3922.74
452.13	3908.69
452.31	3976.57
452.49	3859.54
452.68	3866.56
452.86	3864.22
453.05	3929.76
453.23	4133.39
453.42	4028.06
453.60	3843.16
453.78	3904.01
453.97	3904.01
454.15	3974.23
454.34	4072.53
454.52	4084.23
454.70	4198.92
454.89	4093.60
455.07	4299.56
455.26	4042.11
455.44	4306.59
455.62	4252.75
455.81	4212.96
455.99	4194.24
456.17	4322.97
456.36	4205.94
456.54	4332.33
456.73	4320.63
456.91	4463.40
457.09	4486.81
457.28	4421.27
457.46	4339.35
457.64	4547.66
457.83	4571.07
458.01	4454.04
458.19	4468.08
458.38	4688.09
458.56	4564.04
458.74	4585.11
458.93	4489.15
459.11	4674.05
459.29	4372.12
459.48	4486.81
459.66	4709.16
459.84	4627.24
460.03	4812.14
460.21	4641.28
460.39	4608.51
460.57	4573.41
460.76	4564.04
460.94	4835.55
461.12	4732.56
461.31	4748.95
461.49	4737.24
461.67	4711.50
461.85	4819.16
462.04	4629.58
462.22	5139.82
462.40	4889.38
462.59	4798.10
462.77	4966.62
462.95	4896.40
463.13	4919.81
463.32	4973.64
463.50	4854.27
463.68	4910.44
463.86	5046.20
464.05	5067.26
464.23	4926.83
464.41	5203.01
464.59	5095.35
464.78	5149.18
464.96	5111.73
465.14	5158.54
465.32	4926.83
465.50	5085.98
465.69	5167.90
465.87	5011.09
466.05	5064.92
466.23	5135.14
466.41	5198.33
466.60	5423.02
466.78	5327.06
466.96	5219.39
467.14	5366.85
467.32	5245.14
467.51	5315.36
467.69	5153.86
467.87	5413.66
468.05	5263.86
468.23	5310.68
468.41	5359.83
468.60	5582.18
468.78	5404.30
468.96	5163.22
469.14	5420.68
469.32	5397.28
469.50	5263.86
469.69	5584.52
469.87	5537.71
470.05	5650.05
470.23	5668.78
470.41	5568.13
470.59	5565.79
470.77	5589.20
470.95	5427.70
471.14	5748.36
471.32	5589.20
471.50	5795.17
471.68	5750.70
471.86	5647.71
472.04	5790.49
472.22	5935.60
472.40	5867.72
472.58	5909.85
472.77	6015.18
472.95	5905.17
473.13	6024.54
473.31	5846.66
473.49	5959.00
473.67	5949.64
473.85	6024.54
474.03	6174.33
474.21	6036.24
474.39	6314.77
474.57	6258.59
474.75	6232.85
474.93	6354.55
475.12	6090.07
475.30	6363.92
475.48	6352.21
475.66	6382.64
475.84	6434.13
476.02	6487.96
476.20	6654.14
476.38	6464.56
476.56	6801.60
476.74	6665.85
476.92	6796.92
477.10	6637.76
477.28	6750.10
477.46	6635.42
477.64	6925.65
477.82	7080.12
478.00	7148.00
478.18	7037.99
478.36	7253.32
478.54	7321.20
478.72	7358.64
478.90	7330.56
479.08	7365.67
479.26	7480.35
479.44	7262.68
479.62	7618.44
479.80	7676.96
479.98	7513.12
480.16	7789.30
480.34	7538.87
480.52	7894.63
480.70	7679.30
480.88	7723.77
481.06	7929.74
481.24	7999.95
481.41	8016.33
481.59	8067.83
481.77	8212.94
481.95	8205.92
482.13	8222.30
482.31	8189.53
482.49	8566.36
482.67	8549.98
482.85	8557.00
483.03	8772.33
483.21	8924.46
483.39	8833.18
483.57	8767.65
483.74	8945.53
483.92	9107.02
484.10	8985.32
484.28	9305.97
484.46	9383.21
484.64	9556.41
484.82	9280.22
485.00	9483.85
485.18	9612.58
485.35	9696.84
485.53	9598.54
485.71	9874.72
485.89	10118.14
486.07	9813.87
486.25	9912.17
486.43	10015.15
486.61	10080.69
486.78	10427.09
486.96	10413.04
487.14	10406.02
487.32	10448.15
487.50	10200.05
487.68	10478.58
487.85	10731.36
488.03	10738.38
488.21	10841.36
488.39	10836.68
488.57	11094.14
488.75	10951.37
488.92	11211.17
489.10	11183.08
489.28	11424.15
489.46	11557.57
489.64	11590.33
489.81	11592.67
489.99	11719.06
490.17	11639.48
490.35	11866.52
490.53	11983.54
490.70	11936.73
490.88	11955.46
491.06	12095.89
491.24	12147.38
491.41	12336.96
491.59	12299.52
491.77	12418.88
491.95	12444.63
492.13	12510.16
492.30	12533.57
492.48	12830.82
492.66	12662.30
492.84	12905.71
493.01	13018.06
493.19	12964.23
493.37	13076.57
493.54	12987.63
493.72	13357.44
493.90	13013.38
494.08	13397.23
494.25	13621.92
494.43	13575.11
494.61	13755.33
494.79	13816.18
494.96	13916.83
495.14	13940.23
495.32	13898.10
495.49	14073.64
495.67	14019.81
495.85	14188.33
496.02	14157.90
496.20	14380.25
496.38	14394.29
496.55	14471.53
496.73	14693.88
496.91	14700.90
497.09	14527.71
497.26	14909.21
497.44	14911.55
497.62	14710.27
497.79	14867.08
497.97	15075.39
498.14	15243.91
498.32	15440.51
498.50	15257.95
498.67	15590.31
498.85	15616.05
499.03	15529.45
499.20	15538.82
499.38	15459.24
499.56	15807.98
499.73	15618.39
499.91	16107.57
500.08	16025.65
500.26	15779.89
500.44	15985.86
500.61	16156.72
500.79	15807.98
500.97	16072.46
501.14	16402.47
501.32	16381.41
501.49	16245.66
501.67	16252.68
501.84	16636.53
502.02	16613.12
502.20	16535.88
502.37	16711.42
502.55	16540.57
502.72	16996.97
502.90	16840.15
503.07	16830.79
503.25	16964.20
503.43	17067.19
503.60	16926.75
503.78	17074.21
503.95	16910.37
504.13	17224.00
504.30	17064.85
504.48	17083.57
504.65	17142.08
504.83	17322.30
505.01	17460.40
505.18	17558.70
505.36	17577.42
505.53	17516.57
505.71	17474.44
505.88	17680.41
506.06	17879.35
506.23	17949.57
506.41	18005.74
506.58	17877.01
506.76	18132.13
506.93	18059.57
507.11	18155.54
507.28	18033.83
507.46	18026.81
507.63	18279.58
507.81	18359.16
507.98	18174.26
508.16	18448.10
508.33	18373.21
508.50	18349.80
508.68	18253.84
508.85	18766.42
509.03	18686.84
509.20	18731.31
509.38	19164.31
509.55	19063.66
509.73	19049.62
509.90	18801.52
510.08	18932.59
510.25	18991.11
510.42	19243.88
510.60	19019.19
510.77	19419.42
510.95	19543.47
511.12	19276.65
511.30	19501.34
511.47	19367.93
511.64	19428.79
511.82	19857.10
511.99	19487.30
512.17	19924.98
512.34	19800.93
512.51	19719.01
512.69	20290.10
512.86	19566.88
513.04	20189.46
513.21	20137.97
513.38	20194.14
513.56	20212.87
513.73	20056.05
513.90	20603.74
514.08	20144.99
514.25	20243.29
514.43	20421.17
514.60	20271.38
514.77	20453.94
514.95	20718.42
515.12	20308.83
515.29	20526.50
515.47	20788.64
515.64	20889.28
515.81	20650.55
515.99	20959.50
516.16	20978.22
516.33	20968.86
516.51	21425.26
516.68	21135.04
516.85	21064.82
517.03	21184.19
517.20	21214.62
517.37	20971.20
517.54	21291.85
517.72	21364.41
517.89	21195.89
518.06	21186.53
518.24	21371.43
518.41	21509.52
518.58	21525.91
518.75	21549.31
518.93	21687.40
519.10	21832.52
519.27	21514.20
519.45	21748.26
519.62	21851.24
519.79	21722.51
519.96	21628.89
520.14	21809.11
520.31	21874.65
520.48	22125.08
520.65	21940.18
520.83	22153.17
521.00	22029.12
521.17	21853.58
521.34	21968.27
521.52	22419.99
521.69	22307.65
521.86	22312.33
522.03	22501.91
522.20	22309.99
522.38	22644.68
522.55	22672.77
522.72	22682.13
522.89	22827.24
523.07	22848.31
523.24	22958.31
523.41	23061.30
523.58	22654.05
523.75	22787.46
523.92	23136.20
524.10	22700.86
524.27	23033.21
524.44	23070.66
524.61	23183.01
524.78	23473.23
524.96	23218.11
525.13	23281.31
525.30	23590.26
525.47	23410.04
525.64	23370.25
525.81	23466.21
525.98	23644.09
526.16	23718.99
526.33	23407.70
526.50	23887.51
526.67	23665.16
526.84	23887.51
527.01	23599.62
527.18	23833.68
527.36	23946.02
527.53	23726.01
527.70	24056.03
527.87	23784.52
528.04	23805.59
528.21	24067.73
528.38	23922.62
528.55	23754.10
528.72	23908.57
528.89	24294.76
529.07	24128.58
529.24	24266.67
529.41	24411.79
529.58	24489.03
529.75	24292.42
529.92	24666.91
530.09	24599.03
530.26	24449.24
530.43	24507.75
530.60	24259.65
530.77	24505.41
530.94	24779.25
531.11	24540.52
531.28	24613.07
531.46	24524.13
531.63	24931.39
531.80	25160.76
531.97	24917.34
532.14	24957.13
532.31	24821.38
532.48	24617.75
532.65	25090.54
532.82	24849.47
532.99	24772.23
533.16	24882.24
533.33	25139.69
533.50	25380.77
533.67	25113.95
533.84	24973.52
534.01	25340.98
534.18	25303.53
534.35	25532.90
534.52	25067.14
534.69	25502.48
534.86	25268.42
535.03	25493.12
535.20	25516.52
535.37	25788.02
535.54	25689.72
535.71	25450.99
535.88	25778.66
536.05	25799.73
536.22	26181.23
536.38	25883.98
536.55	25579.71
536.72	26010.37
536.89	25949.52
537.06	25710.78
537.23	26008.03
537.40	25923.77
537.57	25968.24
537.74	26061.87
537.91	26316.98
538.08	26506.57
538.25	25984.63
538.42	26448.05
538.59	26684.45
538.75	25951.86
538.92	26017.40
539.09	26501.89
539.26	26026.76
539.43	26326.35
539.60	26473.80
539.77	26504.23
539.94	26319.32
540.11	26244.43
540.28	26389.54
540.44	26890.41
540.61	26511.25
540.78	26555.72
540.95	26534.65
541.12	26595.51
541.29	26618.91
541.46	26897.44
541.62	26384.86
541.79	26883.39
541.96	26635.30
542.13	26689.13
542.30	26724.24
542.47	27309.37
542.63	26824.88
542.80	27014.46
542.97	27566.83
543.14	27204.05
543.31	26682.11
543.48	26906.80
543.64	27227.45
543.81	27615.98
543.98	27590.24
544.15	27480.23
544.32	27524.70
544.48	27470.87
544.65	27290.65
544.82	27447.46
544.99	27248.52
545.16	27498.95
545.32	27543.42
545.49	27608.96
545.66	28102.81
545.83	27800.88
546.00	27938.97
546.16	27466.19
546.33	27768.12
546.50	27901.53
546.67	28072.39
546.83	27819.61
547.00	27857.06
547.17	28203.46
547.34	27929.61
547.50	27721.30
547.67	27878.12
547.84	27737.69
548.00	28079.41
548.17	28084.09
548.34	28238.56
548.51	28041.96
548.67	28636.45
548.84	28753.48
549.01	28002.17
549.18	28481.98
549.34	28498.36
549.51	28180.05
549.68	28325.16
549.84	28219.84
550.01	28187.07
550.18	28371.97
550.34	28566.24
550.51	28629.43
550.68	28594.32
550.84	28336.87
551.01	28666.88
551.18	28081.75
551.34	28315.80
551.51	28678.58
551.68	28491.34
551.84	28655.18
552.01	28458.57
552.18	28811.99
552.34	28545.17
552.51	29310.53
552.68	28676.24
552.84	28833.06
553.01	28819.02
553.18	28933.70
553.34	29008.60
553.51	29223.93
553.67	28933.70
553.84	29366.70
554.01	29717.78
554.17	29165.42
554.34	28968.81
554.51	29268.40
554.67	29153.71
554.84	28922.00
555.00	29486.07
555.17	29179.46
555.33	28968.81
555.50	29331.59
555.67	29469.69
555.83	29326.91
556.00	29453.30
556.16	29280.10
556.33	29294.14
556.50	29303.51
556.66	29504.79
556.83	29706.08
556.99	29558.63
557.16	29244.99
557.32	29509.47
557.49	29567.99
557.65	29453.30
557.82	29240.31
557.98	29418.19
558.15	29256.70
558.32	29621.82
558.48	29680.33
558.65	29951.84
558.81	29642.88
558.98	29846.51
559.14	29731.83
559.31	29633.52
559.47	29890.98
559.64	30000.99
559.80	29898.00
559.97	29717.78
560.13	29415.85
560.30	29675.65
560.46	29645.23
560.63	30127.38
560.79	29937.79
560.96	30099.29
561.12	29898.00
561.29	30036.09
561.45	29926.09
561.61	30005.67
561.78	29792.68
561.94	30291.21
562.11	30253.76
562.27	30431.65
562.44	29649.91
562.60	30127.38
562.77	29900.34
562.93	29883.96
563.10	30345.05
563.26	30036.09
563.42	30019.71
563.59	29652.25
563.75	30270.15
563.92	30429.30
564.08	30005.67
564.24	30576.76
564.41	30167.16
564.57	30221.00
564.74	30087.59
564.90	30551.01
565.07	30277.17
565.23	30534.63
565.39	30635.27
565.56	30436.33
565.72	30595.48
565.88	30230.36
566.05	30125.04
566.21	30008.01
566.38	30354.41
566.54	30515.90
566.70	30452.71
566.87	30548.67
567.03	30403.56
567.19	30658.68
567.36	30749.96
567.52	30630.59
567.68	30803.79
567.85	30433.99
568.01	30352.07
568.17	30284.19
568.34	30698.47
568.50	30616.55
568.66	30656.34
568.83	30843.58
568.99	30651.66
569.15	30663.36
569.32	30260.79
569.48	30270.15
569.64	30623.57
569.81	30342.70
569.97	30576.76
570.13	30909.11
570.30	30539.31
570.46	30890.39
570.62	30803.79
570.78	30923.16
570.95	30639.95
571.11	30630.59
571.27	30501.86
571.43	30448.03
571.60	30302.92
571.76	30700.81
571.92	31131.47
572.09	30841.24
572.25	31421.69
572.41	30572.08
572.57	30780.39
572.74	31002.74
572.90	30560.37
573.06	30796.77
573.22	30593.14
573.38	30836.56
573.55	30693.79
573.71	31285.94
573.87	30962.95
574.03	30738.26
574.20	30972.31
574.36	30785.07
574.52	31051.89
574.68	30764.00
574.84	30637.61
575.01	30995.71
575.17	30864.64
575.33	30981.67
575.49	30822.51
575.65	30890.39
575.82	31089.34
575.98	30871.67
576.14	31377.22
576.30	31026.14
576.46	30785.07
576.62	31091.68
576.79	30953.58
576.95	31065.93
577.11	31070.61
577.27	30965.29
577.43	31154.87
577.59	30764.00
577.75	31026.14
577.92	31211.04
578.08	30976.99
578.24	31016.78
578.40	30799.11
578.56	31070.61
578.72	31171.25
578.88	31290.62
579.04	31550.42
579.21	30974.65
579.37	31297.64
579.53	30920.82
579.69	31035.50
579.85	30808.47
580.01	30726.55
580.17	30932.52
580.33	31220.41
580.49	31136.15
580.65	31220.41
580.82	31115.08
580.98	31424.03
581.14	31016.78
581.30	31124.44
581.46	31063.59
581.62	31077.63
581.78	30672.72
581.94	31005.08
582.10	30646.97
582.26	30827.20
582.42	31133.81
582.58	31438.08
582.74	31185.30
582.90	31622.98
583.06	31466.16
583.22	30991.03
583.38	31274.24
583.54	31269.56
583.70	31124.44
583.86	30930.18
584.02	30895.07
584.18	31388.92
584.34	31461.48
584.50	31218.07
584.66	31534.04
584.82	31122.10
584.98	31089.34
585.14	31363.18
585.30	31164.23
585.46	30981.67
585.62	30892.73
585.78	31498.93
585.94	31260.20
586.10	31323.39
586.26	31101.04
586.42	31669.79
586.58	31587.87
586.74	31187.64
586.90	30984.01
587.06	31019.12
587.22	31328.07
587.38	30941.88
587.54	31608.93
587.70	31358.50
587.86	31388.92
588.02	31721.28
588.18	31608.93
588.34	31367.86
588.49	31339.77
588.65	31236.79
588.81	31311.69
588.97	31316.37
589.13	31037.84
589.29	31077.63
589.45	31442.76
589.61	31377.22
589.77	31377.22
589.93	31583.19
590.08	32006.83
590.24	31585.53
590.40	31498.93
590.56	31758.73
590.72	31201.68
590.88	31311.69
591.04	31494.25
591.20	31747.03
591.35	31555.10
591.51	32182.37
591.67	31924.91
591.83	31812.56
