SpectraSuite Data File
++++++++++++++++++++++++++++++++++++
Date: Fri Oct 18 13:58:19 GMT-05:00 2013
User: bianchi
Dark Spectrum Present: No
Reference Spectrum Present: No
Number of Sampled Component Spectra: 1
Spectrometers: USB2+H05261
Integration Time (usec): 50000 (USB2+H05261)
Spectra Averaged: 1 (USB2+H05261)
Boxcar Smoothing: 0 (USB2+H05261)
Correct for Electrical Dark: No (USB2+H05261)
Strobe/Lamp Enabled: No (USB2+H05261)
Correct for Detector Non-linearity: No (USB2+H05261)
Correct for Stray Light: No (USB2+H05261)
Number of Pixels in Processed Spectrum: 2048
>>>>>Begin Processed Spectral Data<<<<<
365.73	0.00
365.92	0.00
366.12	0.00
366.32	0.00
366.52	0.00
366.72	0.00
366.91	0.00
367.11	0.00
367.31	0.00
367.51	0.00
367.70	0.00
367.90	0.00
368.10	0.00
368.30	0.00
368.49	0.00
368.69	0.00
368.89	0.00
369.09	0.00
369.28	0.00
369.48	0.00
369.68	0.00
369.87	0.00
370.07	0.00
370.27	0.00
370.47	0.00
370.66	91.28
370.86	56.17
371.06	128.73
371.25	126.39
371.45	88.94
371.65	140.43
371.84	170.86
372.04	152.13
372.24	189.58
372.44	177.88
372.63	337.04
372.83	156.82
373.03	145.11
373.22	210.65
373.42	250.44
373.62	184.90
373.81	264.48
374.01	269.16
374.21	187.24
374.40	252.78
374.60	241.08
374.79	248.10
374.99	257.46
375.19	320.65
375.38	334.70
375.58	234.05
375.78	327.68
375.97	236.39
376.17	313.63
376.37	250.44
376.56	255.12
376.76	238.73
376.95	259.80
377.15	215.33
377.35	215.33
377.54	287.89
377.74	308.95
377.93	248.10
378.13	344.06
378.33	269.16
378.52	238.73
378.72	306.61
378.91	299.59
379.11	252.78
379.31	301.93
379.50	236.39
379.70	318.31
379.89	304.27
380.09	337.04
380.28	346.40
380.48	266.82
380.68	334.70
380.87	322.99
381.07	234.05
381.26	369.80
381.46	327.68
381.65	334.70
381.85	362.78
382.04	365.12
382.24	315.97
382.43	386.19
382.63	351.08
382.83	325.33
383.02	332.36
383.22	475.13
383.41	365.12
383.61	358.10
383.80	374.49
384.00	372.15
384.19	435.34
384.39	395.55
384.58	395.55
384.78	383.85
384.97	435.34
385.17	416.62
385.36	362.78
385.56	416.62
385.75	301.93
385.95	339.38
386.14	358.10
386.34	358.10
386.53	428.32
386.72	449.38
386.92	428.32
387.11	456.40
387.31	416.62
387.50	348.74
387.70	355.76
387.89	433.00
388.09	379.17
388.28	407.25
388.48	456.40
388.67	430.66
388.86	440.02
389.06	458.74
389.25	423.64
389.45	500.87
389.64	575.77
389.84	543.00
390.03	458.74
390.22	500.87
390.42	393.21
390.61	535.98
390.81	484.49
391.00	503.22
391.19	573.43
391.39	477.47
391.58	554.71
391.78	486.83
391.97	531.30
392.16	557.05
392.36	631.94
392.55	557.05
392.75	606.20
392.94	573.43
393.13	587.47
393.33	566.41
393.52	538.32
393.71	587.47
393.91	613.22
394.10	594.50
394.29	531.30
394.49	538.32
394.68	610.88
394.88	575.77
395.07	526.62
395.26	589.82
395.46	645.99
395.65	643.65
395.84	676.41
396.04	683.44
396.23	636.63
396.42	748.97
396.62	695.14
396.81	667.05
397.00	617.90
397.19	624.92
397.39	603.86
397.58	697.48
397.77	650.67
397.97	685.78
398.16	688.12
398.35	690.46
398.55	678.76
398.74	798.12
398.93	793.44
399.12	678.76
399.32	690.46
399.51	704.50
399.70	767.70
399.90	744.29
400.09	699.82
400.28	732.59
400.47	781.74
400.67	723.23
400.86	819.19
401.05	819.19
401.24	840.25
401.44	826.21
401.63	760.67
401.82	833.23
402.01	739.61
402.21	826.21
402.40	875.36
402.59	830.89
402.78	835.57
402.97	814.51
403.17	851.96
403.36	903.45
403.55	856.64
403.74	858.98
403.93	898.77
404.13	978.34
404.32	917.49
404.51	968.98
404.70	898.77
404.89	847.27
405.09	1027.50
405.28	959.62
405.47	952.60
405.66	952.60
405.85	994.73
406.05	968.98
406.24	929.19
406.43	1025.15
406.62	1086.01
406.81	1011.11
407.00	997.07
407.20	1055.58
407.39	940.90
407.58	1090.69
407.77	1081.33
407.96	1102.39
408.15	1093.03
408.34	1128.14
408.54	1102.39
408.73	1036.86
408.92	1074.31
409.11	1062.60
409.30	1114.10
409.49	1093.03
409.68	1160.91
409.87	1165.59
410.07	1188.99
410.26	1177.29
410.45	1153.88
410.64	1174.95
410.83	1212.40
411.02	1193.67
411.21	1200.69
411.40	1170.27
411.59	1247.51
411.78	1245.16
411.98	1256.87
412.17	1221.76
412.36	1231.12
412.55	1238.14
412.74	1331.76
412.93	1404.32
413.12	1357.51
413.31	1479.22
413.50	1336.45
413.69	1348.15
413.88	1409.00
414.07	1387.94
414.26	1458.15
414.45	1387.94
414.64	1577.52
414.83	1441.77
415.02	1458.15
415.22	1652.42
415.41	1617.31
415.60	1523.69
415.79	1607.95
415.98	1507.30
416.17	1708.59
416.36	1610.29
416.55	1694.55
416.74	1701.57
416.93	1708.59
417.12	1710.93
417.31	1643.06
417.50	1746.04
417.69	1732.00
417.88	1776.47
418.07	1659.44
418.26	1760.08
418.45	1710.93
418.64	1799.87
418.83	1830.30
419.02	1774.13
419.21	1720.29
419.39	1863.07
419.58	1790.51
419.77	1795.19
419.96	1764.76
420.15	1926.26
420.34	1865.41
420.53	1879.45
420.72	1874.77
420.91	1952.01
421.10	2026.90
421.29	1984.77
421.48	1973.07
421.67	2026.90
421.86	2019.88
422.05	2080.74
422.24	1989.46
422.43	1968.39
422.61	2085.42
422.80	2066.69
422.99	2005.84
423.18	2125.21
423.37	2094.78
423.56	2104.14
423.75	2073.71
423.94	1942.64
424.13	1921.58
424.32	1914.56
424.50	2059.67
424.69	2057.33
424.88	2214.15
425.07	2094.78
425.26	1987.11
425.45	2059.67
425.64	2090.10
425.83	2029.24
426.01	2080.74
426.20	2078.40
426.39	2143.93
426.58	2094.78
426.77	1989.46
426.96	2094.78
427.15	2113.50
427.33	2172.02
427.52	2150.95
427.71	2155.63
427.90	2162.66
428.09	2150.95
428.28	2267.98
428.46	2162.66
428.65	2190.74
428.84	2256.28
429.03	2310.11
429.22	2244.57
429.40	2204.78
429.59	2317.13
429.78	2099.46
429.97	2263.30
430.16	2298.41
430.34	2202.44
430.53	2361.60
430.72	2347.56
430.91	2300.75
431.10	2237.55
431.28	2342.88
431.47	2502.03
431.66	2434.16
431.85	2282.02
432.03	2499.69
432.22	2581.61
432.41	2370.96
432.60	2356.92
432.79	2452.88
432.97	2511.39
433.16	2455.22
433.35	2443.52
433.54	2450.54
433.72	2675.23
433.91	2502.03
434.10	2523.10
434.28	2455.22
434.47	2541.82
434.66	2600.34
434.85	2523.10
435.03	2495.01
435.22	2572.25
435.41	2708.00
435.59	2605.02
435.78	2607.36
435.97	2520.76
436.16	2621.40
436.34	2698.64
436.53	2743.11
436.72	2869.50
436.90	2656.51
437.09	2740.77
437.28	2619.06
437.46	2733.75
437.65	2686.94
437.84	2792.26
438.02	2827.37
438.21	2864.82
438.40	2785.24
438.58	2829.71
438.77	2958.44
438.96	2906.95
439.14	2768.85
439.33	2956.10
439.52	2956.10
439.70	3019.29
439.89	3070.78
440.08	3129.30
440.26	3030.99
440.45	3129.30
440.63	3211.22
440.82	3129.30
441.01	3243.98
441.19	3166.74
441.38	3145.68
441.57	3262.71
441.75	3421.86
441.94	3166.74
442.12	3255.69
442.31	3281.43
442.50	3288.45
442.68	3187.81
442.87	3337.60
443.05	3283.77
443.24	3524.85
443.43	3384.41
443.61	3281.43
443.80	3449.95
443.98	3365.69
444.17	3258.03
444.35	3417.18
444.54	3342.28
444.73	3454.63
444.91	3452.29
445.10	3552.93
445.28	3496.76
445.47	3396.12
445.65	3433.57
445.84	3557.61
446.02	3517.83
446.21	3592.72
446.39	3520.17
446.58	3524.85
446.77	3480.38
446.95	3314.20
447.14	3440.59
447.32	3590.38
447.51	3592.72
447.69	3637.19
447.88	3482.72
448.06	3609.11
448.25	3672.30
448.43	3737.84
448.62	3616.13
448.80	3524.85
448.99	3550.59
449.17	3676.98
449.36	3557.61
449.54	3604.42
449.73	3599.74
449.91	3662.94
450.10	3749.54
450.28	3854.86
450.46	3805.71
450.65	3779.97
450.83	3892.31
451.02	3686.34
451.20	3747.20
451.39	3782.31
451.57	3836.14
451.76	3765.92
451.94	3829.12
452.13	3936.78
452.31	3831.46
452.49	3763.58
452.68	3974.23
452.86	3857.20
453.05	3887.63
453.23	3978.91
453.42	3833.80
453.60	3882.95
453.78	4004.66
453.97	3812.73
454.15	3918.06
454.34	3871.25
454.52	3955.51
454.70	4002.32
454.89	4051.47
455.07	4032.74
455.26	4145.09
455.44	4266.80
455.62	4215.30
455.81	4088.92
455.99	4196.58
456.17	4306.59
456.36	4212.96
456.54	4163.81
456.73	4283.18
456.91	4320.63
457.09	4386.16
457.28	4297.22
457.46	4156.79
457.64	4407.23
457.83	4346.37
458.01	4287.86
458.19	4306.59
458.38	4344.03
458.56	4512.55
458.74	4461.06
458.93	4393.19
459.11	4493.83
459.29	4482.13
459.48	4351.06
459.66	4521.92
459.84	4585.11
460.03	4587.45
460.21	4540.64
460.39	4674.05
460.57	4589.79
460.76	4613.20
460.94	4624.90
461.12	4603.83
461.31	4592.13
461.49	4566.39
461.67	4830.87
461.85	4880.02
462.04	4718.52
462.22	5008.75
462.40	4882.36
462.59	4812.14
462.77	4854.27
462.95	4800.44
463.13	4791.08
463.32	4788.74
463.50	4795.76
463.68	4737.24
463.86	4910.44
464.05	4961.94
464.23	4849.59
464.41	5039.17
464.59	4753.63
464.78	5011.09
464.96	4933.85
465.14	4901.08
465.32	4945.55
465.50	5004.07
465.69	4992.36
465.87	5018.11
466.05	4947.89
466.23	5048.54
466.41	5097.69
466.60	5301.31
466.78	5130.45
466.96	5193.65
467.14	4999.38
467.32	5200.67
467.51	5128.11
467.69	5074.28
467.87	5114.07
468.05	5327.06
468.23	5172.58
468.41	5207.69
468.60	5228.76
468.78	5273.23
468.96	5146.84
469.14	5137.48
469.32	5156.20
469.50	5174.92
469.69	5313.02
469.87	5446.43
470.05	5455.79
470.23	5446.43
470.41	5294.29
470.59	5476.85
470.77	5444.09
470.95	5467.49
471.14	5713.25
471.32	5451.11
471.50	5769.42
471.68	5575.16
471.86	5659.42
472.04	5750.70
472.22	5783.46
472.40	5790.49
472.58	5792.83
472.77	5818.57
472.95	5968.37
473.13	5832.62
473.31	5755.38
473.49	5926.24
473.67	5853.68
473.85	5762.40
474.03	6010.50
474.21	5926.24
474.39	6237.53
474.57	6270.30
474.75	6242.21
474.93	6225.82
475.12	6108.80
475.30	6108.80
475.48	6305.40
475.66	6370.94
475.84	6394.34
476.02	6443.49
476.20	6473.92
476.38	6331.15
476.56	6565.20
476.74	6555.84
476.92	6581.59
477.10	6635.42
477.28	6642.44
477.46	6623.72
477.64	6801.60
477.82	6839.05
478.00	6998.20
478.18	6897.56
478.36	6871.81
478.54	7056.72
478.72	7225.23
478.90	6946.71
479.08	7140.97
479.26	7321.20
479.44	7225.23
479.62	7267.36
479.80	7389.07
479.98	7485.03
480.16	7501.42
480.34	7569.29
480.52	7695.68
480.70	7536.52
480.88	7368.01
481.06	7702.70
481.24	7815.05
481.41	7847.82
481.59	7960.16
481.77	7906.33
481.95	8245.71
482.13	8006.97
482.31	8126.34
482.49	8271.45
482.67	8241.03
482.85	8451.67
483.03	8744.24
483.21	8601.47
483.39	8762.97
483.57	8652.96
483.74	8795.73
483.92	8711.47
484.10	8737.22
484.28	8851.91
484.46	9109.36
484.64	9146.81
484.82	9053.19
485.00	8947.87
485.18	9385.55
485.35	9544.70
485.53	9518.96
485.71	9380.87
485.89	9708.54
486.07	9832.59
486.25	9621.94
486.43	9839.61
486.61	9767.06
486.78	9982.38
486.96	10052.60
487.14	10312.40
487.32	10265.59
487.50	10176.65
487.68	10342.83
487.85	10464.54
488.03	10565.18
488.21	10464.54
488.39	10619.01
488.57	10724.33
488.75	10548.79
488.92	10923.28
489.10	11117.54
489.28	10956.05
489.46	11035.63
489.64	11150.31
489.81	11192.44
489.99	11302.45
490.17	11468.62
490.35	11587.99
490.53	11737.79
490.70	11873.54
490.88	11602.04
491.06	11939.07
491.24	11946.09
491.41	11758.85
491.59	11899.28
491.77	11913.33
491.95	12334.62
492.13	12395.48
492.30	12210.57
492.48	12498.46
492.66	12453.99
492.84	12446.97
493.01	12592.08
493.19	12594.42
493.37	12793.37
493.54	12835.50
493.72	12945.50
493.90	12875.29
494.08	13135.09
494.25	13343.39
494.43	13336.37
494.61	13535.32
494.79	13418.29
494.96	13331.69
495.14	13458.08
495.32	13841.93
495.49	13617.24
495.67	13891.08
495.85	13635.96
496.02	13996.40
496.20	13935.55
496.38	14038.53
496.55	14015.13
496.73	14253.86
496.91	14291.31
497.09	14499.62
497.26	14450.47
497.44	14579.20
497.62	14684.52
497.79	14682.18
497.97	14801.55
498.14	14743.03
498.32	15176.03
498.50	14864.74
498.67	14991.13
498.85	14988.79
499.03	15087.09
499.20	14991.13
499.38	15152.63
499.56	15515.41
499.73	15250.93
499.91	15609.03
500.08	15501.37
500.26	15447.54
500.44	15749.46
500.61	15499.03
500.79	15513.07
500.97	15833.72
501.14	15789.25
501.32	16093.52
501.49	15925.00
501.67	15770.53
501.84	15920.32
502.02	15796.28
502.20	16063.10
502.37	16395.45
502.55	16395.45
502.72	16444.60
502.90	16074.80
503.07	16084.16
503.25	16191.83
503.43	16531.20
503.60	16659.93
503.78	16610.78
503.95	16519.50
504.13	16631.85
504.30	16840.15
504.48	16786.32
504.65	16737.17
504.83	17025.06
505.01	17114.00
505.18	17216.98
505.36	17317.62
505.53	17074.21
505.71	16966.54
505.88	17364.43
506.06	16975.91
506.23	17074.21
506.41	17649.98
506.58	17715.51
506.76	17439.33
506.93	17558.70
507.11	17310.60
507.28	17783.39
507.46	17830.20
507.63	18008.08
507.81	17867.65
507.98	18015.10
508.16	18017.44
508.33	17867.65
508.50	17951.91
508.68	17881.69
508.85	18412.99
509.03	18209.37
509.20	18183.62
509.38	18773.44
509.55	18504.28
509.73	18766.42
509.90	18663.43
510.08	18572.15
510.25	18427.04
510.42	18469.17
510.60	18724.29
510.77	19009.83
510.95	18686.84
511.12	18651.73
511.30	18843.65
511.47	18916.21
511.64	19028.56
511.82	18974.72
511.99	19204.10
512.17	19246.23
512.34	18993.45
512.51	19192.39
512.69	19309.42
512.86	19307.08
513.04	19824.34
513.21	19463.90
513.38	19735.40
513.56	19775.19
513.73	19494.32
513.90	19817.32
514.08	19747.10
514.25	19651.14
514.43	19580.92
514.60	20002.22
514.77	19932.00
514.95	20039.67
515.12	19917.96
515.29	19648.80
515.47	20343.94
515.64	20273.72
515.81	20107.54
515.99	20456.28
516.16	20718.42
516.33	20538.20
516.51	20353.30
516.68	20540.54
516.85	20252.66
517.03	20648.21
517.20	20638.84
517.37	20411.81
517.54	20711.40
517.72	20624.80
517.89	20788.64
518.06	20634.16
518.24	20978.22
518.41	20723.10
518.58	21219.30
518.75	21013.33
518.93	20994.61
519.10	21359.73
519.27	21128.02
519.45	20938.43
519.62	21516.54
519.79	21170.15
519.96	21528.25
520.14	21474.42
520.31	21090.57
520.48	21462.71
520.65	21661.66
520.83	21600.80
521.00	21575.06
521.17	21399.52
521.34	21661.66
521.52	21736.56
521.69	21816.13
521.86	21766.98
522.03	22073.59
522.20	21764.64
522.38	22061.89
522.55	22017.42
522.72	21937.84
522.89	21940.18
523.07	22244.45
523.24	21961.25
523.41	22232.75
523.58	22167.21
523.75	22630.64
523.92	22251.47
524.10	22319.35
524.27	22328.71
524.44	22675.11
524.61	22494.89
524.78	22471.48
524.96	22590.85
525.13	22934.91
525.30	22677.45
525.47	22773.41
525.64	22679.79
525.81	22988.74
525.98	22906.82
526.16	22696.17
526.33	23215.77
526.50	23077.68
526.67	22726.60
526.84	22867.03
527.01	23091.73
527.18	23255.56
527.36	23283.65
527.53	23105.77
527.70	23461.53
527.87	23353.87
528.04	23243.86
528.21	23737.71
528.38	23335.14
528.55	23426.42
528.72	23707.29
528.89	23646.43
529.07	23679.20
529.24	23920.28
529.41	23840.70
529.58	23541.11
529.75	23667.50
529.92	24189.44
530.09	23601.96
530.26	23812.61
530.43	24056.03
530.60	23702.61
530.77	23927.30
530.94	24177.73
531.11	24053.69
531.28	24140.29
531.46	24273.70
531.63	24072.41
531.80	24037.30
531.97	24233.91
532.14	24250.29
532.31	23929.64
532.48	24329.87
532.65	24432.85
532.82	23995.17
532.99	24315.83
533.16	24058.37
533.33	24482.00
533.50	24580.31
533.67	24465.62
533.84	24500.73
534.01	24301.78
534.18	24505.41
534.35	24521.79
534.52	24615.41
534.69	24933.73
534.86	24699.67
535.03	24673.93
535.20	24549.88
535.37	24702.01
535.54	24950.11
535.71	24704.35
535.88	24704.35
536.05	25181.82
536.22	25518.86
536.38	25212.25
536.55	25071.82
536.72	25401.83
536.89	24919.68
537.06	25240.34
537.23	25263.74
537.40	25378.43
537.57	24872.87
537.74	24954.79
537.91	25680.36
538.08	25200.55
538.25	25385.45
538.42	25453.33
538.59	25551.63
538.75	25184.16
538.92	25745.89
539.09	25605.46
539.26	25486.09
539.43	25781.00
539.60	25663.97
539.77	25659.29
539.94	25865.26
540.11	25874.62
540.28	25905.05
540.44	25600.78
540.61	25612.48
540.78	25715.47
540.95	25881.64
541.12	26094.63
541.29	26008.03
541.46	25738.87
541.62	26068.89
541.79	25860.58
541.96	25589.08
542.13	25610.14
542.30	26176.55
542.47	26431.67
542.63	26302.94
542.80	26199.96
542.97	26347.41
543.14	26944.25
543.31	26396.56
543.48	26551.04
543.64	26499.55
543.81	26567.42
543.98	26817.86
544.15	26576.78
544.32	26874.03
544.48	27129.15
544.65	26574.44
544.82	26749.98
544.99	26551.04
545.16	26808.50
545.32	26625.93
545.49	27257.88
545.66	26958.29
545.83	27494.27
546.00	27119.79
546.16	26881.05
546.33	26539.33
546.50	26742.96
546.67	26848.29
546.83	26609.55
547.00	27276.60
547.17	27232.13
547.34	27475.55
547.50	27105.74
547.67	27412.35
547.84	27143.19
548.00	27236.81
548.17	27421.72
548.34	27606.62
548.51	27679.18
548.67	27524.70
548.84	27693.22
549.01	27555.13
549.18	27461.51
549.34	27835.99
549.51	27571.51
549.68	27171.28
549.84	27587.89
550.01	27295.33
550.18	27548.11
550.34	27817.27
550.51	27786.84
550.68	27613.64
550.84	27524.70
551.01	28020.89
551.18	27927.27
551.34	27953.02
551.51	27840.67
551.68	27552.79
551.84	27941.32
552.01	27468.53
552.18	28166.01
552.34	27721.30
552.51	28130.90
552.68	27627.68
552.84	28091.11
553.01	27985.79
553.18	27864.08
553.34	28283.03
553.51	28119.20
553.67	28037.28
553.84	28467.94
554.01	28554.54
554.17	28297.08
554.34	28376.66
554.51	28196.43
554.67	28507.72
554.84	28128.56
555.00	28264.31
555.17	28086.43
555.33	28156.64
555.50	28039.62
555.67	28224.52
555.83	28479.64
556.00	28636.45
556.16	29125.63
556.33	28210.48
556.50	28381.34
556.66	28350.91
556.83	28285.37
556.99	28989.88
557.16	28807.31
557.32	28594.32
557.49	28526.45
557.65	28608.37
557.82	28697.31
557.98	28870.51
558.15	28772.21
558.32	28765.18
558.48	28657.52
558.65	29062.43
558.81	28772.21
558.98	28774.55
559.14	28701.99
559.31	28788.59
559.47	28655.18
559.64	28554.54
559.80	28821.36
559.97	29193.50
560.13	29053.07
560.30	28779.23
560.46	29132.65
560.63	29165.42
560.79	29179.46
560.96	29369.04
561.12	29139.67
561.29	28847.10
561.45	28929.02
561.61	29041.37
561.78	28912.64
561.94	29032.00
562.11	29432.24
562.27	29373.72
562.44	29113.92
562.60	29142.01
562.77	28872.85
562.93	29359.68
563.10	29411.17
563.26	29132.65
563.42	29453.30
563.59	29111.58
563.75	29149.03
563.92	29394.79
564.08	29156.05
564.24	29015.62
564.41	29057.75
564.57	29418.19
564.74	29469.69
564.90	29575.01
565.07	29535.22
565.23	29457.98
565.39	29097.54
565.56	29521.18
565.72	29448.62
565.88	29914.39
566.05	29537.56
566.21	29722.46
566.38	29748.21
566.54	29511.81
566.70	29567.99
566.87	29741.19
567.03	29729.48
567.19	29998.65
567.36	29479.05
567.52	29418.19
567.68	29631.18
567.85	29179.46
568.01	29556.28
568.17	29582.03
568.34	29579.69
568.50	29963.54
568.66	29509.47
568.83	29514.16
568.99	29628.84
569.15	29860.55
569.32	29483.73
569.48	29420.53
569.64	29816.08
569.81	29591.39
569.97	29465.00
570.13	29596.07
570.30	29387.77
570.46	29638.20
570.62	29567.99
570.78	29661.61
570.95	29783.32
571.11	29865.24
571.27	29771.61
571.43	29617.14
571.60	29682.67
571.76	29589.05
571.92	29647.57
572.09	29577.35
572.25	29834.81
572.41	29926.09
572.57	29509.47
572.74	30143.76
572.90	29720.12
573.06	29675.65
573.22	29521.18
573.38	29780.98
573.55	29685.01
573.71	29865.24
573.87	30106.31
574.03	29907.37
574.20	30026.73
574.36	29785.66
574.52	29799.70
574.68	29673.31
574.84	29638.20
575.01	29921.41
575.17	30022.05
575.33	29738.85
575.49	29780.98
575.65	30082.91
575.82	29944.81
575.98	29788.00
576.14	30054.82
576.30	30225.68
576.46	29930.77
576.62	29486.07
576.79	29890.98
576.95	29778.64
577.11	30017.37
577.27	30309.94
577.43	29907.37
577.59	30029.07
577.75	29788.00
577.92	30150.78
578.08	29958.86
578.24	29869.92
578.40	29933.11
578.56	30162.48
578.72	30068.86
578.88	30235.04
579.04	30286.53
579.21	30316.96
579.37	29984.60
579.53	30101.63
579.69	29729.48
579.85	29984.60
580.01	29699.06
580.17	29752.89
580.33	29514.16
580.49	29928.43
580.65	30623.57
580.82	30316.96
580.98	30293.55
581.14	29991.62
581.30	30068.86
581.46	29895.66
581.62	29818.42
581.78	29776.30
581.94	30181.21
582.10	30129.72
582.26	29986.94
582.42	30169.51
582.58	30082.91
582.74	30401.22
582.90	29940.13
583.06	30403.56
583.22	30143.76
583.38	30543.99
583.54	29898.00
583.70	29816.08
583.86	30277.17
584.02	30026.73
584.18	30520.59
584.34	30202.27
584.50	30106.31
584.66	30218.66
584.82	30232.70
584.98	30061.84
585.14	30590.80
585.30	30206.95
585.46	30277.17
585.62	30197.59
585.78	29874.60
585.94	29907.37
586.10	30092.27
586.26	30061.84
586.42	30632.93
586.58	30483.14
586.74	30394.20
586.90	29888.64
587.06	29933.11
587.22	30368.45
587.38	30199.93
587.54	30431.65
587.70	30321.64
587.86	30541.65
588.02	30438.67
588.18	30323.98
588.34	30211.64
588.49	30340.36
588.65	30366.11
588.81	30031.41
588.97	30501.86
589.13	30326.32
589.29	30492.50
589.45	30249.08
589.61	30300.58
589.77	31075.29
589.93	30607.19
590.08	30672.72
590.24	30691.44
590.40	30277.17
590.56	30696.13
590.72	30567.40
590.88	30298.23
591.04	30164.82
591.20	30859.96
591.35	30426.96
591.51	30906.77
591.67	30747.62
591.83	30635.27
591.99	30492.50
