SpectraSuite Data File
++++++++++++++++++++++++++++++++++++
Date: Fri Oct 18 13:58:42 GMT-05:00 2013
User: bianchi
Dark Spectrum Present: No
Reference Spectrum Present: No
Number of Sampled Component Spectra: 1
Spectrometers: USB2+H05261
Integration Time (usec): 50000 (USB2+H05261)
Spectra Averaged: 1 (USB2+H05261)
Boxcar Smoothing: 0 (USB2+H05261)
Correct for Electrical Dark: No (USB2+H05261)
Strobe/Lamp Enabled: No (USB2+H05261)
Correct for Detector Non-linearity: No (USB2+H05261)
Correct for Stray Light: No (USB2+H05261)
Number of Pixels in Processed Spectrum: 2048
>>>>>Begin Processed Spectral Data<<<<<
365.73	0.00
365.92	0.00
366.12	0.00
366.32	0.00
366.52	0.00
366.72	0.00
366.91	0.00
367.11	0.00
367.31	0.00
367.51	0.00
367.70	0.00
367.90	0.00
368.10	0.00
368.30	0.00
368.49	0.00
368.69	0.00
368.89	0.00
369.09	0.00
369.28	0.00
369.48	0.00
369.68	0.00
369.87	0.00
370.07	0.00
370.27	0.00
370.47	0.00
370.66	72.56
370.86	110.01
371.06	135.75
371.25	170.86
371.45	95.96
371.65	180.22
371.84	117.03
372.04	161.50
372.24	182.56
372.44	194.26
372.63	184.90
372.83	227.03
373.03	142.77
373.22	217.67
373.42	203.63
373.62	238.73
373.81	227.03
374.01	245.76
374.21	177.88
374.40	184.90
374.60	311.29
374.79	212.99
374.99	212.99
375.19	201.29
375.38	210.65
375.58	285.55
375.78	311.29
375.97	231.71
376.17	334.70
376.37	266.82
376.56	280.86
376.76	163.84
376.95	299.59
377.15	271.50
377.35	234.05
377.54	311.29
377.74	177.88
377.93	238.73
378.13	372.15
378.33	400.23
378.52	255.12
378.72	308.95
378.91	304.27
379.11	297.25
379.31	276.18
379.50	255.12
379.70	276.18
379.89	346.40
380.09	297.25
380.28	241.08
380.48	313.63
380.68	245.76
380.87	257.46
381.07	285.55
381.26	334.70
381.46	325.33
381.65	264.48
381.85	330.02
382.04	404.91
382.24	283.20
382.43	362.78
382.63	337.04
382.83	409.59
383.02	355.76
383.22	404.91
383.41	369.80
383.61	346.40
383.80	402.57
384.00	358.10
384.19	430.66
384.39	425.98
384.58	358.10
384.78	393.21
384.97	374.49
385.17	402.57
385.36	320.65
385.56	390.87
385.75	379.17
385.95	404.91
386.14	456.40
386.34	388.53
386.53	442.36
386.72	355.76
386.92	437.68
387.11	402.57
387.31	411.93
387.50	451.72
387.70	428.32
387.89	390.87
388.09	447.04
388.28	533.64
388.48	463.43
388.67	442.36
388.86	486.83
389.06	444.70
389.25	566.41
389.45	482.15
389.64	418.96
389.84	470.45
390.03	407.25
390.22	491.51
390.42	503.22
390.61	433.00
390.81	482.15
391.00	440.02
391.19	535.98
391.39	451.72
391.58	517.26
391.78	517.26
391.97	519.60
392.16	538.32
392.36	669.39
392.55	592.16
392.75	517.26
392.94	559.39
393.13	521.94
393.33	610.88
393.52	624.92
393.71	580.45
393.91	667.05
394.10	566.41
394.29	531.30
394.49	521.94
394.68	540.66
394.88	587.47
395.07	681.10
395.26	613.22
395.46	629.60
395.65	589.82
395.84	629.60
396.04	599.18
396.23	697.48
396.42	657.69
396.62	664.71
396.81	587.47
397.00	594.50
397.19	608.54
397.39	631.94
397.58	662.37
397.77	657.69
397.97	711.52
398.16	634.29
398.35	554.71
398.55	727.91
398.74	655.35
398.93	800.46
399.12	734.93
399.32	627.26
399.51	664.71
399.70	727.91
399.90	688.12
400.09	702.16
400.28	777.06
400.47	800.46
400.67	814.51
400.86	774.72
401.05	748.97
401.24	716.20
401.44	770.04
401.63	779.40
401.82	837.91
402.01	685.78
402.21	807.48
402.40	802.80
402.59	851.96
402.78	889.40
402.97	840.25
403.17	884.72
403.36	887.06
403.55	819.19
403.74	889.40
403.93	919.83
404.13	938.55
404.32	933.87
404.51	896.43
404.70	978.34
404.89	943.24
405.09	994.73
405.28	898.77
405.47	999.41
405.66	957.28
405.85	950.26
406.05	1011.11
406.24	966.64
406.43	1006.43
406.62	1083.67
406.81	985.37
407.00	1081.33
407.20	959.62
407.39	1032.18
407.58	1057.92
407.77	1034.52
407.96	1086.01
408.15	999.41
408.34	1151.54
408.54	1142.18
408.73	1121.12
408.92	1102.39
409.11	1144.52
409.30	1146.86
409.49	1090.69
409.68	1095.37
409.87	1193.67
410.07	1196.01
410.26	1177.29
410.45	1240.48
410.64	1238.14
410.83	1219.42
411.02	1196.01
411.21	1256.87
411.40	1369.21
411.59	1345.81
411.78	1210.06
411.98	1238.14
412.17	1240.48
412.36	1310.70
412.55	1291.98
412.74	1299.00
412.93	1310.70
413.12	1240.48
413.31	1427.73
413.50	1392.62
413.69	1401.98
413.88	1481.56
414.07	1401.98
414.26	1526.03
414.45	1476.88
414.64	1392.62
414.83	1458.15
415.02	1444.11
415.22	1607.95
415.41	1511.99
415.60	1544.75
415.79	1526.03
415.98	1500.28
416.17	1542.41
416.36	1551.78
416.55	1596.25
416.74	1636.03
416.93	1657.10
417.12	1689.87
417.31	1650.08
417.50	1701.57
417.69	1790.51
417.88	1729.66
418.07	1701.57
418.26	1753.06
418.45	1846.68
418.64	1834.98
418.83	1675.82
419.02	1746.04
419.21	1813.92
419.39	1792.85
419.58	1863.07
419.77	1771.79
419.96	1820.94
420.15	1762.42
420.34	1928.60
420.53	1935.62
420.72	1893.49
420.91	1865.41
421.10	1895.83
421.29	2040.95
421.48	1888.81
421.67	1928.60
421.86	1977.75
422.05	1923.92
422.24	1863.07
422.43	1893.49
422.61	2050.31
422.80	1905.20
422.99	1930.94
423.18	2010.52
423.37	1930.94
423.56	1867.75
423.75	1989.46
423.94	2024.56
424.13	1886.47
424.32	1933.28
424.50	2083.08
424.69	2059.67
424.88	2108.82
425.07	2108.82
425.26	1940.30
425.45	2012.86
425.64	2003.50
425.83	2026.90
426.01	1959.03
426.20	1959.03
426.39	2043.29
426.58	2015.20
426.77	2064.35
426.96	2085.42
427.15	2022.22
427.33	1919.24
427.52	2134.57
427.71	2071.37
427.90	2090.10
428.09	2200.10
428.28	2253.94
428.46	2239.89
428.65	2235.21
428.84	2310.11
429.03	2284.36
429.22	2108.82
429.40	2232.87
429.59	2279.68
429.78	2200.10
429.97	2230.53
430.16	2153.29
430.34	2310.11
430.53	2307.77
430.72	2319.47
430.91	2289.04
431.10	2352.24
431.28	2314.79
431.47	2354.58
431.66	2394.37
431.85	2368.62
432.03	2373.30
432.22	2485.65
432.41	2506.71
432.60	2583.95
432.79	2429.48
432.97	2410.75
433.16	2429.48
433.35	2413.09
433.54	2483.31
433.72	2476.29
433.91	2476.29
434.10	2562.89
434.28	2438.84
434.47	2476.29
434.66	2516.08
434.85	2548.84
435.03	2581.61
435.22	2679.91
435.41	2670.55
435.59	2609.70
435.78	2731.41
435.97	2703.32
436.16	2703.32
436.34	2693.96
436.53	2677.57
436.72	2670.55
436.90	2661.19
437.09	2715.02
437.28	2710.34
437.46	2757.15
437.65	2700.98
437.84	2778.22
438.02	2801.62
438.21	2766.51
438.40	2724.38
438.58	2902.26
438.77	2888.22
438.96	2691.62
439.14	2916.31
439.33	2846.09
439.52	2956.10
439.70	3009.93
439.89	3059.08
440.08	3023.97
440.26	2993.55
440.45	2953.76
440.63	2944.39
440.82	3126.96
441.01	3110.57
441.19	3117.59
441.38	3192.49
441.57	3236.96
441.75	3215.90
441.94	3141.00
442.12	3171.43
442.31	3288.45
442.50	3391.44
442.68	3258.03
442.87	3375.05
443.05	3414.84
443.24	3353.99
443.43	3297.81
443.61	3538.89
443.80	3405.48
443.98	3344.63
444.17	3328.24
444.35	3297.81
444.54	3463.99
444.73	3578.68
444.91	3492.08
445.10	3419.52
445.28	3393.78
445.47	3421.86
445.65	3489.74
445.84	3485.06
446.02	3419.52
446.21	3426.54
446.39	3405.48
446.58	3545.91
446.77	3508.46
446.95	3536.55
447.14	3438.25
447.32	3564.64
447.51	3368.03
447.69	3517.83
447.88	3559.95
448.06	3449.95
448.25	3471.01
448.43	3407.82
448.62	3494.42
448.80	3412.50
448.99	3548.25
449.17	3588.04
449.36	3655.92
449.54	3660.60
449.73	3651.24
449.91	3770.60
450.10	3779.97
450.28	3646.55
450.46	3733.15
450.65	3768.26
450.83	3712.09
451.02	3887.63
451.20	3831.46
451.39	3810.39
451.57	3691.02
451.76	3693.37
451.94	3667.62
452.13	3953.16
452.31	3803.37
452.49	3838.48
452.68	3941.46
452.86	3803.37
453.05	3885.29
453.23	3983.59
453.42	3969.55
453.60	3817.41
453.78	3871.25
453.97	3875.93
454.15	3826.78
454.34	3812.73
454.52	4016.36
454.70	3946.14
454.89	4065.51
455.07	3939.12
455.26	4142.75
455.44	4114.66
455.62	4196.58
455.81	3964.87
455.99	4107.64
456.17	4156.79
456.36	4149.77
456.54	4156.79
456.73	4175.52
456.91	4219.99
457.09	4264.46
457.28	4477.44
457.46	4210.62
457.64	4334.67
457.83	4440.00
458.01	4383.82
458.19	4418.93
458.38	4278.50
458.56	4533.62
458.74	4299.56
458.93	4360.42
459.11	4505.53
459.29	4557.02
459.48	4517.23
459.66	4353.40
459.84	4468.08
460.03	4648.30
460.21	4592.13
460.39	4456.38
460.57	4348.72
460.76	4533.62
460.94	4629.58
461.12	4526.60
461.31	4589.79
461.49	4624.90
461.67	4585.11
461.85	4692.77
462.04	4629.58
462.22	4751.29
462.40	4664.69
462.59	4716.18
462.77	4765.33
462.95	4753.63
463.13	4690.43
463.32	4835.55
463.50	4931.51
463.68	4912.78
463.86	4828.53
464.05	4938.53
464.23	4830.87
464.41	4849.59
464.59	4760.65
464.78	4880.02
464.96	4917.47
465.14	4875.34
465.32	4814.48
465.50	4849.59
465.69	4940.87
465.87	4898.74
466.05	4842.57
466.23	4985.34
466.41	4978.32
466.60	5203.01
466.78	5177.26
466.96	5247.48
467.14	4999.38
467.32	5107.05
467.51	5212.37
467.69	4999.38
467.87	5193.65
468.05	5273.23
468.23	5123.43
468.41	5198.33
468.60	5167.90
468.78	5282.59
468.96	5093.01
469.14	5317.70
469.32	5343.44
469.50	5282.59
469.69	5277.91
469.87	5493.24
470.05	5359.83
470.23	5411.32
470.41	5357.49
470.59	5338.76
470.77	5268.55
470.95	5526.00
471.14	5540.05
471.32	5476.85
471.50	5596.22
471.68	5760.06
471.86	5579.84
472.04	5631.33
472.22	5849.00
472.40	5535.37
472.58	5687.50
472.77	5860.70
472.95	5893.47
473.13	6036.24
473.31	5795.17
473.49	5804.53
473.67	5781.12
473.85	5891.13
474.03	5916.87
474.21	6101.78
474.39	6073.69
474.57	6146.25
474.75	6232.85
474.93	6272.64
475.12	6179.01
475.30	6127.52
475.48	6111.14
475.66	6267.95
475.84	6296.04
476.02	6392.00
476.20	6387.32
476.38	6389.66
476.56	6593.29
476.74	6588.61
476.92	6497.33
477.10	6478.60
477.28	6810.96
477.46	6604.99
477.64	6691.59
477.82	6724.36
478.00	7049.69
478.18	6906.92
478.36	7014.59
478.54	7094.16
478.72	7105.87
478.90	7148.00
479.08	7061.40
479.26	7386.73
479.44	7269.70
479.62	7232.26
479.80	7269.70
479.98	7346.94
480.16	7681.64
480.34	7506.10
480.52	7733.13
480.70	7651.21
480.88	7538.87
481.06	7777.60
481.24	7765.90
481.41	8009.31
481.59	7985.91
481.77	8011.65
481.95	8091.23
482.13	8081.87
482.31	8325.29
482.49	8287.84
482.67	8386.14
482.85	8439.97
483.03	8407.20
483.21	8542.96
483.39	8430.61
483.57	8542.96
483.74	8587.43
483.92	8655.30
484.10	8723.18
484.28	8805.10
484.46	8819.14
484.64	9039.15
484.82	8987.66
485.00	9188.94
485.18	9242.78
485.35	9287.25
485.53	9254.48
485.71	9205.33
485.89	9565.77
486.07	9570.45
486.25	9383.21
486.43	9668.75
486.61	9685.14
486.78	9781.10
486.96	10106.43
487.14	10010.47
487.32	9991.75
487.50	10059.62
487.68	10136.86
487.85	10485.60
488.03	10464.54
488.21	10380.28
488.39	10373.25
488.57	10597.95
488.75	10745.40
488.92	10750.08
489.10	10878.81
489.28	10916.26
489.46	11204.14
489.64	10972.43
489.81	11384.37
489.99	11220.53
490.17	11356.28
490.35	11510.75
490.53	11424.15
490.70	11534.16
490.88	11587.99
491.06	11749.49
491.24	11616.08
491.41	11690.98
491.59	11871.20
491.77	11936.73
491.95	12070.14
492.13	12182.49
492.30	12238.66
492.48	12348.67
492.66	12280.79
492.84	12081.85
493.01	12744.22
493.19	12688.04
493.37	12594.42
493.54	12552.29
493.72	12821.45
493.90	12828.48
494.08	12987.63
494.25	12872.95
494.43	13123.38
494.61	13121.04
494.79	13277.86
494.96	13170.19
495.14	13282.54
495.32	13549.36
495.49	13397.23
495.67	13703.84
495.85	13572.77
496.02	13874.70
496.20	13650.00
496.38	14019.81
496.55	13851.29
496.73	14260.88
496.91	14225.78
497.09	14169.60
497.26	14310.04
497.44	14136.84
497.62	14169.60
497.79	14710.27
497.97	14384.93
498.14	14789.85
498.32	14944.32
498.50	14759.42
498.67	14579.20
498.85	15035.60
499.03	14782.82
499.20	15056.67
499.38	15122.20
499.56	15353.91
499.73	15154.97
499.91	15159.65
500.08	15524.77
500.26	15304.76
500.44	15342.21
500.61	15398.38
500.79	15524.77
500.97	15632.44
501.14	15875.85
501.32	15751.81
501.49	15971.82
501.67	15747.12
501.84	15985.86
502.02	15770.53
502.20	15875.85
502.37	16037.35
502.55	16074.80
502.72	16280.77
502.90	16180.12
503.07	15747.12
503.25	16269.06
503.43	16175.44
503.60	16439.92
503.78	16563.97
503.95	16578.01
504.13	16781.64
504.30	16463.33
504.48	16278.43
504.65	16961.86
504.83	16926.75
505.01	17139.74
505.18	17085.91
505.36	17006.33
505.53	17088.25
505.71	16884.62
505.88	17242.73
506.06	17057.82
506.23	17397.20
506.41	17263.79
506.58	17322.30
506.76	17495.50
506.93	17268.47
507.11	17308.26
507.28	17324.65
507.46	17488.48
507.63	17664.02
507.81	17987.02
507.98	17624.23
508.16	17776.37
508.33	17748.28
508.50	17792.75
508.68	17781.05
508.85	18281.92
509.03	17951.91
509.20	18256.18
509.38	18162.56
509.55	18178.94
509.73	18155.54
509.90	18728.97
510.08	18307.67
510.25	18396.61
510.42	18595.56
510.60	18588.53
510.77	18452.78
510.95	18824.93
511.12	18654.07
511.30	18492.57
511.47	18693.86
511.64	18874.08
511.82	18621.30
511.99	18862.38
512.17	19136.22
512.34	19225.16
512.51	18909.19
512.69	19220.48
512.86	19101.11
513.04	19538.79
513.21	19161.97
513.38	19295.38
513.56	19592.62
513.73	19564.54
513.90	19524.75
514.08	19232.18
514.25	19690.93
514.43	19754.12
514.60	19831.36
514.77	19896.89
514.95	19882.85
515.12	19880.51
515.29	19763.48
515.47	19777.53
515.64	20053.71
515.81	19896.89
515.99	19943.70
516.16	20369.68
516.33	20259.68
516.51	20159.03
516.68	20269.04
516.85	20037.33
517.03	20269.04
517.20	20404.79
517.37	20334.57
517.54	20561.61
517.72	20659.91
517.89	20400.11
518.06	20655.23
518.24	20704.38
518.41	20407.13
518.58	20545.22
518.75	20524.16
518.93	21158.44
519.10	20678.63
519.27	20966.52
519.45	20807.36
519.62	21064.82
519.79	21249.72
519.96	20793.32
520.14	21467.39
520.31	21123.33
520.48	21380.79
520.65	21088.23
520.83	21736.56
521.00	21563.36
521.17	21359.73
521.34	21371.43
521.52	21537.61
521.69	21170.15
521.86	21647.61
522.03	21715.49
522.20	21715.49
522.38	21703.79
522.55	21886.35
522.72	21804.43
522.89	21876.99
523.07	22064.23
523.24	21804.43
523.41	21942.52
523.58	22024.44
523.75	22239.77
523.92	21694.43
524.10	21884.01
524.27	22232.75
524.44	22494.89
524.61	22604.89
524.78	22235.09
524.96	22415.31
525.13	22724.26
525.30	22324.03
525.47	22427.01
525.64	22506.59
525.81	22389.56
525.98	22649.36
526.16	23009.81
526.33	22497.23
526.50	23000.44
526.67	22396.59
526.84	23087.04
527.01	22665.75
527.18	23049.60
527.36	23063.64
527.53	22824.90
527.70	23068.32
527.87	23264.92
528.04	23330.46
528.21	23171.30
528.38	22974.70
528.55	23307.05
528.72	23087.04
528.89	23269.61
529.07	23028.53
529.24	23208.75
529.41	23527.06
529.58	23297.69
529.75	23510.68
529.92	23178.33
530.09	23388.97
530.26	23723.67
530.43	23751.76
530.60	23428.76
530.77	23861.76
530.94	23704.95
531.11	23557.49
531.28	23267.27
531.46	23817.29
531.63	23665.16
531.80	23728.35
531.97	23885.17
532.14	24196.46
532.31	24018.58
532.48	24030.28
532.65	24142.63
532.82	24011.56
532.99	23838.36
533.16	24322.85
533.33	24641.16
533.50	24573.28
533.67	24608.39
533.84	24215.18
534.01	24339.23
534.18	24491.37
534.35	24760.53
534.52	24524.13
534.69	24739.46
534.86	24720.74
535.03	24610.73
535.20	24702.01
535.37	24606.05
535.54	24727.76
535.71	24568.60
535.88	24758.19
536.05	24559.24
536.22	24737.12
536.38	25116.29
536.55	24620.10
536.72	24882.24
536.89	24828.40
537.06	24992.24
537.23	25006.28
537.40	24868.19
537.57	24931.39
537.74	25055.43
537.91	25460.35
538.08	25380.77
538.25	24889.26
538.42	25415.88
538.59	25165.44
538.75	25104.59
538.92	25242.68
539.09	25497.80
539.26	25158.42
539.43	25668.66
539.60	25607.80
539.77	25139.69
539.94	25759.94
540.11	25149.06
540.28	25720.15
540.44	25338.64
540.61	25516.52
540.78	25572.69
540.95	25612.48
541.12	25638.23
541.29	25752.91
541.46	25680.36
541.62	25905.05
541.79	25628.87
541.96	25303.53
542.13	25928.45
542.30	25893.35
542.47	26164.85
542.63	26122.72
542.80	26012.71
542.97	26221.02
543.14	26448.05
543.31	26326.35
543.48	26052.50
543.64	26349.75
543.81	26300.60
543.98	26401.24
544.15	26373.16
544.32	26195.28
544.48	26773.39
544.65	26621.25
544.82	26508.91
544.99	25996.33
545.16	26244.43
545.32	26501.89
545.49	26661.04
545.66	26848.29
545.83	26745.30
546.00	26876.37
546.16	26639.98
546.33	26302.94
546.50	26859.99
546.67	26639.98
546.83	27065.96
547.00	26794.45
547.17	26724.24
547.34	26946.59
547.50	27068.30
547.67	26988.72
547.84	27091.70
548.00	26712.53
548.17	27201.71
548.34	26829.56
548.51	27316.39
548.67	27215.75
548.84	27124.47
549.01	27147.87
549.18	27154.90
549.34	27456.82
549.51	27056.59
549.68	27115.11
549.84	26904.46
550.01	27281.28
550.18	27168.94
550.34	27243.84
550.51	27583.21
550.68	27276.60
550.84	27241.50
551.01	27620.66
551.18	27300.01
551.34	27274.26
551.51	27232.13
551.68	27395.97
551.84	27927.27
552.01	27733.01
552.18	27838.33
552.34	27779.82
552.51	27999.83
552.68	27931.95
552.84	27742.37
553.01	27913.23
553.18	27784.50
553.34	27779.82
553.51	27676.83
553.67	27889.82
553.84	27763.43
554.01	27747.05
554.17	28006.85
554.34	27662.79
554.51	28081.75
554.67	28285.37
554.84	28121.54
555.00	27960.04
555.17	28224.52
555.33	28290.06
555.50	28100.47
555.67	28116.86
555.83	27969.40
556.00	28060.68
556.16	28250.27
556.33	28168.35
556.50	28294.74
556.66	28388.36
556.83	28692.63
556.99	28292.40
557.16	28645.82
557.32	28622.41
557.49	28449.21
557.65	28166.01
557.82	28070.04
557.98	28301.76
558.15	28364.95
558.32	28491.34
558.48	28573.26
558.65	28996.90
558.81	28547.51
558.98	28610.71
559.14	28720.71
559.31	28671.56
559.47	28163.67
559.64	28503.04
559.80	28409.42
559.97	28699.65
560.13	28622.41
560.30	28706.67
560.46	28575.60
560.63	28753.48
560.79	28486.66
560.96	28664.54
561.12	28683.27
561.29	28720.71
561.45	28760.50
561.61	28645.82
561.78	29284.78
561.94	29010.94
562.11	28940.72
562.27	28732.42
562.44	28718.37
562.60	29139.67
562.77	28657.52
562.93	28929.02
563.10	29195.84
563.26	28919.66
563.42	29380.74
563.59	28809.65
563.75	28854.12
563.92	29029.66
564.08	28692.63
564.24	29048.39
564.41	28893.91
564.57	28847.10
564.74	29088.18
564.90	28989.88
565.07	29261.38
565.23	29069.45
565.39	28968.81
565.56	28826.04
565.72	28882.21
565.88	29212.23
566.05	28924.34
566.21	29134.99
566.38	29064.77
566.54	29102.22
566.70	29504.79
566.87	29453.30
567.03	29137.33
567.19	29493.09
567.36	29397.13
567.52	29352.66
567.68	29371.38
567.85	29017.96
568.01	29422.87
568.17	29270.74
568.34	29195.84
568.50	29127.97
568.66	29343.30
568.83	29411.17
568.99	29010.94
569.15	29729.48
569.32	29542.24
569.48	28978.17
569.64	29254.36
569.81	29401.81
569.97	29184.14
570.13	29703.74
570.30	29352.66
570.46	29207.55
570.62	29483.73
570.78	29280.10
570.95	29322.23
571.11	29364.36
571.27	29284.78
571.43	29207.55
571.60	29172.44
571.76	29640.54
571.92	29493.09
572.09	29544.58
572.25	29537.56
572.41	29743.53
572.57	29462.66
572.74	29811.40
572.90	29631.18
573.06	29113.92
573.22	29546.92
573.38	29221.59
573.55	29301.17
573.71	30057.16
573.87	29865.24
574.03	29741.19
574.20	29589.05
574.36	29448.62
574.52	29741.19
574.68	29359.68
574.84	29329.25
575.01	29699.06
575.17	29717.78
575.33	29457.98
575.49	29460.32
575.65	29710.76
575.82	29841.83
575.98	29706.08
576.14	29336.27
576.30	29715.44
576.46	29750.55
576.62	29916.73
576.79	29565.65
576.95	29455.64
577.11	29649.91
577.27	29954.18
577.43	29549.26
577.59	29942.47
577.75	29497.77
577.92	29207.55
578.08	29275.42
578.24	29401.81
578.40	30008.01
578.56	29755.23
578.72	29317.55
578.88	30059.50
579.04	30110.99
579.21	29860.55
579.37	29881.62
579.53	29659.27
579.69	29329.25
579.85	29731.83
580.01	29666.29
580.17	29776.30
580.33	29589.05
580.49	29659.27
580.65	29692.04
580.82	30087.59
580.98	29879.28
581.14	29532.88
581.30	29495.43
581.46	30073.54
581.62	29844.17
581.78	29572.67
581.94	29872.26
582.10	29631.18
582.26	29745.87
582.42	29898.00
582.58	29626.50
582.74	29961.20
582.90	29806.72
583.06	29912.05
583.22	30024.39
583.38	29923.75
583.54	29661.61
583.70	29776.30
583.86	29830.13
584.02	29516.50
584.18	30038.44
584.34	30286.53
584.50	30272.49
584.66	30022.05
584.82	29223.93
584.98	29867.58
585.14	29874.60
585.30	29720.12
585.46	29813.74
585.62	29551.60
585.78	29949.50
585.94	30171.85
586.10	29488.41
586.26	29654.59
586.42	29977.58
586.58	30033.75
586.74	29839.49
586.90	30162.48
587.06	29692.04
587.22	29816.08
587.38	29823.11
587.54	29827.79
587.70	30281.85
587.86	30183.55
588.02	30092.27
588.18	30352.07
588.34	30127.38
588.49	30209.29
588.65	30134.40
588.81	29865.24
588.97	29729.48
589.13	30038.44
589.29	30139.08
589.45	30223.34
589.61	30300.58
589.77	30211.64
589.93	30183.55
590.08	30223.34
590.24	30398.88
590.40	30522.93
590.56	30096.95
590.72	30195.25
590.88	29923.75
591.04	30188.23
591.20	30309.94
591.35	30520.59
591.51	30218.66
591.67	30272.49
591.83	30588.46
591.99	30169.51
