SpectraSuite Data File
++++++++++++++++++++++++++++++++++++
Date: Fri Oct 18 13:58:03 GMT-05:00 2013
User: bianchi
Dark Spectrum Present: No
Reference Spectrum Present: No
Number of Sampled Component Spectra: 1
Spectrometers: USB2+H05261
Integration Time (usec): 50000 (USB2+H05261)
Spectra Averaged: 1 (USB2+H05261)
Boxcar Smoothing: 0 (USB2+H05261)
Correct for Electrical Dark: No (USB2+H05261)
Strobe/Lamp Enabled: No (USB2+H05261)
Correct for Detector Non-linearity: No (USB2+H05261)
Correct for Stray Light: No (USB2+H05261)
Number of Pixels in Processed Spectrum: 2048
>>>>>Begin Processed Spectral Data<<<<<
365.73	0.00
365.92	0.00
366.12	0.00
366.32	0.00
366.52	0.00
366.72	0.00
366.91	0.00
367.11	0.00
367.31	0.00
367.51	0.00
367.70	0.00
367.90	0.00
368.10	0.00
368.30	0.00
368.49	0.00
368.69	0.00
368.89	0.00
369.09	0.00
369.28	0.00
369.48	0.00
369.68	0.00
369.87	4.68
370.07	0.00
370.27	0.00
370.47	0.00
370.66	39.79
370.86	100.64
371.06	119.37
371.25	220.01
371.45	128.73
371.65	168.52
371.84	152.13
372.04	182.56
372.24	100.64
372.44	114.69
372.63	196.60
372.83	138.09
373.03	243.42
373.22	250.44
373.42	262.14
373.62	208.31
373.81	198.95
374.01	301.93
374.21	241.08
374.40	245.76
374.60	241.08
374.79	215.33
374.99	198.95
375.19	182.56
375.38	194.26
375.58	168.52
375.78	280.86
375.97	238.73
376.17	292.57
376.37	311.29
376.56	255.12
376.76	287.89
376.95	294.91
377.15	327.68
377.35	283.20
377.54	301.93
377.74	278.52
377.93	348.74
378.13	241.08
378.33	280.86
378.52	325.33
378.72	344.06
378.91	367.46
379.11	306.61
379.31	236.39
379.50	269.16
379.70	285.55
379.89	234.05
380.09	337.04
380.28	376.83
380.48	365.12
380.68	278.52
380.87	346.40
381.07	341.72
381.26	306.61
381.46	337.04
381.65	311.29
381.85	334.70
382.04	393.21
382.24	278.52
382.43	294.91
382.63	308.95
382.83	353.42
383.02	360.44
383.22	376.83
383.41	320.65
383.61	278.52
383.80	320.65
384.00	308.95
384.19	381.51
384.39	447.04
384.58	418.96
384.78	372.15
384.97	388.53
385.17	297.25
385.36	407.25
385.56	397.89
385.75	372.15
385.95	440.02
386.14	393.21
386.34	418.96
386.53	414.27
386.72	311.29
386.92	421.30
387.11	444.70
387.31	416.62
387.50	496.19
387.70	425.98
387.89	456.40
388.09	468.11
388.28	393.21
388.48	423.64
388.67	447.04
388.86	463.43
389.06	554.71
389.25	468.11
389.45	458.74
389.64	564.07
389.84	528.96
390.03	482.15
390.22	519.60
390.42	526.62
390.61	479.81
390.81	470.45
391.00	550.03
391.19	482.15
391.39	447.04
391.58	557.05
391.78	575.77
391.97	507.90
392.16	489.17
392.36	538.32
392.55	531.30
392.75	601.52
392.94	482.15
393.13	533.64
393.33	517.26
393.52	631.94
393.71	552.37
393.91	681.10
394.10	545.34
394.29	585.13
394.49	578.11
394.68	650.67
394.88	559.39
395.07	664.71
395.26	615.56
395.46	599.18
395.65	613.22
395.84	636.63
396.04	660.03
396.23	624.92
396.42	627.26
396.62	603.86
396.81	627.26
397.00	601.52
397.19	624.92
397.39	594.50
397.58	587.47
397.77	725.57
397.97	706.84
398.16	720.88
398.35	681.10
398.55	641.31
398.74	744.29
398.93	692.80
399.12	716.20
399.32	671.73
399.51	676.41
399.70	798.12
399.90	802.80
400.09	809.83
400.28	809.83
400.47	788.76
400.67	873.02
400.86	800.46
401.05	847.27
401.24	802.80
401.44	833.23
401.63	751.31
401.82	819.19
402.01	760.67
402.21	814.51
402.40	856.64
402.59	858.98
402.78	807.48
402.97	894.08
403.17	884.72
403.36	908.13
403.55	849.61
403.74	873.02
403.93	851.96
404.13	912.81
404.32	898.77
404.51	903.45
404.70	898.77
404.89	936.21
405.09	992.39
405.28	945.58
405.47	971.32
405.66	1062.60
405.85	896.43
406.05	1050.90
406.24	1006.43
406.43	992.39
406.62	950.26
406.81	1128.14
407.00	1027.50
407.20	1020.47
407.39	1011.11
407.58	936.21
407.77	1109.41
407.96	1135.16
408.15	1139.84
408.34	1041.54
408.54	1048.56
408.73	1221.76
408.92	1139.84
409.11	1088.35
409.30	1170.27
409.49	1102.39
409.68	1123.46
409.87	1210.06
410.07	1205.38
410.26	1128.14
410.45	1179.63
410.64	1198.35
410.83	1238.14
411.02	1214.74
411.21	1231.12
411.40	1291.98
411.59	1273.25
411.78	1313.04
411.98	1231.12
412.17	1181.97
412.36	1238.14
412.55	1364.53
412.74	1341.13
412.93	1352.83
413.12	1306.02
413.31	1315.38
413.50	1397.30
413.69	1399.64
413.88	1371.55
414.07	1420.71
414.26	1497.94
414.45	1488.58
414.64	1458.15
414.83	1432.41
415.02	1476.88
415.22	1547.09
415.41	1479.22
415.60	1458.15
415.79	1544.75
415.98	1530.71
416.17	1614.97
416.36	1591.56
416.55	1530.71
416.74	1584.54
416.93	1636.03
417.12	1598.59
417.31	1788.17
417.50	1717.95
417.69	1748.38
417.88	1832.64
418.07	1750.72
418.26	1769.44
418.45	1853.70
418.64	1795.19
418.83	1762.42
419.02	1802.21
419.21	1734.34
419.39	1860.73
419.58	1837.32
419.77	1823.28
419.96	1769.44
420.15	1973.07
420.34	1832.64
420.53	1935.62
420.72	1991.80
420.91	1870.09
421.10	1975.41
421.29	2008.18
421.48	1956.69
421.67	1937.96
421.86	1858.39
422.05	1973.07
422.24	2005.84
422.43	1949.67
422.61	2045.63
422.80	1961.37
422.99	1980.09
423.18	1970.73
423.37	1982.43
423.56	2012.86
423.75	1984.77
423.94	2003.50
424.13	1928.60
424.32	1884.13
424.50	1970.73
424.69	1996.48
424.88	2136.91
425.07	1989.46
425.26	2008.18
425.45	2008.18
425.64	1991.80
425.83	1996.48
426.01	2078.40
426.20	1982.43
426.39	2054.99
426.58	1928.60
426.77	2090.10
426.96	2118.18
427.15	2083.08
427.33	2083.08
427.52	1994.14
427.71	2146.27
427.90	2071.37
428.09	2223.51
428.28	2136.91
428.46	2260.96
428.65	2146.27
428.84	2272.66
429.03	2345.22
429.22	2153.29
429.40	2244.57
429.59	2275.00
429.78	2043.29
429.97	2216.49
430.16	2204.78
430.34	2218.83
430.53	2270.32
430.72	2230.53
430.91	2305.43
431.10	2239.89
431.28	2363.94
431.47	2459.90
431.66	2373.30
431.85	2389.69
432.03	2525.44
432.22	2539.48
432.41	2462.24
432.60	2485.65
432.79	2354.58
432.97	2420.11
433.16	2480.97
433.35	2551.18
433.54	2466.92
433.72	2532.46
433.91	2562.89
434.10	2469.27
434.28	2555.86
434.47	2553.52
434.66	2593.31
434.85	2579.27
435.03	2661.19
435.22	2518.42
435.41	2710.34
435.59	2616.72
435.78	2771.19
435.97	2644.81
436.16	2724.38
436.34	2609.70
436.53	2808.64
436.72	2822.69
436.90	2644.81
437.09	2677.57
437.28	2642.46
437.46	2731.41
437.65	2841.41
437.84	2848.43
438.02	2853.11
438.21	2843.75
438.40	2850.77
438.58	2820.35
438.77	2850.77
438.96	2799.28
439.14	2920.99
439.33	3061.42
439.52	2932.69
439.70	2988.86
439.89	2993.55
440.08	3009.93
440.26	2972.48
440.45	3047.38
440.63	2946.73
440.82	3080.14
441.01	3126.96
441.19	3206.53
441.38	3131.64
441.57	3059.08
441.75	3248.66
441.94	3274.41
442.12	3225.26
442.31	3353.99
442.50	3412.50
442.68	3281.43
442.87	3449.95
443.05	3293.13
443.24	3332.92
443.43	3485.06
443.61	3328.24
443.80	3485.06
443.98	3485.06
444.17	3300.16
444.35	3421.86
444.54	3524.85
444.73	3480.38
444.91	3473.36
445.10	3375.05
445.28	3295.47
445.47	3295.47
445.65	3400.80
445.84	3480.38
446.02	3660.60
446.21	3424.20
446.39	3417.18
446.58	3501.44
446.77	3513.14
446.95	3482.72
447.14	3480.38
447.32	3564.64
447.51	3571.66
447.69	3597.40
447.88	3508.46
448.06	3555.27
448.25	3478.04
448.43	3637.19
448.62	3634.85
448.80	3595.06
448.99	3599.74
449.17	3658.26
449.36	3471.01
449.54	3676.98
449.73	3826.78
449.91	3819.75
450.10	3723.79
450.28	3815.07
450.46	3801.03
450.65	3850.18
450.83	3803.37
451.02	3756.56
451.20	3772.94
451.39	3756.56
451.57	3637.19
451.76	3705.07
451.94	3744.86
452.13	3822.09
452.31	3822.09
452.49	3796.35
452.68	3721.45
452.86	3925.08
453.05	4028.06
453.23	3983.59
453.42	3922.74
453.60	3946.14
453.78	3864.22
453.97	3899.33
454.15	3929.76
454.34	3922.74
454.52	3939.12
454.70	4011.68
454.89	4109.98
455.07	4196.58
455.26	4011.68
455.44	4142.75
455.62	4060.83
455.81	4056.15
455.99	4025.72
456.17	4191.90
456.36	4285.52
456.54	4126.36
456.73	4124.02
456.91	4374.46
457.09	4304.25
457.28	4482.13
457.46	4337.01
457.64	4262.12
457.83	4304.25
458.01	4304.25
458.19	4442.34
458.38	4201.26
458.56	4554.68
458.74	4454.04
458.93	4489.15
459.11	4379.14
459.29	4444.68
459.48	4571.07
459.66	4477.44
459.84	4409.57
460.03	4465.74
460.21	4524.26
460.39	4594.47
460.57	4510.21
460.76	4545.32
460.94	4671.71
461.12	4517.23
461.31	4664.69
461.49	4681.07
461.67	4486.81
461.85	4702.14
462.04	4809.80
462.22	5032.15
462.40	4777.03
462.59	4784.06
462.77	4758.31
462.95	4645.96
463.13	4746.61
463.32	4910.44
463.50	4786.40
463.68	4847.25
463.86	5046.20
464.05	4943.21
464.23	4938.53
464.41	4980.66
464.59	4865.97
464.78	4999.38
464.96	4952.57
465.14	4950.23
465.32	5022.79
465.50	4978.32
465.69	5231.10
465.87	5050.88
466.05	4959.60
466.23	4915.12
466.41	4887.04
466.60	5055.56
466.78	5050.88
466.96	5071.94
467.14	5067.26
467.32	4964.28
467.51	5135.14
467.69	5090.67
467.87	5008.75
468.05	5078.96
468.23	5226.42
468.41	5228.76
468.60	5135.14
468.78	5125.77
468.96	5268.55
469.14	5214.71
469.32	5465.15
469.50	5263.86
469.69	5394.93
469.87	5687.50
470.05	5441.75
470.23	5584.52
470.41	5542.39
470.59	5584.52
470.77	5481.53
470.95	5495.58
471.14	5504.94
471.32	5540.05
471.50	5746.02
471.68	5724.95
471.86	5584.52
472.04	5673.46
472.22	5753.04
472.40	5603.24
472.58	5713.25
472.77	5825.59
472.95	5891.13
473.13	6052.63
473.31	5874.74
473.49	5877.09
473.67	5923.90
473.85	6001.13
474.03	6099.44
474.21	6085.39
474.39	5989.43
474.57	6083.05
474.75	6111.14
474.93	6097.10
475.12	6193.06
475.30	6228.17
475.48	6221.14
475.66	6195.40
475.84	6162.63
476.02	6616.69
476.20	6260.93
476.38	6417.75
476.56	6511.37
476.74	6469.24
476.92	6532.44
477.10	6504.35
477.28	6703.29
477.46	6640.10
477.64	6932.67
477.82	6864.79
478.00	7077.78
478.18	6970.12
478.36	7112.89
478.54	6958.41
478.72	7250.98
478.90	7199.49
479.08	7262.68
479.26	7187.79
479.44	7522.48
479.62	7421.84
479.80	7583.34
479.98	7569.29
480.16	7522.48
480.34	7480.35
480.52	7679.30
480.70	7871.22
480.88	7510.78
481.06	7789.30
481.24	7660.57
481.41	7702.70
481.59	7859.52
481.77	7822.07
481.95	8009.31
482.13	8037.40
482.31	8154.43
482.49	8219.96
482.67	8184.85
482.85	8418.91
483.03	8397.84
483.21	8552.32
483.39	8655.30
483.57	8617.85
483.74	8664.66
483.92	8535.93
484.10	8830.84
484.28	8868.29
484.46	9057.87
484.64	9156.18
484.82	9202.99
485.00	9214.69
485.18	9312.99
485.35	9345.76
485.53	9504.92
485.71	9432.36
485.89	9631.30
486.07	9710.88
486.25	9738.97
486.43	9696.84
486.61	9830.25
486.78	9806.84
486.96	10078.35
487.14	10122.82
487.32	10066.64
487.50	10270.27
487.68	10300.70
487.85	10361.55
488.03	10368.57
488.21	10597.95
488.39	10572.20
488.57	10593.26
488.75	10668.16
488.92	10934.98
489.10	10977.11
489.28	10925.62
489.46	11066.05
489.64	11171.38
489.81	11386.71
489.99	11218.19
490.17	11536.50
490.35	11555.22
490.53	11573.95
490.70	11742.47
490.88	11576.29
491.06	11946.09
491.24	11740.13
491.41	11840.77
491.59	11992.90
491.77	12070.14
491.95	12191.85
492.13	12395.48
492.30	12329.94
492.48	12063.12
492.66	12365.05
492.84	12496.12
493.01	12453.99
493.19	12643.57
493.37	12547.61
493.54	13018.06
493.72	13099.98
493.90	12875.29
494.08	12837.84
494.25	13132.75
494.43	13104.66
494.61	13336.37
494.79	13537.66
494.96	13329.35
495.14	13556.38
495.32	13575.11
495.49	13528.30
495.67	13914.48
495.85	13841.93
496.02	14242.16
496.20	14085.34
496.38	13937.89
496.55	14162.58
496.73	14270.25
496.91	14389.61
497.09	14258.54
497.26	14436.42
497.44	14532.39
497.62	14480.89
497.79	14583.88
497.97	14656.43
498.14	14782.82
498.32	14899.85
498.50	15028.58
498.67	14993.47
498.85	14871.76
499.03	14904.53
499.20	15005.17
499.38	15049.64
499.56	15225.18
499.73	15499.03
499.91	15040.28
500.08	15644.14
500.26	15288.38
500.44	15590.31
500.61	15353.91
500.79	15571.58
500.97	15824.36
501.14	15878.19
501.32	15922.66
501.49	16119.27
501.67	15882.88
501.84	15882.88
502.02	16009.26
502.20	16264.38
502.37	16280.77
502.55	16308.85
502.72	16133.31
502.90	16159.06
503.07	16283.11
503.25	16224.59
503.43	16273.74
503.60	16498.44
503.78	16666.95
503.95	16643.55
504.13	16589.72
504.30	16657.59
504.48	16879.94
504.65	16718.45
504.83	16971.22
505.01	17048.46
505.18	17186.55
505.36	16971.22
505.53	16999.31
505.71	16973.56
505.88	17216.98
506.06	17013.35
506.23	17263.79
506.41	17451.03
506.58	17284.86
506.76	17673.39
506.93	17427.63
507.11	17628.92
507.28	17804.46
507.46	17769.35
507.63	17626.57
507.81	17869.99
507.98	17603.17
508.16	17673.39
508.33	18024.47
508.50	17895.74
508.68	18064.25
508.85	18031.49
509.03	18284.26
509.20	18253.84
509.38	18394.27
509.55	18408.31
509.73	18305.33
509.90	18340.44
510.08	18272.56
510.25	18363.84
510.42	18394.27
510.60	18700.88
510.77	18829.61
510.95	18801.52
511.12	18743.01
511.30	18890.46
511.47	18850.67
511.64	19007.49
511.82	19166.65
511.99	18878.76
512.17	18995.79
512.34	19080.05
512.51	19040.26
512.69	19353.89
512.86	19307.08
513.04	19616.03
513.21	19730.72
513.38	19342.19
513.56	19580.92
513.73	19676.88
513.90	19889.87
514.08	19424.11
514.25	19740.08
514.43	20159.03
514.60	19962.43
514.77	19658.16
514.95	20329.89
515.12	19817.32
515.29	20025.62
515.47	20135.63
515.64	20233.93
515.81	20240.95
515.99	20386.07
516.16	20435.22
516.33	20486.71
516.51	20702.04
516.68	20240.95
516.85	20332.23
517.03	20322.87
517.20	20641.18
517.37	20491.39
517.54	20680.97
517.72	20758.21
517.89	20563.95
518.06	20772.25
518.24	20900.98
518.41	20589.69
518.58	20732.47
518.75	20847.15
518.93	20699.70
519.10	20938.43
519.27	21261.43
519.45	21259.09
519.62	21041.42
519.79	21238.02
519.96	21149.08
520.14	21518.89
520.31	21345.69
520.48	21525.91
520.65	21305.90
520.83	21518.89
521.00	21781.03
521.17	21355.05
521.34	21404.20
521.52	21553.99
521.69	22045.51
521.86	21865.28
522.03	21642.93
522.20	21874.65
522.38	21900.39
522.55	22036.14
522.72	21942.52
522.89	22192.96
523.07	22127.42
523.24	22155.51
523.41	22394.25
523.58	21841.88
523.75	22593.19
523.92	22317.01
524.10	22192.96
524.27	22408.29
524.44	22333.39
524.61	22745.33
524.78	22555.74
524.96	22691.49
525.13	22796.82
525.30	22422.33
525.47	23166.62
525.64	22848.31
525.81	22984.06
525.98	23042.57
526.16	22742.99
526.33	23363.23
526.50	22960.66
526.67	22721.92
526.84	22876.40
527.01	22820.22
527.18	23089.38
527.36	23246.20
527.53	23393.65
527.70	23466.21
527.87	23243.86
528.04	23166.62
528.21	23124.49
528.38	23257.90
528.55	23323.44
528.72	23077.68
528.89	23468.55
529.07	23440.47
529.24	23414.72
529.41	23648.77
529.58	23468.55
529.75	23473.23
529.92	23967.09
530.09	23786.86
530.26	23761.12
530.43	24357.96
530.60	23726.01
530.77	23569.19
530.94	23906.23
531.11	23887.51
531.28	23683.88
531.46	23950.70
531.63	23784.52
531.80	24498.39
531.97	24147.31
532.14	24254.97
532.31	24116.88
532.48	24292.42
532.65	24589.67
532.82	24304.12
532.99	24526.47
533.16	24159.01
533.33	24269.01
533.50	24439.87
533.67	24556.90
533.84	24594.35
534.01	24334.55
534.18	24650.52
534.35	24418.81
534.52	24496.05
534.69	24751.17
534.86	24699.67
535.03	24353.27
535.20	24840.11
535.37	24720.74
535.54	24858.83
535.71	24514.77
535.88	24987.56
536.05	25139.69
536.22	24926.71
536.38	25158.42
536.55	24978.20
536.72	25317.57
536.89	24905.64
537.06	25195.87
537.23	25266.08
537.40	25144.38
537.57	25399.49
537.74	25198.21
537.91	25584.40
538.08	25350.34
538.25	25317.57
538.42	25179.48
538.59	25694.40
538.75	25076.50
538.92	25668.66
539.09	25617.16
539.26	25385.45
539.43	25654.61
539.60	25703.76
539.77	25785.68
539.94	25544.61
540.11	25785.68
540.28	25549.29
540.44	25778.66
540.61	25811.43
540.78	25631.21
540.95	25781.00
541.12	25638.23
541.29	25869.94
541.46	26024.42
541.62	26225.70
541.79	25797.38
541.96	25755.26
542.13	26047.82
542.30	25968.24
542.47	26380.18
542.63	26185.91
542.80	26520.61
542.97	26555.72
543.14	26492.52
543.31	26574.44
543.48	26464.44
543.64	26288.90
543.81	26604.87
543.98	26555.72
544.15	26515.93
544.32	26623.59
544.48	27215.75
544.65	26841.26
544.82	26768.71
544.99	26522.95
545.16	26780.41
545.32	26518.27
545.49	27056.59
545.66	26913.82
545.83	26991.06
546.00	27166.60
546.16	27087.02
546.33	26897.44
546.50	26806.16
546.67	26932.54
546.83	26717.22
547.00	27166.60
547.17	27285.97
547.34	27098.72
547.50	27332.78
547.67	27171.28
547.84	27143.19
548.00	27166.60
548.17	27143.19
548.34	27690.88
548.51	27379.59
548.67	27260.22
548.84	26934.88
549.01	27103.40
549.18	27363.20
549.34	27180.64
549.51	27410.01
549.68	27611.30
549.84	27180.64
550.01	27412.35
550.18	27810.25
550.34	27655.77
550.51	27571.51
550.68	27903.87
550.84	27349.16
551.01	27597.26
551.18	27667.47
551.34	27557.47
551.51	27697.90
551.68	27805.56
551.84	28020.89
552.01	27779.82
552.18	28123.88
552.34	27838.33
552.51	27962.38
552.68	28161.33
552.84	28011.53
553.01	28060.68
553.18	27723.65
553.34	28364.95
553.51	28025.57
553.67	28011.53
553.84	28336.87
554.01	28503.04
554.17	28266.65
554.34	28140.26
554.51	28329.84
554.67	28404.74
554.84	28409.42
555.00	28182.39
555.17	28231.54
555.33	28496.02
555.50	28547.51
555.67	28257.29
555.83	28678.58
556.00	28128.56
556.16	28360.27
556.33	28451.55
556.50	28442.19
556.66	28622.41
556.83	28591.98
556.99	28882.21
557.16	28680.92
557.32	28725.39
557.49	29078.82
557.65	28341.55
557.82	28676.24
557.98	28779.23
558.15	28961.79
558.32	28549.85
558.48	28652.84
558.65	28816.68
558.81	29010.94
558.98	28964.13
559.14	28917.32
559.31	28617.73
559.47	28524.11
559.64	28830.72
559.80	28793.27
559.97	29036.69
560.13	28929.02
560.30	29020.30
560.46	29181.80
560.63	28687.95
560.79	28727.74
560.96	29001.58
561.12	29240.31
561.29	29048.39
561.45	29010.94
561.61	28940.72
561.78	29181.80
561.94	28971.15
562.11	29088.18
562.27	29237.97
562.44	29127.97
562.60	29137.33
562.77	29221.59
562.93	28886.89
563.10	29301.17
563.26	28893.91
563.42	29357.34
563.59	28926.68
563.75	28694.97
563.92	29289.46
564.08	29331.59
564.24	29326.91
564.41	29504.79
564.57	29083.50
564.74	29418.19
564.90	29575.01
565.07	29060.09
565.23	29425.22
565.39	29563.31
565.56	29139.67
565.72	29652.25
565.88	29078.82
566.05	29071.79
566.21	29095.20
566.38	29401.81
566.54	29586.71
566.70	29336.27
566.87	29912.05
567.03	29633.52
567.19	30010.35
567.36	29626.50
567.52	29207.55
567.68	29294.14
567.85	29694.38
568.01	29551.60
568.17	29291.80
568.34	29420.53
568.50	29717.78
568.66	29624.16
568.83	30045.46
568.99	29408.83
569.15	29577.35
569.32	29453.30
569.48	29345.64
569.64	29923.75
569.81	30015.03
569.97	30075.88
570.13	29509.47
570.30	29989.28
570.46	29890.98
570.62	29614.80
570.78	29219.25
570.95	29523.52
571.11	29575.01
571.27	29191.16
571.43	29642.88
571.60	29734.17
571.76	29411.17
571.92	29769.27
572.09	29738.85
572.25	30136.74
572.41	29692.04
572.57	29495.43
572.74	29963.54
572.90	29549.26
573.06	29537.56
573.22	29722.46
573.38	29624.16
573.55	29954.18
573.71	30167.16
573.87	30012.69
574.03	29752.89
574.20	29813.74
574.36	29804.38
574.52	29757.57
574.68	29572.67
574.84	29830.13
575.01	30059.50
575.17	29795.02
575.33	29874.60
575.49	29708.42
575.65	29834.81
575.82	30164.82
575.98	29991.62
576.14	30171.85
576.30	30099.29
576.46	29546.92
576.62	29785.66
576.79	29961.20
576.95	30000.99
577.11	29996.31
577.27	30391.86
577.43	30328.66
577.59	29909.71
577.75	29865.24
577.92	29839.49
578.08	29759.91
578.24	29977.58
578.40	29975.24
578.56	29879.28
578.72	29937.79
578.88	30176.53
579.04	30391.86
579.21	30139.08
579.37	29944.81
579.53	30249.08
579.69	29839.49
579.85	29930.77
580.01	30064.18
580.17	29717.78
580.33	30050.14
580.49	30040.78
580.65	29713.10
580.82	30143.76
580.98	30230.36
581.14	30267.81
581.30	30417.60
581.46	29914.39
581.62	30143.76
581.78	29537.56
581.94	30143.76
582.10	30277.17
582.26	30176.53
582.42	29736.51
582.58	30291.21
582.74	30256.11
582.90	30012.69
583.06	30377.81
583.22	29645.23
583.38	30279.51
583.54	29862.90
583.70	30066.52
583.86	30003.33
584.02	30136.74
584.18	29984.60
584.34	30274.83
584.50	30181.21
584.66	30087.59
584.82	29975.24
584.98	30099.29
585.14	30235.04
585.30	29790.34
585.46	30298.23
585.62	30141.42
585.78	30349.73
585.94	29968.22
586.10	30022.05
586.26	30174.19
586.42	30185.89
586.58	30309.94
586.74	30064.18
586.90	30017.37
587.06	30022.05
587.22	30129.72
587.38	29926.09
587.54	30286.53
587.70	30419.94
587.86	30197.59
588.02	30595.48
588.18	30679.74
588.34	30345.05
588.49	30190.57
588.65	29991.62
588.81	30040.78
588.97	30541.65
589.13	30188.23
589.29	30373.13
589.45	30534.63
589.61	30387.18
589.77	30670.38
589.93	30078.22
590.08	30501.86
590.24	30305.26
590.40	30822.51
590.56	30649.32
590.72	30588.46
590.88	30558.03
591.04	30614.21
591.20	30389.52
591.35	30567.40
591.51	31014.44
591.67	30705.49
591.83	30925.50
591.99	30801.45
