SpectraSuite Data File
++++++++++++++++++++++++++++++++++++
Date: Fri Oct 18 13:58:21 GMT-05:00 2013
User: bianchi
Dark Spectrum Present: No
Reference Spectrum Present: No
Number of Sampled Component Spectra: 1
Spectrometers: USB2+H05261
Integration Time (usec): 50000 (USB2+H05261)
Spectra Averaged: 1 (USB2+H05261)
Boxcar Smoothing: 0 (USB2+H05261)
Correct for Electrical Dark: No (USB2+H05261)
Strobe/Lamp Enabled: No (USB2+H05261)
Correct for Detector Non-linearity: No (USB2+H05261)
Correct for Stray Light: No (USB2+H05261)
Number of Pixels in Processed Spectrum: 2048
>>>>>Begin Processed Spectral Data<<<<<
365.73	0.00
365.92	0.00
366.12	0.00
366.32	0.00
366.52	0.00
366.72	0.00
366.91	0.00
367.11	0.00
367.31	0.00
367.51	0.00
367.70	0.00
367.90	0.00
368.10	0.00
368.30	0.00
368.49	0.00
368.69	0.00
368.89	0.00
369.09	0.00
369.28	0.00
369.48	0.00
369.68	0.00
369.87	0.00
370.07	0.00
370.27	0.00
370.47	0.00
370.66	74.90
370.86	60.85
371.06	102.98
371.25	107.66
371.45	121.71
371.65	140.43
371.84	119.37
372.04	212.99
372.24	210.65
372.44	124.05
372.63	133.41
372.83	227.03
373.03	248.10
373.22	173.20
373.42	220.01
373.62	220.01
373.81	234.05
374.01	173.20
374.21	215.33
374.40	222.35
374.60	203.63
374.79	269.16
374.99	208.31
375.19	269.16
375.38	224.69
375.58	238.73
375.78	241.08
375.97	266.82
376.17	191.92
376.37	285.55
376.56	264.48
376.76	330.02
376.95	255.12
377.15	208.31
377.35	227.03
377.54	248.10
377.74	196.60
377.93	236.39
378.13	334.70
378.33	273.84
378.52	269.16
378.72	205.97
378.91	299.59
379.11	311.29
379.31	255.12
379.50	313.63
379.70	257.46
379.89	322.99
380.09	234.05
380.28	215.33
380.48	262.14
380.68	297.25
380.87	236.39
381.07	330.02
381.26	257.46
381.46	301.93
381.65	327.68
381.85	348.74
382.04	337.04
382.24	327.68
382.43	334.70
382.63	348.74
382.83	374.49
383.02	379.17
383.22	386.19
383.41	250.44
383.61	402.57
383.80	360.44
384.00	301.93
384.19	355.76
384.39	358.10
384.58	367.46
384.78	362.78
384.97	304.27
385.17	330.02
385.36	386.19
385.56	383.85
385.75	402.57
385.95	360.44
386.14	463.43
386.34	379.17
386.53	475.13
386.72	386.19
386.92	369.80
387.11	468.11
387.31	475.13
387.50	428.32
387.70	374.49
387.89	437.68
388.09	386.19
388.28	484.49
388.48	451.72
388.67	397.89
388.86	428.32
389.06	454.06
389.25	376.83
389.45	423.64
389.64	428.32
389.84	505.56
390.03	503.22
390.22	486.83
390.42	496.19
390.61	409.59
390.81	463.43
391.00	498.53
391.19	482.15
391.39	421.30
391.58	510.24
391.78	475.13
391.97	531.30
392.16	477.47
392.36	500.87
392.55	500.87
392.75	477.47
392.94	489.17
393.13	568.75
393.33	512.58
393.52	489.17
393.71	582.79
393.91	557.05
394.10	533.64
394.29	613.22
394.49	589.82
394.68	617.90
394.88	547.69
395.07	606.20
395.26	660.03
395.46	601.52
395.65	564.07
395.84	617.90
396.04	629.60
396.23	566.41
396.42	566.41
396.62	573.43
396.81	617.90
397.00	657.69
397.19	697.48
397.39	645.99
397.58	692.80
397.77	613.22
397.97	650.67
398.16	641.31
398.35	741.95
398.55	657.69
398.74	699.82
398.93	667.05
399.12	739.61
399.32	643.65
399.51	816.85
399.70	720.88
399.90	774.72
400.09	744.29
400.28	737.27
400.47	737.27
400.67	718.54
400.86	746.63
401.05	720.88
401.24	777.06
401.44	744.29
401.63	751.31
401.82	823.87
402.01	758.33
402.21	748.97
402.40	861.32
402.59	826.21
402.78	828.55
402.97	842.59
403.17	849.61
403.36	931.53
403.55	772.38
403.74	863.66
403.93	880.04
404.13	903.45
404.32	889.40
404.51	880.04
404.70	905.79
404.89	884.72
405.09	933.87
405.28	915.15
405.47	891.74
405.66	987.71
405.85	999.41
406.05	985.37
406.24	947.92
406.43	1011.11
406.62	1043.88
406.81	1064.94
407.00	856.64
407.20	1020.47
407.39	1018.13
407.58	1104.73
407.77	1020.47
407.96	943.24
408.15	1111.75
408.34	1081.33
408.54	1071.97
408.73	1088.35
408.92	1060.26
409.11	1090.69
409.30	1086.01
409.49	1198.35
409.68	1181.97
409.87	1191.33
410.07	1170.27
410.26	1160.91
410.45	1177.29
410.64	1181.97
410.83	1163.25
411.02	1217.08
411.21	1273.25
411.40	1322.40
411.59	1306.02
411.78	1245.16
411.98	1289.64
412.17	1287.29
412.36	1296.66
412.55	1324.74
412.74	1249.85
412.93	1291.98
413.12	1317.72
413.31	1385.60
413.50	1409.00
413.69	1392.62
413.88	1394.96
414.07	1401.98
414.26	1390.28
414.45	1416.02
414.64	1476.88
414.83	1521.35
415.02	1502.62
415.22	1540.07
415.41	1523.69
415.60	1507.30
415.79	1582.20
415.98	1526.03
416.17	1591.56
416.36	1598.59
416.55	1659.44
416.74	1521.35
416.93	1621.99
417.12	1668.80
417.31	1631.35
417.50	1645.40
417.69	1668.80
417.88	1645.40
418.07	1619.65
418.26	1661.78
418.45	1724.97
418.64	1757.74
418.83	1790.51
419.02	1792.85
419.21	1790.51
419.39	1755.40
419.58	1837.32
419.77	1760.08
419.96	1753.06
420.15	1919.24
420.34	1785.83
420.53	1872.43
420.72	1881.79
420.91	1893.49
421.10	1771.79
421.29	1806.89
421.48	1898.17
421.67	2005.84
421.86	1895.83
422.05	1912.22
422.24	1956.69
422.43	1968.39
422.61	1816.26
422.80	1987.11
422.99	2047.97
423.18	1956.69
423.37	1982.43
423.56	2008.18
423.75	2111.16
423.94	1984.77
424.13	1860.73
424.32	1816.26
424.50	2062.01
424.69	2059.67
424.88	2143.93
425.07	1989.46
425.26	2043.29
425.45	1919.24
425.64	1867.75
425.83	2012.86
426.01	2064.35
426.20	2019.88
426.39	2125.21
426.58	2022.22
426.77	2008.18
426.96	2078.40
427.15	2127.55
427.33	2094.78
427.52	2085.42
427.71	2176.70
427.90	2174.36
428.09	2157.97
428.28	2176.70
428.46	2136.91
428.65	2244.57
428.84	2132.23
429.03	2282.02
429.22	2139.25
429.40	2230.53
429.59	2190.74
429.78	1933.28
429.97	2167.34
430.16	2251.60
430.34	2211.81
430.53	2258.62
430.72	2260.96
430.91	2195.42
431.10	2235.21
431.28	2244.57
431.47	2363.94
431.66	2392.03
431.85	2338.20
432.03	2424.80
432.22	2546.50
432.41	2321.81
432.60	2417.77
432.79	2349.90
432.97	2438.84
433.16	2476.29
433.35	2333.51
433.54	2401.39
433.72	2469.27
433.91	2455.22
434.10	2506.71
434.28	2623.74
434.47	2492.67
434.66	2574.59
434.85	2619.06
435.03	2513.74
435.22	2572.25
435.41	2644.81
435.59	2569.91
435.78	2719.70
435.97	2682.25
436.16	2593.31
436.34	2682.25
436.53	2579.27
436.72	2722.04
436.90	2682.25
437.09	2752.47
437.28	2726.72
437.46	2703.32
437.65	2705.66
437.84	2827.37
438.02	2789.92
438.21	2750.13
438.40	2668.21
438.58	2829.71
438.77	2862.48
438.96	2705.66
439.14	2902.26
439.33	2855.45
439.52	2967.80
439.70	3012.27
439.89	3054.40
440.08	3005.25
440.26	2967.80
440.45	2979.50
440.63	3063.76
440.82	3119.93
441.01	3023.97
441.19	3026.31
441.38	3197.17
441.57	3197.17
441.75	3269.73
441.94	3258.03
442.12	3211.22
442.31	3379.73
442.50	3262.71
442.68	3180.79
442.87	3304.84
443.05	3396.12
443.24	3283.77
443.43	3330.58
443.61	3499.10
443.80	3414.84
443.98	3314.20
444.17	3283.77
444.35	3417.18
444.54	3372.71
444.73	3358.67
444.91	3194.83
445.10	3372.71
445.28	3375.05
445.47	3426.54
445.65	3428.88
445.84	3482.72
446.02	3461.65
446.21	3480.38
446.39	3405.48
446.58	3655.92
446.77	3487.40
446.95	3590.38
447.14	3478.04
447.32	3588.04
447.51	3529.53
447.69	3454.63
447.88	3475.70
448.06	3562.30
448.25	3506.12
448.43	3403.14
448.62	3578.68
448.80	3513.14
448.99	3595.06
449.17	3527.19
449.36	3339.94
449.54	3557.61
449.73	3623.15
449.91	3679.32
450.10	3634.85
450.28	3749.54
450.46	3765.92
450.65	3789.33
450.83	3684.00
451.02	3768.26
451.20	3817.41
451.39	3691.02
451.57	3740.18
451.76	3784.65
451.94	3749.54
452.13	3719.11
452.31	3810.39
452.49	3644.21
452.68	3822.09
452.86	3831.46
453.05	3805.71
453.23	3864.22
453.42	3911.04
453.60	3906.35
453.78	3908.69
453.97	3894.65
454.15	3901.67
454.34	3836.14
454.52	3833.80
454.70	3995.29
454.89	3960.19
455.07	3957.85
455.26	4126.36
455.44	4102.96
455.62	4112.32
455.81	4084.23
455.99	4021.04
456.17	4004.66
456.36	3962.53
456.54	4219.99
456.73	4208.28
456.91	4175.52
457.09	4203.60
457.28	4325.31
457.46	4365.10
457.64	4360.42
457.83	4311.27
458.01	4315.95
458.19	4332.33
458.38	4259.78
458.56	4388.50
458.74	4402.55
458.93	4383.82
459.11	4278.50
459.29	4322.97
459.48	4535.96
459.66	4383.82
459.84	4479.79
460.03	4456.38
460.21	4545.32
460.39	4528.94
460.57	4507.87
460.76	4542.98
460.94	4636.60
461.12	4554.68
461.31	4638.94
461.49	4655.33
461.67	4610.86
461.85	4542.98
462.04	4760.65
462.22	4655.33
462.40	4702.14
462.59	4713.84
462.77	4718.52
462.95	4636.60
463.13	4737.24
463.32	4777.03
463.50	4854.27
463.68	4908.10
463.86	4844.91
464.05	4645.96
464.23	4880.02
464.41	4903.42
464.59	4779.37
464.78	4882.36
464.96	4798.10
465.14	4816.82
465.32	4980.66
465.50	4868.31
465.69	4798.10
465.87	4830.87
466.05	4889.38
466.23	4840.23
466.41	5001.72
466.60	5158.54
466.78	4987.68
466.96	4947.89
467.14	5015.77
467.32	5172.58
467.51	5018.11
467.69	4999.38
467.87	5238.12
468.05	5060.24
468.23	5109.39
468.41	5123.43
468.60	5259.18
468.78	5350.46
468.96	5139.82
469.14	5310.68
469.32	5217.05
469.50	5193.65
469.69	5294.29
469.87	5387.91
470.05	5329.40
470.23	5448.77
470.41	5437.06
470.59	5425.36
470.77	5210.03
470.95	5486.22
471.14	5593.88
471.32	5453.45
471.50	5617.29
471.68	5544.73
471.86	5600.90
472.04	5561.11
472.22	5762.40
472.40	5348.12
472.58	5551.75
472.77	5650.05
472.95	5865.38
473.13	5809.21
473.31	5727.29
473.49	6003.47
473.67	5687.50
473.85	5856.02
474.03	6019.86
474.21	5867.72
474.39	6115.82
474.57	6052.63
474.75	6026.88
474.93	6047.94
475.12	6202.42
475.30	6087.73
475.48	5940.28
475.66	6010.50
475.84	6246.89
476.02	6270.30
476.20	6263.27
476.38	6267.95
476.56	6387.32
476.74	6516.05
476.92	6506.69
477.10	6513.71
477.28	6677.55
477.46	6663.51
477.64	6637.76
477.82	6696.27
478.00	6752.45
478.18	6717.34
478.36	6803.94
478.54	6974.80
478.72	7073.10
478.90	7026.29
479.08	7101.19
479.26	7185.44
479.44	7204.17
479.62	7440.56
479.80	7344.60
479.98	7541.21
480.16	7557.59
480.34	7531.84
480.52	7466.31
480.70	7625.47
480.88	7494.40
481.06	7679.30
481.24	7501.42
481.41	7786.96
481.59	7878.24
481.77	7889.95
481.95	7981.23
482.13	8023.36
482.31	8013.99
482.49	8215.28
482.67	8098.25
482.85	8430.61
483.03	8236.35
483.21	8386.14
483.39	8524.23
483.57	8568.70
483.74	8414.23
483.92	8627.21
484.10	8645.94
484.28	8823.82
484.46	8940.85
484.64	9053.19
484.82	8964.25
485.00	8861.27
485.18	9231.07
485.35	9247.46
485.53	9329.38
485.71	9692.16
485.89	9579.81
486.07	9338.74
486.25	9369.16
486.43	9713.22
486.61	9476.83
486.78	9743.65
486.96	9870.04
487.14	9879.40
487.32	10047.92
487.50	10087.71
487.68	10052.60
487.85	10293.68
488.03	10293.68
488.21	10672.84
488.39	10546.45
488.57	10399.00
488.75	10672.84
488.92	10768.80
489.10	10642.42
489.28	10740.72
489.46	10785.19
489.64	11124.57
489.81	11159.67
489.99	11215.85
490.17	11002.86
490.35	11506.07
490.53	11375.00
490.70	11492.03
490.88	11634.80
491.06	11763.53
491.24	11499.05
491.41	11595.01
491.59	11812.68
491.77	11817.36
491.95	11873.54
492.13	12159.08
492.30	11915.67
492.48	12304.20
492.66	12226.96
492.84	12184.83
493.01	12322.92
493.19	12496.12
493.37	12634.21
493.54	12601.44
493.72	12699.75
493.90	12575.70
494.08	12664.64
494.25	12931.46
494.43	13064.87
494.61	13055.51
494.79	13282.54
494.96	13149.13
495.14	13439.36
495.32	13217.01
495.49	13586.81
495.67	13521.27
495.85	13652.34
496.02	13757.67
496.20	13729.58
496.38	13832.57
496.55	14193.01
496.73	14237.48
496.91	13872.36
497.09	14113.43
497.26	13970.66
497.44	14113.43
497.62	14401.32
497.79	14384.93
497.97	14279.61
498.14	14490.26
498.32	14469.19
498.50	14747.72
498.67	14670.48
498.85	14941.98
499.03	14958.36
499.20	15000.49
499.38	14796.87
499.56	15119.86
499.73	15147.95
499.91	15152.63
500.08	15204.12
500.26	15103.48
500.44	15185.40
500.61	15257.95
500.79	15241.57
500.97	15564.56
501.14	15543.50
501.32	15730.74
501.49	15506.05
501.67	15367.96
501.84	15978.84
502.02	15831.38
502.20	15583.29
502.37	15983.52
502.55	15927.35
502.72	16081.82
502.90	16088.84
503.07	16081.82
503.25	16128.63
503.43	16271.40
503.60	16262.04
503.78	16318.22
503.95	16439.92
504.13	16500.78
504.30	16339.28
504.48	16390.77
504.65	16379.07
504.83	16765.26
505.01	16975.91
505.18	16573.33
505.36	17179.53
505.53	16985.27
505.71	16886.97
505.88	16851.86
506.06	16826.11
506.23	17088.25
506.41	17226.34
506.58	17247.41
506.76	17160.81
506.93	17406.56
507.11	17324.65
507.28	17184.21
507.46	17769.35
507.63	17626.57
507.81	17266.13
507.98	17350.39
508.16	17813.82
508.33	17556.36
508.50	17916.80
508.68	17886.37
508.85	18164.90
509.03	17888.71
509.20	17848.93
509.38	18033.83
509.55	18061.91
509.73	18155.54
509.90	18003.40
510.08	18317.03
510.25	18223.41
510.42	18441.08
510.60	18647.05
510.77	18677.48
510.95	18707.90
511.12	18277.24
511.30	18506.62
511.47	18607.26
511.64	18384.91
511.82	18651.73
511.99	18862.38
512.17	18700.88
512.34	18916.21
512.51	19211.12
512.69	19049.62
512.86	18958.34
513.04	18925.57
513.21	19016.85
513.38	19323.46
513.56	19253.25
513.73	19555.18
513.90	19386.66
514.08	19351.55
514.25	19711.99
514.43	19618.37
514.60	19850.08
514.77	19606.67
514.95	19477.94
515.12	19590.28
515.29	19583.26
515.47	19620.71
515.64	19838.38
515.81	19786.89
515.99	20006.90
516.16	20133.29
516.33	20264.36
516.51	20205.84
516.68	20072.43
516.85	20039.67
517.03	20271.38
517.20	20341.60
517.37	20269.04
517.54	20484.37
517.72	20322.87
517.89	20381.38
518.06	20332.23
518.24	20563.95
518.41	20603.74
518.58	20489.05
518.75	20645.87
518.93	20762.89
519.10	20379.04
519.27	20638.84
519.45	20727.78
519.62	20886.94
519.79	20842.47
519.96	20851.83
520.14	20975.88
520.31	21053.12
520.48	21137.38
520.65	20961.84
520.83	21069.50
521.00	21153.76
521.17	21120.99
521.34	21303.56
521.52	21425.26
521.69	21252.06
521.86	21844.22
522.03	21228.66
522.20	21823.16
522.38	21525.91
522.55	21542.29
522.72	21703.79
522.89	21741.24
523.07	21865.28
523.24	21982.31
523.41	22169.55
523.58	22171.89
523.75	21624.21
523.92	21963.59
524.10	22080.61
524.27	21979.97
524.44	22317.01
524.61	22228.07
524.78	22214.02
524.96	22265.52
525.13	22342.75
525.30	22288.92
525.47	22427.01
525.64	22352.12
525.81	22649.36
525.98	22281.90
526.16	22354.46
526.33	22546.38
526.50	22632.98
526.67	22632.98
526.84	22885.76
527.01	22616.60
527.18	22909.16
527.36	22822.56
527.53	22712.56
527.70	23047.26
527.87	23288.33
528.04	22925.55
528.21	22953.63
528.38	22532.34
528.55	22860.01
528.72	23241.52
528.89	23117.47
529.07	23145.56
529.24	23318.76
529.41	23332.80
529.58	23302.37
529.75	23318.76
529.92	23190.03
530.09	23094.07
530.26	23396.00
530.43	23297.69
530.60	23360.89
530.77	23318.76
530.94	23592.60
531.11	23548.13
531.28	23868.78
531.46	23580.90
531.63	23681.54
531.80	23721.33
531.97	23709.63
532.14	24032.62
532.31	23721.33
532.48	23372.59
532.65	23630.05
532.82	23487.28
532.99	23939.00
533.16	23737.71
533.33	24053.69
533.50	24444.56
533.67	24065.39
533.84	23892.19
534.01	24318.17
534.18	23768.14
534.35	24156.67
534.52	24233.91
534.69	24465.62
534.86	24416.47
535.03	24215.18
535.20	24482.00
535.37	24559.24
535.54	24561.58
535.71	24479.66
535.88	24643.50
536.05	24561.58
536.22	24629.46
536.38	24833.08
536.55	24601.37
536.72	24849.47
536.89	24797.98
537.06	24467.96
537.23	24648.18
537.40	25020.33
537.57	24840.11
537.74	25230.98
537.91	25057.78
538.08	25034.37
538.25	24783.93
538.42	24636.48
538.59	25142.03
538.75	24893.94
538.92	24842.45
539.09	25022.67
539.26	25174.80
539.43	25434.60
539.60	25465.03
539.77	25502.48
539.94	25443.96
540.11	25319.92
540.28	24943.09
540.44	25277.79
540.61	25287.15
540.78	25277.79
540.95	25551.63
541.12	25589.08
541.29	25406.52
541.46	25582.06
541.62	25652.27
541.79	25486.09
541.96	25151.40
542.13	25413.54
542.30	25706.10
542.47	25745.89
542.63	25656.95
542.80	25982.29
542.97	26089.95
543.14	26188.25
543.31	25876.96
543.48	25743.55
543.64	25940.16
543.81	26403.58
543.98	26286.56
544.15	26045.48
544.32	26225.70
544.48	26405.92
544.65	26274.85
544.82	26256.13
544.99	25928.45
545.16	26511.25
545.32	26246.77
545.49	26663.38
545.66	26511.25
545.83	26424.65
546.00	26771.05
546.16	26654.02
546.33	26302.94
546.50	25874.62
546.67	26352.09
546.83	26314.64
547.00	26642.32
547.17	26487.84
547.34	26782.75
547.50	26520.61
547.67	27028.51
547.84	27187.66
548.00	26698.49
548.17	26632.96
548.34	26806.16
548.51	27236.81
548.67	27072.98
548.84	26890.41
549.01	27199.37
549.18	27051.91
549.34	26993.40
549.51	26661.04
549.68	26974.67
549.84	26471.46
550.01	27166.60
550.18	27138.51
550.34	26899.78
550.51	27112.77
550.68	27475.55
550.84	26916.16
551.01	27424.06
551.18	27087.02
551.34	26647.00
551.51	27105.74
551.68	27318.73
551.84	27267.24
552.01	27295.33
552.18	27424.06
552.34	27147.87
552.51	27358.52
552.68	27557.47
552.84	27304.69
553.01	27807.90
553.18	27449.80
553.34	27674.49
553.51	27505.98
553.67	27800.88
553.84	27924.93
554.01	27606.62
554.17	28081.75
554.34	27852.38
554.51	27555.13
554.67	27838.33
554.84	27728.33
555.00	27637.05
555.17	27707.26
555.33	27742.37
555.50	27931.95
555.67	27880.46
555.83	27922.59
556.00	27910.89
556.16	28175.37
556.33	27896.85
556.50	27878.12
556.66	28238.56
556.83	28161.33
556.99	28133.24
557.16	28109.83
557.32	28524.11
557.49	28559.22
557.65	27538.74
557.82	27896.85
557.98	28072.39
558.15	28163.67
558.32	28481.98
558.48	28278.35
558.65	28222.18
558.81	28276.01
558.98	28666.88
559.14	28156.64
559.31	28308.78
559.47	28250.27
559.64	28542.83
559.80	28552.20
559.97	28428.15
560.13	28474.96
560.30	28224.52
560.46	28449.21
560.63	28631.77
560.79	28348.57
560.96	28596.67
561.12	28233.88
561.29	28617.73
561.45	28278.35
561.61	28692.63
561.78	28765.18
561.94	28524.11
562.11	28606.03
562.27	28320.48
562.44	28566.24
562.60	28404.74
562.77	28624.75
562.93	28362.61
563.10	28683.27
563.26	28500.70
563.42	28907.96
563.59	28765.18
563.75	28931.36
563.92	28662.20
564.08	28577.94
564.24	28685.61
564.41	28788.59
564.57	28666.88
564.74	28823.70
564.90	28547.51
565.07	28465.60
565.23	28662.20
565.39	28755.82
565.56	28786.25
565.72	28886.89
565.88	28666.88
566.05	28893.91
566.21	28690.29
566.38	28723.05
566.54	28716.03
566.70	28992.22
566.87	29277.76
567.03	29050.73
567.19	29109.24
567.36	29273.08
567.52	28968.81
567.68	28882.21
567.85	28971.15
568.01	29212.23
568.17	28844.76
568.34	28802.63
568.50	28945.41
568.66	29113.92
568.83	29163.08
568.99	29521.18
569.15	29151.37
569.32	28701.99
569.48	29006.26
569.64	29181.80
569.81	29495.43
569.97	28926.68
570.13	29474.37
570.30	29085.84
570.46	28849.44
570.62	29289.46
570.78	29200.52
570.95	28893.91
571.11	29277.76
571.27	28989.88
571.43	28854.12
571.60	29338.62
571.76	28573.26
571.92	29212.23
572.09	29205.20
572.25	29677.99
572.41	29156.05
572.57	29113.92
572.74	29181.80
572.90	28872.85
573.06	29263.72
573.22	29207.55
573.38	29472.03
573.55	29223.93
573.71	29687.36
573.87	29647.57
574.03	29474.37
574.20	29504.79
574.36	29493.09
574.52	29404.15
574.68	29247.33
574.84	29092.86
575.01	29621.82
575.17	29549.26
575.33	29621.82
575.49	29244.99
575.65	29317.55
575.82	29544.58
575.98	29500.11
576.14	29502.45
576.30	29378.40
576.46	29053.07
576.62	29020.30
576.79	29317.55
576.95	29420.53
577.11	29582.03
577.27	29521.18
577.43	29745.87
577.59	29280.10
577.75	29432.24
577.92	29111.58
578.08	29139.67
578.24	29535.22
578.40	29235.63
578.56	29296.49
578.72	29312.87
578.88	29612.46
579.04	29528.20
579.21	29432.24
579.37	29668.63
579.53	29642.88
579.69	29151.37
579.85	29343.30
580.01	29305.85
580.17	29184.14
580.33	29542.24
580.49	29366.70
580.65	29771.61
580.82	29830.13
580.98	29862.90
581.14	29380.74
581.30	29509.47
581.46	29364.36
581.62	29486.07
581.78	29153.71
581.94	29448.62
582.10	29727.14
582.26	29521.18
582.42	29247.33
582.58	29638.20
582.74	29425.22
582.90	29694.38
583.06	29717.78
583.22	29284.78
583.38	29146.69
583.54	29530.54
583.70	29188.82
583.86	29280.10
584.02	29546.92
584.18	29823.11
584.34	29968.22
584.50	29963.54
584.66	29507.13
584.82	29626.50
584.98	29584.37
585.14	30012.69
585.30	29102.22
585.46	29277.76
585.62	29467.34
585.78	29598.41
585.94	29315.21
586.10	29582.03
586.26	29593.73
586.42	29862.90
586.58	29708.42
586.74	29813.74
586.90	29062.43
587.06	29479.05
587.22	29666.29
587.38	29436.92
587.54	29769.27
587.70	29919.07
587.86	29193.50
588.02	29876.94
588.18	29811.40
588.34	29759.91
588.49	29579.69
588.65	29656.93
588.81	29404.15
588.97	29919.07
589.13	29685.01
589.29	29603.10
589.45	29551.60
589.61	29802.04
589.77	30054.82
589.93	29923.75
590.08	30141.42
590.24	30244.40
590.40	30066.52
590.56	29748.21
590.72	29635.86
590.88	30106.31
591.04	29593.73
591.20	30401.22
591.35	29703.74
591.51	30120.35
591.67	30321.64
591.83	30075.88
591.99	30162.48
