SpectraSuite Data File
++++++++++++++++++++++++++++++++++++
Date: Fri Oct 18 13:58:18 GMT-05:00 2013
User: bianchi
Dark Spectrum Present: No
Reference Spectrum Present: No
Number of Sampled Component Spectra: 1
Spectrometers: USB2+H05261
Integration Time (usec): 50000 (USB2+H05261)
Spectra Averaged: 1 (USB2+H05261)
Boxcar Smoothing: 0 (USB2+H05261)
Correct for Electrical Dark: No (USB2+H05261)
Strobe/Lamp Enabled: No (USB2+H05261)
Correct for Detector Non-linearity: No (USB2+H05261)
Correct for Stray Light: No (USB2+H05261)
Number of Pixels in Processed Spectrum: 2048
>>>>>Begin Processed Spectral Data<<<<<
365.73	0.00
365.92	0.00
366.12	0.00
366.32	0.00
366.52	0.00
366.72	0.00
366.91	0.00
367.11	0.00
367.31	0.00
367.51	0.00
367.70	0.00
367.90	0.00
368.10	0.00
368.30	0.00
368.49	0.00
368.69	0.00
368.89	0.00
369.09	0.00
369.28	0.00
369.48	0.00
369.68	0.00
369.87	0.00
370.07	0.00
370.27	0.00
370.47	0.00
370.66	124.05
370.86	44.47
371.06	79.58
371.25	131.07
371.45	110.01
371.65	175.54
371.84	170.86
372.04	149.79
372.24	152.13
372.44	180.22
372.63	166.18
372.83	203.63
373.03	152.13
373.22	100.64
373.42	138.09
373.62	264.48
373.81	259.80
374.01	330.02
374.21	248.10
374.40	290.23
374.60	241.08
374.79	266.82
374.99	191.92
375.19	161.50
375.38	234.05
375.58	257.46
375.78	304.27
375.97	294.91
376.17	299.59
376.37	198.95
376.56	276.18
376.76	229.37
376.95	201.29
377.15	304.27
377.35	332.36
377.54	299.59
377.74	278.52
377.93	159.16
378.13	184.90
378.33	276.18
378.52	252.78
378.72	210.65
378.91	194.26
379.11	311.29
379.31	210.65
379.50	287.89
379.70	290.23
379.89	252.78
380.09	278.52
380.28	320.65
380.48	297.25
380.68	294.91
380.87	294.91
381.07	294.91
381.26	341.72
381.46	325.33
381.65	276.18
381.85	304.27
382.04	297.25
382.24	285.55
382.43	353.42
382.63	320.65
382.83	318.31
383.02	280.86
383.22	369.80
383.41	386.19
383.61	369.80
383.80	337.04
384.00	325.33
384.19	297.25
384.39	404.91
384.58	451.72
384.78	341.72
384.97	351.08
385.17	362.78
385.36	351.08
385.56	365.12
385.75	325.33
385.95	423.64
386.14	346.40
386.34	388.53
386.53	425.98
386.72	423.64
386.92	447.04
387.11	447.04
387.31	430.66
387.50	397.89
387.70	444.70
387.89	447.04
388.09	351.08
388.28	360.44
388.48	416.62
388.67	421.30
388.86	393.21
389.06	482.15
389.25	411.93
389.45	409.59
389.64	442.36
389.84	451.72
390.03	512.58
390.22	510.24
390.42	554.71
390.61	521.94
390.81	528.96
391.00	447.04
391.19	512.58
391.39	475.13
391.58	524.28
391.78	440.02
391.97	535.98
392.16	564.07
392.36	589.82
392.55	533.64
392.75	500.87
392.94	514.92
393.13	507.90
393.33	528.96
393.52	535.98
393.71	564.07
393.91	472.79
394.10	545.34
394.29	559.39
394.49	561.73
394.68	627.26
394.88	526.62
395.07	634.29
395.26	564.07
395.46	407.25
395.65	535.98
395.84	559.39
396.04	596.84
396.23	568.75
396.42	641.31
396.62	603.86
396.81	681.10
397.00	648.33
397.19	622.58
397.39	688.12
397.58	669.39
397.77	601.52
397.97	699.82
398.16	645.99
398.35	767.70
398.55	631.94
398.74	709.18
398.93	744.29
399.12	697.48
399.32	671.73
399.51	695.14
399.70	800.46
399.90	711.52
400.09	788.76
400.28	816.85
400.47	788.76
400.67	711.52
400.86	737.27
401.05	709.18
401.24	772.38
401.44	767.70
401.63	770.04
401.82	770.04
402.01	819.19
402.21	723.23
402.40	800.46
402.59	823.87
402.78	877.70
402.97	800.46
403.17	851.96
403.36	917.49
403.55	835.57
403.74	961.96
403.93	884.72
404.13	884.72
404.32	957.28
404.51	887.06
404.70	926.85
404.89	858.98
405.09	1001.75
405.28	985.37
405.47	896.43
405.66	976.00
405.85	926.85
406.05	903.45
406.24	994.73
406.43	1074.31
406.62	973.66
406.81	1011.11
407.00	966.64
407.20	973.66
407.39	1039.20
407.58	1083.67
407.77	940.90
407.96	1078.99
408.15	1088.35
408.34	1041.54
408.54	1069.62
408.73	1144.52
408.92	1067.28
409.11	1118.78
409.30	1107.07
409.49	1156.22
409.68	1172.61
409.87	1163.25
410.07	1097.71
410.26	1111.75
410.45	1114.10
410.64	1210.06
410.83	1224.10
411.02	1210.06
411.21	1210.06
411.40	1327.08
411.59	1130.48
411.78	1172.61
411.98	1221.76
412.17	1270.91
412.36	1289.64
412.55	1289.64
412.74	1376.24
412.93	1430.07
413.12	1193.67
413.31	1387.94
413.50	1350.49
413.69	1387.94
413.88	1394.96
414.07	1483.90
414.26	1432.41
414.45	1467.52
414.64	1413.68
414.83	1488.58
415.02	1535.39
415.22	1526.03
415.41	1458.15
415.60	1582.20
415.79	1481.56
415.98	1572.84
416.17	1549.43
416.36	1652.42
416.55	1605.61
416.74	1671.14
416.93	1757.74
417.12	1629.01
417.31	1652.42
417.50	1657.10
417.69	1650.08
417.88	1788.17
418.07	1664.12
418.26	1736.68
418.45	1710.93
418.64	1736.68
418.83	1799.87
419.02	1760.08
419.21	1795.19
419.39	1870.09
419.58	1720.29
419.77	1823.28
419.96	1849.02
420.15	1827.96
420.34	1748.38
420.53	1853.70
420.72	1912.22
420.91	1858.39
421.10	1870.09
421.29	2043.29
421.48	1959.03
421.67	1954.35
421.86	1879.45
422.05	1987.11
422.24	2005.84
422.43	1968.39
422.61	1942.64
422.80	1968.39
422.99	2033.93
423.18	1973.07
423.37	2003.50
423.56	1914.56
423.75	1975.41
423.94	1823.28
424.13	1877.11
424.32	1916.90
424.50	2031.58
424.69	2097.12
424.88	2033.93
425.07	1998.82
425.26	2024.56
425.45	2052.65
425.64	1975.41
425.83	2005.84
426.01	2069.03
426.20	1933.28
426.39	1998.82
426.58	2064.35
426.77	2087.76
426.96	2090.10
427.15	2045.63
427.33	2062.01
427.52	2122.87
427.71	2059.67
427.90	2073.71
428.09	2289.04
428.28	2134.57
428.46	2106.48
428.65	2038.61
428.84	2181.38
429.03	2284.36
429.22	2174.36
429.40	2293.72
429.59	2263.30
429.78	2216.49
429.97	2139.25
430.16	2174.36
430.34	2223.51
430.53	2286.70
430.72	2310.11
430.91	2291.38
431.10	2251.60
431.28	2303.09
431.47	2321.81
431.66	2345.22
431.85	2303.09
432.03	2480.97
432.22	2443.52
432.41	2410.75
432.60	2518.42
432.79	2352.24
432.97	2356.92
433.16	2576.93
433.35	2448.20
433.54	2462.24
433.72	2466.92
433.91	2555.86
434.10	2569.91
434.28	2434.16
434.47	2485.65
434.66	2637.78
434.85	2579.27
435.03	2593.31
435.22	2537.14
435.41	2602.68
435.59	2644.81
435.78	2612.04
435.97	2471.61
436.16	2518.42
436.34	2628.42
436.53	2654.17
436.72	2700.98
436.90	2607.36
437.09	2654.17
437.28	2600.34
437.46	2724.38
437.65	2803.96
437.84	2857.79
438.02	2771.19
438.21	2885.88
438.40	2719.70
438.58	2846.09
438.77	2862.48
438.96	2951.42
439.14	2874.18
439.33	2963.12
439.52	2902.26
439.70	2888.22
439.89	3042.70
440.08	3038.02
440.26	3038.02
440.45	3021.63
440.63	3047.38
440.82	3052.06
441.01	3014.61
441.19	3133.98
441.38	3176.11
441.57	3145.68
441.75	3164.40
441.94	3309.52
442.12	3323.56
442.31	3213.56
442.50	3248.66
442.68	3243.98
442.87	3183.13
443.05	3335.26
443.24	3314.20
443.43	3283.77
443.61	3496.76
443.80	3391.44
443.98	3447.61
444.17	3246.32
444.35	3332.92
444.54	3318.88
444.73	3531.87
444.91	3438.25
445.10	3342.28
445.28	3400.80
445.47	3295.47
445.65	3220.58
445.84	3412.50
446.02	3475.70
446.21	3349.31
446.39	3314.20
446.58	3480.38
446.77	3435.91
446.95	3456.97
447.14	3445.27
447.32	3588.04
447.51	3375.05
447.69	3353.99
447.88	3487.40
448.06	3559.95
448.25	3426.54
448.43	3466.33
448.62	3447.61
448.80	3410.16
448.99	3482.72
449.17	3536.55
449.36	3541.23
449.54	3646.55
449.73	3674.64
449.91	3662.94
450.10	3651.24
450.28	3705.07
450.46	3613.79
450.65	3672.30
450.83	3602.08
451.02	3826.78
451.20	3824.44
451.39	3721.45
451.57	3712.09
451.76	3662.94
451.94	3868.91
452.13	3925.08
452.31	3798.69
452.49	3658.26
452.68	3779.97
452.86	3819.75
453.05	3927.42
453.23	3878.27
453.42	3822.09
453.60	3744.86
453.78	3904.01
453.97	3871.25
454.15	3901.67
454.34	3983.59
454.52	4128.70
454.70	3822.09
454.89	4032.74
455.07	3962.53
455.26	4063.17
455.44	4035.08
455.62	4046.79
455.81	3983.59
455.99	4215.30
456.17	4023.38
456.36	4081.89
456.54	4177.86
456.73	4259.78
456.91	4227.01
457.09	4086.58
457.28	4170.83
457.46	4173.18
457.64	4259.78
457.83	4432.97
458.01	4203.60
458.19	4262.12
458.38	4367.44
458.56	4491.49
458.74	4421.27
458.93	4374.46
459.11	4369.78
459.29	4311.27
459.48	4425.95
459.66	4463.40
459.84	4440.00
460.03	4589.79
460.21	4564.04
460.39	4409.57
460.57	4435.32
460.76	4313.61
460.94	4557.02
461.12	4545.32
461.31	4599.15
461.49	4423.61
461.67	4557.02
461.85	4716.18
462.04	4636.60
462.22	4926.83
462.40	4648.30
462.59	4730.22
462.77	4638.94
462.95	4737.24
463.13	4622.56
463.32	4791.08
463.50	4819.16
463.68	4755.97
463.86	4720.86
464.05	4732.56
464.23	4795.76
464.41	4847.25
464.59	4765.33
464.78	4835.55
464.96	4954.91
465.14	4779.37
465.32	4950.23
465.50	5095.35
465.69	4863.63
465.87	4800.44
466.05	4929.17
466.23	4908.10
466.41	5027.47
466.60	5137.48
466.78	4990.02
466.96	5067.26
467.14	5057.90
467.32	5060.24
467.51	5118.75
467.69	4975.98
467.87	5128.11
468.05	5160.88
468.23	5006.41
468.41	5064.92
468.60	5090.67
468.78	5165.56
468.96	5156.20
469.14	5263.86
469.32	5296.63
469.50	5022.79
469.69	5287.27
469.87	5423.02
470.05	5348.12
470.23	5357.49
470.41	5296.63
470.59	5408.98
470.77	5561.11
470.95	5287.27
471.14	5526.00
471.32	5434.72
471.50	5504.94
471.68	5453.45
471.86	5628.99
472.04	5572.82
472.22	5619.63
472.40	5469.83
472.58	5715.59
472.77	5717.93
472.95	5734.31
473.13	5984.75
473.31	5713.25
473.49	5757.72
473.67	5905.17
473.85	5715.59
474.03	6054.97
474.21	5849.00
474.39	5963.68
474.57	6003.47
474.75	6094.76
474.93	6127.52
475.12	6099.44
475.30	6064.33
475.48	6010.50
475.66	6113.48
475.84	6183.70
476.02	6333.49
476.20	6354.55
476.38	6284.34
476.56	6356.90
476.74	6448.18
476.92	6494.99
477.10	6370.94
477.28	6740.74
477.46	6471.58
477.64	6637.76
477.82	6539.46
478.00	6817.98
478.18	6871.81
478.36	7045.01
478.54	7045.01
478.72	7215.87
478.90	7082.46
479.08	7124.59
479.26	7016.93
479.44	7211.19
479.62	7101.19
479.80	7323.54
479.98	7283.75
480.16	7527.16
480.34	7365.67
480.52	7564.61
480.70	7634.83
480.88	7400.77
481.06	7662.91
481.24	7541.21
481.41	7529.50
481.59	7824.41
481.77	7892.29
481.95	7978.89
482.13	8032.72
482.31	7964.84
482.49	8212.94
482.67	8149.75
482.85	8311.24
483.03	8336.99
483.21	8468.06
483.39	8507.85
483.57	8446.99
483.74	8755.94
483.92	8760.63
484.10	8451.67
484.28	8828.50
484.46	8887.01
484.64	9153.84
484.82	8772.33
485.00	8823.82
485.18	9011.06
485.35	9394.91
485.53	9221.71
485.71	9336.40
485.89	9432.36
486.07	9366.82
486.25	9544.70
486.43	9570.45
486.61	9488.53
486.78	9818.55
486.96	9675.77
487.14	9874.72
487.32	9937.91
487.50	10136.86
487.68	10221.12
487.85	10139.20
488.03	10455.17
488.21	10616.67
488.39	10403.68
488.57	10478.58
488.75	10576.88
488.92	10623.69
489.10	10740.72
489.28	10843.70
489.46	11094.14
489.64	10839.02
489.81	11377.34
489.99	11033.29
490.17	11143.29
490.35	11585.65
490.53	11461.60
490.70	11698.00
490.88	11562.25
491.06	11529.48
491.24	11758.85
491.41	11674.59
491.59	11585.65
491.77	11868.86
491.95	12053.76
492.13	11880.56
492.30	12182.49
492.48	12280.79
492.66	12091.21
492.84	12437.61
493.01	12393.14
493.19	12542.93
493.37	12631.87
493.54	12613.15
493.72	12762.94
493.90	12568.68
494.08	13158.49
494.25	13004.02
494.43	13013.38
494.61	13273.18
494.79	13179.56
494.96	13174.88
495.14	13146.79
495.32	13422.97
495.49	13444.04
495.67	13511.91
495.85	13605.53
496.02	13834.91
496.20	13898.10
496.38	13802.14
496.55	14075.98
496.73	13905.12
496.91	13958.96
497.09	14146.20
497.26	14422.38
497.44	14083.00
497.62	14143.86
497.79	14597.92
497.97	14506.64
498.14	14520.68
498.32	14705.59
498.50	14789.85
498.67	14733.67
498.85	14656.43
499.03	15096.46
499.20	15023.90
499.38	14785.16
499.56	15063.69
499.73	15063.69
499.91	15269.66
500.08	15236.89
500.26	15161.99
500.44	15300.08
500.61	15428.81
500.79	15243.91
500.97	15372.64
501.14	15707.34
501.32	15740.10
501.49	15569.24
501.67	15618.39
501.84	15800.96
502.02	15969.48
502.20	16070.12
502.37	15943.73
502.55	15913.30
502.72	15934.37
502.90	16123.95
503.07	16100.55
503.25	16051.39
503.43	16035.01
503.60	16348.64
503.78	16432.90
503.95	16451.63
504.13	16531.20
504.30	16622.48
504.48	16346.30
504.65	16823.77
504.83	16767.60
505.01	16882.28
505.18	16919.73
505.36	17039.10
505.53	16629.51
505.71	16961.86
505.88	17116.34
506.06	16690.36
506.23	17025.06
506.41	17193.58
506.58	17083.57
506.76	17069.53
506.93	17429.97
507.11	17380.82
507.28	17451.03
507.46	17460.40
507.63	17394.86
507.81	17453.37
507.98	17451.03
508.16	17589.13
508.33	17490.82
508.50	17600.83
508.68	17596.15
508.85	17991.70
509.03	17830.20
509.20	17991.70
509.38	18106.38
509.55	18115.75
509.73	17860.63
509.90	17958.93
510.08	18370.86
510.25	18375.55
510.42	18338.10
510.60	18427.04
510.77	18082.98
510.95	18780.46
511.12	18586.19
511.30	18525.34
511.47	18761.73
511.64	18583.85
511.82	18925.57
511.99	18766.42
512.17	18827.27
512.34	19070.68
512.51	19129.20
512.69	18977.06
512.86	19424.11
513.04	19117.50
513.21	19257.93
513.38	19281.33
513.56	19346.87
513.73	19110.47
513.90	19075.37
514.08	19391.34
514.25	19625.39
514.43	19463.90
514.60	19550.49
514.77	19508.37
514.95	19798.59
515.12	19477.94
515.29	19709.65
515.47	19524.75
515.64	19829.02
515.81	19580.92
515.99	19814.98
516.16	19946.05
516.33	20065.41
516.51	20147.33
516.68	20390.75
516.85	20196.48
517.03	20166.06
517.20	20252.66
517.37	20255.00
517.54	20121.59
517.72	20435.22
517.89	20334.57
518.06	20390.75
518.24	20423.51
518.41	20336.91
518.58	20437.56
518.75	20526.50
518.93	20966.52
519.10	20585.01
519.27	20863.54
519.45	20727.78
519.62	20732.47
519.79	20760.55
519.96	20723.10
520.14	20940.77
520.31	20915.03
520.48	20952.48
520.65	20926.73
520.83	21469.73
521.00	21214.62
521.17	21369.09
521.34	21191.21
521.52	21268.45
521.69	21542.29
521.86	21528.25
522.03	21525.91
522.20	21617.19
522.38	21376.11
522.55	21832.52
522.72	21621.87
522.89	21647.61
523.07	22146.15
523.24	21610.17
523.41	21825.50
523.58	21710.81
523.75	22129.77
523.92	21783.37
524.10	21986.99
524.27	22190.62
524.44	22024.44
524.61	22256.15
524.78	22501.91
524.96	22134.45
525.13	22305.31
525.30	22239.77
525.47	22267.86
525.64	22586.17
525.81	22443.40
525.98	22707.88
526.16	22513.61
526.33	22630.64
526.50	22740.64
526.67	22572.13
526.84	22733.62
527.01	22607.23
527.18	23002.78
527.36	22747.67
527.53	23019.17
527.70	23126.83
527.87	23225.14
528.04	22684.47
528.21	23089.38
528.38	22852.99
528.55	22874.06
528.72	23105.77
528.89	23129.17
529.07	22993.42
529.24	22675.11
529.41	23314.08
529.58	23232.16
529.75	23098.75
529.92	23449.83
530.09	23023.85
530.26	23239.18
530.43	23583.24
530.60	23580.90
530.77	23374.93
530.94	23433.44
531.11	23262.58
531.28	23484.94
531.46	23651.11
531.63	23721.33
531.80	23559.83
531.97	24016.24
532.14	23611.32
532.31	23531.75
532.48	23826.65
532.65	24144.97
532.82	23606.64
532.99	23992.83
533.16	23873.46
533.33	24203.48
533.50	24498.39
533.67	24170.71
533.84	24240.93
534.01	24201.14
534.18	23964.75
534.35	24496.05
534.52	24283.06
534.69	24369.66
534.86	24105.18
535.03	24079.43
535.20	24336.89
535.37	24315.83
535.54	24699.67
535.71	24456.26
535.88	24503.07
536.05	24376.68
536.22	24592.01
536.38	24861.17
536.55	24823.72
536.72	24610.73
536.89	24648.18
537.06	24734.78
537.23	24828.40
537.40	24620.10
537.57	24882.24
537.74	24676.27
537.91	24854.15
538.08	24889.26
538.25	24765.21
538.42	24744.14
538.59	25006.28
538.75	24718.40
538.92	25135.01
539.09	25207.57
539.26	25139.69
539.43	25296.51
539.60	25411.20
539.77	25226.29
539.94	25366.73
540.11	25085.86
540.28	25221.61
540.44	25465.03
540.61	25172.46
540.78	25373.75
540.95	25209.91
541.12	25362.04
541.29	25261.40
541.46	25422.90
541.62	25546.95
541.79	25474.39
541.96	25355.02
542.13	25621.84
542.30	25699.08
542.47	25886.32
542.63	25687.38
542.80	25806.75
542.97	26101.65
543.14	26260.81
543.31	26029.10
543.48	25891.01
543.64	26309.96
543.81	26312.30
543.98	26221.02
544.15	26232.72
544.32	26373.16
544.48	26405.92
544.65	26288.90
544.82	26068.89
544.99	25972.92
545.16	26256.13
545.32	26403.58
545.49	26551.04
545.66	26728.92
545.83	26494.86
546.00	26352.09
546.16	26522.95
546.33	26609.55
546.50	26057.18
546.67	26382.52
546.83	26204.64
547.00	26267.83
547.17	26808.50
547.34	26691.47
547.50	26682.11
547.67	27145.53
547.84	26796.79
548.00	27131.49
548.17	27047.23
548.34	26799.13
548.51	26604.87
548.67	27292.99
548.84	26724.24
549.01	27145.53
549.18	26897.44
549.34	26761.69
549.51	26757.00
549.68	27307.03
549.84	26986.38
550.01	27129.15
550.18	26787.43
550.34	27351.50
550.51	27384.27
550.68	27524.70
550.84	27213.41
551.01	27248.52
551.18	27248.52
551.34	27150.21
551.51	27213.41
551.68	27601.94
551.84	27459.16
552.01	26991.06
552.18	27936.63
552.34	27435.76
552.51	27601.94
552.68	27023.83
552.84	27576.19
553.01	27241.50
553.18	27227.45
553.34	27520.02
553.51	27744.71
553.67	27590.24
553.84	27955.36
554.01	27714.28
554.17	27957.70
554.34	27768.12
554.51	27812.59
554.67	27597.26
554.84	27784.50
555.00	27908.55
555.17	27431.08
555.33	27913.23
555.50	27934.29
555.67	28219.84
555.83	27999.83
556.00	27882.80
556.16	28013.87
556.33	27915.57
556.50	28039.62
556.66	28322.82
556.83	28219.84
556.99	28599.01
557.16	28444.53
557.32	28205.80
557.49	28397.72
557.65	28116.86
557.82	28084.09
557.98	28166.01
558.15	28369.63
558.32	28252.61
558.48	28268.99
558.65	28332.18
558.81	28760.50
558.98	28369.63
559.14	28554.54
559.31	28077.07
559.47	28444.53
559.64	28348.57
559.80	28491.34
559.97	28409.42
560.13	28065.36
560.30	28215.16
560.46	28746.46
560.63	28503.04
560.79	28615.39
560.96	28931.36
561.12	28589.64
561.29	28383.68
561.45	28367.29
561.61	28439.85
561.78	28734.76
561.94	28460.91
562.11	28500.70
562.27	28313.46
562.44	28800.29
562.60	28400.06
562.77	28676.24
562.93	28751.14
563.10	28891.57
563.26	28800.29
563.42	29172.44
563.59	28739.44
563.75	28971.15
563.92	29106.90
564.08	28840.08
564.24	28652.84
564.41	28685.61
564.57	28683.27
564.74	28697.31
564.90	28994.56
565.07	29170.10
565.23	28577.94
565.39	28854.12
565.56	29198.18
565.72	28802.63
565.88	28776.89
566.05	28769.86
566.21	28882.21
566.38	29057.75
566.54	29165.42
566.70	29275.42
566.87	29156.05
567.03	29186.48
567.19	29200.52
567.36	29174.78
567.52	29160.73
567.68	29083.50
567.85	28889.23
568.01	28907.96
568.17	29057.75
568.34	28964.13
568.50	29125.63
568.66	29230.95
568.83	29298.83
568.99	29102.22
569.15	29008.60
569.32	29116.26
569.48	29050.73
569.64	29076.48
569.81	29425.22
569.97	29137.33
570.13	29706.08
570.30	29083.50
570.46	29149.03
570.62	29202.86
570.78	29193.50
570.95	28706.67
571.11	29127.97
571.27	29184.14
571.43	29104.56
571.60	29394.79
571.76	29422.87
571.92	29446.28
572.09	29329.25
572.25	29509.47
572.41	29076.48
572.57	29441.60
572.74	29221.59
572.90	29319.89
573.06	28959.45
573.22	29338.62
573.38	29202.86
573.55	28987.53
573.71	29233.29
573.87	29567.99
574.03	29319.89
574.20	29558.63
574.36	29181.80
574.52	29053.07
574.68	29252.02
574.84	29179.46
575.01	29043.71
575.17	29979.92
575.33	29244.99
575.49	29074.13
575.65	29804.38
575.82	29780.98
575.98	29509.47
576.14	29521.18
576.30	29500.11
576.46	29153.71
576.62	29324.57
576.79	29256.70
576.95	29303.51
577.11	29668.63
577.27	29731.83
577.43	29434.58
577.59	29729.48
577.75	29525.86
577.92	29434.58
578.08	29371.38
578.24	29469.69
578.40	29661.61
578.56	28751.14
578.72	29329.25
578.88	29621.82
579.04	30031.41
579.21	29228.61
579.37	29912.05
579.53	29338.62
579.69	29219.25
579.85	29890.98
580.01	29333.93
580.17	29460.32
580.33	29750.55
580.49	29422.87
580.65	29486.07
580.82	29673.31
580.98	29708.42
581.14	29500.11
581.30	29837.15
581.46	29799.70
581.62	29355.00
581.78	29385.43
581.94	29745.87
582.10	29610.12
582.26	29975.24
582.42	29551.60
582.58	29521.18
582.74	29230.95
582.90	29565.65
583.06	29661.61
583.22	29472.03
583.38	29090.52
583.54	29387.77
583.70	29729.48
583.86	29778.64
584.02	29467.34
584.18	29813.74
584.34	30033.75
584.50	29666.29
584.66	29556.28
584.82	29109.24
584.98	29668.63
585.14	29567.99
585.30	28898.59
585.46	29376.06
585.62	29518.84
585.78	29617.14
585.94	29249.67
586.10	29741.19
586.26	29806.72
586.42	29773.95
586.58	29415.85
586.74	29790.34
586.90	29270.74
587.06	29254.36
587.22	29692.04
587.38	29610.12
587.54	29825.45
587.70	30305.26
587.86	29832.47
588.02	29933.11
588.18	30071.20
588.34	29659.27
588.49	29816.08
588.65	29954.18
588.81	29603.10
588.97	30176.53
589.13	30162.48
589.29	29455.64
589.45	30263.13
589.61	30132.06
589.77	29741.19
589.93	30169.51
590.08	29979.92
590.24	29977.58
590.40	30258.45
590.56	30174.19
590.72	29935.45
590.88	29605.44
591.04	29766.93
591.20	30204.61
591.35	30141.42
591.51	30237.38
591.67	30295.89
591.83	30356.75
591.99	30368.45
