SpectraSuite Data File
++++++++++++++++++++++++++++++++++++
Date: Fri Oct 18 13:58:39 GMT-05:00 2013
User: bianchi
Dark Spectrum Present: No
Reference Spectrum Present: No
Number of Sampled Component Spectra: 1
Spectrometers: USB2+H05261
Integration Time (usec): 50000 (USB2+H05261)
Spectra Averaged: 1 (USB2+H05261)
Boxcar Smoothing: 0 (USB2+H05261)
Correct for Electrical Dark: No (USB2+H05261)
Strobe/Lamp Enabled: No (USB2+H05261)
Correct for Detector Non-linearity: No (USB2+H05261)
Correct for Stray Light: No (USB2+H05261)
Number of Pixels in Processed Spectrum: 2048
>>>>>Begin Processed Spectral Data<<<<<
365.73	0.00
365.92	0.00
366.12	0.00
366.32	0.00
366.52	0.00
366.72	0.00
366.91	0.00
367.11	0.00
367.31	0.00
367.51	0.00
367.70	0.00
367.90	0.00
368.10	0.00
368.30	0.00
368.49	0.00
368.69	0.00
368.89	0.00
369.09	0.00
369.28	0.00
369.48	0.00
369.68	0.00
369.87	0.00
370.07	0.00
370.27	0.00
370.47	0.00
370.66	112.35
370.86	72.56
371.06	161.50
371.25	110.01
371.45	119.37
371.65	177.88
371.84	88.94
372.04	159.16
372.24	154.48
372.44	163.84
372.63	102.98
372.83	222.35
373.03	191.92
373.22	280.86
373.42	198.95
373.62	187.24
373.81	222.35
374.01	203.63
374.21	243.42
374.40	203.63
374.60	280.86
374.79	280.86
374.99	229.37
375.19	175.54
375.38	215.33
375.58	280.86
375.78	161.50
375.97	248.10
376.17	248.10
376.37	234.05
376.56	241.08
376.76	245.76
376.95	285.55
377.15	330.02
377.35	271.50
377.54	248.10
377.74	243.42
377.93	238.73
378.13	245.76
378.33	259.80
378.52	234.05
378.72	372.15
378.91	346.40
379.11	313.63
379.31	367.46
379.50	259.80
379.70	327.68
379.89	332.36
380.09	297.25
380.28	306.61
380.48	248.10
380.68	360.44
380.87	280.86
381.07	325.33
381.26	395.55
381.46	365.12
381.65	332.36
381.85	355.76
382.04	358.10
382.24	369.80
382.43	318.31
382.63	306.61
382.83	334.70
383.02	379.17
383.22	393.21
383.41	318.31
383.61	362.78
383.80	388.53
384.00	400.23
384.19	416.62
384.39	332.36
384.58	304.27
384.78	365.12
384.97	435.34
385.17	332.36
385.36	388.53
385.56	358.10
385.75	337.04
385.95	381.51
386.14	400.23
386.34	393.21
386.53	390.87
386.72	407.25
386.92	411.93
387.11	449.38
387.31	402.57
387.50	372.15
387.70	461.09
387.89	461.09
388.09	465.77
388.28	468.11
388.48	315.97
388.67	491.51
388.86	442.36
389.06	468.11
389.25	447.04
389.45	428.32
389.64	433.00
389.84	514.92
390.03	447.04
390.22	463.43
390.42	538.32
390.61	505.56
390.81	477.47
391.00	512.58
391.19	500.87
391.39	482.15
391.58	540.66
391.78	409.59
391.97	561.73
392.16	550.03
392.36	638.97
392.55	528.96
392.75	575.77
392.94	517.26
393.13	585.13
393.33	510.24
393.52	468.11
393.71	512.58
393.91	507.90
394.10	573.43
394.29	540.66
394.49	568.75
394.68	578.11
394.88	545.34
395.07	655.35
395.26	580.45
395.46	575.77
395.65	716.20
395.84	669.39
396.04	653.01
396.23	641.31
396.42	641.31
396.62	578.11
396.81	500.87
397.00	566.41
397.19	648.33
397.39	610.88
397.58	678.76
397.77	645.99
397.97	713.86
398.16	704.50
398.35	662.37
398.55	648.33
398.74	746.63
398.93	702.16
399.12	713.86
399.32	643.65
399.51	725.57
399.70	699.82
399.90	737.27
400.09	800.46
400.28	713.86
400.47	737.27
400.67	755.99
400.86	791.10
401.05	781.74
401.24	720.88
401.44	889.40
401.63	861.32
401.82	758.33
402.01	767.70
402.21	709.18
402.40	777.06
402.59	828.55
402.78	828.55
402.97	875.36
403.17	802.80
403.36	884.72
403.55	952.60
403.74	882.38
403.93	924.51
404.13	896.43
404.32	952.60
404.51	858.98
404.70	887.06
404.89	908.13
405.09	1001.75
405.28	978.34
405.47	926.85
405.66	931.53
405.85	968.98
406.05	1043.88
406.24	994.73
406.43	1048.56
406.62	1008.77
406.81	1076.65
407.00	943.24
407.20	945.58
407.39	1008.77
407.58	1107.07
407.77	1107.07
407.96	1015.79
408.15	1067.28
408.34	1064.94
408.54	1060.26
408.73	1004.09
408.92	1078.99
409.11	1137.50
409.30	1144.52
409.49	1125.80
409.68	1130.48
409.87	1123.46
410.07	1210.06
410.26	1172.61
410.45	1156.22
410.64	1118.78
410.83	1214.74
411.02	1224.10
411.21	1256.87
411.40	1179.63
411.59	1177.29
411.78	1247.51
411.98	1226.44
412.17	1280.27
412.36	1322.40
412.55	1338.79
412.74	1371.55
412.93	1348.15
413.12	1235.80
413.31	1411.34
413.50	1263.89
413.69	1273.25
413.88	1416.02
414.07	1322.40
414.26	1397.30
414.45	1423.05
414.64	1380.92
414.83	1448.79
415.02	1418.36
415.22	1603.27
415.41	1577.52
415.60	1495.60
415.79	1621.99
415.98	1584.54
416.17	1582.20
416.36	1486.24
416.55	1575.18
416.74	1633.69
416.93	1682.85
417.12	1699.23
417.31	1717.95
417.50	1575.18
417.69	1736.68
417.88	1727.32
418.07	1741.36
418.26	1799.87
418.45	1682.85
418.64	1856.04
418.83	1671.14
419.02	1778.81
419.21	1743.70
419.39	1881.79
419.58	1792.85
419.77	1778.81
419.96	1799.87
420.15	1870.09
420.34	1687.53
420.53	1919.24
420.72	1874.77
420.91	1865.41
421.10	1996.48
421.29	1991.80
421.48	1858.39
421.67	1984.77
421.86	1942.64
422.05	1832.64
422.24	1902.86
422.43	1851.36
422.61	1930.94
422.80	1998.82
422.99	1984.77
423.18	1961.37
423.37	1987.11
423.56	2038.61
423.75	1921.58
423.94	1994.14
424.13	1888.81
424.32	1968.39
424.50	2064.35
424.69	2059.67
424.88	2113.50
425.07	2040.95
425.26	1923.92
425.45	1928.60
425.64	2080.74
425.83	1977.75
426.01	2069.03
426.20	2062.01
426.39	2050.31
426.58	2153.29
426.77	2052.65
426.96	2125.21
427.15	2057.33
427.33	2129.89
427.52	2059.67
427.71	2181.38
427.90	2066.69
428.09	2141.59
428.28	2111.16
428.46	2221.17
428.65	2267.98
428.84	2289.04
429.03	2279.68
429.22	2118.18
429.40	2253.94
429.59	2136.91
429.78	2179.04
429.97	2143.93
430.16	2251.60
430.34	2331.17
430.53	2413.09
430.72	2279.68
430.91	2200.10
431.10	2293.72
431.28	2361.60
431.47	2338.20
431.66	2401.39
431.85	2328.83
432.03	2389.69
432.22	2422.45
432.41	2469.27
432.60	2466.92
432.79	2485.65
432.97	2415.43
433.16	2375.64
433.35	2541.82
433.54	2576.93
433.72	2495.01
433.91	2548.84
434.10	2523.10
434.28	2466.92
434.47	2525.44
434.66	2539.48
434.85	2455.22
435.03	2513.74
435.22	2668.21
435.41	2665.87
435.59	2642.46
435.78	2466.92
435.97	2644.81
436.16	2614.38
436.34	2637.78
436.53	2595.65
436.72	2729.06
436.90	2757.15
437.09	2609.70
437.28	2712.68
437.46	2700.98
437.65	2682.25
437.84	2839.07
438.02	2759.49
438.21	2738.43
438.40	2759.49
438.58	2754.81
438.77	2888.22
438.96	2850.77
439.14	2899.92
439.33	2862.48
439.52	2869.50
439.70	3007.59
439.89	2998.23
440.08	2937.37
440.26	3059.08
440.45	3042.70
440.63	3059.08
440.82	3028.65
441.01	3056.74
441.19	2998.23
441.38	3141.00
441.57	3222.92
441.75	3225.26
441.94	3204.19
442.12	3274.41
442.31	3265.05
442.50	3297.81
442.68	3185.47
442.87	3262.71
443.05	3309.52
443.24	3243.98
443.43	3309.52
443.61	3304.84
443.80	3435.91
443.98	3262.71
444.17	3208.87
444.35	3414.84
444.54	3485.06
444.73	3311.86
444.91	3478.04
445.10	3396.12
445.28	3316.54
445.47	3304.84
445.65	3281.43
445.84	3405.48
446.02	3471.01
446.21	3475.70
446.39	3405.48
446.58	3456.97
446.77	3403.14
446.95	3368.03
447.14	3372.71
447.32	3550.59
447.51	3356.33
447.69	3466.33
447.88	3463.99
448.06	3426.54
448.25	3543.57
448.43	3501.44
448.62	3396.12
448.80	3475.70
448.99	3463.99
449.17	3613.79
449.36	3503.78
449.54	3595.06
449.73	3669.96
449.91	3712.09
450.10	3637.19
450.28	3747.20
450.46	3676.98
450.65	3651.24
450.83	3758.90
451.02	3590.38
451.20	3735.50
451.39	3791.67
451.57	3801.03
451.76	3777.62
451.94	3805.71
452.13	3974.23
452.31	3822.09
452.49	3808.05
452.68	3796.35
452.86	3770.60
453.05	3786.99
453.23	3786.99
453.42	3819.75
453.60	3878.27
453.78	3875.93
453.97	3838.48
454.15	3960.19
454.34	3836.14
454.52	3932.10
454.70	3913.38
454.89	3967.21
455.07	3918.06
455.26	3978.91
455.44	4126.36
455.62	4025.72
455.81	4063.17
455.99	4032.74
456.17	4299.56
456.36	4102.96
456.54	4102.96
456.73	4070.19
456.91	4341.69
457.09	4180.20
457.28	4414.25
457.46	4341.69
457.64	4222.33
457.83	4489.15
458.01	4229.35
458.19	4327.65
458.38	4264.46
458.56	4451.70
458.74	4444.68
458.93	4397.87
459.11	4358.08
459.29	4430.63
459.48	4432.97
459.66	4482.13
459.84	4329.99
460.03	4704.48
460.21	4496.17
460.39	4627.24
460.57	4432.97
460.76	4442.34
460.94	4615.54
461.12	4620.22
461.31	4631.92
461.49	4542.98
461.67	4683.41
461.85	4730.22
462.04	4688.09
462.22	4821.50
462.40	4636.60
462.59	4781.71
462.77	4713.84
462.95	4929.17
463.13	4575.75
463.32	4751.29
463.50	4802.78
463.68	4954.91
463.86	4823.84
464.05	4734.90
464.23	4723.20
464.41	4807.46
464.59	4856.61
464.78	4987.68
464.96	4873.00
465.14	4751.29
465.32	4919.81
465.50	4896.40
465.69	4847.25
465.87	4882.36
466.05	4950.23
466.23	4873.00
466.41	5039.17
466.60	5184.29
466.78	4954.91
466.96	5071.94
467.14	5076.62
467.32	5174.92
467.51	5093.01
467.69	5006.41
467.87	5146.84
468.05	5165.56
468.23	5043.85
468.41	4999.38
468.60	5160.88
468.78	5032.15
468.96	5085.98
469.14	5310.68
469.32	5404.30
469.50	5252.16
469.69	5462.81
469.87	5261.52
470.05	5371.53
470.23	5394.93
470.41	5296.63
470.59	5348.12
470.77	5401.96
470.95	5334.08
471.14	5610.26
471.32	5406.64
471.50	5542.39
471.68	5554.09
471.86	5533.03
472.04	5682.82
472.22	5769.42
472.40	5561.11
472.58	5523.66
472.77	5722.61
472.95	5746.02
473.13	6036.24
473.31	5884.11
473.49	5783.46
473.67	5956.66
473.85	5820.91
474.03	6078.37
474.21	5991.77
474.39	6064.33
474.57	6059.65
474.75	6022.20
474.93	6132.20
475.12	6193.06
475.30	6061.99
475.48	6052.63
475.66	6157.95
475.84	6134.54
476.02	6457.54
476.20	6420.09
476.38	6399.02
476.56	6438.81
476.74	6445.84
476.92	6401.37
477.10	6399.02
477.28	6593.29
477.46	6555.84
477.64	6595.63
477.82	6651.80
478.00	6930.33
478.18	7087.14
478.36	6942.03
478.54	7030.97
478.72	7094.16
478.90	6855.43
479.08	7005.22
479.26	7400.77
479.44	7019.27
479.62	7258.00
479.80	7396.09
479.98	7466.31
480.16	7344.60
480.34	7494.40
480.52	7632.49
480.70	7428.86
480.88	7742.49
481.06	7482.69
481.24	7702.70
481.41	7669.94
481.59	8067.83
481.77	7936.76
481.95	7915.69
482.13	8093.57
482.31	7918.03
482.49	8074.85
482.67	8140.38
482.85	8344.01
483.03	8519.55
483.21	8498.49
483.39	8615.51
483.57	8428.27
483.74	8610.83
483.92	8557.00
484.10	8922.12
484.28	9020.42
484.46	9004.04
484.64	8931.48
484.82	8826.16
485.00	9146.81
485.18	9221.71
485.35	9282.56
485.53	9149.15
485.71	9392.57
485.89	9689.82
486.07	9554.07
486.25	9572.79
486.43	9650.03
486.61	9640.67
486.78	9699.18
486.96	9930.89
487.14	9956.64
487.32	9963.66
487.50	9928.55
487.68	10216.44
487.85	10202.40
488.03	10326.44
488.21	10614.33
488.39	10623.69
488.57	10492.62
488.75	10623.69
488.92	10717.31
489.10	10630.71
489.28	10738.38
489.46	10832.00
489.64	10754.76
489.81	11049.67
489.99	11108.18
490.17	11314.15
490.35	11218.19
490.53	11400.75
490.70	11508.41
490.88	11637.14
491.06	11826.73
491.24	11618.42
491.41	11648.85
491.59	11763.53
491.77	11868.86
491.95	12142.70
492.13	12011.63
492.30	12203.55
492.48	12231.64
492.66	12393.14
492.84	12241.00
493.01	12484.42
493.19	12271.43
493.37	12760.60
493.54	12638.89
493.72	12765.28
493.90	12758.26
494.08	12877.63
494.25	13233.39
494.43	13011.04
494.61	13261.48
494.79	13231.05
494.96	13331.69
495.14	13289.56
495.32	13554.04
495.49	13259.13
495.67	13462.76
495.85	13734.26
496.02	13750.65
496.20	14068.96
496.38	13708.52
496.55	13905.12
496.73	13987.04
496.91	14017.47
497.09	14083.00
497.26	13870.01
497.44	14176.62
497.62	14132.15
497.79	14333.44
497.97	14284.29
498.14	14579.20
498.32	14757.08
498.50	14633.03
498.67	14684.52
498.85	14485.58
499.03	14728.99
499.20	14775.80
499.38	14792.19
499.56	14916.23
499.73	15108.16
499.91	15164.33
500.08	15257.95
500.26	15023.90
500.44	15480.30
500.61	15543.50
500.79	15339.87
500.97	15506.05
501.14	15616.05
501.32	15637.12
501.49	15428.81
501.67	15786.91
501.84	15777.55
502.02	15779.89
502.20	15822.02
502.37	16095.86
502.55	15873.51
502.72	15962.45
502.90	16016.29
503.07	16081.82
503.25	16184.80
503.43	15990.54
503.60	16446.94
503.78	16430.56
503.95	16126.29
504.13	16402.47
504.30	16503.12
504.48	16659.93
504.65	16339.28
504.83	16673.98
505.01	17151.45
505.18	16723.13
505.36	16996.97
505.53	16774.62
505.71	16678.66
505.88	16863.56
506.06	16821.43
506.23	17085.91
506.41	17121.02
506.58	17422.95
506.76	17221.66
506.93	17163.15
507.11	17104.64
507.28	17600.83
507.46	17444.01
507.63	17324.65
507.81	17881.69
507.98	17607.85
508.16	17724.88
508.33	17612.53
508.50	17685.09
508.68	18003.40
508.85	17921.48
509.03	18029.15
509.20	18003.40
509.38	17942.55
509.55	18345.12
509.73	18452.78
509.90	18185.96
510.08	18188.30
510.25	18111.07
510.42	17909.78
510.60	18569.81
510.77	18541.72
510.95	18689.18
511.12	18656.41
511.30	18443.42
511.47	18520.66
511.64	18738.33
511.82	18740.67
511.99	18874.08
512.17	18918.55
512.34	18579.17
512.51	19000.47
512.69	18998.13
512.86	19094.09
513.04	19407.72
513.21	19253.25
513.38	19016.85
513.56	19405.38
513.73	19389.00
513.90	18932.59
514.08	19613.69
514.25	19227.50
514.43	19398.36
514.60	19410.06
514.77	19552.84
514.95	19868.81
515.12	19789.23
515.29	19637.09
515.47	19901.58
515.64	20107.54
515.81	19924.98
515.99	20353.30
516.16	20222.23
516.33	19971.79
516.51	20102.86
516.68	19969.45
516.85	20325.21
517.03	19999.88
517.20	20294.79
517.37	20210.53
517.54	20367.34
517.72	20566.29
517.89	20580.33
518.06	20287.76
518.24	20460.96
518.41	20456.28
518.58	20531.18
518.75	20552.24
518.93	20814.38
519.10	20748.85
519.27	20772.25
519.45	21165.46
519.62	20856.51
519.79	20554.58
519.96	20872.90
520.14	21039.08
520.31	20849.49
520.48	21322.28
520.65	20996.95
520.83	21186.53
521.00	21123.33
521.17	21249.72
521.34	21259.09
521.52	21181.85
521.69	21219.30
521.86	21715.49
522.03	21467.39
522.20	21633.57
522.38	21642.93
522.55	21539.95
522.72	21507.18
522.89	21795.07
523.07	22113.38
523.24	21884.01
523.41	21846.56
523.58	22015.08
523.75	22033.80
523.92	21881.67
524.10	22160.19
524.27	21909.75
524.44	21970.61
524.61	22815.54
524.78	22363.82
524.96	22410.63
525.13	22457.44
525.30	22525.32
525.47	22398.93
525.64	22394.25
525.81	22558.08
525.98	22125.08
526.16	22684.47
526.33	22410.63
526.50	22970.02
526.67	22466.80
526.84	22764.05
527.01	22679.79
527.18	22632.98
527.36	22972.36
527.53	23080.02
527.70	23232.16
527.87	22885.76
528.04	23112.79
528.21	23246.20
528.38	22939.59
528.55	23026.19
528.72	23178.33
528.89	23026.19
529.07	22965.34
529.24	22960.66
529.41	23145.56
529.58	23569.19
529.75	22862.35
529.92	23101.09
530.09	23183.01
530.26	23337.48
530.43	23475.57
530.60	23538.77
530.77	23405.36
530.94	23821.97
531.11	23363.23
531.28	23651.11
531.46	23672.18
531.63	23583.24
531.80	23922.62
531.97	23772.82
532.14	24039.64
532.31	23892.19
532.48	23871.12
532.65	24102.84
532.82	23786.86
532.99	24135.60
533.16	24027.94
533.33	24077.09
533.50	24247.95
533.67	24395.40
533.84	24224.54
534.01	24187.10
534.18	23934.32
534.35	24421.15
534.52	24271.36
534.69	24449.24
534.86	24474.98
535.03	24374.34
535.20	24276.04
535.37	24507.75
535.54	24219.86
535.71	24198.80
535.88	24561.58
536.05	24430.51
536.22	24596.69
536.38	24840.11
536.55	24437.53
536.72	24587.33
536.89	24830.74
537.06	24739.46
537.23	24915.00
537.40	25022.67
537.57	24968.84
537.74	24865.85
537.91	25191.19
538.08	24797.98
538.25	24776.91
538.42	24968.84
538.59	25188.85
538.75	25060.12
538.92	24950.11
539.09	24851.81
539.26	25006.28
539.43	25448.64
539.60	25645.25
539.77	25558.65
539.94	25298.85
540.11	25319.92
540.28	25273.10
540.44	25039.05
540.61	25350.34
540.78	25324.60
540.95	25535.24
541.12	25453.33
541.29	25715.47
541.46	25214.59
541.62	25490.77
541.79	25743.55
541.96	25619.50
542.13	25745.89
542.30	25839.51
542.47	25617.16
542.63	25727.17
542.80	25764.62
542.97	26160.17
543.14	26326.35
543.31	25656.95
543.48	25855.90
543.64	26176.55
543.81	26111.02
543.98	26476.14
544.15	26075.91
544.32	26335.71
544.48	26408.26
544.65	26204.64
544.82	26141.44
544.99	25813.77
545.16	26075.91
545.32	26696.15
545.49	26331.03
545.66	26663.38
545.83	26405.92
546.00	26888.07
546.16	26553.38
546.33	26277.19
546.50	26164.85
546.67	26787.43
546.83	26249.11
547.00	26682.11
547.17	26333.37
547.34	26831.90
547.50	26569.76
547.67	26981.70
547.84	26817.86
548.00	26888.07
548.17	27292.99
548.34	26820.20
548.51	27393.63
548.67	26967.65
548.84	27211.07
549.01	26754.66
549.18	26792.11
549.34	27220.43
549.51	26965.31
549.68	27225.11
549.84	27262.56
550.01	27152.55
550.18	26911.48
550.34	27005.10
550.51	27239.15
550.68	27276.60
550.84	26930.20
551.01	27353.84
551.18	27122.13
551.34	27140.85
551.51	27215.75
551.68	27477.89
551.84	27620.66
552.01	27449.80
552.18	27243.84
552.34	27428.74
552.51	27494.27
552.68	27498.95
552.84	27220.43
553.01	27669.81
553.18	27398.31
553.34	27627.68
553.51	27784.50
553.67	27566.83
553.84	27864.08
554.01	27852.38
554.17	27896.85
554.34	27810.25
554.51	27580.87
554.67	28016.21
554.84	27758.75
555.00	27779.82
555.17	27871.10
555.33	27847.69
555.50	27871.10
555.67	28126.22
555.83	27847.69
556.00	27594.92
556.16	28070.04
556.33	28238.56
556.50	27964.72
556.66	28252.61
556.83	27871.10
556.99	28273.67
557.16	28252.61
557.32	28212.82
557.49	28542.83
557.65	28077.07
557.82	28484.32
557.98	27779.82
558.15	28383.68
558.32	28250.27
558.48	28259.63
558.65	28084.09
558.81	28325.16
558.98	28561.56
559.14	28280.69
559.31	28339.21
559.47	27566.83
559.64	28100.47
559.80	28313.46
559.97	28594.32
560.13	28198.77
560.30	28355.59
560.46	28290.06
560.63	28821.36
560.79	28631.77
560.96	28453.89
561.12	28570.92
561.29	28147.28
561.45	28350.91
561.61	28741.78
561.78	29043.71
561.94	28542.83
562.11	28648.16
562.27	28568.58
562.44	28683.27
562.60	28755.82
562.77	28697.31
562.93	28472.62
563.10	28856.46
563.26	28842.42
563.42	28868.17
563.59	28709.01
563.75	28807.31
563.92	28840.08
564.08	28645.82
564.24	28898.59
564.41	28856.46
564.57	28641.14
564.74	28645.82
564.90	28952.43
565.07	29113.92
565.23	29149.03
565.39	28992.22
565.56	29092.86
565.72	28716.03
565.88	28758.16
566.05	28744.12
566.21	28936.04
566.38	28739.44
566.54	28893.91
566.70	28947.75
566.87	28741.78
567.03	28910.30
567.19	29551.60
567.36	29294.14
567.52	29165.42
567.68	29301.17
567.85	28833.06
568.01	29326.91
568.17	28936.04
568.34	29296.49
568.50	29467.34
568.66	28936.04
568.83	29301.17
568.99	29422.87
569.15	29127.97
569.32	28802.63
569.48	29067.11
569.64	29104.56
569.81	28933.70
569.97	29193.50
570.13	29383.09
570.30	29280.10
570.46	29233.29
570.62	29345.64
570.78	29221.59
570.95	29252.02
571.11	29275.42
571.27	29191.16
571.43	28868.17
571.60	28891.57
571.76	29226.27
571.92	29228.61
572.09	29493.09
572.25	29727.14
572.41	28996.90
572.57	29064.77
572.74	29427.56
572.90	29020.30
573.06	29352.66
573.22	29305.85
573.38	29350.32
573.55	29575.01
573.71	29326.91
573.87	29163.08
574.03	29401.81
574.20	29455.64
574.36	28758.16
574.52	29167.76
574.68	29509.47
574.84	29727.14
575.01	29315.21
575.17	29514.16
575.33	29240.31
575.49	29277.76
575.65	29577.35
575.82	29427.56
575.98	29207.55
576.14	29352.66
576.30	29579.69
576.46	29322.23
576.62	29254.36
576.79	29130.31
576.95	29682.67
577.11	29645.23
577.27	29806.72
577.43	29434.58
577.59	29446.28
577.75	29624.16
577.92	29219.25
578.08	28966.47
578.24	29104.56
578.40	29261.38
578.56	29366.70
578.72	29530.54
578.88	29556.28
579.04	29507.13
579.21	29558.63
579.37	29617.14
579.53	29553.94
579.69	29301.17
579.85	29450.96
580.01	29317.55
580.17	29298.83
580.33	29308.19
580.49	30015.03
580.65	29453.30
580.82	29802.04
580.98	29661.61
581.14	29507.13
581.30	29242.65
581.46	29680.33
581.62	29666.29
581.78	29296.49
581.94	29469.69
582.10	29696.72
582.26	29902.68
582.42	29668.63
582.58	30031.41
582.74	29661.61
582.90	29823.11
583.06	29385.43
583.22	29586.71
583.38	29457.98
583.54	29771.61
583.70	29516.50
583.86	29443.94
584.02	29392.45
584.18	29883.96
584.34	29638.20
584.50	29900.34
584.66	29790.34
584.82	29558.63
584.98	29502.45
585.14	29317.55
585.30	29493.09
585.46	29631.18
585.62	29450.96
585.78	29710.76
585.94	29385.43
586.10	29654.59
586.26	29692.04
586.42	29668.63
586.58	29607.78
586.74	29584.37
586.90	29497.77
587.06	29397.13
587.22	29626.50
587.38	29373.72
587.54	29851.19
587.70	30178.87
587.86	29823.11
588.02	29986.94
588.18	29310.53
588.34	29575.01
588.49	29851.19
588.65	29715.44
588.81	29584.37
588.97	29977.58
589.13	29869.92
589.29	29862.90
589.45	29898.00
589.61	30188.23
589.77	29986.94
589.93	30281.85
590.08	30061.84
590.24	30246.74
590.40	30141.42
590.56	30073.54
590.72	29841.83
590.88	29762.25
591.04	29890.98
591.20	29970.56
591.35	30209.29
591.51	30543.99
591.67	30307.60
591.83	30052.48
591.99	30087.59
