SpectraSuite Data File
++++++++++++++++++++++++++++++++++++
Date: Fri Oct 18 13:58:00 GMT-05:00 2013
User: bianchi
Dark Spectrum Present: No
Reference Spectrum Present: No
Number of Sampled Component Spectra: 1
Spectrometers: USB2+H05261
Integration Time (usec): 50000 (USB2+H05261)
Spectra Averaged: 1 (USB2+H05261)
Boxcar Smoothing: 0 (USB2+H05261)
Correct for Electrical Dark: No (USB2+H05261)
Strobe/Lamp Enabled: No (USB2+H05261)
Correct for Detector Non-linearity: No (USB2+H05261)
Correct for Stray Light: No (USB2+H05261)
Number of Pixels in Processed Spectrum: 2048
>>>>>Begin Processed Spectral Data<<<<<
365.73	0.00
365.92	0.00
366.12	0.00
366.32	0.00
366.52	0.00
366.72	0.00
366.91	0.00
367.11	0.00
367.31	0.00
367.51	0.00
367.70	0.00
367.90	0.00
368.10	0.00
368.30	0.00
368.49	0.00
368.69	0.00
368.89	0.00
369.09	0.00
369.28	0.00
369.48	0.00
369.68	0.00
369.87	0.00
370.07	0.00
370.27	0.00
370.47	51.49
370.66	74.90
370.86	112.35
371.06	124.05
371.25	121.71
371.45	159.16
371.65	168.52
371.84	114.69
372.04	133.41
372.24	102.98
372.44	170.86
372.63	227.03
372.83	271.50
373.03	203.63
373.22	180.22
373.42	177.88
373.62	142.77
373.81	180.22
374.01	231.71
374.21	271.50
374.40	177.88
374.60	259.80
374.79	220.01
374.99	215.33
375.19	191.92
375.38	292.57
375.58	234.05
375.78	297.25
375.97	280.86
376.17	266.82
376.37	285.55
376.56	210.65
376.76	313.63
376.95	276.18
377.15	283.20
377.35	257.46
377.54	217.67
377.74	248.10
377.93	332.36
378.13	318.31
378.33	215.33
378.52	168.52
378.72	313.63
378.91	231.71
379.11	259.80
379.31	262.14
379.50	259.80
379.70	262.14
379.89	381.51
380.09	315.97
380.28	280.86
380.48	290.23
380.68	283.20
380.87	315.97
381.07	330.02
381.26	313.63
381.46	264.48
381.65	222.35
381.85	348.74
382.04	388.53
382.24	348.74
382.43	341.72
382.63	355.76
382.83	400.23
383.02	311.29
383.22	327.68
383.41	351.08
383.61	362.78
383.80	397.89
384.00	376.83
384.19	395.55
384.39	311.29
384.58	418.96
384.78	381.51
384.97	351.08
385.17	372.15
385.36	369.80
385.56	416.62
385.75	362.78
385.95	393.21
386.14	353.42
386.34	339.38
386.53	393.21
386.72	374.49
386.92	402.57
387.11	351.08
387.31	425.98
387.50	407.25
387.70	397.89
387.89	421.30
388.09	435.34
388.28	372.15
388.48	418.96
388.67	468.11
388.86	526.62
389.06	531.30
389.25	477.47
389.45	444.70
389.64	388.53
389.84	458.74
390.03	454.06
390.22	561.73
390.42	491.51
390.61	528.96
390.81	505.56
391.00	528.96
391.19	477.47
391.39	507.90
391.58	575.77
391.78	519.60
391.97	547.69
392.16	489.17
392.36	587.47
392.55	578.11
392.75	578.11
392.94	503.22
393.13	451.72
393.33	484.49
393.52	624.92
393.71	627.26
393.91	603.86
394.10	557.05
394.29	629.60
394.49	636.63
394.68	610.88
394.88	573.43
395.07	568.75
395.26	538.32
395.46	557.05
395.65	535.98
395.84	566.41
396.04	620.24
396.23	655.35
396.42	641.31
396.62	718.54
396.81	678.76
397.00	587.47
397.19	617.90
397.39	585.13
397.58	636.63
397.77	641.31
397.97	732.59
398.16	690.46
398.35	678.76
398.55	681.10
398.74	706.84
398.93	781.74
399.12	730.25
399.32	720.88
399.51	688.12
399.70	739.61
399.90	669.39
400.09	699.82
400.28	788.76
400.47	751.31
400.67	753.65
400.86	725.57
401.05	866.00
401.24	800.46
401.44	765.36
401.63	830.89
401.82	835.57
402.01	826.21
402.21	791.10
402.40	816.85
402.59	887.06
402.78	798.12
402.97	802.80
403.17	725.57
403.36	826.21
403.55	849.61
403.74	903.45
403.93	863.66
404.13	929.19
404.32	936.21
404.51	990.05
404.70	926.85
404.89	887.06
405.09	884.72
405.28	924.51
405.47	997.07
405.66	1013.45
405.85	1104.73
406.05	915.15
406.24	868.34
406.43	1043.88
406.62	987.71
406.81	1029.84
407.00	1069.62
407.20	1039.20
407.39	980.68
407.58	1081.33
407.77	1076.65
407.96	1020.47
408.15	1020.47
408.34	1116.44
408.54	1057.92
408.73	957.28
408.92	1111.75
409.11	1071.97
409.30	1076.65
409.49	1128.14
409.68	1090.69
409.87	1163.25
410.07	1111.75
410.26	1219.42
410.45	1167.93
410.64	1158.57
410.83	1226.44
411.02	1177.29
411.21	1277.93
411.40	1277.93
411.59	1217.08
411.78	1217.08
411.98	1207.72
412.17	1357.51
412.36	1245.16
412.55	1331.76
412.74	1406.66
412.93	1446.45
413.12	1383.26
413.31	1380.92
413.50	1334.11
413.69	1404.32
413.88	1401.98
414.07	1432.41
414.26	1533.05
414.45	1488.58
414.64	1446.45
414.83	1528.37
415.02	1540.07
415.22	1526.03
415.41	1540.07
415.60	1474.54
415.79	1565.82
415.98	1430.07
416.17	1507.30
416.36	1575.18
416.55	1542.41
416.74	1668.80
416.93	1715.61
417.12	1699.23
417.31	1785.83
417.50	1692.21
417.69	1820.94
417.88	1755.40
418.07	1746.04
418.26	1732.00
418.45	1755.40
418.64	1748.38
418.83	1811.57
419.02	1790.51
419.21	1837.32
419.39	1823.28
419.58	1827.96
419.77	1750.72
419.96	1781.15
420.15	1816.26
420.34	1891.15
420.53	1839.66
420.72	1872.43
420.91	1907.54
421.10	1900.52
421.29	1886.47
421.48	1900.52
421.67	1912.22
421.86	1989.46
422.05	1928.60
422.24	1858.39
422.43	2017.54
422.61	1912.22
422.80	1926.26
422.99	2031.58
423.18	1968.39
423.37	2106.48
423.56	1956.69
423.75	1881.79
423.94	2019.88
424.13	1825.62
424.32	1916.90
424.50	2036.27
424.69	2139.25
424.88	2083.08
425.07	1984.77
425.26	2167.34
425.45	2129.89
425.64	2162.66
425.83	2073.71
426.01	2064.35
426.20	1991.80
426.39	2019.88
426.58	2022.22
426.77	2129.89
426.96	2115.84
427.15	2221.17
427.33	2003.50
427.52	2097.12
427.71	2118.18
427.90	2289.04
428.09	2228.19
428.28	2244.57
428.46	2209.47
428.65	2143.93
428.84	2136.91
429.03	2258.62
429.22	2165.00
429.40	2335.85
429.59	2218.83
429.78	2148.61
429.97	2179.04
430.16	2176.70
430.34	2324.15
430.53	2282.02
430.72	2258.62
430.91	2202.44
431.10	2221.17
431.28	2324.15
431.47	2394.37
431.66	2436.50
431.85	2347.56
432.03	2455.22
432.22	2518.42
432.41	2389.69
432.60	2420.11
432.79	2455.22
432.97	2523.10
433.16	2562.89
433.35	2462.24
433.54	2452.88
433.72	2558.21
433.91	2483.31
434.10	2558.21
434.28	2459.90
434.47	2539.48
434.66	2567.57
434.85	2520.76
435.03	2485.65
435.22	2473.95
435.41	2665.87
435.59	2616.72
435.78	2588.63
435.97	2726.72
436.16	2654.17
436.34	2651.83
436.53	2612.04
436.72	2708.00
436.90	2773.53
437.09	2764.17
437.28	2724.38
437.46	2745.45
437.65	2789.92
437.84	2668.21
438.02	2766.51
438.21	2764.17
438.40	2820.35
438.58	2782.90
438.77	2766.51
438.96	2799.28
439.14	2906.95
439.33	2881.20
439.52	2958.44
439.70	2946.73
439.89	2944.39
440.08	2839.07
440.26	3007.59
440.45	3007.59
440.63	3115.25
440.82	3178.45
441.01	3061.42
441.19	3056.74
441.38	3019.29
441.57	3136.32
441.75	3258.03
441.94	3281.43
442.12	3262.71
442.31	3344.63
442.50	3295.47
442.68	3199.51
442.87	3407.82
443.05	3356.33
443.24	3363.35
443.43	3309.52
443.61	3412.50
443.80	3445.27
443.98	3255.69
444.17	3290.79
444.35	3342.28
444.54	3508.46
444.73	3405.48
444.91	3459.31
445.10	3438.25
445.28	3421.86
445.47	3440.59
445.65	3386.76
445.84	3506.12
446.02	3480.38
446.21	3482.72
446.39	3578.68
446.58	3639.53
446.77	3438.25
446.95	3501.44
447.14	3538.89
447.32	3581.02
447.51	3527.19
447.69	3428.88
447.88	3506.12
448.06	3534.21
448.25	3571.66
448.43	3630.17
448.62	3419.52
448.80	3468.67
448.99	3583.36
449.17	3564.64
449.36	3534.21
449.54	3770.60
449.73	3686.34
449.91	3655.92
450.10	3779.97
450.28	3684.00
450.46	3616.13
450.65	3494.42
450.83	3712.09
451.02	3705.07
451.20	3765.92
451.39	3815.07
451.57	3889.97
451.76	3714.43
451.94	3744.86
452.13	3882.95
452.31	3693.37
452.49	3651.24
452.68	3763.58
452.86	3786.99
453.05	3983.59
453.23	3873.59
453.42	3892.31
453.60	3920.40
453.78	3794.01
453.97	3775.28
454.15	3967.21
454.34	3899.33
454.52	3957.85
454.70	3803.37
454.89	3978.91
455.07	4109.98
455.26	3875.93
455.44	4229.35
455.62	3901.67
455.81	4170.83
455.99	4049.13
456.17	4189.56
456.36	4196.58
456.54	4301.90
456.73	4344.03
456.91	4367.44
457.09	4264.46
457.28	4386.16
457.46	4329.99
457.64	4318.29
457.83	4329.99
458.01	4325.31
458.19	4344.03
458.38	4320.63
458.56	4358.08
458.74	4409.57
458.93	4397.87
459.11	4402.55
459.29	4496.17
459.48	4531.28
459.66	4547.66
459.84	4470.42
460.03	4645.96
460.21	4507.87
460.39	4395.53
460.57	4533.62
460.76	4564.04
460.94	4631.92
461.12	4559.36
461.31	4608.51
461.49	4685.75
461.67	4667.03
461.85	4730.22
462.04	4746.61
462.22	5032.15
462.40	4833.21
462.59	4603.83
462.77	4678.73
462.95	4676.39
463.13	4737.24
463.32	4671.71
463.50	4720.86
463.68	4674.05
463.86	4793.42
464.05	4777.03
464.23	4765.33
464.41	4978.32
464.59	4816.82
464.78	4821.50
464.96	4952.57
465.14	4896.40
465.32	5006.41
465.50	5090.67
465.69	4917.47
465.87	4990.02
466.05	5032.15
466.23	5013.43
466.41	5074.28
466.60	5111.73
466.78	4940.87
466.96	5055.56
467.14	5128.11
467.32	5170.24
467.51	5071.94
467.69	5090.67
467.87	5088.32
468.05	5153.86
468.23	5006.41
468.41	5116.41
468.60	5228.76
468.78	5088.32
468.96	5090.67
469.14	5280.25
469.32	5406.64
469.50	5132.79
469.69	5296.63
469.87	5535.37
470.05	5380.89
470.23	5418.34
470.41	5427.70
470.59	5462.81
470.77	5584.52
470.95	5589.20
471.14	5460.47
471.32	5430.04
471.50	5490.90
471.68	5612.60
471.86	5727.29
472.04	5682.82
472.22	5776.44
472.40	5540.05
472.58	5680.48
472.77	5750.70
472.95	5804.53
473.13	5900.49
473.31	5685.16
473.49	5830.27
473.67	5774.10
473.85	5816.23
474.03	6176.67
474.21	5935.60
474.39	5940.28
474.57	5996.45
474.75	6099.44
474.93	6169.65
475.12	6097.10
475.30	6169.65
475.48	6221.14
475.66	6312.42
475.84	6317.11
476.02	6382.64
476.20	6263.27
476.38	6415.41
476.56	6553.50
476.74	6555.84
476.92	6401.37
477.10	6511.37
477.28	6651.80
477.46	6548.82
477.64	6623.72
477.82	6822.66
478.00	6949.05
478.18	6869.47
478.36	6829.68
478.54	6965.43
478.72	6810.96
478.90	7140.97
479.08	7157.36
479.26	7332.90
479.44	7335.24
479.62	7314.17
479.80	7379.71
479.98	7255.66
480.16	7637.17
480.34	7588.02
480.52	7655.89
480.70	7672.28
480.88	7583.34
481.06	7655.89
481.24	7669.94
481.41	7822.07
481.59	7906.33
481.77	7941.44
481.95	8170.81
482.13	8154.43
482.31	8278.47
482.49	8264.43
482.67	8348.69
482.85	8292.52
483.03	8437.63
483.21	8552.32
483.39	8367.42
483.57	8505.51
483.74	8629.56
483.92	8699.77
484.10	8599.13
484.28	8919.78
484.46	9064.89
484.64	9277.88
484.82	8973.61
485.00	9259.16
485.18	9137.45
485.35	9315.33
485.53	9277.88
485.71	9413.63
485.89	9619.60
486.07	9497.89
486.25	9533.00
486.43	9675.77
486.61	9568.11
486.78	9762.37
486.96	10064.30
487.14	10092.39
487.32	9982.38
487.50	10148.56
487.68	10232.82
487.85	10370.91
488.03	10513.69
488.21	10527.73
488.39	10647.10
488.57	10473.90
488.75	10714.97
488.92	10693.91
489.10	10967.75
489.28	10862.43
489.46	11063.71
489.64	11082.44
489.81	11220.53
489.99	11267.34
490.17	11187.76
490.35	11517.78
490.53	11501.39
490.70	11702.68
490.88	11761.19
491.06	11616.08
491.24	11737.79
491.41	11578.63
491.59	11819.71
491.77	11789.28
491.95	12013.97
492.13	12145.04
492.30	12187.17
492.48	12180.15
492.66	12257.39
492.84	12271.43
493.01	12451.65
493.19	12397.82
493.37	13015.72
493.54	12959.55
493.72	12830.82
493.90	12704.43
494.08	12924.44
494.25	12924.44
494.43	13132.75
494.61	13453.40
494.79	13284.88
494.96	13282.54
495.14	13273.18
495.32	13397.23
495.49	13596.17
495.67	13617.24
495.85	13736.60
496.02	13973.00
496.20	13825.54
496.38	13841.93
496.55	13781.07
496.73	14157.90
496.91	13905.12
497.09	14298.33
497.26	14328.76
497.44	14134.50
497.62	14279.61
497.79	14410.68
497.97	14398.98
498.14	14707.93
498.32	15096.46
498.50	14920.92
498.67	15157.31
498.85	14834.32
499.03	14672.82
499.20	15049.64
499.38	15098.80
499.56	15007.52
499.73	15374.98
499.91	15379.66
500.08	15264.97
500.26	15269.66
500.44	15365.62
500.61	15587.97
500.79	15470.94
500.97	15468.60
501.14	15578.61
501.32	15805.64
501.49	15396.04
501.67	15793.94
501.84	15955.43
502.02	15819.68
502.20	15903.94
502.37	16308.85
502.55	16032.67
502.72	16126.29
502.90	16201.19
503.07	16130.97
503.25	16294.81
503.43	16369.71
503.60	16442.26
503.78	16585.04
503.95	16566.31
504.13	16425.88
504.30	16662.27
504.48	16503.12
504.65	16959.52
504.83	16847.18
505.01	16989.95
505.18	16868.24
505.36	17071.87
505.53	16793.34
505.71	17144.42
505.88	17137.40
506.06	17088.25
506.23	17415.93
506.41	17287.20
506.58	17252.09
506.76	17397.20
506.93	17530.61
507.11	17334.01
507.28	17493.16
507.46	17535.29
507.63	17462.74
507.81	18097.02
507.98	17804.46
508.16	17767.01
508.33	17869.99
508.50	18078.30
508.68	17701.47
508.85	18260.86
509.03	18171.92
509.20	18380.23
509.38	18281.92
509.55	18288.95
509.73	18508.96
509.90	18136.81
510.08	18422.36
510.25	18434.06
510.42	18572.15
510.60	18728.97
510.77	18574.49
510.95	18799.18
511.12	18977.06
511.30	18703.22
511.47	18820.25
511.64	18883.44
511.82	18651.73
511.99	19180.69
512.17	19016.85
512.34	19152.60
512.51	19351.55
512.69	18911.53
512.86	19063.66
513.04	19035.58
513.21	19494.32
513.38	19220.48
513.56	19480.28
513.73	19335.17
513.90	19620.71
514.08	19255.59
514.25	19819.66
514.43	19814.98
514.60	19726.04
514.77	19833.70
514.95	19623.05
515.12	19587.94
515.29	20194.14
515.47	20032.65
515.64	20189.46
515.81	20173.08
515.99	20149.67
516.16	20140.31
516.33	20348.62
516.51	20280.74
516.68	19983.49
516.85	20184.78
517.03	20343.94
517.20	20556.93
517.37	20547.56
517.54	20685.65
517.72	20603.74
517.89	20355.64
518.06	20620.12
518.24	20531.18
518.41	20863.54
518.58	20769.91
518.75	20746.51
518.93	20933.75
519.10	20924.39
519.27	21106.95
519.45	20671.61
519.62	21003.97
519.79	20917.37
519.96	21226.32
520.14	20950.14
520.31	21226.32
520.48	21380.79
520.65	21305.90
520.83	21516.54
521.00	21216.96
521.17	21460.37
521.34	21607.83
521.52	21563.36
521.69	21439.31
521.86	21486.12
522.03	21724.85
522.20	21844.22
522.38	21900.39
522.55	21820.81
522.72	21802.09
522.89	22003.38
523.07	22125.08
523.24	22010.40
523.41	22087.64
523.58	21867.63
523.75	22106.36
523.92	22033.80
524.10	22111.04
524.27	22214.02
524.44	22298.28
524.61	22157.85
524.78	22525.32
524.96	22342.75
525.13	22352.12
525.30	22520.63
525.47	22431.69
525.64	22553.40
525.81	22913.84
525.98	23140.88
526.16	22471.48
526.33	22600.21
526.50	22684.47
526.67	22506.59
526.84	22988.74
527.01	22600.21
527.18	22850.65
527.36	22815.54
527.53	22822.56
527.70	23098.75
527.87	23730.69
528.04	23178.33
528.21	23194.71
528.38	23094.07
528.55	23585.58
528.72	23122.15
528.89	23456.85
529.07	23531.75
529.24	23726.01
529.41	23831.33
529.58	23529.41
529.75	23651.11
529.92	23325.78
530.09	23601.96
530.26	23480.25
530.43	23606.64
530.60	23529.41
530.77	23491.96
530.94	23817.29
531.11	23501.32
531.28	23843.04
531.46	23782.18
531.63	23985.81
531.80	23859.42
531.97	24067.73
532.14	23796.23
532.31	23892.19
532.48	23960.06
532.65	24301.78
532.82	24116.88
532.99	24634.14
533.16	24154.33
533.33	24058.37
533.50	24762.87
533.67	24439.87
533.84	24489.03
534.01	24294.76
534.18	23981.13
534.35	24191.78
534.52	24563.92
534.69	24781.59
534.86	24584.99
535.03	24844.79
535.20	24638.82
535.37	24407.11
535.54	24774.57
535.71	24372.00
535.88	24786.27
536.05	24821.38
536.22	24788.61
536.38	24980.54
536.55	24905.64
536.72	25085.86
536.89	24725.42
537.06	25029.69
537.23	25106.93
537.40	24910.32
537.57	24985.22
537.74	24996.92
537.91	25324.60
538.08	25411.20
538.25	25055.43
538.42	25263.74
538.59	25790.36
538.75	25118.63
538.92	25317.57
539.09	25312.89
539.26	25392.47
539.43	25195.87
539.60	25425.24
539.77	25474.39
539.94	26157.83
540.11	25369.07
540.28	25462.69
540.44	25755.26
540.61	25689.72
540.78	25502.48
540.95	25685.04
541.12	26019.74
541.29	25575.03
541.46	25591.42
541.62	25748.23
541.79	25876.96
541.96	25586.74
542.13	25455.67
542.30	25986.97
542.47	25731.85
542.63	26118.04
542.80	25991.65
542.97	26113.36
543.14	26284.22
543.31	26309.96
543.48	26061.87
543.64	26471.46
543.81	26518.27
543.98	26450.39
544.15	26499.55
544.32	26476.14
544.48	26644.66
544.65	26539.33
544.82	26139.10
544.99	26230.38
545.16	26742.96
545.32	26419.97
545.49	26415.29
545.66	26735.94
545.83	26815.52
546.00	26787.43
546.16	26738.28
546.33	26410.60
546.50	26682.11
546.67	26771.05
546.83	26312.30
547.00	26843.60
547.17	26794.45
547.34	27056.59
547.50	27370.22
547.67	27475.55
547.84	26801.47
548.00	27241.50
548.17	27150.21
548.34	26752.32
548.51	27072.98
548.67	27529.38
548.84	27110.43
549.01	26663.38
549.18	27068.30
549.34	26892.76
549.51	27307.03
549.68	27225.11
549.84	27424.06
550.01	27414.69
550.18	27021.48
550.34	27562.15
550.51	27447.46
550.68	27711.94
550.84	27339.80
551.01	27398.31
551.18	27335.12
551.34	27351.50
551.51	27178.30
551.68	27501.29
551.84	27463.85
552.01	27367.88
552.18	27513.00
552.34	27583.21
552.51	27644.07
552.68	27267.24
552.84	27625.34
553.01	27873.44
553.18	27789.18
553.34	27777.48
553.51	27709.60
553.67	27934.29
553.84	27835.99
554.01	28100.47
554.17	27826.63
554.34	27981.10
554.51	28058.34
554.67	28163.67
554.84	28081.75
555.00	27798.54
555.17	28142.60
555.33	28339.21
555.50	28208.14
555.67	27889.82
555.83	28102.81
556.00	28030.26
556.16	28107.49
556.33	28048.98
556.50	28294.74
556.66	28453.89
556.83	28411.76
556.99	27948.34
557.16	28205.80
557.32	28133.24
557.49	28503.04
557.65	28311.12
557.82	28294.74
557.98	28374.31
558.15	28381.34
558.32	28629.43
558.48	28765.18
558.65	28685.61
558.81	28636.45
558.98	28535.81
559.14	28587.30
559.31	28594.32
559.47	28409.42
559.64	28339.21
559.80	28744.12
559.97	28617.73
560.13	28601.35
560.30	28954.77
560.46	28732.42
560.63	28863.49
560.79	28910.30
560.96	28907.96
561.12	28437.51
561.29	28573.26
561.45	28545.17
561.61	28692.63
561.78	28821.36
561.94	28893.91
562.11	29041.37
562.27	28968.81
562.44	28797.95
562.60	28952.43
562.77	28826.04
562.93	28610.71
563.10	29036.69
563.26	28755.82
563.42	29233.29
563.59	29111.58
563.75	28652.84
563.92	29088.18
564.08	28954.77
564.24	28907.96
564.41	28933.70
564.57	28898.59
564.74	29022.64
564.90	29050.73
565.07	29149.03
565.23	29085.84
565.39	29027.32
565.56	29142.01
565.72	29057.75
565.88	28968.81
566.05	28762.84
566.21	29022.64
566.38	28685.61
566.54	29500.11
566.70	29046.05
566.87	29631.18
567.03	28936.04
567.19	29982.26
567.36	29303.51
567.52	29373.72
567.68	29284.78
567.85	29247.33
568.01	29347.98
568.17	29188.82
568.34	29347.98
568.50	29780.98
568.66	29284.78
568.83	29521.18
568.99	28954.77
569.15	29209.89
569.32	29420.53
569.48	29022.64
569.64	29633.52
569.81	29270.74
569.97	29472.03
570.13	29556.28
570.30	29439.26
570.46	29443.94
570.62	29139.67
570.78	29399.47
570.95	29240.31
571.11	29724.80
571.27	28994.56
571.43	29294.14
571.60	29383.09
571.76	29378.40
571.92	29675.65
572.09	29586.71
572.25	29455.64
572.41	29575.01
572.57	29546.92
572.74	29736.51
572.90	29570.33
573.06	29748.21
573.22	29448.62
573.38	29841.83
573.55	29273.08
573.71	29923.75
573.87	29675.65
574.03	29769.27
574.20	29844.17
574.36	29652.25
574.52	29788.00
574.68	29551.60
574.84	29692.04
575.01	29656.93
575.17	29993.97
575.33	29413.51
575.49	29546.92
575.65	29858.21
575.82	30213.98
575.98	29858.21
576.14	29919.07
576.30	29923.75
576.46	29397.13
576.62	29565.65
576.79	29603.10
576.95	29673.31
577.11	29802.04
577.27	30148.44
577.43	29783.32
577.59	29839.49
577.75	29785.66
577.92	29670.97
578.08	29614.80
578.24	29549.26
578.40	29717.78
578.56	29766.93
578.72	29619.48
578.88	29556.28
579.04	30134.40
579.21	29680.33
579.37	29846.51
579.53	29804.38
579.69	29720.12
579.85	29605.44
580.01	29715.44
580.17	29745.87
580.33	29783.32
580.49	29706.08
580.65	29392.45
580.82	29996.31
580.98	30164.82
581.14	29867.58
581.30	29991.62
581.46	29710.76
581.62	29666.29
581.78	29680.33
581.94	29701.40
582.10	29401.81
582.26	29584.37
582.42	29991.62
582.58	29734.17
582.74	30029.07
582.90	29909.71
583.06	29968.22
583.22	29944.81
583.38	29893.32
583.54	29759.91
583.70	29591.39
583.86	29886.30
584.02	29399.47
584.18	30433.99
584.34	29951.84
584.50	29811.40
584.66	29837.15
584.82	29628.84
584.98	30015.03
585.14	29663.95
585.30	29771.61
585.46	29752.89
585.62	29694.38
585.78	29596.07
585.94	29968.22
586.10	29940.13
586.26	29879.28
586.42	30029.07
586.58	30024.39
586.74	30033.75
586.90	29820.77
587.06	30087.59
587.22	29792.68
587.38	30115.67
587.54	30244.40
587.70	29874.60
587.86	29984.60
588.02	30148.44
588.18	30277.17
588.34	29706.08
588.49	30242.06
588.65	30169.51
588.81	29832.47
588.97	30003.33
589.13	29717.78
589.29	29933.11
589.45	29734.17
589.61	30148.44
589.77	30323.98
589.93	30455.05
590.08	30625.91
590.24	30361.43
590.40	30410.58
590.56	30169.51
590.72	30237.38
590.88	30459.73
591.04	30347.39
591.20	30630.59
591.35	30450.37
591.51	30642.29
591.67	30291.21
591.83	30551.01
591.99	30181.21
