SpectraSuite Data File
++++++++++++++++++++++++++++++++++++
Date: Fri Oct 18 13:58:22 GMT-05:00 2013
User: bianchi
Dark Spectrum Present: No
Reference Spectrum Present: No
Number of Sampled Component Spectra: 1
Spectrometers: USB2+H05261
Integration Time (usec): 50000 (USB2+H05261)
Spectra Averaged: 1 (USB2+H05261)
Boxcar Smoothing: 0 (USB2+H05261)
Correct for Electrical Dark: No (USB2+H05261)
Strobe/Lamp Enabled: No (USB2+H05261)
Correct for Detector Non-linearity: No (USB2+H05261)
Correct for Stray Light: No (USB2+H05261)
Number of Pixels in Processed Spectrum: 2048
>>>>>Begin Processed Spectral Data<<<<<
365.73	0.00
365.92	0.00
366.12	0.00
366.32	0.00
366.52	0.00
366.72	0.00
366.91	0.00
367.11	0.00
367.31	0.00
367.51	0.00
367.70	0.00
367.90	0.00
368.10	0.00
368.30	0.00
368.49	0.00
368.69	0.00
368.89	0.00
369.09	0.00
369.28	0.00
369.48	0.00
369.68	0.00
369.87	0.00
370.07	0.00
370.27	0.00
370.47	0.00
370.66	35.11
370.86	138.09
371.06	95.96
371.25	70.22
371.45	182.56
371.65	128.73
371.84	177.88
372.04	112.35
372.24	196.60
372.44	208.31
372.63	180.22
372.83	208.31
373.03	194.26
373.22	138.09
373.42	276.18
373.62	299.59
373.81	266.82
374.01	262.14
374.21	229.37
374.40	290.23
374.60	248.10
374.79	259.80
374.99	276.18
375.19	229.37
375.38	234.05
375.58	215.33
375.78	287.89
375.97	290.23
376.17	229.37
376.37	271.50
376.56	262.14
376.76	271.50
376.95	229.37
377.15	184.90
377.35	264.48
377.54	227.03
377.74	161.50
377.93	215.33
378.13	271.50
378.33	208.31
378.52	341.72
378.72	276.18
378.91	280.86
379.11	220.01
379.31	234.05
379.50	334.70
379.70	264.48
379.89	271.50
380.09	248.10
380.28	252.78
380.48	330.02
380.68	325.33
380.87	313.63
381.07	191.92
381.26	292.57
381.46	264.48
381.65	299.59
381.85	290.23
382.04	292.57
382.24	322.99
382.43	297.25
382.63	294.91
382.83	332.36
383.02	362.78
383.22	358.10
383.41	285.55
383.61	250.44
383.80	383.85
384.00	423.64
384.19	358.10
384.39	388.53
384.58	409.59
384.78	365.12
384.97	372.15
385.17	330.02
385.36	374.49
385.56	369.80
385.75	358.10
385.95	386.19
386.14	409.59
386.34	388.53
386.53	454.06
386.72	383.85
386.92	404.91
387.11	444.70
387.31	444.70
387.50	411.93
387.70	388.53
387.89	372.15
388.09	477.47
388.28	428.32
388.48	454.06
388.67	514.92
388.86	425.98
389.06	372.15
389.25	451.72
389.45	489.17
389.64	482.15
389.84	470.45
390.03	486.83
390.22	449.38
390.42	447.04
390.61	489.17
390.81	491.51
391.00	470.45
391.19	568.75
391.39	444.70
391.58	477.47
391.78	454.06
391.97	503.22
392.16	531.30
392.36	500.87
392.55	547.69
392.75	540.66
392.94	538.32
393.13	564.07
393.33	524.28
393.52	566.41
393.71	634.29
393.91	528.96
394.10	571.09
394.29	587.47
394.49	489.17
394.68	589.82
394.88	603.86
395.07	571.09
395.26	505.56
395.46	496.19
395.65	514.92
395.84	624.92
396.04	657.69
396.23	636.63
396.42	601.52
396.62	620.24
396.81	683.44
397.00	638.97
397.19	744.29
397.39	662.37
397.58	746.63
397.77	631.94
397.97	638.97
398.16	711.52
398.35	704.50
398.55	697.48
398.74	746.63
398.93	763.01
399.12	737.27
399.32	655.35
399.51	655.35
399.70	706.84
399.90	748.97
400.09	711.52
400.28	765.36
400.47	746.63
400.67	784.08
400.86	835.57
401.05	798.12
401.24	830.89
401.44	814.51
401.63	788.76
401.82	802.80
402.01	861.32
402.21	830.89
402.40	802.80
402.59	791.10
402.78	812.17
402.97	866.00
403.17	870.68
403.36	837.91
403.55	926.85
403.74	809.83
403.93	910.47
404.13	866.00
404.32	844.93
404.51	800.46
404.70	943.24
404.89	896.43
405.09	849.61
405.28	936.21
405.47	898.77
405.66	978.34
405.85	983.02
406.05	950.26
406.24	971.32
406.43	1001.75
406.62	1004.09
406.81	999.41
407.00	1046.22
407.20	1020.47
407.39	1032.18
407.58	1100.05
407.77	1046.22
407.96	1053.24
408.15	1102.39
408.34	1036.86
408.54	1057.92
408.73	1116.44
408.92	1039.20
409.11	1128.14
409.30	1184.31
409.49	1093.03
409.68	1083.67
409.87	1151.54
410.07	1146.86
410.26	1179.63
410.45	1158.57
410.64	1093.03
410.83	1226.44
411.02	1179.63
411.21	1273.25
411.40	1203.04
411.59	1221.76
411.78	1259.21
411.98	1240.48
412.17	1266.23
412.36	1254.53
412.55	1352.83
412.74	1437.09
412.93	1364.53
413.12	1359.85
413.31	1439.43
413.50	1362.19
413.69	1460.49
413.88	1413.68
414.07	1455.81
414.26	1453.47
414.45	1469.86
414.64	1460.49
414.83	1432.41
415.02	1467.52
415.22	1540.07
415.41	1607.95
415.60	1486.24
415.79	1439.43
415.98	1504.96
416.17	1528.37
416.36	1509.65
416.55	1563.48
416.74	1664.12
416.93	1671.14
417.12	1722.63
417.31	1668.80
417.50	1694.55
417.69	1724.97
417.88	1722.63
418.07	1689.87
418.26	1741.36
418.45	1664.12
418.64	1797.53
418.83	1809.23
419.02	1753.06
419.21	1881.79
419.39	1795.19
419.58	1760.08
419.77	1732.00
419.96	1799.87
420.15	1912.22
420.34	1853.70
420.53	1764.76
420.72	1851.36
420.91	1907.54
421.10	1912.22
421.29	2003.50
421.48	1909.88
421.67	2012.86
421.86	2017.54
422.05	1952.01
422.24	1914.56
422.43	1877.11
422.61	2038.61
422.80	1858.39
422.99	2001.16
423.18	1956.69
423.37	2015.20
423.56	1930.94
423.75	2064.35
423.94	1940.30
424.13	1923.92
424.32	1994.14
424.50	2085.42
424.69	1919.24
424.88	2101.80
425.07	1987.11
425.26	1991.80
425.45	1968.39
425.64	1968.39
425.83	1952.01
426.01	2062.01
426.20	2057.33
426.39	2012.86
426.58	2033.93
426.77	2066.69
426.96	2092.44
427.15	1991.80
427.33	2094.78
427.52	2012.86
427.71	2029.24
427.90	2179.04
428.09	2186.06
428.28	2162.66
428.46	2221.17
428.65	2169.68
428.84	2218.83
429.03	2265.64
429.22	2251.60
429.40	2282.02
429.59	2228.19
429.78	2218.83
429.97	2190.74
430.16	2136.91
430.34	2289.04
430.53	2392.03
430.72	2335.85
430.91	2380.32
431.10	2345.22
431.28	2373.30
431.47	2452.88
431.66	2385.01
431.85	2452.88
432.03	2450.54
432.22	2464.58
432.41	2504.37
432.60	2340.54
432.79	2462.24
432.97	2417.77
433.16	2476.29
433.35	2406.07
433.54	2436.50
433.72	2523.10
433.91	2588.63
434.10	2544.16
434.28	2502.03
434.47	2644.81
434.66	2633.10
434.85	2523.10
435.03	2628.42
435.22	2637.78
435.41	2705.66
435.59	2658.85
435.78	2558.21
435.97	2710.34
436.16	2670.55
436.34	2724.38
436.53	2750.13
436.72	2759.49
436.90	2712.68
437.09	2761.83
437.28	2595.65
437.46	2738.43
437.65	2738.43
437.84	2766.51
438.02	2773.53
438.21	2822.69
438.40	2827.37
438.58	2754.81
438.77	2913.97
438.96	2897.58
439.14	3038.02
439.33	2960.78
439.52	3047.38
439.70	2946.73
439.89	3014.61
440.08	3038.02
440.26	3012.27
440.45	3047.38
440.63	3016.95
440.82	3084.83
441.01	3023.97
441.19	3143.34
441.38	3276.75
441.57	3098.87
441.75	3297.81
441.94	3262.71
442.12	3185.47
442.31	3265.05
442.50	3293.13
442.68	3337.60
442.87	3335.26
443.05	3351.65
443.24	3316.54
443.43	3351.65
443.61	3258.03
443.80	3379.73
443.98	3325.90
444.17	3199.51
444.35	3517.83
444.54	3538.89
444.73	3557.61
444.91	3335.26
445.10	3384.41
445.28	3414.84
445.47	3400.80
445.65	3454.63
445.84	3492.08
446.02	3566.98
446.21	3419.52
446.39	3398.46
446.58	3550.59
446.77	3506.12
446.95	3482.72
447.14	3494.42
447.32	3531.87
447.51	3536.55
447.69	3487.40
447.88	3496.76
448.06	3485.06
448.25	3485.06
448.43	3548.25
448.62	3555.27
448.80	3559.95
448.99	3660.60
449.17	3602.08
449.36	3456.97
449.54	3712.09
449.73	3744.86
449.91	3618.47
450.10	3611.45
450.28	3812.73
450.46	3625.49
450.65	3604.42
450.83	3779.97
451.02	3796.35
451.20	3735.50
451.39	3838.48
451.57	3595.06
451.76	3590.38
451.94	3847.84
452.13	3796.35
452.31	3782.31
452.49	3840.82
452.68	3686.34
452.86	3852.52
453.05	3889.97
453.23	3880.61
453.42	3892.31
453.60	3887.63
453.78	3864.22
453.97	3941.46
454.15	4025.72
454.34	3838.48
454.52	3878.27
454.70	4065.51
454.89	3911.04
455.07	3978.91
455.26	4053.81
455.44	4196.58
455.62	4112.32
455.81	4114.66
455.99	3946.14
456.17	4145.09
456.36	4187.22
456.54	4294.88
456.73	4266.80
456.91	4276.16
457.09	4271.48
457.28	4320.63
457.46	4166.15
457.64	4432.97
457.83	4458.72
458.01	4348.72
458.19	4329.99
458.38	4468.08
458.56	4407.23
458.74	4353.40
458.93	4390.84
459.11	4500.85
459.29	4437.66
459.48	4592.13
459.66	4484.47
459.84	4564.04
460.03	4613.20
460.21	4559.36
460.39	4512.55
460.57	4528.94
460.76	4451.70
460.94	4535.96
461.12	4554.68
461.31	4664.69
461.49	4592.13
461.67	4690.43
461.85	4674.05
462.04	4713.84
462.22	4732.56
462.40	4823.84
462.59	4746.61
462.77	4875.34
462.95	4964.28
463.13	4699.80
463.32	4767.67
463.50	4760.65
463.68	4816.82
463.86	4805.12
464.05	4910.44
464.23	4767.67
464.41	4917.47
464.59	4793.42
464.78	4870.65
464.96	4947.89
465.14	4814.48
465.32	4880.02
465.50	4980.66
465.69	5008.75
465.87	4821.50
466.05	4880.02
466.23	5053.22
466.41	5165.56
466.60	5280.25
466.78	5116.41
466.96	5062.58
467.14	4966.62
467.32	5179.61
467.51	5146.84
467.69	4889.38
467.87	5128.11
468.05	5041.51
468.23	5055.56
468.41	5247.48
468.60	5221.74
468.78	5291.95
468.96	5240.46
469.14	5322.38
469.32	5336.42
469.50	5116.41
469.69	5345.78
469.87	5399.62
470.05	5504.94
470.23	5497.92
470.41	5497.92
470.59	5378.55
470.77	5504.94
470.95	5404.30
471.14	5570.48
471.32	5383.23
471.50	5570.48
471.68	5825.59
471.86	5589.20
472.04	5671.12
472.22	5631.33
472.40	5659.42
472.58	5685.16
472.77	5708.57
472.95	5956.66
473.13	6038.58
473.31	5947.30
473.49	5872.40
473.67	5785.80
473.85	6033.90
474.03	6071.35
474.21	6045.60
474.39	6003.47
474.57	5963.68
474.75	6066.67
474.93	6143.91
475.12	6225.82
475.30	6085.39
475.48	6312.42
475.66	6200.08
475.84	6239.87
476.02	6466.90
476.20	6375.62
476.38	6420.09
476.56	6527.75
476.74	6677.55
476.92	6436.47
477.10	6752.45
477.28	6759.47
477.46	6724.36
477.64	6389.66
477.82	6789.89
478.00	6810.96
478.18	6949.05
478.36	6888.20
478.54	6972.46
478.72	7021.61
478.90	7094.16
479.08	7201.83
479.26	7283.75
479.44	7293.11
479.62	7501.42
479.80	7215.87
479.98	7473.33
480.16	7433.54
480.34	7578.65
480.52	7520.14
480.70	7662.91
480.88	7585.68
481.06	7592.70
481.24	7726.11
481.41	7639.51
481.59	7899.31
481.77	7859.52
481.95	8131.02
482.13	8063.15
482.31	7962.50
482.49	8320.60
482.67	8156.77
482.85	8381.46
483.03	8491.46
483.21	8449.33
483.39	8575.72
483.57	8514.87
483.74	8798.07
483.92	8781.69
484.10	8688.07
484.28	8805.10
484.46	9013.40
484.64	9200.65
484.82	8952.55
485.00	9027.45
485.18	9369.16
485.35	9460.45
485.53	9217.03
485.71	9329.38
485.89	9390.23
486.07	9465.13
486.25	9514.28
486.43	9523.64
486.61	9811.53
486.78	9874.72
486.96	10005.79
487.14	10094.73
487.32	9958.98
487.50	10148.56
487.68	10080.69
487.85	10464.54
488.03	10204.74
488.21	10497.30
488.39	10457.51
488.57	10794.55
488.75	10399.00
488.92	10843.70
489.10	10995.84
489.28	10864.77
489.46	11119.89
489.64	11112.86
489.81	11199.46
489.99	11440.54
490.17	11262.66
490.35	11485.01
490.53	11489.69
490.70	11646.51
490.88	11580.97
491.06	11536.50
491.24	11658.21
491.41	11946.09
491.59	11978.86
491.77	11899.28
491.95	12138.02
492.13	11946.09
492.30	12187.17
492.48	12306.54
492.66	12252.70
492.84	12400.16
493.01	12531.23
493.19	12519.53
493.37	12769.96
493.54	12624.85
493.72	12884.65
493.90	12788.69
494.08	12943.16
494.25	12889.33
494.43	13158.49
494.61	13348.08
494.79	13322.33
494.96	13359.78
495.14	13439.36
495.32	13631.28
495.49	13287.22
495.67	13621.92
495.85	13867.67
496.02	13820.86
496.20	13717.88
496.38	13872.36
496.55	13867.67
496.73	14265.57
496.91	14019.81
497.09	14148.54
497.26	14263.22
497.44	14448.13
497.62	14541.75
497.79	14618.99
497.97	14499.62
498.14	14647.07
498.32	14881.13
498.50	14829.63
498.67	14916.23
498.85	14808.57
499.03	14927.94
499.20	14967.73
499.38	15054.33
499.56	15023.90
499.73	15276.68
499.91	15054.33
500.08	15379.66
500.26	15398.38
500.44	15555.20
500.61	15297.74
500.79	15400.72
500.97	15466.26
501.14	15859.47
501.32	15800.96
501.49	15889.90
501.67	15704.99
501.84	15974.16
502.02	16065.44
502.20	16025.65
502.37	16002.24
502.55	16095.86
502.72	16086.50
502.90	16224.59
503.07	16175.44
503.25	16233.96
503.43	16332.26
503.60	16343.96
503.78	16835.47
503.95	16631.85
504.13	16606.10
504.30	16772.28
504.48	16379.07
504.65	16587.38
504.83	16760.58
505.01	16727.81
505.18	17226.34
505.36	17041.44
505.53	16851.86
505.71	17039.10
505.88	17156.13
506.06	17060.16
506.23	17373.80
506.41	17291.88
506.58	17118.68
506.76	17252.09
506.93	17334.01
507.11	17331.67
507.28	17589.13
507.46	17584.44
507.63	17799.77
507.81	17841.90
507.98	17572.74
508.16	17891.06
508.33	17771.69
508.50	17720.20
508.68	17884.03
508.85	18256.18
509.03	18302.99
509.20	18366.18
509.38	18611.94
509.55	18462.15
509.73	18403.63
509.90	18462.15
510.08	18265.54
510.25	18405.97
510.42	18621.30
510.60	18555.77
510.77	18295.97
510.95	18810.89
511.12	18485.55
511.30	18757.05
511.47	18665.77
511.64	18927.91
511.82	18888.12
511.99	18923.23
512.17	19035.58
512.34	18977.06
512.51	19208.78
512.69	19405.38
512.86	19019.19
513.04	19367.93
513.21	19447.51
513.38	19690.93
513.56	19499.00
513.73	19620.71
513.90	19604.33
514.08	19374.95
514.25	19737.74
514.43	19728.38
514.60	19634.75
514.77	19756.46
514.95	19915.62
515.12	19840.72
515.29	19903.92
515.47	19847.74
515.64	20257.34
515.81	20027.96
515.99	20247.97
516.16	20407.13
516.33	20350.96
516.51	20149.67
516.68	20297.13
516.85	20294.79
517.03	20280.74
517.20	20510.11
517.37	20430.54
517.54	20872.90
517.72	20346.28
517.89	20603.74
518.06	20610.76
518.24	20622.46
518.41	20683.31
518.58	20783.96
518.75	20753.53
518.93	20699.70
519.10	20753.53
519.27	20900.98
519.45	20891.62
519.62	20552.24
519.79	20800.34
519.96	20917.37
520.14	21233.34
520.31	21263.77
520.48	21310.58
520.65	21186.53
520.83	21558.67
521.00	20908.01
521.17	21214.62
521.34	21259.09
521.52	21486.12
521.69	21525.91
521.86	21266.11
522.03	21720.17
522.20	21893.37
522.38	21666.34
522.55	21797.41
522.72	21645.27
522.89	21633.57
523.07	22132.11
523.24	21937.84
523.41	22073.59
523.58	22059.55
523.75	22171.89
523.92	22235.09
524.10	22202.32
524.27	22005.72
524.44	22359.14
524.61	22450.42
524.78	22429.35
524.96	22640.00
525.13	22211.68
525.30	22382.54
525.47	22333.39
525.64	22302.96
525.81	22916.19
525.98	22593.19
526.16	22485.53
526.33	22492.55
526.50	22981.72
526.67	22782.77
526.84	22675.11
527.01	22696.17
527.18	22579.15
527.36	22862.35
527.53	23147.90
527.70	23222.80
527.87	23091.73
528.04	23173.64
528.21	23124.49
528.38	23124.49
528.55	23175.98
528.72	23243.86
528.89	23161.94
529.07	23232.16
529.24	23569.19
529.41	23311.74
529.58	23454.51
529.75	23580.90
529.92	23665.16
530.09	23491.96
530.26	23669.84
530.43	23372.59
530.60	23697.92
530.77	23910.91
530.94	24051.34
531.11	23864.10
531.28	23672.18
531.46	23620.69
531.63	23999.85
531.80	23896.87
531.97	24414.13
532.14	24156.67
532.31	23866.44
532.48	23927.30
532.65	24166.03
532.82	23831.33
532.99	24610.73
533.16	24189.44
533.33	24266.67
533.50	24582.65
533.67	24430.51
533.84	23627.71
534.01	24271.36
534.18	24346.25
534.35	24376.68
534.52	24269.01
534.69	24584.99
534.86	24809.68
535.03	24271.36
535.20	24418.81
535.37	24264.33
535.54	24744.14
535.71	24533.50
535.88	24627.12
536.05	24467.96
536.22	24662.22
536.38	24725.42
536.55	24664.57
536.72	24851.81
536.89	24521.79
537.06	25207.57
537.23	25207.57
537.40	24938.41
537.57	25057.78
537.74	25053.09
537.91	25092.88
538.08	25497.80
538.25	25006.28
538.42	25621.84
538.59	25523.54
538.75	24870.53
538.92	25090.54
539.09	25345.66
539.26	25572.69
539.43	25160.76
539.60	25427.58
539.77	25296.51
539.94	25621.84
540.11	25448.64
540.28	25460.35
540.44	25462.69
540.61	25460.35
540.78	25350.34
540.95	25582.06
541.12	25481.41
541.29	25593.76
541.46	25752.91
541.62	25345.66
541.79	25504.82
541.96	25631.21
542.13	25743.55
542.30	25759.94
542.47	25825.47
542.63	26092.29
542.80	25951.86
542.97	26281.88
543.14	26366.13
543.31	26291.24
543.48	26092.29
543.64	26316.98
543.81	26394.22
543.98	26356.77
544.15	26604.87
544.32	26349.75
544.48	26696.15
544.65	26199.96
544.82	26429.33
544.99	25975.27
545.16	26316.98
545.32	26368.48
545.49	26735.94
545.66	26850.63
545.83	26719.56
546.00	27026.17
546.16	26941.91
546.33	26862.33
546.50	26513.59
546.67	27012.12
546.83	26546.36
547.00	26766.37
547.17	26974.67
547.34	26881.05
547.50	27070.64
547.67	26759.34
547.84	26967.65
548.00	27225.11
548.17	26838.92
548.34	26642.32
548.51	27154.90
548.67	27108.08
548.84	26904.46
549.01	27040.21
549.18	27225.11
549.34	27087.02
549.51	27360.86
549.68	26829.56
549.84	27023.83
550.01	26820.20
550.18	27054.25
550.34	27543.42
550.51	27501.29
550.68	27477.89
550.84	27529.38
551.01	27316.39
551.18	27250.86
551.34	27225.11
551.51	27323.41
551.68	27330.44
551.84	27583.21
552.01	27681.52
552.18	27835.99
552.34	27707.26
552.51	27498.95
552.68	27323.41
552.84	27763.43
553.01	27864.08
553.18	27536.40
553.34	28278.35
553.51	27931.95
553.67	27946.00
553.84	28243.24
554.01	28114.52
554.17	28210.48
554.34	28013.87
554.51	27821.95
554.67	27997.49
554.84	27843.01
555.00	27950.68
555.17	27817.27
555.33	27924.93
555.50	28072.39
555.67	27999.83
555.83	28299.42
556.00	28329.84
556.16	28217.50
556.33	27924.93
556.50	27793.86
556.66	28334.53
556.83	28643.48
556.99	28683.27
557.16	28503.04
557.32	28575.60
557.49	28151.96
557.65	28435.17
557.82	28489.00
557.98	28175.37
558.15	28254.95
558.32	28400.06
558.48	28435.17
558.65	28388.36
558.81	28524.11
558.98	28453.89
559.14	28512.41
559.31	28610.71
559.47	28332.18
559.64	28610.71
559.80	28694.97
559.97	28790.93
560.13	28397.72
560.30	28437.51
560.46	28723.05
560.63	28503.04
560.79	28655.18
560.96	28533.47
561.12	28699.65
561.29	28573.26
561.45	28748.80
561.61	28922.00
561.78	28411.76
561.94	29083.50
562.11	28875.19
562.27	28816.68
562.44	28701.99
562.60	29060.09
562.77	28907.96
562.93	28793.27
563.10	28926.68
563.26	28526.45
563.42	29083.50
563.59	29085.84
563.75	28877.53
563.92	28697.31
564.08	28842.42
564.24	29041.37
564.41	28996.90
564.57	28797.95
564.74	29118.60
564.90	28666.88
565.07	29284.78
565.23	29071.79
565.39	29177.12
565.56	29268.40
565.72	29006.26
565.88	28996.90
566.05	28982.85
566.21	28741.78
566.38	28828.38
566.54	28891.57
566.70	29259.04
566.87	29448.62
567.03	29003.92
567.19	29453.30
567.36	29266.06
567.52	29039.03
567.68	29317.55
567.85	29142.01
568.01	29350.32
568.17	28987.53
568.34	29270.74
568.50	29523.52
568.66	29340.96
568.83	29460.32
568.99	29069.45
569.15	29097.54
569.32	29099.88
569.48	28907.96
569.64	29350.32
569.81	29610.12
569.97	29270.74
570.13	28856.46
570.30	29436.92
570.46	29378.40
570.62	29584.37
570.78	29165.42
570.95	29013.28
571.11	29174.78
571.27	29322.23
571.43	29116.26
571.60	29132.65
571.76	29338.62
571.92	29535.22
572.09	29610.12
572.25	29663.95
572.41	29654.59
572.57	29181.80
572.74	29549.26
572.90	29532.88
573.06	28929.02
573.22	29567.99
573.38	29369.04
573.55	29209.89
573.71	29837.15
573.87	29638.20
574.03	29614.80
574.20	29170.10
574.36	29340.96
574.52	29095.20
574.68	29504.79
574.84	29514.16
575.01	29347.98
575.17	29397.13
575.33	29345.64
575.49	29310.53
575.65	29610.12
575.82	29575.01
575.98	29352.66
576.14	29652.25
576.30	29818.42
576.46	29600.76
576.62	29582.03
576.79	29804.38
576.95	29422.87
577.11	29666.29
577.27	29748.21
577.43	29783.32
577.59	29619.48
577.75	29633.52
577.92	29383.09
578.08	29420.53
578.24	29331.59
578.40	29399.47
578.56	29696.72
578.72	29509.47
578.88	30085.25
579.04	29694.38
579.21	29638.20
579.37	29869.92
579.53	29549.26
579.69	29610.12
579.85	29385.43
580.01	29266.06
580.17	29780.98
580.33	29635.86
580.49	29462.66
580.65	29853.53
580.82	29766.93
580.98	29876.94
581.14	29862.90
581.30	29886.30
581.46	29479.05
581.62	29886.30
581.78	29783.32
581.94	29771.61
582.10	29642.88
582.26	29701.40
582.42	29813.74
582.58	29977.58
582.74	30000.99
582.90	29879.28
583.06	29570.33
583.22	29446.28
583.38	29895.66
583.54	29575.01
583.70	29916.73
583.86	29582.03
584.02	29675.65
584.18	30246.74
584.34	29752.89
584.50	29853.53
584.66	30167.16
584.82	29446.28
584.98	29521.18
585.14	29766.93
585.30	30022.05
585.46	29659.27
585.62	29708.42
585.78	29567.99
585.94	29347.98
586.10	29755.23
586.26	29890.98
586.42	30188.23
586.58	30047.80
586.74	29830.13
586.90	30017.37
587.06	29544.58
587.22	29682.67
587.38	29666.29
587.54	30139.08
587.70	30078.22
587.86	29825.45
588.02	30223.34
588.18	30551.01
588.34	29867.58
588.49	30309.94
588.65	29699.06
588.81	29738.85
588.97	30195.25
589.13	29912.05
589.29	30015.03
589.45	29862.90
589.61	30295.89
589.77	30293.55
589.93	30345.05
590.08	29907.37
590.24	30429.30
590.40	30019.71
590.56	30237.38
590.72	29956.52
590.88	29813.74
591.04	30054.82
591.20	30197.59
591.35	30148.44
591.51	30125.04
591.67	30326.32
591.83	30127.38
591.99	30422.28
