SpectraSuite Data File
++++++++++++++++++++++++++++++++++++
Date: Fri Oct 18 13:58:13 GMT-05:00 2013
User: bianchi
Dark Spectrum Present: No
Reference Spectrum Present: No
Number of Sampled Component Spectra: 1
Spectrometers: USB2+H05261
Integration Time (usec): 50000 (USB2+H05261)
Spectra Averaged: 1 (USB2+H05261)
Boxcar Smoothing: 0 (USB2+H05261)
Correct for Electrical Dark: No (USB2+H05261)
Strobe/Lamp Enabled: No (USB2+H05261)
Correct for Detector Non-linearity: No (USB2+H05261)
Correct for Stray Light: No (USB2+H05261)
Number of Pixels in Processed Spectrum: 2048
>>>>>Begin Processed Spectral Data<<<<<
365.73	0.00
365.92	0.00
366.12	0.00
366.32	0.00
366.52	0.00
366.72	0.00
366.91	0.00
367.11	0.00
367.31	0.00
367.51	0.00
367.70	0.00
367.90	0.00
368.10	0.00
368.30	0.00
368.49	0.00
368.69	0.00
368.89	0.00
369.09	0.00
369.28	0.00
369.48	0.00
369.68	0.00
369.87	0.00
370.07	0.00
370.27	0.00
370.47	0.00
370.66	46.81
370.86	205.97
371.06	126.39
371.25	100.64
371.45	131.07
371.65	201.29
371.84	177.88
372.04	110.01
372.24	147.45
372.44	191.92
372.63	131.07
372.83	191.92
373.03	187.24
373.22	210.65
373.42	220.01
373.62	166.18
373.81	252.78
374.01	154.48
374.21	259.80
374.40	189.58
374.60	215.33
374.79	156.82
374.99	262.14
375.19	191.92
375.38	236.39
375.58	243.42
375.78	250.44
375.97	320.65
376.17	322.99
376.37	276.18
376.56	271.50
376.76	224.69
376.95	276.18
377.15	255.12
377.35	250.44
377.54	245.76
377.74	255.12
377.93	276.18
378.13	285.55
378.33	276.18
378.52	264.48
378.72	308.95
378.91	276.18
379.11	238.73
379.31	351.08
379.50	276.18
379.70	311.29
379.89	301.93
380.09	271.50
380.28	411.93
380.48	315.97
380.68	337.04
380.87	311.29
381.07	301.93
381.26	313.63
381.46	355.76
381.65	294.91
381.85	344.06
382.04	322.99
382.24	404.91
382.43	318.31
382.63	332.36
382.83	360.44
383.02	369.80
383.22	390.87
383.41	287.89
383.61	437.68
383.80	353.42
384.00	430.66
384.19	299.59
384.39	376.83
384.58	365.12
384.78	353.42
384.97	327.68
385.17	397.89
385.36	332.36
385.56	428.32
385.75	423.64
385.95	374.49
386.14	454.06
386.34	386.19
386.53	411.93
386.72	402.57
386.92	463.43
387.11	454.06
387.31	444.70
387.50	449.38
387.70	397.89
387.89	465.77
388.09	416.62
388.28	386.19
388.48	486.83
388.67	423.64
388.86	456.40
389.06	531.30
389.25	472.79
389.45	482.15
389.64	500.87
389.84	547.69
390.03	449.38
390.22	514.92
390.42	503.22
390.61	482.15
390.81	514.92
391.00	449.38
391.19	458.74
391.39	444.70
391.58	475.13
391.78	547.69
391.97	564.07
392.16	533.64
392.36	564.07
392.55	634.29
392.75	486.83
392.94	484.49
393.13	566.41
393.33	564.07
393.52	461.09
393.71	645.99
393.91	606.20
394.10	547.69
394.29	545.34
394.49	475.13
394.68	573.43
394.88	596.84
395.07	606.20
395.26	617.90
395.46	629.60
395.65	615.56
395.84	660.03
396.04	624.92
396.23	688.12
396.42	739.61
396.62	636.63
396.81	657.69
397.00	627.26
397.19	704.50
397.39	664.71
397.58	720.88
397.77	718.54
397.97	706.84
398.16	760.67
398.35	755.99
398.55	739.61
398.74	746.63
398.93	807.48
399.12	699.82
399.32	753.65
399.51	779.40
399.70	837.91
399.90	767.70
400.09	755.99
400.28	800.46
400.47	770.04
400.67	901.11
400.86	830.89
401.05	858.98
401.24	809.83
401.44	777.06
401.63	821.53
401.82	877.70
402.01	812.17
402.21	837.91
402.40	908.13
402.59	868.34
402.78	870.68
402.97	854.30
403.17	828.55
403.36	830.89
403.55	877.70
403.74	912.81
403.93	950.26
404.13	814.51
404.32	931.53
404.51	954.94
404.70	882.38
404.89	952.60
405.09	938.55
405.28	924.51
405.47	835.57
405.66	978.34
405.85	1083.67
406.05	1022.81
406.24	966.64
406.43	1013.45
406.62	1020.47
406.81	1034.52
407.00	1076.65
407.20	1034.52
407.39	1004.09
407.58	1050.90
407.77	1001.75
407.96	1137.50
408.15	1090.69
408.34	1188.99
408.54	1100.05
408.73	1165.59
408.92	1104.73
409.11	1104.73
409.30	1137.50
409.49	1069.62
409.68	1188.99
409.87	1156.22
410.07	1186.65
410.26	1109.41
410.45	1163.25
410.64	1224.10
410.83	1261.55
411.02	1170.27
411.21	1296.66
411.40	1224.10
411.59	1277.93
411.78	1214.74
411.98	1294.32
412.17	1310.70
412.36	1240.48
412.55	1392.62
412.74	1423.05
412.93	1441.77
413.12	1373.89
413.31	1462.83
413.50	1437.09
413.69	1427.73
413.88	1528.37
414.07	1526.03
414.26	1467.52
414.45	1458.15
414.64	1497.94
414.83	1577.52
415.02	1586.88
415.22	1523.69
415.41	1537.73
415.60	1586.88
415.79	1544.75
415.98	1504.96
416.17	1661.78
416.36	1603.27
416.55	1631.35
416.74	1657.10
416.93	1675.82
417.12	1638.38
417.31	1673.48
417.50	1764.76
417.69	1781.15
417.88	1771.79
418.07	1820.94
418.26	1727.32
418.45	1720.29
418.64	1806.89
418.83	1790.51
419.02	1781.15
419.21	1867.75
419.39	1811.57
419.58	1872.43
419.77	1795.19
419.96	1930.94
420.15	1919.24
420.34	1956.69
420.53	1825.62
420.72	1877.11
420.91	1860.73
421.10	1900.52
421.29	1984.77
421.48	1820.94
421.67	1961.37
421.86	1975.41
422.05	2029.24
422.24	1966.05
422.43	1987.11
422.61	1987.11
422.80	2064.35
422.99	2066.69
423.18	1973.07
423.37	2019.88
423.56	2012.86
423.75	2024.56
423.94	2022.22
424.13	1820.94
424.32	1963.71
424.50	2026.90
424.69	2125.21
424.88	2101.80
425.07	2078.40
425.26	2003.50
425.45	2066.69
425.64	2064.35
425.83	2143.93
426.01	2108.82
426.20	2031.58
426.39	2050.31
426.58	2134.57
426.77	2019.88
426.96	2237.55
427.15	2150.95
427.33	2092.44
427.52	2188.40
427.71	2172.02
427.90	2076.06
428.09	2207.13
428.28	2188.40
428.46	2134.57
428.65	2228.19
428.84	2258.62
429.03	2303.09
429.22	2249.25
429.40	2230.53
429.59	2284.36
429.78	2225.85
429.97	2221.17
430.16	2326.49
430.34	2368.62
430.53	2286.70
430.72	2324.15
430.91	2249.25
431.10	2282.02
431.28	2469.27
431.47	2370.96
431.66	2434.16
431.85	2408.41
432.03	2464.58
432.22	2396.71
432.41	2605.02
432.60	2462.24
432.79	2523.10
432.97	2565.23
433.16	2518.42
433.35	2504.37
433.54	2551.18
433.72	2588.63
433.91	2497.35
434.10	2441.18
434.28	2607.36
434.47	2509.05
434.66	2731.41
434.85	2546.50
435.03	2476.29
435.22	2672.89
435.41	2759.49
435.59	2633.10
435.78	2651.83
435.97	2745.45
436.16	2726.72
436.34	2766.51
436.53	2672.89
436.72	2843.75
436.90	2712.68
437.09	2775.88
437.28	2661.19
437.46	2729.06
437.65	2808.64
437.84	2841.41
438.02	2729.06
438.21	2864.82
438.40	2780.56
438.58	2972.48
438.77	3059.08
438.96	2899.92
439.14	2944.39
439.33	2993.55
439.52	2993.55
439.70	3075.46
439.89	3080.14
440.08	3110.57
440.26	3119.93
440.45	3108.23
440.63	3059.08
440.82	3239.30
441.01	3096.53
441.19	3194.83
441.38	3346.97
441.57	3201.85
441.75	3295.47
441.94	3344.63
442.12	3328.24
442.31	3356.33
442.50	3393.78
442.68	3246.32
442.87	3332.92
443.05	3342.28
443.24	3463.99
443.43	3337.60
443.61	3410.16
443.80	3620.81
443.98	3391.44
444.17	3239.30
444.35	3527.19
444.54	3433.57
444.73	3368.03
444.91	3492.08
445.10	3454.63
445.28	3398.46
445.47	3428.88
445.65	3510.80
445.84	3562.30
446.02	3485.06
446.21	3613.79
446.39	3386.76
446.58	3548.25
446.77	3410.16
446.95	3405.48
447.14	3543.57
447.32	3562.30
447.51	3665.28
447.69	3508.46
447.88	3625.49
448.06	3487.40
448.25	3646.55
448.43	3749.54
448.62	3506.12
448.80	3506.12
448.99	3719.11
449.17	3705.07
449.36	3597.40
449.54	3758.90
449.73	3681.66
449.91	3632.51
450.10	3756.56
450.28	3810.39
450.46	3726.13
450.65	3688.68
450.83	3810.39
451.02	3779.97
451.20	3815.07
451.39	3765.92
451.57	3775.28
451.76	3794.01
451.94	3934.44
452.13	4011.68
452.31	4044.45
452.49	3922.74
452.68	3854.86
452.86	3819.75
453.05	3962.53
453.23	3988.27
453.42	3850.18
453.60	3906.35
453.78	4018.70
453.97	3929.76
454.15	4030.40
454.34	4016.36
454.52	4063.17
454.70	4044.45
454.89	4086.58
455.07	4056.15
455.26	4070.19
455.44	4107.64
455.62	4222.33
455.81	4210.62
455.99	4201.26
456.17	4131.05
456.36	4212.96
456.54	4159.13
456.73	4367.44
456.91	4355.74
457.09	4360.42
457.28	4540.64
457.46	4248.07
457.64	4440.00
457.83	4327.65
458.01	4414.25
458.19	4484.47
458.38	4311.27
458.56	4498.51
458.74	4421.27
458.93	4468.08
459.11	4568.73
459.29	4610.86
459.48	4402.55
459.66	4648.30
459.84	4645.96
460.03	4681.07
460.21	4638.94
460.39	4674.05
460.57	4418.93
460.76	4629.58
460.94	4568.73
461.12	4683.41
461.31	4608.51
461.49	4582.77
461.67	4718.52
461.85	4772.35
462.04	4664.69
462.22	4994.70
462.40	4762.99
462.59	4788.74
462.77	4784.06
462.95	4868.31
463.13	4781.71
463.32	4786.40
463.50	4987.68
463.68	4887.04
463.86	4945.55
464.05	4812.14
464.23	4924.49
464.41	4800.44
464.59	4940.87
464.78	5043.85
464.96	4863.63
465.14	5053.22
465.32	5252.16
465.50	5118.75
465.69	5041.51
465.87	5081.30
466.05	5027.47
466.23	4990.02
466.41	5057.90
466.60	5249.82
466.78	4968.96
466.96	5011.09
467.14	5118.75
467.32	5125.77
467.51	5088.32
467.69	5123.43
467.87	5296.63
468.05	5275.57
468.23	5270.89
468.41	5233.44
468.60	5268.55
468.78	5207.69
468.96	5341.10
469.14	5203.01
469.32	5446.43
469.50	5172.58
469.69	5462.81
469.87	5469.83
470.05	5680.48
470.23	5507.28
470.41	5486.22
470.59	5518.98
470.77	5387.91
470.95	5540.05
471.14	5516.64
471.32	5469.83
471.50	5724.95
471.68	5699.20
471.86	5617.29
472.04	5720.27
472.22	5851.34
472.40	5650.05
472.58	5724.95
472.77	5626.65
472.95	5851.34
473.13	6230.51
473.31	5909.85
473.49	6043.26
473.67	5909.85
473.85	5823.25
474.03	6209.44
474.21	6017.52
474.39	6031.56
474.57	6211.78
474.75	6197.74
474.93	6272.64
475.12	6326.47
475.30	6148.59
475.48	6347.53
475.66	6445.84
475.84	6321.79
476.02	6558.18
476.20	6434.13
476.38	6499.67
476.56	6736.06
476.74	6703.29
476.92	6553.50
477.10	6668.19
477.28	6932.67
477.46	6736.06
477.64	6965.43
477.82	6953.73
478.00	6930.33
478.18	7028.63
478.36	7094.16
478.54	7045.01
478.72	7300.13
478.90	7042.67
479.08	7368.01
479.26	7279.07
479.44	7307.15
479.62	7461.63
479.80	7578.65
479.98	7620.78
480.16	7517.80
480.34	7595.04
480.52	7714.41
480.70	7688.66
480.88	7667.60
481.06	7868.88
481.24	7791.64
481.41	8114.64
481.59	8032.72
481.77	8131.02
481.95	8079.53
482.13	8252.73
482.31	8114.64
482.49	8400.18
482.67	8479.76
482.85	8358.05
483.03	8589.77
483.21	8741.90
483.39	8585.08
483.57	8791.05
483.74	8741.90
483.92	8835.52
484.10	8718.50
484.28	8971.27
484.46	9238.09
484.64	9348.10
484.82	9137.45
485.00	9387.89
485.18	9275.54
485.35	9844.29
485.53	9188.94
485.71	9568.11
485.89	9937.91
486.07	9647.69
486.25	9767.06
486.43	9675.77
486.61	9928.55
486.78	9984.73
486.96	10019.83
487.14	10422.41
487.32	10052.60
487.50	10303.04
487.68	10253.89
487.85	10588.58
488.03	10583.90
488.21	10675.18
488.39	10836.68
488.57	10967.75
488.75	10944.34
488.92	11080.10
489.10	11300.11
489.28	11272.02
489.46	11587.99
489.64	11272.02
489.81	11503.73
489.99	11375.00
490.17	11641.82
490.35	11658.21
490.53	11726.08
490.70	11899.28
490.88	11716.72
491.06	11878.22
491.24	12053.76
491.41	12088.87
491.59	12479.74
491.77	12292.49
491.95	12238.66
492.13	12425.90
492.30	12629.53
492.48	12585.06
492.66	12713.79
492.84	12402.50
493.01	12690.38
493.19	12793.37
493.37	12795.71
493.54	12882.31
493.72	13081.25
493.90	13123.38
494.08	13231.05
494.25	13315.31
494.43	13287.22
494.61	13441.70
494.79	13532.98
494.96	13738.94
495.14	13554.04
495.32	13776.39
495.49	13902.78
495.67	13795.12
495.85	14230.46
496.02	14174.28
496.20	14073.64
496.38	14183.65
496.55	14443.45
496.73	14422.38
496.91	14478.55
497.09	14750.06
497.26	14553.45
497.44	14640.05
497.62	14785.16
497.79	14974.75
497.97	14839.00
498.14	14839.00
498.32	15040.28
498.50	15208.80
498.67	15417.11
498.85	15281.36
499.03	15398.38
499.20	15363.28
499.38	15417.11
499.56	15672.23
499.73	15592.65
499.91	15843.09
500.08	15910.96
500.26	15702.65
500.44	15878.19
500.61	15955.43
500.79	15646.48
500.97	16018.63
501.14	16152.04
501.32	16372.05
501.49	16182.46
501.67	16243.32
501.84	16159.06
502.02	16528.86
502.20	16381.41
502.37	16449.28
502.55	16210.55
502.72	16578.01
502.90	16542.91
503.07	16601.42
503.25	16669.30
503.43	16582.70
503.60	16767.60
503.78	16800.37
503.95	16737.17
504.13	17095.27
504.30	17179.53
504.48	16854.20
504.65	17099.95
504.83	17064.85
505.01	17483.80
505.18	17338.69
505.36	17502.53
505.53	17324.65
505.71	17549.34
505.88	17348.05
506.06	17216.98
506.23	17678.07
506.41	17891.06
506.58	17778.71
506.76	17638.28
506.93	17926.16
507.11	17692.11
507.28	17921.48
507.46	17869.99
507.63	18066.60
507.81	18331.08
507.98	18132.13
508.16	18174.26
508.33	18427.04
508.50	18181.28
508.68	18300.65
508.85	18192.98
509.03	18492.57
509.20	18677.48
509.38	18443.42
509.55	18544.06
509.73	18562.79
509.90	18527.68
510.08	18466.83
510.25	18822.59
510.42	19037.92
510.60	18696.20
510.77	18911.53
510.95	19133.88
511.12	18895.14
511.30	19063.66
511.47	19300.06
511.64	19290.70
511.82	19278.99
511.99	19335.17
512.17	19393.68
512.34	19381.98
512.51	19587.94
512.69	19482.62
512.86	19557.52
513.04	19711.99
513.21	19885.19
513.38	19798.59
513.56	20072.43
513.73	19662.84
513.90	19822.00
514.08	19906.26
514.25	20018.60
514.43	20135.63
514.60	20357.98
514.77	19974.13
514.95	19976.47
515.12	20187.12
515.29	20189.46
515.47	20486.71
515.64	20755.87
515.81	20365.00
515.99	20585.01
516.16	20840.13
516.33	20634.16
516.51	20596.71
516.68	20184.78
516.85	20683.31
517.03	20865.88
517.20	20734.81
517.37	20851.83
517.54	20940.77
517.72	20823.75
517.89	21240.36
518.06	20994.61
518.24	21034.39
518.41	21125.68
518.58	21380.79
518.75	21074.18
518.93	21317.60
519.10	21088.23
519.27	21392.50
519.45	21207.59
519.62	21289.51
519.79	21570.38
519.96	21240.36
520.14	21776.34
520.31	21745.92
520.48	21687.40
520.65	21834.86
520.83	21940.18
521.00	21954.22
521.17	21930.82
521.34	21858.26
521.52	21895.71
521.69	22022.10
521.86	21811.45
522.03	21972.95
522.20	22185.94
522.38	22382.54
522.55	22438.72
522.72	22504.25
522.89	22471.48
523.07	22340.41
523.24	22417.65
523.41	22649.36
523.58	22553.40
523.75	22546.38
523.92	22845.97
524.10	22827.24
524.27	22801.50
524.44	22855.33
524.61	22857.67
524.78	23040.23
524.96	22930.23
525.13	23033.21
525.30	22691.49
525.47	22916.19
525.64	22831.93
525.81	23075.34
525.98	23168.96
526.16	23304.71
526.33	23379.61
526.50	23285.99
526.67	23381.95
526.84	23131.51
527.01	23183.01
527.18	23264.92
527.36	23489.62
527.53	23693.24
527.70	23934.32
527.87	23665.16
528.04	23683.88
528.21	23779.84
528.38	23477.91
528.55	23456.85
528.72	23555.15
528.89	23896.87
529.07	23667.50
529.24	24182.42
529.41	23969.43
529.58	24070.07
529.75	23803.25
529.92	23810.27
530.09	23637.07
530.26	24198.80
530.43	24102.84
530.60	23906.23
530.77	24067.73
530.94	24140.29
531.11	24116.88
531.28	24044.32
531.46	24058.37
531.63	24437.53
531.80	24280.72
531.97	24795.64
532.14	24456.26
532.31	24418.81
532.48	24507.75
532.65	24444.56
532.82	24751.17
532.99	24456.26
533.16	24783.93
533.33	24739.46
533.50	25090.54
533.67	25057.78
533.84	24858.83
534.01	24706.70
534.18	24805.00
534.35	25095.22
534.52	24690.31
534.69	25165.44
534.86	25326.94
535.03	25111.61
535.20	24985.22
535.37	25216.93
535.54	25376.09
535.71	25135.01
535.88	25422.90
536.05	25137.35
536.22	25127.99
536.38	25401.83
536.55	25488.43
536.72	25518.86
536.89	25284.81
537.06	25888.67
537.23	25661.63
537.40	25596.10
537.57	25340.98
537.74	25563.33
537.91	25834.83
538.08	25891.01
538.25	25649.93
538.42	25628.87
538.59	26113.36
538.75	25907.39
538.92	25844.20
539.09	25879.30
539.26	25872.28
539.43	26059.52
539.60	25909.73
539.77	26012.71
539.94	26188.25
540.11	26003.35
540.28	25717.81
540.44	25933.14
540.61	26242.09
540.78	26085.27
540.95	26141.44
541.12	26300.60
541.29	26122.72
541.46	26150.81
541.62	26487.84
541.79	26558.06
541.96	26228.04
542.13	25923.77
542.30	26480.82
542.47	26628.27
542.63	26967.65
542.80	26677.43
542.97	26792.11
543.14	26710.19
543.31	26740.62
543.48	27098.72
543.64	26998.08
543.81	27143.19
543.98	27110.43
544.15	27218.09
544.32	27180.64
544.48	27091.70
544.65	27049.57
544.82	27262.56
544.99	26595.51
545.16	26883.39
545.32	27248.52
545.49	27438.10
545.66	27491.93
545.83	27405.33
546.00	27632.36
546.16	27367.88
546.33	27426.40
546.50	26902.12
546.67	27243.84
546.83	27131.49
547.00	27295.33
547.17	27482.57
547.34	27363.20
547.50	27461.51
547.67	27955.36
547.84	27587.89
548.00	27906.21
548.17	27417.04
548.34	27452.14
548.51	27763.43
548.67	27915.57
548.84	27618.32
549.01	27716.62
549.18	27435.76
549.34	27843.01
549.51	27660.45
549.68	27917.91
549.84	27644.07
550.01	27735.35
550.18	27496.61
550.34	28056.00
550.51	27798.54
550.68	28208.14
550.84	27758.75
551.01	28194.09
551.18	28411.76
551.34	27885.14
551.51	28416.44
551.68	28025.57
551.84	28315.80
552.01	28322.82
552.18	28339.21
552.34	28388.36
552.51	28362.61
552.68	28144.94
552.84	28439.85
553.01	28252.61
553.18	28299.42
553.34	28460.91
553.51	28458.57
553.67	28627.09
553.84	28631.77
554.01	28500.70
554.17	28723.05
554.34	28580.28
554.51	28231.54
554.67	28540.49
554.84	28954.77
555.00	28584.96
555.17	28652.84
555.33	28760.50
555.50	28830.72
555.67	28804.97
555.83	28659.86
556.00	28910.30
556.16	28776.89
556.33	28423.47
556.50	28760.50
556.66	29160.73
556.83	28720.71
556.99	29448.62
557.16	29567.99
557.32	28950.09
557.49	29324.57
557.65	29071.79
557.82	29010.94
557.98	29436.92
558.15	28751.14
558.32	28971.15
558.48	29240.31
558.65	29048.39
558.81	29111.58
558.98	29380.74
559.14	29319.89
559.31	29497.77
559.47	29584.37
559.64	29223.93
559.80	28950.09
559.97	29273.08
560.13	29462.66
560.30	28807.31
560.46	29472.03
560.63	29563.31
560.79	29153.71
560.96	29481.39
561.12	29228.61
561.29	29329.25
561.45	29392.45
561.61	29668.63
561.78	29656.93
561.94	29685.01
562.11	29418.19
562.27	29539.90
562.44	29383.09
562.60	29500.11
562.77	29453.30
562.93	29457.98
563.10	29912.05
563.26	29551.60
563.42	29806.72
563.59	29921.41
563.75	29413.51
563.92	29570.33
564.08	29537.56
564.24	29570.33
564.41	29472.03
564.57	29729.48
564.74	29745.87
564.90	29563.31
565.07	29523.52
565.23	29741.19
565.39	29654.59
565.56	29844.17
565.72	29652.25
565.88	29914.39
566.05	29394.79
566.21	29970.56
566.38	29764.59
566.54	29862.90
566.70	30127.38
566.87	30267.81
567.03	29928.43
567.19	30141.42
567.36	30047.80
567.52	30192.91
567.68	29701.40
567.85	30022.05
568.01	29621.82
568.17	29888.64
568.34	30237.38
568.50	30249.08
568.66	30307.60
568.83	30401.22
568.99	30258.45
569.15	29633.52
569.32	30085.25
569.48	29923.75
569.64	29818.42
569.81	30232.70
569.97	30216.32
570.13	30288.87
570.30	29947.15
570.46	30403.56
570.62	30389.52
570.78	29919.07
570.95	29823.11
571.11	30232.70
571.27	29883.96
571.43	29738.85
571.60	30169.51
571.76	30120.35
571.92	30206.95
572.09	30366.11
572.25	30190.57
572.41	30206.95
572.57	29968.22
572.74	30462.07
572.90	29818.42
573.06	30450.37
573.22	30291.21
573.38	30452.71
573.55	30305.26
573.71	30735.92
573.87	30349.73
574.03	30288.87
574.20	30286.53
574.36	30242.06
574.52	30298.23
574.68	30022.05
574.84	30211.64
575.01	30415.26
575.17	30457.39
575.33	30272.49
575.49	30595.48
575.65	30569.74
575.82	30553.35
575.98	30094.61
576.14	30209.29
576.30	30118.01
576.46	30113.33
576.62	30387.18
576.79	30237.38
576.95	30384.83
577.11	30291.21
577.27	30103.97
577.43	30583.78
577.59	30073.54
577.75	30464.41
577.92	30431.65
578.08	30642.29
578.24	30132.06
578.40	30513.56
578.56	30246.74
578.72	30265.47
578.88	30586.12
579.04	31009.76
579.21	30572.08
579.37	30572.08
579.53	30656.34
579.69	30363.77
579.85	29996.31
580.01	30232.70
580.17	30450.37
580.33	30380.15
580.49	30422.28
580.65	30806.13
580.82	30625.91
580.98	30712.51
581.14	30766.34
581.30	30785.07
581.46	30242.06
581.62	30216.32
581.78	30267.81
581.94	30286.53
582.10	30242.06
582.26	30593.14
582.42	30448.03
582.58	30572.08
582.74	30712.51
582.90	30382.49
583.06	30672.72
583.22	30597.82
583.38	30747.62
583.54	30368.45
583.70	30733.57
583.86	30588.46
584.02	30181.21
584.18	30473.78
584.34	30759.32
584.50	30623.57
584.66	30139.08
584.82	30396.54
584.98	30593.14
585.14	30284.19
585.30	30560.37
585.46	30508.88
585.62	30890.39
585.78	30651.66
585.94	30450.37
586.10	30391.86
586.26	30775.70
586.42	30560.37
586.58	31131.47
586.74	30494.84
586.90	30312.28
587.06	30387.18
587.22	30829.54
587.38	30286.53
587.54	30965.29
587.70	30838.90
587.86	31131.47
588.02	30679.74
588.18	30581.44
588.34	30916.14
588.49	30766.34
588.65	30876.35
588.81	30841.24
588.97	30726.55
589.13	30787.41
589.29	30771.02
589.45	30749.96
589.61	31206.36
589.77	30665.70
589.93	31175.94
590.08	31199.34
590.24	31117.42
590.40	31297.64
590.56	30817.83
590.72	30927.84
590.88	30794.43
591.04	30637.61
591.20	31154.87
591.35	31129.12
591.51	30948.90
591.67	30909.11
591.83	31463.82
