SpectraSuite Data File
++++++++++++++++++++++++++++++++++++
Date: Fri Oct 18 13:58:31 GMT-05:00 2013
User: bianchi
Dark Spectrum Present: No
Reference Spectrum Present: No
Number of Sampled Component Spectra: 1
Spectrometers: USB2+H05261
Integration Time (usec): 50000 (USB2+H05261)
Spectra Averaged: 1 (USB2+H05261)
Boxcar Smoothing: 0 (USB2+H05261)
Correct for Electrical Dark: No (USB2+H05261)
Strobe/Lamp Enabled: No (USB2+H05261)
Correct for Detector Non-linearity: No (USB2+H05261)
Correct for Stray Light: No (USB2+H05261)
Number of Pixels in Processed Spectrum: 2048
>>>>>Begin Processed Spectral Data<<<<<
365.73	0.00
365.92	0.00
366.12	0.00
366.32	0.00
366.52	0.00
366.72	0.00
366.91	0.00
367.11	0.00
367.31	0.00
367.51	0.00
367.70	0.00
367.90	0.00
368.10	0.00
368.30	0.00
368.49	0.00
368.69	0.00
368.89	0.00
369.09	0.00
369.28	0.00
369.48	0.00
369.68	0.00
369.87	0.00
370.07	0.00
370.27	0.00
370.47	0.00
370.66	107.66
370.86	177.88
371.06	133.41
371.25	229.37
371.45	107.66
371.65	173.20
371.84	91.28
372.04	170.86
372.24	173.20
372.44	177.88
372.63	212.99
372.83	238.73
373.03	294.91
373.22	166.18
373.42	203.63
373.62	161.50
373.81	215.33
374.01	266.82
374.21	215.33
374.40	252.78
374.60	262.14
374.79	224.69
374.99	163.84
375.19	224.69
375.38	283.20
375.58	229.37
375.78	243.42
375.97	234.05
376.17	257.46
376.37	187.24
376.56	297.25
376.76	224.69
376.95	262.14
377.15	271.50
377.35	311.29
377.54	278.52
377.74	276.18
377.93	259.80
378.13	255.12
378.33	269.16
378.52	271.50
378.72	250.44
378.91	245.76
379.11	292.57
379.31	304.27
379.50	248.10
379.70	217.67
379.89	376.83
380.09	348.74
380.28	294.91
380.48	381.51
380.68	257.46
380.87	325.33
381.07	322.99
381.26	327.68
381.46	402.57
381.65	278.52
381.85	294.91
382.04	320.65
382.24	353.42
382.43	383.85
382.63	299.59
382.83	376.83
383.02	332.36
383.22	334.70
383.41	341.72
383.61	358.10
383.80	351.08
384.00	381.51
384.19	306.61
384.39	376.83
384.58	339.38
384.78	397.89
384.97	313.63
385.17	393.21
385.36	376.83
385.56	311.29
385.75	334.70
385.95	456.40
386.14	409.59
386.34	367.46
386.53	393.21
386.72	376.83
386.92	435.34
387.11	433.00
387.31	409.59
387.50	348.74
387.70	320.65
387.89	362.78
388.09	479.81
388.28	428.32
388.48	388.53
388.67	423.64
388.86	479.81
389.06	528.96
389.25	564.07
389.45	428.32
389.64	369.80
389.84	404.91
390.03	517.26
390.22	484.49
390.42	521.94
390.61	482.15
390.81	430.66
391.00	468.11
391.19	477.47
391.39	456.40
391.58	475.13
391.78	559.39
391.97	461.09
392.16	543.00
392.36	568.75
392.55	580.45
392.75	526.62
392.94	489.17
393.13	547.69
393.33	493.85
393.52	559.39
393.71	594.50
393.91	533.64
394.10	545.34
394.29	606.20
394.49	517.26
394.68	564.07
394.88	592.16
395.07	585.13
395.26	594.50
395.46	606.20
395.65	587.47
395.84	648.33
396.04	692.80
396.23	608.54
396.42	688.12
396.62	622.58
396.81	608.54
397.00	655.35
397.19	653.01
397.39	543.00
397.58	723.23
397.77	702.16
397.97	578.11
398.16	718.54
398.35	585.13
398.55	648.33
398.74	650.67
398.93	706.84
399.12	678.76
399.32	610.88
399.51	617.90
399.70	732.59
399.90	706.84
400.09	674.07
400.28	800.46
400.47	718.54
400.67	753.65
400.86	786.42
401.05	786.42
401.24	755.99
401.44	828.55
401.63	858.98
401.82	784.08
402.01	758.33
402.21	791.10
402.40	851.96
402.59	823.87
402.78	835.57
402.97	809.83
403.17	861.32
403.36	798.12
403.55	840.25
403.74	873.02
403.93	849.61
404.13	943.24
404.32	884.72
404.51	938.55
404.70	880.04
404.89	917.49
405.09	863.66
405.28	910.47
405.47	910.47
405.66	964.30
405.85	924.51
406.05	945.58
406.24	978.34
406.43	917.49
406.62	1020.47
406.81	985.37
407.00	1013.45
407.20	950.26
407.39	943.24
407.58	1088.35
407.77	1029.84
407.96	1001.75
408.15	1093.03
408.34	1074.31
408.54	1029.84
408.73	1107.07
408.92	1062.60
409.11	976.00
409.30	1100.05
409.49	1114.10
409.68	1095.37
409.87	1111.75
410.07	1064.94
410.26	1172.61
410.45	1121.12
410.64	1078.99
410.83	1210.06
411.02	1263.89
411.21	1256.87
411.40	1224.10
411.59	1343.47
411.78	1188.99
411.98	1242.82
412.17	1240.48
412.36	1214.74
412.55	1203.04
412.74	1338.79
412.93	1413.68
413.12	1357.51
413.31	1277.93
413.50	1254.53
413.69	1310.70
413.88	1387.94
414.07	1427.73
414.26	1413.68
414.45	1481.56
414.64	1334.11
414.83	1404.32
415.02	1455.81
415.22	1437.09
415.41	1570.50
415.60	1544.75
415.79	1584.54
415.98	1530.71
416.17	1575.18
416.36	1495.60
416.55	1554.12
416.74	1563.48
416.93	1589.22
417.12	1500.28
417.31	1603.27
417.50	1671.14
417.69	1790.51
417.88	1666.46
418.07	1547.09
418.26	1720.29
418.45	1771.79
418.64	1732.00
418.83	1647.74
419.02	1746.04
419.21	1905.20
419.39	1837.32
419.58	1792.85
419.77	1673.48
419.96	1823.28
420.15	1762.42
420.34	1781.15
420.53	1886.47
420.72	1963.71
420.91	1802.21
421.10	1874.77
421.29	1884.13
421.48	1849.02
421.67	1930.94
421.86	1949.67
422.05	1900.52
422.24	1905.20
422.43	1935.62
422.61	1959.03
422.80	2015.20
422.99	1968.39
423.18	1895.83
423.37	1989.46
423.56	2003.50
423.75	2038.61
423.94	1937.96
424.13	1799.87
424.32	1909.88
424.50	1994.14
424.69	2062.01
424.88	1952.01
425.07	1952.01
425.26	2010.52
425.45	2059.67
425.64	1952.01
425.83	2062.01
426.01	2087.76
426.20	2120.53
426.39	1935.62
426.58	2148.61
426.77	2050.31
426.96	2106.48
427.15	2078.40
427.33	2101.80
427.52	2059.67
427.71	2064.35
427.90	2024.56
428.09	2001.16
428.28	2162.66
428.46	2115.84
428.65	2146.27
428.84	2251.60
429.03	2083.08
429.22	2141.59
429.40	2153.29
429.59	2155.63
429.78	2078.40
429.97	2221.17
430.16	2221.17
430.34	2183.72
430.53	2244.57
430.72	2349.90
430.91	2293.72
431.10	2296.07
431.28	2363.94
431.47	2385.01
431.66	2375.64
431.85	2370.96
432.03	2387.35
432.22	2417.77
432.41	2349.90
432.60	2345.22
432.79	2387.35
432.97	2427.14
433.16	2373.30
433.35	2401.39
433.54	2377.98
433.72	2581.61
433.91	2537.14
434.10	2487.99
434.28	2408.41
434.47	2537.14
434.66	2551.18
434.85	2511.39
435.03	2490.33
435.22	2548.84
435.41	2633.10
435.59	2668.21
435.78	2539.48
435.97	2527.78
436.16	2628.42
436.34	2677.57
436.53	2576.93
436.72	2715.02
436.90	2576.93
437.09	2839.07
437.28	2656.51
437.46	2682.25
437.65	2717.36
437.84	2649.49
438.02	2684.59
438.21	2635.44
438.40	2698.64
438.58	2803.96
438.77	2897.58
438.96	2810.98
439.14	2679.91
439.33	2881.20
439.52	2832.05
439.70	2949.08
439.89	2986.52
440.08	2911.63
440.26	2981.84
440.45	3070.78
440.63	3077.80
440.82	3075.46
441.01	3047.38
441.19	3033.33
441.38	3066.10
441.57	3122.27
441.75	3194.83
441.94	3171.43
442.12	3232.28
442.31	3344.63
442.50	3187.81
442.68	3225.26
442.87	3162.06
443.05	3201.85
443.24	3417.18
443.43	3274.41
443.61	3314.20
443.80	3447.61
443.98	3351.65
444.17	3206.53
444.35	3325.90
444.54	3339.94
444.73	3407.82
444.91	3356.33
445.10	3391.44
445.28	3276.75
445.47	3368.03
445.65	3330.58
445.84	3276.75
446.02	3431.23
446.21	3442.93
446.39	3412.50
446.58	3379.73
446.77	3377.39
446.95	3382.07
447.14	3407.82
447.32	3346.97
447.51	3363.35
447.69	3440.59
447.88	3459.31
448.06	3487.40
448.25	3417.18
448.43	3529.53
448.62	3489.74
448.80	3370.37
448.99	3475.70
449.17	3426.54
449.36	3461.65
449.54	3583.36
449.73	3581.02
449.91	3644.21
450.10	3719.11
450.28	3761.24
450.46	3524.85
450.65	3583.36
450.83	3522.51
451.02	3634.85
451.20	3801.03
451.39	3908.69
451.57	3719.11
451.76	3726.13
451.94	3693.37
452.13	3737.84
452.31	3801.03
452.49	3808.05
452.68	3817.41
452.86	3749.54
453.05	3824.44
453.23	3882.95
453.42	3765.92
453.60	3861.88
453.78	3803.37
453.97	3735.50
454.15	3854.86
454.34	3861.88
454.52	4018.70
454.70	3904.01
454.89	3861.88
455.07	3852.52
455.26	3892.31
455.44	3997.64
455.62	4014.02
455.81	4060.83
455.99	4028.06
456.17	4142.75
456.36	4138.07
456.54	4133.39
456.73	4194.24
456.91	4248.07
457.09	4147.43
457.28	4227.01
457.46	4180.20
457.64	4290.20
457.83	4222.33
458.01	4187.22
458.19	4432.97
458.38	4163.81
458.56	4259.78
458.74	4344.03
458.93	4203.60
459.11	4102.96
459.29	4304.25
459.48	4234.03
459.66	4367.44
459.84	4416.59
460.03	4519.57
460.21	4432.97
460.39	4690.43
460.57	4444.68
460.76	4477.44
460.94	4561.70
461.12	4631.92
461.31	4442.34
461.49	4367.44
461.67	4304.25
461.85	4671.71
462.04	4568.73
462.22	4620.22
462.40	4500.85
462.59	4599.15
462.77	4706.82
462.95	4638.94
463.13	4683.41
463.32	4695.11
463.50	4926.83
463.68	4737.24
463.86	4648.30
464.05	4692.77
464.23	4578.09
464.41	4896.40
464.59	4716.18
464.78	4851.93
464.96	4816.82
465.14	4777.03
465.32	5001.72
465.50	4863.63
465.69	4858.95
465.87	4910.44
466.05	4889.38
466.23	4786.40
466.41	5008.75
466.60	4990.02
466.78	4835.55
466.96	4922.15
467.14	5118.75
467.32	4966.62
467.51	5034.49
467.69	4931.51
467.87	5025.13
468.05	5210.03
468.23	5078.96
468.41	5067.26
468.60	5013.43
468.78	5217.05
468.96	5020.45
469.14	5088.32
469.32	5275.57
469.50	4945.55
469.69	5289.61
469.87	5341.10
470.05	5263.86
470.23	5329.40
470.41	5174.92
470.59	5451.11
470.77	5226.42
470.95	5350.46
471.14	5446.43
471.32	5364.51
471.50	5645.37
471.68	5455.79
471.86	5380.89
472.04	5659.42
472.22	5582.18
472.40	5518.98
472.58	5617.29
472.77	5696.86
472.95	5816.23
473.13	5921.56
473.31	5624.31
473.49	5724.95
473.67	5645.37
473.85	5877.09
474.03	5753.04
474.21	5762.40
474.39	5888.79
474.57	5879.43
474.75	5919.21
474.93	5902.83
475.12	6010.50
475.30	6127.52
475.48	6129.86
475.66	6097.10
475.84	6125.18
476.02	6181.35
476.20	6214.12
476.38	6410.73
476.56	6492.65
476.74	6382.64
476.92	6392.00
477.10	6569.88
477.28	6483.28
477.46	6473.92
477.64	6609.67
477.82	6513.71
478.00	6623.72
478.18	6808.62
478.36	6899.90
478.54	6841.39
478.72	6939.69
478.90	6848.41
479.08	6867.13
479.26	7098.84
479.44	7255.66
479.62	7159.70
479.80	7309.49
479.98	7417.16
480.16	7288.43
480.34	7382.05
480.52	7442.90
480.70	7316.51
480.88	7536.52
481.06	7623.12
481.24	7531.84
481.41	7735.47
481.59	7861.86
481.77	7854.84
481.95	7850.16
482.13	7971.86
482.31	7878.24
482.49	7978.89
482.67	8063.15
482.85	8248.05
483.03	8203.58
483.21	8484.44
483.39	8372.10
483.57	8484.44
483.74	8362.73
483.92	8439.97
484.10	8557.00
484.28	8802.75
484.46	9090.64
484.64	8957.23
484.82	8732.54
485.00	8854.25
485.18	9029.79
485.35	9352.78
485.53	9289.59
485.71	9282.56
485.89	9343.42
486.07	9111.71
486.25	9273.20
486.43	9476.83
486.61	9444.06
486.78	9640.67
486.96	9743.65
487.14	9809.19
487.32	9797.48
487.50	9984.73
487.68	10104.09
487.85	10153.24
488.03	9987.07
488.21	10218.78
488.39	10333.47
488.57	10415.38
488.75	10415.38
488.92	10483.26
489.10	10558.16
489.28	10998.18
489.46	10974.77
489.64	10820.30
489.81	11021.58
489.99	10888.17
490.17	10995.84
490.35	11363.30
490.53	11309.47
490.70	11463.94
490.88	11316.49
491.06	11543.52
491.24	11335.21
491.41	11660.55
491.59	11714.38
491.77	11709.70
491.95	11784.60
492.13	11946.09
492.30	12109.93
492.48	12072.48
492.66	12287.81
492.84	12084.19
493.01	12442.29
493.19	12271.43
493.37	12493.78
493.54	12348.67
493.72	12791.03
493.90	12395.48
494.08	12823.80
494.25	13135.09
494.43	13074.23
494.61	13184.24
494.79	13048.49
494.96	13146.79
495.14	12870.61
495.32	13156.15
495.49	13156.15
495.67	13245.09
495.85	13411.27
496.02	13551.70
496.20	13781.07
496.38	13940.23
496.55	13685.11
496.73	14005.77
496.91	13682.77
497.09	13820.86
497.26	14200.03
497.44	14029.17
497.62	14078.32
497.79	14160.24
497.97	14406.00
498.14	14471.53
498.32	14401.32
498.50	14457.49
498.67	14705.59
498.85	14642.39
499.03	14862.40
499.20	14677.50
499.38	14689.20
499.56	15000.49
499.73	15026.24
499.91	15208.80
500.08	15126.88
500.26	15304.76
500.44	15009.86
500.61	15225.18
500.79	15171.35
500.97	15426.47
501.14	15707.34
501.32	15613.71
501.49	15286.04
501.67	15641.80
501.84	15646.48
502.02	15391.36
502.20	15836.06
502.37	15571.58
502.55	15719.04
502.72	15747.12
502.90	15761.17
503.07	15810.32
503.25	15967.13
503.43	16102.89
503.60	16208.21
503.78	16063.10
503.95	16212.89
504.13	16334.60
504.30	16400.13
504.48	16367.37
504.65	16718.45
504.83	16542.91
505.01	16545.25
505.18	16460.99
505.36	16781.64
505.53	16582.70
505.71	16695.04
505.88	16580.36
506.06	16688.02
506.23	16690.36
506.41	16692.70
506.58	17149.11
506.76	17397.20
506.93	17121.02
507.11	17022.72
507.28	17046.12
507.46	17151.45
507.63	17200.60
507.81	17577.42
507.98	17436.99
508.16	17511.89
508.33	17528.27
508.50	17497.84
508.68	17542.32
508.85	17989.36
509.03	17453.37
509.20	17858.29
509.38	17951.91
509.55	18164.90
509.73	18195.32
509.90	17949.57
510.08	17689.77
510.25	18029.15
510.42	18401.29
510.60	18551.09
510.77	18171.92
510.95	18239.79
511.12	18441.08
511.30	18307.67
511.47	18209.37
511.64	18576.83
511.82	18623.64
511.99	18497.25
512.17	18768.76
512.34	18607.26
512.51	18700.88
512.69	19005.15
512.86	18827.27
513.04	19108.13
513.21	18977.06
513.38	19215.80
513.56	19159.63
513.73	18904.51
513.90	19077.71
514.08	19150.26
514.25	19300.06
514.43	19101.11
514.60	19255.59
514.77	19384.32
514.95	19271.97
515.12	19433.47
515.29	19414.74
515.47	19653.48
515.64	19716.67
515.81	19599.65
515.99	19852.42
516.16	20093.50
516.33	19936.68
516.51	19864.13
516.68	20013.92
516.85	19646.46
517.03	20107.54
517.20	20098.18
517.37	20105.20
517.54	20095.84
517.72	19908.60
517.89	20222.23
518.06	20255.00
518.24	20072.43
518.41	20023.28
518.58	20201.16
518.75	20102.86
518.93	20465.64
519.10	20542.88
519.27	20496.07
519.45	20439.90
519.62	20552.24
519.79	20615.44
519.96	20851.83
520.14	21046.10
520.31	20751.19
520.48	20943.11
520.65	20929.07
520.83	20828.43
521.00	21006.31
521.17	21003.97
521.34	21120.99
521.52	21104.61
521.69	21027.37
521.86	20971.20
522.03	21116.31
522.20	21703.79
522.38	21205.25
522.55	21256.75
522.72	21469.73
522.89	21245.04
523.07	21788.05
523.24	21385.47
523.41	21699.11
523.58	21432.29
523.75	21589.10
523.92	21678.04
524.10	21521.23
524.27	21989.33
524.44	21612.51
524.61	22047.85
524.78	22211.68
524.96	21968.27
525.13	22230.41
525.30	22508.93
525.47	21825.50
525.64	22040.82
525.81	22094.66
525.98	22258.49
526.16	22417.65
526.33	22104.02
526.50	22410.63
526.67	21804.43
526.84	22373.18
527.01	22141.47
527.18	22677.45
527.36	22333.39
527.53	22504.25
527.70	22768.73
527.87	22920.87
528.04	22703.20
528.21	22773.41
528.38	22768.73
528.55	22745.33
528.72	22593.19
528.89	22754.69
529.07	22897.46
529.24	22850.65
529.41	23213.43
529.58	22815.54
529.75	22972.36
529.92	23264.92
530.09	23056.62
530.26	23021.51
530.43	23082.36
530.60	23108.11
530.77	22906.82
530.94	23531.75
531.11	23260.24
531.28	23274.29
531.46	23278.97
531.63	23370.25
531.80	23405.36
531.97	23611.32
532.14	23473.23
532.31	23702.61
532.48	23585.58
532.65	23473.23
532.82	23447.49
532.99	23557.49
533.16	23349.18
533.33	24379.02
533.50	24049.00
533.67	24002.19
533.84	23707.29
534.01	23866.44
534.18	23800.91
534.35	23833.68
534.52	23662.82
534.69	24053.69
534.86	23957.72
535.03	23903.89
535.20	24098.16
535.37	24002.19
535.54	24470.30
535.71	23908.57
535.88	24369.66
536.05	24102.84
536.22	24491.37
536.38	24369.66
536.55	24231.57
536.72	24493.71
536.89	24224.54
537.06	24491.37
537.23	24498.39
537.40	24556.90
537.57	24493.71
537.74	24449.24
537.91	24421.15
538.08	24945.43
538.25	24655.20
538.42	24596.69
538.59	24992.24
538.75	24542.86
538.92	24629.46
539.09	24795.64
539.26	24797.98
539.43	24826.06
539.60	25069.48
539.77	24912.66
539.94	24982.88
540.11	24561.58
540.28	24959.47
540.44	24854.15
540.61	24879.89
540.78	24966.49
540.95	25436.94
541.12	25017.99
541.29	25322.26
541.46	25458.01
541.62	25238.00
541.79	25081.18
541.96	24734.78
542.13	25151.40
542.30	25448.64
542.47	25490.77
542.63	25443.96
542.80	25741.21
542.97	25926.11
543.14	26164.85
543.31	25317.57
543.48	25247.36
543.64	25919.09
543.81	26071.23
543.98	26132.08
544.15	26019.74
544.32	26125.06
544.48	25975.27
544.65	25790.36
544.82	25858.24
544.99	25579.71
545.16	25891.01
545.32	25853.56
545.49	26085.27
545.66	26139.10
545.83	26026.76
546.00	26188.25
546.16	26082.93
546.33	26209.32
546.50	26061.87
546.67	26157.83
546.83	26370.82
547.00	25991.65
547.17	26574.44
547.34	26136.76
547.50	26497.20
547.67	26532.31
547.84	26443.37
548.00	26239.75
548.17	26464.44
548.34	26565.08
548.51	26597.85
548.67	27012.12
548.84	26691.47
549.01	26705.51
549.18	26705.51
549.34	26338.05
549.51	26953.61
549.68	26309.96
549.84	26473.80
550.01	27171.28
550.18	26639.98
550.34	26773.39
550.51	26888.07
550.68	26883.39
550.84	26794.45
551.01	27002.76
551.18	26934.88
551.34	26761.69
551.51	26932.54
551.68	26845.94
551.84	27124.47
552.01	26738.28
552.18	27112.77
552.34	27084.68
552.51	26930.20
552.68	27166.60
552.84	26787.43
553.01	27307.03
553.18	27236.81
553.34	27253.20
553.51	27171.28
553.67	27452.14
553.84	27276.60
554.01	27417.04
554.17	27424.06
554.34	27367.88
554.51	27484.91
554.67	27571.51
554.84	27545.76
555.00	27407.67
555.17	27475.55
555.33	27349.16
555.50	27716.62
555.67	27232.13
555.83	27417.04
556.00	27660.45
556.16	27578.53
556.33	27583.21
556.50	27342.14
556.66	27847.69
556.83	27765.78
556.99	28004.51
557.16	27819.61
557.32	27758.75
557.49	27936.63
557.65	27421.72
557.82	27812.59
557.98	27819.61
558.15	27845.35
558.32	27901.53
558.48	27754.07
558.65	27758.75
558.81	28011.53
558.98	27997.49
559.14	27906.21
559.31	27824.29
559.47	27950.68
559.64	27782.16
559.80	27983.44
559.97	28149.62
560.13	28053.66
560.30	28158.99
560.46	28107.49
560.63	28175.37
560.79	28130.90
560.96	28374.31
561.12	27866.42
561.29	28084.09
561.45	28041.96
561.61	28203.46
561.78	28336.87
561.94	28376.66
562.11	28503.04
562.27	28339.21
562.44	28297.08
562.60	28191.75
562.77	28226.86
562.93	28067.70
563.10	28467.94
563.26	28584.96
563.42	28507.72
563.59	28503.04
563.75	28388.36
563.92	28634.11
564.08	28151.96
564.24	28311.12
564.41	28116.86
564.57	28025.57
564.74	28294.74
564.90	28638.80
565.07	28142.60
565.23	28343.89
565.39	28299.42
565.56	28381.34
565.72	28435.17
565.88	28397.72
566.05	28198.77
566.21	28411.76
566.38	28271.33
566.54	28346.23
566.70	28615.39
566.87	28772.21
567.03	28531.13
567.19	29219.25
567.36	28957.11
567.52	28238.56
567.68	28978.17
567.85	28512.41
568.01	28917.32
568.17	28107.49
568.34	28760.50
568.50	28809.65
568.66	28957.11
568.83	28872.85
568.99	28617.73
569.15	28706.67
569.32	28479.64
569.48	28706.67
569.64	28840.08
569.81	28554.54
569.97	28781.57
570.13	29027.32
570.30	28847.10
570.46	28952.43
570.62	28811.99
570.78	28875.19
570.95	28690.29
571.11	28790.93
571.27	28669.22
571.43	28538.15
571.60	28987.53
571.76	28622.41
571.92	28723.05
572.09	28842.42
572.25	28725.39
572.41	28652.84
572.57	28704.33
572.74	28943.06
572.90	28348.57
573.06	28531.13
573.22	28828.38
573.38	28847.10
573.55	28664.54
573.71	29170.10
573.87	29029.66
574.03	29151.37
574.20	28833.06
574.36	28755.82
574.52	29202.86
574.68	29022.64
574.84	28844.76
575.01	29034.35
575.17	28882.21
575.33	28910.30
575.49	29062.43
575.65	29223.93
575.82	29017.96
575.98	28699.65
576.14	29057.75
576.30	28854.12
576.46	29076.48
576.62	28966.47
576.79	28847.10
576.95	28470.28
577.11	28877.53
577.27	28975.83
577.43	29277.76
577.59	28758.16
577.75	28975.83
577.92	28371.97
578.08	28725.39
578.24	28907.96
578.40	28861.15
578.56	28877.53
578.72	29184.14
578.88	29273.08
579.04	29472.03
579.21	28856.46
579.37	28936.04
579.53	29252.02
579.69	29216.91
579.85	28781.57
580.01	28957.11
580.17	29064.77
580.33	28945.41
580.49	29017.96
580.65	29001.58
580.82	29427.56
580.98	29043.71
581.14	29280.10
581.30	29366.70
581.46	29266.06
581.62	28947.75
581.78	28774.55
581.94	28982.85
582.10	28823.70
582.26	29076.48
582.42	29062.43
582.58	29336.27
582.74	29156.05
582.90	29507.13
583.06	29282.44
583.22	29282.44
583.38	29116.26
583.54	29174.78
583.70	28912.64
583.86	29205.20
584.02	28669.22
584.18	29427.56
584.34	29076.48
584.50	29362.02
584.66	29743.53
584.82	28914.98
584.98	29308.19
585.14	29198.18
585.30	28858.81
585.46	29076.48
585.62	28861.15
585.78	28526.45
585.94	29216.91
586.10	29455.64
586.26	29142.01
586.42	29113.92
586.58	29380.74
586.74	29109.24
586.90	28821.36
587.06	28856.46
587.22	29252.02
587.38	29226.27
587.54	28931.36
587.70	29745.87
587.86	29359.68
588.02	29443.94
588.18	29219.25
588.34	29226.27
588.49	29514.16
588.65	29095.20
588.81	29130.31
588.97	29230.95
589.13	29221.59
589.29	29553.94
589.45	29457.98
589.61	29479.05
589.77	29647.57
589.93	29692.04
590.08	29624.16
590.24	29685.01
590.40	29097.54
590.56	29441.60
590.72	29216.91
590.88	29308.19
591.04	29254.36
591.20	29748.21
591.35	29518.84
591.51	30099.29
591.67	29907.37
591.83	30064.18
591.99	29624.16
