SpectraSuite Data File
++++++++++++++++++++++++++++++++++++
Date: Fri Oct 18 13:58:06 GMT-05:00 2013
User: bianchi
Dark Spectrum Present: No
Reference Spectrum Present: No
Number of Sampled Component Spectra: 1
Spectrometers: USB2+H05261
Integration Time (usec): 50000 (USB2+H05261)
Spectra Averaged: 1 (USB2+H05261)
Boxcar Smoothing: 0 (USB2+H05261)
Correct for Electrical Dark: No (USB2+H05261)
Strobe/Lamp Enabled: No (USB2+H05261)
Correct for Detector Non-linearity: No (USB2+H05261)
Correct for Stray Light: No (USB2+H05261)
Number of Pixels in Processed Spectrum: 2048
>>>>>Begin Processed Spectral Data<<<<<
365.73	0.00
365.92	0.00
366.12	0.00
366.32	0.00
366.52	0.00
366.72	0.00
366.91	0.00
367.11	0.00
367.31	0.00
367.51	0.00
367.70	0.00
367.90	0.00
368.10	0.00
368.30	0.00
368.49	0.00
368.69	0.00
368.89	0.00
369.09	0.00
369.28	0.00
369.48	0.00
369.68	0.00
369.87	0.00
370.07	0.00
370.27	0.00
370.47	0.00
370.66	51.49
370.86	98.30
371.06	184.90
371.25	149.79
371.45	184.90
371.65	149.79
371.84	131.07
372.04	131.07
372.24	149.79
372.44	168.52
372.63	173.20
372.83	159.16
373.03	231.71
373.22	196.60
373.42	189.58
373.62	231.71
373.81	189.58
374.01	217.67
374.21	194.26
374.40	255.12
374.60	238.73
374.79	250.44
374.99	273.84
375.19	184.90
375.38	299.59
375.58	264.48
375.78	271.50
375.97	271.50
376.17	196.60
376.37	306.61
376.56	327.68
376.76	229.37
376.95	285.55
377.15	276.18
377.35	229.37
377.54	318.31
377.74	231.71
377.93	332.36
378.13	264.48
378.33	334.70
378.52	248.10
378.72	238.73
378.91	271.50
379.11	255.12
379.31	334.70
379.50	266.82
379.70	390.87
379.89	299.59
380.09	330.02
380.28	203.63
380.48	262.14
380.68	271.50
380.87	344.06
381.07	346.40
381.26	348.74
381.46	287.89
381.65	322.99
381.85	339.38
382.04	320.65
382.24	418.96
382.43	308.95
382.63	362.78
382.83	322.99
383.02	339.38
383.22	351.08
383.41	327.68
383.61	360.44
383.80	379.17
384.00	379.17
384.19	353.42
384.39	374.49
384.58	311.29
384.78	465.77
384.97	395.55
385.17	414.27
385.36	388.53
385.56	351.08
385.75	386.19
385.95	430.66
386.14	411.93
386.34	395.55
386.53	367.46
386.72	386.19
386.92	475.13
387.11	484.49
387.31	376.83
387.50	421.30
387.70	472.79
387.89	407.25
388.09	381.51
388.28	402.57
388.48	425.98
388.67	489.17
388.86	475.13
389.06	447.04
389.25	484.49
389.45	510.24
389.64	475.13
389.84	550.03
390.03	449.38
390.22	475.13
390.42	510.24
390.61	564.07
390.81	505.56
391.00	468.11
391.19	585.13
391.39	526.62
391.58	489.17
391.78	514.92
391.97	538.32
392.16	568.75
392.36	540.66
392.55	477.47
392.75	535.98
392.94	580.45
393.13	578.11
393.33	543.00
393.52	587.47
393.71	622.58
393.91	610.88
394.10	580.45
394.29	573.43
394.49	535.98
394.68	564.07
394.88	601.52
395.07	526.62
395.26	664.71
395.46	650.67
395.65	643.65
395.84	669.39
396.04	641.31
396.23	648.33
396.42	674.07
396.62	730.25
396.81	725.57
397.00	627.26
397.19	655.35
397.39	685.78
397.58	713.86
397.77	627.26
397.97	650.67
398.16	781.74
398.35	791.10
398.55	706.84
398.74	760.67
398.93	758.33
399.12	702.16
399.32	718.54
399.51	655.35
399.70	732.59
399.90	741.95
400.09	718.54
400.28	823.87
400.47	734.93
400.67	784.08
400.86	727.91
401.05	763.01
401.24	753.65
401.44	791.10
401.63	826.21
401.82	861.32
402.01	875.36
402.21	877.70
402.40	887.06
402.59	814.51
402.78	882.38
402.97	781.74
403.17	929.19
403.36	894.08
403.55	922.17
403.74	940.90
403.93	840.25
404.13	858.98
404.32	884.72
404.51	800.46
404.70	931.53
404.89	903.45
405.09	1043.88
405.28	1020.47
405.47	973.66
405.66	889.40
405.85	1004.09
406.05	999.41
406.24	1036.86
406.43	1011.11
406.62	971.32
406.81	1078.99
407.00	1057.92
407.20	1071.97
407.39	1013.45
407.58	1097.71
407.77	1032.18
407.96	1081.33
408.15	1053.24
408.34	1097.71
408.54	1086.01
408.73	1029.84
408.92	1135.16
409.11	1156.22
409.30	1170.27
409.49	1118.78
409.68	1074.31
409.87	1142.18
410.07	1275.59
410.26	1130.48
410.45	1170.27
410.64	1121.12
410.83	1240.48
411.02	1247.51
411.21	1273.25
411.40	1313.04
411.59	1263.89
411.78	1191.33
411.98	1355.17
412.17	1291.98
412.36	1270.91
412.55	1352.83
412.74	1331.76
412.93	1371.55
413.12	1385.60
413.31	1373.89
413.50	1399.64
413.69	1526.03
413.88	1572.84
414.07	1469.86
414.26	1488.58
414.45	1519.01
414.64	1420.71
414.83	1563.48
415.02	1490.92
415.22	1476.88
415.41	1537.73
415.60	1511.99
415.79	1605.61
415.98	1600.93
416.17	1640.72
416.36	1722.63
416.55	1675.82
416.74	1519.01
416.93	1633.69
417.12	1584.54
417.31	1678.16
417.50	1715.61
417.69	1881.79
417.88	1715.61
418.07	1727.32
418.26	1757.74
418.45	1788.17
418.64	1870.09
418.83	1811.57
419.02	1816.26
419.21	1837.32
419.39	1900.52
419.58	1802.21
419.77	1865.41
419.96	1928.60
420.15	1909.88
420.34	1853.70
420.53	1921.58
420.72	1912.22
420.91	1928.60
421.10	1916.90
421.29	1916.90
421.48	1940.30
421.67	1996.48
421.86	2186.06
422.05	1989.46
422.24	1907.54
422.43	2003.50
422.61	1991.80
422.80	2120.53
422.99	2078.40
423.18	2029.24
423.37	2099.46
423.56	2012.86
423.75	2031.58
423.94	1994.14
424.13	1877.11
424.32	1930.94
424.50	2094.78
424.69	2183.72
424.88	2106.48
425.07	2052.65
425.26	2085.42
425.45	2256.28
425.64	2057.33
425.83	2001.16
426.01	2083.08
426.20	2036.27
426.39	2136.91
426.58	2033.93
426.77	2019.88
426.96	2057.33
427.15	2087.76
427.33	2176.70
427.52	2141.59
427.71	2235.21
427.90	2050.31
428.09	2195.42
428.28	2197.76
428.46	2209.47
428.65	2272.66
428.84	2303.09
429.03	2282.02
429.22	2258.62
429.40	2289.04
429.59	2349.90
429.78	2260.96
429.97	2160.31
430.16	2361.60
430.34	2307.77
430.53	2228.19
430.72	2333.51
430.91	2310.11
431.10	2310.11
431.28	2487.99
431.47	2495.01
431.66	2473.95
431.85	2448.20
432.03	2534.80
432.22	2478.63
432.41	2555.86
432.60	2532.46
432.79	2480.97
432.97	2431.82
433.16	2462.24
433.35	2555.86
433.54	2654.17
433.72	2574.59
433.91	2541.82
434.10	2581.61
434.28	2548.84
434.47	2581.61
434.66	2656.51
434.85	2637.78
435.03	2616.72
435.22	2684.59
435.41	2808.64
435.59	2558.21
435.78	2670.55
435.97	2590.97
436.16	2710.34
436.34	2710.34
436.53	2661.19
436.72	2841.41
436.90	2731.41
437.09	2649.49
437.28	2778.22
437.46	2726.72
437.65	2750.13
437.84	2743.11
438.02	2722.04
438.21	2862.48
438.40	2771.19
438.58	2916.31
438.77	2918.65
438.96	2888.22
439.14	2946.73
439.33	2902.26
439.52	2960.78
439.70	3045.04
439.89	3126.96
440.08	3040.36
440.26	3063.76
440.45	3091.85
440.63	3180.79
440.82	3236.96
441.01	3119.93
441.19	3293.13
441.38	3290.79
441.57	3321.22
441.75	3335.26
441.94	3251.00
442.12	3311.86
442.31	3421.86
442.50	3335.26
442.68	3440.59
442.87	3407.82
443.05	3442.93
443.24	3332.92
443.43	3468.67
443.61	3391.44
443.80	3478.04
443.98	3318.88
444.17	3246.32
444.35	3538.89
444.54	3620.81
444.73	3445.27
444.91	3548.25
445.10	3433.57
445.28	3461.65
445.47	3501.44
445.65	3566.98
445.84	3499.10
446.02	3599.74
446.21	3541.23
446.39	3538.89
446.58	3623.15
446.77	3583.36
446.95	3513.14
447.14	3468.67
447.32	3723.79
447.51	3576.34
447.69	3485.06
447.88	3644.21
448.06	3552.93
448.25	3588.04
448.43	3506.12
448.62	3597.40
448.80	3574.00
448.99	3674.64
449.17	3571.66
449.36	3707.41
449.54	3665.28
449.73	3625.49
449.91	3688.68
450.10	3831.46
450.28	3836.14
450.46	3826.78
450.65	3751.88
450.83	3840.82
451.02	3840.82
451.20	3878.27
451.39	3875.93
451.57	3817.41
451.76	3796.35
451.94	3929.76
452.13	4011.68
452.31	3822.09
452.49	3791.67
452.68	4023.38
452.86	3971.89
453.05	3962.53
453.23	3915.72
453.42	3999.98
453.60	4042.11
453.78	4028.06
453.97	3950.82
454.15	3948.48
454.34	3974.23
454.52	4262.12
454.70	4049.13
454.89	4032.74
455.07	4112.32
455.26	4126.36
455.44	4205.94
455.62	4269.14
455.81	4322.97
455.99	4231.69
456.17	4273.82
456.36	4217.65
456.54	4266.80
456.73	4320.63
456.91	4250.41
457.09	4510.21
457.28	4613.20
457.46	4381.48
457.64	4432.97
457.83	4482.13
458.01	4341.69
458.19	4500.85
458.38	4514.89
458.56	4517.23
458.74	4582.77
458.93	4493.83
459.11	4542.98
459.29	4557.02
459.48	4512.55
459.66	4688.09
459.84	4652.98
460.03	4683.41
460.21	4524.26
460.39	4547.66
460.57	4608.51
460.76	4854.27
460.94	4713.84
461.12	4816.82
461.31	4564.04
461.49	4858.95
461.67	4788.74
461.85	4865.97
462.04	4737.24
462.22	4973.64
462.40	5095.35
462.59	4828.53
462.77	4716.18
462.95	5008.75
463.13	4758.31
463.32	5022.79
463.50	5041.51
463.68	5018.11
463.86	4910.44
464.05	4943.21
464.23	4994.70
464.41	4980.66
464.59	4800.44
464.78	5128.11
464.96	5111.73
465.14	4992.36
465.32	5060.24
465.50	5071.94
465.69	5004.07
465.87	4990.02
466.05	5121.09
466.23	5006.41
466.41	5013.43
466.60	5273.23
466.78	5158.54
466.96	5165.56
467.14	5074.28
467.32	5165.56
467.51	5418.34
467.69	5135.14
467.87	5310.68
468.05	5231.10
468.23	5207.69
468.41	5235.78
468.60	5331.74
468.78	5308.34
468.96	5219.39
469.14	5572.82
469.32	5444.09
469.50	5331.74
469.69	5423.02
469.87	5469.83
470.05	5664.10
470.23	5474.51
470.41	5544.73
470.59	5551.75
470.77	5533.03
470.95	5556.43
471.14	5678.14
471.32	5582.18
471.50	5846.66
471.68	5638.35
471.86	5680.48
472.04	5729.63
472.22	5912.19
472.40	5724.95
472.58	5888.79
472.77	5757.72
472.95	6087.73
473.13	6258.59
473.31	5767.08
473.49	6078.37
473.67	6022.20
473.85	5991.77
474.03	6022.20
474.21	6036.24
474.39	6181.35
474.57	6101.78
474.75	6148.59
474.93	6272.64
475.12	6150.93
475.30	6305.40
475.48	6361.58
475.66	6492.65
475.84	6424.77
476.02	6574.56
476.20	6487.96
476.38	6518.39
476.56	6581.59
476.74	6684.57
476.92	6876.49
477.10	6663.51
477.28	6703.29
477.46	6738.40
477.64	6869.47
477.82	7035.65
478.00	7054.37
478.18	7131.61
478.36	7129.27
478.54	7131.61
478.72	7119.91
478.90	7323.54
479.08	7407.80
479.26	7328.22
479.44	7403.11
479.62	7716.75
479.80	7466.31
479.98	7616.10
480.16	7716.75
480.34	7583.34
480.52	7639.51
480.70	7864.20
480.88	7801.01
481.06	7829.09
481.24	7894.63
481.41	7978.89
481.59	8002.29
481.77	8212.94
481.95	8194.22
482.13	8318.26
482.31	8124.00
482.49	8496.14
482.67	8486.78
482.85	8552.32
483.03	8608.49
483.21	8868.29
483.39	8711.47
483.57	8744.24
483.74	8877.65
483.92	9013.40
484.10	8901.06
484.28	9085.96
484.46	9092.98
484.64	9338.74
484.82	9376.19
485.00	9317.67
485.18	9703.86
485.35	9703.86
485.53	9479.17
485.71	9722.59
485.89	9966.00
486.07	9720.24
486.25	9635.99
486.43	9907.49
486.61	9921.53
486.78	10193.03
486.96	10015.15
487.14	10338.15
487.32	10160.27
487.50	10366.23
487.68	10211.76
487.85	10602.63
488.03	10668.16
488.21	11021.58
488.39	10729.02
488.57	10714.97
488.75	11124.57
488.92	11274.36
489.10	11297.77
489.28	11082.44
489.46	11110.52
489.64	11440.54
489.81	11566.93
489.99	11534.16
490.17	11499.05
490.35	12081.85
490.53	11889.92
490.70	11859.49
490.88	11864.18
491.06	11946.09
491.24	11950.78
491.41	12035.03
491.59	12341.64
491.77	12285.47
491.95	12599.10
492.13	12245.68
492.30	12554.63
492.48	12416.54
492.66	12402.50
492.84	12737.20
493.01	12723.15
493.19	12994.65
493.37	12980.61
493.54	12912.74
493.72	13310.63
493.90	13116.36
494.08	13699.16
494.25	13429.99
494.43	13692.13
494.61	13507.23
494.79	13862.99
494.96	13638.30
495.14	13867.67
495.32	13778.73
495.49	13935.55
495.67	13767.03
495.85	14101.73
496.02	14256.20
496.20	14462.17
496.38	14258.54
496.55	14452.81
496.73	14441.11
496.91	14410.68
497.09	14670.48
497.26	14654.09
497.44	14771.12
497.62	14647.07
497.79	14775.80
497.97	15023.90
498.14	15166.67
498.32	14951.34
498.50	15094.11
498.67	15606.69
498.85	15356.25
499.03	15192.42
499.20	15290.72
499.38	15482.64
499.56	15178.37
499.73	16098.20
499.91	15906.28
500.08	15838.41
500.26	15772.87
500.44	15882.88
500.61	15957.77
500.79	15864.15
500.97	16072.46
501.14	16257.36
501.32	16271.40
501.49	16411.84
501.67	16027.99
501.84	16217.57
502.02	16264.38
502.20	16123.95
502.37	16659.93
502.55	16592.06
502.72	16346.30
502.90	16549.93
503.07	16561.63
503.25	16676.32
503.43	16685.68
503.60	16961.86
503.78	17149.11
503.95	16985.27
504.13	16908.03
504.30	17003.99
504.48	16912.71
504.65	16903.35
504.83	17195.92
505.01	17483.80
505.18	17301.24
505.36	17547.00
505.53	17809.14
505.71	17362.09
505.88	17657.00
506.06	17479.12
506.23	17572.74
506.41	17846.58
506.58	17891.06
506.76	17771.69
506.93	17928.50
507.11	18005.74
507.28	18141.49
507.46	17994.04
507.63	18064.25
507.81	18216.39
507.98	18033.83
508.16	18483.21
508.33	18363.84
508.50	18302.99
508.68	18195.32
508.85	18534.70
509.03	18588.53
509.20	18445.76
509.38	18953.66
509.55	18838.97
509.73	18471.51
509.90	18956.00
510.08	18750.03
510.25	18853.02
510.42	18817.91
510.60	19157.28
510.77	19152.60
510.95	19447.51
511.12	19080.05
511.30	19323.46
511.47	19552.84
511.64	19466.24
511.82	19445.17
511.99	19325.80
512.17	19840.72
512.34	19438.15
512.51	19328.14
512.69	19917.96
512.86	19826.68
513.04	19847.74
513.21	19955.41
513.38	20154.35
513.56	19901.58
513.73	19669.86
513.90	19868.81
514.08	20013.92
514.25	20177.76
514.43	20315.85
514.60	20142.65
514.77	20088.82
514.95	20437.56
515.12	20355.64
515.29	20004.56
515.47	20725.44
515.64	20603.74
515.81	20554.58
515.99	20830.77
516.16	20624.80
516.33	20709.06
516.51	20903.32
516.68	20800.34
516.85	20484.37
517.03	20889.28
517.20	21163.12
517.37	20732.47
517.54	21102.27
517.72	21151.42
517.89	21092.91
518.06	21071.84
518.24	21013.33
518.41	21055.46
518.58	21118.65
518.75	21394.84
518.93	21656.98
519.10	21427.60
519.27	21766.98
519.45	21577.40
519.62	21612.51
519.79	21425.26
519.96	21717.83
520.14	21713.15
520.31	22010.40
520.48	21839.54
520.65	21825.50
520.83	21977.63
521.00	21603.14
521.17	22106.36
521.34	21989.33
521.52	22162.53
521.69	21876.99
521.86	22057.21
522.03	22398.93
522.20	22361.48
522.38	22471.48
522.55	22604.89
522.72	22647.02
522.89	22375.52
523.07	22691.49
523.24	22888.10
523.41	22565.10
523.58	22342.75
523.75	22647.02
523.92	22588.51
524.10	22438.72
524.27	23094.07
524.44	22977.04
524.61	23316.42
524.78	23307.05
524.96	23033.21
525.13	23136.20
525.30	23168.96
525.47	23222.80
525.64	23225.14
525.81	23381.95
525.98	23468.55
526.16	23506.00
526.33	23351.52
526.50	23639.41
526.67	23962.40
526.84	23569.19
527.01	23440.47
527.18	23599.62
527.36	23674.52
527.53	23241.52
527.70	24058.37
527.87	24098.16
528.04	23573.88
528.21	23646.43
528.38	24016.24
528.55	24053.69
528.72	23616.01
528.89	24137.94
529.07	24364.98
529.24	23908.57
529.41	24067.73
529.58	23915.59
529.75	23868.78
529.92	24428.17
530.09	24203.48
530.26	24369.66
530.43	24306.46
530.60	24161.35
530.77	24280.72
530.94	24224.54
531.11	24348.59
531.28	24414.13
531.46	24269.01
531.63	24723.08
531.80	24819.04
531.97	24631.80
532.14	24936.07
532.31	24781.59
532.48	24975.86
532.65	25137.35
532.82	24524.13
532.99	24819.04
533.16	24694.99
533.33	25029.69
533.50	25032.03
533.67	25252.04
533.84	24959.47
534.01	24758.19
534.18	24905.64
534.35	25465.03
534.52	25032.03
534.69	25469.71
534.86	25446.30
535.03	25408.86
535.20	25390.13
535.37	25013.31
535.54	25701.42
535.71	25298.85
535.88	25544.61
536.05	25635.89
536.22	25795.04
536.38	25830.15
536.55	26012.71
536.72	25715.47
536.89	25706.10
537.06	25862.92
537.23	26075.91
537.40	25649.93
537.57	26122.72
537.74	25598.44
537.91	25799.73
538.08	25935.48
538.25	25701.42
538.42	25876.96
538.59	25972.92
538.75	25795.04
538.92	25902.71
539.09	26265.49
539.26	25923.77
539.43	26108.68
539.60	26326.35
539.77	26132.08
539.94	26244.43
540.11	26155.49
540.28	26103.99
540.44	26298.26
540.61	26246.77
540.78	26356.77
540.95	26225.70
541.12	26239.75
541.29	26349.75
541.46	26391.88
541.62	26281.88
541.79	26452.73
541.96	26316.98
542.13	26335.71
542.30	26897.44
542.47	26820.20
542.63	26850.63
542.80	27131.49
542.97	26817.86
543.14	27391.29
543.31	26686.79
543.48	27124.47
543.64	27185.32
543.81	27356.18
543.98	27498.95
544.15	27484.91
544.32	27253.20
544.48	27503.64
544.65	27065.96
544.82	27234.47
544.99	26834.24
545.16	27452.14
545.32	26892.76
545.49	27782.16
545.66	27449.80
545.83	27388.95
546.00	27693.22
546.16	27461.51
546.33	27402.99
546.50	27459.16
546.67	27222.77
546.83	27115.11
547.00	27648.75
547.17	27550.45
547.34	27749.39
547.50	27857.06
547.67	27967.06
547.84	27730.67
548.00	28191.75
548.17	27988.13
548.34	27997.49
548.51	28128.56
548.67	28168.35
548.84	28056.00
549.01	28163.67
549.18	27946.00
549.34	28128.56
549.51	28140.26
549.68	27896.85
549.84	27665.13
550.01	28343.89
550.18	28067.70
550.34	27978.76
550.51	28039.62
550.68	28561.56
550.84	28205.80
551.01	28280.69
551.18	28002.17
551.34	28006.85
551.51	28397.72
551.68	28577.94
551.84	28737.10
552.01	28439.85
552.18	28540.49
552.34	28479.64
552.51	28453.89
552.68	28589.64
552.84	28517.09
553.01	28723.05
553.18	28552.20
553.34	28425.81
553.51	28851.78
553.67	28402.40
553.84	28811.99
554.01	28606.03
554.17	28914.98
554.34	28746.46
554.51	28491.34
554.67	28861.15
554.84	29076.48
555.00	28793.27
555.17	29027.32
555.33	28907.96
555.50	28966.47
555.67	28851.78
555.83	28842.42
556.00	28744.12
556.16	28959.45
556.33	28891.57
556.50	28891.57
556.66	29310.53
556.83	29120.95
556.99	29268.40
557.16	29537.56
557.32	29305.85
557.49	29383.09
557.65	28919.66
557.82	29233.29
557.98	29249.67
558.15	29289.46
558.32	29408.83
558.48	29439.26
558.65	29549.26
558.81	29439.26
558.98	29411.17
559.14	29666.29
559.31	29392.45
559.47	29160.73
559.64	29696.72
559.80	29500.11
559.97	29668.63
560.13	29809.06
560.30	29675.65
560.46	29525.86
560.63	29376.06
560.79	29954.18
560.96	29813.74
561.12	29359.68
561.29	29298.83
561.45	29488.41
561.61	29680.33
561.78	29972.90
561.94	30047.80
562.11	29673.31
562.27	29853.53
562.44	29895.66
562.60	29865.24
562.77	29717.78
562.93	29692.04
563.10	29961.20
563.26	29890.98
563.42	30103.97
563.59	30005.67
563.75	29979.92
563.92	29818.42
564.08	29895.66
564.24	29713.10
564.41	29886.30
564.57	29961.20
564.74	29947.15
564.90	30249.08
565.07	30047.80
565.23	30387.18
565.39	30293.55
565.56	30059.50
565.72	30230.36
565.88	30029.07
566.05	29881.62
566.21	29668.63
566.38	30108.65
566.54	30029.07
566.70	30438.67
566.87	30403.56
567.03	29867.58
567.19	30291.21
567.36	30286.53
567.52	30232.70
567.68	30380.15
567.85	30190.57
568.01	30405.90
568.17	30141.42
568.34	30876.35
568.50	30024.39
568.66	30443.35
568.83	30314.62
568.99	30333.34
569.15	30195.25
569.32	30230.36
569.48	29975.24
569.64	30630.59
569.81	30817.83
569.97	30328.66
570.13	30391.86
570.30	30237.38
570.46	30185.89
570.62	30232.70
570.78	30263.13
570.95	29998.65
571.11	30354.41
571.27	30228.02
571.43	29982.26
571.60	30342.70
571.76	30464.41
571.92	30328.66
572.09	30300.58
572.25	30419.94
572.41	30527.61
572.57	30829.54
572.74	30621.23
572.90	30192.91
573.06	30448.03
573.22	30417.60
573.38	30132.06
573.55	30616.55
573.71	30614.21
573.87	30728.89
574.03	30590.80
574.20	30527.61
574.36	30314.62
574.52	30548.67
574.68	30415.26
574.84	30326.32
575.01	30284.19
575.17	30724.21
575.33	30714.85
575.49	30614.21
575.65	30352.07
575.82	30541.65
575.98	30300.58
576.14	30548.67
576.30	30742.94
576.46	30206.95
576.62	30471.43
576.79	30855.28
576.95	30464.41
577.11	30380.15
577.27	30981.67
577.43	30635.27
577.59	31070.61
577.75	30689.10
577.92	30607.19
578.08	30536.97
578.24	30401.22
578.40	30504.20
578.56	30766.34
578.72	30593.14
578.88	31194.66
579.04	31166.57
579.21	30614.21
579.37	30595.48
579.53	31164.23
579.69	30387.18
579.85	30478.46
580.01	30689.10
580.17	30876.35
580.33	30518.25
580.49	30874.01
580.65	30934.86
580.82	30780.39
580.98	31108.06
581.14	30806.13
581.30	30944.22
581.46	30637.61
581.62	30436.33
581.78	30600.16
581.94	31061.25
582.10	30766.34
582.26	30504.20
582.42	30747.62
582.58	31164.23
582.74	30719.53
582.90	30927.84
583.06	30862.30
583.22	31133.81
583.38	30469.09
583.54	30831.88
583.70	30520.59
583.86	30927.84
584.02	30717.19
584.18	31417.01
584.34	30836.56
584.50	30918.48
584.66	30843.58
584.82	30817.83
584.98	30888.05
585.14	31138.49
585.30	30689.10
585.46	30906.77
585.62	30574.42
585.78	31133.81
585.94	30731.23
586.10	31288.28
586.26	30656.34
586.42	31199.34
586.58	31033.16
586.74	30429.30
586.90	31082.31
587.06	30871.67
587.22	30946.56
587.38	30773.36
587.54	30998.06
587.70	31079.97
587.86	31461.48
588.02	31047.21
588.18	31597.23
588.34	30869.33
588.49	30871.67
588.65	31014.44
588.81	30955.93
588.97	30934.86
589.13	31241.47
589.29	31077.63
589.45	31206.36
589.61	31351.48
589.77	31157.21
589.93	31456.80
590.08	31653.40
590.24	31218.07
590.40	31512.97
590.56	31468.50
590.72	31402.97
590.88	31285.94
591.04	31101.04
591.20	31283.60
591.35	31108.06
591.51	31536.38
591.67	31611.28
591.83	31393.61
