SpectraSuite Data File
++++++++++++++++++++++++++++++++++++
Date: Fri Oct 18 13:58:10 GMT-05:00 2013
User: bianchi
Dark Spectrum Present: No
Reference Spectrum Present: No
Number of Sampled Component Spectra: 1
Spectrometers: USB2+H05261
Integration Time (usec): 50000 (USB2+H05261)
Spectra Averaged: 1 (USB2+H05261)
Boxcar Smoothing: 0 (USB2+H05261)
Correct for Electrical Dark: No (USB2+H05261)
Strobe/Lamp Enabled: No (USB2+H05261)
Correct for Detector Non-linearity: No (USB2+H05261)
Correct for Stray Light: No (USB2+H05261)
Number of Pixels in Processed Spectrum: 2048
>>>>>Begin Processed Spectral Data<<<<<
365.73	0.00
365.92	0.00
366.12	0.00
366.32	0.00
366.52	0.00
366.72	0.00
366.91	0.00
367.11	0.00
367.31	0.00
367.51	0.00
367.70	0.00
367.90	0.00
368.10	0.00
368.30	0.00
368.49	0.00
368.69	0.00
368.89	0.00
369.09	0.00
369.28	0.00
369.48	0.00
369.68	0.00
369.87	0.00
370.07	0.00
370.27	0.00
370.47	0.00
370.66	102.98
370.86	110.01
371.06	93.62
371.25	142.77
371.45	201.29
371.65	208.31
371.84	173.20
372.04	191.92
372.24	215.33
372.44	133.41
372.63	159.16
372.83	236.39
373.03	238.73
373.22	210.65
373.42	161.50
373.62	208.31
373.81	191.92
374.01	191.92
374.21	177.88
374.40	308.95
374.60	278.52
374.79	285.55
374.99	299.59
375.19	252.78
375.38	255.12
375.58	212.99
375.78	285.55
375.97	308.95
376.17	327.68
376.37	222.35
376.56	245.76
376.76	184.90
376.95	259.80
377.15	271.50
377.35	262.14
377.54	229.37
377.74	269.16
377.93	262.14
378.13	262.14
378.33	292.57
378.52	313.63
378.72	327.68
378.91	262.14
379.11	327.68
379.31	266.82
379.50	287.89
379.70	287.89
379.89	395.55
380.09	318.31
380.28	234.05
380.48	320.65
380.68	348.74
380.87	365.12
381.07	381.51
381.26	346.40
381.46	337.04
381.65	374.49
381.85	416.62
382.04	332.36
382.24	330.02
382.43	379.17
382.63	339.38
382.83	283.20
383.02	358.10
383.22	294.91
383.41	339.38
383.61	332.36
383.80	395.55
384.00	381.51
384.19	353.42
384.39	388.53
384.58	421.30
384.78	402.57
384.97	381.51
385.17	374.49
385.36	379.17
385.56	421.30
385.75	416.62
385.95	379.17
386.14	409.59
386.34	425.98
386.53	425.98
386.72	376.83
386.92	435.34
387.11	428.32
387.31	388.53
387.50	444.70
387.70	339.38
387.89	451.72
388.09	482.15
388.28	428.32
388.48	493.85
388.67	395.55
388.86	507.90
389.06	500.87
389.25	521.94
389.45	458.74
389.64	528.96
389.84	489.17
390.03	543.00
390.22	465.77
390.42	440.02
390.61	479.81
390.81	538.32
391.00	566.41
391.19	482.15
391.39	507.90
391.58	454.06
391.78	482.15
391.97	531.30
392.16	491.51
392.36	512.58
392.55	568.75
392.75	573.43
392.94	582.79
393.13	531.30
393.33	594.50
393.52	664.71
393.71	589.82
393.91	587.47
394.10	615.56
394.29	643.65
394.49	676.41
394.68	580.45
394.88	596.84
395.07	582.79
395.26	547.69
395.46	561.73
395.65	669.39
395.84	683.44
396.04	678.76
396.23	748.97
396.42	573.43
396.62	655.35
396.81	697.48
397.00	650.67
397.19	671.73
397.39	620.24
397.58	760.67
397.77	603.86
397.97	678.76
398.16	737.27
398.35	720.88
398.55	711.52
398.74	770.04
398.93	751.31
399.12	737.27
399.32	784.08
399.51	723.23
399.70	786.42
399.90	809.83
400.09	819.19
400.28	835.57
400.47	650.67
400.67	777.06
400.86	840.25
401.05	837.91
401.24	720.88
401.44	835.57
401.63	835.57
401.82	828.55
402.01	805.14
402.21	849.61
402.40	837.91
402.59	812.17
402.78	933.87
402.97	938.55
403.17	858.98
403.36	873.02
403.55	884.72
403.74	947.92
403.93	915.15
404.13	919.83
404.32	980.68
404.51	915.15
404.70	1011.11
404.89	945.58
405.09	936.21
405.28	1043.88
405.47	945.58
405.66	1001.75
405.85	1062.60
406.05	999.41
406.24	1053.24
406.43	1029.84
406.62	1128.14
406.81	985.37
407.00	1027.50
407.20	1027.50
407.39	1011.11
407.58	1107.07
407.77	1114.10
407.96	1167.93
408.15	1142.18
408.34	1118.78
408.54	1057.92
408.73	1146.86
408.92	1179.63
409.11	1196.01
409.30	1188.99
409.49	1095.37
409.68	1177.29
409.87	1181.97
410.07	1228.78
410.26	1191.33
410.45	1214.74
410.64	1158.57
410.83	1261.55
411.02	1142.18
411.21	1217.08
411.40	1224.10
411.59	1282.61
411.78	1235.80
411.98	1231.12
412.17	1378.58
412.36	1352.83
412.55	1369.21
412.74	1280.27
412.93	1352.83
413.12	1324.74
413.31	1394.96
413.50	1387.94
413.69	1483.90
413.88	1547.09
414.07	1387.94
414.26	1460.49
414.45	1495.60
414.64	1479.22
414.83	1575.18
415.02	1535.39
415.22	1519.01
415.41	1629.01
415.60	1486.24
415.79	1652.42
415.98	1605.61
416.17	1710.93
416.36	1699.23
416.55	1638.38
416.74	1699.23
416.93	1626.67
417.12	1673.48
417.31	1715.61
417.50	1687.53
417.69	1776.47
417.88	1799.87
418.07	1788.17
418.26	1736.68
418.45	1706.25
418.64	1825.62
418.83	1832.64
419.02	1764.76
419.21	1898.17
419.39	1771.79
419.58	1832.64
419.77	1788.17
419.96	1781.15
420.15	1893.49
420.34	1952.01
420.53	1996.48
420.72	1856.04
420.91	1952.01
421.10	1935.62
421.29	2031.58
421.48	1900.52
421.67	1987.11
421.86	1909.88
422.05	1996.48
422.24	2118.18
422.43	1937.96
422.61	2064.35
422.80	2101.80
422.99	1991.80
423.18	2087.76
423.37	1975.41
423.56	2106.48
423.75	2059.67
423.94	2045.63
424.13	1952.01
424.32	2008.18
424.50	2026.90
424.69	2040.95
424.88	2108.82
425.07	1949.67
425.26	2064.35
425.45	1987.11
425.64	2087.76
425.83	2078.40
426.01	2111.16
426.20	2090.10
426.39	2150.95
426.58	2134.57
426.77	2115.84
426.96	2097.12
427.15	2076.06
427.33	2157.97
427.52	2167.34
427.71	2237.55
427.90	2176.70
428.09	2249.25
428.28	2207.13
428.46	2216.49
428.65	2270.32
428.84	2321.81
429.03	2333.51
429.22	2286.70
429.40	2293.72
429.59	2258.62
429.78	2286.70
429.97	2289.04
430.16	2260.96
430.34	2326.49
430.53	2300.75
430.72	2342.88
430.91	2366.28
431.10	2282.02
431.28	2354.58
431.47	2396.71
431.66	2415.43
431.85	2340.54
432.03	2539.48
432.22	2438.84
432.41	2385.01
432.60	2422.45
432.79	2513.74
432.97	2572.25
433.16	2502.03
433.35	2548.84
433.54	2466.92
433.72	2518.42
433.91	2654.17
434.10	2534.80
434.28	2569.91
434.47	2558.21
434.66	2551.18
434.85	2717.36
435.03	2633.10
435.22	2583.95
435.41	2698.64
435.59	2630.76
435.78	2672.89
435.97	2773.53
436.16	2724.38
436.34	2794.60
436.53	2731.41
436.72	2874.18
436.90	2825.03
437.09	2726.72
437.28	2750.13
437.46	2736.09
437.65	2768.85
437.84	2860.13
438.02	2869.50
438.21	2780.56
438.40	2834.39
438.58	2895.24
438.77	2911.63
438.96	2850.77
439.14	2984.18
439.33	2956.10
439.52	2942.05
439.70	2846.09
439.89	3045.04
440.08	3087.17
440.26	3096.53
440.45	3063.76
440.63	3061.42
440.82	3225.26
441.01	3241.64
441.19	3176.11
441.38	3192.49
441.57	3255.69
441.75	3309.52
441.94	3286.11
442.12	3295.47
442.31	3258.03
442.50	3239.30
442.68	3281.43
442.87	3335.26
443.05	3325.90
443.24	3368.03
443.43	3361.01
443.61	3492.08
443.80	3583.36
443.98	3342.28
444.17	3213.56
444.35	3361.01
444.54	3503.78
444.73	3541.23
444.91	3515.48
445.10	3442.93
445.28	3412.50
445.47	3307.18
445.65	3410.16
445.84	3559.95
446.02	3557.61
446.21	3400.80
446.39	3463.99
446.58	3499.10
446.77	3658.26
446.95	3541.23
447.14	3524.85
447.32	3569.32
447.51	3623.15
447.69	3566.98
447.88	3679.32
448.06	3562.30
448.25	3559.95
448.43	3548.25
448.62	3379.73
448.80	3522.51
448.99	3534.21
449.17	3756.56
449.36	3618.47
449.54	3789.33
449.73	3728.47
449.91	3765.92
450.10	3707.41
450.28	3786.99
450.46	3808.05
450.65	3707.41
450.83	3756.56
451.02	3824.44
451.20	3801.03
451.39	3943.80
451.57	3819.75
451.76	3875.93
451.94	3971.89
452.13	3831.46
452.31	3861.88
452.49	3922.74
452.68	3847.84
452.86	3824.44
453.05	3908.69
453.23	4091.26
453.42	4023.38
453.60	3918.06
453.78	3880.61
453.97	3885.29
454.15	4042.11
454.34	3995.29
454.52	4077.21
454.70	3943.80
454.89	4058.49
455.07	4154.45
455.26	4131.05
455.44	4037.42
455.62	4177.86
455.81	4163.81
455.99	4231.69
456.17	4196.58
456.36	4147.43
456.54	4297.22
456.73	4327.65
456.91	4306.59
457.09	4538.30
457.28	4566.39
457.46	4381.48
457.64	4416.59
457.83	4414.25
458.01	4512.55
458.19	4425.95
458.38	4325.31
458.56	4491.49
458.74	4514.89
458.93	4449.36
459.11	4437.66
459.29	4451.70
459.48	4545.32
459.66	4575.75
459.84	4510.21
460.03	4912.78
460.21	4676.39
460.39	4571.07
460.57	4521.92
460.76	4620.22
460.94	4697.46
461.12	4751.29
461.31	4690.43
461.49	4744.27
461.67	4664.69
461.85	4828.53
462.04	4821.50
462.22	4997.04
462.40	4847.25
462.59	4905.76
462.77	4851.93
462.95	4791.08
463.13	4732.56
463.32	4732.56
463.50	4919.81
463.68	4950.23
463.86	5029.81
464.05	4819.16
464.23	4833.21
464.41	4924.49
464.59	4877.68
464.78	4997.04
464.96	4978.32
465.14	5004.07
465.32	5069.60
465.50	5149.18
465.69	5048.54
465.87	5104.71
466.05	5109.39
466.23	4912.78
466.41	5125.77
466.60	5071.94
466.78	5027.47
466.96	5006.41
467.14	5071.94
467.32	5188.97
467.51	5130.45
467.69	5149.18
467.87	5263.86
468.05	5235.78
468.23	5221.74
468.41	5151.52
468.60	5266.21
468.78	5139.82
468.96	5252.16
469.14	5266.21
469.32	5177.26
469.50	5217.05
469.69	5378.55
469.87	5554.09
470.05	5364.51
470.23	5341.10
470.41	5462.81
470.59	5418.34
470.77	5462.81
470.95	5533.03
471.14	5561.11
471.32	5533.03
471.50	5598.56
471.68	5778.78
471.86	5631.33
472.04	5748.36
472.22	6120.50
472.40	5802.19
472.58	5554.09
472.77	5914.53
472.95	5987.09
473.13	5900.49
473.31	5895.81
473.49	6052.63
473.67	5951.98
473.85	5956.66
474.03	6090.07
474.21	6003.47
474.39	6176.67
474.57	6106.46
474.75	6298.38
474.93	6244.55
475.12	6265.61
475.30	6291.36
475.48	6502.01
475.66	6422.43
475.84	6462.22
476.02	6422.43
476.20	6300.72
476.38	6523.07
476.56	6541.80
476.74	6410.73
476.92	6780.53
477.10	6612.01
477.28	6801.60
477.46	6633.08
477.64	6801.60
477.82	6974.80
478.00	7166.72
478.18	7098.84
478.36	7026.29
478.54	7157.36
478.72	7269.70
478.90	7246.30
479.08	7339.92
479.26	7445.24
479.44	7384.39
479.62	7398.43
479.80	7447.58
479.98	7412.48
480.16	7747.17
480.34	7639.51
480.52	7630.15
480.70	7866.54
480.88	7868.88
481.06	7782.28
481.24	7793.98
481.41	7854.84
481.59	8121.66
481.77	8175.49
481.95	8273.79
482.13	8252.73
482.31	8297.20
482.49	8306.56
482.67	8475.08
482.85	8575.72
483.03	8634.24
483.21	8683.39
483.39	8648.28
483.57	8599.13
483.74	8833.18
483.92	8957.23
484.10	8882.33
484.28	8936.17
484.46	9240.44
484.64	9486.19
484.82	9186.60
485.00	9266.18
485.18	9437.04
485.35	9750.67
485.53	9352.78
485.71	9530.66
485.89	9844.29
486.07	9645.35
486.25	9987.07
486.43	9848.97
486.61	9961.32
486.78	9933.23
486.96	10122.82
487.14	10076.01
487.32	10176.65
487.50	9954.30
487.68	10387.30
487.85	10462.19
488.03	10644.76
488.21	10850.72
488.39	10796.89
488.57	10817.96
488.75	10834.34
488.92	11138.61
489.10	10883.49
489.28	11077.76
489.46	11431.18
489.64	11407.77
489.81	11403.09
489.99	11477.99
490.17	11431.18
490.35	11676.93
490.53	11456.92
490.70	11676.93
490.88	11639.48
491.06	12067.80
491.24	11976.52
491.41	12049.08
491.59	12355.69
491.77	12358.03
491.95	12367.39
492.13	12465.69
492.30	12776.98
492.48	12617.83
492.66	12669.32
492.84	12456.33
493.01	12767.62
493.19	12645.91
493.37	13135.09
493.54	12858.90
493.72	12952.52
493.90	12798.05
494.08	13144.45
494.25	13050.83
494.43	13575.11
494.61	13755.33
494.79	13483.83
494.96	13556.38
495.14	13734.26
495.32	13610.22
495.49	13830.23
495.67	13923.85
495.85	14001.08
496.02	14139.18
496.20	14012.79
496.38	14279.61
496.55	14183.65
496.73	14658.78
496.91	14279.61
497.09	14600.26
497.26	14628.35
497.44	14520.68
497.62	14508.98
497.79	14675.16
497.97	14743.03
498.14	14860.06
498.32	15192.42
498.50	15157.31
498.67	15295.40
498.85	15103.48
499.03	15393.70
499.20	15293.06
499.38	15068.37
499.56	15737.76
499.73	15524.77
499.91	15606.69
500.08	15573.92
500.26	15426.47
500.44	15845.43
500.61	15611.37
500.79	15571.58
500.97	15953.09
501.14	15878.19
501.32	16020.97
501.49	16140.33
501.67	15896.92
501.84	15871.17
502.02	16201.19
502.20	16353.32
502.37	16641.21
502.55	16362.69
502.72	16519.50
502.90	16400.13
503.07	16641.21
503.25	16407.16
503.43	16645.89
503.60	16767.60
503.78	16575.67
503.95	16755.90
504.13	16732.49
504.30	16840.15
504.48	17216.98
504.65	16964.20
504.83	17001.65
505.01	17572.74
505.18	17046.12
505.36	17429.97
505.53	17167.83
505.71	17495.50
505.88	17324.65
506.06	17479.12
506.23	17558.70
506.41	17579.76
506.58	17785.73
506.76	17743.60
506.93	17628.92
507.11	17848.93
507.28	17972.97
507.46	17982.34
507.63	18139.15
507.81	17935.53
507.98	18024.47
508.16	18132.13
508.33	18326.39
508.50	18085.32
508.68	18382.57
508.85	18630.66
509.03	18640.03
509.20	18651.73
509.38	18682.16
509.55	18534.70
509.73	18918.55
509.90	18719.60
510.08	18855.36
510.25	18555.77
510.42	18724.29
510.60	19005.15
510.77	18876.42
510.95	18876.42
511.12	18831.95
511.30	18993.45
511.47	19185.37
511.64	19288.35
511.82	19489.64
511.99	19679.22
512.17	19594.96
512.34	19501.34
512.51	19606.67
512.69	19754.12
512.86	19592.62
513.04	20032.65
513.21	19814.98
513.38	19850.08
513.56	19892.21
513.73	19697.95
513.90	20135.63
514.08	19824.34
514.25	20025.62
514.43	19866.47
514.60	20388.41
514.77	20367.34
514.95	20482.03
515.12	19861.79
515.29	20100.52
515.47	20528.84
515.64	20524.16
515.81	20257.34
515.99	20688.00
516.16	20514.80
516.33	20683.31
516.51	20627.14
516.68	20299.47
516.85	20882.26
517.03	20748.85
517.20	20650.55
517.37	20989.92
517.54	20690.34
517.72	20886.94
517.89	21027.37
518.06	20760.55
518.24	20847.15
518.41	20814.38
518.58	21242.70
518.75	21453.35
518.93	21479.10
519.10	21277.81
519.27	21561.02
519.45	21254.40
519.62	21385.47
519.79	21240.36
519.96	21481.44
520.14	21572.72
520.31	21373.77
520.48	21661.66
520.65	21385.47
520.83	21949.54
521.00	21872.31
521.17	22022.10
521.34	21954.22
521.52	21895.71
521.69	22094.66
521.86	22335.73
522.03	22307.65
522.20	22471.48
522.38	22335.73
522.55	22335.73
522.72	22017.42
522.89	22050.19
523.07	22757.03
523.24	22352.12
523.41	22541.70
523.58	22312.33
523.75	22614.26
523.92	22829.59
524.10	22532.34
524.27	22726.60
524.44	23073.00
524.61	22803.84
524.78	22836.61
524.96	22787.46
525.13	22703.20
525.30	23143.22
525.47	23300.03
525.64	22850.65
525.81	22993.42
525.98	23143.22
526.16	23234.50
526.33	23108.11
526.50	23346.84
526.67	23091.73
526.84	23161.94
527.01	23175.98
527.18	22937.25
527.36	23461.53
527.53	23817.29
527.70	23571.54
527.87	23597.28
528.04	23868.78
528.21	23749.42
528.38	23789.20
528.55	23737.71
528.72	23508.34
528.89	24180.07
529.07	23613.66
529.24	23976.45
529.41	23864.10
529.58	24044.32
529.75	24126.24
529.92	24027.94
530.09	24105.18
530.26	24233.91
530.43	23990.49
530.60	24177.73
530.77	24236.25
530.94	24177.73
531.11	24533.50
531.28	24292.42
531.46	24250.29
531.63	24327.53
531.80	24407.11
531.97	24327.53
532.14	24505.41
532.31	24510.09
532.48	24449.24
532.65	24592.01
532.82	24496.05
532.99	24898.62
533.16	24372.00
533.33	24933.73
533.50	24905.64
533.67	24779.25
533.84	24444.56
534.01	24652.86
534.18	24938.41
534.35	25053.09
534.52	25029.69
534.69	25291.83
534.86	24863.51
535.03	25090.54
535.20	25242.68
535.37	25301.19
535.54	25635.89
535.71	24978.20
535.88	25319.92
536.05	25186.50
536.22	25553.97
536.38	25542.27
536.55	25649.93
536.72	25289.49
536.89	25085.86
537.06	25621.84
537.23	25781.00
537.40	25546.95
537.57	25577.37
537.74	25710.78
537.91	25755.26
538.08	26113.36
538.25	25603.12
538.42	25823.13
538.59	25956.54
538.75	25645.25
538.92	25855.90
539.09	25811.43
539.26	26052.50
539.43	25748.23
539.60	26001.01
539.77	26040.80
539.94	26331.03
540.11	26033.78
540.28	25975.27
540.44	25729.51
540.61	25937.82
540.78	25568.01
540.95	26192.94
541.12	26216.34
541.29	26150.81
541.46	26237.41
541.62	26015.05
541.79	26441.03
541.96	26015.05
542.13	26712.53
542.30	26714.87
542.47	26778.07
542.63	26668.06
542.80	26497.20
542.97	26967.65
543.14	26986.38
543.31	26806.16
543.48	26874.03
543.64	26897.44
543.81	26941.91
543.98	27353.84
544.15	27051.91
544.32	27309.37
544.48	27524.70
544.65	27112.77
544.82	27026.17
544.99	26560.40
545.16	27021.48
545.32	27047.23
545.49	27470.87
545.66	27515.34
545.83	27349.16
546.00	27222.77
546.16	27325.75
546.33	27330.44
546.50	26686.79
546.67	27136.17
546.83	27292.99
547.00	26937.23
547.17	27395.97
547.34	27365.54
547.50	27786.84
547.67	27435.76
547.84	27309.37
548.00	27447.46
548.17	27871.10
548.34	27887.48
548.51	27950.68
548.67	27990.47
548.84	27948.34
549.01	27967.06
549.18	27679.18
549.34	27828.97
549.51	28149.62
549.68	27744.71
549.84	27826.63
550.01	28027.92
550.18	28079.41
550.34	27974.08
550.51	28151.96
550.68	27896.85
550.84	28077.07
551.01	28027.92
551.18	28077.07
551.34	27850.03
551.51	28151.96
551.68	28177.71
551.84	28362.61
552.01	28730.08
552.18	28222.18
552.34	28133.24
552.51	28477.30
552.68	27864.08
552.84	28669.22
553.01	28561.56
553.18	28374.31
553.34	28636.45
553.51	28456.23
553.67	28467.94
553.84	28481.98
554.01	28795.61
554.17	28683.27
554.34	28512.41
554.51	28781.57
554.67	28772.21
554.84	28484.32
555.00	28692.63
555.17	28762.84
555.33	29095.20
555.50	28465.60
555.67	28844.76
555.83	28765.18
556.00	29219.25
556.16	29024.98
556.33	28432.83
556.50	28936.04
556.66	29188.82
556.83	29081.16
556.99	29102.22
557.16	29340.96
557.32	29579.69
557.49	29109.24
557.65	29237.97
557.82	28985.19
557.98	29048.39
558.15	28870.51
558.32	28847.10
558.48	28664.54
558.65	29294.14
558.81	29202.86
558.98	29139.67
559.14	29331.59
559.31	29242.65
559.47	29352.66
559.64	29104.56
559.80	29507.13
559.97	29619.48
560.13	29385.43
560.30	29301.17
560.46	29422.87
560.63	29146.69
560.79	29570.33
560.96	29385.43
561.12	29502.45
561.29	29193.50
561.45	29642.88
561.61	29579.69
561.78	29696.72
561.94	29560.97
562.11	29921.41
562.27	29553.94
562.44	29628.84
562.60	29425.22
562.77	29448.62
562.93	29284.78
563.10	29844.17
563.26	29914.39
563.42	29593.73
563.59	29947.15
563.75	29954.18
563.92	30017.37
564.08	29823.11
564.24	29259.04
564.41	29383.09
564.57	29773.95
564.74	30125.04
564.90	30094.61
565.07	29666.29
565.23	29788.00
565.39	29558.63
565.56	29986.94
565.72	29663.95
565.88	29640.54
566.05	29575.01
566.21	29752.89
566.38	29928.43
566.54	29586.71
566.70	30071.20
566.87	30094.61
567.03	29675.65
567.19	30099.29
567.36	29993.97
567.52	30089.93
567.68	30038.44
567.85	30228.02
568.01	30110.99
568.17	30005.67
568.34	30087.59
568.50	30118.01
568.66	30017.37
568.83	30347.39
568.99	30281.85
569.15	30153.12
569.32	30103.97
569.48	29626.50
569.64	29961.20
569.81	29598.41
569.97	30302.92
570.13	30045.46
570.30	29663.95
570.46	29940.13
570.62	30370.79
570.78	30132.06
570.95	29914.39
571.11	30141.42
571.27	30221.00
571.43	30415.26
571.60	30363.77
571.76	30284.19
571.92	30405.90
572.09	30368.45
572.25	30583.78
572.41	30403.56
572.57	30272.49
572.74	30338.02
572.90	30387.18
573.06	30237.38
573.22	30277.17
573.38	30167.16
573.55	30532.29
573.71	30726.55
573.87	30258.45
574.03	30361.43
574.20	30206.95
574.36	30625.91
574.52	29867.58
574.68	30260.79
574.84	30567.40
575.01	30576.76
575.17	30469.09
575.33	30235.04
575.49	30321.64
575.65	30251.42
575.82	30331.00
575.98	30483.14
576.14	30480.80
576.30	30567.40
576.46	30223.34
576.62	30632.93
576.79	30539.31
576.95	30319.30
577.11	30560.37
577.27	30302.92
577.43	30618.89
577.59	30539.31
577.75	30827.20
577.92	30110.99
578.08	30253.76
578.24	30281.85
578.40	30216.32
578.56	30235.04
578.72	30455.05
578.88	30955.93
579.04	30766.34
579.21	30663.36
579.37	30464.41
579.53	30429.30
579.69	30277.17
579.85	30143.76
580.01	30326.32
580.17	30731.23
580.33	30436.33
580.49	30534.63
580.65	31356.16
580.82	30775.70
580.98	30590.80
581.14	30864.64
581.30	31016.78
581.46	30197.59
581.62	30277.17
581.78	30389.52
581.94	30398.88
582.10	30429.30
582.26	30808.47
582.42	30459.73
582.58	30794.43
582.74	30771.02
582.90	30553.35
583.06	30803.79
583.22	30190.57
583.38	30335.68
583.54	30616.55
583.70	30492.50
583.86	30602.50
584.02	30639.95
584.18	30855.28
584.34	31281.26
584.50	30794.43
584.66	30654.00
584.82	30932.52
584.98	30651.66
585.14	30452.71
585.30	30288.87
585.46	30686.76
585.62	30515.90
585.78	30429.30
585.94	30532.29
586.10	30955.93
586.26	30773.36
586.42	30932.52
586.58	30792.09
586.74	30632.93
586.90	30546.33
587.06	30300.58
587.22	30326.32
587.38	30820.17
587.54	31105.72
587.70	30927.84
587.86	31407.65
588.02	30911.46
588.18	30881.03
588.34	30445.69
588.49	30665.70
588.65	30485.48
588.81	30441.01
588.97	31012.10
589.13	30548.67
589.29	30600.16
589.45	31033.16
589.61	31077.63
589.77	31037.84
589.93	31035.50
590.08	31178.28
590.24	31208.70
590.40	31192.32
590.56	30911.46
590.72	30862.30
590.88	30897.41
591.04	30593.14
591.20	30579.10
591.35	30881.03
591.51	31351.48
591.67	31051.89
591.83	31351.48
