SpectraSuite Data File
++++++++++++++++++++++++++++++++++++
Date: Fri Oct 18 13:58:16 GMT-05:00 2013
User: bianchi
Dark Spectrum Present: No
Reference Spectrum Present: No
Number of Sampled Component Spectra: 1
Spectrometers: USB2+H05261
Integration Time (usec): 50000 (USB2+H05261)
Spectra Averaged: 1 (USB2+H05261)
Boxcar Smoothing: 0 (USB2+H05261)
Correct for Electrical Dark: No (USB2+H05261)
Strobe/Lamp Enabled: No (USB2+H05261)
Correct for Detector Non-linearity: No (USB2+H05261)
Correct for Stray Light: No (USB2+H05261)
Number of Pixels in Processed Spectrum: 2048
>>>>>Begin Processed Spectral Data<<<<<
365.73	0.00
365.92	0.00
366.12	0.00
366.32	0.00
366.52	0.00
366.72	0.00
366.91	0.00
367.11	0.00
367.31	0.00
367.51	0.00
367.70	0.00
367.90	0.00
368.10	0.00
368.30	0.00
368.49	0.00
368.69	0.00
368.89	0.00
369.09	0.00
369.28	0.00
369.48	0.00
369.68	0.00
369.87	0.00
370.07	0.00
370.27	0.00
370.47	0.00
370.66	152.13
370.86	140.43
371.06	102.98
371.25	173.20
371.45	135.75
371.65	140.43
371.84	166.18
372.04	173.20
372.24	177.88
372.44	168.52
372.63	177.88
372.83	220.01
373.03	210.65
373.22	208.31
373.42	154.48
373.62	154.48
373.81	142.77
374.01	234.05
374.21	217.67
374.40	224.69
374.60	278.52
374.79	243.42
374.99	241.08
375.19	266.82
375.38	241.08
375.58	322.99
375.78	269.16
375.97	224.69
376.17	271.50
376.37	227.03
376.56	189.58
376.76	266.82
376.95	318.31
377.15	255.12
377.35	276.18
377.54	283.20
377.74	280.86
377.93	271.50
378.13	257.46
378.33	290.23
378.52	353.42
378.72	252.78
378.91	215.33
379.11	360.44
379.31	269.16
379.50	278.52
379.70	290.23
379.89	266.82
380.09	287.89
380.28	250.44
380.48	257.46
380.68	318.31
380.87	304.27
381.07	299.59
381.26	278.52
381.46	311.29
381.65	362.78
381.85	262.14
382.04	365.12
382.24	311.29
382.43	252.78
382.63	301.93
382.83	318.31
383.02	283.20
383.22	433.00
383.41	369.80
383.61	325.33
383.80	374.49
384.00	397.89
384.19	379.17
384.39	386.19
384.58	379.17
384.78	355.76
384.97	330.02
385.17	360.44
385.36	433.00
385.56	390.87
385.75	404.91
385.95	430.66
386.14	437.68
386.34	414.27
386.53	411.93
386.72	402.57
386.92	458.74
387.11	421.30
387.31	411.93
387.50	407.25
387.70	418.96
387.89	407.25
388.09	447.04
388.28	416.62
388.48	367.46
388.67	402.57
388.86	517.26
389.06	402.57
389.25	456.40
389.45	454.06
389.64	440.02
389.84	418.96
390.03	461.09
390.22	517.26
390.42	477.47
390.61	461.09
390.81	505.56
391.00	507.90
391.19	503.22
391.39	507.90
391.58	582.79
391.78	489.17
391.97	440.02
392.16	543.00
392.36	528.96
392.55	589.82
392.75	489.17
392.94	477.47
393.13	582.79
393.33	587.47
393.52	545.34
393.71	507.90
393.91	582.79
394.10	561.73
394.29	566.41
394.49	557.05
394.68	636.63
394.88	564.07
395.07	657.69
395.26	564.07
395.46	660.03
395.65	678.76
395.84	608.54
396.04	627.26
396.23	629.60
396.42	713.86
396.62	592.16
396.81	589.82
397.00	606.20
397.19	631.94
397.39	674.07
397.58	613.22
397.77	599.18
397.97	601.52
398.16	748.97
398.35	711.52
398.55	718.54
398.74	767.70
398.93	718.54
399.12	718.54
399.32	718.54
399.51	706.84
399.70	702.16
399.90	753.65
400.09	692.80
400.28	786.42
400.47	788.76
400.67	823.87
400.86	795.78
401.05	765.36
401.24	683.44
401.44	858.98
401.63	777.06
401.82	763.01
402.01	730.25
402.21	793.44
402.40	802.80
402.59	828.55
402.78	833.23
402.97	898.77
403.17	926.85
403.36	903.45
403.55	877.70
403.74	880.04
403.93	896.43
404.13	950.26
404.32	905.79
404.51	868.34
404.70	997.07
404.89	943.24
405.09	884.72
405.28	940.90
405.47	966.64
405.66	992.39
405.85	980.68
406.05	947.92
406.24	922.17
406.43	973.66
406.62	971.32
406.81	1086.01
407.00	929.19
407.20	1008.77
407.39	1015.79
407.58	1057.92
407.77	1032.18
407.96	1071.97
408.15	1039.20
408.34	957.28
408.54	1074.31
408.73	1156.22
408.92	1083.67
409.11	1111.75
409.30	1036.86
409.49	1100.05
409.68	1050.90
409.87	1158.57
410.07	1181.97
410.26	1198.35
410.45	1196.01
410.64	1172.61
410.83	1221.76
411.02	1114.10
411.21	1247.51
411.40	1270.91
411.59	1331.76
411.78	1310.70
411.98	1259.21
412.17	1266.23
412.36	1287.29
412.55	1249.85
412.74	1310.70
412.93	1329.42
413.12	1315.38
413.31	1497.94
413.50	1425.39
413.69	1441.77
413.88	1486.24
414.07	1418.36
414.26	1362.19
414.45	1448.79
414.64	1469.86
414.83	1514.33
415.02	1523.69
415.22	1474.54
415.41	1483.90
415.60	1451.13
415.79	1511.99
415.98	1598.59
416.17	1617.31
416.36	1586.88
416.55	1563.48
416.74	1729.66
416.93	1591.56
417.12	1563.48
417.31	1640.72
417.50	1743.70
417.69	1668.80
417.88	1715.61
418.07	1776.47
418.26	1715.61
418.45	1753.06
418.64	1839.66
418.83	1792.85
419.02	1741.36
419.21	1778.81
419.39	1809.23
419.58	1834.98
419.77	1799.87
419.96	1792.85
420.15	1797.53
420.34	1881.79
420.53	2001.16
420.72	1863.07
420.91	1830.30
421.10	1970.73
421.29	2001.16
421.48	1865.41
421.67	1933.28
421.86	1968.39
422.05	1977.75
422.24	1872.43
422.43	1930.94
422.61	1933.28
422.80	2015.20
422.99	1963.71
423.18	2071.37
423.37	2073.71
423.56	1989.46
423.75	2026.90
423.94	2066.69
424.13	1834.98
424.32	1975.41
424.50	2031.58
424.69	2157.97
424.88	2127.55
425.07	2052.65
425.26	2015.20
425.45	2043.29
425.64	2069.03
425.83	2038.61
426.01	2176.70
426.20	2094.78
426.39	2054.99
426.58	1961.37
426.77	2001.16
426.96	1998.82
427.15	2249.25
427.33	2214.15
427.52	2134.57
427.71	1989.46
427.90	2094.78
428.09	2230.53
428.28	2136.91
428.46	2080.74
428.65	2246.91
428.84	2246.91
429.03	2347.56
429.22	2321.81
429.40	2265.64
429.59	2211.81
429.78	2066.69
429.97	2207.13
430.16	2253.94
430.34	2260.96
430.53	2420.11
430.72	2396.71
430.91	2265.64
431.10	2293.72
431.28	2392.03
431.47	2303.09
431.66	2385.01
431.85	2263.30
432.03	2356.92
432.22	2443.52
432.41	2443.52
432.60	2434.16
432.79	2380.32
432.97	2382.67
433.16	2473.95
433.35	2410.75
433.54	2635.44
433.72	2518.42
433.91	2497.35
434.10	2518.42
434.28	2443.52
434.47	2530.12
434.66	2562.89
434.85	2647.15
435.03	2576.93
435.22	2518.42
435.41	2539.48
435.59	2551.18
435.78	2717.36
435.97	2642.46
436.16	2710.34
436.34	2644.81
436.53	2738.43
436.72	2780.56
436.90	2581.61
437.09	2738.43
437.28	2700.98
437.46	2663.53
437.65	2710.34
437.84	2757.15
438.02	2818.00
438.21	2820.35
438.40	2864.82
438.58	2829.71
438.77	2810.98
438.96	2794.60
439.14	2885.88
439.33	2832.05
439.52	2939.71
439.70	2904.60
439.89	3080.14
440.08	2956.10
440.26	3087.17
440.45	3023.97
440.63	3063.76
440.82	3133.98
441.01	3108.23
441.19	3131.64
441.38	3141.00
441.57	3239.30
441.75	3225.26
441.94	3279.09
442.12	3260.37
442.31	3323.56
442.50	3307.18
442.68	3400.80
442.87	3318.88
443.05	3243.98
443.24	3400.80
443.43	3384.41
443.61	3421.86
443.80	3342.28
443.98	3384.41
444.17	3421.86
444.35	3361.01
444.54	3403.14
444.73	3435.91
444.91	3426.54
445.10	3435.91
445.28	3398.46
445.47	3339.94
445.65	3391.44
445.84	3433.57
446.02	3480.38
446.21	3536.55
446.39	3599.74
446.58	3527.19
446.77	3471.01
446.95	3424.20
447.14	3478.04
447.32	3541.23
447.51	3442.93
447.69	3424.20
447.88	3501.44
448.06	3552.93
448.25	3609.11
448.43	3407.82
448.62	3414.84
448.80	3475.70
448.99	3559.95
449.17	3700.39
449.36	3576.34
449.54	3684.00
449.73	3749.54
449.91	3714.43
450.10	3632.51
450.28	3770.60
450.46	3789.33
450.65	3667.62
450.83	3700.39
451.02	3798.69
451.20	3805.71
451.39	3840.82
451.57	3691.02
451.76	3803.37
451.94	3747.20
452.13	3941.46
452.31	3957.85
452.49	3829.12
452.68	3756.56
452.86	3906.35
453.05	3918.06
453.23	4028.06
453.42	3768.26
453.60	3763.58
453.78	3904.01
453.97	3899.33
454.15	3939.12
454.34	3763.58
454.52	3915.72
454.70	4074.87
454.89	4049.13
455.07	4016.36
455.26	3896.99
455.44	4072.53
455.62	3981.25
455.81	4046.79
455.99	4049.13
456.17	4287.86
456.36	4227.01
456.54	4107.64
456.73	4245.73
456.91	4219.99
457.09	4182.54
457.28	4301.90
457.46	4287.86
457.64	4297.22
457.83	4421.27
458.01	4322.97
458.19	4388.50
458.38	4397.87
458.56	4276.16
458.74	4503.19
458.93	4470.42
459.11	4435.32
459.29	4365.10
459.48	4435.32
459.66	4337.01
459.84	4519.57
460.03	4505.53
460.21	4498.51
460.39	4458.72
460.57	4620.22
460.76	4449.36
460.94	4514.89
461.12	4538.30
461.31	4564.04
461.49	4512.55
461.67	4652.98
461.85	4643.62
462.04	4603.83
462.22	5041.51
462.40	4793.42
462.59	4734.90
462.77	4674.05
462.95	4915.12
463.13	4741.93
463.32	4854.27
463.50	4823.84
463.68	4664.69
463.86	4816.82
464.05	4784.06
464.23	4748.95
464.41	4938.53
464.59	4887.04
464.78	4851.93
464.96	4882.36
465.14	4908.10
465.32	5107.05
465.50	5062.58
465.69	4994.70
465.87	5100.03
466.05	4968.96
466.23	4933.85
466.41	5083.64
466.60	5104.71
466.78	4915.12
466.96	4910.44
467.14	4931.51
467.32	5015.77
467.51	5093.01
467.69	5139.82
467.87	5015.77
468.05	5132.79
468.23	5036.83
468.41	5153.86
468.60	5078.96
468.78	5273.23
468.96	5165.56
469.14	5308.34
469.32	5404.30
469.50	5121.09
469.69	5383.23
469.87	5444.09
470.05	5423.02
470.23	5408.98
470.41	5313.02
470.59	5348.12
470.77	5448.77
470.95	5495.58
471.14	5509.62
471.32	5453.45
471.50	5528.35
471.68	5568.13
471.86	5748.36
472.04	5692.18
472.22	5694.52
472.40	5678.14
472.58	5783.46
472.77	5675.80
472.95	5715.59
473.13	5856.02
473.31	5769.42
473.49	5870.06
473.67	5654.73
473.85	5837.30
474.03	5921.56
474.21	5998.79
474.39	6155.61
474.57	6136.88
474.75	6307.74
474.93	6108.80
475.12	6120.50
475.30	6015.18
475.48	6113.48
475.66	6052.63
475.84	6104.12
476.02	6338.17
476.20	6457.54
476.38	6464.56
476.56	6490.31
476.74	6565.20
476.92	6408.39
477.10	6527.75
477.28	6717.34
477.46	6677.55
477.64	6766.49
477.82	6806.28
478.00	6956.07
478.18	6951.39
478.36	6939.69
478.54	7035.65
478.72	7197.15
478.90	7148.00
479.08	7279.07
479.26	7283.75
479.44	7300.13
479.62	7346.94
479.80	7382.05
479.98	7442.90
480.16	7581.00
480.34	7641.85
480.52	7744.83
480.70	7573.97
480.88	7545.89
481.06	7639.51
481.24	7662.91
481.41	7929.74
481.59	8002.29
481.77	7892.29
481.95	8138.04
482.13	8002.29
482.31	7953.14
482.49	8215.28
482.67	8194.22
482.85	8381.46
483.03	8461.04
483.21	8603.81
483.39	8671.68
483.57	8648.28
483.74	8627.21
483.92	8685.73
484.10	8772.33
484.28	8950.21
484.46	9118.73
484.64	9116.39
484.82	8980.64
485.00	9048.51
485.18	9139.79
485.35	9273.20
485.53	9444.06
485.71	9596.20
485.89	9666.41
486.07	9643.01
486.25	9706.20
486.43	9724.93
486.61	9872.38
486.78	10087.71
486.96	9991.75
487.14	10024.51
487.32	9951.96
487.50	10057.28
487.68	10298.36
487.85	10354.53
488.03	10211.76
488.21	10656.46
488.39	10635.39
488.57	10464.54
488.75	10413.04
488.92	10820.30
489.10	10958.39
489.28	10895.19
489.46	11082.44
489.64	10998.18
489.81	11419.47
489.99	11300.11
490.17	11154.99
490.35	11627.78
490.53	11637.14
490.70	11665.23
490.88	11377.34
491.06	11702.68
491.24	11815.02
491.41	11651.19
491.59	11885.24
491.77	12229.30
491.95	12177.81
492.13	12205.89
492.30	12329.94
492.48	12142.70
492.66	12290.15
492.84	12187.17
493.01	12465.69
493.19	12655.28
493.37	12542.93
493.54	12784.01
493.72	13025.08
493.90	12739.54
494.08	12945.50
494.25	13069.55
494.43	13179.56
494.61	13235.73
494.79	13336.37
494.96	13455.74
495.14	13420.63
495.32	13703.84
495.49	13247.43
495.67	13401.91
495.85	13715.54
496.02	13867.67
496.20	13870.01
496.38	13975.34
496.55	14024.49
496.73	14256.20
496.91	13998.74
497.09	14382.59
497.26	14427.06
497.44	14279.61
497.62	14253.86
497.79	14494.94
497.97	14590.90
498.14	14862.40
498.32	14827.29
498.50	14773.46
498.67	15066.03
498.85	14906.87
499.03	14841.34
499.20	14768.78
499.38	15180.71
499.56	15318.81
499.73	15136.24
499.91	15445.20
500.08	15419.45
500.26	15311.78
500.44	15435.83
500.61	15609.03
500.79	15520.09
500.97	15293.06
501.14	15889.90
501.32	15733.08
501.49	15833.72
501.67	15541.16
501.84	15969.48
502.02	16020.97
502.20	15920.32
502.37	16060.76
502.55	16322.90
502.72	16205.87
502.90	16229.27
503.07	16318.22
503.25	16255.02
503.43	16283.11
503.60	16320.56
503.78	16353.32
503.95	16439.92
504.13	16746.53
504.30	16685.68
504.48	16840.15
504.65	16414.18
504.83	16856.54
505.01	16863.56
505.18	16910.37
505.36	16971.22
505.53	17041.44
505.71	17074.21
505.88	17036.76
506.06	17071.87
506.23	17193.58
506.41	16971.22
506.58	17226.34
506.76	17390.18
506.93	17565.72
507.11	17331.67
507.28	17418.27
507.46	17266.13
507.63	17469.76
507.81	17884.03
507.98	17666.36
508.16	17731.90
508.33	17717.86
508.50	17937.87
508.68	17872.33
508.85	18253.84
509.03	18010.42
509.20	18001.06
509.38	18211.71
509.55	18670.45
509.73	18288.95
509.90	18389.59
510.08	18221.07
510.25	18288.95
510.42	18143.83
510.60	18537.04
510.77	18808.54
510.95	18621.30
511.12	18771.10
511.30	18862.38
511.47	18600.24
511.64	18754.71
511.82	19108.13
511.99	18951.32
512.17	19309.42
512.34	19023.87
512.51	19171.33
512.69	19274.31
512.86	19241.54
513.04	19101.11
513.21	19499.00
513.38	19421.77
513.56	19454.53
513.73	19463.90
513.90	19545.81
514.08	19304.74
514.25	19735.40
514.43	19704.97
514.60	19871.15
514.77	19669.86
514.95	20112.22
515.12	19683.91
515.29	19606.67
515.47	20016.26
515.64	20168.40
515.81	19829.02
515.99	20067.75
516.16	20184.78
516.33	20166.06
516.51	20514.80
516.68	20166.06
516.85	20327.55
517.03	20608.42
517.20	20357.98
517.37	20423.51
517.54	20524.16
517.72	20547.56
517.89	20725.44
518.06	20620.12
518.24	20751.19
518.41	20552.24
518.58	20821.41
518.75	20950.14
518.93	21046.10
519.10	21170.15
519.27	20989.92
519.45	20943.11
519.62	20790.98
519.79	21184.19
519.96	20898.64
520.14	21406.54
520.31	21097.59
520.48	21460.37
520.65	21003.97
520.83	21458.03
521.00	21329.30
521.17	21357.39
521.34	21539.95
521.52	21701.45
521.69	21429.94
521.86	21598.46
522.03	21507.18
522.20	21425.26
522.38	21867.63
522.55	21858.26
522.72	21748.26
522.89	21895.71
523.07	22080.61
523.24	22019.76
523.41	22054.87
523.58	21701.45
523.75	22300.62
523.92	21816.13
524.10	22064.23
524.27	22113.38
524.44	22593.19
524.61	22382.54
524.78	22544.04
524.96	22359.14
525.13	22530.00
525.30	22389.56
525.47	22487.87
525.64	22661.07
525.81	22965.34
525.98	22895.12
526.16	22731.28
526.33	22778.09
526.50	22796.82
526.67	22733.62
526.84	23068.32
527.01	22635.32
527.18	22717.24
527.36	23070.66
527.53	23304.71
527.70	23386.63
527.87	23480.25
528.04	23185.35
528.21	23077.68
528.38	23433.44
528.55	23733.03
528.72	23084.70
528.89	23438.12
529.07	23496.64
529.24	23377.27
529.41	23562.17
529.58	23396.00
529.75	23557.49
529.92	23431.10
530.09	23421.74
530.26	23733.03
530.43	23585.58
530.60	23585.58
530.77	23779.84
530.94	24091.13
531.11	23578.56
531.28	23648.77
531.46	23482.59
531.63	23604.30
531.80	23922.62
531.97	24114.54
532.14	24381.36
532.31	23793.89
532.48	24114.54
532.65	24212.84
532.82	24095.82
532.99	23997.51
533.16	24053.69
533.33	24278.38
533.50	24582.65
533.67	24582.65
533.84	24439.87
534.01	24116.88
534.18	24357.96
534.35	24507.75
534.52	24526.47
534.69	24601.37
534.86	24727.76
535.03	24645.84
535.20	24819.04
535.37	24655.20
535.54	24713.72
535.71	24470.30
535.88	24896.28
536.05	24381.36
536.22	25188.85
536.38	24943.09
536.55	25378.43
536.72	24957.13
536.89	24926.71
537.06	24910.32
537.23	25116.29
537.40	24847.13
537.57	24863.51
537.74	25340.98
537.91	25392.47
538.08	25195.87
538.25	25048.41
538.42	25296.51
538.59	25401.83
538.75	25067.14
538.92	25310.55
539.09	25209.91
539.26	25254.38
539.43	25415.88
539.60	25640.57
539.77	25245.02
539.94	25610.14
540.11	25525.88
540.28	25790.36
540.44	25584.40
540.61	25724.83
540.78	25544.61
540.95	25827.81
541.12	25628.87
541.29	25699.08
541.46	25579.71
541.62	25795.04
541.79	25844.20
541.96	25406.52
542.13	25722.49
542.30	25942.50
542.47	26146.12
542.63	26073.57
542.80	26036.12
542.97	26113.36
543.14	26218.68
543.31	25956.54
543.48	26106.34
543.64	26382.52
543.81	26321.66
543.98	26480.82
544.15	26745.30
544.32	26335.71
544.48	26487.84
544.65	26527.63
544.82	26590.83
544.99	26445.71
545.16	26595.51
545.32	26672.74
545.49	26735.94
545.66	26841.26
545.83	26998.08
546.00	26707.85
546.16	26700.83
546.33	26551.04
546.50	26298.26
546.67	26796.79
546.83	26815.52
547.00	26906.80
547.17	26977.01
547.34	27028.51
547.50	26567.42
547.67	26885.73
547.84	27302.35
548.00	27285.97
548.17	27206.39
548.34	27089.36
548.51	27295.33
548.67	27204.05
548.84	27435.76
549.01	27105.74
549.18	26719.56
549.34	26984.04
549.51	27239.15
549.68	27220.43
549.84	27239.15
550.01	27330.44
550.18	27152.55
550.34	27166.60
550.51	27587.89
550.68	27370.22
550.84	27452.14
551.01	27714.28
551.18	27381.93
551.34	27452.14
551.51	27229.79
551.68	27414.69
551.84	27938.97
552.01	27534.06
552.18	27910.89
552.34	27763.43
552.51	28027.92
552.68	27662.79
552.84	28093.45
553.01	28107.49
553.18	27615.98
553.34	27690.88
553.51	27922.59
553.67	28250.27
553.84	28280.69
554.01	28341.55
554.17	27988.13
554.34	28116.86
554.51	28254.95
554.67	28081.75
554.84	27835.99
555.00	28116.86
555.17	28261.97
555.33	28428.15
555.50	28273.67
555.67	28168.35
555.83	27899.19
556.00	28130.90
556.16	28315.80
556.33	28170.69
556.50	28107.49
556.66	28329.84
556.83	28418.78
556.99	28479.64
557.16	28348.57
557.32	28301.76
557.49	28524.11
557.65	28432.83
557.82	28243.24
557.98	28683.27
558.15	28491.34
558.32	28458.57
558.48	28613.05
558.65	28982.85
558.81	28496.02
558.98	28589.64
559.14	28741.78
559.31	28470.28
559.47	28521.77
559.64	28212.82
559.80	28589.64
559.97	28652.84
560.13	28610.71
560.30	28638.80
560.46	28809.65
560.63	28922.00
560.79	28587.30
560.96	28922.00
561.12	28751.14
561.29	28561.56
561.45	28666.88
561.61	28978.17
561.78	28730.08
561.94	28940.72
562.11	28936.04
562.27	28884.55
562.44	28858.81
562.60	28804.97
562.77	28842.42
562.93	28388.36
563.10	28945.41
563.26	29099.88
563.42	28973.49
563.59	29097.54
563.75	28584.96
563.92	29134.99
564.08	29130.31
564.24	28978.17
564.41	29338.62
564.57	28833.06
564.74	28893.91
564.90	29078.82
565.07	29104.56
565.23	29111.58
565.39	28957.11
565.56	29254.36
565.72	28947.75
565.88	28961.79
566.05	29118.60
566.21	29249.67
566.38	29046.05
566.54	29298.83
566.70	29635.86
566.87	29399.47
567.03	29315.21
567.19	29893.32
567.36	29228.61
567.52	29163.08
567.68	28856.46
567.85	29476.71
568.01	29600.76
568.17	29219.25
568.34	29551.60
568.50	29151.37
568.66	29766.93
568.83	29575.01
568.99	29237.97
569.15	29111.58
569.32	29069.45
569.48	29392.45
569.64	29802.04
569.81	29549.26
569.97	29621.82
570.13	29546.92
570.30	29167.76
570.46	29373.72
570.62	29404.15
570.78	29303.51
570.95	28975.83
571.11	29710.76
571.27	28842.42
571.43	29434.58
571.60	29378.40
571.76	29631.18
571.92	29062.43
572.09	29235.63
572.25	29600.76
572.41	29556.28
572.57	29469.69
572.74	29312.87
572.90	29422.87
573.06	29263.72
573.22	29205.20
573.38	29523.52
573.55	29230.95
573.71	29661.61
573.87	29951.84
574.03	29804.38
574.20	29446.28
574.36	28954.77
574.52	29757.57
574.68	29881.62
574.84	29392.45
575.01	30010.35
575.17	29806.72
575.33	29914.39
575.49	29853.53
575.65	29790.34
575.82	29441.60
575.98	29469.69
576.14	29766.93
576.30	29488.41
576.46	29570.33
576.62	29745.87
576.79	29902.68
576.95	29635.86
577.11	29331.59
577.27	29738.85
577.43	29883.96
577.59	30015.03
577.75	29282.44
577.92	29661.61
578.08	29497.77
578.24	29685.01
578.40	29855.87
578.56	29722.46
578.72	29619.48
578.88	30272.49
579.04	29982.26
579.21	29806.72
579.37	29874.60
579.53	29701.40
579.69	29652.25
579.85	29528.20
580.01	29762.25
580.17	29558.63
580.33	29874.60
580.49	29542.24
580.65	29951.84
580.82	30134.40
580.98	29944.81
581.14	29563.31
581.30	29982.26
581.46	29736.51
581.62	29930.77
581.78	29493.09
581.94	29668.63
582.10	29476.71
582.26	30087.59
582.42	29921.41
582.58	30148.44
582.74	29813.74
582.90	30010.35
583.06	30066.52
583.22	29902.68
583.38	29942.47
583.54	30103.97
583.70	29876.94
583.86	29862.90
584.02	29759.91
584.18	29975.24
584.34	29989.28
584.50	29900.34
584.66	29958.86
584.82	29762.25
584.98	29539.90
585.14	29928.43
585.30	29696.72
585.46	29605.44
585.62	30218.66
585.78	29790.34
585.94	29727.14
586.10	30099.29
586.26	29778.64
586.42	30068.86
586.58	30188.23
586.74	29890.98
586.90	29607.78
587.06	29907.37
587.22	30204.61
587.38	30040.78
587.54	30146.10
587.70	29846.51
587.86	29874.60
588.02	30000.99
588.18	30157.80
588.34	30054.82
588.49	30609.53
588.65	29797.36
588.81	30031.41
588.97	29680.33
589.13	30167.16
589.29	30040.78
589.45	30040.78
589.61	30057.16
589.77	30050.14
589.93	29996.31
590.08	30113.33
590.24	30457.39
590.40	30639.95
590.56	30419.94
590.72	30263.13
590.88	30181.21
591.04	30258.45
591.20	30508.88
591.35	30412.92
591.51	30497.18
591.67	30452.71
591.83	30525.27
591.99	30244.40
