SpectraSuite Data File
++++++++++++++++++++++++++++++++++++
Date: Fri Oct 18 13:58:26 GMT-05:00 2013
User: bianchi
Dark Spectrum Present: No
Reference Spectrum Present: No
Number of Sampled Component Spectra: 1
Spectrometers: USB2+H05261
Integration Time (usec): 50000 (USB2+H05261)
Spectra Averaged: 1 (USB2+H05261)
Boxcar Smoothing: 0 (USB2+H05261)
Correct for Electrical Dark: No (USB2+H05261)
Strobe/Lamp Enabled: No (USB2+H05261)
Correct for Detector Non-linearity: No (USB2+H05261)
Correct for Stray Light: No (USB2+H05261)
Number of Pixels in Processed Spectrum: 2048
>>>>>Begin Processed Spectral Data<<<<<
365.73	0.00
365.92	0.00
366.12	0.00
366.32	0.00
366.52	0.00
366.72	0.00
366.91	0.00
367.11	0.00
367.31	0.00
367.51	0.00
367.70	0.00
367.90	0.00
368.10	0.00
368.30	0.00
368.49	0.00
368.69	0.00
368.89	0.00
369.09	0.00
369.28	0.00
369.48	0.00
369.68	0.00
369.87	0.00
370.07	0.00
370.27	0.00
370.47	0.00
370.66	42.13
370.86	110.01
371.06	140.43
371.25	145.11
371.45	72.56
371.65	131.07
371.84	102.98
372.04	72.56
372.24	196.60
372.44	147.45
372.63	184.90
372.83	203.63
373.03	121.71
373.22	198.95
373.42	198.95
373.62	217.67
373.81	299.59
374.01	217.67
374.21	248.10
374.40	245.76
374.60	280.86
374.79	243.42
374.99	187.24
375.19	271.50
375.38	222.35
375.58	271.50
375.78	273.84
375.97	184.90
376.17	264.48
376.37	252.78
376.56	259.80
376.76	276.18
376.95	238.73
377.15	325.33
377.35	198.95
377.54	306.61
377.74	217.67
377.93	264.48
378.13	220.01
378.33	358.10
378.52	266.82
378.72	301.93
378.91	280.86
379.11	322.99
379.31	231.71
379.50	257.46
379.70	262.14
379.89	266.82
380.09	306.61
380.28	341.72
380.48	315.97
380.68	280.86
380.87	351.08
381.07	320.65
381.26	327.68
381.46	306.61
381.65	358.10
381.85	273.84
382.04	332.36
382.24	379.17
382.43	315.97
382.63	376.83
382.83	414.27
383.02	447.04
383.22	311.29
383.41	322.99
383.61	322.99
383.80	402.57
384.00	294.91
384.19	292.57
384.39	386.19
384.58	330.02
384.78	341.72
384.97	365.12
385.17	341.72
385.36	395.55
385.56	301.93
385.75	308.95
385.95	477.47
386.14	404.91
386.34	365.12
386.53	348.74
386.72	369.80
386.92	404.91
387.11	346.40
387.31	304.27
387.50	376.83
387.70	456.40
387.89	414.27
388.09	479.81
388.28	409.59
388.48	360.44
388.67	402.57
388.86	428.32
389.06	449.38
389.25	479.81
389.45	397.89
389.64	423.64
389.84	465.77
390.03	496.19
390.22	425.98
390.42	475.13
390.61	433.00
390.81	491.51
391.00	449.38
391.19	444.70
391.39	514.92
391.58	528.96
391.78	510.24
391.97	510.24
392.16	479.81
392.36	624.92
392.55	561.73
392.75	465.77
392.94	528.96
393.13	545.34
393.33	449.38
393.52	505.56
393.71	580.45
393.91	535.98
394.10	594.50
394.29	571.09
394.49	475.13
394.68	561.73
394.88	566.41
395.07	671.73
395.26	631.94
395.46	631.94
395.65	678.76
395.84	603.86
396.04	634.29
396.23	624.92
396.42	582.79
396.62	678.76
396.81	641.31
397.00	617.90
397.19	608.54
397.39	657.69
397.58	657.69
397.77	603.86
397.97	655.35
398.16	688.12
398.35	636.63
398.55	748.97
398.74	706.84
398.93	720.88
399.12	676.41
399.32	746.63
399.51	685.78
399.70	767.70
399.90	683.44
400.09	725.57
400.28	723.23
400.47	763.01
400.67	779.40
400.86	807.48
401.05	779.40
401.24	753.65
401.44	779.40
401.63	788.76
401.82	798.12
402.01	798.12
402.21	835.57
402.40	795.78
402.59	795.78
402.78	746.63
402.97	957.28
403.17	809.83
403.36	889.40
403.55	847.27
403.74	767.70
403.93	828.55
404.13	849.61
404.32	908.13
404.51	952.60
404.70	795.78
404.89	947.92
405.09	954.94
405.28	910.47
405.47	940.90
405.66	945.58
405.85	964.30
406.05	959.62
406.24	910.47
406.43	987.71
406.62	976.00
406.81	971.32
407.00	1032.18
407.20	1097.71
407.39	1125.80
407.58	1071.97
407.77	1060.26
407.96	1121.12
408.15	1076.65
408.34	1048.56
408.54	1086.01
408.73	1093.03
408.92	1121.12
409.11	1050.90
409.30	1167.93
409.49	1086.01
409.68	1144.52
409.87	1109.41
410.07	1172.61
410.26	1207.72
410.45	1172.61
410.64	1196.01
410.83	1167.93
411.02	1205.38
411.21	1268.57
411.40	1266.23
411.59	1179.63
411.78	1294.32
411.98	1308.36
412.17	1331.76
412.36	1348.15
412.55	1331.76
412.74	1345.81
412.93	1383.26
413.12	1224.10
413.31	1383.26
413.50	1371.55
413.69	1448.79
413.88	1465.18
414.07	1511.99
414.26	1474.54
414.45	1458.15
414.64	1425.39
414.83	1483.90
415.02	1451.13
415.22	1629.01
415.41	1610.29
415.60	1495.60
415.79	1568.16
415.98	1591.56
416.17	1631.35
416.36	1533.05
416.55	1617.31
416.74	1685.19
416.93	1640.72
417.12	1659.44
417.31	1607.95
417.50	1687.53
417.69	1795.19
417.88	1687.53
418.07	1724.97
418.26	1729.66
418.45	1631.35
418.64	1844.34
418.83	1694.55
419.02	1827.96
419.21	1856.04
419.39	1746.04
419.58	1811.57
419.77	1694.55
419.96	1823.28
420.15	1919.24
420.34	1891.15
420.53	1867.75
420.72	1860.73
420.91	1933.28
421.10	1891.15
421.29	1935.62
421.48	1888.81
421.67	1937.96
421.86	1926.26
422.05	2059.67
422.24	1977.75
422.43	1970.73
422.61	2003.50
422.80	1874.77
422.99	2078.40
423.18	1996.48
423.37	2057.33
423.56	1989.46
423.75	2085.42
423.94	1942.64
424.13	1874.77
424.32	1874.77
424.50	2012.86
424.69	2090.10
424.88	2062.01
425.07	1982.43
425.26	1912.22
425.45	1954.35
425.64	1998.82
425.83	2090.10
426.01	2162.66
426.20	2045.63
426.39	1980.09
426.58	2132.23
426.77	2132.23
426.96	1989.46
427.15	2066.69
427.33	2111.16
427.52	2078.40
427.71	2132.23
427.90	2083.08
428.09	2092.44
428.28	2223.51
428.46	2148.61
428.65	2223.51
428.84	2216.49
429.03	2258.62
429.22	2113.50
429.40	2354.58
429.59	2183.72
429.78	2253.94
429.97	2211.81
430.16	2244.57
430.34	2230.53
430.53	2347.56
430.72	2253.94
430.91	2225.85
431.10	2207.13
431.28	2202.44
431.47	2408.41
431.66	2373.30
431.85	2253.94
432.03	2410.75
432.22	2473.95
432.41	2356.92
432.60	2333.51
432.79	2387.35
432.97	2562.89
433.16	2356.92
433.35	2340.54
433.54	2399.05
433.72	2354.58
433.91	2537.14
434.10	2459.90
434.28	2504.37
434.47	2518.42
434.66	2532.46
434.85	2485.65
435.03	2576.93
435.22	2562.89
435.41	2700.98
435.59	2658.85
435.78	2590.97
435.97	2649.49
436.16	2684.59
436.34	2642.46
436.53	2649.49
436.72	2829.71
436.90	2670.55
437.09	2745.45
437.28	2651.83
437.46	2827.37
437.65	2799.28
437.84	2806.30
438.02	2747.79
438.21	2754.81
438.40	2775.88
438.58	2836.73
438.77	2864.82
438.96	2888.22
439.14	2974.82
439.33	2995.89
439.52	2995.89
439.70	3009.93
439.89	2977.16
440.08	2911.63
440.26	3019.29
440.45	3002.91
440.63	3115.25
440.82	3136.32
441.01	3164.40
441.19	3115.25
441.38	3187.81
441.57	3164.40
441.75	3208.87
441.94	3265.05
442.12	3206.53
442.31	3358.67
442.50	3269.73
442.68	3393.78
442.87	3276.75
443.05	3281.43
443.24	3372.71
443.43	3405.48
443.61	3382.07
443.80	3508.46
443.98	3344.63
444.17	3194.83
444.35	3515.48
444.54	3499.10
444.73	3449.95
444.91	3414.84
445.10	3473.36
445.28	3442.93
445.47	3384.41
445.65	3435.91
445.84	3471.01
446.02	3487.40
446.21	3386.76
446.39	3494.42
446.58	3478.04
446.77	3463.99
446.95	3438.25
447.14	3574.00
447.32	3583.36
447.51	3599.74
447.69	3520.17
447.88	3595.06
448.06	3562.30
448.25	3571.66
448.43	3407.82
448.62	3566.98
448.80	3438.25
448.99	3534.21
449.17	3574.00
449.36	3557.61
449.54	3691.02
449.73	3648.90
449.91	3817.41
450.10	3878.27
450.28	3667.62
450.46	3660.60
450.65	3705.07
450.83	3700.39
451.02	3681.66
451.20	3981.25
451.39	3751.88
451.57	3831.46
451.76	3824.44
451.94	3775.28
452.13	3887.63
452.31	3749.54
452.49	3756.56
452.68	3850.18
452.86	4060.83
453.05	3899.33
453.23	3932.10
453.42	3843.16
453.60	3925.08
453.78	3847.84
453.97	3871.25
454.15	3941.46
454.34	3911.04
454.52	3983.59
454.70	4067.85
454.89	4014.02
455.07	4072.53
455.26	3962.53
455.44	3988.27
455.62	4311.27
455.81	4044.45
455.99	4091.26
456.17	4161.47
456.36	4170.83
456.54	4318.29
456.73	4252.75
456.91	4327.65
457.09	4299.56
457.28	4367.44
457.46	4201.26
457.64	4269.14
457.83	4355.74
458.01	4322.97
458.19	4388.50
458.38	4276.16
458.56	4458.72
458.74	4442.34
458.93	4498.51
459.11	4278.50
459.29	4395.53
459.48	4374.46
459.66	4489.15
459.84	4491.49
460.03	4615.54
460.21	4528.94
460.39	4638.94
460.57	4582.77
460.76	4550.00
460.94	4613.20
461.12	4566.39
461.31	4671.71
461.49	4587.45
461.67	4447.02
461.85	4606.17
462.04	4599.15
462.22	4847.25
462.40	4849.59
462.59	4795.76
462.77	4840.23
462.95	4828.53
463.13	4674.05
463.32	4844.91
463.50	4854.27
463.68	4884.70
463.86	4814.48
464.05	4744.27
464.23	4954.91
464.41	4807.46
464.59	4828.53
464.78	4997.04
464.96	4908.10
465.14	4917.47
465.32	4823.84
465.50	4973.64
465.69	4980.66
465.87	4985.34
466.05	4889.38
466.23	4870.65
466.41	4987.68
466.60	5107.05
466.78	5034.49
466.96	5062.58
467.14	4978.32
467.32	5018.11
467.51	5139.82
467.69	4952.57
467.87	5149.18
468.05	5097.69
468.23	4940.87
468.41	5057.90
468.60	5135.14
468.78	5284.93
468.96	5006.41
469.14	5268.55
469.32	5334.08
469.50	5144.50
469.69	5228.76
469.87	5427.70
470.05	5451.11
470.23	5563.45
470.41	5418.34
470.59	5305.99
470.77	5338.76
470.95	5509.62
471.14	5547.07
471.32	5387.91
471.50	5563.45
471.68	5722.61
471.86	5593.88
472.04	5689.84
472.22	5942.62
472.40	5626.65
472.58	5771.76
472.77	5783.46
472.95	5851.34
473.13	5900.49
473.31	5809.21
473.49	5778.78
473.67	5729.63
473.85	5797.51
474.03	6066.67
474.21	6026.88
474.39	6064.33
474.57	6106.46
474.75	6258.59
474.93	6265.61
475.12	6115.82
475.30	6043.26
475.48	6094.76
475.66	6176.67
475.84	6162.63
476.02	6181.35
476.20	6183.70
476.38	6455.20
476.56	6686.91
476.74	6672.87
476.92	6445.84
477.10	6403.71
477.28	6565.20
477.46	6560.52
477.64	6731.38
477.82	6672.87
478.00	6946.71
478.18	6857.77
478.36	6920.96
478.54	7068.42
478.72	6946.71
478.90	7197.15
479.08	6974.80
479.26	7002.88
479.44	7405.46
479.62	7295.45
479.80	7454.61
479.98	7316.51
480.16	7431.20
480.34	7344.60
480.52	7515.46
480.70	7595.04
480.88	7576.31
481.06	7740.15
481.24	7723.77
481.41	7845.48
481.59	7906.33
481.77	8021.02
481.95	8109.96
482.13	8018.68
482.31	8147.40
482.49	8257.41
482.67	8009.31
482.85	8170.81
483.03	8421.25
483.21	8528.91
483.39	8627.21
483.57	8711.47
483.74	8411.89
483.92	8627.21
484.10	8578.06
484.28	8610.83
484.46	9064.89
484.64	9160.86
484.82	9022.77
485.00	9053.19
485.18	9277.88
485.35	9383.21
485.53	9266.18
485.71	9221.71
485.89	9696.84
486.07	9530.66
486.25	9631.30
486.43	9586.83
486.61	9533.00
486.78	9832.59
486.96	9827.91
487.14	10008.13
487.32	10066.64
487.50	10113.45
487.68	10146.22
487.85	10441.13
488.03	10415.38
488.21	10558.16
488.39	10654.12
488.57	10712.63
488.75	10740.72
488.92	10920.94
489.10	10981.79
489.28	10813.28
489.46	11164.36
489.64	11073.07
489.81	11218.19
489.99	11178.40
490.17	11225.21
490.35	11194.78
490.53	11513.10
490.70	11686.29
490.88	11681.61
491.06	11590.33
491.24	11721.40
491.41	11763.53
491.59	11803.32
491.77	11976.52
491.95	12067.80
492.13	12138.02
492.30	12362.71
492.48	11985.88
492.66	12409.52
492.84	12353.35
493.01	12477.40
493.19	12580.38
493.37	12559.31
493.54	12781.67
493.72	12798.05
493.90	12931.46
494.08	13039.12
494.25	13118.70
494.43	13132.75
494.61	13132.75
494.79	13275.52
494.96	13408.93
495.14	13207.64
495.32	13373.82
495.49	13579.79
495.67	13472.12
495.85	13743.63
496.02	14008.11
496.20	13963.64
496.38	14321.74
496.55	13951.93
496.73	14370.89
496.91	13956.61
497.09	14345.14
497.26	14359.19
497.44	14368.55
497.62	14272.59
497.79	14455.15
497.97	14408.34
498.14	14834.32
498.32	14684.52
498.50	14684.52
498.67	14967.73
498.85	14726.65
499.03	14923.26
499.20	14848.36
499.38	15054.33
499.56	15281.36
499.73	15147.95
499.91	15449.88
500.08	15152.63
500.26	15428.81
500.44	15496.69
500.61	15171.35
500.79	15286.04
500.97	15683.93
501.14	16091.18
501.32	15859.47
501.49	15796.28
501.67	15925.00
501.84	15676.91
502.02	15990.54
502.20	16002.24
502.37	15932.03
502.55	15957.77
502.72	16109.91
502.90	16100.55
503.07	16009.26
503.25	16236.30
503.43	16322.90
503.60	16652.91
503.78	16608.44
503.95	16517.16
504.13	16552.27
504.30	16517.16
504.48	16629.51
504.65	16599.08
504.83	17011.01
505.01	17156.13
505.18	16931.44
505.36	17114.00
505.53	16648.23
505.71	17186.55
505.88	16973.56
506.06	16889.31
506.23	17277.83
506.41	16938.46
506.58	17525.93
506.76	17308.26
506.93	17591.47
507.11	17137.40
507.28	17523.59
507.46	17673.39
507.63	17476.78
507.81	17816.16
507.98	17645.30
508.16	17593.81
508.33	17795.09
508.50	17696.79
508.68	17523.59
508.85	18108.72
509.03	18207.03
509.20	18001.06
509.38	18204.69
509.55	18602.58
509.73	18293.63
509.90	18340.44
510.08	18349.80
510.25	18523.00
510.42	18579.17
510.60	18703.22
510.77	18689.18
510.95	18967.70
511.12	18328.74
511.30	18567.47
511.47	18773.44
511.64	18719.60
511.82	19218.14
511.99	18675.13
512.17	18853.02
512.34	19190.05
512.51	19021.53
512.69	18972.38
512.86	19185.37
513.04	19449.85
513.21	19447.51
513.38	19208.78
513.56	19367.93
513.73	19276.65
513.90	19531.77
514.08	19138.56
514.25	19686.25
514.43	19403.04
514.60	19768.16
514.77	19623.05
514.95	19927.32
515.12	20023.28
515.29	20130.95
515.47	19985.83
515.64	20058.39
515.81	19777.53
515.99	20037.33
516.16	20084.14
516.33	20247.97
516.51	20004.56
516.68	20187.12
516.85	20168.40
517.03	20451.60
517.20	20294.79
517.37	20222.23
517.54	20467.98
517.72	20556.93
517.89	20566.29
518.06	20442.24
518.24	20727.78
518.41	20456.28
518.58	20753.53
518.75	20400.11
518.93	21144.40
519.10	20404.79
519.27	20905.66
519.45	20863.54
519.62	20833.11
519.79	21142.06
519.96	21010.99
520.14	20912.69
520.31	21193.55
520.48	21312.92
520.65	21106.95
520.83	21291.85
521.00	21451.01
521.17	21359.73
521.34	21221.64
521.52	21813.79
521.69	21579.74
521.86	21647.61
522.03	21399.52
522.20	21619.53
522.38	22008.06
522.55	21579.74
522.72	21738.90
522.89	21785.71
523.07	22036.14
523.24	21961.25
523.41	21675.70
523.58	21598.46
523.75	22026.78
523.92	21806.77
524.10	21954.22
524.27	22338.07
524.44	22317.01
524.61	22427.01
524.78	22572.13
524.96	22125.08
525.13	22394.25
525.30	22506.59
525.47	22576.81
525.64	22640.00
525.81	22473.82
525.98	22469.14
526.16	22794.48
526.33	22569.79
526.50	22506.59
526.67	22843.63
526.84	22855.33
527.01	22726.60
527.18	22817.88
527.36	23080.02
527.53	23140.88
527.70	23136.20
527.87	23150.24
528.04	22885.76
528.21	23159.60
528.38	22925.55
528.55	23374.93
528.72	22904.48
528.89	23283.65
529.07	23332.80
529.24	23236.84
529.41	23421.74
529.58	23281.31
529.75	23419.40
529.92	23569.19
530.09	23506.00
530.26	23522.38
530.43	23321.10
530.60	23372.59
530.77	23960.06
530.94	23370.25
531.11	23606.64
531.28	23454.51
531.46	23805.59
531.63	23747.08
531.80	23873.46
531.97	24376.68
532.14	23915.59
532.31	23751.76
532.48	24180.07
532.65	23957.72
532.82	23854.74
532.99	24072.41
533.16	23882.83
533.33	24638.82
533.50	24634.14
533.67	24142.63
533.84	24086.45
534.01	24219.86
534.18	24259.65
534.35	24425.83
534.52	24362.64
534.69	24664.57
534.86	24655.20
535.03	24374.34
535.20	24444.56
535.37	24411.79
535.54	24814.36
535.71	24491.37
535.88	24327.53
536.05	24769.89
536.22	25055.43
536.38	25130.33
536.55	24826.06
536.72	24879.89
536.89	25113.95
537.06	24744.14
537.23	25076.50
537.40	24879.89
537.57	24807.34
537.74	24947.77
537.91	25090.54
538.08	25362.04
538.25	25017.99
538.42	25174.80
538.59	25160.76
538.75	24732.44
538.92	24978.20
539.09	25226.29
539.26	25329.28
539.43	25495.46
539.60	25560.99
539.77	25523.54
539.94	25621.84
540.11	25387.79
540.28	25439.28
540.44	25401.83
540.61	25844.20
540.78	25610.14
540.95	25446.30
541.12	25743.55
541.29	25415.88
541.46	25640.57
541.62	25752.91
541.79	25612.48
541.96	25795.04
542.13	25729.51
542.30	25689.72
542.47	26340.39
542.63	26134.42
542.80	26031.44
542.97	26223.36
543.14	26426.99
543.31	25886.32
543.48	26204.64
543.64	26249.11
543.81	26436.35
543.98	26394.22
544.15	26230.38
544.32	26639.98
544.48	26677.43
544.65	26120.38
544.82	26120.38
544.99	26174.21
545.16	26457.42
545.32	26288.90
545.49	26632.96
545.66	26869.35
545.83	27087.02
546.00	26836.58
546.16	26717.22
546.33	26382.52
546.50	26726.58
546.67	26515.93
546.83	26581.46
547.00	26850.63
547.17	26899.78
547.34	26817.86
547.50	27040.21
547.67	26897.44
547.84	26829.56
548.00	26948.93
548.17	27140.85
548.34	27047.23
548.51	27124.47
548.67	26972.33
548.84	27152.55
549.01	27009.78
549.18	27028.51
549.34	27126.81
549.51	27199.37
549.68	27257.88
549.84	27112.77
550.01	27538.74
550.18	26838.92
550.34	27503.64
550.51	27295.33
550.68	27192.34
550.84	27243.84
551.01	27770.46
551.18	27243.84
551.34	27175.96
551.51	27386.61
551.68	27503.64
551.84	27503.64
552.01	27639.39
552.18	27587.89
552.34	27487.25
552.51	27728.33
552.68	27161.92
552.84	27524.70
553.01	27735.35
553.18	28018.55
553.34	27440.44
553.51	27480.23
553.67	28194.09
553.84	27807.90
554.01	27969.40
554.17	27950.68
554.34	27941.32
554.51	27655.77
554.67	27946.00
554.84	27793.86
555.00	27559.81
555.17	27953.02
555.33	28208.14
555.50	28072.39
555.67	28067.70
555.83	28093.45
556.00	27906.21
556.16	28170.69
556.33	27995.15
556.50	28091.11
556.66	28212.82
556.83	28418.78
556.99	28568.58
557.16	28353.25
557.32	28460.91
557.49	28259.63
557.65	28009.19
557.82	28325.16
557.98	27974.08
558.15	28524.11
558.32	28367.29
558.48	28659.86
558.65	28561.56
558.81	28346.23
558.98	28463.25
559.14	28776.89
559.31	28273.67
559.47	28222.18
559.64	28641.14
559.80	28774.55
559.97	28959.45
560.13	28451.55
560.30	28943.06
560.46	28484.32
560.63	28622.41
560.79	28905.62
560.96	28732.42
561.12	28788.59
561.29	28655.18
561.45	28751.14
561.61	28896.25
561.78	28914.98
561.94	29163.08
562.11	29202.86
562.27	29083.50
562.44	28807.31
562.60	28840.08
562.77	28905.62
562.93	28507.72
563.10	28837.74
563.26	28779.23
563.42	29301.17
563.59	28629.43
563.75	28877.53
563.92	29422.87
564.08	28767.52
564.24	28980.51
564.41	28898.59
564.57	28617.73
564.74	29191.16
564.90	29102.22
565.07	28854.12
565.23	29282.44
565.39	28868.17
565.56	28931.36
565.72	29043.71
565.88	28933.70
566.05	28830.72
566.21	29240.31
566.38	29039.03
566.54	29069.45
566.70	29324.57
566.87	29399.47
567.03	29090.52
567.19	29633.52
567.36	29289.46
567.52	28954.77
567.68	29254.36
567.85	29172.44
568.01	29322.23
568.17	29240.31
568.34	29268.40
568.50	29511.81
568.66	29376.06
568.83	29394.79
568.99	29071.79
569.15	29198.18
569.32	29200.52
569.48	29443.94
569.64	29186.48
569.81	29411.17
569.97	29591.39
570.13	28938.38
570.30	29462.66
570.46	29160.73
570.62	29324.57
570.78	29336.27
570.95	29275.42
571.11	29111.58
571.27	29102.22
571.43	29020.30
571.60	29053.07
571.76	28861.15
571.92	29411.17
572.09	29708.42
572.25	29411.17
572.41	29434.58
572.57	29649.91
572.74	29661.61
572.90	29575.01
573.06	29345.64
573.22	29029.66
573.38	29338.62
573.55	29495.43
573.71	29731.83
573.87	29766.93
574.03	29235.63
574.20	29415.85
574.36	29343.30
574.52	29270.74
574.68	29514.16
574.84	29275.42
575.01	29432.24
575.17	29184.14
575.33	29296.49
575.49	29530.54
575.65	29855.87
575.82	29855.87
575.98	29289.46
576.14	29734.17
576.30	29549.26
576.46	29780.98
576.62	29333.93
576.79	29516.50
576.95	29319.89
577.11	29490.75
577.27	29567.99
577.43	29479.05
577.59	29694.38
577.75	29963.54
577.92	29177.12
578.08	29460.32
578.24	29567.99
578.40	29511.81
578.56	29647.57
578.72	29792.68
578.88	29771.61
579.04	30185.89
579.21	29727.14
579.37	30019.71
579.53	29635.86
579.69	29329.25
579.85	29680.33
580.01	29450.96
580.17	29280.10
580.33	29652.25
580.49	29586.71
580.65	29832.47
580.82	29724.80
580.98	29570.33
581.14	29600.76
581.30	30017.37
581.46	29472.03
581.62	29493.09
581.78	29584.37
581.94	29757.57
582.10	29673.31
582.26	29645.23
582.42	30000.99
582.58	29692.04
582.74	29788.00
582.90	29958.86
583.06	29680.33
583.22	29617.14
583.38	29771.61
583.54	29284.78
583.70	29579.69
583.86	29584.37
584.02	29460.32
584.18	29841.83
584.34	29591.39
584.50	29572.67
584.66	29575.01
584.82	29607.78
584.98	29984.60
585.14	29544.58
585.30	29631.18
585.46	29970.56
585.62	29666.29
585.78	29724.80
585.94	29687.36
586.10	30019.71
586.26	29619.48
586.42	29820.77
586.58	30015.03
586.74	29928.43
586.90	29418.19
587.06	29694.38
587.22	29418.19
587.38	29685.01
587.54	30085.25
587.70	29944.81
587.86	29883.96
588.02	30174.19
588.18	30082.91
588.34	29935.45
588.49	29727.14
588.65	30073.54
588.81	29788.00
588.97	29890.98
589.13	29619.48
589.29	30038.44
589.45	30253.76
589.61	29944.81
589.77	29970.56
589.93	30164.82
590.08	30403.56
590.24	30305.26
590.40	29649.91
590.56	30302.92
590.72	30057.16
590.88	30082.91
591.04	30005.67
591.20	30223.34
591.35	30487.82
591.51	30302.92
591.67	30253.76
591.83	30155.46
591.99	30167.16
