SpectraSuite Data File
++++++++++++++++++++++++++++++++++++
Date: Fri Oct 18 13:58:13 GMT-05:00 2013
User: bianchi
Dark Spectrum Present: No
Reference Spectrum Present: No
Number of Sampled Component Spectra: 1
Spectrometers: USB2+H05261
Integration Time (usec): 50000 (USB2+H05261)
Spectra Averaged: 1 (USB2+H05261)
Boxcar Smoothing: 0 (USB2+H05261)
Correct for Electrical Dark: No (USB2+H05261)
Strobe/Lamp Enabled: No (USB2+H05261)
Correct for Detector Non-linearity: No (USB2+H05261)
Correct for Stray Light: No (USB2+H05261)
Number of Pixels in Processed Spectrum: 2048
>>>>>Begin Processed Spectral Data<<<<<
365.73	0.00
365.92	0.00
366.12	0.00
366.32	0.00
366.52	0.00
366.72	0.00
366.91	0.00
367.11	0.00
367.31	0.00
367.51	0.00
367.70	0.00
367.90	0.00
368.10	0.00
368.30	0.00
368.49	0.00
368.69	0.00
368.89	0.00
369.09	0.00
369.28	0.00
369.48	0.00
369.68	0.00
369.87	0.00
370.07	0.00
370.27	0.00
370.47	0.00
370.66	112.35
370.86	117.03
371.06	81.92
371.25	196.60
371.45	119.37
371.65	145.11
371.84	191.92
372.04	112.35
372.24	222.35
372.44	182.56
372.63	266.82
372.83	245.76
373.03	224.69
373.22	264.48
373.42	203.63
373.62	191.92
373.81	194.26
374.01	229.37
374.21	273.84
374.40	278.52
374.60	245.76
374.79	236.39
374.99	250.44
375.19	227.03
375.38	297.25
375.58	276.18
375.78	227.03
375.97	224.69
376.17	285.55
376.37	189.58
376.56	245.76
376.76	271.50
376.95	231.71
377.15	313.63
377.35	353.42
377.54	322.99
377.74	365.12
377.93	259.80
378.13	369.80
378.33	287.89
378.52	360.44
378.72	327.68
378.91	334.70
379.11	339.38
379.31	327.68
379.50	306.61
379.70	348.74
379.89	271.50
380.09	358.10
380.28	334.70
380.48	313.63
380.68	313.63
380.87	290.23
381.07	308.95
381.26	287.89
381.46	348.74
381.65	353.42
381.85	397.89
382.04	341.72
382.24	367.46
382.43	266.82
382.63	423.64
382.83	320.65
383.02	367.46
383.22	376.83
383.41	379.17
383.61	365.12
383.80	418.96
384.00	337.04
384.19	337.04
384.39	433.00
384.58	348.74
384.78	346.40
384.97	341.72
385.17	411.93
385.36	346.40
385.56	454.06
385.75	341.72
385.95	374.49
386.14	449.38
386.34	388.53
386.53	433.00
386.72	386.19
386.92	437.68
387.11	430.66
387.31	365.12
387.50	418.96
387.70	458.74
387.89	388.53
388.09	447.04
388.28	433.00
388.48	517.26
388.67	533.64
388.86	512.58
389.06	496.19
389.25	468.11
389.45	454.06
389.64	435.34
389.84	477.47
390.03	486.83
390.22	458.74
390.42	498.53
390.61	496.19
390.81	491.51
391.00	470.45
391.19	519.60
391.39	433.00
391.58	475.13
391.78	540.66
391.97	517.26
392.16	540.66
392.36	606.20
392.55	559.39
392.75	543.00
392.94	543.00
393.13	510.24
393.33	510.24
393.52	617.90
393.71	620.24
393.91	641.31
394.10	580.45
394.29	573.43
394.49	615.56
394.68	627.26
394.88	592.16
395.07	667.05
395.26	667.05
395.46	613.22
395.65	629.60
395.84	671.73
396.04	690.46
396.23	592.16
396.42	664.71
396.62	657.69
396.81	732.59
397.00	603.86
397.19	634.29
397.39	718.54
397.58	603.86
397.77	641.31
397.97	702.16
398.16	730.25
398.35	704.50
398.55	802.80
398.74	702.16
398.93	723.23
399.12	760.67
399.32	655.35
399.51	770.04
399.70	812.17
399.90	814.51
400.09	758.33
400.28	734.93
400.47	767.70
400.67	835.57
400.86	805.14
401.05	763.01
401.24	732.59
401.44	812.17
401.63	854.30
401.82	805.14
402.01	840.25
402.21	791.10
402.40	882.38
402.59	856.64
402.78	866.00
402.97	826.21
403.17	863.66
403.36	866.00
403.55	826.21
403.74	891.74
403.93	868.34
404.13	924.51
404.32	987.71
404.51	917.49
404.70	954.94
404.89	971.32
405.09	1055.58
405.28	880.04
405.47	1022.81
405.66	1043.88
405.85	1004.09
406.05	1022.81
406.24	1001.75
406.43	990.05
406.62	1039.20
406.81	1144.52
407.00	1057.92
407.20	985.37
407.39	1004.09
407.58	1034.52
407.77	1123.46
407.96	1132.82
408.15	1158.57
408.34	964.30
408.54	1095.37
408.73	1062.60
408.92	1160.91
409.11	1121.12
409.30	1273.25
409.49	1146.86
409.68	1177.29
409.87	1191.33
410.07	1240.48
410.26	1219.42
410.45	1184.31
410.64	1174.95
410.83	1226.44
411.02	1252.19
411.21	1296.66
411.40	1338.79
411.59	1263.89
411.78	1350.49
411.98	1294.32
412.17	1362.19
412.36	1317.72
412.55	1334.11
412.74	1352.83
412.93	1357.51
413.12	1401.98
413.31	1425.39
413.50	1434.75
413.69	1394.96
413.88	1610.29
414.07	1462.83
414.26	1521.35
414.45	1448.79
414.64	1542.41
414.83	1626.67
415.02	1544.75
415.22	1591.56
415.41	1584.54
415.60	1600.93
415.79	1678.16
415.98	1654.76
416.17	1643.06
416.36	1640.72
416.55	1633.69
416.74	1706.25
416.93	1593.90
417.12	1746.04
417.31	1720.29
417.50	1713.27
417.69	1788.17
417.88	1736.68
418.07	1715.61
418.26	1813.92
418.45	1806.89
418.64	1797.53
418.83	1797.53
419.02	1849.02
419.21	1909.88
419.39	1893.49
419.58	1806.89
419.77	1961.37
419.96	1849.02
420.15	1853.70
420.34	1912.22
420.53	1888.81
420.72	1947.33
420.91	2003.50
421.10	2008.18
421.29	2080.74
421.48	1900.52
421.67	2022.22
421.86	1846.68
422.05	1977.75
422.24	1989.46
422.43	2045.63
422.61	1926.26
422.80	2059.67
422.99	2080.74
423.18	2045.63
423.37	2059.67
423.56	2108.82
423.75	2052.65
423.94	2045.63
424.13	1947.33
424.32	1996.48
424.50	2094.78
424.69	2125.21
424.88	2160.31
425.07	2062.01
425.26	2113.50
425.45	1994.14
425.64	2026.90
425.83	2120.53
426.01	2167.34
426.20	1989.46
426.39	2202.44
426.58	2193.08
426.77	2111.16
426.96	2143.93
427.15	2115.84
427.33	2193.08
427.52	2024.56
427.71	2174.36
427.90	2090.10
428.09	2150.95
428.28	2310.11
428.46	2162.66
428.65	2256.28
428.84	2303.09
429.03	2368.62
429.22	2165.00
429.40	2256.28
429.59	2232.87
429.78	2143.93
429.97	2146.27
430.16	2239.89
430.34	2270.32
430.53	2443.52
430.72	2375.64
430.91	2368.62
431.10	2352.24
431.28	2366.28
431.47	2396.71
431.66	2495.01
431.85	2457.56
432.03	2436.50
432.22	2452.88
432.41	2457.56
432.60	2438.84
432.79	2485.65
432.97	2375.64
433.16	2497.35
433.35	2483.31
433.54	2562.89
433.72	2518.42
433.91	2462.24
434.10	2574.59
434.28	2485.65
434.47	2677.57
434.66	2539.48
434.85	2539.48
435.03	2724.38
435.22	2546.50
435.41	2684.59
435.59	2771.19
435.78	2614.38
435.97	2747.79
436.16	2754.81
436.34	2686.94
436.53	2672.89
436.72	2930.35
436.90	2771.19
437.09	2754.81
437.28	2640.12
437.46	2778.22
437.65	2920.99
437.84	2829.71
438.02	2773.53
438.21	2850.77
438.40	2808.64
438.58	2829.71
438.77	3012.27
438.96	2902.26
439.14	2876.52
439.33	2984.18
439.52	2986.52
439.70	2998.23
439.89	3021.63
440.08	3075.46
440.26	3171.43
440.45	3157.38
440.63	3183.13
440.82	3290.79
441.01	3077.80
441.19	3192.49
441.38	3105.89
441.57	3325.90
441.75	3323.56
441.94	3272.07
442.12	3279.09
442.31	3356.33
442.50	3251.00
442.68	3449.95
442.87	3405.48
443.05	3365.69
443.24	3386.76
443.43	3405.48
443.61	3466.33
443.80	3681.66
443.98	3307.18
444.17	3379.73
444.35	3449.95
444.54	3524.85
444.73	3445.27
444.91	3456.97
445.10	3379.73
445.28	3552.93
445.47	3536.55
445.65	3613.79
445.84	3510.80
446.02	3515.48
446.21	3496.76
446.39	3447.61
446.58	3557.61
446.77	3529.53
446.95	3454.63
447.14	3412.50
447.32	3651.24
447.51	3609.11
447.69	3583.36
447.88	3449.95
448.06	3681.66
448.25	3571.66
448.43	3517.83
448.62	3442.93
448.80	3531.87
448.99	3548.25
449.17	3604.42
449.36	3590.38
449.54	3658.26
449.73	3749.54
449.91	3850.18
450.10	3686.34
450.28	3911.04
450.46	3758.90
450.65	3864.22
450.83	3875.93
451.02	3777.62
451.20	3801.03
451.39	3850.18
451.57	3742.52
451.76	3723.79
451.94	3815.07
452.13	3887.63
452.31	4011.68
452.49	3779.97
452.68	4049.13
452.86	3922.74
453.05	3861.88
453.23	3990.61
453.42	4028.06
453.60	3880.61
453.78	4009.34
453.97	3887.63
454.15	4051.47
454.34	4002.32
454.52	4149.77
454.70	4112.32
454.89	4070.19
455.07	4133.39
455.26	4208.28
455.44	4170.83
455.62	4138.07
455.81	4222.33
455.99	4304.25
456.17	4196.58
456.36	4269.14
456.54	4332.33
456.73	4273.82
456.91	4482.13
457.09	4465.74
457.28	4461.06
457.46	4259.78
457.64	4318.29
457.83	4374.46
458.01	4510.21
458.19	4573.41
458.38	4428.29
458.56	4660.01
458.74	4538.30
458.93	4475.10
459.11	4526.60
459.29	4451.70
459.48	4542.98
459.66	4615.54
459.84	4720.86
460.03	4819.16
460.21	4585.11
460.39	4660.01
460.57	4608.51
460.76	4627.24
460.94	4678.73
461.12	4772.35
461.31	4772.35
461.49	4641.28
461.67	4681.07
461.85	4858.95
462.04	4727.88
462.22	5181.95
462.40	4952.57
462.59	4875.34
462.77	4940.87
462.95	4847.25
463.13	4830.87
463.32	4938.53
463.50	5104.71
463.68	5006.41
463.86	4985.34
464.05	4844.91
464.23	5060.24
464.41	5114.07
464.59	5013.43
464.78	5259.18
464.96	4959.60
465.14	4772.35
465.32	5069.60
465.50	5085.98
465.69	5043.85
465.87	5198.33
466.05	4950.23
466.23	5043.85
466.41	5221.74
466.60	5240.46
466.78	5193.65
466.96	5205.35
467.14	5270.89
467.32	5275.57
467.51	5238.12
467.69	5107.05
467.87	5174.92
468.05	5242.80
468.23	5184.29
468.41	5193.65
468.60	5338.76
468.78	5399.62
468.96	5125.77
469.14	5380.89
469.32	5371.53
469.50	5291.95
469.69	5554.09
469.87	5460.47
470.05	5509.62
470.23	5399.62
470.41	5621.97
470.59	5359.83
470.77	5652.39
470.95	5626.65
471.14	5549.41
471.32	5717.93
471.50	5778.78
471.68	5678.14
471.86	5832.62
472.04	5853.68
472.22	5912.19
472.40	5783.46
472.58	5905.17
472.77	6043.26
472.95	5975.39
473.13	5987.09
473.31	6073.69
473.49	6047.94
473.67	5944.96
473.85	6066.67
474.03	6167.31
474.21	6019.86
474.39	6267.95
474.57	6094.76
474.75	6190.72
474.93	6188.38
475.12	6197.74
475.30	6434.13
475.48	6274.98
475.66	6476.26
475.84	6480.94
476.02	6539.46
476.20	6668.19
476.38	6707.98
476.56	6633.08
476.74	6780.53
476.92	6668.19
477.10	6736.06
477.28	6710.32
477.46	6693.93
477.64	6719.68
477.82	6857.77
478.00	7337.58
478.18	7265.02
478.36	7103.53
478.54	7028.63
478.72	7190.13
478.90	7375.03
479.08	7421.84
479.26	7368.01
479.44	7468.65
479.62	7585.68
479.80	7527.16
479.98	7527.16
480.16	7667.60
480.34	7655.89
480.52	7775.26
480.70	7644.19
480.88	7833.77
481.06	7920.37
481.24	7747.17
481.41	8049.10
481.59	8018.68
481.77	8205.92
481.95	8318.26
482.13	8351.03
482.31	8248.05
482.49	8596.79
482.67	8449.33
482.85	8674.03
483.03	8669.34
483.21	8835.52
483.39	8903.40
483.57	8856.59
483.74	8795.73
483.92	8901.06
484.10	8711.47
484.28	9207.67
484.46	9210.01
484.64	9530.66
484.82	9214.69
485.00	9247.46
485.18	9373.85
485.35	9628.96
485.53	9839.61
485.71	9612.58
485.89	9839.61
486.07	9771.74
486.25	9947.28
486.43	9905.15
486.61	9914.51
486.78	9966.00
486.96	10122.82
487.14	10347.51
487.32	10129.84
487.50	10403.68
487.68	10296.02
487.85	10530.07
488.03	10609.65
488.21	10972.43
488.39	11005.20
488.57	10979.45
488.75	10846.04
488.92	11145.63
489.10	11150.31
489.28	10944.34
489.46	11279.04
489.64	11442.88
489.81	11566.93
489.99	11709.70
490.17	11468.62
490.35	11742.47
490.53	11719.06
490.70	11913.33
490.88	11840.77
491.06	11918.01
491.24	11969.50
491.41	11957.80
491.59	12346.33
491.77	12383.77
491.95	12395.48
492.13	12339.30
492.30	12716.13
492.48	12449.31
492.66	12503.14
492.84	12734.85
493.01	12716.13
493.19	12718.47
493.37	12926.78
493.54	13102.32
493.72	13118.70
493.90	13172.54
494.08	13259.13
494.25	13664.05
494.43	13408.93
494.61	13689.79
494.79	13750.65
494.96	13682.77
495.14	13893.42
495.32	13846.61
495.49	13933.21
495.67	14083.00
495.85	14094.71
496.02	14003.43
496.20	14097.05
496.38	14295.99
496.55	14342.80
496.73	14483.24
496.91	14129.81
497.09	14579.20
497.26	14939.64
497.44	14754.74
497.62	14525.36
497.79	14827.29
497.97	14705.59
498.14	15147.95
498.32	15063.69
498.50	15194.76
498.67	15215.82
498.85	15274.34
499.03	15213.48
499.20	15536.48
499.38	15648.82
499.56	15552.86
499.73	15672.23
499.91	15751.81
500.08	15990.54
500.26	15793.94
500.44	15810.32
500.61	15892.24
500.79	15875.85
500.97	16107.57
501.14	16294.81
501.32	16383.75
501.49	16077.14
501.67	16498.44
501.84	16376.73
502.02	16276.09
502.20	16456.31
502.37	16556.95
502.55	16542.91
502.72	16535.88
502.90	16753.55
503.07	16676.32
503.25	16585.04
503.43	16744.19
503.60	16950.16
503.78	17158.47
503.95	16954.84
504.13	17153.79
504.30	16975.91
504.48	17184.21
504.65	17193.58
504.83	17294.22
505.01	17572.74
505.18	17209.96
505.36	17647.64
505.53	17600.83
505.71	17539.97
505.88	17298.90
506.06	17605.51
506.23	17963.61
506.41	17490.82
506.58	17722.54
506.76	17848.93
506.93	17764.67
507.11	17825.52
507.28	18059.57
507.46	18068.94
507.63	18197.67
507.81	18324.05
507.98	18050.21
508.16	18370.86
508.33	18047.87
508.50	18424.70
508.68	18270.22
508.85	18508.96
509.03	18478.53
509.20	18637.69
509.38	18750.03
509.55	18911.53
509.73	18771.10
509.90	18717.26
510.08	19033.24
510.25	19150.26
510.42	18937.27
510.60	19180.69
510.77	19353.89
510.95	19108.13
511.12	18984.09
511.30	19021.53
511.47	19384.32
511.64	19241.54
511.82	19541.13
511.99	19278.99
512.17	19339.85
512.34	19672.20
512.51	19885.19
512.69	19501.34
512.86	19784.55
513.04	19723.69
513.21	19946.05
513.38	20142.65
513.56	20112.22
513.73	19962.43
513.90	20093.50
514.08	19496.66
514.25	19978.81
514.43	20196.48
514.60	20566.29
514.77	20477.35
514.95	20489.05
515.12	20336.91
515.29	20493.73
515.47	20498.41
515.64	20379.04
515.81	20388.41
515.99	20690.34
516.16	20879.92
516.33	21025.03
516.51	20833.11
516.68	20819.07
516.85	20959.50
517.03	20816.72
517.20	20996.95
517.37	20842.47
517.54	21020.35
517.72	20954.82
517.89	21099.93
518.06	21174.83
518.24	21551.65
518.41	21064.82
518.58	21036.74
518.75	21242.70
518.93	21495.48
519.10	21303.56
519.27	21481.44
519.45	21481.44
519.62	21324.62
519.79	21727.19
519.96	21832.52
520.14	21788.05
520.31	21645.27
520.48	22190.62
520.65	21860.60
520.83	21928.48
521.00	21942.52
521.17	22047.85
521.34	22005.72
521.52	22375.52
521.69	21654.64
521.86	22419.99
522.03	22427.01
522.20	22436.38
522.38	22295.94
522.55	22672.77
522.72	22057.21
522.89	22394.25
523.07	22616.60
523.24	22831.93
523.41	22824.90
523.58	22370.84
523.75	23049.60
523.92	22548.72
524.10	22616.60
524.27	22860.01
524.44	22867.03
524.61	22827.24
524.78	23070.66
524.96	22895.12
525.13	22864.69
525.30	22932.57
525.47	23077.68
525.64	23239.18
525.81	23140.88
525.98	23475.57
526.16	23194.71
526.33	23515.36
526.50	23707.29
526.67	23388.97
526.84	23466.21
527.01	23309.40
527.18	23639.41
527.36	23384.29
527.53	23761.12
527.70	24077.09
527.87	24105.18
528.04	23601.96
528.21	23697.92
528.38	23660.48
528.55	24269.01
528.72	23971.77
528.89	24257.31
529.07	24121.56
529.24	23805.59
529.41	24259.65
529.58	24058.37
529.75	23931.98
529.92	24166.03
530.09	24341.57
530.26	24479.66
530.43	24360.30
530.60	24236.25
530.77	24304.12
530.94	24339.23
531.11	24215.18
531.28	24287.74
531.46	24297.10
531.63	24409.45
531.80	24503.07
531.97	24627.12
532.14	24580.31
532.31	24692.65
532.48	24734.78
532.65	24769.89
532.82	24858.83
532.99	24479.66
533.16	24709.04
533.33	25247.36
533.50	25280.13
533.67	25284.81
533.84	25088.20
534.01	24978.20
534.18	24971.18
534.35	25106.93
534.52	24823.72
534.69	25401.83
534.86	25413.54
535.03	24821.38
535.20	25308.21
535.37	25380.77
535.54	25467.37
535.71	25017.99
535.88	25488.43
536.05	25371.41
536.22	25797.38
536.38	25678.02
536.55	25748.23
536.72	25586.74
536.89	25834.83
537.06	25462.69
537.23	25748.23
537.40	25869.94
537.57	25706.10
537.74	25596.10
537.91	25968.24
538.08	25844.20
538.25	25701.42
538.42	26293.58
538.59	26178.89
538.75	25792.70
538.92	25834.83
539.09	25986.97
539.26	26295.92
539.43	26036.12
539.60	26225.70
539.77	26181.23
539.94	26211.66
540.11	25986.97
540.28	26384.86
540.44	26239.75
540.61	26040.80
540.78	26391.88
540.95	26476.14
541.12	26307.62
541.29	26597.85
541.46	26572.10
541.62	26274.85
541.79	26604.87
541.96	26569.76
542.13	26256.13
542.30	26843.60
542.47	26874.03
542.63	26820.20
542.80	26916.16
542.97	27330.44
543.14	26726.58
543.31	26845.94
543.48	26916.16
543.64	27201.71
543.81	27417.04
543.98	27353.84
544.15	27021.48
544.32	27360.86
544.48	27480.23
544.65	27292.99
544.82	27300.01
544.99	26920.84
545.16	27344.48
545.32	27513.00
545.49	27557.47
545.66	27569.17
545.83	27222.77
546.00	27828.97
546.16	27615.98
546.33	27255.54
546.50	26977.01
546.67	27374.91
546.83	27417.04
547.00	27615.98
547.17	27676.83
547.34	27395.97
547.50	28027.92
547.67	27880.46
547.84	27803.22
548.00	28093.45
548.17	27920.25
548.34	27538.74
548.51	28025.57
548.67	28098.13
548.84	28098.13
549.01	27957.70
549.18	27758.75
549.34	28318.14
549.51	28250.27
549.68	28063.02
549.84	28315.80
550.01	28025.57
550.18	27772.80
550.34	28041.96
550.51	28451.55
550.68	28231.54
550.84	27997.49
551.01	28056.00
551.18	27831.31
551.34	27819.61
551.51	28437.51
551.68	28271.33
551.84	28247.93
552.01	28613.05
552.18	28563.90
552.34	28531.13
552.51	28788.59
552.68	28381.34
552.84	28362.61
553.01	28856.46
553.18	28224.52
553.34	28802.63
553.51	28664.54
553.67	28678.58
553.84	29177.12
554.01	28673.90
554.17	28685.61
554.34	28954.77
554.51	28947.75
554.67	28533.47
554.84	28732.42
555.00	28732.42
555.17	29003.92
555.33	28811.99
555.50	28643.48
555.67	28910.30
555.83	28943.06
556.00	28793.27
556.16	29369.04
556.33	29137.33
556.50	29247.33
556.66	29420.53
556.83	29453.30
556.99	29413.51
557.16	29427.56
557.32	29282.44
557.49	29560.97
557.65	29022.64
557.82	29413.51
557.98	29205.20
558.15	29111.58
558.32	29390.11
558.48	29493.09
558.65	29610.12
558.81	29752.89
558.98	29535.22
559.14	29350.32
559.31	29165.42
559.47	29221.59
559.64	29455.64
559.80	29373.72
559.97	29565.65
560.13	29446.28
560.30	29362.02
560.46	29607.78
560.63	29776.30
560.79	29624.16
560.96	29607.78
561.12	29385.43
561.29	29619.48
561.45	29486.07
561.61	29752.89
561.78	29727.14
561.94	29879.28
562.11	29827.79
562.27	29598.41
562.44	29441.60
562.60	29530.54
562.77	29645.23
562.93	29586.71
563.10	29902.68
563.26	29872.26
563.42	29848.85
563.59	30059.50
563.75	29788.00
563.92	30045.46
564.08	29713.10
564.24	30008.01
564.41	29865.24
564.57	29390.11
564.74	29727.14
564.90	29724.80
565.07	29977.58
565.23	29523.52
565.39	30005.67
565.56	30213.98
565.72	29785.66
565.88	29717.78
566.05	29869.92
566.21	29727.14
566.38	29949.50
566.54	30157.80
566.70	30157.80
566.87	30415.26
567.03	30015.03
567.19	30342.70
567.36	30221.00
567.52	30185.89
567.68	29890.98
567.85	29820.77
568.01	30164.82
568.17	30398.88
568.34	30270.15
568.50	30085.25
568.66	30202.27
568.83	30286.53
568.99	30426.96
569.15	30209.29
569.32	30237.38
569.48	29961.20
569.64	30125.04
569.81	30246.74
569.97	30281.85
570.13	31058.91
570.30	30160.14
570.46	30279.51
570.62	30508.88
570.78	30312.28
570.95	30008.01
571.11	30721.87
571.27	30359.09
571.43	29965.88
571.60	30494.84
571.76	30108.65
571.92	30586.12
572.09	30878.69
572.25	30656.34
572.41	30274.83
572.57	30675.06
572.74	30040.78
572.90	30426.96
573.06	30174.19
573.22	30293.55
573.38	30188.23
573.55	30602.50
573.71	30817.83
573.87	30752.30
574.03	30515.90
574.20	30366.11
574.36	30429.30
574.52	30331.00
574.68	30340.36
574.84	30256.11
575.01	30740.60
575.17	30340.36
575.33	30684.42
575.49	30015.03
575.65	31000.40
575.82	30707.83
575.98	30340.36
576.14	30864.64
576.30	30759.32
576.46	30504.20
576.62	30419.94
576.79	30824.86
576.95	30515.90
577.11	31103.38
577.27	30565.06
577.43	30522.93
577.59	30504.20
577.75	30604.84
577.92	30485.48
578.08	30628.25
578.24	30492.50
578.40	30625.91
578.56	30572.08
578.72	30515.90
578.88	30796.77
579.04	30745.28
579.21	30572.08
579.37	30803.79
579.53	30717.19
579.69	30370.79
579.85	30717.19
580.01	30710.17
580.17	30387.18
580.33	30588.46
580.49	30857.62
580.65	30593.14
580.82	30752.30
580.98	30733.57
581.14	30565.06
581.30	30450.37
581.46	30668.04
581.62	30590.80
581.78	30504.20
581.94	30651.66
582.10	30480.80
582.26	30693.79
582.42	30679.74
582.58	31222.75
582.74	30724.21
582.90	31019.12
583.06	31110.40
583.22	30969.97
583.38	30391.86
583.54	30810.81
583.70	30656.34
583.86	30581.44
584.02	30525.27
584.18	30586.12
584.34	30991.03
584.50	30927.84
584.66	30558.03
584.82	30735.92
584.98	31012.10
585.14	30941.88
585.30	30623.57
585.46	30927.84
585.62	30684.42
585.78	30808.47
585.94	30555.69
586.10	30735.92
586.26	30665.70
586.42	31044.87
586.58	31232.11
586.74	31021.46
586.90	30855.28
587.06	30583.78
587.22	30817.83
587.38	30913.80
587.54	30967.63
587.70	31407.65
587.86	30841.24
588.02	30976.99
588.18	31215.72
588.34	31555.10
588.49	30960.61
588.65	30923.16
588.81	30604.84
588.97	30604.84
589.13	31021.46
589.29	30857.62
589.45	30969.97
589.61	31051.89
589.77	31447.44
589.93	31171.25
590.08	31189.98
590.24	31211.04
590.40	31321.05
590.56	31021.46
590.72	30766.34
590.88	30869.33
591.04	30740.60
591.20	31379.56
591.35	31307.01
591.51	31852.35
591.67	31094.02
591.83	31206.36
