SpectraSuite Data File
++++++++++++++++++++++++++++++++++++
Date: Fri Oct 18 13:58:27 GMT-05:00 2013
User: bianchi
Dark Spectrum Present: No
Reference Spectrum Present: No
Number of Sampled Component Spectra: 1
Spectrometers: USB2+H05261
Integration Time (usec): 50000 (USB2+H05261)
Spectra Averaged: 1 (USB2+H05261)
Boxcar Smoothing: 0 (USB2+H05261)
Correct for Electrical Dark: No (USB2+H05261)
Strobe/Lamp Enabled: No (USB2+H05261)
Correct for Detector Non-linearity: No (USB2+H05261)
Correct for Stray Light: No (USB2+H05261)
Number of Pixels in Processed Spectrum: 2048
>>>>>Begin Processed Spectral Data<<<<<
365.73	0.00
365.92	0.00
366.12	0.00
366.32	0.00
366.52	0.00
366.72	0.00
366.91	0.00
367.11	0.00
367.31	0.00
367.51	0.00
367.70	0.00
367.90	0.00
368.10	0.00
368.30	0.00
368.49	0.00
368.69	0.00
368.89	0.00
369.09	0.00
369.28	0.00
369.48	0.00
369.68	0.00
369.87	0.00
370.07	0.00
370.27	0.00
370.47	0.00
370.66	58.51
370.86	117.03
371.06	86.60
371.25	114.69
371.45	161.50
371.65	205.97
371.84	147.45
372.04	119.37
372.24	159.16
372.44	161.50
372.63	182.56
372.83	255.12
373.03	201.29
373.22	145.11
373.42	224.69
373.62	220.01
373.81	241.08
374.01	189.58
374.21	248.10
374.40	245.76
374.60	259.80
374.79	205.97
374.99	243.42
375.19	220.01
375.38	236.39
375.58	318.31
375.78	252.78
375.97	325.33
376.17	255.12
376.37	259.80
376.56	236.39
376.76	294.91
376.95	180.22
377.15	339.38
377.35	287.89
377.54	327.68
377.74	257.46
377.93	294.91
378.13	306.61
378.33	283.20
378.52	276.18
378.72	201.29
378.91	217.67
379.11	353.42
379.31	257.46
379.50	285.55
379.70	313.63
379.89	285.55
380.09	283.20
380.28	259.80
380.48	348.74
380.68	283.20
380.87	376.83
381.07	327.68
381.26	306.61
381.46	320.65
381.65	353.42
381.85	285.55
382.04	283.20
382.24	271.50
382.43	344.06
382.63	297.25
382.83	365.12
383.02	325.33
383.22	362.78
383.41	290.23
383.61	276.18
383.80	369.80
384.00	376.83
384.19	334.70
384.39	372.15
384.58	353.42
384.78	393.21
384.97	304.27
385.17	348.74
385.36	339.38
385.56	379.17
385.75	425.98
385.95	360.44
386.14	400.23
386.34	381.51
386.53	400.23
386.72	362.78
386.92	433.00
387.11	414.27
387.31	388.53
387.50	395.55
387.70	313.63
387.89	430.66
388.09	416.62
388.28	437.68
388.48	383.85
388.67	416.62
388.86	435.34
389.06	381.51
389.25	484.49
389.45	390.87
389.64	346.40
389.84	482.15
390.03	496.19
390.22	440.02
390.42	491.51
390.61	519.60
390.81	414.27
391.00	533.64
391.19	500.87
391.39	521.94
391.58	589.82
391.78	564.07
391.97	550.03
392.16	447.04
392.36	589.82
392.55	538.32
392.75	603.86
392.94	603.86
393.13	531.30
393.33	512.58
393.52	547.69
393.71	601.52
393.91	610.88
394.10	550.03
394.29	585.13
394.49	526.62
394.68	634.29
394.88	489.17
395.07	613.22
395.26	538.32
395.46	554.71
395.65	526.62
395.84	564.07
396.04	709.18
396.23	608.54
396.42	669.39
396.62	629.60
396.81	638.97
397.00	547.69
397.19	711.52
397.39	645.99
397.58	645.99
397.77	690.46
397.97	650.67
398.16	676.41
398.35	744.29
398.55	706.84
398.74	664.71
398.93	751.31
399.12	704.50
399.32	730.25
399.51	690.46
399.70	772.38
399.90	746.63
400.09	800.46
400.28	777.06
400.47	755.99
400.67	755.99
400.86	784.08
401.05	788.76
401.24	793.44
401.44	884.72
401.63	880.04
401.82	807.48
402.01	734.93
402.21	854.30
402.40	828.55
402.59	837.91
402.78	758.33
402.97	823.87
403.17	791.10
403.36	866.00
403.55	854.30
403.74	828.55
403.93	861.32
404.13	866.00
404.32	924.51
404.51	961.96
404.70	950.26
404.89	802.80
405.09	978.34
405.28	898.77
405.47	945.58
405.66	933.87
405.85	884.72
406.05	901.11
406.24	1011.11
406.43	966.64
406.62	997.07
406.81	1109.41
407.00	961.96
407.20	992.39
407.39	994.73
407.58	994.73
407.77	1048.56
407.96	1109.41
408.15	1029.84
408.34	1046.22
408.54	1114.10
408.73	954.94
408.92	1088.35
409.11	1151.54
409.30	1137.50
409.49	1020.47
409.68	1149.20
409.87	1123.46
410.07	1207.72
410.26	1100.05
410.45	1125.80
410.64	1104.73
410.83	1128.14
411.02	1163.25
411.21	1219.42
411.40	1193.67
411.59	1135.16
411.78	1261.55
411.98	1226.44
412.17	1198.35
412.36	1294.32
412.55	1233.46
412.74	1266.23
412.93	1291.98
413.12	1336.45
413.31	1378.58
413.50	1364.53
413.69	1376.24
413.88	1362.19
414.07	1420.71
414.26	1324.74
414.45	1411.34
414.64	1409.00
414.83	1481.56
415.02	1540.07
415.22	1547.09
415.41	1614.97
415.60	1603.27
415.79	1547.09
415.98	1610.29
416.17	1572.84
416.36	1591.56
416.55	1544.75
416.74	1659.44
416.93	1603.27
417.12	1621.99
417.31	1643.06
417.50	1643.06
417.69	1732.00
417.88	1689.87
418.07	1701.57
418.26	1680.50
418.45	1703.91
418.64	1788.17
418.83	1732.00
419.02	1778.81
419.21	1755.40
419.39	1802.21
419.58	1834.98
419.77	1820.94
419.96	1790.51
420.15	1898.17
420.34	1858.39
420.53	1891.15
420.72	1893.49
420.91	1830.30
421.10	1902.86
421.29	1923.92
421.48	1837.32
421.67	1902.86
421.86	1905.20
422.05	1923.92
422.24	1982.43
422.43	1942.64
422.61	1975.41
422.80	2012.86
422.99	2059.67
423.18	1977.75
423.37	2076.06
423.56	1884.13
423.75	2050.31
423.94	1919.24
424.13	1905.20
424.32	1942.64
424.50	2052.65
424.69	2104.14
424.88	2099.46
425.07	1942.64
425.26	1853.70
425.45	1970.73
425.64	2050.31
425.83	2001.16
426.01	1928.60
426.20	2008.18
426.39	2036.27
426.58	2033.93
426.77	1973.07
426.96	2036.27
427.15	2127.55
427.33	2059.67
427.52	2085.42
427.71	2045.63
427.90	2167.34
428.09	2115.84
428.28	2143.93
428.46	2197.76
428.65	2157.97
428.84	2317.13
429.03	2195.42
429.22	2134.57
429.40	2134.57
429.59	2209.47
429.78	2176.70
429.97	2092.44
430.16	2183.72
430.34	2260.96
430.53	2190.74
430.72	2317.13
430.91	2382.67
431.10	2246.91
431.28	2293.72
431.47	2286.70
431.66	2450.54
431.85	2291.38
432.03	2525.44
432.22	2394.37
432.41	2232.87
432.60	2291.38
432.79	2462.24
432.97	2408.41
433.16	2392.03
433.35	2487.99
433.54	2546.50
433.72	2553.52
433.91	2403.73
434.10	2429.48
434.28	2576.93
434.47	2602.68
434.66	2534.80
434.85	2612.04
435.03	2492.67
435.22	2466.92
435.41	2640.12
435.59	2541.82
435.78	2640.12
435.97	2562.89
436.16	2509.05
436.34	2593.31
436.53	2637.78
436.72	2607.36
436.90	2670.55
437.09	2602.68
437.28	2532.46
437.46	2686.94
437.65	2801.62
437.84	2745.45
438.02	2750.13
438.21	2778.22
438.40	2846.09
438.58	2773.53
438.77	2850.77
438.96	2860.13
439.14	2832.05
439.33	2923.33
439.52	2883.54
439.70	2904.60
439.89	2949.08
440.08	2986.52
440.26	2986.52
440.45	2883.54
440.63	3007.59
440.82	3061.42
441.01	3105.89
441.19	3019.29
441.38	3201.85
441.57	3192.49
441.75	3136.32
441.94	3243.98
442.12	3122.27
442.31	3269.73
442.50	3286.11
442.68	3368.03
442.87	3290.79
443.05	3365.69
443.24	3316.54
443.43	3307.18
443.61	3325.90
443.80	3473.36
443.98	3344.63
444.17	3288.45
444.35	3452.29
444.54	3452.29
444.73	3391.44
444.91	3393.78
445.10	3389.10
445.28	3531.87
445.47	3417.18
445.65	3400.80
445.84	3335.26
446.02	3344.63
446.21	3377.39
446.39	3471.01
446.58	3417.18
446.77	3492.08
446.95	3316.54
447.14	3431.23
447.32	3478.04
447.51	3400.80
447.69	3440.59
447.88	3555.27
448.06	3400.80
448.25	3482.72
448.43	3499.10
448.62	3482.72
448.80	3480.38
448.99	3524.85
449.17	3466.33
449.36	3501.44
449.54	3557.61
449.73	3634.85
449.91	3740.18
450.10	3733.15
450.28	3672.30
450.46	3716.77
450.65	3581.02
450.83	3688.68
451.02	3616.13
451.20	3847.84
451.39	3634.85
451.57	3740.18
451.76	3763.58
451.94	3740.18
452.13	3772.94
452.31	3749.54
452.49	3676.98
452.68	3831.46
452.86	3665.28
453.05	3901.67
453.23	3941.46
453.42	3782.31
453.60	3735.50
453.78	3974.23
453.97	3786.99
454.15	3861.88
454.34	3899.33
454.52	4032.74
454.70	3901.67
454.89	3850.18
455.07	3852.52
455.26	3953.16
455.44	4156.79
455.62	4044.45
455.81	3995.29
455.99	4032.74
456.17	4208.28
456.36	4133.39
456.54	4156.79
456.73	4072.53
456.91	4320.63
457.09	4386.16
457.28	4217.65
457.46	4170.83
457.64	4212.96
457.83	4325.31
458.01	4262.12
458.19	4215.30
458.38	4327.65
458.56	4351.06
458.74	4304.25
458.93	4435.32
459.11	4430.63
459.29	4360.42
459.48	4376.80
459.66	4493.83
459.84	4645.96
460.03	4528.94
460.21	4531.28
460.39	4573.41
460.57	4519.57
460.76	4589.79
460.94	4554.68
461.12	4601.49
461.31	4723.20
461.49	4683.41
461.67	4500.85
461.85	4683.41
462.04	4594.47
462.22	4746.61
462.40	4779.37
462.59	4690.43
462.77	4697.46
462.95	4578.09
463.13	4685.75
463.32	4753.63
463.50	4781.71
463.68	4716.18
463.86	4713.84
464.05	4720.86
464.23	4816.82
464.41	4807.46
464.59	4762.99
464.78	4830.87
464.96	4849.59
465.14	4786.40
465.32	4945.55
465.50	4812.14
465.69	4945.55
465.87	4751.29
466.05	5022.79
466.23	4957.25
466.41	5013.43
466.60	4966.62
466.78	4868.31
466.96	4940.87
467.14	4917.47
467.32	5195.99
467.51	5282.59
467.69	5100.03
467.87	5107.05
468.05	5245.14
468.23	5149.18
468.41	5181.95
468.60	5259.18
468.78	5310.68
468.96	5128.11
469.14	5083.64
469.32	5137.48
469.50	5144.50
469.69	5322.38
469.87	5252.16
470.05	5448.77
470.23	5444.09
470.41	5392.59
470.59	5551.75
470.77	5289.61
470.95	5366.85
471.14	5628.99
471.32	5352.81
471.50	5476.85
471.68	5542.39
471.86	5650.05
472.04	5549.41
472.22	5724.95
472.40	5547.07
472.58	5727.29
472.77	5696.86
472.95	5783.46
473.13	5804.53
473.31	5877.09
473.49	5872.40
473.67	5886.45
473.85	5757.72
474.03	6071.35
474.21	5900.49
474.39	5975.39
474.57	6061.99
474.75	6073.69
474.93	6085.39
475.12	6263.27
475.30	6146.25
475.48	5970.71
475.66	6141.57
475.84	6186.04
476.02	6373.28
476.20	6361.58
476.38	6413.07
476.56	6534.78
476.74	6399.02
476.92	6282.00
477.10	6511.37
477.28	6628.40
477.46	6574.56
477.64	6686.91
477.82	6597.97
478.00	6817.98
478.18	6829.68
478.36	6949.05
478.54	7026.29
478.72	6913.94
478.90	6979.48
479.08	7220.55
479.26	7098.84
479.44	7087.14
479.62	7323.54
479.80	7279.07
479.98	7452.27
480.16	7604.40
480.34	7428.86
480.52	7372.69
480.70	7513.12
480.88	7562.27
481.06	7644.19
481.24	7597.38
481.41	7634.83
481.59	7962.50
481.77	7925.05
481.95	8060.80
482.13	8051.44
482.31	7906.33
482.49	8004.63
482.67	8203.58
482.85	8414.23
483.03	8376.78
483.21	8500.83
483.39	8503.17
483.57	8299.54
483.74	8388.48
483.92	8521.89
484.10	8578.06
484.28	8840.20
484.46	9071.92
484.64	9193.62
484.82	8868.29
485.00	9071.92
485.18	9296.61
485.35	9158.52
485.53	9210.01
485.71	9394.91
485.89	9664.07
486.07	9392.57
486.25	9254.48
486.43	9584.49
486.61	9708.54
486.78	9731.95
486.96	9982.38
487.14	9848.97
487.32	10024.51
487.50	9949.62
487.68	10033.88
487.85	10106.43
488.03	10228.14
488.21	10434.11
488.39	10431.77
488.57	10586.24
488.75	10597.95
488.92	10878.81
489.10	10824.98
489.28	10803.91
489.46	10801.57
489.64	10965.41
489.81	11178.40
489.99	10895.19
490.17	11213.51
490.35	11330.53
490.53	11365.64
490.70	11442.88
490.88	11499.05
491.06	11669.91
491.24	11435.86
491.41	11702.68
491.59	11896.94
491.77	11915.67
491.95	11955.46
492.13	12091.21
492.30	12273.77
492.48	12016.31
492.66	11946.09
492.84	12226.96
493.01	12189.51
493.19	12320.58
493.37	12507.82
493.54	12547.61
493.72	12697.41
493.90	12423.56
494.08	12865.92
494.25	12945.50
494.43	13111.68
494.61	13088.28
494.79	13366.80
494.96	13167.85
495.14	13411.27
495.32	13425.31
495.49	13511.91
495.67	13561.06
495.85	13671.07
496.02	13394.89
496.20	13820.86
496.38	13837.25
496.55	13813.84
496.73	14033.85
496.91	13998.74
497.09	14162.58
497.26	14169.60
497.44	14043.21
497.62	14141.52
497.79	14216.41
497.97	14274.93
498.14	14345.14
498.32	14597.92
498.50	14516.00
498.67	14707.93
498.85	14602.60
499.03	14869.42
499.20	14724.31
499.38	14911.55
499.56	14794.53
499.73	15178.37
499.91	15108.16
500.08	15274.34
500.26	15138.58
500.44	15000.49
500.61	15213.48
500.79	15325.83
500.97	15300.08
501.14	15662.86
501.32	15784.57
501.49	15566.90
501.67	15513.07
501.84	15723.72
502.02	15950.75
502.20	16219.91
502.37	15829.04
502.55	15941.39
502.72	16091.18
502.90	15688.61
503.07	15810.32
503.25	15995.22
503.43	16194.17
503.60	16053.73
503.78	16358.00
503.95	16458.65
504.13	16507.80
504.30	16341.62
504.48	16390.77
504.65	16545.25
504.83	16940.80
505.01	16816.75
505.18	17039.10
505.36	16819.09
505.53	16800.37
505.71	16704.40
505.88	16886.97
506.06	16662.27
506.23	17167.83
506.41	16889.31
506.58	17240.39
506.76	16938.46
506.93	17341.03
507.11	17453.37
507.28	17240.39
507.46	17195.92
507.63	17427.63
507.81	17813.82
507.98	17591.47
508.16	17565.72
508.33	17750.62
508.50	17600.83
508.68	17689.77
508.85	17848.93
509.03	17685.09
509.20	17853.61
509.38	18192.98
509.55	18307.67
509.73	18153.20
509.90	18214.05
510.08	18176.60
510.25	18153.20
510.42	18307.67
510.60	18391.93
510.77	18525.34
510.95	18576.83
511.12	18324.05
511.30	18504.28
511.47	18476.19
511.64	18785.14
511.82	18820.25
511.99	18876.42
512.17	18923.23
512.34	18853.02
512.51	19019.19
512.69	18867.06
512.86	19021.53
513.04	18937.27
513.21	19218.14
513.38	19332.82
513.56	19253.25
513.73	19243.88
513.90	19164.31
514.08	19309.42
514.25	19311.76
514.43	19789.23
514.60	19332.82
514.77	19604.33
514.95	19803.27
515.12	19262.61
515.29	19693.27
515.47	19747.10
515.64	19609.01
515.81	19639.44
515.99	19873.49
516.16	19962.43
516.33	20109.88
516.51	20140.31
516.68	20198.82
516.85	20018.60
517.03	19899.23
517.20	20411.81
517.37	20327.55
517.54	20119.24
517.72	20276.06
517.89	20109.88
518.06	20184.78
518.24	20706.72
518.41	20390.75
518.58	20577.99
518.75	20404.79
518.93	20283.08
519.10	20460.96
519.27	20542.88
519.45	20748.85
519.62	20521.82
519.79	20959.50
519.96	20893.96
520.14	20929.07
520.31	20741.83
520.48	20908.01
520.65	20982.90
520.83	21432.29
521.00	20987.58
521.17	20896.30
521.34	21172.49
521.52	21305.90
521.69	21233.34
521.86	21593.78
522.03	21462.71
522.20	21219.30
522.38	21575.06
522.55	21507.18
522.72	21884.01
522.89	21673.36
523.07	21584.42
523.24	21834.86
523.41	21963.59
523.58	21654.64
523.75	22195.30
523.92	21912.10
524.10	21923.80
524.27	22003.38
524.44	22108.70
524.61	22548.72
524.78	22260.84
524.96	21977.63
525.13	22235.09
525.30	22141.47
525.47	22438.72
525.64	21979.97
525.81	22427.01
525.98	22717.24
526.16	22459.78
526.33	22544.04
526.50	22544.04
526.67	22782.77
526.84	22623.62
527.01	22595.53
527.18	22565.10
527.36	22857.67
527.53	22754.69
527.70	22955.97
527.87	22785.12
528.04	22827.24
528.21	22726.60
528.38	22867.03
528.55	22855.33
528.72	22541.70
528.89	23335.14
529.07	23012.15
529.24	22892.78
529.41	23330.46
529.58	23365.57
529.75	23295.35
529.92	23009.81
530.09	23302.37
530.26	23384.29
530.43	23342.16
530.60	23180.67
530.77	23063.64
530.94	23529.41
531.11	23555.15
531.28	23424.08
531.46	23330.46
531.63	23414.72
531.80	23623.03
531.97	23704.95
532.14	23887.51
532.31	23836.02
532.48	23908.57
532.65	23662.82
532.82	23508.34
532.99	23852.40
533.16	23477.91
533.33	24114.54
533.50	24004.53
533.67	23730.69
533.84	23772.82
534.01	24044.32
534.18	23939.00
534.35	24364.98
534.52	23957.72
534.69	24194.12
534.86	24474.98
535.03	24285.40
535.20	24109.86
535.37	24276.04
535.54	24168.37
535.71	24418.81
535.88	24264.33
536.05	24556.90
536.22	24709.04
536.38	24346.25
536.55	24474.98
536.72	24772.23
536.89	24552.22
537.06	24414.13
537.23	24833.08
537.40	24542.86
537.57	24877.55
537.74	24915.00
537.91	24882.24
538.08	24912.66
538.25	24854.15
538.42	24856.49
538.59	25020.33
538.75	24734.78
538.92	24814.36
539.09	25001.60
539.26	25310.55
539.43	25165.44
539.60	25270.76
539.77	24716.06
539.94	25160.76
540.11	25259.06
540.28	25181.82
540.44	25109.27
540.61	25252.04
540.78	25317.57
540.95	25252.04
541.12	25221.61
541.29	25214.59
541.46	25387.79
541.62	25352.68
541.79	25479.07
541.96	25226.29
542.13	25429.92
542.30	25383.11
542.47	25788.02
542.63	25612.48
542.80	25675.68
542.97	25963.56
543.14	25860.58
543.31	25713.13
543.48	25652.27
543.64	26199.96
543.81	26206.98
543.98	26185.91
544.15	26036.12
544.32	26359.11
544.48	26607.21
544.65	26106.34
544.82	26384.86
544.99	26038.46
545.16	26206.98
545.32	25989.31
545.49	26356.77
545.66	26536.99
545.83	26206.98
546.00	26316.98
546.16	25781.00
546.33	26253.79
546.50	26199.96
546.67	26466.78
546.83	26092.29
547.00	26506.57
547.17	26483.16
547.34	26597.85
547.50	26185.91
547.67	26906.80
547.84	26726.58
548.00	26675.09
548.17	27115.11
548.34	26867.01
548.51	26902.12
548.67	26497.20
548.84	26672.74
549.01	26546.36
549.18	26965.31
549.34	26796.79
549.51	26930.20
549.68	26693.81
549.84	26651.68
550.01	26916.16
550.18	26852.97
550.34	27009.78
550.51	26986.38
550.68	27152.55
550.84	26960.63
551.01	27108.08
551.18	26864.67
551.34	27040.21
551.51	27227.45
551.68	27197.02
551.84	27241.50
552.01	27562.15
552.18	27234.47
552.34	26768.71
552.51	27524.70
552.68	27129.15
552.84	27454.48
553.01	27433.42
553.18	27438.10
553.34	27548.11
553.51	27765.78
553.67	27742.37
553.84	27655.77
554.01	27882.80
554.17	27889.82
554.34	27353.84
554.51	27765.78
554.67	28037.28
554.84	27541.08
555.00	27536.40
555.17	27798.54
555.33	27995.15
555.50	27896.85
555.67	27779.82
555.83	27747.05
556.00	27594.92
556.16	27974.08
556.33	27880.46
556.50	27424.06
556.66	28056.00
556.83	27756.41
556.99	27924.93
557.16	27983.44
557.32	27667.47
557.49	28081.75
557.65	27817.27
557.82	27864.08
557.98	27798.54
558.15	28147.28
558.32	28521.77
558.48	27927.27
558.65	28048.98
558.81	28240.90
558.98	28278.35
559.14	27899.19
559.31	28285.37
559.47	28222.18
559.64	28048.98
559.80	28367.29
559.97	28788.59
560.13	28318.14
560.30	28158.99
560.46	28362.61
560.63	28285.37
560.79	28456.23
560.96	28271.33
561.12	28386.02
561.29	27988.13
561.45	28112.17
561.61	28381.34
561.78	28711.35
561.94	28238.56
562.11	28795.61
562.27	28767.52
562.44	28266.65
562.60	28690.29
562.77	28634.11
562.93	28734.76
563.10	28718.37
563.26	28329.84
563.42	29034.35
563.59	28327.50
563.75	28261.97
563.92	28589.64
564.08	28706.67
564.24	28627.09
564.41	28666.88
564.57	28919.66
564.74	28533.47
564.90	28706.67
565.07	28655.18
565.23	28503.04
565.39	28374.31
565.56	29076.48
565.72	28627.09
565.88	28678.58
566.05	28479.64
566.21	28596.67
566.38	28819.02
566.54	28570.92
566.70	28957.11
566.87	28795.61
567.03	28931.36
567.19	29106.90
567.36	29181.80
567.52	28922.00
567.68	28669.22
567.85	28931.36
568.01	29081.16
568.17	28776.89
568.34	28690.29
568.50	28893.91
568.66	28964.13
568.83	29015.62
568.99	29088.18
569.15	29167.76
569.32	29118.60
569.48	28503.04
569.64	28912.64
569.81	29343.30
569.97	29113.92
570.13	29104.56
570.30	28882.21
570.46	29142.01
570.62	28870.51
570.78	28673.90
570.95	28952.43
571.11	28800.29
571.27	28477.30
571.43	29097.54
571.60	29184.14
571.76	29205.20
571.92	29436.92
572.09	29015.62
572.25	29273.08
572.41	29277.76
572.57	29200.52
572.74	29575.01
572.90	28673.90
573.06	28910.30
573.22	29284.78
573.38	29102.22
573.55	28882.21
573.71	29436.92
573.87	29329.25
574.03	28919.66
574.20	28863.49
574.36	29230.95
574.52	29336.27
574.68	28823.70
574.84	29619.48
575.01	29355.00
575.17	29064.77
575.33	29139.67
575.49	29329.25
575.65	28891.57
575.82	29088.18
575.98	29127.97
576.14	29266.06
576.30	29160.73
576.46	29130.31
576.62	29071.79
576.79	29139.67
576.95	29441.60
577.11	29282.44
577.27	29600.76
577.43	29443.94
577.59	29500.11
577.75	29158.39
577.92	29223.93
578.08	28835.40
578.24	29099.88
578.40	29160.73
578.56	29504.79
578.72	29399.47
578.88	29750.55
579.04	29228.61
579.21	29139.67
579.37	29303.51
579.53	29324.57
579.69	29497.77
579.85	29046.05
580.01	29202.86
580.17	29102.22
580.33	28748.80
580.49	29191.16
580.65	29722.46
580.82	29429.90
580.98	29567.99
581.14	29289.46
581.30	29479.05
581.46	29024.98
581.62	29205.20
581.78	29408.83
581.94	29252.02
582.10	29301.17
582.26	29392.45
582.42	29415.85
582.58	29488.41
582.74	29453.30
582.90	29195.84
583.06	29312.87
583.22	29439.26
583.38	29411.17
583.54	29434.58
583.70	29125.63
583.86	29167.76
584.02	29153.71
584.18	29104.56
584.34	29851.19
584.50	29298.83
584.66	29383.09
584.82	29242.65
584.98	29144.35
585.14	29584.37
585.30	29542.24
585.46	29439.26
585.62	29235.63
585.78	29378.40
585.94	29195.84
586.10	29252.02
586.26	29670.97
586.42	29663.95
586.58	29472.03
586.74	29355.00
586.90	29200.52
587.06	29659.27
587.22	29486.07
587.38	29399.47
587.54	29467.34
587.70	29589.05
587.86	30103.97
588.02	29853.53
588.18	29773.95
588.34	29706.08
588.49	29221.59
588.65	29422.87
588.81	29263.72
588.97	29771.61
589.13	29432.24
589.29	29621.82
589.45	29228.61
589.61	29556.28
589.77	29979.92
589.93	29872.26
590.08	29895.66
590.24	30008.01
590.40	29687.36
590.56	29951.84
590.72	29656.93
590.88	29497.77
591.04	29525.86
591.20	29813.74
591.35	29706.08
591.51	30291.21
591.67	29727.14
591.83	30022.05
591.99	30073.54
