SpectraSuite Data File
++++++++++++++++++++++++++++++++++++
Date: Fri Oct 18 13:57:57 GMT-05:00 2013
User: bianchi
Dark Spectrum Present: No
Reference Spectrum Present: No
Number of Sampled Component Spectra: 1
Spectrometers: USB2+H05261
Integration Time (usec): 50000 (USB2+H05261)
Spectra Averaged: 1 (USB2+H05261)
Boxcar Smoothing: 0 (USB2+H05261)
Correct for Electrical Dark: No (USB2+H05261)
Strobe/Lamp Enabled: No (USB2+H05261)
Correct for Detector Non-linearity: No (USB2+H05261)
Correct for Stray Light: No (USB2+H05261)
Number of Pixels in Processed Spectrum: 2048
>>>>>Begin Processed Spectral Data<<<<<
365.73	0.00
365.92	0.00
366.12	0.00
366.32	0.00
366.52	0.00
366.72	0.00
366.91	0.00
367.11	0.00
367.31	0.00
367.51	0.00
367.70	0.00
367.90	0.00
368.10	0.00
368.30	0.00
368.49	0.00
368.69	0.00
368.89	0.00
369.09	0.00
369.28	0.00
369.48	0.00
369.68	0.00
369.87	0.00
370.07	0.00
370.27	0.00
370.47	0.00
370.66	112.35
370.86	81.92
371.06	124.05
371.25	95.96
371.45	49.15
371.65	182.56
371.84	140.43
372.04	168.52
372.24	121.71
372.44	196.60
372.63	224.69
372.83	191.92
373.03	283.20
373.22	210.65
373.42	194.26
373.62	264.48
373.81	273.84
374.01	250.44
374.21	212.99
374.40	191.92
374.60	308.95
374.79	229.37
374.99	196.60
375.19	292.57
375.38	212.99
375.58	243.42
375.78	346.40
375.97	266.82
376.17	229.37
376.37	257.46
376.56	217.67
376.76	299.59
376.95	220.01
377.15	205.97
377.35	294.91
377.54	203.63
377.74	262.14
377.93	250.44
378.13	292.57
378.33	325.33
378.52	227.03
378.72	205.97
378.91	299.59
379.11	301.93
379.31	348.74
379.50	236.39
379.70	315.97
379.89	264.48
380.09	248.10
380.28	351.08
380.48	313.63
380.68	301.93
380.87	299.59
381.07	306.61
381.26	388.53
381.46	313.63
381.65	388.53
381.85	400.23
382.04	285.55
382.24	334.70
382.43	299.59
382.63	369.80
382.83	360.44
383.02	400.23
383.22	386.19
383.41	372.15
383.61	341.72
383.80	318.31
384.00	360.44
384.19	367.46
384.39	430.66
384.58	353.42
384.78	421.30
384.97	440.02
385.17	388.53
385.36	362.78
385.56	447.04
385.75	322.99
385.95	360.44
386.14	374.49
386.34	320.65
386.53	430.66
386.72	475.13
386.92	447.04
387.11	486.83
387.31	468.11
387.50	402.57
387.70	468.11
387.89	416.62
388.09	411.93
388.28	524.28
388.48	367.46
388.67	479.81
388.86	456.40
389.06	477.47
389.25	540.66
389.45	531.30
389.64	447.04
389.84	465.77
390.03	437.68
390.22	535.98
390.42	517.26
390.61	489.17
390.81	458.74
391.00	559.39
391.19	484.49
391.39	500.87
391.58	580.45
391.78	517.26
391.97	608.54
392.16	447.04
392.36	496.19
392.55	472.79
392.75	585.13
392.94	580.45
393.13	589.82
393.33	507.90
393.52	540.66
393.71	550.03
393.91	559.39
394.10	582.79
394.29	641.31
394.49	608.54
394.68	571.09
394.88	545.34
395.07	592.16
395.26	557.05
395.46	566.41
395.65	681.10
395.84	681.10
396.04	662.37
396.23	606.20
396.42	720.88
396.62	697.48
396.81	641.31
397.00	744.29
397.19	688.12
397.39	723.23
397.58	695.14
397.77	613.22
397.97	690.46
398.16	748.97
398.35	734.93
398.55	678.76
398.74	697.48
398.93	723.23
399.12	770.04
399.32	723.23
399.51	753.65
399.70	748.97
399.90	748.97
400.09	723.23
400.28	819.19
400.47	840.25
400.67	830.89
400.86	746.63
401.05	835.57
401.24	856.64
401.44	912.81
401.63	802.80
401.82	795.78
402.01	784.08
402.21	851.96
402.40	866.00
402.59	849.61
402.78	807.48
402.97	919.83
403.17	847.27
403.36	809.83
403.55	816.85
403.74	912.81
403.93	961.96
404.13	945.58
404.32	922.17
404.51	905.79
404.70	992.39
404.89	1064.94
405.09	1008.77
405.28	926.85
405.47	936.21
405.66	926.85
405.85	1036.86
406.05	1025.15
406.24	990.05
406.43	1060.26
406.62	978.34
406.81	933.87
407.00	990.05
407.20	987.71
407.39	1053.24
407.58	1095.37
407.77	1050.90
407.96	1076.65
408.15	1116.44
408.34	1088.35
408.54	1128.14
408.73	1130.48
408.92	1100.05
409.11	1071.97
409.30	1174.95
409.49	1221.76
409.68	1153.88
409.87	1200.69
410.07	1179.63
410.26	1252.19
410.45	1153.88
410.64	1210.06
410.83	1315.38
411.02	1291.98
411.21	1245.16
411.40	1291.98
411.59	1425.39
411.78	1322.40
411.98	1259.21
412.17	1242.82
412.36	1357.51
412.55	1371.55
412.74	1448.79
412.93	1284.95
413.12	1306.02
413.31	1479.22
413.50	1411.34
413.69	1355.17
413.88	1390.28
414.07	1430.07
414.26	1502.62
414.45	1561.14
414.64	1540.07
414.83	1493.26
415.02	1561.14
415.22	1540.07
415.41	1511.99
415.60	1598.59
415.79	1610.29
415.98	1619.65
416.17	1654.76
416.36	1554.12
416.55	1579.86
416.74	1727.32
416.93	1699.23
417.12	1734.34
417.31	1717.95
417.50	1710.93
417.69	1755.40
417.88	1617.31
418.07	1703.91
418.26	1680.50
418.45	1820.94
418.64	1905.20
418.83	1856.04
419.02	1851.36
419.21	1963.71
419.39	1888.81
419.58	1839.66
419.77	1834.98
419.96	1961.37
420.15	1952.01
420.34	1851.36
420.53	1952.01
420.72	1991.80
420.91	1961.37
421.10	1881.79
421.29	1942.64
421.48	1940.30
421.67	1935.62
421.86	1982.43
422.05	2090.10
422.24	1930.94
422.43	2052.65
422.61	2136.91
422.80	2036.27
422.99	2146.27
423.18	1975.41
423.37	2001.16
423.56	2092.44
423.75	1989.46
423.94	2085.42
424.13	1975.41
424.32	1923.92
424.50	2080.74
424.69	2019.88
424.88	2092.44
425.07	2066.69
425.26	2120.53
425.45	1998.82
425.64	2122.87
425.83	2115.84
426.01	2237.55
426.20	2050.31
426.39	2050.31
426.58	2157.97
426.77	2080.74
426.96	2197.76
427.15	2078.40
427.33	2097.12
427.52	2150.95
427.71	2211.81
427.90	2190.74
428.09	2174.36
428.28	2216.49
428.46	2157.97
428.65	2246.91
428.84	2244.57
429.03	2289.04
429.22	2183.72
429.40	2340.54
429.59	2296.07
429.78	2211.81
429.97	2258.62
430.16	2289.04
430.34	2354.58
430.53	2387.35
430.72	2324.15
430.91	2338.20
431.10	2443.52
431.28	2389.69
431.47	2478.63
431.66	2523.10
431.85	2410.75
432.03	2321.81
432.22	2548.84
432.41	2417.77
432.60	2396.71
432.79	2415.43
432.97	2530.12
433.16	2523.10
433.35	2403.73
433.54	2396.71
433.72	2530.12
433.91	2499.69
434.10	2581.61
434.28	2487.99
434.47	2586.29
434.66	2698.64
434.85	2677.57
435.03	2597.99
435.22	2619.06
435.41	2682.25
435.59	2759.49
435.78	2612.04
435.97	2775.88
436.16	2700.98
436.34	2705.66
436.53	2771.19
436.72	2754.81
436.90	2759.49
437.09	2766.51
437.28	2759.49
437.46	2810.98
437.65	2747.79
437.84	2834.39
438.02	2829.71
438.21	2895.24
438.40	2834.39
438.58	2789.92
438.77	2967.80
438.96	2935.03
439.14	3038.02
439.33	2981.84
439.52	3159.72
439.70	3047.38
439.89	3073.12
440.08	3059.08
440.26	3042.70
440.45	3112.91
440.63	2972.48
440.82	3110.57
441.01	3183.13
441.19	3112.91
441.38	3246.32
441.57	3068.44
441.75	3346.97
441.94	3269.73
442.12	3309.52
442.31	3314.20
442.50	3400.80
442.68	3243.98
442.87	3309.52
443.05	3337.60
443.24	3410.16
443.43	3358.67
443.61	3412.50
443.80	3632.51
443.98	3281.43
444.17	3297.81
444.35	3574.00
444.54	3695.71
444.73	3417.18
444.91	3550.59
445.10	3489.74
445.28	3625.49
445.47	3508.46
445.65	3538.89
445.84	3489.74
446.02	3627.83
446.21	3527.19
446.39	3536.55
446.58	3581.02
446.77	3648.90
446.95	3487.40
447.14	3569.32
447.32	3571.66
447.51	3515.48
447.69	3534.21
447.88	3606.77
448.06	3578.68
448.25	3623.15
448.43	3597.40
448.62	3466.33
448.80	3543.57
448.99	3672.30
449.17	3613.79
449.36	3637.19
449.54	3606.77
449.73	3648.90
449.91	3742.52
450.10	3808.05
450.28	3735.50
450.46	3749.54
450.65	3684.00
450.83	3791.67
451.02	3850.18
451.20	3880.61
451.39	3901.67
451.57	3904.01
451.76	3805.71
451.94	3978.91
452.13	3988.27
452.31	3857.20
452.49	3892.31
452.68	3889.97
452.86	3953.16
453.05	3911.04
453.23	3939.12
453.42	3943.80
453.60	3831.46
453.78	3981.25
453.97	3904.01
454.15	3875.93
454.34	4007.00
454.52	4159.13
454.70	4023.38
454.89	4072.53
455.07	4145.09
455.26	4205.94
455.44	4156.79
455.62	4278.50
455.81	4154.45
455.99	4252.75
456.17	4159.13
456.36	4264.46
456.54	4257.43
456.73	4360.42
456.91	4325.31
457.09	4149.77
457.28	4437.66
457.46	4297.22
457.64	4528.94
457.83	4437.66
458.01	4404.89
458.19	4524.26
458.38	4404.89
458.56	4531.28
458.74	4643.62
458.93	4606.17
459.11	4528.94
459.29	4554.68
459.48	4652.98
459.66	4531.28
459.84	4704.48
460.03	4702.14
460.21	4685.75
460.39	4540.64
460.57	4627.24
460.76	4718.52
460.94	4826.18
461.12	4685.75
461.31	4746.61
461.49	4667.03
461.67	4734.90
461.85	4727.88
462.04	4634.26
462.22	5076.62
462.40	4826.18
462.59	4863.63
462.77	4873.00
462.95	4873.00
463.13	4858.95
463.32	4791.08
463.50	4826.18
463.68	4945.55
463.86	4978.32
464.05	4917.47
464.23	4929.17
464.41	5104.71
464.59	4851.93
464.78	5195.99
464.96	4863.63
465.14	4947.89
465.32	4994.70
465.50	5205.35
465.69	5102.37
465.87	5109.39
466.05	5071.94
466.23	5203.01
466.41	5322.38
466.60	5170.24
466.78	5198.33
466.96	5111.73
467.14	5191.31
467.32	5203.01
467.51	5263.86
467.69	5228.76
467.87	5298.97
468.05	5364.51
468.23	5191.31
468.41	5165.56
468.60	5142.16
468.78	5334.08
468.96	5437.06
469.14	5427.70
469.32	5371.53
469.50	5226.42
469.69	5563.45
469.87	5533.03
470.05	5612.60
470.23	5582.18
470.41	5423.02
470.59	5495.58
470.77	5486.22
470.95	5654.73
471.14	5577.50
471.32	5710.91
471.50	5802.19
471.68	5530.69
471.86	5764.74
472.04	5692.18
472.22	5870.06
472.40	5778.78
472.58	5771.76
472.77	5813.89
472.95	5898.15
473.13	6129.86
473.31	5760.06
473.49	5963.68
473.67	5933.26
473.85	5970.71
474.03	6162.63
474.21	6031.56
474.39	6111.14
474.57	6010.50
474.75	6235.19
474.93	6377.96
475.12	6211.78
475.30	6340.51
475.48	6293.70
475.66	6466.90
475.84	6401.37
476.02	6415.41
476.20	6382.64
476.38	6492.65
476.56	6616.69
476.74	6703.29
476.92	6689.25
477.10	6644.78
477.28	6761.81
477.46	6815.64
477.64	6829.68
477.82	6986.50
478.00	7171.40
478.18	7140.97
478.36	6897.56
478.54	7204.17
478.72	7180.76
478.90	6979.48
479.08	7368.01
479.26	7328.22
479.44	7454.61
479.62	7417.16
479.80	7473.33
479.98	7520.14
480.16	7676.96
480.34	7655.89
480.52	7796.32
480.70	7786.96
480.88	7740.15
481.06	7817.39
481.24	7843.14
481.41	7941.44
481.59	8063.15
481.77	8327.63
481.95	8269.11
482.13	8219.96
482.31	8409.54
482.49	8362.73
482.67	8596.79
482.85	8671.68
483.03	8606.15
483.21	8795.73
483.39	8784.03
483.57	8774.67
483.74	8947.87
483.92	8868.29
484.10	8994.68
484.28	9064.89
484.46	9181.92
484.64	9322.35
484.82	9151.49
485.00	9425.34
485.18	9434.70
485.35	9495.55
485.53	9547.05
485.71	9614.92
485.89	10104.09
486.07	9657.05
486.25	9834.93
486.43	9769.40
486.61	9879.40
486.78	10087.71
486.96	10242.18
487.14	10221.12
487.32	10506.66
487.50	10391.98
487.68	10174.31
487.85	10450.49
488.03	10808.59
488.21	10953.71
488.39	10956.05
488.57	10789.87
488.75	10803.91
488.92	11124.57
489.10	10927.96
489.28	10949.03
489.46	11438.20
489.64	11225.21
489.81	11623.10
489.99	11571.61
490.17	11440.54
490.35	11578.63
490.53	11850.13
490.70	11955.46
490.88	11864.18
491.06	12049.08
491.24	12042.06
491.41	11901.62
491.59	12212.92
491.77	12306.54
491.95	12362.71
492.13	12753.58
492.30	12456.33
492.48	12624.85
492.66	12699.75
492.84	12547.61
493.01	12793.37
493.19	12788.69
493.37	12915.08
493.54	12957.21
493.72	13125.72
493.90	13291.90
494.08	13418.29
494.25	13465.10
494.43	13455.74
494.61	13568.09
494.79	13605.53
494.96	13605.53
495.14	13713.20
495.32	13715.54
495.49	13912.14
495.67	14015.13
495.85	14057.26
496.02	14036.19
496.20	14272.59
496.38	14312.38
496.55	14045.55
496.73	14736.01
496.91	14235.14
497.09	14586.22
497.26	14555.79
497.44	14609.62
497.62	14609.62
497.79	14789.85
497.97	14633.03
498.14	14956.02
498.32	15084.75
498.50	15185.40
498.67	15302.42
498.85	15356.25
499.03	15543.50
499.20	15452.22
499.38	15314.13
499.56	15587.97
499.73	15639.46
499.91	15744.78
500.08	15679.25
500.26	15513.07
500.44	15726.06
500.61	15836.06
500.79	15833.72
500.97	15793.94
501.14	16327.58
501.32	16175.44
501.49	16194.17
501.67	16027.99
501.84	16358.00
502.02	16219.91
502.20	16306.51
502.37	16692.70
502.55	16500.78
502.72	16456.31
502.90	16570.99
503.07	16648.23
503.25	16468.01
503.43	16774.62
503.60	16877.60
503.78	16849.52
503.95	16919.73
504.13	16891.65
504.30	17006.33
504.48	16865.90
504.65	17053.14
504.83	16917.39
505.01	17642.96
505.18	17490.82
505.36	17427.63
505.53	17305.92
505.71	17378.48
505.88	17441.67
506.06	17493.16
506.23	18150.85
506.41	17759.98
506.58	17825.52
506.76	17970.63
506.93	17862.97
507.11	17582.10
507.28	18003.40
507.46	18132.13
507.63	18118.09
507.81	18120.43
507.98	17991.70
508.16	18176.60
508.33	18286.61
508.50	18359.16
508.68	18293.63
508.85	18506.62
509.03	18321.71
509.20	18932.59
509.38	18806.20
509.55	18806.20
509.73	18853.02
509.90	18733.65
510.08	18593.22
510.25	18607.26
510.42	18906.85
510.60	19089.41
510.77	19157.28
510.95	19056.64
511.12	18998.13
511.30	19131.54
511.47	19337.51
511.64	19297.72
511.82	19548.15
511.99	19480.28
512.17	19515.39
512.34	19344.53
512.51	19508.37
512.69	19393.68
512.86	19510.71
513.04	19627.73
513.21	20049.03
513.38	19880.51
513.56	19924.98
513.73	19812.63
513.90	20201.16
514.08	19627.73
514.25	20140.31
514.43	20079.46
514.60	20102.86
514.77	20058.39
514.95	20238.61
515.12	20121.59
515.29	20250.32
515.47	20540.54
515.64	20751.19
515.81	20449.26
515.99	20720.76
516.16	20695.02
516.33	20746.51
516.51	21015.67
516.68	20577.99
516.85	20699.70
517.03	21120.99
517.20	21081.21
517.37	20936.09
517.54	20730.12
517.72	20786.30
517.89	21223.98
518.06	20966.52
518.24	21151.42
518.41	21069.50
518.58	20917.37
518.75	21343.35
518.93	21558.67
519.10	21453.35
519.27	21420.58
519.45	21652.30
519.62	21783.37
519.79	21612.51
519.96	21703.79
520.14	21998.70
520.31	21570.38
520.48	21858.26
520.65	21909.75
520.83	21881.67
521.00	21937.84
521.17	21869.97
521.34	21851.24
521.52	22054.87
521.69	22132.11
521.86	22427.01
522.03	22293.60
522.20	22082.95
522.38	22085.30
522.55	22216.36
522.72	22684.47
522.89	22567.45
523.07	22466.80
523.24	22567.45
523.41	22539.36
523.58	22635.32
523.75	22656.39
523.92	22773.41
524.10	22665.75
524.27	22820.22
524.44	22827.24
524.61	23190.03
524.78	23047.26
524.96	23133.86
525.13	23213.43
525.30	23089.38
525.47	23101.09
525.64	22731.28
525.81	23117.47
525.98	23431.10
526.16	23168.96
526.33	23459.19
526.50	23285.99
526.67	23571.54
526.84	23405.36
527.01	23054.28
527.18	23709.63
527.36	23606.64
527.53	23627.71
527.70	24091.13
527.87	24079.43
528.04	23346.84
528.21	23974.11
528.38	23726.01
528.55	24095.82
528.72	23866.44
528.89	24027.94
529.07	24151.99
529.24	23917.93
529.41	24067.73
529.58	24065.39
529.75	24266.67
529.92	23903.89
530.09	23737.71
530.26	24334.55
530.43	24280.72
530.60	24140.29
530.77	24676.27
530.94	24828.40
531.11	24257.31
531.28	24236.25
531.46	24355.61
531.63	24580.31
531.80	24730.10
531.97	24774.57
532.14	24713.72
532.31	24704.35
532.48	24767.55
532.65	24687.97
532.82	24641.16
532.99	24491.37
533.16	24987.56
533.33	25191.19
533.50	25172.46
533.67	24999.26
533.84	24730.10
534.01	24863.51
534.18	24549.88
534.35	25193.53
534.52	24826.06
534.69	25057.78
534.86	25165.44
535.03	25317.57
535.20	25394.81
535.37	25223.95
535.54	25399.49
535.71	25067.14
535.88	25469.71
536.05	25589.08
536.22	25383.11
536.38	25631.21
536.55	25446.30
536.72	25593.76
536.89	25432.26
537.06	25968.24
537.23	25539.93
537.40	25738.87
537.57	25458.01
537.74	25802.07
537.91	26024.42
538.08	25975.27
538.25	25883.98
538.42	26001.01
538.59	25958.88
538.75	25577.37
538.92	26211.66
539.09	26132.08
539.26	26183.57
539.43	25624.18
539.60	26129.74
539.77	26225.70
539.94	26178.89
540.11	26263.15
540.28	26422.31
540.44	25909.73
540.61	26089.95
540.78	26216.34
540.95	26185.91
541.12	26012.71
541.29	26544.02
541.46	26326.35
541.62	26415.29
541.79	26272.51
541.96	26029.10
542.13	26242.09
542.30	26363.79
542.47	26724.24
542.63	27021.48
542.80	26885.73
542.97	26808.50
543.14	27021.48
543.31	26967.65
543.48	27054.25
543.64	27096.38
543.81	27508.32
543.98	27185.32
544.15	27412.35
544.32	27480.23
544.48	27456.82
544.65	27297.67
544.82	27129.15
544.99	27016.80
545.16	27262.56
545.32	27035.53
545.49	27384.27
545.66	27580.87
545.83	27438.10
546.00	27604.28
546.16	27487.25
546.33	27300.01
546.50	27068.30
546.67	27421.72
546.83	27058.93
547.00	27871.10
547.17	27398.31
547.34	27578.53
547.50	27789.18
547.67	27772.80
547.84	27733.01
548.00	28191.75
548.17	27941.32
548.34	28175.37
548.51	28009.19
548.67	28283.03
548.84	28058.34
549.01	27896.85
549.18	27896.85
549.34	28175.37
549.51	28297.08
549.68	28051.32
549.84	28037.28
550.01	28100.47
550.18	28095.79
550.34	28369.63
550.51	28177.71
550.68	28156.64
550.84	27906.21
551.01	28247.93
551.18	27721.30
551.34	28025.57
551.51	28196.43
551.68	28374.31
551.84	28219.84
552.01	28257.29
552.18	28280.69
552.34	28549.85
552.51	28587.30
552.68	28493.68
552.84	28772.21
553.01	28723.05
553.18	28252.61
553.34	28868.17
553.51	28423.47
553.67	28608.37
553.84	28776.89
554.01	29060.09
554.17	28809.65
554.34	28795.61
554.51	28751.14
554.67	28706.67
554.84	28858.81
555.00	28650.50
555.17	29092.86
555.33	29013.28
555.50	28957.11
555.67	29006.26
555.83	28959.45
556.00	28924.34
556.16	29312.87
556.33	29130.31
556.50	28524.11
556.66	29216.91
556.83	29305.85
556.99	29186.48
557.16	29024.98
557.32	29413.51
557.49	29043.71
557.65	29078.82
557.82	29261.38
557.98	29116.26
558.15	29287.12
558.32	29457.98
558.48	29144.35
558.65	29387.77
558.81	29212.23
558.98	29322.23
559.14	29263.72
559.31	29439.26
559.47	29298.83
559.64	29446.28
559.80	29397.13
559.97	29450.96
560.13	29626.50
560.30	29364.36
560.46	29818.42
560.63	29553.94
560.79	29408.83
560.96	29198.18
561.12	29619.48
561.29	29408.83
561.45	29670.97
561.61	29745.87
561.78	29312.87
561.94	29862.90
562.11	29862.90
562.27	29837.15
562.44	29575.01
562.60	29584.37
562.77	29362.02
562.93	29558.63
563.10	29919.07
563.26	29947.15
563.42	30160.14
563.59	29867.58
563.75	29879.28
563.92	29713.10
564.08	29729.48
564.24	29872.26
564.41	29724.80
564.57	29776.30
564.74	29956.52
564.90	29839.49
565.07	29832.47
565.23	30153.12
565.39	30082.91
565.56	29867.58
565.72	29799.70
565.88	29972.90
566.05	29607.78
566.21	30033.75
566.38	29928.43
566.54	30270.15
566.70	30499.52
566.87	30338.02
567.03	30174.19
567.19	30410.58
567.36	30380.15
567.52	30223.34
567.68	30113.33
567.85	30089.93
568.01	29865.24
568.17	30272.49
568.34	30380.15
568.50	30305.26
568.66	30118.01
568.83	30450.37
568.99	30078.22
569.15	30195.25
569.32	29790.34
569.48	29591.39
569.64	30354.41
569.81	30270.15
569.97	30499.52
570.13	30539.31
570.30	30099.29
570.46	30373.13
570.62	30057.16
570.78	30078.22
570.95	30352.07
571.11	30096.95
571.27	29668.63
571.43	30064.18
571.60	30181.21
571.76	30286.53
571.92	30089.93
572.09	30082.91
572.25	30464.41
572.41	30522.93
572.57	30871.67
572.74	30239.72
572.90	30349.73
573.06	30265.47
573.22	30705.49
573.38	30469.09
573.55	30703.15
573.71	30780.39
573.87	30749.96
574.03	30412.92
574.20	31023.80
574.36	30380.15
574.52	30419.94
574.68	30279.51
574.84	30593.14
575.01	30462.07
575.17	30546.33
575.33	30682.08
575.49	30148.44
575.65	30731.23
575.82	30602.50
575.98	30661.02
576.14	30504.20
576.30	30300.58
576.46	30522.93
576.62	30221.00
576.79	30782.73
576.95	30209.29
577.11	30525.27
577.27	30829.54
577.43	30464.41
577.59	30190.57
577.75	30473.78
577.92	30033.75
578.08	30185.89
578.24	30576.76
578.40	30504.20
578.56	30623.57
578.72	30199.93
578.88	30920.82
579.04	31063.59
579.21	30745.28
579.37	31030.82
579.53	30717.19
579.69	30546.33
579.85	30319.30
580.01	30567.40
580.17	30321.64
580.33	30398.88
580.49	30799.11
580.65	30469.09
580.82	31189.98
580.98	30803.79
581.14	30340.36
581.30	30766.34
581.46	30443.35
581.62	30546.33
581.78	30405.90
581.94	30534.63
582.10	30677.40
582.26	30331.00
582.42	30916.14
582.58	30501.86
582.74	30576.76
582.90	30834.22
583.06	30951.24
583.22	30244.40
583.38	30904.43
583.54	30724.21
583.70	30394.20
583.86	30642.29
584.02	30923.16
584.18	30876.35
584.34	30815.49
584.50	30441.01
584.66	30852.94
584.82	30490.16
584.98	31042.53
585.14	30892.73
585.30	30618.89
585.46	30883.37
585.62	30548.67
585.78	30824.86
585.94	30338.02
586.10	30717.19
586.26	30787.41
586.42	31136.15
586.58	31072.95
586.74	31110.40
586.90	30756.98
587.06	30419.94
587.22	31012.10
587.38	30658.68
587.54	30806.13
587.70	31185.30
587.86	31211.04
588.02	30801.45
588.18	31131.47
588.34	30944.22
588.49	31108.06
588.65	30616.55
588.81	30785.07
588.97	31115.08
589.13	30656.34
589.29	30504.20
589.45	31164.23
589.61	30913.80
589.77	31136.15
589.93	31131.47
590.08	31143.17
590.24	31304.67
590.40	31065.93
590.56	31466.16
590.72	30939.54
590.88	30822.51
591.04	31110.40
591.20	31094.02
591.35	31611.28
591.51	31035.50
591.67	31489.57
591.83	31580.85
591.99	31599.57
