SpectraSuite Data File
++++++++++++++++++++++++++++++++++++
Date: Fri Oct 18 13:58:39 GMT-05:00 2013
User: bianchi
Dark Spectrum Present: No
Reference Spectrum Present: No
Number of Sampled Component Spectra: 1
Spectrometers: USB2+H05261
Integration Time (usec): 50000 (USB2+H05261)
Spectra Averaged: 1 (USB2+H05261)
Boxcar Smoothing: 0 (USB2+H05261)
Correct for Electrical Dark: No (USB2+H05261)
Strobe/Lamp Enabled: No (USB2+H05261)
Correct for Detector Non-linearity: No (USB2+H05261)
Correct for Stray Light: No (USB2+H05261)
Number of Pixels in Processed Spectrum: 2048
>>>>>Begin Processed Spectral Data<<<<<
365.73	0.00
365.92	0.00
366.12	0.00
366.32	0.00
366.52	0.00
366.72	0.00
366.91	0.00
367.11	0.00
367.31	0.00
367.51	0.00
367.70	0.00
367.90	0.00
368.10	0.00
368.30	0.00
368.49	0.00
368.69	0.00
368.89	0.00
369.09	0.00
369.28	0.00
369.48	0.00
369.68	0.00
369.87	0.00
370.07	0.00
370.27	0.00
370.47	0.00
370.66	77.24
370.86	42.13
371.06	119.37
371.25	100.64
371.45	145.11
371.65	163.84
371.84	215.33
372.04	163.84
372.24	170.86
372.44	175.54
372.63	159.16
372.83	238.73
373.03	124.05
373.22	154.48
373.42	180.22
373.62	241.08
373.81	217.67
374.01	273.84
374.21	191.92
374.40	269.16
374.60	269.16
374.79	241.08
374.99	259.80
375.19	332.36
375.38	255.12
375.58	243.42
375.78	269.16
375.97	318.31
376.17	259.80
376.37	313.63
376.56	259.80
376.76	252.78
376.95	170.86
377.15	252.78
377.35	217.67
377.54	332.36
377.74	276.18
377.93	257.46
378.13	229.37
378.33	255.12
378.52	292.57
378.72	264.48
378.91	252.78
379.11	234.05
379.31	386.19
379.50	285.55
379.70	290.23
379.89	285.55
380.09	369.80
380.28	301.93
380.48	301.93
380.68	332.36
380.87	299.59
381.07	278.52
381.26	252.78
381.46	315.97
381.65	327.68
381.85	259.80
382.04	320.65
382.24	351.08
382.43	346.40
382.63	423.64
382.83	362.78
383.02	379.17
383.22	421.30
383.41	315.97
383.61	283.20
383.80	325.33
384.00	381.51
384.19	402.57
384.39	339.38
384.58	285.55
384.78	381.51
384.97	379.17
385.17	311.29
385.36	315.97
385.56	402.57
385.75	369.80
385.95	376.83
386.14	360.44
386.34	402.57
386.53	433.00
386.72	393.21
386.92	517.26
387.11	454.06
387.31	397.89
387.50	411.93
387.70	416.62
387.89	411.93
388.09	423.64
388.28	468.11
388.48	433.00
388.67	444.70
388.86	421.30
389.06	400.23
389.25	477.47
389.45	512.58
389.64	449.38
389.84	507.90
390.03	510.24
390.22	442.36
390.42	505.56
390.61	442.36
390.81	416.62
391.00	519.60
391.19	496.19
391.39	512.58
391.58	545.34
391.78	428.32
391.97	472.79
392.16	552.37
392.36	550.03
392.55	498.53
392.75	557.05
392.94	550.03
393.13	566.41
393.33	538.32
393.52	606.20
393.71	524.28
393.91	552.37
394.10	482.15
394.29	599.18
394.49	564.07
394.68	547.69
394.88	596.84
395.07	592.16
395.26	634.29
395.46	627.26
395.65	528.96
395.84	617.90
396.04	683.44
396.23	627.26
396.42	641.31
396.62	709.18
396.81	674.07
397.00	587.47
397.19	699.82
397.39	653.01
397.58	641.31
397.77	613.22
397.97	739.61
398.16	667.05
398.35	580.45
398.55	685.78
398.74	709.18
398.93	690.46
399.12	763.01
399.32	631.94
399.51	739.61
399.70	741.95
399.90	713.86
400.09	716.20
400.28	833.23
400.47	788.76
400.67	819.19
400.86	777.06
401.05	798.12
401.24	891.74
401.44	784.08
401.63	840.25
401.82	753.65
402.01	753.65
402.21	828.55
402.40	786.42
402.59	851.96
402.78	826.21
402.97	903.45
403.17	851.96
403.36	929.19
403.55	847.27
403.74	884.72
403.93	887.06
404.13	922.17
404.32	908.13
404.51	875.36
404.70	847.27
404.89	894.08
405.09	983.02
405.28	943.24
405.47	987.71
405.66	940.90
405.85	943.24
406.05	945.58
406.24	966.64
406.43	919.83
406.62	1008.77
406.81	1078.99
407.00	1022.81
407.20	945.58
407.39	1036.86
407.58	1015.79
407.77	1060.26
407.96	999.41
408.15	1053.24
408.34	1062.60
408.54	1090.69
408.73	1055.58
408.92	1076.65
409.11	1203.04
409.30	1139.84
409.49	1144.52
409.68	1142.18
409.87	1107.07
410.07	1203.04
410.26	1193.67
410.45	1186.65
410.64	1181.97
410.83	1205.38
411.02	1277.93
411.21	1275.59
411.40	1233.46
411.59	1210.06
411.78	1266.23
411.98	1212.40
412.17	1364.53
412.36	1254.53
412.55	1207.72
412.74	1465.18
412.93	1315.38
413.12	1263.89
413.31	1418.36
413.50	1364.53
413.69	1383.26
413.88	1451.13
414.07	1497.94
414.26	1511.99
414.45	1413.68
414.64	1537.73
414.83	1430.07
415.02	1348.15
415.22	1540.07
415.41	1523.69
415.60	1561.14
415.79	1523.69
415.98	1636.03
416.17	1521.35
416.36	1659.44
416.55	1720.29
416.74	1621.99
416.93	1732.00
417.12	1713.27
417.31	1708.59
417.50	1692.21
417.69	1774.13
417.88	1783.49
418.07	1682.85
418.26	1692.21
418.45	1671.14
418.64	1846.68
418.83	1762.42
419.02	1762.42
419.21	1834.98
419.39	1865.41
419.58	1825.62
419.77	1729.66
419.96	1849.02
420.15	1877.11
420.34	1834.98
420.53	1935.62
420.72	1879.45
420.91	1963.71
421.10	1909.88
421.29	1961.37
421.48	1933.28
421.67	1989.46
421.86	1872.43
422.05	1984.77
422.24	1902.86
422.43	2045.63
422.61	1849.02
422.80	1944.99
422.99	1923.92
423.18	1952.01
423.37	2087.76
423.56	2078.40
423.75	2008.18
423.94	1987.11
424.13	1830.30
424.32	1989.46
424.50	2087.76
424.69	2129.89
424.88	2059.67
425.07	2092.44
425.26	1898.17
425.45	1940.30
425.64	1930.94
425.83	1998.82
426.01	2047.97
426.20	2022.22
426.39	2083.08
426.58	2029.24
426.77	2106.48
426.96	2064.35
427.15	2069.03
427.33	2113.50
427.52	2022.22
427.71	2174.36
427.90	2008.18
428.09	2176.70
428.28	2080.74
428.46	2099.46
428.65	2148.61
428.84	2230.53
429.03	2352.24
429.22	2139.25
429.40	2172.02
429.59	2235.21
429.78	2083.08
429.97	2106.48
430.16	2139.25
430.34	2214.15
430.53	2289.04
430.72	2279.68
430.91	2214.15
431.10	2363.94
431.28	2375.64
431.47	2321.81
431.66	2370.96
431.85	2415.43
432.03	2303.09
432.22	2424.80
432.41	2462.24
432.60	2366.28
432.79	2349.90
432.97	2349.90
433.16	2415.43
433.35	2368.62
433.54	2478.63
433.72	2548.84
433.91	2548.84
434.10	2499.69
434.28	2429.48
434.47	2502.03
434.66	2593.31
434.85	2621.40
435.03	2635.44
435.22	2649.49
435.41	2736.09
435.59	2445.86
435.78	2534.80
435.97	2745.45
436.16	2558.21
436.34	2675.23
436.53	2675.23
436.72	2637.78
436.90	2717.36
437.09	2696.30
437.28	2740.77
437.46	2649.49
437.65	2612.04
437.84	2715.02
438.02	2853.11
438.21	2736.09
438.40	2808.64
438.58	2883.54
438.77	2789.92
438.96	2810.98
439.14	2789.92
439.33	2885.88
439.52	2827.37
439.70	2897.58
439.89	2876.52
440.08	3005.25
440.26	3054.40
440.45	3000.57
440.63	2925.67
440.82	3232.28
441.01	3222.92
441.19	3222.92
441.38	3204.19
441.57	3309.52
441.75	3166.74
441.94	3206.53
442.12	3297.81
442.31	3281.43
442.50	3251.00
442.68	3211.22
442.87	3300.16
443.05	3255.69
443.24	3349.31
443.43	3290.79
443.61	3431.23
443.80	3382.07
443.98	3375.05
444.17	3215.90
444.35	3449.95
444.54	3396.12
444.73	3447.61
444.91	3405.48
445.10	3431.23
445.28	3393.78
445.47	3353.99
445.65	3372.71
445.84	3419.52
446.02	3403.14
446.21	3466.33
446.39	3503.78
446.58	3520.17
446.77	3501.44
446.95	3426.54
447.14	3459.31
447.32	3396.12
447.51	3538.89
447.69	3592.72
447.88	3534.21
448.06	3499.10
448.25	3456.97
448.43	3569.32
448.62	3368.03
448.80	3538.89
448.99	3550.59
449.17	3485.06
449.36	3503.78
449.54	3522.51
449.73	3684.00
449.91	3712.09
450.10	3590.38
450.28	3777.62
450.46	3857.20
450.65	3667.62
450.83	3779.97
451.02	3543.57
451.20	3756.56
451.39	3784.65
451.57	3693.37
451.76	3655.92
451.94	3714.43
452.13	3941.46
452.31	3822.09
452.49	3555.27
452.68	3808.05
452.86	3850.18
453.05	3906.35
453.23	3892.31
453.42	3824.44
453.60	3871.25
453.78	3929.76
453.97	3833.80
454.15	3936.78
454.34	3894.65
454.52	3880.61
454.70	3978.91
454.89	3922.74
455.07	4030.40
455.26	4014.02
455.44	4088.92
455.62	4095.94
455.81	4126.36
455.99	4135.73
456.17	4079.55
456.36	4227.01
456.54	4238.71
456.73	4299.56
456.91	4332.33
457.09	4266.80
457.28	4376.80
457.46	4273.82
457.64	4273.82
457.83	4538.30
458.01	4238.71
458.19	4430.63
458.38	4339.35
458.56	4552.34
458.74	4355.74
458.93	4351.06
459.11	4388.50
459.29	4479.79
459.48	4535.96
459.66	4423.61
459.84	4306.59
460.03	4442.34
460.21	4695.11
460.39	4507.87
460.57	4580.43
460.76	4575.75
460.94	4454.04
461.12	4662.35
461.31	4690.43
461.49	4531.28
461.67	4578.09
461.85	4660.01
462.04	4638.94
462.22	4884.70
462.40	4777.03
462.59	4695.11
462.77	4819.16
462.95	4793.42
463.13	4730.22
463.32	4685.75
463.50	4877.68
463.68	4908.10
463.86	4992.36
464.05	4767.67
464.23	4823.84
464.41	4863.63
464.59	4784.06
464.78	4985.34
464.96	5020.45
465.14	4821.50
465.32	4966.62
465.50	5062.58
465.69	4915.12
465.87	5046.20
466.05	4915.12
466.23	4978.32
466.41	5020.45
466.60	5088.32
466.78	4898.74
466.96	4980.66
467.14	5156.20
467.32	5020.45
467.51	5235.78
467.69	5053.22
467.87	5093.01
468.05	5025.13
468.23	5076.62
468.41	5071.94
468.60	5270.89
468.78	5181.95
468.96	5088.32
469.14	5291.95
469.32	5186.63
469.50	5200.67
469.69	5165.56
469.87	5324.72
470.05	5380.89
470.23	5357.49
470.41	5551.75
470.59	5383.23
470.77	5247.48
470.95	5399.62
471.14	5432.38
471.32	5502.60
471.50	5537.71
471.68	5654.73
471.86	5556.43
472.04	5544.73
472.22	5853.68
472.40	5631.33
472.58	5526.00
472.77	5633.67
472.95	5746.02
473.13	5797.51
473.31	5778.78
473.49	5760.06
473.67	5764.74
473.85	5933.26
474.03	5905.17
474.21	5900.49
474.39	6017.52
474.57	5907.51
474.75	5996.45
474.93	6162.63
475.12	6022.20
475.30	6076.03
475.48	6101.78
475.66	6097.10
475.84	6183.70
476.02	6291.36
476.20	6380.30
476.38	6389.66
476.56	6520.73
476.74	6462.22
476.92	6373.28
477.10	6487.96
477.28	6553.50
477.46	6476.26
477.64	6712.66
477.82	6839.05
478.00	6904.58
478.18	6778.19
478.36	6902.24
478.54	7164.38
478.72	7000.54
478.90	7054.37
479.08	7325.88
479.26	7255.66
479.44	7368.01
479.62	7255.66
479.80	7442.90
479.98	7330.56
480.16	7475.67
480.34	7515.46
480.52	7644.19
480.70	7714.41
480.88	7592.70
481.06	7733.13
481.24	7770.58
481.41	7728.45
481.59	7887.61
481.77	7838.45
481.95	7801.01
482.13	8058.46
482.31	8051.44
482.49	8140.38
482.67	8383.80
482.85	8327.63
483.03	8421.25
483.21	8311.24
483.39	8519.55
483.57	8542.96
483.74	8580.40
483.92	8503.17
484.10	8709.13
484.28	8737.22
484.46	9076.60
484.64	8987.66
484.82	9156.18
485.00	8990.00
485.18	9078.94
485.35	9242.78
485.53	9423.00
485.71	9259.16
485.89	9659.39
486.07	9504.92
486.25	9418.32
486.43	9514.28
486.61	9699.18
486.78	9879.40
486.96	9956.64
487.14	9994.09
487.32	10148.56
487.50	10031.54
487.68	10174.31
487.85	10490.28
488.03	10462.19
488.21	10586.24
488.39	10267.93
488.57	10490.28
488.75	10623.69
488.92	10848.38
489.10	10963.07
489.28	10892.85
489.46	10988.82
489.64	10869.45
489.81	11112.86
489.99	11229.89
490.17	11178.40
490.35	11538.84
490.53	11597.35
490.70	11660.55
490.88	11487.35
491.06	11831.41
491.24	11648.85
491.41	11768.21
491.59	11836.09
491.77	11772.89
491.95	12126.32
492.13	11779.92
492.30	12102.91
492.48	12095.89
492.66	12145.04
492.84	12201.21
493.01	12589.74
493.19	12573.36
493.37	12587.40
493.54	12725.49
493.72	12767.62
493.90	12472.71
494.08	12776.98
494.25	13004.02
494.43	13069.55
494.61	12830.82
494.79	13184.24
494.96	13448.72
495.14	13441.70
495.32	13465.10
495.49	13317.65
495.67	13575.11
495.85	13848.95
496.02	13811.50
496.20	13685.11
496.38	13799.80
496.55	13638.30
496.73	14132.15
496.91	14075.98
497.09	14183.65
497.26	14216.41
497.44	14244.50
497.62	14155.56
497.79	14548.77
497.97	14443.45
498.14	14469.19
498.32	14932.62
498.50	14462.17
498.67	14520.68
498.85	15084.75
499.03	14792.19
499.20	14813.25
499.38	15056.67
499.56	15206.46
499.73	15091.77
499.91	15658.18
500.08	15337.53
500.26	15133.90
500.44	15103.48
500.61	15152.63
500.79	15367.96
500.97	15758.83
501.14	15716.70
501.32	15805.64
501.49	15648.82
501.67	15618.39
501.84	15817.34
502.02	15735.42
502.20	15927.35
502.37	15997.56
502.55	15960.11
502.72	15957.77
502.90	16149.70
503.07	16215.23
503.25	16177.78
503.43	15906.28
503.60	16512.48
503.78	16156.72
503.95	16425.88
504.13	16746.53
504.30	16463.33
504.48	16320.56
504.65	16683.34
504.83	16695.04
505.01	17209.96
505.18	17001.65
505.36	16957.18
505.53	16603.76
505.71	16996.97
505.88	17006.33
506.06	16938.46
506.23	17324.65
506.41	16783.98
506.58	17280.18
506.76	17177.19
506.93	17504.87
507.11	17317.62
507.28	17535.29
507.46	17539.97
507.63	17591.47
507.81	17781.05
507.98	17809.14
508.16	17504.87
508.33	17596.15
508.50	17722.54
508.68	18073.62
508.85	18066.60
509.03	17776.37
509.20	18097.02
509.38	18162.56
509.55	18195.32
509.73	18181.28
509.90	17898.08
510.08	17951.91
510.25	18132.13
510.42	18721.95
510.60	18682.16
510.77	18745.35
510.95	18410.65
511.12	18403.63
511.30	18633.00
511.47	18637.69
511.64	18874.08
511.82	18965.36
511.99	18649.39
512.17	19199.41
512.34	18773.44
512.51	18897.49
512.69	19103.45
512.86	18965.36
513.04	18925.57
513.21	19407.72
513.38	19215.80
513.56	19367.93
513.73	18967.70
513.90	19325.80
514.08	19393.68
514.25	19442.83
514.43	19503.68
514.60	19782.21
514.77	19611.35
514.95	19786.89
515.12	19529.43
515.29	19833.70
515.47	19920.30
515.64	20011.58
515.81	19754.12
515.99	20175.42
516.16	20535.86
516.33	20121.59
516.51	20201.16
516.68	20208.19
516.85	20093.50
517.03	20025.62
517.20	20362.66
517.37	20222.23
517.54	20458.62
517.72	20301.81
517.89	20334.57
518.06	20524.16
518.24	20446.92
518.41	20608.42
518.58	20552.24
518.75	20559.27
518.93	20856.51
519.10	20760.55
519.27	20985.24
519.45	20652.89
519.62	21046.10
519.79	20896.30
519.96	21113.97
520.14	20842.47
520.31	21135.04
520.48	21067.16
520.65	21095.25
520.83	21132.70
521.00	21359.73
521.17	21151.42
521.34	21003.97
521.52	21245.04
521.69	21167.80
521.86	21441.65
522.03	21757.62
522.20	21579.74
522.38	21722.51
522.55	21708.47
522.72	21769.32
522.89	21694.43
523.07	22104.02
523.24	21951.88
523.41	22136.79
523.58	21752.94
523.75	22064.23
523.92	21848.90
524.10	21521.23
524.27	22410.63
524.44	22267.86
524.61	22497.23
524.78	22347.44
524.96	22398.93
525.13	22228.07
525.30	22195.30
525.47	22288.92
525.64	22214.02
525.81	22670.43
525.98	22686.81
526.16	22712.56
526.33	22473.82
526.50	22757.03
526.67	22441.06
526.84	22675.11
527.01	22712.56
527.18	22745.33
527.36	22885.76
527.53	22593.19
527.70	23171.30
527.87	23374.93
528.04	23122.15
528.21	23112.79
528.38	23129.17
528.55	23002.78
528.72	23115.13
528.89	23222.80
529.07	23171.30
529.24	23154.92
529.41	23222.80
529.58	23487.28
529.75	23456.85
529.92	23190.03
530.09	23381.95
530.26	23562.17
530.43	23508.34
530.60	23426.42
530.77	23576.22
530.94	23639.41
531.11	23646.43
531.28	23824.31
531.46	23651.11
531.63	23538.77
531.80	23962.40
531.97	24119.22
532.14	24112.20
532.31	24002.19
532.48	23899.21
532.65	23704.95
532.82	23814.95
532.99	24093.47
533.16	23924.96
533.33	24292.42
533.50	24379.02
533.67	24259.65
533.84	23585.58
534.01	24123.90
534.18	24568.60
534.35	24254.97
534.52	24182.42
534.69	24421.15
534.86	24545.20
535.03	24404.77
535.20	24865.85
535.37	24624.78
535.54	24568.60
535.71	24151.99
535.88	24741.80
536.05	24706.70
536.22	24615.41
536.38	24517.11
536.55	24774.57
536.72	24666.91
536.89	25067.14
537.06	25050.75
537.23	24940.75
537.40	24797.98
537.57	24678.61
537.74	25067.14
537.91	25352.68
538.08	25429.92
538.25	24898.62
538.42	24882.24
538.59	25331.62
538.75	24945.43
538.92	24933.73
539.09	25488.43
539.26	25027.35
539.43	25350.34
539.60	25539.93
539.77	25017.99
539.94	25151.40
540.11	25088.20
540.28	25640.57
540.44	25551.63
540.61	25163.10
540.78	25429.92
540.95	25687.38
541.12	25832.49
541.29	25731.85
541.46	25841.85
541.62	25254.38
541.79	25434.60
541.96	25642.91
542.13	25394.81
542.30	25715.47
542.47	25909.73
542.63	25883.98
542.80	26183.57
542.97	26286.56
543.14	26136.76
543.31	26068.89
543.48	25886.32
543.64	26256.13
543.81	26108.68
543.98	26417.63
544.15	26181.23
544.32	26644.66
544.48	26527.63
544.65	26359.11
544.82	26607.21
544.99	26342.73
545.16	26314.64
545.32	26534.65
545.49	26955.95
545.66	26738.28
545.83	26740.62
546.00	26389.54
546.16	26586.15
546.33	26555.72
546.50	26244.43
546.67	26574.44
546.83	26436.35
547.00	26806.16
547.17	26719.56
547.34	27080.00
547.50	26913.82
547.67	27103.40
547.84	26759.34
548.00	26967.65
548.17	26836.58
548.34	27065.96
548.51	27295.33
548.67	27257.88
548.84	27112.77
549.01	27051.91
549.18	27222.77
549.34	27157.24
549.51	27056.59
549.68	27000.42
549.84	27042.55
550.01	27386.61
550.18	27278.94
550.34	27562.15
550.51	27501.29
550.68	27798.54
550.84	27321.07
551.01	27281.28
551.18	27150.21
551.34	26836.58
551.51	27213.41
551.68	27140.85
551.84	27412.35
552.01	27314.05
552.18	27335.12
552.34	27548.11
552.51	27456.82
552.68	27611.30
552.84	27337.46
553.01	27410.01
553.18	27878.12
553.34	27821.95
553.51	27386.61
553.67	27875.78
553.84	27847.69
554.01	28142.60
554.17	27583.21
554.34	27695.56
554.51	27538.74
554.67	27566.83
554.84	27896.85
555.00	27943.66
555.17	27791.52
555.33	27737.69
555.50	28102.81
555.67	27901.53
555.83	27798.54
556.00	27798.54
556.16	28084.09
556.33	27840.67
556.50	28048.98
556.66	28374.31
556.83	28233.88
556.99	28252.61
557.16	28254.95
557.32	28617.73
557.49	28645.82
557.65	28154.30
557.82	27882.80
557.98	28252.61
558.15	28079.41
558.32	28669.22
558.48	28451.55
558.65	28411.76
558.81	28437.51
558.98	28622.41
559.14	28346.23
559.31	28229.20
559.47	28140.26
559.64	28425.81
559.80	28489.00
559.97	28547.51
560.13	28233.88
560.30	28254.95
560.46	28830.72
560.63	28762.84
560.79	28671.56
560.96	28643.48
561.12	28699.65
561.29	28432.83
561.45	28687.95
561.61	28830.72
561.78	28690.29
561.94	28573.26
562.11	28505.38
562.27	28533.47
562.44	28453.89
562.60	28994.56
562.77	28657.52
562.93	28638.80
563.10	28999.24
563.26	28491.34
563.42	29216.91
563.59	28994.56
563.75	28994.56
563.92	28767.52
564.08	28610.71
564.24	28730.08
564.41	28877.53
564.57	28657.52
564.74	28875.19
564.90	28730.08
565.07	29034.35
565.23	29207.55
565.39	29022.64
565.56	29434.58
565.72	28666.88
565.88	29230.95
566.05	28776.89
566.21	28725.39
566.38	28577.94
566.54	29233.29
566.70	29230.95
566.87	29259.04
567.03	29134.99
567.19	29343.30
567.36	28987.53
567.52	28779.23
567.68	29221.59
567.85	29411.17
568.01	29340.96
568.17	29188.82
568.34	29535.22
568.50	29343.30
568.66	29074.13
568.83	29151.37
568.99	28865.83
569.15	29343.30
569.32	28898.59
569.48	29001.58
569.64	29301.17
569.81	29142.01
569.97	29186.48
570.13	29127.97
570.30	29137.33
570.46	29228.61
570.62	29057.75
570.78	28959.45
570.95	29177.12
571.11	29282.44
571.27	29095.20
571.43	29032.00
571.60	29167.76
571.76	29406.49
571.92	29640.54
572.09	29378.40
572.25	29820.77
572.41	29614.80
572.57	29757.57
572.74	29652.25
572.90	29153.71
573.06	29490.75
573.22	29259.04
573.38	29317.55
573.55	29242.65
573.71	29633.52
573.87	29689.70
574.03	29322.23
574.20	29600.76
574.36	29188.82
574.52	29455.64
574.68	29254.36
574.84	29722.46
575.01	29357.34
575.17	29146.69
575.33	29118.60
575.49	29558.63
575.65	29607.78
575.82	29741.19
575.98	29535.22
576.14	29509.47
576.30	29610.12
576.46	29163.08
576.62	29298.83
576.79	29607.78
576.95	29413.51
577.11	29652.25
577.27	29610.12
577.43	29582.03
577.59	29528.20
577.75	29408.83
577.92	29303.51
578.08	29432.24
578.24	29626.50
578.40	29268.40
578.56	29628.84
578.72	29507.13
578.88	29567.99
579.04	29907.37
579.21	29242.65
579.37	29472.03
579.53	29631.18
579.69	29816.08
579.85	29453.30
580.01	29448.62
580.17	29539.90
580.33	29635.86
580.49	29448.62
580.65	29785.66
580.82	29902.68
580.98	29825.45
581.14	29738.85
581.30	29898.00
581.46	29436.92
581.62	29837.15
581.78	29560.97
581.94	29518.84
582.10	29469.69
582.26	29525.86
582.42	29940.13
582.58	29666.29
582.74	29947.15
582.90	29589.05
583.06	29717.78
583.22	29699.06
583.38	29369.04
583.54	29593.73
583.70	29610.12
583.86	29624.16
584.02	29493.09
584.18	29743.53
584.34	30101.63
584.50	29750.55
584.66	29598.41
584.82	30052.48
584.98	29687.36
585.14	29455.64
585.30	29247.33
585.46	29773.95
585.62	29752.89
585.78	29736.51
585.94	29411.17
586.10	29577.35
586.26	29937.79
586.42	30270.15
586.58	29984.60
586.74	29907.37
586.90	29642.88
587.06	29668.63
587.22	30113.33
587.38	29757.57
587.54	29961.20
587.70	29986.94
587.86	30029.07
588.02	29986.94
588.18	29780.98
588.34	29965.88
588.49	29675.65
588.65	29851.19
588.81	29923.75
588.97	29977.58
589.13	29654.59
589.29	29837.15
589.45	29764.59
589.61	29909.71
589.77	30221.00
589.93	30174.19
590.08	30146.10
590.24	30221.00
590.40	29729.48
590.56	30431.65
590.72	29762.25
590.88	29359.68
591.04	30225.68
591.20	30225.68
591.35	30293.55
591.51	30352.07
591.67	30033.75
591.83	30319.30
591.99	29986.94
