SpectraSuite Data File
++++++++++++++++++++++++++++++++++++
Date: Fri Oct 18 13:58:23 GMT-05:00 2013
User: bianchi
Dark Spectrum Present: No
Reference Spectrum Present: No
Number of Sampled Component Spectra: 1
Spectrometers: USB2+H05261
Integration Time (usec): 50000 (USB2+H05261)
Spectra Averaged: 1 (USB2+H05261)
Boxcar Smoothing: 0 (USB2+H05261)
Correct for Electrical Dark: No (USB2+H05261)
Strobe/Lamp Enabled: No (USB2+H05261)
Correct for Detector Non-linearity: No (USB2+H05261)
Correct for Stray Light: No (USB2+H05261)
Number of Pixels in Processed Spectrum: 2048
>>>>>Begin Processed Spectral Data<<<<<
365.73	0.00
365.92	0.00
366.12	0.00
366.32	0.00
366.52	0.00
366.72	0.00
366.91	0.00
367.11	0.00
367.31	0.00
367.51	0.00
367.70	0.00
367.90	0.00
368.10	0.00
368.30	0.00
368.49	0.00
368.69	0.00
368.89	0.00
369.09	0.00
369.28	0.00
369.48	0.00
369.68	0.00
369.87	0.00
370.07	0.00
370.27	0.00
370.47	0.00
370.66	0.00
370.86	77.24
371.06	95.96
371.25	147.45
371.45	117.03
371.65	124.05
371.84	152.13
372.04	154.48
372.24	159.16
372.44	212.99
372.63	191.92
372.83	196.60
373.03	161.50
373.22	180.22
373.42	217.67
373.62	229.37
373.81	222.35
374.01	257.46
374.21	294.91
374.40	222.35
374.60	173.20
374.79	229.37
374.99	248.10
375.19	248.10
375.38	140.43
375.58	311.29
375.78	255.12
375.97	339.38
376.17	325.33
376.37	255.12
376.56	320.65
376.76	205.97
376.95	287.89
377.15	271.50
377.35	315.97
377.54	351.08
377.74	203.63
377.93	205.97
378.13	243.42
378.33	299.59
378.52	278.52
378.72	241.08
378.91	297.25
379.11	266.82
379.31	201.29
379.50	334.70
379.70	339.38
379.89	337.04
380.09	273.84
380.28	308.95
380.48	367.46
380.68	262.14
380.87	220.01
381.07	320.65
381.26	283.20
381.46	341.72
381.65	348.74
381.85	271.50
382.04	344.06
382.24	355.76
382.43	339.38
382.63	280.86
382.83	304.27
383.02	447.04
383.22	351.08
383.41	304.27
383.61	355.76
383.80	376.83
384.00	369.80
384.19	383.85
384.39	376.83
384.58	428.32
384.78	409.59
384.97	428.32
385.17	390.87
385.36	367.46
385.56	435.34
385.75	402.57
385.95	379.17
386.14	374.49
386.34	383.85
386.53	425.98
386.72	344.06
386.92	418.96
387.11	435.34
387.31	381.51
387.50	381.51
387.70	430.66
387.89	418.96
388.09	423.64
388.28	388.53
388.48	465.77
388.67	451.72
388.86	447.04
389.06	433.00
389.25	519.60
389.45	447.04
389.64	475.13
389.84	491.51
390.03	437.68
390.22	482.15
390.42	421.30
390.61	465.77
390.81	582.79
391.00	505.56
391.19	428.32
391.39	503.22
391.58	475.13
391.78	517.26
391.97	575.77
392.16	561.73
392.36	545.34
392.55	498.53
392.75	580.45
392.94	486.83
393.13	573.43
393.33	507.90
393.52	578.11
393.71	540.66
393.91	470.45
394.10	573.43
394.29	519.60
394.49	582.79
394.68	554.71
394.88	557.05
395.07	643.65
395.26	559.39
395.46	638.97
395.65	594.50
395.84	599.18
396.04	622.58
396.23	664.71
396.42	608.54
396.62	716.20
396.81	709.18
397.00	690.46
397.19	648.33
397.39	741.95
397.58	718.54
397.77	699.82
397.97	732.59
398.16	737.27
398.35	685.78
398.55	709.18
398.74	709.18
398.93	718.54
399.12	702.16
399.32	727.91
399.51	699.82
399.70	746.63
399.90	636.63
400.09	779.40
400.28	805.14
400.47	826.21
400.67	770.04
400.86	819.19
401.05	851.96
401.24	924.51
401.44	858.98
401.63	793.44
401.82	807.48
402.01	791.10
402.21	903.45
402.40	854.30
402.59	791.10
402.78	774.72
402.97	929.19
403.17	866.00
403.36	800.46
403.55	828.55
403.74	884.72
403.93	814.51
404.13	917.49
404.32	844.93
404.51	983.02
404.70	957.28
404.89	884.72
405.09	933.87
405.28	901.11
405.47	968.98
405.66	929.19
405.85	968.98
406.05	938.55
406.24	1025.15
406.43	954.94
406.62	1057.92
406.81	1078.99
407.00	1025.15
407.20	943.24
407.39	987.71
407.58	1039.20
407.77	1046.22
407.96	1036.86
408.15	999.41
408.34	968.98
408.54	1060.26
408.73	1041.54
408.92	1107.07
409.11	1144.52
409.30	1088.35
409.49	1081.33
409.68	1165.59
409.87	1104.73
410.07	1118.78
410.26	1200.69
410.45	1266.23
410.64	1214.74
410.83	1254.53
411.02	1256.87
411.21	1198.35
411.40	1294.32
411.59	1259.21
411.78	1301.34
411.98	1371.55
412.17	1280.27
412.36	1343.47
412.55	1331.76
412.74	1345.81
412.93	1301.34
413.12	1263.89
413.31	1338.79
413.50	1355.17
413.69	1479.22
413.88	1427.73
414.07	1425.39
414.26	1558.80
414.45	1479.22
414.64	1355.17
414.83	1418.36
415.02	1551.78
415.22	1504.96
415.41	1598.59
415.60	1530.71
415.79	1554.12
415.98	1577.52
416.17	1647.74
416.36	1490.92
416.55	1577.52
416.74	1610.29
416.93	1607.95
417.12	1736.68
417.31	1619.65
417.50	1724.97
417.69	1769.44
417.88	1706.25
418.07	1668.80
418.26	1858.39
418.45	1678.16
418.64	1746.04
418.83	1743.70
419.02	1804.55
419.21	1806.89
419.39	1849.02
419.58	1785.83
419.77	1778.81
419.96	1811.57
420.15	1921.58
420.34	1860.73
420.53	1839.66
420.72	1956.69
420.91	1959.03
421.10	1984.77
421.29	2057.33
421.48	1961.37
421.67	1989.46
421.86	1886.47
422.05	1923.92
422.24	1980.09
422.43	2026.90
422.61	1909.88
422.80	1916.90
422.99	1916.90
423.18	2080.74
423.37	2078.40
423.56	2153.29
423.75	1970.73
423.94	1966.05
424.13	1839.66
424.32	1952.01
424.50	2148.61
424.69	2099.46
424.88	2167.34
425.07	1926.26
425.26	1952.01
425.45	2012.86
425.64	2069.03
425.83	2026.90
426.01	2043.29
426.20	2078.40
426.39	2153.29
426.58	2031.58
426.77	2115.84
426.96	2113.50
427.15	2153.29
427.33	2057.33
427.52	2024.56
427.71	2111.16
427.90	2134.57
428.09	2153.29
428.28	2270.32
428.46	2139.25
428.65	2237.55
428.84	2277.34
429.03	2303.09
429.22	2174.36
429.40	2270.32
429.59	2319.47
429.78	2101.80
429.97	2090.10
430.16	2286.70
430.34	2377.98
430.53	2377.98
430.72	2363.94
430.91	2312.45
431.10	2375.64
431.28	2335.85
431.47	2326.49
431.66	2495.01
431.85	2497.35
432.03	2459.90
432.22	2539.48
432.41	2450.54
432.60	2452.88
432.79	2387.35
432.97	2349.90
433.16	2499.69
433.35	2480.97
433.54	2548.84
433.72	2555.86
433.91	2448.20
434.10	2483.31
434.28	2525.44
434.47	2717.36
434.66	2679.91
434.85	2509.05
435.03	2541.82
435.22	2668.21
435.41	2738.43
435.59	2729.06
435.78	2593.31
435.97	2656.51
436.16	2548.84
436.34	2733.75
436.53	2726.72
436.72	2686.94
436.90	2623.74
437.09	2808.64
437.28	2733.75
437.46	2768.85
437.65	2869.50
437.84	2745.45
438.02	2825.03
438.21	2773.53
438.40	2733.75
438.58	2932.69
438.77	2895.24
438.96	2808.64
439.14	2963.12
439.33	2818.00
439.52	3054.40
439.70	2902.26
439.89	3052.06
440.08	3035.67
440.26	3030.99
440.45	3049.72
440.63	3150.36
440.82	3218.24
441.01	3019.29
441.19	3176.11
441.38	3166.74
441.57	3208.87
441.75	3105.89
441.94	3375.05
442.12	3405.48
442.31	3316.54
442.50	3361.01
442.68	3325.90
442.87	3288.45
443.05	3433.57
443.24	3358.67
443.43	3391.44
443.61	3363.35
443.80	3534.21
443.98	3410.16
444.17	3297.81
444.35	3489.74
444.54	3379.73
444.73	3480.38
444.91	3419.52
445.10	3508.46
445.28	3466.33
445.47	3356.33
445.65	3499.10
445.84	3581.02
446.02	3517.83
446.21	3506.12
446.39	3527.19
446.58	3520.17
446.77	3531.87
446.95	3403.14
447.14	3468.67
447.32	3463.99
447.51	3442.93
447.69	3454.63
447.88	3454.63
448.06	3609.11
448.25	3524.85
448.43	3564.64
448.62	3536.55
448.80	3552.93
448.99	3688.68
449.17	3749.54
449.36	3597.40
449.54	3700.39
449.73	3747.20
449.91	3730.81
450.10	3756.56
450.28	3822.09
450.46	3789.33
450.65	3688.68
450.83	3796.35
451.02	3737.84
451.20	3920.40
451.39	3768.26
451.57	3864.22
451.76	3829.12
451.94	3744.86
452.13	3871.25
452.31	3889.97
452.49	3681.66
452.68	3985.93
452.86	3845.50
453.05	3852.52
453.23	4074.87
453.42	3730.81
453.60	3904.01
453.78	3946.14
453.97	3854.86
454.15	4007.00
454.34	4007.00
454.52	4131.05
454.70	3936.78
454.89	4074.87
455.07	4084.23
455.26	4107.64
455.44	4105.30
455.62	4166.15
455.81	4023.38
455.99	4255.09
456.17	4219.99
456.36	4191.90
456.54	4306.59
456.73	4262.12
456.91	4297.22
457.09	4222.33
457.28	4463.40
457.46	4238.71
457.64	4400.21
457.83	4402.55
458.01	4388.50
458.19	4393.19
458.38	4362.76
458.56	4519.57
458.74	4470.42
458.93	4393.19
459.11	4341.69
459.29	4454.04
459.48	4582.77
459.66	4435.32
459.84	4676.39
460.03	4709.16
460.21	4594.47
460.39	4379.14
460.57	4519.57
460.76	4657.67
460.94	4603.83
461.12	4704.48
461.31	4615.54
461.49	4718.52
461.67	4592.13
461.85	4751.29
462.04	4786.40
462.22	4788.74
462.40	4706.82
462.59	4793.42
462.77	4692.77
462.95	4814.48
463.13	4802.78
463.32	4861.29
463.50	4760.65
463.68	4933.85
463.86	4947.89
464.05	4755.97
464.23	4861.29
464.41	4772.35
464.59	4844.91
464.78	5085.98
464.96	4889.38
465.14	5018.11
465.32	5029.81
465.50	5055.56
465.69	5144.50
465.87	5060.24
466.05	5060.24
466.23	5184.29
466.41	5151.52
466.60	5093.01
466.78	4994.70
466.96	5053.22
467.14	5060.24
467.32	5060.24
467.51	5212.37
467.69	5008.75
467.87	5191.31
468.05	5076.62
468.23	5053.22
468.41	5193.65
468.60	5341.10
468.78	5280.25
468.96	5121.09
469.14	5224.08
469.32	5364.51
469.50	5308.34
469.69	5324.72
469.87	5605.58
470.05	5437.06
470.23	5518.98
470.41	5444.09
470.59	5446.43
470.77	5467.49
470.95	5416.00
471.14	5500.26
471.32	5526.00
471.50	5671.12
471.68	5579.84
471.86	5558.77
472.04	5659.42
472.22	5863.04
472.40	5551.75
472.58	5706.23
472.77	5760.06
472.95	5767.08
473.13	5949.64
473.31	5827.93
473.49	5891.13
473.67	5870.06
473.85	5893.47
474.03	6101.78
474.21	5951.98
474.39	6071.35
474.57	6057.31
474.75	6244.55
474.93	6209.44
475.12	6218.80
475.30	6078.37
475.48	6134.54
475.66	6155.61
475.84	6347.53
476.02	6382.64
476.20	6293.70
476.38	6487.96
476.56	6565.20
476.74	6689.25
476.92	6579.25
477.10	6537.12
477.28	6839.05
477.46	6558.18
477.64	6633.08
477.82	6836.70
478.00	6963.09
478.18	6998.20
478.36	6958.41
478.54	7012.24
478.72	7056.72
478.90	7208.85
479.08	7213.53
479.26	7112.89
479.44	7424.18
479.62	7428.86
479.80	7396.09
479.98	7616.10
480.16	7618.44
480.34	7538.87
480.52	7676.96
480.70	7590.36
480.88	7733.13
481.06	7796.32
481.24	7845.48
481.41	7896.97
481.59	7971.86
481.77	7997.61
481.95	8077.19
482.13	8138.04
482.31	8039.74
482.49	8318.26
482.67	8226.98
482.85	8362.73
483.03	8458.70
483.21	8734.88
483.39	8631.90
483.57	8690.41
483.74	8730.20
483.92	8767.65
484.10	8837.86
484.28	8695.09
484.46	8985.32
484.64	9200.65
484.82	9076.60
485.00	9139.79
485.18	9284.91
485.35	9434.70
485.53	9404.27
485.71	9647.69
485.89	9706.20
486.07	9451.08
486.25	9696.84
486.43	9738.97
486.61	9760.03
486.78	9905.15
486.96	10036.22
487.14	10031.54
487.32	10101.75
487.50	10129.84
487.68	10228.14
487.85	10331.12
488.03	10548.79
488.21	10738.38
488.39	10878.81
488.57	10539.43
488.75	10820.30
488.92	10860.09
489.10	10977.11
489.28	11119.89
489.46	11084.78
489.64	11089.46
489.81	11398.41
489.99	11169.04
490.17	11372.66
490.35	11405.43
490.53	11637.14
490.70	11676.93
490.88	11709.70
491.06	11662.89
491.24	11845.45
491.41	11744.81
491.59	12088.87
491.77	12046.74
491.95	12121.63
492.13	12329.94
492.30	12425.90
492.48	12313.56
492.66	12423.56
492.84	12517.18
493.01	12599.10
493.19	12863.58
493.37	12847.20
493.54	12798.05
493.72	13067.21
493.90	12854.22
494.08	12968.91
494.25	13153.81
494.43	13317.65
494.61	13373.82
494.79	13558.72
494.96	13380.84
495.14	13352.76
495.32	13584.47
495.49	13830.23
495.67	13666.39
495.85	13717.88
496.02	14024.49
496.20	13984.70
496.38	14181.31
496.55	13933.21
496.73	14637.71
496.91	13961.30
497.09	14200.03
497.26	14623.67
497.44	14370.89
497.62	14497.28
497.79	14782.82
497.97	14626.01
498.14	14658.78
498.32	14941.98
498.50	15037.94
498.67	14904.53
498.85	14953.68
499.03	15234.55
499.20	15016.88
499.38	15176.03
499.56	15311.78
499.73	15405.41
499.91	15393.70
500.08	15611.37
500.26	15330.51
500.44	15538.82
500.61	15775.21
500.79	15536.48
500.97	15868.83
501.14	15910.96
501.32	15950.75
501.49	15779.89
501.67	15845.43
501.84	15889.90
502.02	15747.12
502.20	16009.26
502.37	16360.34
502.55	16287.79
502.72	16248.00
502.90	16486.73
503.07	16273.74
503.25	16432.90
503.43	16283.11
503.60	16688.02
503.78	16666.95
503.95	16634.19
504.13	16957.18
504.30	17013.35
504.48	16610.78
504.65	16652.91
504.83	17130.38
505.01	17240.39
505.18	17015.69
505.36	17144.42
505.53	17020.38
505.71	17188.89
505.88	17092.93
506.06	17039.10
506.23	17352.73
506.41	17193.58
506.58	17514.23
506.76	17589.13
506.93	17579.76
507.11	17774.03
507.28	17633.60
507.46	17406.56
507.63	17774.03
507.81	18094.68
507.98	17909.78
508.16	18024.47
508.33	17982.34
508.50	18160.22
508.68	18295.97
508.85	18136.81
509.03	18148.51
509.20	18148.51
509.38	18698.54
509.55	18335.76
509.73	18553.43
509.90	18724.29
510.08	18469.17
510.25	18370.86
510.42	18649.39
510.60	18647.05
510.77	18764.07
510.95	18792.16
511.12	18721.95
511.30	18789.82
511.47	19173.67
511.64	18843.65
511.82	19091.75
511.99	19014.51
512.17	19047.28
512.34	19091.75
512.51	19204.10
512.69	19215.80
512.86	19187.71
513.04	19639.44
513.21	19639.44
513.38	19711.99
513.56	19417.08
513.73	19337.51
513.90	19482.62
514.08	19625.39
514.25	19960.09
514.43	19618.37
514.60	19829.02
514.77	19962.43
514.95	20184.78
515.12	19964.77
515.29	19880.51
515.47	20159.03
515.64	20360.32
515.81	20240.95
515.99	20306.49
516.16	20367.34
516.33	20294.79
516.51	20489.05
516.68	20091.16
516.85	20559.27
517.03	20521.82
517.20	20458.62
517.37	20812.04
517.54	20849.49
517.72	20673.95
517.89	20730.12
518.06	20929.07
518.24	20767.57
518.41	20940.77
518.58	20992.26
518.75	20875.24
518.93	21280.15
519.10	21090.57
519.27	21329.30
519.45	21032.05
519.62	21001.63
519.79	21245.04
519.96	21226.32
520.14	21273.13
520.31	21408.88
520.48	21268.45
520.65	21310.58
520.83	21895.71
521.00	21612.51
521.17	21809.11
521.34	21694.43
521.52	21905.07
521.69	21624.21
521.86	21860.60
522.03	22106.36
522.20	21923.80
522.38	22008.06
522.55	21816.13
522.72	21888.69
522.89	22178.92
523.07	22302.96
523.24	22235.09
523.41	22207.00
523.58	22120.40
523.75	22221.05
523.92	22136.79
524.10	22204.66
524.27	22616.60
524.44	22682.13
524.61	22808.52
524.78	22532.34
524.96	22586.17
525.13	22684.47
525.30	22548.72
525.47	22670.43
525.64	22878.74
525.81	22572.13
525.98	23026.19
526.16	23211.09
526.33	23044.91
526.50	22845.97
526.67	22602.55
526.84	22808.52
527.01	23407.70
527.18	22963.00
527.36	23400.68
527.53	23302.37
527.70	23454.51
527.87	23403.02
528.04	23344.50
528.21	23370.25
528.38	23353.87
528.55	23651.11
528.72	23349.18
528.89	23620.69
529.07	23456.85
529.24	23520.04
529.41	23686.22
529.58	23653.45
529.75	23403.02
529.92	23737.71
530.09	23831.33
530.26	23798.57
530.43	23931.98
530.60	23950.70
530.77	23854.74
530.94	23702.61
531.11	23936.66
531.28	24332.21
531.46	24091.13
531.63	23742.39
531.80	24222.20
531.97	24212.84
532.14	24053.69
532.31	24100.50
532.48	24311.14
532.65	24077.09
532.82	24390.72
532.99	24456.26
533.16	24175.39
533.33	24570.94
533.50	24751.17
533.67	24610.73
533.84	24496.05
534.01	24599.03
534.18	24395.40
534.35	24723.08
534.52	24559.24
534.69	24968.84
534.86	24903.30
535.03	24926.71
535.20	25015.65
535.37	24706.70
535.54	25179.48
535.71	24875.21
535.88	24900.96
536.05	24713.72
536.22	25085.86
536.38	25287.15
536.55	25013.31
536.72	25245.02
536.89	25097.56
537.06	25469.71
537.23	24837.76
537.40	25081.18
537.57	25472.05
537.74	25053.09
537.91	25626.53
538.08	25549.29
538.25	25343.32
538.42	25514.18
538.59	25500.14
538.75	25268.42
538.92	25500.14
539.09	25816.11
539.26	25724.83
539.43	25708.44
539.60	25659.29
539.77	25549.29
539.94	25862.92
540.11	25713.13
540.28	26038.46
540.44	25549.29
540.61	25752.91
540.78	25790.36
540.95	25818.45
541.12	26012.71
541.29	25839.51
541.46	26129.74
541.62	25933.14
541.79	26141.44
541.96	25827.81
542.13	25764.62
542.30	26136.76
542.47	26260.81
542.63	26183.57
542.80	26359.11
542.97	26340.39
543.14	26618.91
543.31	26225.70
543.48	26197.62
543.64	26838.92
543.81	26958.29
543.98	26859.99
544.15	26560.40
544.32	26759.34
544.48	27112.77
544.65	26487.84
544.82	26614.23
544.99	26518.27
545.16	26721.90
545.32	26785.09
545.49	26625.93
545.66	27332.78
545.83	26895.10
546.00	27349.16
546.16	27124.47
546.33	26941.91
546.50	26773.39
546.67	27204.05
546.83	26541.68
547.00	27115.11
547.17	27145.53
547.34	26969.99
547.50	27154.90
547.67	27435.76
547.84	27267.24
548.00	27353.84
548.17	27386.61
548.34	27087.02
548.51	27442.78
548.67	27538.74
548.84	27494.27
549.01	27145.53
549.18	27541.08
549.34	27370.22
549.51	27232.13
549.68	27248.52
549.84	27330.44
550.01	27594.92
550.18	27395.97
550.34	27641.73
550.51	27494.27
550.68	27587.89
550.84	27391.29
551.01	27658.11
551.18	27524.70
551.34	27704.92
551.51	27618.32
551.68	27618.32
551.84	27704.92
552.01	27571.51
552.18	27871.10
552.34	27821.95
552.51	27976.42
552.68	27915.57
552.84	27868.76
553.01	27805.56
553.18	27892.16
553.34	28266.65
553.51	28437.51
553.67	28051.32
553.84	28229.20
554.01	28226.86
554.17	28500.70
554.34	28009.19
554.51	28315.80
554.67	28402.40
554.84	28371.97
555.00	28601.35
555.17	28528.79
555.33	28774.55
555.50	28261.97
555.67	28182.39
555.83	28425.81
556.00	28664.54
556.16	28610.71
556.33	28362.61
556.50	28371.97
556.66	28566.24
556.83	28734.76
556.99	28716.03
557.16	28943.06
557.32	28968.81
557.49	28624.75
557.65	28453.89
557.82	28379.00
557.98	28439.85
558.15	28680.92
558.32	28559.22
558.48	28566.24
558.65	28613.05
558.81	28814.34
558.98	28535.81
559.14	29282.44
559.31	28718.37
559.47	28830.72
559.64	28889.23
559.80	28933.70
559.97	28669.22
560.13	29001.58
560.30	28701.99
560.46	28737.10
560.63	29287.12
560.79	28802.63
560.96	29479.05
561.12	29371.38
561.29	29074.13
561.45	29132.65
561.61	29024.98
561.78	29097.54
561.94	29167.76
562.11	29104.56
562.27	28929.02
562.44	29233.29
562.60	29032.00
562.77	29013.28
562.93	28961.79
563.10	29116.26
563.26	29479.05
563.42	29453.30
563.59	29385.43
563.75	29226.27
563.92	29315.21
564.08	28912.64
564.24	29167.76
564.41	29139.67
564.57	29003.92
564.74	29280.10
564.90	29397.13
565.07	29317.55
565.23	29514.16
565.39	29345.64
565.56	29394.79
565.72	28985.19
565.88	29106.90
566.05	29116.26
566.21	29467.34
566.38	29116.26
566.54	29617.14
566.70	29710.76
566.87	29607.78
567.03	29551.60
567.19	30010.35
567.36	29240.31
567.52	29809.06
567.68	29549.26
567.85	29172.44
568.01	29495.43
568.17	29259.04
568.34	29652.25
568.50	29591.39
568.66	29553.94
568.83	29862.90
568.99	29565.65
569.15	29610.12
569.32	29266.06
569.48	29694.38
569.64	29432.24
569.81	29701.40
569.97	29762.25
570.13	29965.88
570.30	29699.06
570.46	29575.01
570.62	29539.90
570.78	29582.03
570.95	29268.40
571.11	29582.03
571.27	29755.23
571.43	29628.84
571.60	29333.93
571.76	29783.32
571.92	29729.48
572.09	29649.91
572.25	29734.17
572.41	29844.17
572.57	30307.60
572.74	30113.33
572.90	29390.11
573.06	29727.14
573.22	30167.16
573.38	29813.74
573.55	29977.58
573.71	29993.97
573.87	29804.38
574.03	29680.33
574.20	29905.02
574.36	29567.99
574.52	29621.82
574.68	29788.00
574.84	29851.19
575.01	29919.07
575.17	30199.93
575.33	29923.75
575.49	29816.08
575.65	30008.01
575.82	30239.72
575.98	29834.81
576.14	30064.18
576.30	29951.84
576.46	29809.06
576.62	30050.14
576.79	29820.77
576.95	29993.97
577.11	30029.07
577.27	29979.92
577.43	30223.34
577.59	30064.18
577.75	29802.04
577.92	30101.63
578.08	29848.85
578.24	29809.06
578.40	30012.69
578.56	29912.05
578.72	30094.61
578.88	30377.81
579.04	30469.09
579.21	30054.82
579.37	29799.70
579.53	29823.11
579.69	30054.82
579.85	29357.34
580.01	29961.20
580.17	29628.84
580.33	29804.38
580.49	30192.91
580.65	30441.01
580.82	30143.76
580.98	29977.58
581.14	30010.35
581.30	30176.53
581.46	29771.61
581.62	30113.33
581.78	29905.02
581.94	30080.56
582.10	29640.54
582.26	29717.78
582.42	30120.35
582.58	30075.88
582.74	29986.94
582.90	29975.24
583.06	30340.36
583.22	30146.10
583.38	30092.27
583.54	30150.78
583.70	30132.06
583.86	30225.68
584.02	30059.50
584.18	30115.67
584.34	30164.82
584.50	30197.59
584.66	30464.41
584.82	29799.70
584.98	30396.54
585.14	30050.14
585.30	30143.76
585.46	30038.44
585.62	30057.16
585.78	30199.93
585.94	29771.61
586.10	29902.68
586.26	30424.62
586.42	29869.92
586.58	30263.13
586.74	30244.40
586.90	29958.86
587.06	30188.23
587.22	30143.76
587.38	29865.24
587.54	30141.42
587.70	30075.88
587.86	30478.46
588.02	30565.06
588.18	30155.46
588.34	30319.30
588.49	30061.84
588.65	30525.27
588.81	29996.31
588.97	30087.59
589.13	30398.88
589.29	30356.75
589.45	30134.40
589.61	30682.08
589.77	30305.26
589.93	30604.84
590.08	30546.33
590.24	30682.08
590.40	30483.14
590.56	30614.21
590.72	30590.80
590.88	30139.08
591.04	30354.41
591.20	30628.25
591.35	30731.23
591.51	30382.49
591.67	30874.01
591.83	31089.34
591.99	30593.14
