SpectraSuite Data File
++++++++++++++++++++++++++++++++++++
Date: Fri Oct 18 13:57:58 GMT-05:00 2013
User: bianchi
Dark Spectrum Present: No
Reference Spectrum Present: No
Number of Sampled Component Spectra: 1
Spectrometers: USB2+H05261
Integration Time (usec): 50000 (USB2+H05261)
Spectra Averaged: 1 (USB2+H05261)
Boxcar Smoothing: 0 (USB2+H05261)
Correct for Electrical Dark: No (USB2+H05261)
Strobe/Lamp Enabled: No (USB2+H05261)
Correct for Detector Non-linearity: No (USB2+H05261)
Correct for Stray Light: No (USB2+H05261)
Number of Pixels in Processed Spectrum: 2048
>>>>>Begin Processed Spectral Data<<<<<
365.73	0.00
365.92	0.00
366.12	0.00
366.32	0.00
366.52	0.00
366.72	0.00
366.91	0.00
367.11	0.00
367.31	0.00
367.51	0.00
367.70	0.00
367.90	0.00
368.10	0.00
368.30	0.00
368.49	0.00
368.69	0.00
368.89	0.00
369.09	0.00
369.28	0.00
369.48	0.00
369.68	0.00
369.87	0.00
370.07	0.00
370.27	0.00
370.47	0.00
370.66	30.43
370.86	100.64
371.06	112.35
371.25	191.92
371.45	161.50
371.65	124.05
371.84	147.45
372.04	145.11
372.24	147.45
372.44	163.84
372.63	159.16
372.83	210.65
373.03	110.01
373.22	189.58
373.42	238.73
373.62	217.67
373.81	255.12
374.01	227.03
374.21	243.42
374.40	255.12
374.60	306.61
374.79	222.35
374.99	166.18
375.19	311.29
375.38	259.80
375.58	194.26
375.78	236.39
375.97	187.24
376.17	273.84
376.37	262.14
376.56	358.10
376.76	264.48
376.95	273.84
377.15	369.80
377.35	264.48
377.54	271.50
377.74	332.36
377.93	313.63
378.13	304.27
378.33	220.01
378.52	271.50
378.72	306.61
378.91	264.48
379.11	308.95
379.31	273.84
379.50	278.52
379.70	311.29
379.89	383.85
380.09	292.57
380.28	306.61
380.48	234.05
380.68	360.44
380.87	339.38
381.07	397.89
381.26	360.44
381.46	308.95
381.65	339.38
381.85	297.25
382.04	332.36
382.24	374.49
382.43	348.74
382.63	339.38
382.83	346.40
383.02	421.30
383.22	346.40
383.41	351.08
383.61	330.02
383.80	390.87
384.00	341.72
384.19	430.66
384.39	489.17
384.58	423.64
384.78	365.12
384.97	383.85
385.17	353.42
385.36	393.21
385.56	341.72
385.75	372.15
385.95	379.17
386.14	393.21
386.34	353.42
386.53	334.70
386.72	449.38
386.92	425.98
387.11	393.21
387.31	440.02
387.50	379.17
387.70	458.74
387.89	454.06
388.09	486.83
388.28	538.32
388.48	454.06
388.67	540.66
388.86	521.94
389.06	374.49
389.25	454.06
389.45	418.96
389.64	479.81
389.84	470.45
390.03	496.19
390.22	418.96
390.42	477.47
390.61	435.34
390.81	451.72
391.00	449.38
391.19	550.03
391.39	451.72
391.58	484.49
391.78	472.79
391.97	470.45
392.16	503.22
392.36	479.81
392.55	519.60
392.75	571.09
392.94	524.28
393.13	547.69
393.33	592.16
393.52	582.79
393.71	627.26
393.91	566.41
394.10	596.84
394.29	519.60
394.49	545.34
394.68	631.94
394.88	622.58
395.07	496.19
395.26	643.65
395.46	657.69
395.65	585.13
395.84	627.26
396.04	657.69
396.23	667.05
396.42	606.20
396.62	596.84
396.81	676.41
397.00	674.07
397.19	718.54
397.39	641.31
397.58	653.01
397.77	702.16
397.97	664.71
398.16	702.16
398.35	746.63
398.55	716.20
398.74	688.12
398.93	746.63
399.12	713.86
399.32	706.84
399.51	716.20
399.70	884.72
399.90	755.99
400.09	660.03
400.28	802.80
400.47	741.95
400.67	814.51
400.86	725.57
401.05	753.65
401.24	851.96
401.44	784.08
401.63	868.34
401.82	844.93
402.01	830.89
402.21	800.46
402.40	833.23
402.59	802.80
402.78	966.64
402.97	915.15
403.17	940.90
403.36	837.91
403.55	767.70
403.74	915.15
403.93	940.90
404.13	971.32
404.32	1090.69
404.51	898.77
404.70	952.60
404.89	901.11
405.09	1034.52
405.28	884.72
405.47	961.96
405.66	971.32
405.85	1027.50
406.05	929.19
406.24	997.07
406.43	997.07
406.62	985.37
406.81	1076.65
407.00	976.00
407.20	999.41
407.39	1053.24
407.58	1043.88
407.77	1097.71
407.96	1118.78
408.15	1109.41
408.34	1097.71
408.54	1053.24
408.73	1109.41
408.92	1137.50
409.11	1165.59
409.30	1125.80
409.49	1306.02
409.68	1233.46
409.87	1191.33
410.07	1207.72
410.26	1249.85
410.45	1359.85
410.64	1203.04
410.83	1219.42
411.02	1231.12
411.21	1252.19
411.40	1219.42
411.59	1299.00
411.78	1259.21
411.98	1350.49
412.17	1364.53
412.36	1240.48
412.55	1441.77
412.74	1317.72
412.93	1437.09
413.12	1369.21
413.31	1359.85
413.50	1366.87
413.69	1439.43
413.88	1465.18
414.07	1383.26
414.26	1420.71
414.45	1561.14
414.64	1439.43
414.83	1549.43
415.02	1549.43
415.22	1572.84
415.41	1664.12
415.60	1526.03
415.79	1621.99
415.98	1603.27
416.17	1739.02
416.36	1659.44
416.55	1624.33
416.74	1682.85
416.93	1626.67
417.12	1638.38
417.31	1682.85
417.50	1650.08
417.69	1750.72
417.88	1753.06
418.07	1792.85
418.26	1727.32
418.45	1764.76
418.64	1785.83
418.83	1863.07
419.02	1827.96
419.21	1825.62
419.39	1963.71
419.58	1781.15
419.77	1813.92
419.96	1811.57
420.15	1947.33
420.34	1933.28
420.53	1865.41
420.72	1987.11
420.91	1912.22
421.10	2066.69
421.29	2022.22
421.48	2015.20
421.67	2003.50
421.86	1963.71
422.05	2022.22
422.24	1975.41
422.43	1956.69
422.61	2085.42
422.80	2132.23
422.99	2019.88
423.18	2066.69
423.37	2054.99
423.56	2064.35
423.75	2003.50
423.94	2062.01
424.13	1912.22
424.32	1989.46
424.50	2069.03
424.69	2118.18
424.88	2181.38
425.07	2083.08
425.26	2050.31
425.45	2008.18
425.64	2036.27
425.83	1987.11
426.01	2188.40
426.20	2153.29
426.39	2129.89
426.58	2141.59
426.77	2099.46
426.96	2148.61
427.15	2155.63
427.33	2228.19
427.52	2162.66
427.71	2146.27
427.90	2209.47
428.09	2218.83
428.28	2289.04
428.46	2235.21
428.65	2237.55
428.84	2310.11
429.03	2239.89
429.22	2174.36
429.40	2328.83
429.59	2267.98
429.78	2214.15
429.97	2286.70
430.16	2216.49
430.34	2230.53
430.53	2333.51
430.72	2303.09
430.91	2394.37
431.10	2420.11
431.28	2401.39
431.47	2368.62
431.66	2448.20
431.85	2424.80
432.03	2499.69
432.22	2389.69
432.41	2497.35
432.60	2509.05
432.79	2516.08
432.97	2555.86
433.16	2548.84
433.35	2537.14
433.54	2429.48
433.72	2509.05
433.91	2490.33
434.10	2588.63
434.28	2590.97
434.47	2537.14
434.66	2553.52
434.85	2600.34
435.03	2684.59
435.22	2612.04
435.41	2813.32
435.59	2689.28
435.78	2691.62
435.97	2630.76
436.16	2656.51
436.34	2750.13
436.53	2703.32
436.72	2766.51
436.90	2743.11
437.09	2810.98
437.28	2693.96
437.46	2806.30
437.65	2792.26
437.84	2766.51
438.02	2806.30
438.21	2813.32
438.40	2843.75
438.58	2965.46
438.77	2895.24
438.96	2890.56
439.14	3068.44
439.33	3091.85
439.52	2899.92
439.70	3094.19
439.89	3131.64
440.08	3143.34
440.26	3075.46
440.45	3129.30
440.63	3112.91
440.82	3173.77
441.01	3197.17
441.19	3227.60
441.38	3141.00
441.57	3297.81
441.75	3297.81
441.94	3171.43
442.12	3229.94
442.31	3309.52
442.50	3370.37
442.68	3307.18
442.87	3325.90
443.05	3403.14
443.24	3435.91
443.43	3449.95
443.61	3396.12
443.80	3559.95
443.98	3424.20
444.17	3400.80
444.35	3398.46
444.54	3482.72
444.73	3440.59
444.91	3426.54
445.10	3499.10
445.28	3508.46
445.47	3510.80
445.65	3442.93
445.84	3524.85
446.02	3641.87
446.21	3658.26
446.39	3433.57
446.58	3653.58
446.77	3719.11
446.95	3372.71
447.14	3581.02
447.32	3609.11
447.51	3517.83
447.69	3541.23
447.88	3847.84
448.06	3581.02
448.25	3585.70
448.43	3585.70
448.62	3562.30
448.80	3576.34
448.99	3492.08
449.17	3695.71
449.36	3686.34
449.54	3726.13
449.73	3840.82
449.91	3756.56
450.10	3705.07
450.28	3866.56
450.46	3786.99
450.65	3866.56
450.83	3770.60
451.02	4007.00
451.20	3953.16
451.39	3904.01
451.57	3925.08
451.76	3775.28
451.94	3922.74
452.13	3943.80
452.31	3824.44
452.49	3859.54
452.68	3997.64
452.86	3854.86
453.05	3992.95
453.23	4032.74
453.42	4159.13
453.60	3964.87
453.78	4063.17
453.97	4049.13
454.15	3997.64
454.34	4021.04
454.52	4145.09
454.70	4217.65
454.89	4124.02
455.07	4152.11
455.26	4163.81
455.44	4159.13
455.62	3999.98
455.81	3976.57
455.99	4086.58
456.17	4229.35
456.36	4280.84
456.54	4262.12
456.73	4451.70
456.91	4374.46
457.09	4404.89
457.28	4407.23
457.46	4353.40
457.64	4437.66
457.83	4423.61
458.01	4353.40
458.19	4550.00
458.38	4418.93
458.56	4615.54
458.74	4390.84
458.93	4498.51
459.11	4519.57
459.29	4475.10
459.48	4493.83
459.66	4538.30
459.84	4774.69
460.03	4667.03
460.21	4741.93
460.39	4592.13
460.57	4624.90
460.76	4540.64
460.94	4718.52
461.12	4861.29
461.31	4599.15
461.49	4688.09
461.67	4655.33
461.85	4807.46
462.04	4830.87
462.22	5006.41
462.40	4983.00
462.59	4887.04
462.77	4847.25
462.95	4837.89
463.13	4816.82
463.32	5006.41
463.50	4945.55
463.68	5022.79
463.86	4980.66
464.05	4997.04
464.23	5032.15
464.41	5078.96
464.59	4947.89
464.78	5233.44
464.96	5071.94
465.14	4933.85
465.32	5097.69
465.50	4968.96
465.69	4931.51
465.87	5160.88
466.05	5167.90
466.23	5198.33
466.41	5057.90
466.60	5268.55
466.78	5282.59
466.96	4990.02
467.14	5083.64
467.32	5275.57
467.51	5322.38
467.69	5160.88
467.87	5460.47
468.05	5240.46
468.23	5287.27
468.41	5217.05
468.60	5298.97
468.78	5418.34
468.96	5341.10
469.14	5507.28
469.32	5617.29
469.50	5259.18
469.69	5493.24
469.87	5526.00
470.05	5664.10
470.23	5563.45
470.41	5572.82
470.59	5434.72
470.77	5488.56
470.95	5605.58
471.14	5645.37
471.32	5509.62
471.50	5781.12
471.68	5769.42
471.86	5694.52
472.04	5661.76
472.22	5984.75
472.40	5858.36
472.58	5870.06
472.77	5804.53
472.95	5926.24
473.13	6097.10
473.31	6005.81
473.49	5783.46
473.67	5926.24
473.85	5940.28
474.03	6139.23
474.21	5933.26
474.39	6413.07
474.57	6263.27
474.75	6139.23
474.93	6422.43
475.12	6153.27
475.30	6190.72
475.48	6237.53
475.66	6277.32
475.84	6434.13
476.02	6499.67
476.20	6466.90
476.38	6630.74
476.56	6768.83
476.74	6712.66
476.92	6754.79
477.10	6633.08
477.28	6787.55
477.46	6715.00
477.64	6967.77
477.82	6939.69
478.00	7148.00
478.18	7082.46
478.36	7056.72
478.54	7349.28
478.72	7351.62
478.90	7262.68
479.08	7323.54
479.26	7358.64
479.44	7557.59
479.62	7396.09
479.80	7445.24
479.98	7592.70
480.16	7763.56
480.34	7428.86
480.52	7770.58
480.70	7735.47
480.88	7763.56
481.06	7861.86
481.24	8086.55
481.41	7918.03
481.59	8035.06
481.77	8238.69
481.95	8222.30
482.13	8346.35
482.31	8423.59
482.49	8547.64
482.67	8573.38
482.85	8507.85
483.03	8671.68
483.21	8547.64
483.39	8802.75
483.57	8524.23
483.74	8952.55
483.92	8865.95
484.10	8807.44
484.28	8877.65
484.46	9240.44
484.64	9334.06
484.82	9284.91
485.00	9364.48
485.18	9385.55
485.35	9542.36
485.53	9568.11
485.71	9687.48
485.89	9678.12
486.07	9738.97
486.25	9668.75
486.43	9731.95
486.61	9893.44
486.78	10066.64
486.96	10375.59
487.14	10183.67
487.32	10251.55
487.50	10375.59
487.68	10417.72
487.85	10656.46
488.03	10820.30
488.21	10780.51
488.39	10860.09
488.57	10630.71
488.75	11143.29
488.92	11054.35
489.10	11164.36
489.28	11382.03
489.46	11433.52
489.64	11566.93
489.81	11712.04
489.99	11550.54
490.17	11613.74
490.35	11889.92
490.53	11777.58
490.70	11948.43
490.88	11817.36
491.06	12248.02
491.24	11929.71
491.41	12210.57
491.59	12114.61
491.77	12367.39
491.95	12430.59
492.13	12453.99
492.30	12402.50
492.48	12690.38
492.66	12489.10
492.84	12578.04
493.01	12898.69
493.19	12903.37
493.37	13081.25
493.54	13329.35
493.72	13123.38
493.90	13334.03
494.08	13364.46
494.25	13586.81
494.43	13547.02
494.61	13680.43
494.79	13926.19
494.96	13867.67
495.14	13736.60
495.32	13729.58
495.49	14036.19
495.67	13923.85
495.85	13898.10
496.02	14108.75
496.20	14363.87
496.38	14335.78
496.55	14483.24
496.73	14614.30
496.91	14473.87
497.09	14518.34
497.26	14925.60
497.44	14759.42
497.62	14766.44
497.79	14902.19
497.97	15124.54
498.14	15262.63
498.32	14932.62
498.50	15342.21
498.67	15379.66
498.85	15377.32
499.03	15262.63
499.20	15286.04
499.38	15477.96
499.56	15772.87
499.73	15695.63
499.91	15590.31
500.08	15700.31
500.26	15761.17
500.44	16025.65
500.61	15896.92
500.79	16004.58
500.97	15913.30
501.14	16416.52
501.32	16278.43
501.49	16395.45
501.67	16100.55
501.84	16210.55
502.02	16353.32
502.20	16559.29
502.37	16683.34
502.55	16580.36
502.72	16505.46
502.90	16327.58
503.07	16606.10
503.25	16592.06
503.43	16929.09
503.60	16812.07
503.78	17135.06
503.95	17195.92
504.13	17018.04
504.30	17099.95
504.48	16985.27
504.65	17106.98
504.83	17413.59
505.01	17539.97
505.18	17202.94
505.36	17743.60
505.53	17167.83
505.71	17441.67
505.88	17645.30
506.06	17547.00
506.23	17476.78
506.41	17645.30
506.58	17645.30
506.76	17935.53
506.93	17844.24
507.11	17694.45
507.28	17792.75
507.46	17900.42
507.63	18150.85
507.81	18448.10
507.98	18075.96
508.16	18242.14
508.33	17865.31
508.50	18342.78
508.68	18408.31
508.85	18661.09
509.03	18743.01
509.20	18480.87
509.38	18672.79
509.55	18878.76
509.73	18766.42
509.90	18869.40
510.08	18958.34
510.25	18902.17
510.42	18977.06
510.60	18796.84
510.77	19124.52
510.95	19208.78
511.12	18993.45
511.30	19215.80
511.47	19061.32
511.64	19524.75
511.82	19571.56
511.99	19384.32
512.17	19520.07
512.34	19363.25
512.51	19681.56
512.69	19681.56
512.86	19578.58
513.04	19936.68
513.21	19917.96
513.38	19927.32
513.56	19819.66
513.73	19700.29
513.90	20077.12
514.08	20086.48
514.25	19955.41
514.43	20301.81
514.60	20421.17
514.77	20407.13
514.95	20456.28
515.12	20493.73
515.29	20280.74
515.47	20439.90
515.64	20390.75
515.81	20730.12
515.99	20498.41
516.16	20879.92
516.33	20879.92
516.51	20929.07
516.68	20805.02
516.85	21027.37
517.03	20940.77
517.20	21039.08
517.37	20886.94
517.54	21500.16
517.72	21088.23
517.89	21053.12
518.06	21357.39
518.24	21067.16
518.41	20922.05
518.58	21123.33
518.75	21607.83
518.93	21458.03
519.10	21673.36
519.27	21689.74
519.45	21556.33
519.62	21488.46
519.79	21240.36
519.96	21668.68
520.14	21876.99
520.31	21736.56
520.48	21900.39
520.65	21806.77
520.83	21907.41
521.00	21865.28
521.17	21785.71
521.34	21867.63
521.52	21804.43
521.69	21912.10
521.86	21788.05
522.03	22370.84
522.20	22164.87
522.38	22457.44
522.55	22176.58
522.72	22331.05
522.89	22408.29
523.07	22551.06
523.24	22668.09
523.41	22675.11
523.58	22438.72
523.75	22691.49
523.92	22630.64
524.10	22513.61
524.27	23000.44
524.44	23117.47
524.61	22979.38
524.78	23117.47
524.96	22909.16
525.13	23000.44
525.30	23257.90
525.47	23098.75
525.64	23119.81
525.81	23227.48
525.98	23391.31
526.16	23473.23
526.33	23426.42
526.50	23765.80
526.67	23063.64
526.84	23456.85
527.01	23173.64
527.18	23648.77
527.36	23267.27
527.53	23716.65
527.70	24077.09
527.87	23880.49
528.04	23939.00
528.21	23840.70
528.38	23779.84
528.55	23695.58
528.72	23941.34
528.89	23805.59
529.07	23847.72
529.24	23784.52
529.41	24105.18
529.58	24112.20
529.75	24170.71
529.92	24166.03
530.09	24184.76
530.26	24063.05
530.43	24283.06
530.60	23807.93
530.77	24517.11
530.94	24166.03
531.11	24086.45
531.28	24453.92
531.46	24528.81
531.63	24594.35
531.80	24774.57
531.97	24877.55
532.14	24664.57
532.31	24435.19
532.48	24500.73
532.65	24989.90
532.82	24924.36
532.99	24776.91
533.16	24624.78
533.33	25104.59
533.50	25198.21
533.67	24922.02
533.84	24903.30
534.01	24884.58
534.18	24606.05
534.35	25263.74
534.52	25146.72
534.69	25219.27
534.86	25530.56
535.03	25181.82
535.20	25514.18
535.37	25373.75
535.54	25453.33
535.71	25635.89
535.88	25490.77
536.05	25605.46
536.22	25572.69
536.38	25809.09
536.55	25455.67
536.72	25703.76
536.89	25385.45
537.06	25336.30
537.23	25680.36
537.40	25614.82
537.57	25715.47
537.74	25647.59
537.91	26082.93
538.08	26141.44
538.25	25701.42
538.42	25893.35
538.59	25628.87
538.75	25745.89
538.92	26195.28
539.09	26185.91
539.26	26146.12
539.43	26185.91
539.60	26361.45
539.77	26157.83
539.94	26288.90
540.11	25802.07
540.28	26167.19
540.44	26258.47
540.61	26167.19
540.78	26059.52
540.95	26415.29
541.12	26377.84
541.29	26506.57
541.46	26277.19
541.62	26335.71
541.79	26408.26
541.96	26132.08
542.13	26443.37
542.30	26789.77
542.47	26565.08
542.63	26794.45
542.80	26838.92
542.97	27145.53
543.14	27063.61
543.31	27206.39
543.48	26827.22
543.64	27138.51
543.81	26974.67
543.98	27328.10
544.15	27276.60
544.32	27164.26
544.48	27147.87
544.65	27253.20
544.82	27307.03
544.99	27028.51
545.16	27089.36
545.32	27257.88
545.49	27292.99
545.66	27417.04
545.83	27321.07
546.00	27697.90
546.16	27276.60
546.33	27744.71
546.50	27295.33
546.67	27484.91
546.83	27410.01
547.00	27452.14
547.17	27697.90
547.34	27716.62
547.50	27653.43
547.67	28271.33
547.84	27807.90
548.00	27665.13
548.17	27981.10
548.34	27445.12
548.51	27950.68
548.67	27950.68
548.84	28240.90
549.01	27618.32
549.18	28084.09
549.34	28016.21
549.51	28437.51
549.68	28030.26
549.84	28091.11
550.01	28023.23
550.18	28041.96
550.34	28048.98
550.51	28046.64
550.68	28084.09
550.84	28037.28
551.01	28168.35
551.18	28142.60
551.34	28170.69
551.51	28257.29
551.68	27990.47
551.84	28341.55
552.01	28243.24
552.18	28432.83
552.34	28088.77
552.51	28692.63
552.68	28570.92
552.84	28535.81
553.01	28215.16
553.18	28716.03
553.34	28732.42
553.51	28706.67
553.67	28687.95
553.84	29057.75
554.01	28622.41
554.17	28613.05
554.34	28837.74
554.51	28765.18
554.67	28554.54
554.84	28779.23
555.00	29048.39
555.17	28842.42
555.33	29010.94
555.50	28893.91
555.67	28980.51
555.83	29067.11
556.00	28858.81
556.16	29425.22
556.33	29137.33
556.50	28964.13
556.66	29202.86
556.83	29099.88
556.99	29736.51
557.16	29146.69
557.32	29144.35
557.49	29546.92
557.65	29212.23
557.82	29163.08
557.98	29064.77
558.15	29263.72
558.32	29230.95
558.48	29221.59
558.65	29219.25
558.81	29404.15
558.98	29450.96
559.14	29450.96
559.31	29317.55
559.47	29006.26
559.64	29626.50
559.80	29708.42
559.97	29270.74
560.13	29008.60
560.30	29411.17
560.46	29516.50
560.63	29413.51
560.79	29385.43
560.96	29720.12
561.12	29259.04
561.29	29436.92
561.45	29273.08
561.61	29614.80
561.78	29734.17
561.94	29848.85
562.11	29755.23
562.27	29888.64
562.44	29132.65
562.60	29596.07
562.77	29766.93
562.93	29415.85
563.10	29638.20
563.26	29567.99
563.42	30340.36
563.59	29806.72
563.75	30176.53
563.92	29839.49
564.08	29558.63
564.24	29577.35
564.41	29839.49
564.57	30036.09
564.74	29944.81
564.90	29717.78
565.07	30239.72
565.23	30108.65
565.39	30087.59
565.56	30143.76
565.72	29846.51
565.88	29947.15
566.05	30029.07
566.21	29998.65
566.38	30043.12
566.54	29661.61
566.70	30272.49
566.87	30593.14
567.03	30153.12
567.19	30590.80
567.36	30331.00
567.52	29977.58
567.68	30499.52
567.85	29724.80
568.01	30352.07
568.17	29965.88
568.34	30178.87
568.50	30459.73
568.66	30389.52
568.83	30562.72
568.99	30618.89
569.15	29954.18
569.32	30508.88
569.48	30171.85
569.64	30394.20
569.81	30670.38
569.97	30300.58
570.13	30497.18
570.30	30508.88
570.46	30541.65
570.62	30328.66
570.78	30417.60
570.95	30185.89
571.11	30361.43
571.27	30228.02
571.43	30171.85
571.60	30300.58
571.76	30499.52
571.92	30202.27
572.09	30572.08
572.25	30572.08
572.41	30415.26
572.57	30352.07
572.74	30541.65
572.90	30340.36
573.06	30230.36
573.22	30209.29
573.38	30384.83
573.55	30286.53
573.71	30836.56
573.87	30562.72
574.03	30726.55
574.20	30806.13
574.36	30628.25
574.52	30539.31
574.68	30473.78
574.84	30637.61
575.01	30726.55
575.17	30340.36
575.33	30436.33
575.49	30558.03
575.65	30450.37
575.82	30316.96
575.98	30448.03
576.14	30700.81
576.30	30569.74
576.46	30520.59
576.62	30305.26
576.79	30391.86
576.95	30710.17
577.11	30684.42
577.27	30433.99
577.43	30679.74
577.59	30754.64
577.75	30614.21
577.92	30384.83
578.08	30335.68
578.24	30621.23
578.40	30583.78
578.56	30546.33
578.72	30419.94
578.88	31030.82
579.04	30672.72
579.21	30824.86
579.37	30899.75
579.53	30583.78
579.69	30642.29
579.85	30710.17
580.01	30911.46
580.17	30452.71
580.33	30558.03
580.49	30529.95
580.65	30728.89
580.82	30532.29
580.98	30588.46
581.14	30551.01
581.30	31131.47
581.46	30654.00
581.62	30904.43
581.78	30661.02
581.94	30775.70
582.10	30501.86
582.26	30897.41
582.42	30513.56
582.58	31187.64
582.74	30703.15
582.90	30953.58
583.06	30991.03
583.22	30726.55
583.38	30733.57
583.54	30632.93
583.70	31180.62
583.86	30930.18
584.02	30572.08
584.18	30742.94
584.34	30969.97
584.50	30822.51
584.66	30890.39
584.82	30518.25
584.98	30302.92
585.14	31253.17
585.30	30508.88
585.46	30831.88
585.62	30855.28
585.78	30663.36
585.94	30639.95
586.10	31112.74
586.26	31133.81
586.42	31028.48
586.58	31058.91
586.74	30822.51
586.90	30689.10
587.06	30583.78
587.22	30558.03
587.38	31227.43
587.54	30731.23
587.70	31225.09
587.86	31187.64
588.02	31143.17
588.18	31234.45
588.34	31161.89
588.49	31159.55
588.65	30827.20
588.81	30649.32
588.97	31096.36
589.13	30876.35
589.29	30810.81
589.45	31285.94
589.61	31391.26
589.77	31133.81
589.93	31309.35
590.08	30852.94
590.24	31384.24
590.40	31353.82
590.56	31054.23
590.72	31192.32
590.88	31037.84
591.04	31063.59
591.20	31391.26
591.35	31463.82
591.51	31482.55
591.67	31370.20
591.83	31545.74
591.99	31351.48
