SpectraSuite Data File
++++++++++++++++++++++++++++++++++++
Date: Fri Oct 18 13:57:58 GMT-05:00 2013
User: bianchi
Dark Spectrum Present: No
Reference Spectrum Present: No
Number of Sampled Component Spectra: 1
Spectrometers: USB2+H05261
Integration Time (usec): 50000 (USB2+H05261)
Spectra Averaged: 1 (USB2+H05261)
Boxcar Smoothing: 0 (USB2+H05261)
Correct for Electrical Dark: No (USB2+H05261)
Strobe/Lamp Enabled: No (USB2+H05261)
Correct for Detector Non-linearity: No (USB2+H05261)
Correct for Stray Light: No (USB2+H05261)
Number of Pixels in Processed Spectrum: 2048
>>>>>Begin Processed Spectral Data<<<<<
365.73	0.00
365.92	0.00
366.12	0.00
366.32	0.00
366.52	0.00
366.72	0.00
366.91	0.00
367.11	0.00
367.31	0.00
367.51	0.00
367.70	0.00
367.90	0.00
368.10	0.00
368.30	0.00
368.49	0.00
368.69	0.00
368.89	0.00
369.09	0.00
369.28	0.00
369.48	0.00
369.68	0.00
369.87	0.00
370.07	0.00
370.27	0.00
370.47	0.00
370.66	53.83
370.86	77.24
371.06	105.32
371.25	189.58
371.45	149.79
371.65	93.62
371.84	147.45
372.04	140.43
372.24	210.65
372.44	168.52
372.63	248.10
372.83	189.58
373.03	152.13
373.22	194.26
373.42	271.50
373.62	191.92
373.81	201.29
374.01	224.69
374.21	245.76
374.40	245.76
374.60	313.63
374.79	217.67
374.99	306.61
375.19	252.78
375.38	215.33
375.58	222.35
375.78	259.80
375.97	269.16
376.17	351.08
376.37	327.68
376.56	269.16
376.76	285.55
376.95	220.01
377.15	215.33
377.35	294.91
377.54	313.63
377.74	236.39
377.93	257.46
378.13	224.69
378.33	276.18
378.52	271.50
378.72	299.59
378.91	297.25
379.11	358.10
379.31	313.63
379.50	280.86
379.70	248.10
379.89	299.59
380.09	231.71
380.28	315.97
380.48	262.14
380.68	285.55
380.87	250.44
381.07	320.65
381.26	264.48
381.46	299.59
381.65	327.68
381.85	290.23
382.04	271.50
382.24	365.12
382.43	353.42
382.63	327.68
382.83	367.46
383.02	285.55
383.22	341.72
383.41	332.36
383.61	367.46
383.80	409.59
384.00	304.27
384.19	348.74
384.39	388.53
384.58	437.68
384.78	463.43
384.97	433.00
385.17	353.42
385.36	334.70
385.56	374.49
385.75	365.12
385.95	470.45
386.14	496.19
386.34	442.36
386.53	339.38
386.72	411.93
386.92	421.30
387.11	456.40
387.31	395.55
387.50	505.56
387.70	433.00
387.89	414.27
388.09	418.96
388.28	404.91
388.48	505.56
388.67	463.43
388.86	486.83
389.06	472.79
389.25	395.55
389.45	449.38
389.64	531.30
389.84	468.11
390.03	479.81
390.22	416.62
390.42	500.87
390.61	449.38
390.81	393.21
391.00	421.30
391.19	526.62
391.39	568.75
391.58	512.58
391.78	517.26
391.97	465.77
392.16	547.69
392.36	575.77
392.55	554.71
392.75	564.07
392.94	545.34
393.13	559.39
393.33	587.47
393.52	519.60
393.71	608.54
393.91	517.26
394.10	587.47
394.29	620.24
394.49	608.54
394.68	582.79
394.88	596.84
395.07	603.86
395.26	624.92
395.46	636.63
395.65	718.54
395.84	734.93
396.04	664.71
396.23	592.16
396.42	671.73
396.62	685.78
396.81	741.95
397.00	648.33
397.19	667.05
397.39	690.46
397.58	800.46
397.77	629.60
397.97	660.03
398.16	667.05
398.35	674.07
398.55	763.01
398.74	725.57
398.93	812.17
399.12	734.93
399.32	741.95
399.51	755.99
399.70	784.08
399.90	713.86
400.09	753.65
400.28	830.89
400.47	856.64
400.67	760.67
400.86	765.36
401.05	767.70
401.24	875.36
401.44	833.23
401.63	821.53
401.82	856.64
402.01	830.89
402.21	861.32
402.40	821.53
402.59	816.85
402.78	868.34
402.97	945.58
403.17	847.27
403.36	866.00
403.55	746.63
403.74	891.74
403.93	919.83
404.13	976.00
404.32	837.91
404.51	945.58
404.70	849.61
404.89	959.62
405.09	924.51
405.28	959.62
405.47	973.66
405.66	1004.09
405.85	976.00
406.05	1008.77
406.24	1011.11
406.43	950.26
406.62	1022.81
406.81	1100.05
407.00	971.32
407.20	1048.56
407.39	1027.50
407.58	1076.65
407.77	1071.97
407.96	1060.26
408.15	1132.82
408.34	1078.99
408.54	1170.27
408.73	1102.39
408.92	1151.54
409.11	1116.44
409.30	1036.86
409.49	1174.95
409.68	1196.01
409.87	1172.61
410.07	1210.06
410.26	1163.25
410.45	1188.99
410.64	1240.48
410.83	1284.95
411.02	1231.12
411.21	1313.04
411.40	1263.89
411.59	1214.74
411.78	1270.91
411.98	1310.70
412.17	1268.57
412.36	1348.15
412.55	1376.24
412.74	1338.79
412.93	1301.34
413.12	1313.04
413.31	1357.51
413.50	1406.66
413.69	1378.58
413.88	1504.96
414.07	1444.11
414.26	1507.30
414.45	1392.62
414.64	1425.39
414.83	1563.48
415.02	1537.73
415.22	1568.16
415.41	1682.85
415.60	1626.67
415.79	1617.31
415.98	1561.14
416.17	1596.25
416.36	1600.93
416.55	1654.76
416.74	1713.27
416.93	1629.01
417.12	1809.23
417.31	1757.74
417.50	1762.42
417.69	1720.29
417.88	1757.74
418.07	1806.89
418.26	1741.36
418.45	1797.53
418.64	1884.13
418.83	1856.04
419.02	1774.13
419.21	1856.04
419.39	1837.32
419.58	1895.83
419.77	1781.15
419.96	1881.79
420.15	1968.39
420.34	1856.04
420.53	1963.71
420.72	1916.90
420.91	1877.11
421.10	1935.62
421.29	1980.09
421.48	1975.41
421.67	2001.16
421.86	1987.11
422.05	2005.84
422.24	2017.54
422.43	2040.95
422.61	1888.81
422.80	1984.77
422.99	2090.10
423.18	2003.50
423.37	2040.95
423.56	2139.25
423.75	1982.43
423.94	2017.54
424.13	1884.13
424.32	2010.52
424.50	2132.23
424.69	1980.09
424.88	2111.16
425.07	2181.38
425.26	1921.58
425.45	2047.97
425.64	2033.93
425.83	2069.03
426.01	2047.97
426.20	2209.47
426.39	1973.07
426.58	2115.84
426.77	2104.14
426.96	2108.82
427.15	2169.68
427.33	2258.62
427.52	2179.04
427.71	2216.49
427.90	2186.06
428.09	2237.55
428.28	2186.06
428.46	2324.15
428.65	2232.87
428.84	2356.92
429.03	2270.32
429.22	2160.31
429.40	2392.03
429.59	2303.09
429.78	2179.04
429.97	2237.55
430.16	2284.36
430.34	2389.69
430.53	2335.85
430.72	2413.09
430.91	2319.47
431.10	2319.47
431.28	2417.77
431.47	2275.00
431.66	2354.58
431.85	2356.92
432.03	2513.74
432.22	2480.97
432.41	2443.52
432.60	2429.48
432.79	2527.78
432.97	2485.65
433.16	2525.44
433.35	2375.64
433.54	2523.10
433.72	2628.42
433.91	2602.68
434.10	2672.89
434.28	2548.84
434.47	2534.80
434.66	2675.23
434.85	2675.23
435.03	2590.97
435.22	2607.36
435.41	2672.89
435.59	2672.89
435.78	2581.61
435.97	2555.86
436.16	2691.62
436.34	2794.60
436.53	2754.81
436.72	2857.79
436.90	2696.30
437.09	2827.37
437.28	2712.68
437.46	2733.75
437.65	2775.88
437.84	2897.58
438.02	2836.73
438.21	2869.50
438.40	2942.05
438.58	2883.54
438.77	2928.01
438.96	2998.23
439.14	2995.89
439.33	2946.73
439.52	3164.40
439.70	3047.38
439.89	3082.49
440.08	3112.91
440.26	3122.27
440.45	3105.89
440.63	3255.69
440.82	3070.78
441.01	3262.71
441.19	3143.34
441.38	3243.98
441.57	3281.43
441.75	3363.35
441.94	3276.75
442.12	3428.88
442.31	3410.16
442.50	3386.76
442.68	3342.28
442.87	3314.20
443.05	3445.27
443.24	3414.84
443.43	3353.99
443.61	3496.76
443.80	3480.38
443.98	3232.28
444.17	3414.84
444.35	3522.51
444.54	3698.05
444.73	3435.91
444.91	3461.65
445.10	3550.59
445.28	3536.55
445.47	3431.23
445.65	3407.82
445.84	3588.04
446.02	3487.40
446.21	3581.02
446.39	3433.57
446.58	3627.83
446.77	3630.17
446.95	3653.58
447.14	3363.35
447.32	3485.06
447.51	3548.25
447.69	3555.27
447.88	3662.94
448.06	3536.55
448.25	3602.08
448.43	3733.15
448.62	3646.55
448.80	3667.62
448.99	3569.32
449.17	3761.24
449.36	3794.01
449.54	3845.50
449.73	3824.44
449.91	3707.41
450.10	3880.61
450.28	3875.93
450.46	3929.76
450.65	3908.69
450.83	3932.10
451.02	3857.20
451.20	3861.88
451.39	4042.11
451.57	3904.01
451.76	3829.12
451.94	3929.76
452.13	3969.55
452.31	3913.38
452.49	3744.86
452.68	3810.39
452.86	3889.97
453.05	3920.40
453.23	3957.85
453.42	4011.68
453.60	3861.88
453.78	4180.20
453.97	4030.40
454.15	3941.46
454.34	4044.45
454.52	4159.13
454.70	4152.11
454.89	4035.08
455.07	4016.36
455.26	4259.78
455.44	4248.07
455.62	4154.45
455.81	4311.27
455.99	4124.02
456.17	4297.22
456.36	4152.11
456.54	4463.40
456.73	4308.93
456.91	4372.12
457.09	4262.12
457.28	4362.76
457.46	4416.59
457.64	4393.19
457.83	4643.62
458.01	4276.16
458.19	4418.93
458.38	4332.33
458.56	4610.86
458.74	4524.26
458.93	4573.41
459.11	4369.78
459.29	4498.51
459.48	4603.83
459.66	4484.47
459.84	4599.15
460.03	4606.17
460.21	4645.96
460.39	4725.54
460.57	4657.67
460.76	4662.35
460.94	4727.88
461.12	4746.61
461.31	4718.52
461.49	4690.43
461.67	4566.39
461.85	4966.62
462.04	4865.97
462.22	5132.79
462.40	4809.80
462.59	4877.68
462.77	5036.83
462.95	4798.10
463.13	4830.87
463.32	5008.75
463.50	5011.09
463.68	4950.23
463.86	5100.03
464.05	4985.34
464.23	4887.04
464.41	4915.12
464.59	4947.89
464.78	5088.32
464.96	5078.96
465.14	4959.60
465.32	5238.12
465.50	5303.65
465.69	5210.03
465.87	5217.05
466.05	5139.82
466.23	5102.37
466.41	5167.90
466.60	5247.48
466.78	5224.08
466.96	5331.74
467.14	5186.63
467.32	5172.58
467.51	5397.28
467.69	5144.50
467.87	5289.61
468.05	5362.17
468.23	5191.31
468.41	5298.97
468.60	5413.66
468.78	5359.83
468.96	5369.19
469.14	5432.38
469.32	5565.79
469.50	5418.34
469.69	5383.23
469.87	5540.05
470.05	5687.50
470.23	5603.24
470.41	5605.58
470.59	5640.69
470.77	5556.43
470.95	5638.35
471.14	5720.27
471.32	5617.29
471.50	5654.73
471.68	5767.08
471.86	5912.19
472.04	5781.12
472.22	6005.81
472.40	5636.01
472.58	5654.73
472.77	5902.83
472.95	6001.13
473.13	6186.04
473.31	5919.21
473.49	6024.54
473.67	6010.50
473.85	6026.88
474.03	6204.76
474.21	6263.27
474.39	6263.27
474.57	6272.64
474.75	6218.80
474.93	6368.60
475.12	6333.49
475.30	6239.87
475.48	6298.38
475.66	6298.38
475.84	6448.18
476.02	6445.84
476.20	6377.96
476.38	6729.04
476.56	6691.59
476.74	6719.68
476.92	6932.67
477.10	6710.32
477.28	6883.52
477.46	6693.93
477.64	6899.90
477.82	6993.52
478.00	7108.21
478.18	6995.86
478.36	7140.97
478.54	7246.30
478.72	7316.51
478.90	6981.82
479.08	7232.26
479.26	7424.18
479.44	7473.33
479.62	7447.58
479.80	7726.11
479.98	7569.29
480.16	7669.94
480.34	7566.95
480.52	7875.90
480.70	7913.35
480.88	7719.09
481.06	8100.59
481.24	7801.01
481.41	8079.53
481.59	7985.91
481.77	8042.08
481.95	8313.58
482.13	8372.10
482.31	8334.65
482.49	8306.56
482.67	8465.72
482.85	8636.58
483.03	8849.57
483.21	8739.56
483.39	8795.73
483.57	8842.54
483.74	8922.12
483.92	8985.32
484.10	8851.91
484.28	8936.17
484.46	9111.71
484.64	9399.59
484.82	9198.31
485.00	9359.80
485.18	9479.17
485.35	9563.43
485.53	9514.28
485.71	9603.22
485.89	9762.37
486.07	9797.48
486.25	9781.10
486.43	9949.62
486.61	9919.19
486.78	10174.31
486.96	10052.60
487.14	10326.44
487.32	10492.62
487.50	10438.79
487.68	10490.28
487.85	10747.74
488.03	10682.20
488.21	10923.28
488.39	10832.00
488.57	11009.88
488.75	10970.09
488.92	11164.36
489.10	11173.72
489.28	11243.93
489.46	11370.32
489.64	11323.51
489.81	11548.20
489.99	11700.34
490.17	11723.74
490.35	11868.86
490.53	11733.11
490.70	12142.70
490.88	12011.63
491.06	12035.03
491.24	12074.82
491.41	12226.96
491.59	12109.93
491.77	12203.55
491.95	12468.03
492.13	12519.53
492.30	12479.74
492.48	12617.83
492.66	12449.31
492.84	12709.11
493.01	12917.42
493.19	12877.63
493.37	12985.29
493.54	13217.01
493.72	13322.33
493.90	13114.02
494.08	13458.08
494.25	13479.15
494.43	13310.63
494.61	13626.60
494.79	13540.00
494.96	13582.13
495.14	13701.50
495.32	13956.61
495.49	13970.66
495.67	13947.25
495.85	13989.38
496.02	14202.37
496.20	14256.20
496.38	14176.62
496.55	14539.41
496.73	14675.16
496.91	14167.26
497.09	14434.08
497.26	14539.41
497.44	14698.56
497.62	14637.71
497.79	15068.37
497.97	14941.98
498.14	15164.33
498.32	15293.06
498.50	15337.53
498.67	15288.38
498.85	15314.13
499.03	15477.96
499.20	15318.81
499.38	15201.78
499.56	15637.12
499.73	15438.17
499.91	15723.72
500.08	15840.75
500.26	15777.55
500.44	15864.15
500.61	16287.79
500.79	15978.84
500.97	16161.40
501.14	15932.03
501.32	16477.37
501.49	16320.56
501.67	15941.39
501.84	16285.45
502.02	16458.65
502.20	16428.22
502.37	16781.64
502.55	16580.36
502.72	16776.96
502.90	16886.97
503.07	16578.01
503.25	16444.60
503.43	16681.00
503.60	17118.68
503.78	16833.13
503.95	16917.39
504.13	17172.51
504.30	17128.04
504.48	16896.33
504.65	17135.06
504.83	17451.03
505.01	17488.48
505.18	17324.65
505.36	17521.25
505.53	17511.89
505.71	17303.58
505.88	17738.92
506.06	17537.63
506.23	17687.43
506.41	17514.23
506.58	17621.89
506.76	17640.62
506.93	17734.24
507.11	17759.98
507.28	17982.34
507.46	17977.65
507.63	17818.50
507.81	18326.39
507.98	18139.15
508.16	18078.30
508.33	18122.77
508.50	18312.35
508.68	18520.66
508.85	18628.32
509.03	18778.12
509.20	18803.86
509.38	18822.59
509.55	18644.71
509.73	18853.02
509.90	18944.30
510.08	18909.19
510.25	18885.78
510.42	19154.94
510.60	19117.50
510.77	19342.19
510.95	19232.18
511.12	19101.11
511.30	19325.80
511.47	19084.73
511.64	19583.26
511.82	19197.07
511.99	19466.24
512.17	19393.68
512.34	19559.86
512.51	19644.12
512.69	19573.90
512.86	19726.04
513.04	20011.58
513.21	20020.94
513.38	19836.04
513.56	19747.10
513.73	20201.16
513.90	20135.63
514.08	20032.65
514.25	20032.65
514.43	20236.27
514.60	20229.25
514.77	20264.36
514.95	20355.64
515.12	20339.26
515.29	20269.04
515.47	20599.05
515.64	20549.90
515.81	20755.87
515.99	20489.05
516.16	20835.45
516.33	20592.03
516.51	21020.35
516.68	20414.15
516.85	21095.25
517.03	21092.91
517.20	21200.57
517.37	21348.03
517.54	20950.14
517.72	21235.68
517.89	21064.82
518.06	21120.99
518.24	21109.29
518.41	21172.49
518.58	21298.88
518.75	21429.94
518.93	21502.50
519.10	21333.98
519.27	21528.25
519.45	21563.36
519.62	21685.06
519.79	21179.51
519.96	21617.19
520.14	21429.94
520.31	22061.89
520.48	22019.76
520.65	21736.56
520.83	22232.75
521.00	21823.16
521.17	21776.34
521.34	21816.13
521.52	22178.92
521.69	22043.17
521.86	22167.21
522.03	22359.14
522.20	22352.12
522.38	22427.01
522.55	22487.87
522.72	22354.46
522.89	22492.55
523.07	22654.05
523.24	22693.83
523.41	22412.97
523.58	22583.83
523.75	22628.30
523.92	22677.45
524.10	22852.99
524.27	22860.01
524.44	22867.03
524.61	23208.75
524.78	23204.07
524.96	23138.54
525.13	22885.76
525.30	23185.35
525.47	23007.47
525.64	23255.56
525.81	23475.57
525.98	23257.90
526.16	23613.66
526.33	23360.89
526.50	23608.98
526.67	23262.58
526.84	23475.57
527.01	23393.65
527.18	23534.09
527.36	23531.75
527.53	23751.76
527.70	24357.96
527.87	23777.50
528.04	23623.03
528.21	24034.96
528.38	23592.60
528.55	23812.61
528.72	23896.87
528.89	23936.66
529.07	24030.28
529.24	24063.05
529.41	24247.95
529.58	23899.21
529.75	24196.46
529.92	24168.37
530.09	24123.90
530.26	24594.35
530.43	24404.77
530.60	24388.38
530.77	24369.66
530.94	24641.16
531.11	24491.37
531.28	24563.92
531.46	24847.13
531.63	24732.44
531.80	24596.69
531.97	24882.24
532.14	24751.17
532.31	24491.37
532.48	24772.23
532.65	24910.32
532.82	24664.57
532.99	24730.10
533.16	24924.36
533.33	25172.46
533.50	24898.62
533.67	25144.38
533.84	24868.19
534.01	25256.72
534.18	24772.23
534.35	25163.10
534.52	24711.38
534.69	25617.16
534.86	25261.40
535.03	25242.68
535.20	25226.29
535.37	25488.43
535.54	25436.94
535.71	25530.56
535.88	25238.00
536.05	25455.67
536.22	25781.00
536.38	25617.16
536.55	25682.70
536.72	25806.75
536.89	25642.91
537.06	25156.08
537.23	26132.08
537.40	25490.77
537.57	25818.45
537.74	25738.87
537.91	26094.63
538.08	26146.12
538.25	25902.71
538.42	25947.18
538.59	25912.07
538.75	25748.23
538.92	26024.42
539.09	25914.41
539.26	26008.03
539.43	26043.14
539.60	26382.52
539.77	26326.35
539.94	26230.38
540.11	26345.07
540.28	26178.89
540.44	26429.33
540.61	26331.03
540.78	26141.44
540.95	26630.62
541.12	26513.59
541.29	26773.39
541.46	26272.51
541.62	26340.39
541.79	26712.53
541.96	26153.15
542.13	26164.85
542.30	26691.47
542.47	26661.04
542.63	26611.89
542.80	27056.59
542.97	26930.20
543.14	27290.65
543.31	27222.77
543.48	26995.74
543.64	27080.00
543.81	27374.91
543.98	27185.32
544.15	27445.12
544.32	27220.43
544.48	27510.66
544.65	27173.62
544.82	27365.54
544.99	27435.76
545.16	27384.27
545.32	27585.55
545.49	27662.79
545.66	27938.97
545.83	27665.13
546.00	27454.48
546.16	27314.05
546.33	27468.53
546.50	27304.69
546.67	27442.78
546.83	27885.14
547.00	27821.95
547.17	27267.24
547.34	27564.49
547.50	28013.87
547.67	27924.93
547.84	27541.08
548.00	28046.64
548.17	27854.72
548.34	27990.47
548.51	27887.48
548.67	28311.12
548.84	28009.19
549.01	28011.53
549.18	28128.56
549.34	28135.58
549.51	28084.09
549.68	27962.38
549.84	27751.73
550.01	28182.39
550.18	28283.03
550.34	28641.14
550.51	28477.30
550.68	28203.46
550.84	27800.88
551.01	28531.13
551.18	28163.67
551.34	27873.44
551.51	28411.76
551.68	28212.82
551.84	28606.03
552.01	28652.84
552.18	28645.82
552.34	28748.80
552.51	28992.22
552.68	28472.62
552.84	28701.99
553.01	28386.02
553.18	28400.06
553.34	29151.37
553.51	28514.75
553.67	28919.66
553.84	29137.33
554.01	28865.83
554.17	28835.40
554.34	29144.35
554.51	28687.95
554.67	29127.97
554.84	29184.14
555.00	28893.91
555.17	29050.73
555.33	29085.84
555.50	28945.41
555.67	29127.97
555.83	28734.76
556.00	28952.43
556.16	29062.43
556.33	29041.37
556.50	29392.45
556.66	29467.34
556.83	29446.28
556.99	29324.57
557.16	29411.17
557.32	29364.36
557.49	29677.99
557.65	29048.39
557.82	28917.32
557.98	28835.40
558.15	29050.73
558.32	29425.22
558.48	29490.75
558.65	29759.91
558.81	29455.64
558.98	29748.21
559.14	29263.72
559.31	29490.75
559.47	29233.29
559.64	29560.97
559.80	29680.33
559.97	29654.59
560.13	29799.70
560.30	29500.11
560.46	29720.12
560.63	29865.24
560.79	29755.23
560.96	29979.92
561.12	29600.76
561.29	29502.45
561.45	29521.18
561.61	29394.79
561.78	29502.45
561.94	29949.50
562.11	29795.02
562.27	29544.58
562.44	29830.13
562.60	30043.12
562.77	29706.08
562.93	29741.19
563.10	29673.31
563.26	29811.40
563.42	29731.83
563.59	29860.55
563.75	29930.77
563.92	29806.72
564.08	30008.01
564.24	29792.68
564.41	29823.11
564.57	29729.48
564.74	29834.81
564.90	29958.86
565.07	29926.09
565.23	30050.14
565.39	29865.24
565.56	30183.55
565.72	29776.30
565.88	29982.26
566.05	30132.06
566.21	29965.88
566.38	30288.87
566.54	30314.62
566.70	30209.29
566.87	30527.61
567.03	30150.78
567.19	30670.38
567.36	30295.89
567.52	29853.53
567.68	30015.03
567.85	30153.12
568.01	30354.41
568.17	30239.72
568.34	29944.81
568.50	30284.19
568.66	30562.72
568.83	30471.43
568.99	30197.59
569.15	30281.85
569.32	30473.78
569.48	30342.70
569.64	30195.25
569.81	30061.84
569.97	30033.75
570.13	30448.03
570.30	30157.80
570.46	30731.23
570.62	30429.30
570.78	30008.01
570.95	30483.14
571.11	30279.51
571.27	30630.59
571.43	30342.70
571.60	30281.85
571.76	30101.63
571.92	30462.07
572.09	30632.93
572.25	30593.14
572.41	30586.12
572.57	30335.68
572.74	30632.93
572.90	30462.07
573.06	30623.57
573.22	30768.68
573.38	30153.12
573.55	30511.22
573.71	30920.82
573.87	30712.51
574.03	30595.48
574.20	30859.96
574.36	30146.10
574.52	30101.63
574.68	30373.13
574.84	30518.25
575.01	30850.60
575.17	30733.57
575.33	30515.90
575.49	30204.61
575.65	30609.53
575.82	31094.02
575.98	30661.02
576.14	30988.69
576.30	30558.03
576.46	30459.73
576.62	30345.05
576.79	30745.28
576.95	30178.87
577.11	30448.03
577.27	30466.75
577.43	30918.48
577.59	30492.50
577.75	30452.71
577.92	30719.53
578.08	30328.66
578.24	30284.19
578.40	30679.74
578.56	30705.49
578.72	30829.54
578.88	30630.59
579.04	31019.12
579.21	30764.00
579.37	30363.77
579.53	30693.79
579.69	30801.45
579.85	30932.52
580.01	30969.97
580.17	30536.97
580.33	30665.70
580.49	30506.54
580.65	30630.59
580.82	30810.81
580.98	30419.94
581.14	30761.66
581.30	30567.40
581.46	30759.32
581.62	30433.99
581.78	30661.02
581.94	30412.92
582.10	30796.77
582.26	30916.14
582.42	30733.57
582.58	30850.60
582.74	31089.34
582.90	30810.81
583.06	30499.52
583.22	31054.23
583.38	30878.69
583.54	30778.04
583.70	30806.13
583.86	30834.22
584.02	30586.12
584.18	30799.11
584.34	30761.66
584.50	31101.04
584.66	30590.80
584.82	30499.52
584.98	30831.88
585.14	30302.92
585.30	31019.12
585.46	31115.08
585.62	30771.02
585.78	31056.57
585.94	30752.30
586.10	30792.09
586.26	31236.79
586.42	30689.10
586.58	30670.38
586.74	30866.98
586.90	30689.10
587.06	30745.28
587.22	30972.31
587.38	30684.42
587.54	30979.33
587.70	31316.37
587.86	30890.39
588.02	31101.04
588.18	31056.57
588.34	31381.90
588.49	31047.21
588.65	30712.51
588.81	30724.21
588.97	30944.22
589.13	30927.84
589.29	30658.68
589.45	31035.50
589.61	31442.76
589.77	31246.15
589.93	31175.94
590.08	30885.71
590.24	31051.89
590.40	31285.94
590.56	31311.69
590.72	31250.83
590.88	30782.73
591.04	31133.81
591.20	31168.91
591.35	31211.04
591.51	31409.99
591.67	31363.18
591.83	31318.71
591.99	31409.99
