SpectraSuite Data File
++++++++++++++++++++++++++++++++++++
Date: Fri Oct 18 13:58:12 GMT-05:00 2013
User: bianchi
Dark Spectrum Present: No
Reference Spectrum Present: No
Number of Sampled Component Spectra: 1
Spectrometers: USB2+H05261
Integration Time (usec): 50000 (USB2+H05261)
Spectra Averaged: 1 (USB2+H05261)
Boxcar Smoothing: 0 (USB2+H05261)
Correct for Electrical Dark: No (USB2+H05261)
Strobe/Lamp Enabled: No (USB2+H05261)
Correct for Detector Non-linearity: No (USB2+H05261)
Correct for Stray Light: No (USB2+H05261)
Number of Pixels in Processed Spectrum: 2048
>>>>>Begin Processed Spectral Data<<<<<
365.73	0.00
365.92	0.00
366.12	0.00
366.32	0.00
366.52	0.00
366.72	0.00
366.91	0.00
367.11	0.00
367.31	0.00
367.51	0.00
367.70	0.00
367.90	0.00
368.10	0.00
368.30	0.00
368.49	0.00
368.69	0.00
368.89	0.00
369.09	0.00
369.28	0.00
369.48	0.00
369.68	0.00
369.87	0.00
370.07	0.00
370.27	0.00
370.47	7.02
370.66	77.24
370.86	121.71
371.06	124.05
371.25	135.75
371.45	100.64
371.65	198.95
371.84	184.90
372.04	191.92
372.24	128.73
372.44	163.84
372.63	196.60
372.83	212.99
373.03	205.97
373.22	259.80
373.42	201.29
373.62	224.69
373.81	234.05
374.01	224.69
374.21	217.67
374.40	290.23
374.60	224.69
374.79	224.69
374.99	255.12
375.19	231.71
375.38	285.55
375.58	308.95
375.78	290.23
375.97	259.80
376.17	278.52
376.37	292.57
376.56	259.80
376.76	306.61
376.95	196.60
377.15	306.61
377.35	259.80
377.54	322.99
377.74	271.50
377.93	297.25
378.13	273.84
378.33	339.38
378.52	245.76
378.72	325.33
378.91	292.57
379.11	297.25
379.31	280.86
379.50	292.57
379.70	337.04
379.89	332.36
380.09	255.12
380.28	243.42
380.48	318.31
380.68	318.31
380.87	327.68
381.07	400.23
381.26	346.40
381.46	355.76
381.65	341.72
381.85	348.74
382.04	437.68
382.24	367.46
382.43	330.02
382.63	320.65
382.83	339.38
383.02	393.21
383.22	355.76
383.41	367.46
383.61	414.27
383.80	407.25
384.00	365.12
384.19	456.40
384.39	372.15
384.58	348.74
384.78	365.12
384.97	367.46
385.17	374.49
385.36	421.30
385.56	355.76
385.75	381.51
385.95	442.36
386.14	451.72
386.34	367.46
386.53	425.98
386.72	430.66
386.92	388.53
387.11	503.22
387.31	393.21
387.50	472.79
387.70	404.91
387.89	418.96
388.09	411.93
388.28	489.17
388.48	379.17
388.67	451.72
388.86	433.00
389.06	425.98
389.25	498.53
389.45	503.22
389.64	423.64
389.84	498.53
390.03	465.77
390.22	477.47
390.42	468.11
390.61	489.17
390.81	479.81
391.00	535.98
391.19	545.34
391.39	404.91
391.58	486.83
391.78	603.86
391.97	505.56
392.16	535.98
392.36	566.41
392.55	580.45
392.75	503.22
392.94	454.06
393.13	596.84
393.33	524.28
393.52	557.05
393.71	599.18
393.91	493.85
394.10	517.26
394.29	585.13
394.49	540.66
394.68	648.33
394.88	624.92
395.07	634.29
395.26	617.90
395.46	622.58
395.65	685.78
395.84	550.03
396.04	645.99
396.23	629.60
396.42	608.54
396.62	667.05
396.81	657.69
397.00	676.41
397.19	662.37
397.39	683.44
397.58	723.23
397.77	655.35
397.97	723.23
398.16	655.35
398.35	688.12
398.55	723.23
398.74	702.16
398.93	709.18
399.12	699.82
399.32	793.44
399.51	791.10
399.70	809.83
399.90	610.88
400.09	723.23
400.28	788.76
400.47	662.37
400.67	805.14
400.86	784.08
401.05	788.76
401.24	781.74
401.44	800.46
401.63	873.02
401.82	837.91
402.01	898.77
402.21	847.27
402.40	917.49
402.59	858.98
402.78	896.43
402.97	868.34
403.17	821.53
403.36	947.92
403.55	882.38
403.74	905.79
403.93	873.02
404.13	912.81
404.32	936.21
404.51	919.83
404.70	908.13
404.89	990.05
405.09	976.00
405.28	931.53
405.47	964.30
405.66	1050.90
405.85	983.02
406.05	1083.67
406.24	943.24
406.43	983.02
406.62	985.37
406.81	1095.37
407.00	1011.11
407.20	1006.43
407.39	1109.41
407.58	1062.60
407.77	966.64
407.96	985.37
408.15	1081.33
408.34	1067.28
408.54	1053.24
408.73	1100.05
408.92	1170.27
409.11	1125.80
409.30	1163.25
409.49	1111.75
409.68	1231.12
409.87	1167.93
410.07	1240.48
410.26	1137.50
410.45	1287.29
410.64	1188.99
410.83	1203.04
411.02	1301.34
411.21	1233.46
411.40	1261.55
411.59	1345.81
411.78	1327.08
411.98	1301.34
412.17	1416.02
412.36	1226.44
412.55	1399.64
412.74	1434.75
412.93	1416.02
413.12	1394.96
413.31	1430.07
413.50	1385.60
413.69	1425.39
413.88	1437.09
414.07	1390.28
414.26	1401.98
414.45	1516.67
414.64	1397.30
414.83	1526.03
415.02	1586.88
415.22	1591.56
415.41	1631.35
415.60	1629.01
415.79	1629.01
415.98	1729.66
416.17	1699.23
416.36	1694.55
416.55	1689.87
416.74	1675.82
416.93	1729.66
417.12	1631.35
417.31	1844.34
417.50	1858.39
417.69	1813.92
417.88	1741.36
418.07	1830.30
418.26	1732.00
418.45	1746.04
418.64	1792.85
418.83	1966.05
419.02	1879.45
419.21	1909.88
419.39	1879.45
419.58	1874.77
419.77	1802.21
419.96	1827.96
420.15	1944.99
420.34	1860.73
420.53	1933.28
420.72	1984.77
420.91	1975.41
421.10	2031.58
421.29	2024.56
421.48	1902.86
421.67	1928.60
421.86	1982.43
422.05	2031.58
422.24	1982.43
422.43	2092.44
422.61	2010.52
422.80	1984.77
422.99	2064.35
423.18	2153.29
423.37	2141.59
423.56	2078.40
423.75	2155.63
423.94	2003.50
424.13	1811.57
424.32	1968.39
424.50	2040.95
424.69	2083.08
424.88	2059.67
425.07	2036.27
425.26	2029.24
425.45	2108.82
425.64	2054.99
425.83	1994.14
426.01	2127.55
426.20	2005.84
426.39	2106.48
426.58	2183.72
426.77	2036.27
426.96	2050.31
427.15	2242.23
427.33	2106.48
427.52	2172.02
427.71	2169.68
427.90	2284.36
428.09	2249.25
428.28	2223.51
428.46	2246.91
428.65	2347.56
428.84	2356.92
429.03	2340.54
429.22	2223.51
429.40	2228.19
429.59	2195.42
429.78	2216.49
429.97	2272.66
430.16	2275.00
430.34	2314.79
430.53	2410.75
430.72	2401.39
430.91	2342.88
431.10	2237.55
431.28	2340.54
431.47	2286.70
431.66	2455.22
431.85	2403.73
432.03	2455.22
432.22	2544.16
432.41	2506.71
432.60	2335.85
432.79	2464.58
432.97	2518.42
433.16	2427.14
433.35	2499.69
433.54	2548.84
433.72	2567.57
433.91	2558.21
434.10	2532.46
434.28	2555.86
434.47	2661.19
434.66	2621.40
434.85	2693.96
435.03	2689.28
435.22	2684.59
435.41	2736.09
435.59	2719.70
435.78	2677.57
435.97	2710.34
436.16	2616.72
436.34	2698.64
436.53	2633.10
436.72	2740.77
436.90	2656.51
437.09	2754.81
437.28	2736.09
437.46	2764.17
437.65	2775.88
437.84	2857.79
438.02	2761.83
438.21	2864.82
438.40	2850.77
438.58	3016.95
438.77	2995.89
438.96	2939.71
439.14	2993.55
439.33	2967.80
439.52	3091.85
439.70	2939.71
439.89	2960.78
440.08	3152.70
440.26	3129.30
440.45	3084.83
440.63	3000.57
440.82	3136.32
441.01	3124.62
441.19	3117.59
441.38	3302.50
441.57	3267.39
441.75	3265.05
441.94	3419.52
442.12	3309.52
442.31	3400.80
442.50	3300.16
442.68	3365.69
442.87	3447.61
443.05	3403.14
443.24	3447.61
443.43	3475.70
443.61	3496.76
443.80	3555.27
443.98	3386.76
444.17	3323.56
444.35	3485.06
444.54	3538.89
444.73	3496.76
444.91	3414.84
445.10	3503.78
445.28	3520.17
445.47	3555.27
445.65	3522.51
445.84	3529.53
446.02	3595.06
446.21	3609.11
446.39	3524.85
446.58	3520.17
446.77	3536.55
446.95	3571.66
447.14	3557.61
447.32	3571.66
447.51	3602.08
447.69	3555.27
447.88	3691.02
448.06	3574.00
448.25	3595.06
448.43	3630.17
448.62	3557.61
448.80	3503.78
448.99	3712.09
449.17	3609.11
449.36	3679.32
449.54	3707.41
449.73	3646.55
449.91	3763.58
450.10	3817.41
450.28	3740.18
450.46	3709.75
450.65	3756.56
450.83	3967.21
451.02	3831.46
451.20	3791.67
451.39	3943.80
451.57	3831.46
451.76	3772.94
451.94	4030.40
452.13	3904.01
452.31	3875.93
452.49	3798.69
452.68	3983.59
452.86	3770.60
453.05	3971.89
453.23	4056.15
453.42	4014.02
453.60	4007.00
453.78	4025.72
453.97	4046.79
454.15	3920.40
454.34	4074.87
454.52	4091.26
454.70	4058.49
454.89	4016.36
455.07	4072.53
455.26	4224.67
455.44	4208.28
455.62	4088.92
455.81	4088.92
455.99	4182.54
456.17	4135.73
456.36	4287.86
456.54	4269.14
456.73	4294.88
456.91	4503.19
457.09	4477.44
457.28	4550.00
457.46	4365.10
457.64	4491.49
457.83	4442.34
458.01	4475.10
458.19	4486.81
458.38	4386.16
458.56	4683.41
458.74	4472.76
458.93	4568.73
459.11	4449.36
459.29	4538.30
459.48	4458.72
459.66	4650.64
459.84	4528.94
460.03	4627.24
460.21	4821.50
460.39	4643.62
460.57	4613.20
460.76	4716.18
460.94	4692.77
461.12	4671.71
461.31	4690.43
461.49	4589.79
461.67	4690.43
461.85	4791.08
462.04	4894.06
462.22	5130.45
462.40	4868.31
462.59	4802.78
462.77	4748.95
462.95	4837.89
463.13	4758.31
463.32	4863.63
463.50	4774.69
463.68	5015.77
463.86	5198.33
464.05	4931.51
464.23	4992.36
464.41	5034.49
464.59	4929.17
464.78	5135.14
464.96	5224.08
465.14	4992.36
465.32	5083.64
465.50	5205.35
465.69	5102.37
465.87	5011.09
466.05	5123.43
466.23	5043.85
466.41	5320.04
466.60	5259.18
466.78	5111.73
466.96	5212.37
467.14	5011.09
467.32	5275.57
467.51	5268.55
467.69	5107.05
467.87	5242.80
468.05	5345.78
468.23	5188.97
468.41	5160.88
468.60	5341.10
468.78	5376.21
468.96	5275.57
469.14	5455.79
469.32	5408.98
469.50	5352.81
469.69	5523.66
469.87	5500.26
470.05	5556.43
470.23	5558.77
470.41	5401.96
470.59	5514.30
470.77	5563.45
470.95	5518.98
471.14	5589.20
471.32	5638.35
471.50	5734.31
471.68	5799.85
471.86	5734.31
472.04	5682.82
472.22	5996.45
472.40	5603.24
472.58	5748.36
472.77	5834.96
472.95	5888.79
473.13	6052.63
473.31	6033.90
473.49	5820.91
473.67	5961.34
473.85	5933.26
474.03	6122.84
474.21	6155.61
474.39	6160.29
474.57	6017.52
474.75	6352.21
474.93	6387.32
475.12	6232.85
475.30	6282.00
475.48	6534.78
475.66	6401.37
475.84	6382.64
476.02	6532.44
476.20	6431.79
476.38	6635.42
476.56	6628.40
476.74	6677.55
476.92	6628.40
477.10	6743.08
477.28	6881.18
477.46	6972.46
477.64	6794.58
477.82	6892.88
478.00	7368.01
478.18	7131.61
478.36	7304.81
478.54	7208.85
478.72	7215.87
478.90	7272.04
479.08	7304.81
479.26	7599.72
479.44	7452.27
479.62	7681.64
479.80	7613.76
479.98	7606.74
480.16	7517.80
480.34	7623.12
480.52	7831.43
480.70	7691.00
480.88	7756.54
481.06	7674.62
481.24	7824.41
481.41	7918.03
481.59	7873.56
481.77	8182.51
481.95	8285.50
482.13	8215.28
482.31	8264.43
482.49	8418.91
482.67	8507.85
482.85	8561.68
483.03	8603.81
483.21	8774.67
483.39	8741.90
483.57	8746.58
483.74	8706.79
483.92	8978.30
484.10	8851.91
484.28	8929.14
484.46	9184.26
484.64	9331.72
484.82	9177.24
485.00	9476.83
485.18	9390.23
485.35	9582.15
485.53	9542.36
485.71	9614.92
485.89	9919.19
486.07	9727.27
486.25	9872.38
486.43	9818.55
486.61	10097.07
486.78	9994.09
486.96	10244.52
487.14	10331.12
487.32	10328.78
487.50	10286.65
487.68	10485.60
487.85	10541.77
488.03	10555.82
488.21	10785.19
488.39	10747.74
488.57	10885.83
488.75	10698.59
488.92	11133.93
489.10	11063.71
489.28	11157.33
489.46	11501.39
489.64	11197.12
489.81	11641.82
489.99	11576.29
490.17	11620.76
490.35	11946.09
490.53	11634.80
490.70	12311.22
490.88	12042.06
491.06	11971.84
491.24	12126.32
491.41	12030.35
491.59	12409.52
491.77	12524.21
491.95	12386.12
492.13	12554.63
492.30	12498.46
492.48	12589.74
492.66	12575.70
492.84	12695.07
493.01	12692.73
493.19	12854.22
493.37	13144.45
493.54	13060.19
493.72	13458.08
493.90	13287.22
494.08	13434.68
494.25	13322.33
494.43	13355.10
494.61	13802.14
494.79	13614.90
494.96	13657.03
495.14	13586.81
495.32	13820.86
495.49	13741.29
495.67	13965.98
495.85	14057.26
496.02	14242.16
496.20	14178.97
496.38	14251.52
496.55	14356.85
496.73	14761.76
496.91	14478.55
497.09	14740.69
497.26	14668.14
497.44	14768.78
497.62	14651.75
497.79	14927.94
497.97	14848.36
498.14	15164.33
498.32	15140.93
498.50	15108.16
498.67	15248.59
498.85	15302.42
499.03	15400.72
499.20	15536.48
499.38	15454.56
499.56	15616.05
499.73	15864.15
499.91	15742.44
500.08	16018.63
500.26	15597.33
500.44	16042.03
500.61	16030.33
500.79	15932.03
500.97	16011.60
501.14	15983.52
501.32	16285.45
501.49	16100.55
501.67	16311.19
501.84	16245.66
502.02	16416.52
502.20	16704.40
502.37	16507.80
502.55	16283.11
502.72	16528.86
502.90	16751.21
503.07	16514.82
503.25	16549.93
503.43	16575.67
503.60	16865.90
503.78	17123.36
503.95	17123.36
504.13	17015.69
504.30	17095.27
504.48	17191.23
504.65	17308.26
504.83	17275.49
505.01	17516.57
505.18	17429.97
505.36	17551.68
505.53	17598.49
505.71	17256.77
505.88	17813.82
506.06	17539.97
506.23	17647.64
506.41	17813.82
506.58	17600.83
506.76	17865.31
506.93	17790.41
507.11	18073.62
507.28	18001.06
507.46	18036.17
507.63	18111.07
507.81	18331.08
507.98	18246.82
508.16	18052.55
508.33	18024.47
508.50	18286.61
508.68	18431.72
508.85	18853.02
509.03	18946.64
509.20	18600.24
509.38	18792.16
509.55	18785.14
509.73	18970.04
509.90	18787.48
510.08	18696.20
510.25	18698.54
510.42	18951.32
510.60	19545.81
510.77	19178.35
510.95	19330.48
511.12	19110.47
511.30	19061.32
511.47	19047.28
511.64	19297.72
511.82	19536.45
511.99	19438.15
512.17	19594.96
512.34	19370.27
512.51	19480.28
512.69	19822.00
512.86	19716.67
513.04	19798.59
513.21	19831.36
513.38	20205.84
513.56	20079.46
513.73	19803.27
513.90	20020.94
514.08	19777.53
514.25	20170.74
514.43	20374.36
514.60	20449.26
514.77	20341.60
514.95	20325.21
515.12	20535.86
515.29	20475.01
515.47	20346.28
515.64	20720.76
515.81	20444.58
515.99	20561.61
516.16	20975.88
516.33	20940.77
516.51	21158.44
516.68	20758.21
516.85	20898.64
517.03	20961.84
517.20	21071.84
517.37	20933.75
517.54	21149.08
517.72	21156.10
517.89	21109.29
518.06	21036.74
518.24	21069.50
518.41	21205.25
518.58	21469.73
518.75	21497.82
518.93	21640.59
519.10	21535.27
519.27	21553.99
519.45	21837.20
519.62	21619.53
519.79	21336.32
519.96	21537.61
520.14	21500.16
520.31	21998.70
520.48	21687.40
520.65	21902.73
520.83	21928.48
521.00	21951.88
521.17	21888.69
521.34	22012.74
521.52	22010.40
521.69	22466.80
521.86	22155.51
522.03	22312.33
522.20	22691.49
522.38	22508.93
522.55	22499.57
522.72	22366.16
522.89	22300.62
523.07	22754.69
523.24	22712.56
523.41	22698.52
523.58	22471.48
523.75	22642.34
523.92	22597.87
524.10	22607.23
524.27	22654.05
524.44	22883.42
524.61	23075.34
524.78	23094.07
524.96	22857.67
525.13	23084.70
525.30	23087.04
525.47	23049.60
525.64	22904.48
525.81	23468.55
525.98	23660.48
526.16	23332.80
526.33	23527.06
526.50	23770.48
526.67	23108.11
526.84	23480.25
527.01	23407.70
527.18	23791.55
527.36	23616.01
527.53	23866.44
527.70	23908.57
527.87	24086.45
528.04	23861.76
528.21	23604.30
528.38	23833.68
528.55	24013.90
528.72	24095.82
528.89	23658.14
529.07	23793.89
529.24	23992.83
529.41	24177.73
529.58	23854.74
529.75	24137.94
529.92	24189.44
530.09	24058.37
530.26	24362.64
530.43	24044.32
530.60	24240.93
530.77	24123.90
530.94	24393.06
531.11	24016.24
531.28	24372.00
531.46	24257.31
531.63	24367.32
531.80	24460.94
531.97	24641.16
532.14	25013.31
532.31	24793.29
532.48	24676.27
532.65	24725.42
532.82	24538.18
532.99	25020.33
533.16	24826.06
533.33	24943.09
533.50	25156.08
533.67	25226.29
533.84	24875.21
534.01	25163.10
534.18	24847.13
534.35	25495.46
534.52	24954.79
534.69	25509.50
534.86	25380.77
535.03	25104.59
535.20	25163.10
535.37	25294.17
535.54	25385.45
535.71	25153.74
535.88	25656.95
536.05	25656.95
536.22	25179.48
536.38	25912.07
536.55	25685.04
536.72	25371.41
536.89	25507.16
537.06	25879.30
537.23	25839.51
537.40	25783.34
537.57	25413.54
537.74	25736.53
537.91	26272.51
538.08	25748.23
538.25	25785.68
538.42	25951.86
538.59	26288.90
538.75	25933.14
538.92	26008.03
539.09	26164.85
539.26	26171.87
539.43	25893.35
539.60	26335.71
539.77	26333.37
539.94	26384.86
540.11	26434.01
540.28	26214.00
540.44	26403.58
540.61	26216.34
540.78	26352.09
540.95	26480.82
541.12	26490.18
541.29	26429.33
541.46	26384.86
541.62	26534.65
541.79	26843.60
541.96	26099.31
542.13	26401.24
542.30	26632.96
542.47	26834.24
542.63	26869.35
542.80	26679.77
542.97	27028.51
543.14	26925.52
543.31	27173.62
543.48	27101.06
543.64	27363.20
543.81	27173.62
543.98	27215.75
544.15	27300.01
544.32	27337.46
544.48	27594.92
544.65	27112.77
544.82	27431.08
544.99	27440.44
545.16	27241.50
545.32	27056.59
545.49	27718.96
545.66	27733.01
545.83	27328.10
546.00	27812.59
546.16	27873.44
546.33	27505.98
546.50	27206.39
546.67	27679.18
546.83	27447.46
547.00	27627.68
547.17	27690.88
547.34	27316.39
547.50	27702.58
547.67	27843.01
547.84	27414.69
548.00	28032.60
548.17	27938.97
548.34	27868.76
548.51	28194.09
548.67	28203.46
548.84	28016.21
549.01	27922.59
549.18	27761.09
549.34	27936.63
549.51	27981.10
549.68	27789.18
549.84	28025.57
550.01	28362.61
550.18	27969.40
550.34	28158.99
550.51	28610.71
550.68	28486.66
550.84	27964.72
551.01	28460.91
551.18	27976.42
551.34	28240.90
551.51	27964.72
551.68	28404.74
551.84	28884.55
552.01	28704.33
552.18	28573.26
552.34	28563.90
552.51	28603.69
552.68	28589.64
552.84	28788.59
553.01	28563.90
553.18	28577.94
553.34	28781.57
553.51	28577.94
553.67	28912.64
553.84	29158.39
554.01	28992.22
554.17	28929.02
554.34	28615.39
554.51	28910.30
554.67	29034.35
554.84	28613.05
555.00	28821.36
555.17	28936.04
555.33	28971.15
555.50	28858.81
555.67	28669.22
555.83	29048.39
556.00	29118.60
556.16	29020.30
556.33	29207.55
556.50	29144.35
556.66	29369.04
556.83	28723.05
556.99	29254.36
557.16	29355.00
557.32	29296.49
557.49	29312.87
557.65	29076.48
557.82	29088.18
557.98	29032.00
558.15	29137.33
558.32	29692.04
558.48	29158.39
558.65	29413.51
558.81	29432.24
558.98	29401.81
559.14	29530.54
559.31	29202.86
559.47	29532.88
559.64	29312.87
559.80	29439.26
559.97	29748.21
560.13	29301.17
560.30	29542.24
560.46	29528.20
560.63	29198.18
560.79	29769.27
560.96	29610.12
561.12	29565.65
561.29	29436.92
561.45	29778.64
561.61	29890.98
561.78	29560.97
561.94	29876.94
562.11	30071.20
562.27	29549.26
562.44	29680.33
562.60	29743.53
562.77	29734.17
562.93	29441.60
563.10	29963.54
563.26	29575.01
563.42	30059.50
563.59	29799.70
563.75	29937.79
563.92	29717.78
564.08	29937.79
564.24	30005.67
564.41	29799.70
564.57	30237.38
564.74	29682.67
564.90	29942.47
565.07	29813.74
565.23	30333.34
565.39	29813.74
565.56	30387.18
565.72	30040.78
565.88	29895.66
566.05	29668.63
566.21	30118.01
566.38	30101.63
566.54	30029.07
566.70	30157.80
566.87	30405.90
567.03	30314.62
567.19	30218.66
567.36	29996.31
567.52	30019.71
567.68	29809.06
567.85	30101.63
568.01	29823.11
568.17	30157.80
568.34	30110.99
568.50	30394.20
568.66	30230.36
568.83	30745.28
568.99	30206.95
569.15	29947.15
569.32	30005.67
569.48	29942.47
569.64	30543.99
569.81	30164.82
569.97	29921.41
570.13	30389.52
570.30	29940.13
570.46	30377.81
570.62	30387.18
570.78	30321.64
570.95	29916.73
571.11	30263.13
571.27	30005.67
571.43	29895.66
571.60	30384.83
571.76	30665.70
571.92	30642.29
572.09	30380.15
572.25	30270.15
572.41	30363.77
572.57	30618.89
572.74	30443.35
572.90	30043.12
573.06	30401.22
573.22	30391.86
573.38	30316.96
573.55	30621.23
573.71	30806.13
573.87	30726.55
574.03	30651.66
574.20	30682.08
574.36	30534.63
574.52	30206.95
574.68	30520.59
574.84	30405.90
575.01	30642.29
575.17	30822.51
575.33	30309.94
575.49	30576.76
575.65	30911.46
575.82	30408.24
575.98	30529.95
576.14	30850.60
576.30	30520.59
576.46	30384.83
576.62	30436.33
576.79	30859.96
576.95	30588.46
577.11	30866.98
577.27	30693.79
577.43	30658.68
577.59	30288.87
577.75	30733.57
577.92	30391.86
578.08	30508.88
578.24	30705.49
578.40	30593.14
578.56	30738.26
578.72	30885.71
578.88	30864.64
579.04	31007.42
579.21	30525.27
579.37	30581.44
579.53	30972.31
579.69	30656.34
579.85	30389.52
580.01	30803.79
580.17	30478.46
580.33	30649.32
580.49	30932.52
580.65	30597.82
580.82	30529.95
580.98	30764.00
581.14	30693.79
581.30	30920.82
581.46	30890.39
581.62	30433.99
581.78	30359.09
581.94	30916.14
582.10	30618.89
582.26	30941.88
582.42	30728.89
582.58	30920.82
582.74	30728.89
582.90	30941.88
583.06	30923.16
583.22	30899.75
583.38	30850.60
583.54	30609.53
583.70	30621.23
583.86	30675.06
584.02	30820.17
584.18	30693.79
584.34	30909.11
584.50	31337.43
584.66	30815.49
584.82	30927.84
584.98	30986.35
585.14	30895.07
585.30	30682.08
585.46	30773.36
585.62	30562.72
585.78	30487.82
585.94	30342.70
586.10	30969.97
586.26	30944.22
586.42	31173.60
586.58	31154.87
586.74	30789.75
586.90	30712.51
587.06	30455.05
587.22	30857.62
587.38	30888.05
587.54	31040.18
587.70	30904.43
587.86	30979.33
588.02	31070.61
588.18	31236.79
588.34	31068.27
588.49	30991.03
588.65	30817.83
588.81	30820.17
588.97	31215.72
589.13	31253.17
589.29	30625.91
589.45	30939.54
589.61	31225.09
589.77	31232.11
589.93	30876.35
590.08	31405.31
590.24	31206.36
590.40	31101.04
590.56	31370.20
590.72	30632.93
590.88	31180.62
591.04	30831.88
591.20	31117.42
591.35	31122.10
591.51	31358.50
591.67	31119.76
591.83	31234.45
591.99	31346.79
