SpectraSuite Data File
++++++++++++++++++++++++++++++++++++
Date: Fri Oct 18 13:57:58 GMT-05:00 2013
User: bianchi
Dark Spectrum Present: No
Reference Spectrum Present: No
Number of Sampled Component Spectra: 1
Spectrometers: USB2+H05261
Integration Time (usec): 50000 (USB2+H05261)
Spectra Averaged: 1 (USB2+H05261)
Boxcar Smoothing: 0 (USB2+H05261)
Correct for Electrical Dark: No (USB2+H05261)
Strobe/Lamp Enabled: No (USB2+H05261)
Correct for Detector Non-linearity: No (USB2+H05261)
Correct for Stray Light: No (USB2+H05261)
Number of Pixels in Processed Spectrum: 2048
>>>>>Begin Processed Spectral Data<<<<<
365.73	0.00
365.92	0.00
366.12	0.00
366.32	0.00
366.52	0.00
366.72	0.00
366.91	0.00
367.11	0.00
367.31	0.00
367.51	0.00
367.70	0.00
367.90	0.00
368.10	0.00
368.30	0.00
368.49	0.00
368.69	0.00
368.89	0.00
369.09	0.00
369.28	0.00
369.48	0.00
369.68	0.00
369.87	0.00
370.07	0.00
370.27	0.00
370.47	0.00
370.66	46.81
370.86	124.05
371.06	180.22
371.25	128.73
371.45	154.48
371.65	215.33
371.84	98.30
372.04	159.16
372.24	159.16
372.44	201.29
372.63	222.35
372.83	229.37
373.03	114.69
373.22	201.29
373.42	201.29
373.62	220.01
373.81	220.01
374.01	311.29
374.21	280.86
374.40	177.88
374.60	212.99
374.79	210.65
374.99	248.10
375.19	229.37
375.38	264.48
375.58	234.05
375.78	283.20
375.97	203.63
376.17	220.01
376.37	259.80
376.56	332.36
376.76	177.88
376.95	170.86
377.15	245.76
377.35	262.14
377.54	285.55
377.74	297.25
377.93	241.08
378.13	245.76
378.33	257.46
378.52	304.27
378.72	269.16
378.91	313.63
379.11	264.48
379.31	297.25
379.50	330.02
379.70	374.49
379.89	257.46
380.09	318.31
380.28	313.63
380.48	315.97
380.68	278.52
380.87	358.10
381.07	217.67
381.26	351.08
381.46	332.36
381.65	252.78
381.85	351.08
382.04	315.97
382.24	301.93
382.43	334.70
382.63	397.89
382.83	444.70
383.02	414.27
383.22	376.83
383.41	407.25
383.61	339.38
383.80	414.27
384.00	395.55
384.19	318.31
384.39	386.19
384.58	374.49
384.78	475.13
384.97	521.94
385.17	404.91
385.36	365.12
385.56	440.02
385.75	393.21
385.95	486.83
386.14	486.83
386.34	500.87
386.53	472.79
386.72	379.17
386.92	379.17
387.11	320.65
387.31	440.02
387.50	383.85
387.70	411.93
387.89	498.53
388.09	521.94
388.28	388.53
388.48	479.81
388.67	535.98
388.86	496.19
389.06	444.70
389.25	463.43
389.45	397.89
389.64	538.32
389.84	472.79
390.03	489.17
390.22	552.37
390.42	482.15
390.61	521.94
390.81	475.13
391.00	472.79
391.19	514.92
391.39	531.30
391.58	484.49
391.78	454.06
391.97	533.64
392.16	524.28
392.36	547.69
392.55	477.47
392.75	528.96
392.94	517.26
393.13	592.16
393.33	622.58
393.52	613.22
393.71	629.60
393.91	596.84
394.10	538.32
394.29	634.29
394.49	540.66
394.68	669.39
394.88	657.69
395.07	641.31
395.26	648.33
395.46	676.41
395.65	641.31
395.84	624.92
396.04	744.29
396.23	641.31
396.42	751.31
396.62	585.13
396.81	692.80
397.00	732.59
397.19	788.76
397.39	681.10
397.58	641.31
397.77	709.18
397.97	610.88
398.16	678.76
398.35	760.67
398.55	720.88
398.74	718.54
398.93	734.93
399.12	727.91
399.32	704.50
399.51	758.33
399.70	695.14
399.90	725.57
400.09	791.10
400.28	791.10
400.47	786.42
400.67	809.83
400.86	849.61
401.05	779.40
401.24	770.04
401.44	828.55
401.63	870.68
401.82	814.51
402.01	835.57
402.21	802.80
402.40	868.34
402.59	807.48
402.78	814.51
402.97	842.59
403.17	875.36
403.36	938.55
403.55	870.68
403.74	966.64
403.93	903.45
404.13	915.15
404.32	861.32
404.51	938.55
404.70	1057.92
404.89	1034.52
405.09	997.07
405.28	929.19
405.47	940.90
405.66	968.98
405.85	1069.62
406.05	910.47
406.24	1062.60
406.43	912.81
406.62	1104.73
406.81	1088.35
407.00	961.96
407.20	990.05
407.39	1053.24
407.58	1046.22
407.77	1046.22
407.96	1118.78
408.15	1146.86
408.34	978.34
408.54	1205.38
408.73	1107.07
408.92	1191.33
409.11	1069.62
409.30	1160.91
409.49	1219.42
409.68	1196.01
409.87	1135.16
410.07	1214.74
410.26	1193.67
410.45	1128.14
410.64	1254.53
410.83	1226.44
411.02	1245.16
411.21	1268.57
411.40	1179.63
411.59	1289.64
411.78	1270.91
411.98	1317.72
412.17	1387.94
412.36	1284.95
412.55	1282.61
412.74	1455.81
412.93	1369.21
413.12	1254.53
413.31	1462.83
413.50	1399.64
413.69	1465.18
413.88	1511.99
414.07	1453.47
414.26	1568.16
414.45	1390.28
414.64	1547.09
414.83	1565.82
415.02	1558.80
415.22	1610.29
415.41	1624.33
415.60	1605.61
415.79	1530.71
415.98	1572.84
416.17	1699.23
416.36	1575.18
416.55	1650.08
416.74	1788.17
416.93	1720.29
417.12	1692.21
417.31	1696.89
417.50	1736.68
417.69	1774.13
417.88	1830.30
418.07	1717.95
418.26	1781.15
418.45	1799.87
418.64	1771.79
418.83	1877.11
419.02	1811.57
419.21	1860.73
419.39	1888.81
419.58	1825.62
419.77	1823.28
419.96	1867.75
420.15	1963.71
420.34	1760.08
420.53	1961.37
420.72	1998.82
420.91	1874.77
421.10	2054.99
421.29	2022.22
421.48	1998.82
421.67	1944.99
421.86	2097.12
422.05	1994.14
422.24	1942.64
422.43	2026.90
422.61	2036.27
422.80	2099.46
422.99	1944.99
423.18	2031.58
423.37	2069.03
423.56	2087.76
423.75	2022.22
423.94	2069.03
424.13	1879.45
424.32	1973.07
424.50	2038.61
424.69	2099.46
424.88	2118.18
425.07	2101.80
425.26	2115.84
425.45	2090.10
425.64	2026.90
425.83	2050.31
426.01	2101.80
426.20	2125.21
426.39	2122.87
426.58	2132.23
426.77	2136.91
426.96	2186.06
427.15	2083.08
427.33	2190.74
427.52	2176.70
427.71	2270.32
427.90	2270.32
428.09	2291.38
428.28	2286.70
428.46	2165.00
428.65	2146.27
428.84	2286.70
429.03	2335.85
429.22	2200.10
429.40	2305.43
429.59	2282.02
429.78	2275.00
429.97	2172.02
430.16	2136.91
430.34	2338.20
430.53	2349.90
430.72	2286.70
430.91	2338.20
431.10	2200.10
431.28	2406.07
431.47	2382.67
431.66	2375.64
431.85	2415.43
432.03	2422.45
432.22	2499.69
432.41	2558.21
432.60	2548.84
432.79	2436.50
432.97	2476.29
433.16	2293.72
433.35	2602.68
433.54	2530.12
433.72	2691.62
433.91	2588.63
434.10	2630.76
434.28	2466.92
434.47	2605.02
434.66	2621.40
434.85	2743.11
435.03	2567.57
435.22	2818.00
435.41	2810.98
435.59	2733.75
435.78	2691.62
435.97	2677.57
436.16	2773.53
436.34	2740.77
436.53	2743.11
436.72	2759.49
436.90	2909.29
437.09	2693.96
437.28	2712.68
437.46	2839.07
437.65	2820.35
437.84	2834.39
438.02	2771.19
438.21	2850.77
438.40	2722.04
438.58	3009.93
438.77	3016.95
438.96	2935.03
439.14	3023.97
439.33	2876.52
439.52	2899.92
439.70	3019.29
439.89	3133.98
440.08	3122.27
440.26	3145.68
440.45	3028.65
440.63	3129.30
440.82	3225.26
441.01	3251.00
441.19	3211.22
441.38	3279.09
441.57	3265.05
441.75	3309.52
441.94	3361.01
442.12	3248.66
442.31	3407.82
442.50	3370.37
442.68	3283.77
442.87	3325.90
443.05	3463.99
443.24	3524.85
443.43	3442.93
443.61	3494.42
443.80	3609.11
443.98	3421.86
444.17	3410.16
444.35	3442.93
444.54	3489.74
444.73	3548.25
444.91	3595.06
445.10	3433.57
445.28	3510.80
445.47	3548.25
445.65	3552.93
445.84	3595.06
446.02	3672.30
446.21	3557.61
446.39	3520.17
446.58	3501.44
446.77	3665.28
446.95	3459.31
447.14	3569.32
447.32	3646.55
447.51	3634.85
447.69	3543.57
447.88	3630.17
448.06	3648.90
448.25	3550.59
448.43	3501.44
448.62	3665.28
448.80	3599.74
448.99	3620.81
449.17	3672.30
449.36	3735.50
449.54	3775.28
449.73	3761.24
449.91	3819.75
450.10	3817.41
450.28	3819.75
450.46	3836.14
450.65	3859.54
450.83	3932.10
451.02	3758.90
451.20	3866.56
451.39	3817.41
451.57	3868.91
451.76	3819.75
451.94	3772.94
452.13	3913.38
452.31	4067.85
452.49	3950.82
452.68	4037.42
452.86	3990.61
453.05	4021.04
453.23	3964.87
453.42	3957.85
453.60	3817.41
453.78	3969.55
453.97	4044.45
454.15	4100.62
454.34	3892.31
454.52	4105.30
454.70	4154.45
454.89	4074.87
455.07	4098.28
455.26	4205.94
455.44	4212.96
455.62	4196.58
455.81	4156.79
455.99	4168.49
456.17	4227.01
456.36	4205.94
456.54	4334.67
456.73	4409.57
456.91	4411.91
457.09	4404.89
457.28	4409.57
457.46	4372.12
457.64	4379.14
457.83	4435.32
458.01	4329.99
458.19	4367.44
458.38	4440.00
458.56	4514.89
458.74	4507.87
458.93	4430.63
459.11	4470.42
459.29	4482.13
459.48	4486.81
459.66	4648.30
459.84	4601.49
460.03	4664.69
460.21	4713.84
460.39	4711.50
460.57	4622.56
460.76	4648.30
460.94	4861.29
461.12	4685.75
461.31	4706.82
461.49	4734.90
461.67	4741.93
461.85	4816.82
462.04	4896.40
462.22	5247.48
462.40	4798.10
462.59	4861.29
462.77	4851.93
462.95	4929.17
463.13	4905.76
463.32	4961.94
463.50	4968.96
463.68	4835.55
463.86	4863.63
464.05	5015.77
464.23	4912.78
464.41	5027.47
464.59	4922.15
464.78	5167.90
464.96	5064.92
465.14	4865.97
465.32	4992.36
465.50	5214.71
465.69	5156.20
465.87	5060.24
466.05	4898.74
466.23	5053.22
466.41	5123.43
466.60	5376.21
466.78	5170.24
466.96	5071.94
467.14	5130.45
467.32	5242.80
467.51	5334.08
467.69	5027.47
467.87	5083.64
468.05	5355.15
468.23	5256.84
468.41	5275.57
468.60	5364.51
468.78	5242.80
468.96	5270.89
469.14	5401.96
469.32	5448.77
469.50	5282.59
469.69	5423.02
469.87	5439.40
470.05	5643.03
470.23	5652.39
470.41	5633.67
470.59	5589.20
470.77	5556.43
470.95	5551.75
471.14	5778.78
471.32	5685.16
471.50	5579.84
471.68	5640.69
471.86	5778.78
472.04	5849.00
472.22	5949.64
472.40	5785.80
472.58	5912.19
472.77	5937.94
472.95	5891.13
473.13	6104.12
473.31	6017.52
473.49	5951.98
473.67	5891.13
473.85	5984.75
474.03	6045.60
474.21	6181.35
474.39	6047.94
474.57	6092.41
474.75	6218.80
474.93	6267.95
475.12	6244.55
475.30	6319.45
475.48	6270.30
475.66	6347.53
475.84	6377.96
476.02	6487.96
476.20	6396.68
476.38	6691.59
476.56	6590.95
476.74	6782.87
476.92	6602.65
477.10	6710.32
477.28	6747.76
477.46	6747.76
477.64	7037.99
477.82	7030.97
478.00	7056.72
478.18	6958.41
478.36	7173.74
478.54	7030.97
478.72	7190.13
478.90	7258.00
479.08	7304.81
479.26	7573.97
479.44	7368.01
479.62	7351.62
479.80	7492.05
479.98	7454.61
480.16	7648.87
480.34	7817.39
480.52	7786.96
480.70	7978.89
480.88	7705.04
481.06	8039.74
481.24	7997.61
481.41	8025.70
481.59	8109.96
481.77	8229.32
481.95	8285.50
482.13	8327.63
482.31	8461.04
482.49	8475.08
482.67	8545.30
482.85	8685.73
483.03	8624.87
483.21	8879.99
483.39	8643.60
483.57	8826.16
483.74	8720.84
483.92	8779.35
484.10	8837.86
484.28	9200.65
484.46	9144.47
484.64	9369.16
484.82	9174.90
485.00	9301.29
485.18	9455.76
485.35	9596.20
485.53	9579.81
485.71	9589.17
485.89	9673.43
486.07	9764.72
486.25	9788.12
486.43	9926.21
486.61	10024.51
486.78	10106.43
486.96	10022.17
487.14	10209.42
487.32	10174.31
487.50	10380.28
487.68	10438.79
487.85	10539.43
488.03	10331.12
488.21	10808.59
488.39	10724.33
488.57	10965.41
488.75	10738.38
488.92	11103.50
489.10	11290.74
489.28	11176.06
489.46	11370.32
489.64	11459.26
489.81	11709.70
489.99	11705.02
490.17	11515.44
490.35	11665.23
490.53	11899.28
490.70	11885.24
490.88	11747.15
491.06	12107.59
491.24	12133.34
491.41	12088.87
491.59	12219.94
491.77	12372.07
491.95	12542.93
492.13	12446.97
492.30	12575.70
492.48	12692.73
492.66	12461.01
492.84	12556.97
493.01	12938.48
493.19	12933.80
493.37	13245.09
493.54	13085.94
493.72	13343.39
493.90	13135.09
494.08	13195.94
494.25	13467.44
494.43	13497.87
494.61	13570.43
494.79	13951.93
494.96	13701.50
495.14	14029.17
495.32	13771.71
495.49	13989.38
495.67	13879.38
495.85	14207.05
496.02	14129.81
496.20	14223.44
496.38	14326.42
496.55	14387.27
496.73	14862.40
496.91	14661.12
497.09	14583.88
497.26	14937.30
497.44	14710.27
497.62	14691.54
497.79	15206.46
497.97	14698.56
498.14	14881.13
498.32	15201.78
498.50	15276.68
498.67	15473.28
498.85	15286.04
499.03	15042.62
499.20	15295.40
499.38	15548.18
499.56	15651.16
499.73	15667.55
499.91	15513.07
500.08	15667.55
500.26	15529.45
500.44	15983.52
500.61	15974.16
500.79	16023.31
500.97	15910.96
501.14	16257.36
501.32	16439.92
501.49	16266.72
501.67	16175.44
501.84	16407.16
502.02	16121.61
502.20	16430.56
502.37	16416.52
502.55	16578.01
502.72	16755.90
502.90	16542.91
503.07	16657.59
503.25	16596.74
503.43	16657.59
503.60	16938.46
503.78	16865.90
503.95	16872.92
504.13	16863.56
504.30	17006.33
504.48	17069.53
504.65	17088.25
504.83	17305.92
505.01	17589.13
505.18	17238.05
505.36	17509.55
505.53	17399.54
505.71	17706.15
505.88	17797.43
506.06	17380.82
506.23	17596.15
506.41	17591.47
506.58	17958.93
506.76	17989.36
506.93	18031.49
507.11	17806.80
507.28	18293.63
507.46	17893.40
507.63	18228.09
507.81	18272.56
507.98	18090.00
508.16	18284.26
508.33	18459.81
508.50	18192.98
508.68	18415.34
508.85	18724.29
509.03	18775.78
509.20	18527.68
509.38	18761.73
509.55	18789.82
509.73	18469.17
509.90	18981.74
510.08	18923.23
510.25	18827.27
510.42	19140.90
510.60	19150.26
510.77	18986.43
510.95	19417.08
511.12	18874.08
511.30	19084.73
511.47	18956.00
511.64	19328.14
511.82	19513.05
511.99	19314.10
512.17	19358.57
512.34	19601.99
512.51	19686.25
512.69	19695.61
512.86	19733.06
513.04	19861.79
513.21	19978.81
513.38	19850.08
513.56	19915.62
513.73	19831.36
513.90	19985.83
514.08	19686.25
514.25	20095.84
514.43	20308.83
514.60	20444.58
514.77	20189.46
514.95	20456.28
515.12	20400.11
515.29	20374.36
515.47	20521.82
515.64	20613.10
515.81	20556.93
515.99	20699.70
516.16	20439.90
516.33	20610.76
516.51	20645.87
516.68	20355.64
516.85	20802.68
517.03	20823.75
517.20	20950.14
517.37	21118.65
517.54	21202.91
517.72	21209.93
517.89	21071.84
518.06	21137.38
518.24	21078.86
518.41	21212.28
518.58	21528.25
518.75	21193.55
518.93	21371.43
519.10	21193.55
519.27	21881.67
519.45	21546.97
519.62	21785.71
519.79	21617.19
519.96	21415.90
520.14	21729.53
520.31	21820.81
520.48	21954.22
520.65	21841.88
520.83	22181.26
521.00	22164.87
521.17	22031.46
521.34	21848.90
521.52	21935.50
521.69	22174.24
521.86	22111.04
522.03	22288.92
522.20	22288.92
522.38	22398.93
522.55	22555.74
522.72	22403.61
522.89	22677.45
523.07	23005.13
523.24	22628.30
523.41	22548.72
523.58	22485.53
523.75	22710.22
523.92	22539.36
524.10	22899.80
524.27	22815.54
524.44	22817.88
524.61	23234.50
524.78	23108.11
524.96	22668.09
525.13	23400.68
525.30	23257.90
525.47	22955.97
525.64	22817.88
525.81	23323.44
525.98	23653.45
526.16	23634.73
526.33	23498.98
526.50	23765.80
526.67	23260.24
526.84	23218.11
527.01	23651.11
527.18	23466.21
527.36	23793.89
527.53	23585.58
527.70	23749.42
527.87	24058.37
528.04	23733.03
528.21	23742.39
528.38	23969.43
528.55	24006.87
528.72	23723.67
528.89	23903.89
529.07	24067.73
529.24	24081.77
529.41	23943.68
529.58	24266.67
529.75	23969.43
529.92	23985.81
530.09	24421.15
530.26	23950.70
530.43	24388.38
530.60	24100.50
530.77	24142.63
530.94	24346.25
531.11	24276.04
531.28	24194.12
531.46	24596.69
531.63	24613.07
531.80	24706.70
531.97	24854.15
532.14	24844.79
532.31	24655.20
532.48	24716.06
532.65	25118.63
532.82	24666.91
532.99	24966.49
533.16	24629.46
533.33	24938.41
533.50	25146.72
533.67	25336.30
533.84	25223.95
534.01	25156.08
534.18	24765.21
534.35	25373.75
534.52	24985.22
534.69	25235.66
534.86	25493.12
535.03	25340.98
535.20	25476.73
535.37	25521.20
535.54	25530.56
535.71	25195.87
535.88	25443.96
536.05	25422.90
536.22	25535.24
536.38	25671.00
536.55	25673.34
536.72	25308.21
536.89	25750.57
537.06	25420.56
537.23	25879.30
537.40	25816.11
537.57	25837.17
537.74	26127.40
537.91	26225.70
538.08	25968.24
538.25	25921.43
538.42	25586.74
538.59	26022.08
538.75	25668.66
538.92	26096.97
539.09	26103.99
539.26	25898.03
539.43	26059.52
539.60	26429.33
539.77	26235.06
539.94	26153.15
540.11	26230.38
540.28	26499.55
540.44	25972.92
540.61	26012.71
540.78	26171.87
540.95	26403.58
541.12	26300.60
541.29	26625.93
541.46	26614.23
541.62	26309.96
541.79	26218.68
541.96	26279.54
542.13	26263.15
542.30	26569.76
542.47	26998.08
542.63	26841.26
542.80	26808.50
542.97	26855.31
543.14	26820.20
543.31	26834.24
543.48	27014.46
543.64	27143.19
543.81	27552.79
543.98	27351.50
544.15	27309.37
544.32	27494.27
544.48	27248.52
544.65	27276.60
544.82	27119.79
544.99	26876.37
545.16	27166.60
545.32	26998.08
545.49	27908.55
545.66	27632.36
545.83	27513.00
546.00	27789.18
546.16	27608.96
546.33	27424.06
546.50	27033.19
546.67	27449.80
546.83	27314.05
547.00	27880.46
547.17	27639.39
547.34	27604.28
547.50	27990.47
547.67	28158.99
547.84	27662.79
548.00	28177.71
548.17	28034.94
548.34	27838.33
548.51	27985.79
548.67	27896.85
548.84	28187.07
549.01	27688.54
549.18	28046.64
549.34	27592.58
549.51	27997.49
549.68	28184.73
549.84	27960.04
550.01	27913.23
550.18	28187.07
550.34	28395.38
550.51	28533.47
550.68	28936.04
550.84	28070.04
551.01	28163.67
551.18	27999.83
551.34	28257.29
551.51	28273.67
551.68	28037.28
551.84	28053.66
552.01	28407.08
552.18	28645.82
552.34	28631.77
552.51	28755.82
552.68	28547.51
552.84	28353.25
553.01	28484.32
553.18	28692.63
553.34	28830.72
553.51	28781.57
553.67	28650.50
553.84	29277.76
554.01	29284.78
554.17	28844.76
554.34	29081.16
554.51	28554.54
554.67	28676.24
554.84	29120.95
555.00	29106.90
555.17	28456.23
555.33	28936.04
555.50	28804.97
555.67	29039.03
555.83	28788.59
556.00	29193.50
556.16	29387.77
556.33	28680.92
556.50	28968.81
556.66	29123.29
556.83	28514.75
556.99	29219.25
557.16	29656.93
557.32	29399.47
557.49	29434.58
557.65	29317.55
557.82	28917.32
557.98	28797.95
558.15	29090.52
558.32	29153.71
558.48	29411.17
558.65	29560.97
558.81	29603.10
558.98	29701.40
559.14	29310.53
559.31	29378.40
559.47	29146.69
559.64	29109.24
559.80	29539.90
559.97	29631.18
560.13	29380.74
560.30	29551.60
560.46	29584.37
560.63	29385.43
560.79	29610.12
560.96	29591.39
561.12	29476.71
561.29	29340.96
561.45	29518.84
561.61	29649.91
561.78	29481.39
561.94	29979.92
562.11	30073.54
562.27	29780.98
562.44	29673.31
562.60	29848.85
562.77	29635.86
562.93	29806.72
563.10	29799.70
563.26	29820.77
563.42	30225.68
563.59	29743.53
563.75	30057.16
563.92	29841.83
564.08	29738.85
564.24	29858.21
564.41	29853.53
564.57	29942.47
564.74	29898.00
564.90	29947.15
565.07	29827.79
565.23	30265.47
565.39	29816.08
565.56	29692.04
565.72	30008.01
565.88	29865.24
566.05	30136.74
566.21	29699.06
566.38	29886.30
566.54	29685.01
566.70	30354.41
566.87	30274.83
567.03	30288.87
567.19	30216.32
567.36	30115.67
567.52	30188.23
567.68	30361.43
567.85	30082.91
568.01	30183.55
568.17	29886.30
568.34	30230.36
568.50	30110.99
568.66	30127.38
568.83	30443.35
568.99	29977.58
569.15	30270.15
569.32	30291.21
569.48	29771.61
569.64	29935.45
569.81	29919.07
569.97	30218.66
570.13	30670.38
570.30	30232.70
570.46	30150.78
570.62	30206.95
570.78	30316.96
570.95	30141.42
571.11	30274.83
571.27	30017.37
571.43	29986.94
571.60	30452.71
571.76	30122.69
571.92	30373.13
572.09	30466.75
572.25	30249.08
572.41	30677.40
572.57	30497.18
572.74	30466.75
572.90	30569.74
573.06	30347.39
573.22	30476.12
573.38	30649.32
573.55	30389.52
573.71	30745.28
573.87	30735.92
574.03	30132.06
574.20	30452.71
574.36	29965.88
574.52	30536.97
574.68	30363.77
574.84	30457.39
575.01	30696.13
575.17	30387.18
575.33	30480.80
575.49	30874.01
575.65	30866.98
575.82	30637.61
575.98	30525.27
576.14	30331.00
576.30	30380.15
576.46	30569.74
576.62	30712.51
576.79	30682.08
576.95	30265.47
577.11	30328.66
577.27	30707.83
577.43	30845.92
577.59	30492.50
577.75	30272.49
577.92	30396.54
578.08	30129.72
578.24	30438.67
578.40	30749.96
578.56	30581.44
578.72	31126.78
578.88	30820.17
579.04	30850.60
579.21	30745.28
579.37	30551.01
579.53	30476.12
579.69	30567.40
579.85	30714.85
580.01	30476.12
580.17	30625.91
580.33	30527.61
580.49	30508.88
580.65	30642.29
580.82	30946.56
580.98	30646.97
581.14	30754.64
581.30	31145.51
581.46	30686.76
581.62	30522.93
581.78	30717.19
581.94	30892.73
582.10	30639.95
582.26	31035.50
582.42	31110.40
582.58	30703.15
582.74	30808.47
582.90	30738.26
583.06	30686.76
583.22	30569.74
583.38	30609.53
583.54	30625.91
583.70	30480.80
583.86	30806.13
584.02	30829.54
584.18	30740.60
584.34	31115.08
584.50	30625.91
584.66	30869.33
584.82	30916.14
584.98	30799.11
585.14	30710.17
585.30	30677.40
585.46	31290.62
585.62	30646.97
585.78	30700.81
585.94	30567.40
586.10	30742.94
586.26	30857.62
586.42	30874.01
586.58	30881.03
586.74	30740.60
586.90	30707.83
587.06	31180.62
587.22	30969.97
587.38	30899.75
587.54	31370.20
587.70	31168.91
587.86	31054.23
588.02	31042.53
588.18	31019.12
588.34	31360.84
588.49	30785.07
588.65	31061.25
588.81	31042.53
588.97	31082.31
589.13	30829.54
589.29	30881.03
589.45	31070.61
589.61	30822.51
589.77	31297.64
589.93	31164.23
590.08	31325.73
590.24	30969.97
590.40	30806.13
590.56	31253.17
590.72	31075.29
590.88	31049.55
591.04	31274.24
591.20	30789.75
591.35	31470.84
591.51	31648.72
591.67	31370.20
591.83	31494.25
591.99	31145.51
