SpectraSuite Data File
++++++++++++++++++++++++++++++++++++
Date: Fri Oct 18 13:58:37 GMT-05:00 2013
User: bianchi
Dark Spectrum Present: No
Reference Spectrum Present: No
Number of Sampled Component Spectra: 1
Spectrometers: USB2+H05261
Integration Time (usec): 50000 (USB2+H05261)
Spectra Averaged: 1 (USB2+H05261)
Boxcar Smoothing: 0 (USB2+H05261)
Correct for Electrical Dark: No (USB2+H05261)
Strobe/Lamp Enabled: No (USB2+H05261)
Correct for Detector Non-linearity: No (USB2+H05261)
Correct for Stray Light: No (USB2+H05261)
Number of Pixels in Processed Spectrum: 2048
>>>>>Begin Processed Spectral Data<<<<<
365.73	0.00
365.92	0.00
366.12	0.00
366.32	0.00
366.52	0.00
366.72	0.00
366.91	0.00
367.11	0.00
367.31	0.00
367.51	0.00
367.70	0.00
367.90	0.00
368.10	0.00
368.30	0.00
368.49	0.00
368.69	0.00
368.89	0.00
369.09	0.00
369.28	0.00
369.48	0.00
369.68	0.00
369.87	0.00
370.07	0.00
370.27	23.41
370.47	0.00
370.66	53.83
370.86	65.54
371.06	145.11
371.25	156.82
371.45	184.90
371.65	182.56
371.84	189.58
372.04	100.64
372.24	187.24
372.44	177.88
372.63	147.45
372.83	205.97
373.03	215.33
373.22	196.60
373.42	201.29
373.62	159.16
373.81	215.33
374.01	236.39
374.21	208.31
374.40	243.42
374.60	215.33
374.79	245.76
374.99	269.16
375.19	215.33
375.38	283.20
375.58	311.29
375.78	203.63
375.97	236.39
376.17	332.36
376.37	236.39
376.56	250.44
376.76	313.63
376.95	269.16
377.15	241.08
377.35	236.39
377.54	229.37
377.74	238.73
377.93	344.06
378.13	227.03
378.33	322.99
378.52	283.20
378.72	273.84
378.91	210.65
379.11	252.78
379.31	212.99
379.50	248.10
379.70	297.25
379.89	362.78
380.09	318.31
380.28	297.25
380.48	418.96
380.68	330.02
380.87	269.16
381.07	285.55
381.26	245.76
381.46	360.44
381.65	400.23
381.85	397.89
382.04	390.87
382.24	325.33
382.43	322.99
382.63	301.93
382.83	362.78
383.02	360.44
383.22	369.80
383.41	388.53
383.61	400.23
383.80	360.44
384.00	330.02
384.19	332.36
384.39	318.31
384.58	468.11
384.78	365.12
384.97	444.70
385.17	341.72
385.36	444.70
385.56	400.23
385.75	325.33
385.95	409.59
386.14	337.04
386.34	376.83
386.53	440.02
386.72	379.17
386.92	442.36
387.11	444.70
387.31	461.09
387.50	433.00
387.70	411.93
387.89	465.77
388.09	538.32
388.28	496.19
388.48	430.66
388.67	444.70
388.86	388.53
389.06	458.74
389.25	402.57
389.45	425.98
389.64	449.38
389.84	454.06
390.03	519.60
390.22	444.70
390.42	503.22
390.61	484.49
390.81	486.83
391.00	376.83
391.19	475.13
391.39	479.81
391.58	496.19
391.78	479.81
391.97	510.24
392.16	538.32
392.36	615.56
392.55	451.72
392.75	545.34
392.94	601.52
393.13	564.07
393.33	662.37
393.52	624.92
393.71	528.96
393.91	531.30
394.10	512.58
394.29	606.20
394.49	650.67
394.68	629.60
394.88	631.94
395.07	571.09
395.26	648.33
395.46	573.43
395.65	599.18
395.84	664.71
396.04	617.90
396.23	634.29
396.42	678.76
396.62	650.67
396.81	627.26
397.00	613.22
397.19	695.14
397.39	638.97
397.58	653.01
397.77	678.76
397.97	709.18
398.16	641.31
398.35	702.16
398.55	683.44
398.74	732.59
398.93	711.52
399.12	751.31
399.32	734.93
399.51	653.01
399.70	732.59
399.90	744.29
400.09	777.06
400.28	706.84
400.47	671.73
400.67	725.57
400.86	922.17
401.05	758.33
401.24	770.04
401.44	784.08
401.63	793.44
401.82	873.02
402.01	746.63
402.21	847.27
402.40	858.98
402.59	866.00
402.78	821.53
402.97	821.53
403.17	851.96
403.36	875.36
403.55	894.08
403.74	866.00
403.93	863.66
404.13	903.45
404.32	884.72
404.51	973.66
404.70	924.51
404.89	919.83
405.09	976.00
405.28	912.81
405.47	945.58
405.66	950.26
405.85	924.51
406.05	1022.81
406.24	978.34
406.43	1041.54
406.62	954.94
406.81	1015.79
407.00	957.28
407.20	940.90
407.39	947.92
407.58	1025.15
407.77	1039.20
407.96	1067.28
408.15	1090.69
408.34	1149.20
408.54	1097.71
408.73	1153.88
408.92	1100.05
409.11	1109.41
409.30	1151.54
409.49	1137.50
409.68	1160.91
409.87	1123.46
410.07	1181.97
410.26	1203.04
410.45	1193.67
410.64	1139.84
410.83	1184.31
411.02	1235.80
411.21	1284.95
411.40	1207.72
411.59	1282.61
411.78	1263.89
411.98	1200.69
412.17	1273.25
412.36	1266.23
412.55	1355.17
412.74	1331.76
412.93	1394.96
413.12	1313.04
413.31	1406.66
413.50	1350.49
413.69	1378.58
413.88	1444.11
414.07	1373.89
414.26	1345.81
414.45	1509.65
414.64	1507.30
414.83	1502.62
415.02	1495.60
415.22	1511.99
415.41	1570.50
415.60	1530.71
415.79	1652.42
415.98	1535.39
416.17	1490.92
416.36	1490.92
416.55	1624.33
416.74	1631.35
416.93	1652.42
417.12	1619.65
417.31	1645.40
417.50	1743.70
417.69	1713.27
417.88	1668.80
418.07	1767.10
418.26	1764.76
418.45	1764.76
418.64	1825.62
418.83	1795.19
419.02	1720.29
419.21	1872.43
419.39	1860.73
419.58	1757.74
419.77	1790.51
419.96	1849.02
420.15	1823.28
420.34	1898.17
420.53	1877.11
420.72	1877.11
420.91	1970.73
421.10	2036.27
421.29	1916.90
421.48	1764.76
421.67	1921.58
421.86	1984.77
422.05	2017.54
422.24	1963.71
422.43	1977.75
422.61	1966.05
422.80	2099.46
422.99	1966.05
423.18	2087.76
423.37	2019.88
423.56	1989.46
423.75	2080.74
423.94	2031.58
424.13	1877.11
424.32	1881.79
424.50	2066.69
424.69	2153.29
424.88	2127.55
425.07	1940.30
425.26	2054.99
425.45	1916.90
425.64	2033.93
425.83	2054.99
426.01	2099.46
426.20	2062.01
426.39	2113.50
426.58	2026.90
426.77	2122.87
426.96	2076.06
427.15	2029.24
427.33	2202.44
427.52	2071.37
427.71	2111.16
427.90	2162.66
428.09	2085.42
428.28	2165.00
428.46	2181.38
428.65	2246.91
428.84	2209.47
429.03	2377.98
429.22	2200.10
429.40	2242.23
429.59	2186.06
429.78	2019.88
429.97	2221.17
430.16	2204.78
430.34	2321.81
430.53	2375.64
430.72	2263.30
430.91	2387.35
431.10	2172.02
431.28	2237.55
431.47	2352.24
431.66	2502.03
431.85	2424.80
432.03	2422.45
432.22	2427.14
432.41	2511.39
432.60	2560.55
432.79	2450.54
432.97	2483.31
433.16	2462.24
433.35	2452.88
433.54	2490.33
433.72	2483.31
433.91	2506.71
434.10	2499.69
434.28	2431.82
434.47	2410.75
434.66	2621.40
434.85	2581.61
435.03	2565.23
435.22	2656.51
435.41	2712.68
435.59	2642.46
435.78	2567.57
435.97	2588.63
436.16	2644.81
436.34	2689.28
436.53	2663.53
436.72	2799.28
436.90	2633.10
437.09	2698.64
437.28	2621.40
437.46	2778.22
437.65	2733.75
437.84	2679.91
438.02	2719.70
438.21	2747.79
438.40	2743.11
438.58	2766.51
438.77	2979.50
438.96	2930.35
439.14	3073.12
439.33	2995.89
439.52	3009.93
439.70	2988.86
439.89	2953.76
440.08	2888.22
440.26	2960.78
440.45	3089.51
440.63	3143.34
440.82	3075.46
441.01	3028.65
441.19	3014.61
441.38	3150.36
441.57	3162.06
441.75	3246.32
441.94	3276.75
442.12	3213.56
442.31	3279.09
442.50	3297.81
442.68	3297.81
442.87	3253.34
443.05	3300.16
443.24	3314.20
443.43	3206.53
443.61	3253.34
443.80	3403.14
443.98	3375.05
444.17	3262.71
444.35	3428.88
444.54	3487.40
444.73	3524.85
444.91	3396.12
445.10	3403.14
445.28	3428.88
445.47	3342.28
445.65	3375.05
445.84	3501.44
446.02	3524.85
446.21	3522.51
446.39	3548.25
446.58	3651.24
446.77	3496.76
446.95	3543.57
447.14	3424.20
447.32	3552.93
447.51	3510.80
447.69	3510.80
447.88	3435.91
448.06	3604.42
448.25	3672.30
448.43	3508.46
448.62	3662.94
448.80	3644.21
448.99	3641.87
449.17	3592.72
449.36	3510.80
449.54	3655.92
449.73	3712.09
449.91	3648.90
450.10	3595.06
450.28	3676.98
450.46	3653.58
450.65	3686.34
450.83	3801.03
451.02	3768.26
451.20	3765.92
451.39	3648.90
451.57	3609.11
451.76	3794.01
451.94	3775.28
452.13	3927.42
452.31	3875.93
452.49	3896.99
452.68	3840.82
452.86	3925.08
453.05	3770.60
453.23	3756.56
453.42	3838.48
453.60	3822.09
453.78	3840.82
453.97	3899.33
454.15	3955.51
454.34	3789.33
454.52	4081.89
454.70	3847.84
454.89	4093.60
455.07	4079.55
455.26	3960.19
455.44	4042.11
455.62	4114.66
455.81	4194.24
455.99	4051.47
456.17	4065.51
456.36	4203.60
456.54	4215.30
456.73	4056.15
456.91	4313.61
457.09	4351.06
457.28	4320.63
457.46	4271.48
457.64	4390.84
457.83	4358.08
458.01	4318.29
458.19	4479.79
458.38	4339.35
458.56	4512.55
458.74	4482.13
458.93	4395.53
459.11	4287.86
459.29	4283.18
459.48	4470.42
459.66	4425.95
459.84	4517.23
460.03	4550.00
460.21	4540.64
460.39	4505.53
460.57	4599.15
460.76	4669.37
460.94	4706.82
461.12	4566.39
461.31	4657.67
461.49	4622.56
461.67	4629.58
461.85	4561.70
462.04	4685.75
462.22	4823.84
462.40	4706.82
462.59	4816.82
462.77	4760.65
462.95	4842.57
463.13	4880.02
463.32	4830.87
463.50	4840.23
463.68	4774.69
463.86	4779.37
464.05	4865.97
464.23	4809.80
464.41	4933.85
464.59	4807.46
464.78	4896.40
464.96	4882.36
465.14	4891.72
465.32	4957.25
465.50	5025.13
465.69	4863.63
465.87	5039.17
466.05	5093.01
466.23	4985.34
466.41	5046.20
466.60	5144.50
466.78	5001.72
466.96	5071.94
467.14	5050.88
467.32	5013.43
467.51	5228.76
467.69	4966.62
467.87	5275.57
468.05	5305.99
468.23	5181.95
468.41	5041.51
468.60	5205.35
468.78	5144.50
468.96	5221.74
469.14	5366.85
469.32	5416.00
469.50	5193.65
469.69	5184.29
469.87	5310.68
470.05	5228.76
470.23	5341.10
470.41	5397.28
470.59	5465.15
470.77	5331.74
470.95	5394.93
471.14	5474.51
471.32	5469.83
471.50	5614.95
471.68	5516.64
471.86	5645.37
472.04	5699.20
472.22	5743.67
472.40	5673.46
472.58	5715.59
472.77	5809.21
472.95	5816.23
473.13	5914.53
473.31	5825.59
473.49	5926.24
473.67	5802.19
473.85	5884.11
474.03	5830.27
474.21	5987.09
474.39	5877.09
474.57	6104.12
474.75	6040.92
474.93	6181.35
475.12	6221.14
475.30	6129.86
475.48	6263.27
475.66	6335.83
475.84	6289.02
476.02	6331.15
476.20	6193.06
476.38	6494.99
476.56	6511.37
476.74	6478.60
476.92	6581.59
477.10	6520.73
477.28	6752.45
477.46	6555.84
477.64	6733.72
477.82	6691.59
478.00	6916.28
478.18	6925.65
478.36	6925.65
478.54	6913.94
478.72	6965.43
478.90	7286.09
479.08	7194.81
479.26	7194.81
479.44	7253.32
479.62	7227.57
479.80	7351.62
479.98	7515.46
480.16	7454.61
480.34	7492.05
480.52	7522.48
480.70	7719.09
480.88	7520.14
481.06	7751.85
481.24	7459.29
481.41	7793.98
481.59	7721.43
481.77	7985.91
481.95	8018.68
482.13	8081.87
482.31	8044.42
482.49	8390.82
482.67	8308.90
482.85	8446.99
483.03	8437.63
483.21	8608.49
483.39	8430.61
483.57	8498.49
483.74	8643.60
483.92	8648.28
484.10	8461.04
484.28	8868.29
484.46	8940.85
484.64	9139.79
484.82	9144.47
485.00	8924.46
485.18	9282.56
485.35	9462.79
485.53	9242.78
485.71	9565.77
485.89	9699.18
486.07	9556.41
486.25	9729.61
486.43	9619.60
486.61	9528.32
486.78	9872.38
486.96	9881.74
487.14	10057.28
487.32	10036.22
487.50	9977.70
487.68	10244.52
487.85	10246.87
488.03	10363.89
488.21	10387.30
488.39	10410.70
488.57	10574.54
488.75	10581.56
488.92	10878.81
489.10	10895.19
489.28	10934.98
489.46	10979.45
489.64	10803.91
489.81	11183.08
489.99	11262.66
490.17	11541.18
490.35	11550.54
490.53	11445.22
490.70	11580.97
490.88	11672.25
491.06	11740.13
491.24	11630.12
491.41	11686.29
491.59	11995.25
491.77	12004.61
491.95	12053.76
492.13	12173.13
492.30	12395.48
492.48	12231.64
492.66	12395.48
492.84	12336.96
493.01	12587.40
493.19	12697.41
493.37	12608.47
493.54	12795.71
493.72	12711.45
493.90	12776.98
494.08	12905.71
494.25	12884.65
494.43	13057.85
494.61	13186.58
494.79	12982.95
494.96	13242.75
495.14	13287.22
495.32	13397.23
495.49	13507.23
495.67	13696.82
495.85	13685.11
496.02	13743.63
496.20	13832.57
496.38	13769.37
496.55	13984.70
496.73	14036.19
496.91	14050.24
497.09	14291.31
497.26	14401.32
497.44	14136.84
497.62	14607.28
497.79	14672.82
497.97	14462.17
498.14	14808.57
498.32	14511.32
498.50	14850.70
498.67	14986.45
498.85	14796.87
499.03	14963.04
499.20	14974.75
499.38	14801.55
499.56	15232.21
499.73	15363.28
499.91	15283.70
500.08	15243.91
500.26	15213.48
500.44	15264.97
500.61	15566.90
500.79	15541.16
500.97	15587.97
501.14	15777.55
501.32	15414.77
501.49	15786.91
501.67	15901.60
501.84	16128.63
502.02	15829.04
502.20	16196.51
502.37	16245.66
502.55	15946.07
502.72	16102.89
502.90	16173.10
503.07	16079.48
503.25	16383.75
503.43	16460.99
503.60	16526.52
503.78	16634.19
503.95	16727.81
504.13	16484.39
504.30	16725.47
504.48	16547.59
504.65	16688.02
504.83	16929.09
505.01	16910.37
505.18	16709.08
505.36	17186.55
505.53	17046.12
505.71	16840.15
505.88	17224.00
506.06	17163.15
506.23	17392.52
506.41	17240.39
506.58	17444.01
506.76	17301.24
506.93	17542.32
507.11	17570.40
507.28	17259.11
507.46	17390.18
507.63	17462.74
507.81	17781.05
507.98	17879.35
508.16	17645.30
508.33	17827.86
508.50	17790.41
508.68	17895.74
508.85	17989.36
509.03	17909.78
509.20	18115.75
509.38	18387.25
509.55	18139.15
509.73	18066.60
509.90	18558.11
510.08	18242.14
510.25	18527.68
510.42	18494.91
510.60	18843.65
510.77	18988.77
510.95	18686.84
511.12	18719.60
511.30	18471.51
511.47	19037.92
511.64	18717.26
511.82	18979.40
511.99	19042.60
512.17	19278.99
512.34	18871.74
512.51	18951.32
512.69	19190.05
512.86	19133.88
513.04	19346.87
513.21	19274.31
513.38	19452.19
513.56	19510.71
513.73	19541.13
513.90	19145.58
514.08	19248.57
514.25	19391.34
514.43	19892.21
514.60	19637.09
514.77	19847.74
514.95	20009.24
515.12	19688.59
515.29	19796.25
515.47	19765.82
515.64	20233.93
515.81	19967.11
515.99	20116.90
516.16	20208.19
516.33	20191.80
516.51	20599.05
516.68	20528.84
516.85	20219.89
517.03	20184.78
517.20	20322.87
517.37	20748.85
517.54	20353.30
517.72	20355.64
517.89	20655.23
518.06	20641.18
518.24	20706.72
518.41	20386.07
518.58	20561.61
518.75	20664.59
518.93	21013.33
519.10	20582.67
519.27	20877.58
519.45	20814.38
519.62	21128.02
519.79	21055.46
519.96	21144.40
520.14	20872.90
520.31	21001.63
520.48	21216.96
520.65	21460.37
520.83	21338.66
521.00	21324.62
521.17	21362.07
521.34	21198.23
521.52	21717.83
521.69	21546.97
521.86	21905.07
522.03	21605.49
522.20	21820.81
522.38	21792.73
522.55	21991.67
522.72	21743.58
522.89	21813.79
523.07	22045.51
523.24	22204.66
523.41	21872.31
523.58	21799.75
523.75	22202.32
523.92	22157.85
524.10	22319.35
524.27	22429.35
524.44	22127.42
524.61	22398.93
524.78	22689.15
524.96	22410.63
525.13	22642.34
525.30	22761.71
525.47	22192.96
525.64	22609.58
525.81	22305.31
525.98	22890.44
526.16	22710.22
526.33	22731.28
526.50	23082.36
526.67	22778.09
526.84	22586.17
527.01	22979.38
527.18	22808.52
527.36	22974.70
527.53	23122.15
527.70	23391.31
527.87	23538.77
528.04	23065.98
528.21	23236.84
528.38	23194.71
528.55	23325.78
528.72	23129.17
528.89	23091.73
529.07	23346.84
529.24	23194.71
529.41	23646.43
529.58	23618.35
529.75	23426.42
529.92	23405.36
530.09	23412.38
530.26	23585.58
530.43	23501.32
530.60	23229.82
530.77	23431.10
530.94	23637.07
531.11	24091.13
531.28	23396.00
531.46	23644.09
531.63	23805.59
531.80	23962.40
531.97	24219.86
532.14	24283.06
532.31	24091.13
532.48	23978.79
532.65	24463.28
532.82	23962.40
532.99	23985.81
533.16	24411.79
533.33	24175.39
533.50	24346.25
533.67	24528.81
533.84	24067.73
534.01	24133.26
534.18	24023.26
534.35	24491.37
534.52	24500.73
534.69	24276.04
534.86	24589.67
535.03	24444.56
535.20	24634.14
535.37	25034.37
535.54	24732.44
535.71	24294.76
535.88	24704.35
536.05	24893.94
536.22	24503.07
536.38	25034.37
536.55	24886.92
536.72	25296.51
536.89	24907.98
537.06	24912.66
537.23	25263.74
537.40	24966.49
537.57	24830.74
537.74	25191.19
537.91	25158.42
538.08	25362.04
538.25	25071.82
538.42	25371.41
538.59	25067.14
538.75	25053.09
538.92	25235.66
539.09	25364.39
539.26	25455.67
539.43	25420.56
539.60	25434.60
539.77	25294.17
539.94	25488.43
540.11	25708.44
540.28	25493.12
540.44	25717.81
540.61	25706.10
540.78	25472.05
540.95	25474.39
541.12	25465.03
541.29	25781.00
541.46	25844.20
541.62	25809.09
541.79	25589.08
541.96	25415.88
542.13	25727.17
542.30	25933.14
542.47	25876.96
542.63	26150.81
542.80	25706.10
542.97	26405.92
543.14	26113.36
543.31	26415.29
543.48	26169.53
543.64	26670.40
543.81	26396.56
543.98	26586.15
544.15	26391.88
544.32	26766.37
544.48	26672.74
544.65	26059.52
544.82	26450.39
544.99	26309.96
545.16	26515.93
545.32	26410.60
545.49	26551.04
545.66	26768.71
545.83	27150.21
546.00	26721.90
546.16	26541.68
546.33	26324.01
546.50	26731.26
546.67	27253.20
546.83	26569.76
547.00	26661.04
547.17	26738.28
547.34	26955.95
547.50	26855.31
547.67	27112.77
547.84	27136.17
548.00	27480.23
548.17	27129.15
548.34	26864.67
548.51	27442.78
548.67	26977.01
548.84	27360.86
549.01	27159.58
549.18	27253.20
549.34	27084.68
549.51	27192.34
549.68	27393.63
549.84	27225.11
550.01	27363.20
550.18	26869.35
550.34	27583.21
550.51	27283.62
550.68	27903.87
550.84	26899.78
551.01	27524.70
551.18	27365.54
551.34	27321.07
551.51	27295.33
551.68	27304.69
551.84	27351.50
552.01	27442.78
552.18	27803.22
552.34	27424.06
552.51	27426.40
552.68	27981.10
552.84	27798.54
553.01	27885.14
553.18	27733.01
553.34	27686.20
553.51	28112.17
553.67	28166.01
553.84	28102.81
554.01	27960.04
554.17	27854.72
554.34	27782.16
554.51	27562.15
554.67	27960.04
554.84	27775.14
555.00	28011.53
555.17	27821.95
555.33	28149.62
555.50	27861.74
555.67	28570.92
555.83	28053.66
556.00	28294.74
556.16	28318.14
556.33	28058.34
556.50	28446.87
556.66	28624.75
556.83	28474.96
556.99	28449.21
557.16	28505.38
557.32	28437.51
557.49	28353.25
557.65	28386.02
557.82	28336.87
557.98	27957.70
558.15	28577.94
558.32	28346.23
558.48	28381.34
558.65	28680.92
558.81	28570.92
558.98	28652.84
559.14	28584.96
559.31	28257.29
559.47	28601.35
559.64	28680.92
559.80	28510.07
559.97	28804.97
560.13	28505.38
560.30	28704.33
560.46	29010.94
560.63	28528.79
560.79	28748.80
560.96	28737.10
561.12	28666.88
561.29	28826.04
561.45	28819.02
561.61	28889.23
561.78	29106.90
561.94	28561.56
562.11	28811.99
562.27	28671.56
562.44	28760.50
562.60	29043.71
562.77	28421.13
562.93	28591.98
563.10	29352.66
563.26	29083.50
563.42	28982.85
563.59	28790.93
563.75	28877.53
563.92	28755.82
564.08	28711.35
564.24	28940.72
564.41	28620.07
564.57	28788.59
564.74	28886.89
564.90	29317.55
565.07	29392.45
565.23	29188.82
565.39	29158.39
565.56	29120.95
565.72	29268.40
565.88	29443.94
566.05	28896.25
566.21	28957.11
566.38	29266.06
566.54	29029.66
566.70	29364.36
566.87	29432.24
567.03	29441.60
567.19	29530.54
567.36	29366.70
567.52	29163.08
567.68	29081.16
567.85	29315.21
568.01	29336.27
568.17	29064.77
568.34	29303.51
568.50	29113.92
568.66	29446.28
568.83	29158.39
568.99	28959.45
569.15	29343.30
569.32	29347.98
569.48	29125.63
569.64	29514.16
569.81	29247.33
569.97	29326.91
570.13	29408.83
570.30	29392.45
570.46	29268.40
570.62	29418.19
570.78	29507.13
570.95	29017.96
571.11	29312.87
571.27	28975.83
571.43	29401.81
571.60	29518.84
571.76	29504.79
571.92	29432.24
572.09	29345.64
572.25	29624.16
572.41	29607.78
572.57	29474.37
572.74	29685.01
572.90	29521.18
573.06	29600.76
573.22	29439.26
573.38	29586.71
573.55	29181.80
573.71	29834.81
573.87	29792.68
574.03	29645.23
574.20	29537.56
574.36	29422.87
574.52	29273.08
574.68	29223.93
574.84	29680.33
575.01	29706.08
575.17	29825.45
575.33	29408.83
575.49	29448.62
575.65	30000.99
575.82	30010.35
575.98	29596.07
576.14	30036.09
576.30	29521.18
576.46	29483.73
576.62	29757.57
576.79	29832.47
576.95	29640.54
577.11	29677.99
577.27	30036.09
577.43	29848.85
577.59	29717.78
577.75	29776.30
577.92	29715.44
578.08	29582.03
578.24	29663.95
578.40	30017.37
578.56	29989.28
578.72	29757.57
578.88	29675.65
579.04	29963.54
579.21	29446.28
579.37	29612.46
579.53	29717.78
579.69	29020.30
579.85	29788.00
580.01	29717.78
580.17	29500.11
580.33	30036.09
580.49	29979.92
580.65	29860.55
580.82	29905.02
580.98	30052.48
581.14	30008.01
581.30	29848.85
581.46	29883.96
581.62	29586.71
581.78	29507.13
581.94	29944.81
582.10	29970.56
582.26	29745.87
582.42	29764.59
582.58	29921.41
582.74	29893.32
582.90	29921.41
583.06	29773.95
583.22	29755.23
583.38	30153.12
583.54	29867.58
583.70	29890.98
583.86	29958.86
584.02	29535.22
584.18	30396.54
584.34	29663.95
584.50	30005.67
584.66	29979.92
584.82	30143.76
584.98	29832.47
585.14	29593.73
585.30	29717.78
585.46	29841.83
585.62	29668.63
585.78	29696.72
585.94	29586.71
586.10	29825.45
586.26	30122.69
586.42	29865.24
586.58	29720.12
586.74	29827.79
586.90	29584.37
587.06	29418.19
587.22	29677.99
587.38	29778.64
587.54	29977.58
587.70	30015.03
587.86	29734.17
588.02	30085.25
588.18	30347.39
588.34	30574.42
588.49	29879.28
588.65	29858.21
588.81	29832.47
588.97	29687.36
589.13	30015.03
589.29	29923.75
589.45	30068.86
589.61	30054.82
589.77	30281.85
589.93	30363.77
590.08	30291.21
590.24	30019.71
590.40	30471.43
590.56	30590.80
590.72	29935.45
590.88	29752.89
591.04	29954.18
591.20	30579.10
591.35	30110.99
591.51	30466.75
591.67	30281.85
591.83	30567.40
591.99	30211.64
