SpectraSuite Data File
++++++++++++++++++++++++++++++++++++
Date: Fri Oct 18 13:58:07 GMT-05:00 2013
User: bianchi
Dark Spectrum Present: No
Reference Spectrum Present: No
Number of Sampled Component Spectra: 1
Spectrometers: USB2+H05261
Integration Time (usec): 50000 (USB2+H05261)
Spectra Averaged: 1 (USB2+H05261)
Boxcar Smoothing: 0 (USB2+H05261)
Correct for Electrical Dark: No (USB2+H05261)
Strobe/Lamp Enabled: No (USB2+H05261)
Correct for Detector Non-linearity: No (USB2+H05261)
Correct for Stray Light: No (USB2+H05261)
Number of Pixels in Processed Spectrum: 2048
>>>>>Begin Processed Spectral Data<<<<<
365.73	0.00
365.92	0.00
366.12	0.00
366.32	0.00
366.52	0.00
366.72	0.00
366.91	0.00
367.11	0.00
367.31	0.00
367.51	0.00
367.70	0.00
367.90	0.00
368.10	0.00
368.30	0.00
368.49	0.00
368.69	0.00
368.89	0.00
369.09	0.00
369.28	0.00
369.48	0.00
369.68	0.00
369.87	0.00
370.07	0.00
370.27	0.00
370.47	0.00
370.66	51.49
370.86	140.43
371.06	121.71
371.25	126.39
371.45	187.24
371.65	131.07
371.84	194.26
372.04	142.77
372.24	128.73
372.44	210.65
372.63	170.86
372.83	189.58
373.03	187.24
373.22	173.20
373.42	220.01
373.62	163.84
373.81	220.01
374.01	248.10
374.21	238.73
374.40	266.82
374.60	180.22
374.79	264.48
374.99	266.82
375.19	212.99
375.38	222.35
375.58	248.10
375.78	273.84
375.97	280.86
376.17	255.12
376.37	283.20
376.56	236.39
376.76	290.23
376.95	231.71
377.15	245.76
377.35	238.73
377.54	224.69
377.74	259.80
377.93	313.63
378.13	285.55
378.33	334.70
378.52	234.05
378.72	311.29
378.91	308.95
379.11	264.48
379.31	283.20
379.50	346.40
379.70	397.89
379.89	315.97
380.09	306.61
380.28	344.06
380.48	318.31
380.68	252.78
380.87	290.23
381.07	351.08
381.26	344.06
381.46	400.23
381.65	400.23
381.85	283.20
382.04	322.99
382.24	332.36
382.43	290.23
382.63	313.63
382.83	306.61
383.02	348.74
383.22	393.21
383.41	381.51
383.61	393.21
383.80	325.33
384.00	318.31
384.19	388.53
384.39	428.32
384.58	372.15
384.78	400.23
384.97	395.55
385.17	430.66
385.36	376.83
385.56	425.98
385.75	372.15
385.95	351.08
386.14	411.93
386.34	397.89
386.53	472.79
386.72	367.46
386.92	407.25
387.11	442.36
387.31	430.66
387.50	397.89
387.70	433.00
387.89	411.93
388.09	465.77
388.28	390.87
388.48	447.04
388.67	507.90
388.86	437.68
389.06	451.72
389.25	465.77
389.45	552.37
389.64	484.49
389.84	430.66
390.03	472.79
390.22	521.94
390.42	533.64
390.61	376.83
390.81	505.56
391.00	512.58
391.19	573.43
391.39	451.72
391.58	514.92
391.78	533.64
391.97	594.50
392.16	461.09
392.36	472.79
392.55	573.43
392.75	528.96
392.94	535.98
393.13	603.86
393.33	629.60
393.52	547.69
393.71	608.54
393.91	594.50
394.10	664.71
394.29	552.37
394.49	507.90
394.68	587.47
394.88	561.73
395.07	585.13
395.26	608.54
395.46	526.62
395.65	552.37
395.84	594.50
396.04	695.14
396.23	706.84
396.42	631.94
396.62	629.60
396.81	627.26
397.00	664.71
397.19	685.78
397.39	636.63
397.58	748.97
397.77	657.69
397.97	723.23
398.16	739.61
398.35	699.82
398.55	716.20
398.74	692.80
398.93	828.55
399.12	669.39
399.32	725.57
399.51	779.40
399.70	821.53
399.90	760.67
400.09	758.33
400.28	723.23
400.47	772.38
400.67	837.91
400.86	788.76
401.05	772.38
401.24	784.08
401.44	751.31
401.63	765.36
401.82	793.44
402.01	919.83
402.21	795.78
402.40	847.27
402.59	833.23
402.78	828.55
402.97	903.45
403.17	807.48
403.36	884.72
403.55	812.17
403.74	837.91
403.93	940.90
404.13	912.81
404.32	866.00
404.51	851.96
404.70	978.34
404.89	931.53
405.09	912.81
405.28	954.94
405.47	1043.88
405.66	1015.79
405.85	961.96
406.05	983.02
406.24	903.45
406.43	1086.01
406.62	1029.84
406.81	1053.24
407.00	1041.54
407.20	1015.79
407.39	978.34
407.58	1088.35
407.77	1174.95
407.96	1083.67
408.15	1170.27
408.34	1020.47
408.54	1083.67
408.73	1013.45
408.92	1130.48
409.11	1151.54
409.30	1146.86
409.49	1041.54
409.68	1034.52
409.87	1172.61
410.07	1118.78
410.26	1186.65
410.45	1203.04
410.64	1219.42
410.83	1277.93
411.02	1261.55
411.21	1186.65
411.40	1348.15
411.59	1313.04
411.78	1294.32
411.98	1284.95
412.17	1266.23
412.36	1313.04
412.55	1355.17
412.74	1373.89
412.93	1329.42
413.12	1289.64
413.31	1378.58
413.50	1366.87
413.69	1345.81
413.88	1481.56
414.07	1425.39
414.26	1507.30
414.45	1500.28
414.64	1448.79
414.83	1469.86
415.02	1561.14
415.22	1556.46
415.41	1540.07
415.60	1554.12
415.79	1570.50
415.98	1514.33
416.17	1584.54
416.36	1586.88
416.55	1643.06
416.74	1701.57
416.93	1593.90
417.12	1694.55
417.31	1689.87
417.50	1699.23
417.69	1746.04
417.88	1706.25
418.07	1813.92
418.26	1689.87
418.45	1799.87
418.64	1792.85
418.83	1818.60
419.02	1746.04
419.21	1846.68
419.39	1830.30
419.58	1764.76
419.77	1923.92
419.96	1830.30
420.15	1830.30
420.34	1935.62
420.53	1832.64
420.72	1827.96
420.91	1940.30
421.10	1930.94
421.29	1893.49
421.48	1853.70
421.67	1905.20
421.86	1952.01
422.05	1844.34
422.24	1921.58
422.43	1998.82
422.61	1956.69
422.80	2029.24
422.99	1973.07
423.18	1956.69
423.37	1940.30
423.56	2059.67
423.75	2043.29
423.94	1947.33
424.13	1923.92
424.32	1851.36
424.50	2136.91
424.69	2059.67
424.88	2146.27
425.07	2073.71
425.26	1989.46
425.45	2062.01
425.64	2043.29
425.83	1968.39
426.01	2036.27
426.20	2064.35
426.39	2106.48
426.58	2038.61
426.77	2094.78
426.96	2143.93
427.15	2045.63
427.33	2122.87
427.52	2047.97
427.71	2165.00
427.90	2253.94
428.09	2146.27
428.28	2169.68
428.46	2169.68
428.65	2218.83
428.84	2272.66
429.03	2275.00
429.22	2230.53
429.40	2335.85
429.59	2277.34
429.78	2181.38
429.97	2150.95
430.16	2296.07
430.34	2223.51
430.53	2406.07
430.72	2363.94
430.91	2265.64
431.10	2282.02
431.28	2480.97
431.47	2436.50
431.66	2450.54
431.85	2399.05
432.03	2455.22
432.22	2487.99
432.41	2469.27
432.60	2565.23
432.79	2438.84
432.97	2588.63
433.16	2546.50
433.35	2513.74
433.54	2483.31
433.72	2450.54
433.91	2609.70
434.10	2548.84
434.28	2551.18
434.47	2413.09
434.66	2548.84
434.85	2506.71
435.03	2715.02
435.22	2726.72
435.41	2668.21
435.59	2703.32
435.78	2576.93
435.97	2651.83
436.16	2717.36
436.34	2703.32
436.53	2656.51
436.72	2773.53
436.90	2525.44
437.09	2672.89
437.28	2719.70
437.46	2862.48
437.65	2853.11
437.84	2857.79
438.02	2693.96
438.21	2822.69
438.40	2764.17
438.58	2904.60
438.77	2818.00
438.96	2832.05
439.14	2993.55
439.33	2958.44
439.52	2953.76
439.70	3056.74
439.89	3112.91
440.08	2960.78
440.26	3096.53
440.45	3091.85
440.63	3110.57
440.82	3080.14
441.01	3066.10
441.19	3199.51
441.38	3265.05
441.57	3304.84
441.75	3269.73
441.94	3428.88
442.12	3260.37
442.31	3307.18
442.50	3255.69
442.68	3328.24
442.87	3339.94
443.05	3300.16
443.24	3375.05
443.43	3389.10
443.61	3407.82
443.80	3494.42
443.98	3269.73
444.17	3311.86
444.35	3501.44
444.54	3433.57
444.73	3405.48
444.91	3384.41
445.10	3492.08
445.28	3328.24
445.47	3449.95
445.65	3412.50
445.84	3492.08
446.02	3496.76
446.21	3375.05
446.39	3482.72
446.58	3574.00
446.77	3564.64
446.95	3328.24
447.14	3471.01
447.32	3616.13
447.51	3562.30
447.69	3599.74
447.88	3438.25
448.06	3456.97
448.25	3466.33
448.43	3581.02
448.62	3513.14
448.80	3414.84
448.99	3625.49
449.17	3623.15
449.36	3468.67
449.54	3669.96
449.73	3812.73
449.91	3737.84
450.10	3843.16
450.28	3763.58
450.46	3740.18
450.65	3698.05
450.83	3749.54
451.02	3768.26
451.20	3852.52
451.39	3812.73
451.57	3705.07
451.76	3779.97
451.94	3812.73
452.13	3859.54
452.31	3901.67
452.49	3822.09
452.68	3779.97
452.86	3859.54
453.05	3906.35
453.23	4053.81
453.42	3932.10
453.60	3922.74
453.78	3985.93
453.97	3838.48
454.15	3922.74
454.34	4025.72
454.52	3992.95
454.70	4079.55
454.89	3957.85
455.07	3971.89
455.26	4074.87
455.44	4163.81
455.62	4070.19
455.81	4119.34
455.99	4241.05
456.17	4086.58
456.36	4238.71
456.54	4264.46
456.73	4215.30
456.91	4320.63
457.09	4259.78
457.28	4332.33
457.46	4360.42
457.64	4255.09
457.83	4329.99
458.01	4161.47
458.19	4449.36
458.38	4458.72
458.56	4470.42
458.74	4400.21
458.93	4346.37
459.11	4507.87
459.29	4411.91
459.48	4468.08
459.66	4589.79
459.84	4531.28
460.03	4704.48
460.21	4650.64
460.39	4557.02
460.57	4634.26
460.76	4545.32
460.94	4751.29
461.12	4645.96
461.31	4718.52
461.49	4559.36
461.67	4477.44
461.85	4620.22
462.04	4746.61
462.22	5018.11
462.40	4732.56
462.59	4655.33
462.77	4833.21
462.95	4802.78
463.13	4819.16
463.32	4816.82
463.50	4807.46
463.68	4985.34
463.86	4929.17
464.05	4800.44
464.23	4826.18
464.41	4933.85
464.59	4903.42
464.78	5074.28
464.96	5001.72
465.14	4828.53
465.32	4990.02
465.50	5158.54
465.69	4933.85
465.87	4961.94
466.05	4980.66
466.23	5071.94
466.41	5004.07
466.60	5188.97
466.78	4999.38
466.96	5074.28
467.14	5125.77
467.32	5039.17
467.51	5146.84
467.69	5109.39
467.87	5144.50
468.05	5331.74
468.23	5254.50
468.41	5214.71
468.60	5390.25
468.78	5294.29
468.96	5203.01
469.14	5313.02
469.32	5394.93
469.50	5308.34
469.69	5376.21
469.87	5467.49
470.05	5507.28
470.23	5528.35
470.41	5514.30
470.59	5518.98
470.77	5448.77
470.95	5591.54
471.14	5636.01
471.32	5544.73
471.50	5530.69
471.68	5628.99
471.86	5811.55
472.04	5633.67
472.22	5867.72
472.40	5666.44
472.58	5717.93
472.77	5933.26
472.95	5830.27
473.13	6106.46
473.31	5771.76
473.49	5935.60
473.67	5870.06
473.85	6015.18
474.03	6003.47
474.21	5949.64
474.39	6073.69
474.57	6047.94
474.75	6221.14
474.93	6340.51
475.12	6211.78
475.30	6169.65
475.48	6228.17
475.66	6069.01
475.84	6279.66
476.02	6253.91
476.20	6223.48
476.38	6441.15
476.56	6696.27
476.74	6590.95
476.92	6619.04
477.10	6600.31
477.28	6658.82
477.46	6740.74
477.64	6899.90
477.82	6932.67
478.00	7063.74
478.18	7012.24
478.36	7040.33
478.54	7272.04
478.72	7129.27
478.90	7220.55
479.08	7206.51
479.26	7337.58
479.44	7314.17
479.62	7398.43
479.80	7449.93
479.98	7494.40
480.16	7559.93
480.34	7468.65
480.52	7789.30
480.70	7716.75
480.88	7679.30
481.06	7777.60
481.24	7702.70
481.41	7906.33
481.59	8021.02
481.77	8236.35
481.95	8124.00
482.13	8065.49
482.31	8203.58
482.49	8397.84
482.67	8449.33
482.85	8348.69
483.03	8587.43
483.21	8489.12
483.39	8758.28
483.57	8610.83
483.74	8704.45
483.92	8685.73
484.10	8706.79
484.28	9067.24
484.46	9144.47
484.64	9156.18
484.82	9125.75
485.00	8917.44
485.18	9430.02
485.35	9511.94
485.53	9575.13
485.71	9675.77
485.89	9687.48
486.07	9465.13
486.25	9575.13
486.43	9631.30
486.61	9696.84
486.78	9935.57
486.96	9994.09
487.14	10132.18
487.32	10113.45
487.50	10228.14
487.68	10209.42
487.85	10562.84
488.03	10321.76
488.21	10654.12
488.39	10626.03
488.57	10998.18
488.75	10731.36
488.92	10888.17
489.10	10904.56
489.28	11007.54
489.46	11232.23
489.64	11073.07
489.81	11335.21
489.99	11382.03
490.17	11363.30
490.35	11637.14
490.53	11508.41
490.70	11669.91
490.88	11763.53
491.06	11920.35
491.24	11901.62
491.41	11716.72
491.59	12236.32
491.77	11943.75
491.95	12360.37
492.13	12332.28
492.30	12517.18
492.48	12372.07
492.66	12360.37
492.84	12503.14
493.01	12760.60
493.19	12765.28
493.37	12999.34
493.54	13149.13
493.72	13039.12
493.90	13074.23
494.08	13092.96
494.25	13095.30
494.43	12992.31
494.61	13132.75
494.79	13298.92
494.96	13235.73
495.14	13322.33
495.32	13699.16
495.49	13645.32
495.67	13612.56
495.85	14071.30
496.02	13956.61
496.20	13827.88
496.38	14162.58
496.55	14029.17
496.73	14185.99
496.91	14338.12
497.09	14471.53
497.26	14593.24
497.44	14317.06
497.62	14714.95
497.79	14506.64
497.97	14504.30
498.14	14710.27
498.32	14789.85
498.50	15161.99
498.67	14977.09
498.85	14988.79
499.03	15091.77
499.20	15131.56
499.38	15014.54
499.56	15522.43
499.73	15377.32
499.91	15272.00
500.08	15660.52
500.26	15576.27
500.44	15632.44
500.61	15744.78
500.79	15683.93
500.97	15807.98
501.14	16217.57
501.32	16114.59
501.49	16187.14
501.67	15800.96
501.84	16219.91
502.02	15971.82
502.20	16147.36
502.37	16320.56
502.55	16486.73
502.72	16397.79
502.90	16341.62
503.07	16528.86
503.25	16484.39
503.43	16168.42
503.60	16460.99
503.78	16741.85
503.95	16566.31
504.13	16678.66
504.30	17013.35
504.48	16573.33
504.65	17013.35
504.83	17050.80
505.01	17422.95
505.18	17125.70
505.36	17294.22
505.53	16912.71
505.71	17291.88
505.88	17366.78
506.06	17142.08
506.23	17851.27
506.41	17310.60
506.58	17568.06
506.76	17600.83
506.93	17542.32
507.11	17345.71
507.28	17551.68
507.46	17741.26
507.63	17980.00
507.81	17869.99
507.98	17867.65
508.16	18136.81
508.33	18267.88
508.50	17926.16
508.68	17994.04
508.85	18115.75
509.03	18111.07
509.20	18422.36
509.38	18504.28
509.55	18743.01
509.73	18572.15
509.90	18345.12
510.08	18284.26
510.25	18595.56
510.42	18445.76
510.60	18845.99
510.77	18916.21
510.95	18855.36
511.12	18897.49
511.30	18785.14
511.47	18878.76
511.64	19157.28
511.82	19208.78
511.99	19314.10
512.17	19208.78
512.34	19150.26
512.51	19454.53
512.69	19475.60
512.86	19180.69
513.04	19592.62
513.21	19442.83
513.38	19456.87
513.56	19700.29
513.73	19740.08
513.90	19527.09
514.08	19529.43
514.25	19992.86
514.43	19924.98
514.60	20049.03
514.77	19985.83
514.95	20215.21
515.12	20159.03
515.29	19749.44
515.47	20034.99
515.64	20311.17
515.81	20350.96
515.99	20128.61
516.16	20589.69
516.33	20652.89
516.51	20563.95
516.68	20362.66
516.85	20624.80
517.03	20582.67
517.20	20706.72
517.37	20737.15
517.54	21001.63
517.72	20737.15
517.89	20514.80
518.06	20833.11
518.24	20575.65
518.41	20552.24
518.58	21219.30
518.75	20922.05
518.93	20968.86
519.10	21282.49
519.27	21174.83
519.45	20847.15
519.62	21385.47
519.79	21165.46
519.96	21348.03
520.14	21516.54
520.31	21294.19
520.48	21645.27
520.65	21240.36
520.83	21598.46
521.00	21666.34
521.17	21666.34
521.34	21638.25
521.52	22120.40
521.69	21848.90
521.86	22167.21
522.03	21570.38
522.20	21783.37
522.38	21799.75
522.55	21940.18
522.72	22380.20
522.89	21965.93
523.07	22272.54
523.24	22045.51
523.41	22258.49
523.58	22181.26
523.75	22419.99
523.92	22174.24
524.10	22228.07
524.27	22677.45
524.44	22803.84
524.61	22548.72
524.78	22960.66
524.96	22501.91
525.13	22506.59
525.30	22686.81
525.47	22635.32
525.64	22845.97
525.81	22803.84
525.98	22916.19
526.16	22955.97
526.33	22857.67
526.50	23035.55
526.67	22960.66
526.84	23070.66
527.01	23073.00
527.18	23105.77
527.36	23262.58
527.53	23714.31
527.70	23880.49
527.87	23693.24
528.04	23070.66
528.21	23491.96
528.38	23468.55
528.55	23550.47
528.72	23442.81
528.89	23428.76
529.07	23524.72
529.24	23557.49
529.41	23632.39
529.58	23880.49
529.75	23632.39
529.92	23784.52
530.09	23873.46
530.26	23704.95
530.43	23562.17
530.60	24032.62
530.77	24025.60
530.94	23793.89
531.11	23941.34
531.28	23934.32
531.46	24135.60
531.63	24060.71
531.80	24379.02
531.97	24652.86
532.14	24189.44
532.31	24376.68
532.48	24519.45
532.65	24629.46
532.82	24254.97
532.99	24463.28
533.16	24156.67
533.33	24552.22
533.50	24711.38
533.67	24561.58
533.84	24678.61
534.01	24755.85
534.18	24568.60
534.35	24870.53
534.52	24505.41
534.69	24797.98
534.86	24893.94
535.03	24599.03
535.20	25060.12
535.37	24868.19
535.54	24933.73
535.71	24704.35
535.88	24823.72
536.05	24732.44
536.22	25434.60
536.38	25855.90
536.55	25050.75
536.72	25298.85
536.89	25017.99
537.06	25441.62
537.23	25860.58
537.40	25458.01
537.57	25401.83
537.74	25338.64
537.91	25617.16
538.08	25568.01
538.25	25219.27
538.42	25474.39
538.59	25252.04
538.75	25336.30
538.92	25656.95
539.09	25759.94
539.26	25411.20
539.43	25844.20
539.60	25832.49
539.77	25633.55
539.94	26174.21
540.11	25860.58
540.28	25645.25
540.44	25783.34
540.61	25928.45
540.78	25811.43
540.95	25802.07
541.12	25972.92
541.29	26190.59
541.46	26466.78
541.62	26122.72
541.79	26314.64
541.96	25905.05
542.13	26057.18
542.30	26307.62
542.47	26214.00
542.63	26370.82
542.80	26539.33
542.97	26560.40
543.14	26504.23
543.31	26717.22
543.48	26492.52
543.64	26663.38
543.81	26754.66
543.98	26890.41
544.15	26494.86
544.32	26951.27
544.48	26897.44
544.65	26691.47
544.82	26953.61
544.99	26438.69
545.16	26691.47
545.32	26522.95
545.49	27187.66
545.66	27285.97
545.83	27204.05
546.00	27454.48
546.16	27077.66
546.33	26969.99
546.50	26888.07
546.67	27058.93
546.83	27131.49
547.00	27342.14
547.17	27321.07
547.34	27229.79
547.50	27288.31
547.67	27505.98
547.84	27201.71
548.00	27608.96
548.17	27281.28
548.34	27531.72
548.51	27218.09
548.67	27845.35
548.84	27674.49
549.01	27513.00
549.18	27503.64
549.34	27239.15
549.51	27608.96
549.68	27742.37
549.84	27566.83
550.01	27803.22
550.18	27765.78
550.34	27641.73
550.51	27807.90
550.68	28315.80
550.84	27632.36
551.01	27742.37
551.18	27899.19
551.34	27615.98
551.51	27941.32
551.68	27960.04
551.84	27864.08
552.01	28030.26
552.18	27985.79
552.34	27800.88
552.51	28407.08
552.68	27768.12
552.84	27658.11
553.01	28423.47
553.18	27922.59
553.34	28414.10
553.51	28112.17
553.67	28224.52
553.84	28348.57
554.01	28367.29
554.17	28477.30
554.34	28301.76
554.51	28245.58
554.67	28416.44
554.84	28158.99
555.00	28500.70
555.17	28453.89
555.33	28486.66
555.50	28233.88
555.67	28416.44
555.83	28561.56
556.00	28589.64
556.16	28610.71
556.33	28517.09
556.50	28666.88
556.66	28758.16
556.83	28325.16
556.99	28950.09
557.16	28898.59
557.32	29139.67
557.49	28929.02
557.65	28694.97
557.82	28720.71
557.98	28856.46
558.15	28800.29
558.32	28865.83
558.48	28938.38
558.65	29029.66
558.81	29165.42
558.98	28858.81
559.14	28830.72
559.31	28713.69
559.47	29123.29
559.64	29116.26
559.80	28884.55
559.97	29273.08
560.13	29280.10
560.30	29172.44
560.46	29362.02
560.63	28844.76
560.79	29149.03
560.96	28975.83
561.12	28577.94
561.29	29123.29
561.45	29142.01
561.61	29434.58
561.78	29219.25
561.94	29319.89
562.11	29500.11
562.27	29465.00
562.44	29149.03
562.60	29158.39
562.77	28985.19
562.93	29172.44
563.10	29207.55
563.26	29223.93
563.42	29549.26
563.59	29413.51
563.75	29399.47
563.92	29670.97
564.08	29099.88
564.24	29102.22
564.41	29102.22
564.57	29429.90
564.74	29404.15
564.90	29570.33
565.07	29589.05
565.23	29633.52
565.39	29359.68
565.56	29790.34
565.72	29109.24
565.88	29427.56
566.05	29303.51
566.21	29699.06
566.38	29420.53
566.54	29472.03
566.70	29771.61
566.87	29937.79
567.03	29748.21
567.19	29694.38
567.36	29673.31
567.52	29237.97
567.68	29984.60
567.85	29947.15
568.01	29577.35
568.17	29420.53
568.34	29797.36
568.50	29797.36
568.66	29696.72
568.83	29785.66
568.99	29427.56
569.15	29191.16
569.32	29785.66
569.48	29839.49
569.64	29703.74
569.81	29977.58
569.97	30033.75
570.13	29886.30
570.30	29717.78
570.46	29734.17
570.62	29652.25
570.78	29436.92
570.95	29722.46
571.11	29783.32
571.27	29759.91
571.43	29488.41
571.60	30050.14
571.76	30118.01
571.92	29851.19
572.09	29820.77
572.25	30139.08
572.41	30040.78
572.57	29717.78
572.74	29848.85
572.90	29841.83
573.06	29839.49
573.22	29750.55
573.38	30331.00
573.55	29968.22
573.71	30169.51
573.87	30019.71
574.03	30099.29
574.20	30110.99
574.36	29790.34
574.52	30230.36
574.68	29771.61
574.84	30022.05
575.01	29963.54
575.17	30230.36
575.33	29867.58
575.49	29869.92
575.65	29991.62
575.82	30118.01
575.98	30380.15
576.14	30057.16
576.30	30089.93
576.46	30017.37
576.62	29916.73
576.79	29778.64
576.95	29937.79
577.11	30422.28
577.27	30377.81
577.43	29930.77
577.59	30352.07
577.75	29984.60
577.92	29710.76
578.08	29687.36
578.24	29703.74
578.40	30010.35
578.56	29743.53
578.72	30246.74
578.88	30178.87
579.04	30656.34
579.21	29780.98
579.37	30134.40
579.53	30492.50
579.69	30366.11
579.85	29979.92
580.01	30103.97
580.17	29656.93
580.33	29841.83
580.49	30174.19
580.65	30293.55
580.82	30305.26
580.98	30501.86
581.14	30078.22
581.30	30445.69
581.46	29984.60
581.62	30167.16
581.78	29935.45
581.94	30256.11
582.10	30040.78
582.26	30394.20
582.42	30646.97
582.58	30579.10
582.74	30253.76
582.90	30291.21
583.06	30270.15
583.22	30616.55
583.38	30515.90
583.54	30075.88
583.70	30099.29
583.86	30047.80
584.02	30176.53
584.18	30331.00
584.34	30150.78
584.50	30230.36
584.66	30216.32
584.82	30204.61
584.98	30525.27
585.14	30565.06
585.30	29802.04
585.46	30286.53
585.62	30221.00
585.78	30094.61
585.94	30340.36
586.10	30192.91
586.26	30581.44
586.42	30340.36
586.58	30691.44
586.74	30370.79
586.90	30155.46
587.06	30125.04
587.22	30705.49
587.38	29902.68
587.54	30408.24
587.70	30808.47
587.86	30700.81
588.02	30572.08
588.18	30742.94
588.34	30682.08
588.49	30572.08
588.65	30623.57
588.81	30644.63
588.97	30494.84
589.13	30349.73
589.29	30492.50
589.45	30742.94
589.61	30843.58
589.77	30906.77
589.93	30934.86
590.08	30794.43
590.24	30939.54
590.40	30602.50
590.56	30906.77
590.72	30747.62
590.88	30260.79
591.04	30520.59
591.20	31103.38
591.35	30986.35
591.51	30976.99
591.67	30955.93
591.83	31084.65
591.99	30951.24
