SpectraSuite Data File
++++++++++++++++++++++++++++++++++++
Date: Fri Oct 18 13:58:10 GMT-05:00 2013
User: bianchi
Dark Spectrum Present: No
Reference Spectrum Present: No
Number of Sampled Component Spectra: 1
Spectrometers: USB2+H05261
Integration Time (usec): 50000 (USB2+H05261)
Spectra Averaged: 1 (USB2+H05261)
Boxcar Smoothing: 0 (USB2+H05261)
Correct for Electrical Dark: No (USB2+H05261)
Strobe/Lamp Enabled: No (USB2+H05261)
Correct for Detector Non-linearity: No (USB2+H05261)
Correct for Stray Light: No (USB2+H05261)
Number of Pixels in Processed Spectrum: 2048
>>>>>Begin Processed Spectral Data<<<<<
365.73	0.00
365.92	0.00
366.12	0.00
366.32	0.00
366.52	0.00
366.72	0.00
366.91	0.00
367.11	0.00
367.31	0.00
367.51	0.00
367.70	0.00
367.90	0.00
368.10	0.00
368.30	0.00
368.49	0.00
368.69	0.00
368.89	0.00
369.09	0.00
369.28	0.00
369.48	0.00
369.68	0.00
369.87	0.00
370.07	0.00
370.27	0.00
370.47	0.00
370.66	86.60
370.86	114.69
371.06	117.03
371.25	74.90
371.45	131.07
371.65	152.13
371.84	152.13
372.04	159.16
372.24	140.43
372.44	187.24
372.63	166.18
372.83	238.73
373.03	212.99
373.22	133.41
373.42	243.42
373.62	273.84
373.81	196.60
374.01	262.14
374.21	280.86
374.40	163.84
374.60	250.44
374.79	257.46
374.99	259.80
375.19	255.12
375.38	229.37
375.58	285.55
375.78	299.59
375.97	320.65
376.17	306.61
376.37	299.59
376.56	292.57
376.76	294.91
376.95	245.76
377.15	313.63
377.35	255.12
377.54	212.99
377.74	250.44
377.93	227.03
378.13	301.93
378.33	212.99
378.52	360.44
378.72	271.50
378.91	271.50
379.11	271.50
379.31	404.91
379.50	224.69
379.70	280.86
379.89	360.44
380.09	311.29
380.28	269.16
380.48	285.55
380.68	320.65
380.87	376.83
381.07	318.31
381.26	351.08
381.46	320.65
381.65	306.61
381.85	276.18
382.04	379.17
382.24	299.59
382.43	369.80
382.63	416.62
382.83	365.12
383.02	337.04
383.22	276.18
383.41	315.97
383.61	337.04
383.80	374.49
384.00	449.38
384.19	365.12
384.39	330.02
384.58	334.70
384.78	315.97
384.97	433.00
385.17	379.17
385.36	444.70
385.56	418.96
385.75	402.57
385.95	395.55
386.14	496.19
386.34	437.68
386.53	468.11
386.72	404.91
386.92	491.51
387.11	369.80
387.31	449.38
387.50	442.36
387.70	442.36
387.89	395.55
388.09	390.87
388.28	409.59
388.48	381.51
388.67	433.00
388.86	479.81
389.06	533.64
389.25	447.04
389.45	461.09
389.64	489.17
389.84	557.05
390.03	489.17
390.22	440.02
390.42	521.94
390.61	493.85
390.81	465.77
391.00	514.92
391.19	465.77
391.39	557.05
391.58	514.92
391.78	447.04
391.97	517.26
392.16	587.47
392.36	592.16
392.55	615.56
392.75	631.94
392.94	498.53
393.13	629.60
393.33	512.58
393.52	624.92
393.71	561.73
393.91	507.90
394.10	601.52
394.29	564.07
394.49	615.56
394.68	599.18
394.88	564.07
395.07	510.24
395.26	606.20
395.46	627.26
395.65	587.47
395.84	671.73
396.04	720.88
396.23	599.18
396.42	552.37
396.62	608.54
396.81	624.92
397.00	669.39
397.19	613.22
397.39	671.73
397.58	746.63
397.77	706.84
397.97	763.01
398.16	758.33
398.35	849.61
398.55	699.82
398.74	723.23
398.93	772.38
399.12	844.93
399.32	786.42
399.51	746.63
399.70	788.76
399.90	767.70
400.09	807.48
400.28	774.72
400.47	699.82
400.67	730.25
400.86	781.74
401.05	844.93
401.24	823.87
401.44	786.42
401.63	725.57
401.82	786.42
402.01	891.74
402.21	821.53
402.40	889.40
402.59	800.46
402.78	877.70
402.97	891.74
403.17	858.98
403.36	828.55
403.55	908.13
403.74	947.92
403.93	931.53
404.13	1011.11
404.32	880.04
404.51	945.58
404.70	990.05
404.89	945.58
405.09	1001.75
405.28	947.92
405.47	947.92
405.66	1048.56
405.85	1071.97
406.05	978.34
406.24	976.00
406.43	1018.13
406.62	1104.73
406.81	1055.58
407.00	990.05
407.20	1097.71
407.39	1093.03
407.58	1069.62
407.77	1083.67
407.96	1081.33
408.15	1151.54
408.34	1081.33
408.54	1097.71
408.73	1118.78
408.92	1163.25
409.11	1139.84
409.30	1083.67
409.49	1107.07
409.68	1076.65
409.87	1144.52
410.07	1118.78
410.26	1228.78
410.45	1214.74
410.64	1160.91
410.83	1205.38
411.02	1207.72
411.21	1210.06
411.40	1380.92
411.59	1247.51
411.78	1256.87
411.98	1336.45
412.17	1280.27
412.36	1320.06
412.55	1320.06
412.74	1451.13
412.93	1359.85
413.12	1387.94
413.31	1490.92
413.50	1296.66
413.69	1392.62
413.88	1481.56
414.07	1411.34
414.26	1418.36
414.45	1465.18
414.64	1533.05
414.83	1516.67
415.02	1619.65
415.22	1495.60
415.41	1521.35
415.60	1537.73
415.79	1554.12
415.98	1544.75
416.17	1603.27
416.36	1584.54
416.55	1755.40
416.74	1727.32
416.93	1701.57
417.12	1706.25
417.31	1607.95
417.50	1680.50
417.69	1717.95
417.88	1727.32
418.07	1696.89
418.26	1870.09
418.45	1764.76
418.64	1994.14
418.83	1795.19
419.02	1823.28
419.21	1844.34
419.39	1867.75
419.58	1853.70
419.77	1792.85
419.96	1912.22
420.15	1963.71
420.34	1998.82
420.53	1881.79
420.72	1905.20
420.91	1994.14
421.10	1963.71
421.29	1991.80
421.48	1916.90
421.67	2008.18
421.86	2017.54
422.05	2015.20
422.24	1973.07
422.43	1966.05
422.61	2024.56
422.80	1989.46
422.99	2015.20
423.18	2078.40
423.37	2129.89
423.56	2019.88
423.75	1970.73
423.94	2010.52
424.13	1954.35
424.32	1987.11
424.50	2076.06
424.69	2043.29
424.88	2015.20
425.07	2047.97
425.26	1928.60
425.45	1984.77
425.64	1963.71
425.83	1947.33
426.01	2012.86
426.20	2139.25
426.39	2092.44
426.58	1940.30
426.77	2190.74
426.96	2104.14
427.15	2024.56
427.33	2143.93
427.52	2183.72
427.71	2155.63
427.90	2148.61
428.09	2228.19
428.28	2216.49
428.46	2335.85
428.65	2321.81
428.84	2305.43
429.03	2267.98
429.22	2139.25
429.40	2235.21
429.59	2200.10
429.78	2143.93
429.97	2237.55
430.16	2270.32
430.34	2253.94
430.53	2415.43
430.72	2326.49
430.91	2319.47
431.10	2312.45
431.28	2429.48
431.47	2429.48
431.66	2490.33
431.85	2464.58
432.03	2424.80
432.22	2492.67
432.41	2497.35
432.60	2473.95
432.79	2455.22
432.97	2495.01
433.16	2546.50
433.35	2576.93
433.54	2513.74
433.72	2520.76
433.91	2534.80
434.10	2487.99
434.28	2548.84
434.47	2719.70
434.66	2633.10
434.85	2572.25
435.03	2544.16
435.22	2595.65
435.41	2794.60
435.59	2670.55
435.78	2649.49
435.97	2719.70
436.16	2609.70
436.34	2539.48
436.53	2649.49
436.72	2750.13
436.90	2715.02
437.09	2722.04
437.28	2644.81
437.46	2654.17
437.65	2759.49
437.84	2850.77
438.02	2771.19
438.21	2883.54
438.40	2855.45
438.58	2944.39
438.77	3033.33
438.96	2773.53
439.14	3084.83
439.33	2923.33
439.52	2878.86
439.70	2935.03
439.89	3136.32
440.08	3119.93
440.26	3059.08
440.45	3155.04
440.63	3087.17
440.82	3068.44
441.01	3164.40
441.19	3194.83
441.38	3185.47
441.57	3258.03
441.75	3269.73
441.94	3325.90
442.12	3269.73
442.31	3391.44
442.50	3346.97
442.68	3265.05
442.87	3358.67
443.05	3384.41
443.24	3442.93
443.43	3426.54
443.61	3475.70
443.80	3672.30
443.98	3452.29
444.17	3370.37
444.35	3487.40
444.54	3536.55
444.73	3503.78
444.91	3618.47
445.10	3452.29
445.28	3475.70
445.47	3534.21
445.65	3571.66
445.84	3651.24
446.02	3496.76
446.21	3529.53
446.39	3454.63
446.58	3440.59
446.77	3478.04
446.95	3433.57
447.14	3625.49
447.32	3581.02
447.51	3543.57
447.69	3522.51
447.88	3543.57
448.06	3653.58
448.25	3459.31
448.43	3433.57
448.62	3524.85
448.80	3627.83
448.99	3723.79
449.17	3658.26
449.36	3672.30
449.54	3723.79
449.73	3723.79
449.91	3810.39
450.10	3770.60
450.28	3833.80
450.46	3688.68
450.65	3737.84
450.83	3684.00
451.02	3840.82
451.20	3887.63
451.39	3969.55
451.57	3794.01
451.76	3847.84
451.94	3899.33
452.13	3878.27
452.31	3946.14
452.49	3733.15
452.68	3901.67
452.86	3955.51
453.05	3960.19
453.23	3941.46
453.42	3873.59
453.60	3939.12
453.78	4021.04
453.97	3932.10
454.15	3911.04
454.34	4016.36
454.52	4077.21
454.70	4079.55
454.89	3967.21
455.07	4095.94
455.26	4119.34
455.44	4280.84
455.62	4177.86
455.81	4154.45
455.99	4245.73
456.17	4245.73
456.36	4432.97
456.54	4234.03
456.73	4299.56
456.91	4395.53
457.09	4344.03
457.28	4510.21
457.46	4287.86
457.64	4355.74
457.83	4344.03
458.01	4381.48
458.19	4442.34
458.38	4428.29
458.56	4400.21
458.74	4573.41
458.93	4409.57
459.11	4430.63
459.29	4608.51
459.48	4519.57
459.66	4594.47
459.84	4702.14
460.03	4662.35
460.21	4727.88
460.39	4580.43
460.57	4610.86
460.76	4685.75
460.94	4758.31
461.12	4837.89
461.31	4657.67
461.49	4648.30
461.67	4676.39
461.85	4975.98
462.04	4671.71
462.22	4830.87
462.40	4777.03
462.59	4793.42
462.77	4912.78
462.95	4849.59
463.13	4945.55
463.32	4938.53
463.50	4968.96
463.68	4889.38
463.86	4966.62
464.05	4858.95
464.23	4865.97
464.41	5076.62
464.59	4877.68
464.78	5114.07
464.96	4922.15
465.14	5018.11
465.32	5015.77
465.50	5067.26
465.69	5231.10
465.87	5104.71
466.05	5125.77
466.23	5130.45
466.41	5074.28
466.60	5313.02
466.78	5055.56
466.96	5034.49
467.14	5214.71
467.32	5191.31
467.51	5270.89
467.69	5057.90
467.87	5369.19
468.05	5181.95
468.23	5217.05
468.41	5139.82
468.60	5193.65
468.78	5320.04
468.96	5203.01
469.14	5334.08
469.32	5378.55
469.50	5221.74
469.69	5418.34
469.87	5394.93
470.05	5507.28
470.23	5509.62
470.41	5483.88
470.59	5511.96
470.77	5551.75
470.95	5652.39
471.14	5577.50
471.32	5554.09
471.50	5774.10
471.68	5863.04
471.86	5804.53
472.04	5825.59
472.22	6057.31
472.40	5600.90
472.58	5816.23
472.77	5792.83
472.95	5778.78
473.13	6164.97
473.31	5949.64
473.49	5776.44
473.67	5937.94
473.85	5973.05
474.03	6019.86
474.21	5935.60
474.39	6127.52
474.57	6115.82
474.75	6223.48
474.93	6216.46
475.12	6260.93
475.30	6347.53
475.48	6190.72
475.66	6249.23
475.84	6384.98
476.02	6462.22
476.20	6420.09
476.38	6513.71
476.56	6808.62
476.74	6764.15
476.92	6703.29
477.10	6626.06
477.28	6935.01
477.46	6733.72
477.64	6764.15
477.82	6836.70
478.00	7054.37
478.18	6986.50
478.36	7279.07
478.54	7136.29
478.72	7145.66
478.90	7201.83
479.08	7489.71
479.26	7248.64
479.44	7569.29
479.62	7445.24
479.80	7611.42
479.98	7623.12
480.16	7651.21
480.34	7597.38
480.52	7880.58
480.70	7950.80
480.88	7644.19
481.06	7901.65
481.24	7903.99
481.41	7871.22
481.59	7962.50
481.77	8264.43
481.95	8231.66
482.13	8219.96
482.31	8238.69
482.49	8374.44
482.67	8301.88
482.85	8512.53
483.03	8510.19
483.21	8645.94
483.39	8674.03
483.57	8685.73
483.74	8781.69
483.92	8985.32
484.10	8793.39
484.28	8964.25
484.46	9109.36
484.64	9474.49
484.82	9050.85
485.00	9210.01
485.18	9392.57
485.35	9502.58
485.53	9558.75
485.71	9610.24
485.89	9767.06
486.07	9577.47
486.25	9657.05
486.43	9902.81
486.61	9921.53
486.78	9940.26
486.96	10104.09
487.14	10366.23
487.32	10382.62
487.50	10200.05
487.68	10434.11
487.85	10448.15
488.03	10581.56
488.21	10857.75
488.39	10897.53
488.57	10972.43
488.75	10792.21
488.92	11012.22
489.10	10984.13
489.28	11154.99
489.46	11316.49
489.64	11262.66
489.81	11353.94
489.99	11382.03
490.17	11183.08
490.35	11719.06
490.53	11683.95
490.70	12102.91
490.88	11803.32
491.06	12067.80
491.24	12121.63
491.41	12020.99
491.59	12229.30
491.77	12276.11
491.95	12404.84
492.13	12329.94
492.30	12346.33
492.48	12702.09
492.66	12348.67
492.84	12772.30
493.01	12620.17
493.19	12833.16
493.37	12999.34
493.54	13067.21
493.72	13198.28
493.90	13135.09
494.08	13181.90
494.25	13327.01
494.43	13263.82
494.61	13460.42
494.79	13540.00
494.96	13661.71
495.14	13460.42
495.32	13783.41
495.49	13867.67
495.67	14085.34
495.85	14129.81
496.02	14171.94
496.20	14235.14
496.38	14178.97
496.55	14183.65
496.73	14429.40
496.91	14310.04
497.09	14618.99
497.26	14654.09
497.44	14686.86
497.62	14499.62
497.79	14920.92
497.97	14743.03
498.14	15176.03
498.32	15157.31
498.50	14937.30
498.67	15309.44
498.85	15161.99
499.03	15176.03
499.20	15339.87
499.38	15496.69
499.56	15653.50
499.73	15700.31
499.91	15833.72
500.08	15683.93
500.26	15632.44
500.44	15587.97
500.61	15875.85
500.79	15583.29
500.97	16128.63
501.14	16053.73
501.32	15992.88
501.49	16109.91
501.67	16156.72
501.84	16243.32
502.02	15992.88
502.20	16491.41
502.37	16505.46
502.55	16248.00
502.72	16737.17
502.90	16226.93
503.07	16383.75
503.25	16582.70
503.43	16388.43
503.60	17118.68
503.78	16655.25
503.95	16805.05
504.13	16851.86
504.30	16762.92
504.48	17116.34
504.65	17233.36
504.83	17521.25
505.01	17425.29
505.18	17298.90
505.36	17729.56
505.53	17509.55
505.71	17132.72
505.88	17259.11
506.06	17415.93
506.23	18012.76
506.41	17488.48
506.58	17635.94
506.76	17722.54
506.93	17741.26
507.11	17680.41
507.28	17881.69
507.46	17886.37
507.63	18256.18
507.81	17994.04
507.98	18216.39
508.16	17987.02
508.33	18279.58
508.50	18204.69
508.68	18218.73
508.85	18497.25
509.03	18576.83
509.20	18209.37
509.38	18698.54
509.55	18789.82
509.73	18544.06
509.90	18640.03
510.08	19157.28
510.25	18764.07
510.42	19037.92
510.60	19136.22
510.77	18850.67
510.95	18991.11
511.12	19012.17
511.30	18970.04
511.47	19211.12
511.64	19349.21
511.82	19480.28
511.99	19447.51
512.17	19342.19
512.34	19417.08
512.51	19641.78
512.69	19433.47
512.86	19709.65
513.04	19721.35
513.21	19737.74
513.38	19580.92
513.56	19812.63
513.73	19814.98
513.90	20018.60
514.08	19906.26
514.25	20034.99
514.43	20011.58
514.60	19971.79
514.77	20432.88
514.95	20503.09
515.12	20229.25
515.29	20233.93
515.47	20545.22
515.64	20507.77
515.81	20327.55
515.99	20482.03
516.16	20882.26
516.33	20493.73
516.51	20863.54
516.68	20519.48
516.85	20526.50
517.03	20912.69
517.20	20879.92
517.37	21057.80
517.54	21099.93
517.72	20922.05
517.89	20795.66
518.06	21146.74
518.24	21219.30
518.41	21172.49
518.58	20954.82
518.75	21144.40
518.93	21465.05
519.10	21619.53
519.27	21551.65
519.45	21172.49
519.62	21558.67
519.79	21502.50
519.96	21699.11
520.14	21762.30
520.31	21656.98
520.48	21818.47
520.65	21825.50
520.83	21832.52
521.00	21804.43
521.17	21869.97
521.34	21909.75
521.52	21900.39
521.69	22017.42
521.86	22314.67
522.03	22094.66
522.20	22331.05
522.38	22146.15
522.55	22094.66
522.72	22178.92
522.89	22656.39
523.07	22501.91
523.24	22499.57
523.41	22810.86
523.58	22644.68
523.75	22604.89
523.92	22396.59
524.10	22647.02
524.27	23115.13
524.44	22932.57
524.61	23096.41
524.78	22782.77
524.96	23012.15
525.13	22881.08
525.30	23049.60
525.47	23424.08
525.64	23136.20
525.81	22995.76
525.98	23274.29
526.16	23653.45
526.33	23192.37
526.50	23445.15
526.67	23316.42
526.84	23623.03
527.01	23337.48
527.18	23213.43
527.36	23658.14
527.53	23463.87
527.70	23892.19
527.87	23770.48
528.04	23962.40
528.21	23821.97
528.38	23580.90
528.55	23726.01
528.72	23733.03
528.89	24081.77
529.07	23995.17
529.24	24016.24
529.41	23927.30
529.58	24159.01
529.75	23892.19
529.92	23747.08
530.09	24067.73
530.26	24388.38
530.43	24063.05
530.60	23941.34
530.77	24166.03
530.94	24128.58
531.11	24170.71
531.28	24521.79
531.46	24627.12
531.63	24563.92
531.80	24582.65
531.97	24599.03
532.14	24922.02
532.31	24809.68
532.48	24414.13
532.65	24664.57
532.82	24559.24
532.99	24947.77
533.16	24547.54
533.33	24807.34
533.50	25039.05
533.67	25188.85
533.84	24795.64
534.01	24634.14
534.18	24697.33
534.35	25029.69
534.52	25088.20
534.69	25074.16
534.86	25149.06
535.03	25216.93
535.20	25172.46
535.37	24872.87
535.54	25195.87
535.71	25209.91
535.88	25560.99
536.05	25270.76
536.22	25876.96
536.38	25408.86
536.55	25572.69
536.72	25635.89
536.89	25582.06
537.06	25256.72
537.23	25661.63
537.40	25692.06
537.57	25528.22
537.74	25844.20
537.91	25752.91
538.08	25839.51
538.25	25560.99
538.42	25736.53
538.59	25867.60
538.75	25851.22
538.92	25418.22
539.09	25738.87
539.26	25785.68
539.43	25972.92
539.60	26277.19
539.77	26146.12
539.94	26031.44
540.11	25853.56
540.28	26118.04
540.44	26080.59
540.61	26291.24
540.78	25965.90
540.95	26235.06
541.12	26455.08
541.29	26675.09
541.46	26171.87
541.62	26305.28
541.79	26501.89
541.96	26387.20
542.13	26450.39
542.30	26380.18
542.47	26710.19
542.63	26637.64
542.80	26852.97
542.97	26916.16
543.14	27044.89
543.31	26693.81
543.48	26742.96
543.64	27192.34
543.81	26995.74
543.98	27562.15
544.15	27239.15
544.32	26801.47
544.48	27077.66
544.65	26911.48
544.82	26974.67
544.99	26705.51
545.16	27126.81
545.32	27365.54
545.49	27143.19
545.66	27562.15
545.83	27494.27
546.00	27838.33
546.16	27470.87
546.33	27000.42
546.50	27204.05
546.67	27384.27
546.83	27124.47
547.00	27676.83
547.17	27728.33
547.34	27182.98
547.50	27737.69
547.67	27995.15
547.84	27803.22
548.00	27903.87
548.17	27704.92
548.34	27449.80
548.51	27679.18
548.67	27978.76
548.84	27824.29
549.01	27840.67
549.18	27695.56
549.34	28009.19
549.51	27817.27
549.68	28086.43
549.84	27903.87
550.01	27992.81
550.18	27887.48
550.34	28250.27
550.51	28343.89
550.68	28285.37
550.84	28180.05
551.01	28107.49
551.18	28226.86
551.34	27810.25
551.51	28264.31
551.68	28004.51
551.84	28133.24
552.01	28261.97
552.18	28418.78
552.34	28350.91
552.51	28421.13
552.68	27990.47
552.84	28177.71
553.01	28224.52
553.18	28276.01
553.34	28629.43
553.51	28208.14
553.67	28367.29
553.84	28926.68
554.01	28650.50
554.17	28753.48
554.34	28575.60
554.51	28701.99
554.67	28613.05
554.84	28732.42
555.00	28889.23
555.17	28631.77
555.33	29027.32
555.50	28662.20
555.67	28828.38
555.83	28835.40
556.00	28879.87
556.16	29134.99
556.33	28769.86
556.50	29237.97
556.66	29102.22
556.83	29240.31
556.99	29076.48
557.16	29181.80
557.32	29282.44
557.49	28849.44
557.65	28816.68
557.82	28826.04
557.98	29289.46
558.15	29142.01
558.32	29032.00
558.48	29090.52
558.65	29427.56
558.81	29153.71
558.98	29146.69
559.14	29223.93
559.31	29376.06
559.47	29450.96
559.64	29291.80
559.80	29965.88
559.97	29731.83
560.13	29331.59
560.30	29570.33
560.46	29577.35
560.63	29425.22
560.79	29441.60
560.96	29273.08
561.12	29525.86
561.29	29567.99
561.45	29600.76
561.61	29450.96
561.78	29614.80
561.94	29294.14
562.11	29439.26
562.27	29528.20
562.44	29483.73
562.60	29518.84
562.77	29490.75
562.93	29586.71
563.10	29914.39
563.26	29436.92
563.42	30066.52
563.59	29832.47
563.75	29872.26
563.92	29876.94
564.08	29158.39
564.24	29193.50
564.41	29797.36
564.57	29631.18
564.74	30157.80
564.90	29898.00
565.07	29909.71
565.23	29834.81
565.39	29921.41
565.56	29778.64
565.72	29682.67
565.88	30113.33
566.05	29832.47
566.21	29682.67
566.38	29989.28
566.54	29715.44
566.70	30616.55
566.87	30380.15
567.03	30174.19
567.19	30103.97
567.36	30228.02
567.52	29830.13
567.68	30143.76
567.85	29979.92
568.01	29975.24
568.17	30202.27
568.34	30043.12
568.50	29986.94
568.66	29972.90
568.83	30288.87
568.99	29998.65
569.15	30122.69
569.32	30080.56
569.48	30146.10
569.64	30424.62
569.81	30197.59
569.97	30361.43
570.13	30335.68
570.30	30169.51
570.46	30036.09
570.62	30176.53
570.78	29982.26
570.95	29940.13
571.11	30415.26
571.27	29930.77
571.43	29799.70
571.60	30150.78
571.76	30272.49
571.92	30176.53
572.09	30284.19
572.25	30309.94
572.41	30347.39
572.57	30008.01
572.74	30363.77
572.90	30157.80
573.06	30558.03
573.22	30419.94
573.38	30307.60
573.55	30342.70
573.71	30352.07
573.87	30288.87
574.03	29802.04
574.20	30504.20
574.36	30356.75
574.52	30572.08
574.68	30134.40
574.84	30536.97
575.01	30529.95
575.17	30558.03
575.33	30408.24
575.49	30433.99
575.65	30361.43
575.82	30331.00
575.98	30417.60
576.14	30616.55
576.30	30600.16
576.46	30157.80
576.62	30338.02
576.79	30305.26
576.95	30258.45
577.11	30263.13
577.27	30389.52
577.43	30244.40
577.59	30312.28
577.75	30347.39
577.92	30565.06
578.08	30525.27
578.24	30167.16
578.40	30602.50
578.56	30742.94
578.72	30663.36
578.88	31084.65
579.04	30728.89
579.21	30525.27
579.37	30618.89
579.53	30930.18
579.69	30747.62
579.85	30609.53
580.01	30740.60
580.17	30487.82
580.33	30661.02
580.49	30476.12
580.65	30548.67
580.82	30436.33
580.98	30721.87
581.14	30536.97
581.30	30630.59
581.46	30543.99
581.62	30621.23
581.78	30611.87
581.94	30555.69
582.10	30391.86
582.26	30661.02
582.42	30609.53
582.58	30850.60
582.74	30801.45
582.90	30396.54
583.06	30522.93
583.22	30749.96
583.38	30663.36
583.54	30473.78
583.70	30073.54
583.86	30815.49
584.02	30808.47
584.18	30543.99
584.34	30841.24
584.50	30693.79
584.66	31241.47
584.82	30452.71
584.98	30658.68
585.14	30249.08
585.30	30639.95
585.46	30855.28
585.62	30686.76
585.78	30815.49
585.94	30586.12
586.10	30693.79
586.26	30740.60
586.42	30988.69
586.58	30644.63
586.74	30796.77
586.90	30593.14
587.06	30590.80
587.22	30581.44
587.38	30649.32
587.54	30885.71
587.70	31140.83
587.86	30661.02
588.02	30852.94
588.18	31159.55
588.34	30754.64
588.49	31101.04
588.65	30492.50
588.81	30916.14
588.97	30902.09
589.13	30721.87
589.29	31035.50
589.45	30759.32
589.61	31175.94
589.77	31262.54
589.93	30642.29
590.08	31105.72
590.24	31447.44
590.40	31367.86
590.56	31122.10
590.72	30735.92
590.88	30689.10
591.04	31204.02
591.20	30899.75
591.35	30883.37
591.51	31676.81
591.67	30874.01
591.83	31220.41
