SpectraSuite Data File
++++++++++++++++++++++++++++++++++++
Date: Fri Oct 18 13:58:09 GMT-05:00 2013
User: bianchi
Dark Spectrum Present: No
Reference Spectrum Present: No
Number of Sampled Component Spectra: 1
Spectrometers: USB2+H05261
Integration Time (usec): 50000 (USB2+H05261)
Spectra Averaged: 1 (USB2+H05261)
Boxcar Smoothing: 0 (USB2+H05261)
Correct for Electrical Dark: No (USB2+H05261)
Strobe/Lamp Enabled: No (USB2+H05261)
Correct for Detector Non-linearity: No (USB2+H05261)
Correct for Stray Light: No (USB2+H05261)
Number of Pixels in Processed Spectrum: 2048
>>>>>Begin Processed Spectral Data<<<<<
365.73	0.00
365.92	0.00
366.12	0.00
366.32	0.00
366.52	0.00
366.72	0.00
366.91	0.00
367.11	0.00
367.31	0.00
367.51	0.00
367.70	0.00
367.90	0.00
368.10	0.00
368.30	0.00
368.49	0.00
368.69	0.00
368.89	0.00
369.09	0.00
369.28	0.00
369.48	0.00
369.68	0.00
369.87	0.00
370.07	0.00
370.27	0.00
370.47	0.00
370.66	93.62
370.86	135.75
371.06	121.71
371.25	112.35
371.45	142.77
371.65	67.88
371.84	168.52
372.04	121.71
372.24	203.63
372.44	140.43
372.63	161.50
372.83	234.05
373.03	203.63
373.22	191.92
373.42	252.78
373.62	229.37
373.81	248.10
374.01	264.48
374.21	208.31
374.40	156.82
374.60	227.03
374.79	217.67
374.99	227.03
375.19	250.44
375.38	238.73
375.58	231.71
375.78	191.92
375.97	189.58
376.17	297.25
376.37	198.95
376.56	297.25
376.76	238.73
376.95	280.86
377.15	297.25
377.35	278.52
377.54	325.33
377.74	224.69
377.93	238.73
378.13	332.36
378.33	332.36
378.52	330.02
378.72	374.49
378.91	292.57
379.11	257.46
379.31	287.89
379.50	334.70
379.70	318.31
379.89	266.82
380.09	273.84
380.28	227.03
380.48	341.72
380.68	374.49
380.87	379.17
381.07	290.23
381.26	327.68
381.46	304.27
381.65	304.27
381.85	290.23
382.04	325.33
382.24	334.70
382.43	315.97
382.63	334.70
382.83	318.31
383.02	411.93
383.22	365.12
383.41	409.59
383.61	330.02
383.80	351.08
384.00	461.09
384.19	372.15
384.39	393.21
384.58	327.68
384.78	381.51
384.97	383.85
385.17	397.89
385.36	435.34
385.56	425.98
385.75	458.74
385.95	404.91
386.14	418.96
386.34	402.57
386.53	463.43
386.72	346.40
386.92	386.19
387.11	421.30
387.31	486.83
387.50	402.57
387.70	355.76
387.89	475.13
388.09	374.49
388.28	404.91
388.48	414.27
388.67	451.72
388.86	390.87
389.06	397.89
389.25	393.21
389.45	505.56
389.64	482.15
389.84	512.58
390.03	430.66
390.22	550.03
390.42	552.37
390.61	409.59
390.81	519.60
391.00	489.17
391.19	468.11
391.39	493.85
391.58	505.56
391.78	498.53
391.97	484.49
392.16	437.68
392.36	554.71
392.55	575.77
392.75	557.05
392.94	580.45
393.13	503.22
393.33	498.53
393.52	531.30
393.71	587.47
393.91	587.47
394.10	650.67
394.29	596.84
394.49	578.11
394.68	704.50
394.88	606.20
395.07	631.94
395.26	622.58
395.46	533.64
395.65	645.99
395.84	678.76
396.04	706.84
396.23	662.37
396.42	592.16
396.62	617.90
396.81	674.07
397.00	674.07
397.19	732.59
397.39	667.05
397.58	653.01
397.77	631.94
397.97	730.25
398.16	720.88
398.35	746.63
398.55	669.39
398.74	760.67
398.93	802.80
399.12	774.72
399.32	727.91
399.51	755.99
399.70	779.40
399.90	697.48
400.09	739.61
400.28	823.87
400.47	760.67
400.67	805.14
400.86	812.17
401.05	767.70
401.24	809.83
401.44	849.61
401.63	940.90
401.82	800.46
402.01	870.68
402.21	833.23
402.40	837.91
402.59	922.17
402.78	840.25
402.97	856.64
403.17	917.49
403.36	873.02
403.55	751.31
403.74	901.11
403.93	905.79
404.13	971.32
404.32	919.83
404.51	931.53
404.70	1008.77
404.89	889.40
405.09	1039.20
405.28	938.55
405.47	983.02
405.66	1039.20
405.85	1020.47
406.05	964.30
406.24	1069.62
406.43	1008.77
406.62	1074.31
406.81	1102.39
407.00	1029.84
407.20	1083.67
407.39	1128.14
407.58	1001.75
407.77	1116.44
407.96	1041.54
408.15	1109.41
408.34	1053.24
408.54	1177.29
408.73	1104.73
408.92	1188.99
409.11	1172.61
409.30	1214.74
409.49	1181.97
409.68	1203.04
409.87	1235.80
410.07	1111.75
410.26	1231.12
410.45	1158.57
410.64	1203.04
410.83	1210.06
411.02	1219.42
411.21	1306.02
411.40	1240.48
411.59	1261.55
411.78	1242.82
411.98	1371.55
412.17	1273.25
412.36	1343.47
412.55	1394.96
412.74	1364.53
412.93	1469.86
413.12	1320.06
413.31	1533.05
413.50	1469.86
413.69	1366.87
413.88	1490.92
414.07	1495.60
414.26	1493.26
414.45	1451.13
414.64	1500.28
414.83	1504.96
415.02	1540.07
415.22	1537.73
415.41	1507.30
415.60	1631.35
415.79	1554.12
415.98	1636.03
416.17	1643.06
416.36	1626.67
416.55	1586.88
416.74	1685.19
416.93	1584.54
417.12	1715.61
417.31	1727.32
417.50	1727.32
417.69	1795.19
417.88	1757.74
418.07	1607.95
418.26	1734.34
418.45	1776.47
418.64	1865.41
418.83	1844.34
419.02	1771.79
419.21	1842.00
419.39	1813.92
419.58	1863.07
419.77	1771.79
419.96	1865.41
420.15	1912.22
420.34	1863.07
420.53	1912.22
420.72	1933.28
420.91	1947.33
421.10	2024.56
421.29	2012.86
421.48	1928.60
421.67	1916.90
421.86	1942.64
422.05	2064.35
422.24	2038.61
422.43	1996.48
422.61	1966.05
422.80	2122.87
422.99	2064.35
423.18	2162.66
423.37	2022.22
423.56	1975.41
423.75	2012.86
423.94	2005.84
424.13	1900.52
424.32	1926.26
424.50	2209.47
424.69	2169.68
424.88	2054.99
425.07	2026.90
425.26	2083.08
425.45	1989.46
425.64	2092.44
425.83	2057.33
426.01	2097.12
426.20	2083.08
426.39	2115.84
426.58	1987.11
426.77	2132.23
426.96	1996.48
427.15	2165.00
427.33	2136.91
427.52	2256.28
427.71	2249.25
427.90	2195.42
428.09	2181.38
428.28	2345.22
428.46	2157.97
428.65	2188.40
428.84	2293.72
429.03	2260.96
429.22	2157.97
429.40	2349.90
429.59	2310.11
429.78	2207.13
429.97	2230.53
430.16	2207.13
430.34	2375.64
430.53	2420.11
430.72	2319.47
430.91	2413.09
431.10	2265.64
431.28	2368.62
431.47	2361.60
431.66	2455.22
431.85	2354.58
432.03	2499.69
432.22	2363.94
432.41	2527.78
432.60	2595.65
432.79	2417.77
432.97	2544.16
433.16	2464.58
433.35	2558.21
433.54	2590.97
433.72	2621.40
433.91	2455.22
434.10	2593.31
434.28	2623.74
434.47	2523.10
434.66	2560.55
434.85	2544.16
435.03	2525.44
435.22	2588.63
435.41	2672.89
435.59	2597.99
435.78	2731.41
435.97	2593.31
436.16	2705.66
436.34	2630.76
436.53	2731.41
436.72	2740.77
436.90	2712.68
437.09	2736.09
437.28	2736.09
437.46	2827.37
437.65	2848.43
437.84	2883.54
438.02	2745.45
438.21	2848.43
438.40	2864.82
438.58	3049.72
438.77	2881.20
438.96	2956.10
439.14	3042.70
439.33	3117.59
439.52	3042.70
439.70	3068.44
439.89	3042.70
440.08	2970.14
440.26	3145.68
440.45	3131.64
440.63	3066.10
440.82	3021.63
441.01	3112.91
441.19	3297.81
441.38	3070.78
441.57	3112.91
441.75	3279.09
441.94	3265.05
442.12	3351.65
442.31	3265.05
442.50	3412.50
442.68	3236.96
442.87	3414.84
443.05	3414.84
443.24	3389.10
443.43	3400.80
443.61	3337.60
443.80	3552.93
443.98	3274.41
444.17	3391.44
444.35	3393.78
444.54	3574.00
444.73	3592.72
444.91	3438.25
445.10	3550.59
445.28	3412.50
445.47	3407.82
445.65	3410.16
445.84	3468.67
446.02	3506.12
446.21	3482.72
446.39	3363.35
446.58	3576.34
446.77	3562.30
446.95	3377.39
447.14	3506.12
447.32	3660.60
447.51	3588.04
447.69	3508.46
447.88	3616.13
448.06	3552.93
448.25	3576.34
448.43	3562.30
448.62	3669.96
448.80	3637.19
448.99	3611.45
449.17	3672.30
449.36	3770.60
449.54	3639.53
449.73	3843.16
449.91	3796.35
450.10	3660.60
450.28	3775.28
450.46	3822.09
450.65	3777.62
450.83	3765.92
451.02	3758.90
451.20	3782.31
451.39	3831.46
451.57	3723.79
451.76	3676.98
451.94	3763.58
452.13	3889.97
452.31	3943.80
452.49	3889.97
452.68	3908.69
452.86	3981.25
453.05	3866.56
453.23	4021.04
453.42	3962.53
453.60	3941.46
453.78	4028.06
453.97	3969.55
454.15	4166.15
454.34	4030.40
454.52	3964.87
454.70	4056.15
454.89	3967.21
455.07	4077.21
455.26	4173.18
455.44	4077.21
455.62	4182.54
455.81	4060.83
455.99	4229.35
456.17	4210.62
456.36	4168.49
456.54	4159.13
456.73	4341.69
456.91	4362.76
457.09	4358.08
457.28	4493.83
457.46	4224.67
457.64	4409.57
457.83	4407.23
458.01	4397.87
458.19	4414.25
458.38	4587.45
458.56	4484.47
458.74	4503.19
458.93	4463.40
459.11	4638.94
459.29	4449.36
459.48	4503.19
459.66	4657.67
459.84	4599.15
460.03	4767.67
460.21	4571.07
460.39	4643.62
460.57	4592.13
460.76	4589.79
460.94	4816.82
461.12	4760.65
461.31	4681.07
461.49	4697.46
461.67	4636.60
461.85	4842.57
462.04	4741.93
462.22	5139.82
462.40	4882.36
462.59	4685.75
462.77	4690.43
462.95	4744.27
463.13	4940.87
463.32	4994.70
463.50	4908.10
463.68	4898.74
463.86	4990.02
464.05	4943.21
464.23	4868.31
464.41	4964.28
464.59	4858.95
464.78	5078.96
464.96	4863.63
465.14	4931.51
465.32	5039.17
465.50	5046.20
465.69	5029.81
465.87	5062.58
466.05	4978.32
466.23	4940.87
466.41	5128.11
466.60	5254.50
466.78	4945.55
466.96	5144.50
467.14	5025.13
467.32	5125.77
467.51	5373.87
467.69	4987.68
467.87	5153.86
468.05	5193.65
468.23	5174.92
468.41	5107.05
468.60	5273.23
468.78	5235.78
468.96	5165.56
469.14	5261.52
469.32	5329.40
469.50	5362.17
469.69	5366.85
469.87	5493.24
470.05	5376.21
470.23	5341.10
470.41	5355.15
470.59	5514.30
470.77	5628.99
470.95	5612.60
471.14	5596.22
471.32	5455.79
471.50	5823.25
471.68	5682.82
471.86	5771.76
472.04	5781.12
472.22	5870.06
472.40	5776.44
472.58	5753.04
472.77	6010.50
472.95	5949.64
473.13	6054.97
473.31	5975.39
473.49	6003.47
473.67	6001.13
473.85	5956.66
474.03	5982.41
474.21	6139.23
474.39	6207.10
474.57	6202.42
474.75	6253.91
474.93	6345.19
475.12	6267.95
475.30	6251.57
475.48	6155.61
475.66	6361.58
475.84	6286.68
476.02	6567.54
476.20	6469.24
476.38	6485.62
476.56	6532.44
476.74	6775.85
476.92	6656.48
477.10	6565.20
477.28	6722.02
477.46	6867.13
477.64	6752.45
477.82	6965.43
478.00	6967.77
478.18	6977.14
478.36	6965.43
478.54	7176.08
478.72	7077.78
478.90	7241.62
479.08	7052.03
479.26	7442.90
479.44	7499.08
479.62	7412.48
479.80	7478.01
479.98	7609.08
480.16	7536.52
480.34	7672.28
480.52	7915.69
480.70	7653.55
480.88	7866.54
481.06	7819.73
481.24	7822.07
481.41	7908.67
481.59	8088.89
481.77	8173.15
481.95	8208.26
482.13	8126.34
482.31	8259.75
482.49	8383.80
482.67	8367.42
482.85	8425.93
483.03	8718.50
483.21	8706.79
483.39	8699.77
483.57	8744.24
483.74	8840.20
483.92	8898.72
484.10	8767.65
484.28	8931.48
484.46	9104.68
484.64	9249.80
484.82	9198.31
485.00	9273.20
485.18	9500.23
485.35	9748.33
485.53	9423.00
485.71	9664.07
485.89	9633.64
486.07	9856.00
486.25	9863.02
486.43	9745.99
486.61	10127.50
486.78	9980.04
486.96	10134.52
487.14	10293.68
487.32	10328.78
487.50	10157.92
487.68	10448.15
487.85	10516.03
488.03	10597.95
488.21	10785.19
488.39	10911.58
488.57	10923.28
488.75	10799.23
488.92	10937.32
489.10	11026.26
489.28	11108.18
489.46	11272.02
489.64	11197.12
489.81	11620.76
489.99	11552.88
490.17	11433.52
490.35	11672.25
490.53	11789.28
490.70	12037.38
490.88	11864.18
491.06	12217.60
491.24	11960.14
491.41	12102.91
491.59	12074.82
491.77	12028.01
491.95	12510.16
492.13	12461.01
492.30	12648.26
492.48	12512.50
492.66	12395.48
492.84	12858.90
493.01	12758.26
493.19	12812.09
493.37	12723.15
493.54	12886.99
493.72	13102.32
493.90	13004.02
494.08	13277.86
494.25	13263.82
494.43	13336.37
494.61	13504.89
494.79	13369.14
494.96	13535.32
495.14	13467.44
495.32	13783.41
495.49	13933.21
495.67	13568.09
495.85	14150.88
496.02	14113.43
496.20	14087.68
496.38	14284.29
496.55	14408.34
496.73	14686.86
496.91	14441.11
497.09	14614.30
497.26	14616.65
497.44	14546.43
497.62	14743.03
497.79	14831.97
497.97	14590.90
498.14	15080.07
498.32	15257.95
498.50	15302.42
498.67	15157.31
498.85	15056.67
499.03	15255.61
499.20	15260.29
499.38	15506.05
499.56	15557.54
499.73	15712.02
499.91	15559.88
500.08	15667.55
500.26	15403.07
500.44	15517.75
500.61	15983.52
500.79	15754.15
500.97	15929.69
501.14	16016.29
501.32	16166.08
501.49	15901.60
501.67	15812.66
501.84	16329.92
502.02	16140.33
502.20	16636.53
502.37	16313.53
502.55	16355.66
502.72	16638.87
502.90	16615.46
503.07	16542.91
503.25	16606.10
503.43	16400.13
503.60	17018.04
503.78	16758.24
503.95	16697.38
504.13	16802.71
504.30	17118.68
504.48	16957.18
504.65	17074.21
504.83	17083.57
505.01	17488.48
505.18	17174.85
505.36	17628.92
505.53	17432.31
505.71	17490.82
505.88	17287.20
506.06	17544.66
506.23	17921.48
506.41	17713.17
506.58	17996.38
506.76	17874.67
506.93	17642.96
507.11	17991.70
507.28	17607.85
507.46	18017.44
507.63	18080.64
507.81	18148.51
507.98	17996.38
508.16	18038.51
508.33	17919.14
508.50	18192.98
508.68	18146.17
508.85	18408.31
509.03	18345.12
509.20	18614.28
509.38	18757.05
509.55	18761.73
509.73	18820.25
509.90	18916.21
510.08	18728.97
510.25	18663.43
510.42	18948.98
510.60	19171.33
510.77	19103.45
510.95	19087.07
511.12	18733.65
511.30	19026.21
511.47	19152.60
511.64	19293.04
511.82	19243.88
511.99	19452.19
512.17	19066.00
512.34	19400.70
512.51	19786.89
512.69	19653.48
512.86	19716.67
513.04	19894.55
513.21	20154.35
513.38	19829.02
513.56	19887.53
513.73	20006.90
513.90	19992.86
514.08	19990.52
514.25	20126.27
514.43	19793.91
514.60	20051.37
514.77	20243.29
514.95	20257.34
515.12	19990.52
515.29	20039.67
515.47	20479.69
515.64	20479.69
515.81	20393.09
515.99	20636.50
516.16	20552.24
516.33	20645.87
516.51	20833.11
516.68	20753.53
516.85	20519.48
517.03	20779.28
517.20	20973.54
517.37	21006.31
517.54	20954.82
517.72	20816.72
517.89	20741.83
518.06	20994.61
518.24	21130.36
518.41	21015.67
518.58	21195.89
518.75	21097.59
518.93	21504.84
519.10	21200.57
519.27	21467.39
519.45	21617.19
519.62	21326.96
519.79	21500.16
519.96	21521.23
520.14	21654.64
520.31	21373.77
520.48	21944.86
520.65	21495.48
520.83	21504.84
521.00	21703.79
521.17	21954.22
521.34	21668.68
521.52	21994.01
521.69	21553.99
521.86	21853.58
522.03	22249.13
522.20	22441.06
522.38	21963.59
522.55	22354.46
522.72	22176.58
522.89	22424.67
523.07	22574.47
523.24	22841.29
523.41	22478.50
523.58	22499.57
523.75	22616.60
523.92	22682.13
524.10	22513.61
524.27	22679.79
524.44	22731.28
524.61	23108.11
524.78	22927.89
524.96	22925.55
525.13	22932.57
525.30	22668.09
525.47	22916.19
525.64	23213.43
525.81	23131.51
525.98	23152.58
526.16	23229.82
526.33	23274.29
526.50	23323.44
526.67	23215.77
526.84	23260.24
527.01	23328.12
527.18	23550.47
527.36	23257.90
527.53	23683.88
527.70	23534.09
527.87	24009.22
528.04	23896.87
528.21	23704.95
528.38	23728.35
528.55	23906.23
528.72	23730.69
528.89	23967.09
529.07	23667.50
529.24	23648.77
529.41	24168.37
529.58	23616.01
529.75	23777.50
529.92	24114.54
530.09	23896.87
530.26	24063.05
530.43	23992.83
530.60	24168.37
530.77	24163.69
530.94	24105.18
531.11	24201.14
531.28	24276.04
531.46	24446.90
531.63	24580.31
531.80	24680.95
531.97	24561.58
532.14	24945.43
532.31	24276.04
532.48	24416.47
532.65	24959.47
532.82	24535.84
532.99	24861.17
533.16	24716.06
533.33	24629.46
533.50	24900.96
533.67	24957.13
533.84	24723.08
534.01	24603.71
534.18	24760.53
534.35	24924.36
534.52	24868.19
534.69	25701.42
534.86	24884.58
535.03	25069.48
535.20	24900.96
535.37	25350.34
535.54	25207.57
535.71	25142.03
535.88	24992.24
536.05	25092.88
536.22	25458.01
536.38	25631.21
536.55	25518.86
536.72	25645.25
536.89	25411.20
537.06	25556.31
537.23	25415.88
537.40	25443.96
537.57	25668.66
537.74	25642.91
537.91	25848.88
538.08	25977.61
538.25	25666.31
538.42	25745.89
538.59	25898.03
538.75	25673.34
538.92	25876.96
539.09	26073.57
539.26	26197.62
539.43	25898.03
539.60	26150.81
539.77	25888.67
539.94	26094.63
540.11	26235.06
540.28	25837.17
540.44	26001.01
540.61	26422.31
540.78	26352.09
540.95	26279.54
541.12	26553.38
541.29	26258.47
541.46	26352.09
541.62	26309.96
541.79	26527.63
541.96	26260.81
542.13	26099.31
542.30	26150.81
542.47	26752.32
542.63	26532.31
542.80	26855.31
542.97	26742.96
543.14	26991.06
543.31	26515.93
543.48	26827.22
543.64	26733.60
543.81	27068.30
543.98	26836.58
544.15	27044.89
544.32	27108.08
544.48	27337.46
544.65	26991.06
544.82	27154.90
544.99	26984.04
545.16	26948.93
545.32	26902.12
545.49	27517.68
545.66	27108.08
545.83	27307.03
546.00	27449.80
546.16	27166.60
546.33	27234.47
546.50	26768.71
546.67	27545.76
546.83	27281.28
547.00	27227.45
547.17	27571.51
547.34	27747.05
547.50	27733.01
547.67	27775.14
547.84	27946.00
548.00	27599.60
548.17	27667.47
548.34	27941.32
548.51	27763.43
548.67	27730.67
548.84	27620.66
549.01	27854.72
549.18	27690.88
549.34	27819.61
549.51	27798.54
549.68	27861.74
549.84	27943.66
550.01	28121.54
550.18	28210.48
550.34	28013.87
550.51	28226.86
550.68	28006.85
550.84	27637.05
551.01	28273.67
551.18	27941.32
551.34	28173.03
551.51	28180.05
551.68	28105.15
551.84	28041.96
552.01	27924.93
552.18	28418.78
552.34	28535.81
552.51	28479.64
552.68	28404.74
552.84	28201.11
553.01	28208.14
553.18	28643.48
553.34	28603.69
553.51	28699.65
553.67	28517.09
553.84	28725.39
554.01	28690.29
554.17	28683.27
554.34	28430.49
554.51	28505.38
554.67	28980.51
554.84	28631.77
555.00	28657.52
555.17	28807.31
555.33	28886.89
555.50	28713.69
555.67	28645.82
555.83	28371.97
556.00	28402.40
556.16	28968.81
556.33	28439.85
556.50	28966.47
556.66	29259.04
556.83	28917.32
556.99	28994.56
557.16	29322.23
557.32	29282.44
557.49	29441.60
557.65	28444.53
557.82	29230.95
557.98	29209.89
558.15	28854.12
558.32	29043.71
558.48	29174.78
558.65	29074.13
558.81	29156.05
558.98	29158.39
559.14	29315.21
559.31	29017.96
559.47	29441.60
559.64	29621.82
559.80	29256.70
559.97	29441.60
560.13	29504.79
560.30	29282.44
560.46	29453.30
560.63	29146.69
560.79	29495.43
560.96	29408.83
561.12	29743.53
561.29	29450.96
561.45	29427.56
561.61	29523.52
561.78	29670.97
561.94	29497.77
562.11	29392.45
562.27	29701.40
562.44	29252.02
562.60	29729.48
562.77	29708.42
562.93	29640.54
563.10	29589.05
563.26	29659.27
563.42	30099.29
563.59	29399.47
563.75	29675.65
563.92	29785.66
564.08	29776.30
564.24	29851.19
564.41	29514.16
564.57	29867.58
564.74	29661.61
564.90	30022.05
565.07	29951.84
565.23	29532.88
565.39	29621.82
565.56	29766.93
565.72	29656.93
565.88	30003.33
566.05	29242.65
566.21	29937.79
566.38	29635.86
566.54	29736.51
566.70	30108.65
566.87	29942.47
567.03	30092.27
567.19	30256.11
567.36	30122.69
567.52	30005.67
567.68	30078.22
567.85	29839.49
568.01	29949.50
568.17	30150.78
568.34	29984.60
568.50	29919.07
568.66	30157.80
568.83	30232.70
568.99	30331.00
569.15	30307.60
569.32	29933.11
569.48	30213.98
569.64	29986.94
569.81	29984.60
569.97	29752.89
570.13	30567.40
570.30	30082.91
570.46	30052.48
570.62	30239.72
570.78	30174.19
570.95	30185.89
571.11	30148.44
571.27	30052.48
571.43	30029.07
571.60	30302.92
571.76	30197.59
571.92	29858.21
572.09	30127.38
572.25	30246.74
572.41	30185.89
572.57	30375.47
572.74	30253.76
572.90	30064.18
573.06	29923.75
573.22	30024.39
573.38	29802.04
573.55	30382.49
573.71	30525.27
573.87	30300.58
574.03	30448.03
574.20	30075.88
574.36	30174.19
574.52	30642.29
574.68	30295.89
574.84	30361.43
575.01	30604.84
575.17	30087.59
575.33	30551.01
575.49	30686.76
575.65	30354.41
575.82	30581.44
575.98	29961.20
576.14	30590.80
576.30	30347.39
576.46	30548.67
576.62	30457.39
576.79	30363.77
576.95	30277.17
577.11	30431.65
577.27	30831.88
577.43	30553.35
577.59	30319.30
577.75	30403.56
577.92	30335.68
578.08	29933.11
578.24	30066.52
578.40	30572.08
578.56	30228.02
578.72	30691.44
578.88	30600.16
579.04	30635.27
579.21	30302.92
579.37	30597.82
579.53	30984.01
579.69	30110.99
579.85	30211.64
580.01	30560.37
580.17	30267.81
580.33	30712.51
580.49	30384.83
580.65	30579.10
580.82	30714.85
580.98	30705.49
581.14	30787.41
581.30	30787.41
581.46	30281.85
581.62	30368.45
581.78	30384.83
581.94	30338.02
582.10	30103.97
582.26	30560.37
582.42	30415.26
582.58	30555.69
582.74	30600.16
582.90	30553.35
583.06	30724.21
583.22	30852.94
583.38	30686.76
583.54	30319.30
583.70	30560.37
583.86	30590.80
584.02	30342.70
584.18	30689.10
584.34	30831.88
584.50	30738.26
584.66	30735.92
584.82	30726.55
584.98	30696.13
585.14	30602.50
585.30	30305.26
585.46	30338.02
585.62	30281.85
585.78	30462.07
585.94	30295.89
586.10	30948.90
586.26	30668.04
586.42	30773.36
586.58	30850.60
586.74	30696.13
586.90	30536.97
587.06	30382.49
587.22	30487.82
587.38	30293.55
587.54	30707.83
587.70	31138.49
587.86	30885.71
588.02	31016.78
588.18	31028.48
588.34	30885.71
588.49	30902.09
588.65	30864.64
588.81	30822.51
588.97	30646.97
589.13	30735.92
589.29	30719.53
589.45	30677.40
589.61	30993.37
589.77	31351.48
589.93	31138.49
590.08	31222.75
590.24	30829.54
590.40	31108.06
590.56	30876.35
590.72	30731.23
590.88	30558.03
591.04	30752.30
591.20	31136.15
591.35	31248.49
591.51	31285.94
591.67	30969.97
591.83	31498.93
