SpectraSuite Data File
++++++++++++++++++++++++++++++++++++
Date: Fri Oct 18 13:57:56 GMT-05:00 2013
User: bianchi
Dark Spectrum Present: No
Reference Spectrum Present: No
Number of Sampled Component Spectra: 1
Spectrometers: USB2+H05261
Integration Time (usec): 50000 (USB2+H05261)
Spectra Averaged: 1 (USB2+H05261)
Boxcar Smoothing: 0 (USB2+H05261)
Correct for Electrical Dark: No (USB2+H05261)
Strobe/Lamp Enabled: No (USB2+H05261)
Correct for Detector Non-linearity: No (USB2+H05261)
Correct for Stray Light: No (USB2+H05261)
Number of Pixels in Processed Spectrum: 2048
>>>>>Begin Processed Spectral Data<<<<<
365.73	0.00
365.92	0.00
366.12	0.00
366.32	0.00
366.52	0.00
366.72	0.00
366.91	0.00
367.11	0.00
367.31	0.00
367.51	0.00
367.70	0.00
367.90	0.00
368.10	0.00
368.30	0.00
368.49	0.00
368.69	0.00
368.89	0.00
369.09	0.00
369.28	0.00
369.48	0.00
369.68	0.00
369.87	0.00
370.07	0.00
370.27	0.00
370.47	0.00
370.66	51.49
370.86	119.37
371.06	100.64
371.25	159.16
371.45	201.29
371.65	187.24
371.84	145.11
372.04	145.11
372.24	93.62
372.44	145.11
372.63	163.84
372.83	208.31
373.03	187.24
373.22	217.67
373.42	166.18
373.62	187.24
373.81	180.22
374.01	250.44
374.21	236.39
374.40	241.08
374.60	248.10
374.79	241.08
374.99	238.73
375.19	301.93
375.38	201.29
375.58	241.08
375.78	301.93
375.97	250.44
376.17	315.97
376.37	271.50
376.56	152.13
376.76	252.78
376.95	278.52
377.15	248.10
377.35	212.99
377.54	259.80
377.74	255.12
377.93	250.44
378.13	348.74
378.33	177.88
378.52	290.23
378.72	301.93
378.91	280.86
379.11	306.61
379.31	290.23
379.50	280.86
379.70	322.99
379.89	322.99
380.09	304.27
380.28	292.57
380.48	308.95
380.68	278.52
380.87	269.16
381.07	339.38
381.26	381.51
381.46	327.68
381.65	379.17
381.85	283.20
382.04	337.04
382.24	414.27
382.43	411.93
382.63	348.74
382.83	297.25
383.02	362.78
383.22	369.80
383.41	311.29
383.61	313.63
383.80	358.10
384.00	358.10
384.19	330.02
384.39	348.74
384.58	339.38
384.78	355.76
384.97	355.76
385.17	376.83
385.36	493.85
385.56	374.49
385.75	440.02
385.95	395.55
386.14	411.93
386.34	425.98
386.53	512.58
386.72	414.27
386.92	428.32
387.11	404.91
387.31	468.11
387.50	388.53
387.70	505.56
387.89	425.98
388.09	430.66
388.28	477.47
388.48	395.55
388.67	500.87
388.86	411.93
389.06	482.15
389.25	533.64
389.45	456.40
389.64	430.66
389.84	564.07
390.03	545.34
390.22	566.41
390.42	507.90
390.61	503.22
390.81	528.96
391.00	547.69
391.19	559.39
391.39	587.47
391.58	557.05
391.78	479.81
391.97	559.39
392.16	528.96
392.36	547.69
392.55	479.81
392.75	547.69
392.94	533.64
393.13	493.85
393.33	559.39
393.52	524.28
393.71	545.34
393.91	622.58
394.10	526.62
394.29	533.64
394.49	613.22
394.68	613.22
394.88	575.77
395.07	648.33
395.26	578.11
395.46	559.39
395.65	674.07
395.84	575.77
396.04	655.35
396.23	720.88
396.42	671.73
396.62	655.35
396.81	662.37
397.00	664.71
397.19	676.41
397.39	725.57
397.58	748.97
397.77	730.25
397.97	685.78
398.16	655.35
398.35	753.65
398.55	641.31
398.74	688.12
398.93	720.88
399.12	739.61
399.32	770.04
399.51	674.07
399.70	791.10
399.90	809.83
400.09	763.01
400.28	774.72
400.47	849.61
400.67	744.29
400.86	793.44
401.05	788.76
401.24	788.76
401.44	798.12
401.63	826.21
401.82	844.93
402.01	786.42
402.21	856.64
402.40	863.66
402.59	912.81
402.78	929.19
402.97	870.68
403.17	887.06
403.36	940.90
403.55	889.40
403.74	1048.56
403.93	875.36
404.13	905.79
404.32	919.83
404.51	938.55
404.70	910.47
404.89	961.96
405.09	1032.18
405.28	1053.24
405.47	933.87
405.66	1011.11
405.85	1001.75
406.05	1041.54
406.24	1015.79
406.43	1057.92
406.62	1071.97
406.81	1135.16
407.00	1039.20
407.20	1006.43
407.39	1088.35
407.58	1069.62
407.77	1095.37
407.96	1153.88
408.15	1158.57
408.34	1071.97
408.54	1198.35
408.73	1149.20
408.92	1121.12
409.11	1118.78
409.30	1135.16
409.49	1151.54
409.68	1139.84
409.87	1200.69
410.07	1188.99
410.26	1259.21
410.45	1315.38
410.64	1186.65
410.83	1301.34
411.02	1289.64
411.21	1348.15
411.40	1249.85
411.59	1329.42
411.78	1217.08
411.98	1174.95
412.17	1284.95
412.36	1310.70
412.55	1387.94
412.74	1357.51
412.93	1345.81
413.12	1483.90
413.31	1467.52
413.50	1392.62
413.69	1390.28
413.88	1432.41
414.07	1376.24
414.26	1465.18
414.45	1392.62
414.64	1472.20
414.83	1589.22
415.02	1570.50
415.22	1621.99
415.41	1607.95
415.60	1652.42
415.79	1643.06
415.98	1626.67
416.17	1600.93
416.36	1629.01
416.55	1621.99
416.74	1696.89
416.93	1694.55
417.12	1638.38
417.31	1851.36
417.50	1741.36
417.69	1778.81
417.88	1863.07
418.07	1827.96
418.26	1746.04
418.45	1792.85
418.64	1830.30
418.83	1783.49
419.02	1914.56
419.21	1860.73
419.39	1853.70
419.58	1764.76
419.77	1818.60
419.96	1844.34
420.15	1916.90
420.34	1755.40
420.53	1963.71
420.72	1940.30
420.91	1991.80
421.10	2085.42
421.29	2134.57
421.48	2019.88
421.67	1994.14
421.86	2064.35
422.05	2047.97
422.24	2094.78
422.43	1933.28
422.61	2026.90
422.80	2090.10
422.99	2017.54
423.18	2148.61
423.37	2106.48
423.56	2069.03
423.75	1930.94
423.94	1959.03
424.13	1973.07
424.32	2031.58
424.50	2050.31
424.69	2132.23
424.88	2071.37
425.07	2160.31
425.26	1926.26
425.45	2141.59
425.64	2120.53
425.83	2083.08
426.01	2141.59
426.20	2057.33
426.39	2080.74
426.58	2099.46
426.77	2188.40
426.96	2193.08
427.15	2120.53
427.33	2052.65
427.52	2211.81
427.71	2073.71
427.90	2223.51
428.09	2167.34
428.28	2263.30
428.46	2289.04
428.65	2282.02
428.84	2415.43
429.03	2385.01
429.22	2181.38
429.40	2289.04
429.59	2420.11
429.78	2174.36
429.97	2214.15
430.16	2277.34
430.34	2333.51
430.53	2424.80
430.72	2389.69
430.91	2321.81
431.10	2258.62
431.28	2385.01
431.47	2455.22
431.66	2485.65
431.85	2436.50
432.03	2487.99
432.22	2551.18
432.41	2588.63
432.60	2555.86
432.79	2408.41
432.97	2626.08
433.16	2738.43
433.35	2520.76
433.54	2403.73
433.72	2656.51
433.91	2597.99
434.10	2661.19
434.28	2633.10
434.47	2541.82
434.66	2710.34
434.85	2691.62
435.03	2719.70
435.22	2586.29
435.41	2766.51
435.59	2663.53
435.78	2736.09
435.97	2768.85
436.16	2600.34
436.34	2672.89
436.53	2813.32
436.72	2796.94
436.90	2761.83
437.09	2850.77
437.28	2782.90
437.46	2888.22
437.65	2848.43
437.84	2810.98
438.02	2942.05
438.21	2897.58
438.40	2834.39
438.58	2792.26
438.77	2925.67
438.96	3049.72
439.14	3122.27
439.33	2991.20
439.52	3066.10
439.70	3014.61
439.89	3124.62
440.08	3077.80
440.26	3094.19
440.45	3124.62
440.63	3173.77
440.82	3204.19
441.01	3122.27
441.19	3452.29
441.38	3222.92
441.57	3356.33
441.75	3358.67
441.94	3325.90
442.12	3344.63
442.31	3400.80
442.50	3342.28
442.68	3520.17
442.87	3435.91
443.05	3496.76
443.24	3431.23
443.43	3454.63
443.61	3508.46
443.80	3578.68
443.98	3463.99
444.17	3283.77
444.35	3442.93
444.54	3571.66
444.73	3592.72
444.91	3604.42
445.10	3461.65
445.28	3473.36
445.47	3449.95
445.65	3543.57
445.84	3658.26
446.02	3634.85
446.21	3630.17
446.39	3613.79
446.58	3538.89
446.77	3676.98
446.95	3433.57
447.14	3630.17
447.32	3684.00
447.51	3524.85
447.69	3576.34
447.88	3684.00
448.06	3630.17
448.25	3602.08
448.43	3705.07
448.62	3721.45
448.80	3679.32
448.99	3588.04
449.17	3693.37
449.36	3721.45
449.54	3712.09
449.73	3684.00
449.91	3817.41
450.10	3777.62
450.28	3880.61
450.46	3803.37
450.65	3857.20
450.83	3896.99
451.02	3857.20
451.20	4060.83
451.39	3829.12
451.57	3843.16
451.76	3861.88
451.94	3974.23
452.13	3943.80
452.31	3904.01
452.49	3927.42
452.68	3936.78
452.86	3995.29
453.05	4072.53
453.23	3896.99
453.42	4063.17
453.60	4135.73
453.78	4128.70
453.97	4053.81
454.15	4119.34
454.34	3983.59
454.52	4065.51
454.70	4191.90
454.89	4227.01
455.07	4124.02
455.26	4126.36
455.44	4205.94
455.62	4161.47
455.81	4198.92
455.99	4266.80
456.17	4100.62
456.36	4170.83
456.54	4322.97
456.73	4344.03
456.91	4465.74
457.09	4454.04
457.28	4507.87
457.46	4269.14
457.64	4489.15
457.83	4512.55
458.01	4477.44
458.19	4554.68
458.38	4461.06
458.56	4578.09
458.74	4402.55
458.93	4521.92
459.11	4599.15
459.29	4545.32
459.48	4540.64
459.66	4603.83
459.84	4601.49
460.03	4751.29
460.21	4599.15
460.39	4732.56
460.57	4699.80
460.76	4650.64
460.94	4901.08
461.12	4683.41
461.31	4847.25
461.49	4702.14
461.67	4732.56
461.85	4887.04
462.04	4830.87
462.22	5020.45
462.40	5064.92
462.59	4931.51
462.77	4812.14
462.95	4980.66
463.13	4952.57
463.32	4870.65
463.50	4931.51
463.68	5013.43
463.86	5118.75
464.05	5013.43
464.23	5132.79
464.41	5085.98
464.59	4915.12
464.78	5174.92
464.96	5111.73
465.14	4978.32
465.32	5011.09
465.50	5144.50
465.69	5231.10
465.87	5254.50
466.05	5118.75
466.23	5193.65
466.41	5139.82
466.60	5474.51
466.78	5121.09
466.96	5219.39
467.14	5242.80
467.32	5313.02
467.51	5369.19
467.69	5177.26
467.87	5186.63
468.05	5514.30
468.23	5397.28
468.41	5153.86
468.60	5369.19
468.78	5408.98
468.96	5296.63
469.14	5472.17
469.32	5460.47
469.50	5348.12
469.69	5516.64
469.87	5488.56
470.05	5404.30
470.23	5523.66
470.41	5673.46
470.59	5664.10
470.77	5593.88
470.95	5671.12
471.14	5827.93
471.32	5727.29
471.50	5757.72
471.68	5753.04
471.86	5799.85
472.04	5919.21
472.22	5959.00
472.40	5856.02
472.58	5830.27
472.77	5898.15
472.95	6029.22
473.13	6064.33
473.31	5888.79
473.49	6125.18
473.67	6043.26
473.85	6106.46
474.03	6197.74
474.21	6305.40
474.39	6164.97
474.57	6193.06
474.75	6380.30
474.93	6403.71
475.12	6291.36
475.30	6401.37
475.48	6326.47
475.66	6558.18
475.84	6651.80
476.02	6609.67
476.20	6506.69
476.38	6853.09
476.56	6626.06
476.74	6743.08
476.92	6574.56
477.10	6743.08
477.28	6930.33
477.46	6911.60
477.64	6750.10
477.82	7002.88
478.00	7136.29
478.18	7089.48
478.36	7260.34
478.54	7304.81
478.72	7337.58
478.90	7438.22
479.08	7325.88
479.26	7485.03
479.44	7686.32
479.62	7705.04
479.80	7665.25
479.98	7639.51
480.16	7911.01
480.34	7791.64
480.52	7805.69
480.70	7829.09
480.88	7758.88
481.06	7838.45
481.24	7971.86
481.41	7911.01
481.59	8212.94
481.77	8304.22
481.95	8205.92
482.13	8526.57
482.31	8245.71
482.49	8430.61
482.67	8418.91
482.85	8620.19
483.03	8760.63
483.21	8765.31
483.39	8688.07
483.57	8814.46
483.74	9069.58
483.92	8884.67
484.10	8982.98
484.28	9146.81
484.46	9294.27
484.64	9341.08
484.82	9327.03
485.00	9301.29
485.18	9678.12
485.35	9720.24
485.53	9645.35
485.71	9605.56
485.89	9954.30
486.07	10024.51
486.25	9790.46
486.43	9937.91
486.61	9963.66
486.78	10033.88
486.96	10263.25
487.14	10438.79
487.32	10349.85
487.50	10640.08
487.68	10590.92
487.85	10530.07
488.03	10846.04
488.21	10965.41
488.39	10836.68
488.57	11040.31
488.75	11033.29
488.92	11297.77
489.10	11211.17
489.28	11122.23
489.46	11304.79
489.64	11400.75
489.81	11716.72
489.99	11602.04
490.17	11555.22
490.35	11843.11
490.53	12105.25
490.70	11913.33
490.88	11981.20
491.06	12187.17
491.24	12107.59
491.41	12418.88
491.59	12304.20
491.77	12622.51
491.95	12624.85
492.13	12631.87
492.30	12676.34
492.48	12713.79
492.66	12692.73
492.84	12830.82
493.01	12898.69
493.19	12931.46
493.37	13142.11
493.54	13319.99
493.72	13193.60
493.90	13231.05
494.08	13488.51
494.25	13404.25
494.43	13563.40
494.61	13745.97
494.79	13654.69
494.96	13874.70
495.14	14197.69
495.32	14005.77
495.49	14132.15
495.67	14066.62
495.85	14321.74
496.02	14295.99
496.20	14642.39
496.38	14326.42
496.55	14427.06
496.73	14841.34
496.91	14773.46
497.09	14494.94
497.26	14822.61
497.44	14759.42
497.62	14806.23
497.79	14951.34
497.97	15042.62
498.14	15005.17
498.32	15171.35
498.50	15318.81
498.67	15412.43
498.85	15344.55
499.03	15585.63
499.20	15398.38
499.38	15543.50
499.56	15861.81
499.73	15793.94
499.91	15683.93
500.08	15726.06
500.26	15529.45
500.44	15859.47
500.61	15957.77
500.79	16070.12
500.97	16327.58
501.14	16566.31
501.32	16362.69
501.49	16500.78
501.67	16444.60
501.84	16332.26
502.02	16556.95
502.20	16655.25
502.37	16856.54
502.55	16718.45
502.72	16931.44
502.90	16844.84
503.07	16613.12
503.25	16732.49
503.43	16554.61
503.60	17209.96
503.78	16929.09
503.95	17186.55
504.13	17064.85
504.30	17247.41
504.48	16901.01
504.65	17163.15
504.83	17458.06
505.01	17514.23
505.18	17745.94
505.36	17841.90
505.53	17504.87
505.71	17727.22
505.88	17729.56
506.06	17846.58
506.23	17727.22
506.41	17788.07
506.58	18148.51
506.76	18085.32
506.93	17977.65
507.11	17877.01
507.28	18071.28
507.46	17977.65
507.63	18228.09
507.81	18340.44
507.98	18300.65
508.16	18558.11
508.33	18012.76
508.50	18562.79
508.68	18836.63
508.85	18815.57
509.03	18927.91
509.20	19154.94
509.38	18792.16
509.55	19133.88
509.73	19019.19
509.90	19136.22
510.08	18864.72
510.25	19154.94
510.42	19278.99
510.60	19330.48
510.77	19346.87
510.95	19208.78
511.12	19208.78
511.30	19363.25
511.47	19506.02
511.64	19639.44
511.82	19861.79
511.99	19714.33
512.17	20100.52
512.34	19730.72
512.51	19428.79
512.69	19983.49
512.86	19709.65
513.04	20006.90
513.21	20126.27
513.38	20374.36
513.56	20257.34
513.73	20304.15
513.90	20109.88
514.08	20152.01
514.25	20313.51
514.43	20360.32
514.60	20463.30
514.77	20545.22
514.95	20519.48
515.12	20170.74
515.29	20554.58
515.47	20807.36
515.64	20606.08
515.81	20629.48
515.99	20847.15
516.16	21020.35
516.33	20676.29
516.51	20793.32
516.68	20903.32
516.85	21095.25
517.03	20968.86
517.20	21252.06
517.37	21312.92
517.54	21139.72
517.72	21170.15
517.89	21350.37
518.06	21549.31
518.24	21443.99
518.41	21125.68
518.58	21600.80
518.75	21673.36
518.93	21263.77
519.10	21626.55
519.27	21673.36
519.45	21743.58
519.62	21678.04
519.79	21809.11
519.96	21919.12
520.14	22284.24
520.31	22295.94
520.48	22059.55
520.65	22029.12
520.83	22155.51
521.00	22162.53
521.17	22448.08
521.34	22164.87
521.52	22263.18
521.69	22272.54
521.86	22532.34
522.03	22434.03
522.20	22635.32
522.38	22654.05
522.55	22459.78
522.72	22429.35
522.89	22787.46
523.07	22885.76
523.24	22834.27
523.41	22838.95
523.58	22499.57
523.75	22892.78
523.92	22801.50
524.10	22925.55
524.27	23178.33
524.44	22948.95
524.61	23538.77
524.78	23590.26
524.96	23253.22
525.13	23108.11
525.30	23183.01
525.47	23421.74
525.64	23250.88
525.81	23454.51
525.98	23695.58
526.16	23552.81
526.33	23508.34
526.50	23798.57
526.67	23573.88
526.84	23300.03
527.01	23894.53
527.18	23714.31
527.36	24175.39
527.53	24016.24
527.70	24056.03
527.87	24065.39
528.04	23777.50
528.21	24123.90
528.38	23901.55
528.55	24018.58
528.72	24067.73
528.89	24119.22
529.07	24133.26
529.24	23995.17
529.41	24561.58
529.58	24425.83
529.75	24273.70
529.92	24350.93
530.09	24666.91
530.26	24517.11
530.43	24505.41
530.60	24411.79
530.77	24730.10
530.94	24484.34
531.11	24596.69
531.28	25003.94
531.46	24737.12
531.63	24903.30
531.80	24819.04
531.97	25233.32
532.14	25118.63
532.31	24903.30
532.48	24879.89
532.65	25448.64
532.82	24966.49
532.99	24931.39
533.16	24957.13
533.33	25202.89
533.50	25497.80
533.67	25413.54
533.84	24961.81
534.01	25139.69
534.18	25125.65
534.35	25139.69
534.52	25362.04
534.69	25776.32
534.86	25851.22
535.03	25256.72
535.20	25685.04
535.37	25521.20
535.54	25621.84
535.71	25371.41
535.88	25830.15
536.05	25596.10
536.22	25876.96
536.38	25893.35
536.55	25748.23
536.72	25993.99
536.89	25879.30
537.06	26073.57
537.23	26302.94
537.40	25914.41
537.57	26033.78
537.74	25797.38
537.91	26302.94
538.08	26106.34
538.25	26031.44
538.42	26237.41
538.59	26352.09
538.75	26111.02
538.92	25914.41
539.09	26324.01
539.26	26394.22
539.43	26501.89
539.60	26888.07
539.77	26595.51
539.94	26206.98
540.11	26403.58
540.28	26541.68
540.44	26302.94
540.61	26424.65
540.78	26614.23
540.95	26398.90
541.12	26766.37
541.29	26834.24
541.46	26754.66
541.62	26984.04
541.79	26740.62
541.96	26417.63
542.13	27241.50
542.30	27234.47
542.47	26937.23
542.63	27023.83
542.80	26995.74
542.97	27267.24
543.14	27250.86
543.31	26953.61
543.48	26897.44
543.64	27307.03
543.81	27349.16
543.98	27421.72
544.15	27433.42
544.32	27725.99
544.48	27662.79
544.65	27374.91
544.82	27461.51
544.99	27152.55
545.16	27442.78
545.32	27892.16
545.49	27892.16
545.66	27920.25
545.83	27936.63
546.00	28149.62
546.16	27644.07
546.33	27466.19
546.50	27412.35
546.67	27733.01
546.83	27854.72
547.00	27950.68
547.17	27931.95
547.34	28088.77
547.50	28030.26
547.67	28329.84
547.84	28208.14
548.00	27934.29
548.17	28360.27
548.34	27927.27
548.51	28407.08
548.67	28229.20
548.84	28180.05
549.01	28732.42
549.18	28182.39
549.34	28058.34
549.51	28306.44
549.68	28285.37
549.84	27711.94
550.01	28596.67
550.18	28479.64
550.34	28428.15
550.51	28645.82
550.68	28793.27
550.84	28393.04
551.01	28521.77
551.18	28711.35
551.34	28388.36
551.51	28240.90
551.68	28643.48
551.84	28751.14
552.01	28760.50
552.18	28765.18
552.34	28947.75
552.51	29006.26
552.68	28886.89
552.84	29078.82
553.01	28837.74
553.18	28711.35
553.34	29296.49
553.51	28828.38
553.67	28566.24
553.84	29039.03
554.01	29364.36
554.17	29516.50
554.34	29340.96
554.51	29039.03
554.67	29116.26
554.84	29228.61
555.00	29050.73
555.17	29230.95
555.33	29102.22
555.50	29172.44
555.67	29401.81
555.83	29240.31
556.00	29343.30
556.16	29790.34
556.33	29296.49
556.50	29230.95
556.66	29727.14
556.83	29301.17
556.99	29532.88
557.16	29247.33
557.32	29177.12
557.49	30024.39
557.65	29296.49
557.82	29090.52
557.98	29514.16
558.15	29544.58
558.32	29301.17
558.48	29420.53
558.65	29818.42
558.81	29736.51
558.98	29883.96
559.14	29284.78
559.31	29392.45
559.47	29745.87
559.64	29539.90
559.80	29940.13
559.97	29937.79
560.13	29549.26
560.30	29898.00
560.46	29773.95
560.63	29692.04
560.79	30043.12
560.96	30022.05
561.12	29942.47
561.29	29516.50
561.45	29977.58
561.61	30232.70
561.78	29954.18
561.94	29886.30
562.11	29818.42
562.27	30326.32
562.44	30075.88
562.60	29916.73
562.77	30242.06
562.93	29745.87
563.10	30192.91
563.26	29923.75
563.42	30450.37
563.59	30352.07
563.75	30274.83
563.92	30082.91
564.08	30012.69
564.24	29998.65
564.41	30288.87
564.57	30061.84
564.74	30157.80
564.90	30630.59
565.07	30307.60
565.23	30284.19
565.39	30239.72
565.56	30249.08
565.72	30508.88
565.88	30267.81
566.05	29989.28
566.21	30118.01
566.38	30525.27
566.54	30230.36
566.70	30155.46
566.87	30735.92
567.03	30501.86
567.19	30817.83
567.36	30462.07
567.52	30712.51
567.68	30895.07
567.85	30249.08
568.01	30749.96
568.17	30560.37
568.34	30822.51
568.50	30679.74
568.66	30546.33
568.83	30953.58
568.99	30331.00
569.15	30394.20
569.32	30597.82
569.48	30195.25
569.64	30398.88
569.81	30604.84
569.97	30766.34
570.13	30923.16
570.30	30689.10
570.46	31026.14
570.62	30677.40
570.78	30518.25
570.95	30476.12
571.11	30551.01
571.27	30377.81
571.43	30543.99
571.60	30532.29
571.76	30834.22
571.92	30691.44
572.09	30569.74
572.25	30998.06
572.41	30899.75
572.57	30738.26
572.74	30717.19
572.90	30459.73
573.06	30895.07
573.22	30532.29
573.38	30661.02
573.55	30735.92
573.71	31126.78
573.87	31061.25
574.03	31094.02
574.20	30792.09
574.36	30679.74
574.52	30766.34
574.68	30897.41
574.84	30824.86
575.01	30885.71
575.17	30625.91
575.33	31187.64
575.49	31227.43
575.65	31290.62
575.82	31009.76
575.98	30462.07
576.14	30946.56
576.30	30981.67
576.46	31290.62
576.62	30974.65
576.79	30852.94
576.95	30897.41
577.11	31136.15
577.27	30885.71
577.43	31166.57
577.59	31044.87
577.75	31051.89
577.92	30576.76
578.08	30789.75
578.24	30548.67
578.40	31218.07
578.56	31075.29
578.72	31356.16
578.88	31182.96
579.04	31091.68
579.21	31157.21
579.37	31000.40
579.53	31253.17
579.69	30602.50
579.85	30962.95
580.01	31145.51
580.17	31047.21
580.33	31152.53
580.49	30986.35
580.65	31056.57
580.82	31072.95
580.98	31140.83
581.14	30742.94
581.30	30831.88
581.46	30960.61
581.62	31065.93
581.78	30895.07
581.94	30756.98
582.10	31108.06
582.26	31030.82
582.42	30951.24
582.58	31094.02
582.74	30937.20
582.90	31047.21
583.06	31084.65
583.22	30658.68
583.38	30899.75
583.54	30897.41
583.70	30831.88
583.86	30876.35
584.02	30930.18
584.18	31227.43
584.34	31484.89
584.50	31232.11
584.66	31225.09
584.82	31126.78
584.98	31218.07
585.14	31131.47
585.30	30602.50
585.46	30925.50
585.62	31077.63
585.78	31402.97
585.94	30822.51
586.10	31239.13
586.26	30958.27
586.42	31686.17
586.58	31269.56
586.74	31281.26
586.90	31070.61
587.06	31241.47
587.22	31040.18
587.38	31173.60
587.54	31157.21
587.70	31405.31
587.86	31442.76
588.02	31784.48
588.18	31459.14
588.34	31475.52
588.49	31424.03
588.65	31257.85
588.81	31138.49
588.97	31255.51
589.13	30986.35
589.29	31225.09
589.45	31522.34
589.61	31538.72
589.77	31800.86
589.93	31784.48
590.08	32107.47
590.24	31667.45
590.40	31630.00
590.56	31711.92
590.72	31227.43
590.88	31391.26
591.04	31173.60
591.20	31213.38
591.35	31459.14
591.51	31812.56
591.67	31976.40
591.83	31976.40
