SpectraSuite Data File
++++++++++++++++++++++++++++++++++++
Date: Fri Oct 18 13:58:21 GMT-05:00 2013
User: bianchi
Dark Spectrum Present: No
Reference Spectrum Present: No
Number of Sampled Component Spectra: 1
Spectrometers: USB2+H05261
Integration Time (usec): 50000 (USB2+H05261)
Spectra Averaged: 1 (USB2+H05261)
Boxcar Smoothing: 0 (USB2+H05261)
Correct for Electrical Dark: No (USB2+H05261)
Strobe/Lamp Enabled: No (USB2+H05261)
Correct for Detector Non-linearity: No (USB2+H05261)
Correct for Stray Light: No (USB2+H05261)
Number of Pixels in Processed Spectrum: 2048
>>>>>Begin Processed Spectral Data<<<<<
365.73	0.00
365.92	0.00
366.12	0.00
366.32	0.00
366.52	0.00
366.72	0.00
366.91	0.00
367.11	0.00
367.31	0.00
367.51	0.00
367.70	0.00
367.90	0.00
368.10	0.00
368.30	0.00
368.49	0.00
368.69	0.00
368.89	0.00
369.09	0.00
369.28	0.00
369.48	0.00
369.68	0.00
369.87	0.00
370.07	0.00
370.27	0.00
370.47	0.00
370.66	81.92
370.86	119.37
371.06	149.79
371.25	234.05
371.45	175.54
371.65	93.62
371.84	133.41
372.04	142.77
372.24	124.05
372.44	154.48
372.63	170.86
372.83	217.67
373.03	245.76
373.22	243.42
373.42	266.82
373.62	187.24
373.81	311.29
374.01	222.35
374.21	248.10
374.40	182.56
374.60	257.46
374.79	238.73
374.99	140.43
375.19	201.29
375.38	210.65
375.58	271.50
375.78	299.59
375.97	269.16
376.17	297.25
376.37	198.95
376.56	201.29
376.76	177.88
376.95	283.20
377.15	222.35
377.35	297.25
377.54	201.29
377.74	273.84
377.93	259.80
378.13	203.63
378.33	292.57
378.52	287.89
378.72	292.57
378.91	308.95
379.11	238.73
379.31	266.82
379.50	325.33
379.70	325.33
379.89	259.80
380.09	341.72
380.28	227.03
380.48	224.69
380.68	276.18
380.87	248.10
381.07	285.55
381.26	330.02
381.46	255.12
381.65	325.33
381.85	313.63
382.04	339.38
382.24	383.85
382.43	311.29
382.63	416.62
382.83	346.40
383.02	320.65
383.22	397.89
383.41	365.12
383.61	344.06
383.80	292.57
384.00	365.12
384.19	376.83
384.39	358.10
384.58	341.72
384.78	351.08
384.97	360.44
385.17	362.78
385.36	325.33
385.56	374.49
385.75	313.63
385.95	358.10
386.14	388.53
386.34	367.46
386.53	397.89
386.72	388.53
386.92	386.19
387.11	437.68
387.31	421.30
387.50	407.25
387.70	348.74
387.89	376.83
388.09	456.40
388.28	409.59
388.48	440.02
388.67	528.96
388.86	489.17
389.06	386.19
389.25	454.06
389.45	435.34
389.64	482.15
389.84	458.74
390.03	482.15
390.22	430.66
390.42	425.98
390.61	470.45
390.81	404.91
391.00	496.19
391.19	475.13
391.39	498.53
391.58	475.13
391.78	491.51
391.97	470.45
392.16	475.13
392.36	580.45
392.55	498.53
392.75	528.96
392.94	493.85
393.13	521.94
393.33	528.96
393.52	524.28
393.71	554.71
393.91	566.41
394.10	535.98
394.29	528.96
394.49	531.30
394.68	573.43
394.88	582.79
395.07	622.58
395.26	568.75
395.46	547.69
395.65	521.94
395.84	631.94
396.04	634.29
396.23	538.32
396.42	594.50
396.62	650.67
396.81	596.84
397.00	575.77
397.19	641.31
397.39	720.88
397.58	657.69
397.77	620.24
397.97	674.07
398.16	657.69
398.35	634.29
398.55	678.76
398.74	594.50
398.93	638.97
399.12	706.84
399.32	781.74
399.51	655.35
399.70	678.76
399.90	664.71
400.09	755.99
400.28	683.44
400.47	706.84
400.67	779.40
400.86	730.25
401.05	734.93
401.24	875.36
401.44	713.86
401.63	798.12
401.82	772.38
402.01	786.42
402.21	854.30
402.40	809.83
402.59	741.95
402.78	812.17
402.97	798.12
403.17	889.40
403.36	807.48
403.55	866.00
403.74	875.36
403.93	809.83
404.13	929.19
404.32	781.74
404.51	889.40
404.70	889.40
404.89	884.72
405.09	849.61
405.28	929.19
405.47	908.13
405.66	950.26
405.85	985.37
406.05	973.66
406.24	959.62
406.43	936.21
406.62	978.34
406.81	1041.54
407.00	936.21
407.20	950.26
407.39	1034.52
407.58	1041.54
407.77	1041.54
407.96	1071.97
408.15	1057.92
408.34	1086.01
408.54	1022.81
408.73	968.98
408.92	1076.65
409.11	1118.78
409.30	1100.05
409.49	1081.33
409.68	1093.03
409.87	1214.74
410.07	1048.56
410.26	1160.91
410.45	1151.54
410.64	1170.27
410.83	1214.74
411.02	1263.89
411.21	1252.19
411.40	1193.67
411.59	1261.55
411.78	1277.93
411.98	1144.52
412.17	1135.16
412.36	1315.38
412.55	1268.57
412.74	1416.02
412.93	1364.53
413.12	1369.21
413.31	1327.08
413.50	1371.55
413.69	1455.81
413.88	1483.90
414.07	1350.49
414.26	1394.96
414.45	1390.28
414.64	1455.81
414.83	1462.83
415.02	1554.12
415.22	1481.56
415.41	1514.33
415.60	1509.65
415.79	1507.30
415.98	1561.14
416.17	1579.86
416.36	1535.39
416.55	1614.97
416.74	1643.06
416.93	1661.78
417.12	1624.33
417.31	1514.33
417.50	1636.03
417.69	1664.12
417.88	1806.89
418.07	1696.89
418.26	1753.06
418.45	1764.76
418.64	1823.28
418.83	1741.36
419.02	1638.38
419.21	1757.74
419.39	1809.23
419.58	1769.44
419.77	1816.26
419.96	1830.30
420.15	1865.41
420.34	1849.02
420.53	1856.04
420.72	1762.42
420.91	1914.56
421.10	1898.17
421.29	2005.84
421.48	1921.58
421.67	1858.39
421.86	1804.55
422.05	2017.54
422.24	1949.67
422.43	1877.11
422.61	1926.26
422.80	2090.10
422.99	1994.14
423.18	2043.29
423.37	2003.50
423.56	1968.39
423.75	2008.18
423.94	1916.90
424.13	1741.36
424.32	1879.45
424.50	2008.18
424.69	2043.29
424.88	2104.14
425.07	1942.64
425.26	1966.05
425.45	2012.86
425.64	1902.86
425.83	1968.39
426.01	2045.63
426.20	1975.41
426.39	1987.11
426.58	2113.50
426.77	2064.35
426.96	1994.14
427.15	2019.88
427.33	2094.78
427.52	2052.65
427.71	2031.58
427.90	2179.04
428.09	2125.21
428.28	2165.00
428.46	2214.15
428.65	2179.04
428.84	2155.63
429.03	2200.10
429.22	2134.57
429.40	2190.74
429.59	2253.94
429.78	2115.84
429.97	2057.33
430.16	2242.23
430.34	2366.28
430.53	2307.77
430.72	2235.21
430.91	2291.38
431.10	2211.81
431.28	2415.43
431.47	2389.69
431.66	2434.16
431.85	2150.95
432.03	2333.51
432.22	2431.82
432.41	2328.83
432.60	2436.50
432.79	2413.09
432.97	2401.39
433.16	2260.96
433.35	2408.41
433.54	2527.78
433.72	2466.92
433.91	2583.95
434.10	2408.41
434.28	2513.74
434.47	2513.74
434.66	2520.76
434.85	2487.99
435.03	2499.69
435.22	2553.52
435.41	2621.40
435.59	2441.18
435.78	2616.72
435.97	2607.36
436.16	2626.08
436.34	2647.15
436.53	2616.72
436.72	2775.88
436.90	2654.17
437.09	2745.45
437.28	2588.63
437.46	2679.91
437.65	2836.73
437.84	2766.51
438.02	2637.78
438.21	2693.96
438.40	2712.68
438.58	2773.53
438.77	2839.07
438.96	2918.65
439.14	2867.16
439.33	2881.20
439.52	2843.75
439.70	2925.67
439.89	3070.78
440.08	3005.25
440.26	2979.50
440.45	3030.99
440.63	3056.74
440.82	3148.02
441.01	3047.38
441.19	3192.49
441.38	3164.40
441.57	3208.87
441.75	3215.90
441.94	3302.50
442.12	3208.87
442.31	3239.30
442.50	3290.79
442.68	3211.22
442.87	3372.71
443.05	3339.94
443.24	3431.23
443.43	3302.50
443.61	3452.29
443.80	3431.23
443.98	3190.15
444.17	3143.34
444.35	3396.12
444.54	3435.91
444.73	3426.54
444.91	3386.76
445.10	3475.70
445.28	3461.65
445.47	3335.26
445.65	3412.50
445.84	3290.79
446.02	3480.38
446.21	3351.65
446.39	3494.42
446.58	3449.95
446.77	3475.70
446.95	3431.23
447.14	3456.97
447.32	3426.54
447.51	3419.52
447.69	3482.72
447.88	3372.71
448.06	3375.05
448.25	3351.65
448.43	3581.02
448.62	3543.57
448.80	3417.18
448.99	3531.87
449.17	3531.87
449.36	3400.80
449.54	3552.93
449.73	3648.90
449.91	3655.92
450.10	3588.04
450.28	3669.96
450.46	3641.87
450.65	3740.18
450.83	3660.60
451.02	3590.38
451.20	3536.55
451.39	3702.73
451.57	3735.50
451.76	3705.07
451.94	3796.35
452.13	3845.50
452.31	3782.31
452.49	3770.60
452.68	3751.88
452.86	3768.26
453.05	3847.84
453.23	3913.38
453.42	3829.12
453.60	3758.90
453.78	3927.42
453.97	3840.82
454.15	3854.86
454.34	3978.91
454.52	3904.01
454.70	3939.12
454.89	3983.59
455.07	4004.66
455.26	4058.49
455.44	3962.53
455.62	4065.51
455.81	4016.36
455.99	4173.18
456.17	4121.68
456.36	4046.79
456.54	4215.30
456.73	4196.58
456.91	4283.18
457.09	4271.48
457.28	4374.46
457.46	4114.66
457.64	4222.33
457.83	4194.24
458.01	4189.56
458.19	4400.21
458.38	4299.56
458.56	4257.43
458.74	4229.35
458.93	4262.12
459.11	4397.87
459.29	4339.35
459.48	4423.61
459.66	4386.16
459.84	4568.73
460.03	4498.51
460.21	4528.94
460.39	4552.34
460.57	4521.92
460.76	4540.64
460.94	4559.36
461.12	4580.43
461.31	4477.44
461.49	4720.86
461.67	4645.96
461.85	4589.79
462.04	4748.95
462.22	4732.56
462.40	4638.94
462.59	4608.51
462.77	4631.92
462.95	4716.18
463.13	4662.35
463.32	4730.22
463.50	4695.11
463.68	4606.17
463.86	4760.65
464.05	4753.63
464.23	4762.99
464.41	4947.89
464.59	4793.42
464.78	4910.44
464.96	4959.60
465.14	4861.29
465.32	4760.65
465.50	4966.62
465.69	5071.94
465.87	5018.11
466.05	4917.47
466.23	4966.62
466.41	4987.68
466.60	5125.77
466.78	5006.41
466.96	4889.38
467.14	4975.98
467.32	5046.20
467.51	5018.11
467.69	5062.58
467.87	5064.92
468.05	5158.54
468.23	5046.20
468.41	5102.37
468.60	5153.86
468.78	5172.58
468.96	5093.01
469.14	5289.61
469.32	5338.76
469.50	5135.14
469.69	5217.05
469.87	5181.95
470.05	5408.98
470.23	5385.57
470.41	5263.86
470.59	5303.65
470.77	5341.10
470.95	5523.66
471.14	5469.83
471.32	5296.63
471.50	5547.07
471.68	5329.40
471.86	5514.30
472.04	5577.50
472.22	5661.76
472.40	5472.17
472.58	5537.71
472.77	5476.85
472.95	5671.12
473.13	5806.87
473.31	5661.76
473.49	5909.85
473.67	5722.61
473.85	6057.31
474.03	5790.49
474.21	5750.70
474.39	5790.49
474.57	6017.52
474.75	5872.40
474.93	6160.29
475.12	6073.69
475.30	6211.78
475.48	6160.29
475.66	6076.03
475.84	6054.97
476.02	6153.27
476.20	6209.44
476.38	6324.13
476.56	6593.29
476.74	6413.07
476.92	6576.91
477.10	6300.72
477.28	6408.39
477.46	6473.92
477.64	6633.08
477.82	6761.81
478.00	6853.09
478.18	6862.45
478.36	6857.77
478.54	6878.83
478.72	7028.63
478.90	7082.46
479.08	7077.78
479.26	7206.51
479.44	7304.81
479.62	7152.68
479.80	7365.67
479.98	7309.49
480.16	7412.48
480.34	7482.69
480.52	7620.78
480.70	7578.65
480.88	7548.23
481.06	7695.68
481.24	7634.83
481.41	7744.83
481.59	7754.19
481.77	7871.22
481.95	8009.31
482.13	8025.70
482.31	7906.33
482.49	8086.55
482.67	8257.41
482.85	8098.25
483.03	8432.95
483.21	8280.82
483.39	8315.92
483.57	8500.83
483.74	8599.13
483.92	8631.90
484.10	8697.43
484.28	8758.28
484.46	8980.64
484.64	9025.11
484.82	8933.82
485.00	8903.40
485.18	8973.61
485.35	9387.89
485.53	9144.47
485.71	9238.09
485.89	9657.05
486.07	9406.61
486.25	9336.40
486.43	9483.85
486.61	9624.28
486.78	9729.61
486.96	9631.30
487.14	9895.78
487.32	9809.19
487.50	10076.01
487.68	10132.18
487.85	10001.11
488.03	10338.15
488.21	10384.96
488.39	10464.54
488.57	10516.03
488.75	10567.52
488.92	10527.73
489.10	10675.18
489.28	10691.57
489.46	11056.69
489.64	10853.06
489.81	10979.45
489.99	11089.46
490.17	11033.29
490.35	11318.83
490.53	11276.70
490.70	11487.35
490.88	11435.86
491.06	11414.79
491.24	11576.29
491.41	11733.11
491.59	11800.98
491.77	11815.02
491.95	11988.22
492.13	12177.81
492.30	12163.76
492.48	12081.85
492.66	12229.30
492.84	12098.23
493.01	12486.76
493.19	12245.68
493.37	12407.18
493.54	12629.53
493.72	12737.20
493.90	12615.49
494.08	12812.09
494.25	12849.54
494.43	13128.06
494.61	13217.01
494.79	13366.80
494.96	13146.79
495.14	13067.21
495.32	13657.03
495.49	13380.84
495.67	13324.67
495.85	13542.34
496.02	13350.42
496.20	13605.53
496.38	13603.19
496.55	13638.30
496.73	13977.68
496.91	13902.78
497.09	14125.13
497.26	14174.28
497.44	14155.56
497.62	14008.11
497.79	14331.10
497.97	14312.38
498.14	14822.61
498.32	14614.30
498.50	14551.11
498.67	14684.52
498.85	14661.12
499.03	14993.47
499.20	14743.03
499.38	14820.27
499.56	15042.62
499.73	14796.87
499.91	15208.80
500.08	15349.23
500.26	15084.75
500.44	15124.54
500.61	15335.19
500.79	15199.44
500.97	15644.14
501.14	15421.79
501.32	15791.59
501.49	15639.46
501.67	15646.48
501.84	15618.39
502.02	15826.70
502.20	15864.15
502.37	16093.52
502.55	15910.96
502.72	15971.82
502.90	16187.14
503.07	15803.30
503.25	16194.17
503.43	16081.82
503.60	16559.29
503.78	16329.92
503.95	16329.92
504.13	16156.72
504.30	16538.23
504.48	16407.16
504.65	16460.99
504.83	16798.02
505.01	17053.14
505.18	16737.17
505.36	16821.43
505.53	16650.57
505.71	16697.38
505.88	16783.98
506.06	16788.66
506.23	16954.84
506.41	16882.28
506.58	17085.91
506.76	17011.01
506.93	17032.08
507.11	17008.67
507.28	17312.94
507.46	17408.90
507.63	17451.03
507.81	17523.59
507.98	17530.61
508.16	17399.54
508.33	17537.63
508.50	17685.09
508.68	17816.16
508.85	17874.67
509.03	17937.87
509.20	17937.87
509.38	18090.00
509.55	18200.01
509.73	18209.37
509.90	18118.09
510.08	17862.97
510.25	18001.06
510.42	18307.67
510.60	18312.35
510.77	18586.19
510.95	18567.47
511.12	18239.79
511.30	18497.25
511.47	18333.42
511.64	18452.78
511.82	18387.25
511.99	18684.50
512.17	19037.92
512.34	18647.05
512.51	18853.02
512.69	18951.32
512.86	18597.90
513.04	19370.27
513.21	19194.73
513.38	19150.26
513.56	19075.37
513.73	19110.47
513.90	19089.41
514.08	18951.32
514.25	19438.15
514.43	19241.54
514.60	19522.41
514.77	19798.59
514.95	19768.16
515.12	19281.33
515.29	19405.38
515.47	19775.19
515.64	19592.62
515.81	19611.35
515.99	19707.31
516.16	20046.69
516.33	19953.07
516.51	20081.80
516.68	19501.34
516.85	19974.13
517.03	20194.14
517.20	20194.14
517.37	20105.20
517.54	20285.42
517.72	20222.23
517.89	20343.94
518.06	20231.59
518.24	20421.17
518.41	20219.89
518.58	20648.21
518.75	20128.61
518.93	20601.40
519.10	20952.48
519.27	20641.18
519.45	20538.20
519.62	20503.09
519.79	20912.69
519.96	20657.57
520.14	20936.09
520.31	21067.16
520.48	20826.09
520.65	21060.14
520.83	21223.98
521.00	21083.55
521.17	20751.19
521.34	21366.75
521.52	21006.31
521.69	21371.43
521.86	21427.60
522.03	21467.39
522.20	21364.41
522.38	21640.59
522.55	21687.40
522.72	21350.37
522.89	21460.37
523.07	21703.79
523.24	21460.37
523.41	21979.97
523.58	21764.64
523.75	21797.41
523.92	21530.59
524.10	21745.92
524.27	22059.55
524.44	22089.98
524.61	22391.91
524.78	22141.47
524.96	22235.09
525.13	21893.37
525.30	21944.86
525.47	22183.60
525.64	22157.85
525.81	22438.72
525.98	22249.13
526.16	22305.31
526.33	22153.17
526.50	22497.23
526.67	22199.98
526.84	22436.38
527.01	22319.35
527.18	22609.58
527.36	22944.27
527.53	22815.54
527.70	23211.09
527.87	22735.96
528.04	22918.53
528.21	22658.73
528.38	23126.83
528.55	23185.35
528.72	22918.53
528.89	22946.61
529.07	23241.52
529.24	22712.56
529.41	23248.54
529.58	23290.67
529.75	22911.50
529.92	23175.98
530.09	23157.26
530.26	23161.94
530.43	23318.76
530.60	23248.54
530.77	23428.76
530.94	23239.18
531.11	23346.84
531.28	23241.52
531.46	23293.01
531.63	23311.74
531.80	23503.66
531.97	23541.11
532.14	23803.25
532.31	23880.49
532.48	23803.25
532.65	23999.85
532.82	23634.73
532.99	23578.56
533.16	23934.32
533.33	23770.48
533.50	24123.90
533.67	23988.15
533.84	23840.70
534.01	23641.75
534.18	23817.29
534.35	24039.64
534.52	23864.10
534.69	24049.00
534.86	24222.20
535.03	24175.39
535.20	24364.98
535.37	24208.16
535.54	24400.08
535.71	23810.27
535.88	24098.16
536.05	24353.27
536.22	24549.88
536.38	24643.50
536.55	24706.70
536.72	24744.14
536.89	24423.49
537.06	24554.56
537.23	24898.62
537.40	24603.71
537.57	24439.87
537.74	24592.01
537.91	25006.28
538.08	25081.18
538.25	24758.19
538.42	24847.13
538.59	24833.08
538.75	24596.69
538.92	24737.12
539.09	25017.99
539.26	24931.39
539.43	25104.59
539.60	25238.00
539.77	24716.06
539.94	25165.44
540.11	25090.54
540.28	24915.00
540.44	25071.82
540.61	25209.91
540.78	25090.54
540.95	25584.40
541.12	25156.08
541.29	25202.89
541.46	25221.61
541.62	25549.29
541.79	24903.30
541.96	25371.41
542.13	25198.21
542.30	25378.43
542.47	25408.86
542.63	25715.47
542.80	25556.31
542.97	26125.06
543.14	25982.29
543.31	25741.21
543.48	25612.48
543.64	26029.10
543.81	26061.87
543.98	25743.55
544.15	26256.13
544.32	26300.60
544.48	26658.70
544.65	25879.30
544.82	26066.55
544.99	25685.04
545.16	25834.83
545.32	25902.71
545.49	26513.59
545.66	26103.99
545.83	26647.00
546.00	26527.63
546.16	26073.57
546.33	26363.79
546.50	25872.28
546.67	26244.43
546.83	26225.70
547.00	26286.56
547.17	26202.30
547.34	26749.98
547.50	26747.64
547.67	26735.94
547.84	26574.44
548.00	26738.28
548.17	26843.60
548.34	26581.46
548.51	26740.62
548.67	26712.53
548.84	26803.82
549.01	27063.61
549.18	26511.25
549.34	26801.47
549.51	26675.09
549.68	26859.99
549.84	26625.93
550.01	26941.91
550.18	26654.02
550.34	26822.54
550.51	27002.76
550.68	27337.46
550.84	26525.29
551.01	27037.87
551.18	26726.58
551.34	26588.49
551.51	26944.25
551.68	27222.77
551.84	27222.77
552.01	27232.13
552.18	27510.66
552.34	27016.80
552.51	27225.11
552.68	27248.52
552.84	27180.64
553.01	27421.72
553.18	27211.07
553.34	27484.91
553.51	27227.45
553.67	27470.87
553.84	28238.56
554.01	27679.18
554.17	27552.79
554.34	27487.25
554.51	27440.44
554.67	27435.76
554.84	27758.75
555.00	27744.71
555.17	27358.52
555.33	27941.32
555.50	27697.90
555.67	27669.81
555.83	27669.81
556.00	27648.75
556.16	27899.19
556.33	27428.74
556.50	27604.28
556.66	27779.82
556.83	27772.80
556.99	27967.06
557.16	27974.08
557.32	27871.10
557.49	27903.87
557.65	27744.71
557.82	28058.34
557.98	27810.25
558.15	28283.03
558.32	27828.97
558.48	28025.57
558.65	28285.37
558.81	28350.91
558.98	28025.57
559.14	28180.05
559.31	28409.42
559.47	27770.46
559.64	28423.47
559.80	28287.71
559.97	28400.06
560.13	28161.33
560.30	28245.58
560.46	28437.51
560.63	28250.27
560.79	28259.63
560.96	28250.27
561.12	28332.18
561.29	27917.91
561.45	28180.05
561.61	28037.28
561.78	28414.10
561.94	28512.41
562.11	28676.24
562.27	28456.23
562.44	28444.53
562.60	28411.76
562.77	28491.34
562.93	28376.66
563.10	28800.29
563.26	28306.44
563.42	28655.18
563.59	28697.31
563.75	28687.95
563.92	28542.83
564.08	28404.74
564.24	28533.47
564.41	28278.35
564.57	28388.36
564.74	28727.74
564.90	28336.87
565.07	28964.13
565.23	28882.21
565.39	28685.61
565.56	28802.63
565.72	28503.04
565.88	28790.93
566.05	28648.16
566.21	29111.58
566.38	28884.55
566.54	28533.47
566.70	28767.52
566.87	29247.33
567.03	28418.78
567.19	29310.53
567.36	28898.59
567.52	28470.28
567.68	28833.06
567.85	28254.95
568.01	28547.51
568.17	28823.70
568.34	28547.51
568.50	28760.50
568.66	29116.26
568.83	28893.91
568.99	28929.02
569.15	28678.58
569.32	28807.31
569.48	28725.39
569.64	28865.83
569.81	28755.82
569.97	28748.80
570.13	28985.19
570.30	29544.58
570.46	28788.59
570.62	28964.13
570.78	28641.14
570.95	28723.05
571.11	29221.59
571.27	28943.06
571.43	28538.15
571.60	29221.59
571.76	28996.90
571.92	29020.30
572.09	29120.95
572.25	29008.60
572.41	29163.08
572.57	29134.99
572.74	29116.26
572.90	28650.50
573.06	29127.97
573.22	28849.44
573.38	29036.69
573.55	28851.78
573.71	29329.25
573.87	29167.76
574.03	29282.44
574.20	29139.67
574.36	28697.31
574.52	29355.00
574.68	28898.59
574.84	29024.98
575.01	29125.63
575.17	29137.33
575.33	29195.84
575.49	29134.99
575.65	29530.54
575.82	29205.20
575.98	29200.52
576.14	29202.86
576.30	29069.45
576.46	29165.42
576.62	28835.40
576.79	29088.18
576.95	29275.42
577.11	29170.10
577.27	29654.59
577.43	29418.19
577.59	29130.31
577.75	29474.37
577.92	29013.28
578.08	29294.14
578.24	29284.78
578.40	29036.69
578.56	29261.38
578.72	29179.46
578.88	29226.27
579.04	29600.76
579.21	29376.06
579.37	29385.43
579.53	29701.40
579.69	29010.94
579.85	29153.71
580.01	28896.25
580.17	29069.45
580.33	29048.39
580.49	29259.04
580.65	29298.83
580.82	29546.92
580.98	29149.03
581.14	29745.87
581.30	29617.14
581.46	29287.12
581.62	29352.66
581.78	29001.58
581.94	29408.83
582.10	28926.68
582.26	29434.58
582.42	29298.83
582.58	29404.15
582.74	29560.97
582.90	29570.33
583.06	29383.09
583.22	29362.02
583.38	29497.77
583.54	29242.65
583.70	29270.74
583.86	29362.02
584.02	29200.52
584.18	29404.15
584.34	29404.15
584.50	29626.50
584.66	29591.39
584.82	29329.25
584.98	29350.32
585.14	29472.03
585.30	29467.34
585.46	29172.44
585.62	29567.99
585.78	29759.91
585.94	29312.87
586.10	29570.33
586.26	29502.45
586.42	29469.69
586.58	29544.58
586.74	29027.32
586.90	29455.64
587.06	29289.46
587.22	29172.44
587.38	29247.33
587.54	29546.92
587.70	29895.66
587.86	29474.37
588.02	29633.52
588.18	29682.67
588.34	29404.15
588.49	29401.81
588.65	29439.26
588.81	29294.14
588.97	29551.60
589.13	29717.78
589.29	29397.13
589.45	29399.47
589.61	29755.23
589.77	29830.13
589.93	29720.12
590.08	29804.38
590.24	29666.29
590.40	29907.37
590.56	29865.24
590.72	29675.65
590.88	29549.26
591.04	29734.17
591.20	29453.30
591.35	30136.74
591.51	30031.41
591.67	29326.91
591.83	30384.83
591.99	29853.53
