SpectraSuite Data File
++++++++++++++++++++++++++++++++++++
Date: Fri Oct 18 13:58:00 GMT-05:00 2013
User: bianchi
Dark Spectrum Present: No
Reference Spectrum Present: No
Number of Sampled Component Spectra: 1
Spectrometers: USB2+H05261
Integration Time (usec): 50000 (USB2+H05261)
Spectra Averaged: 1 (USB2+H05261)
Boxcar Smoothing: 0 (USB2+H05261)
Correct for Electrical Dark: No (USB2+H05261)
Strobe/Lamp Enabled: No (USB2+H05261)
Correct for Detector Non-linearity: No (USB2+H05261)
Correct for Stray Light: No (USB2+H05261)
Number of Pixels in Processed Spectrum: 2048
>>>>>Begin Processed Spectral Data<<<<<
365.73	0.00
365.92	0.00
366.12	0.00
366.32	0.00
366.52	0.00
366.72	0.00
366.91	0.00
367.11	0.00
367.31	0.00
367.51	0.00
367.70	0.00
367.90	0.00
368.10	0.00
368.30	0.00
368.49	0.00
368.69	0.00
368.89	0.00
369.09	0.00
369.28	0.00
369.48	0.00
369.68	0.00
369.87	0.00
370.07	0.00
370.27	0.00
370.47	0.00
370.66	60.85
370.86	131.07
371.06	205.97
371.25	163.84
371.45	81.92
371.65	121.71
371.84	138.09
372.04	131.07
372.24	133.41
372.44	93.62
372.63	266.82
372.83	276.18
373.03	126.39
373.22	241.08
373.42	212.99
373.62	285.55
373.81	241.08
374.01	311.29
374.21	243.42
374.40	262.14
374.60	234.05
374.79	285.55
374.99	276.18
375.19	243.42
375.38	266.82
375.58	231.71
375.78	276.18
375.97	229.37
376.17	262.14
376.37	210.65
376.56	285.55
376.76	217.67
376.95	243.42
377.15	203.63
377.35	297.25
377.54	285.55
377.74	217.67
377.93	299.59
378.13	297.25
378.33	264.48
378.52	248.10
378.72	320.65
378.91	271.50
379.11	245.76
379.31	250.44
379.50	238.73
379.70	315.97
379.89	269.16
380.09	339.38
380.28	325.33
380.48	318.31
380.68	234.05
380.87	327.68
381.07	306.61
381.26	367.46
381.46	292.57
381.65	308.95
381.85	287.89
382.04	341.72
382.24	372.15
382.43	313.63
382.63	318.31
382.83	367.46
383.02	362.78
383.22	318.31
383.41	376.83
383.61	318.31
383.80	355.76
384.00	348.74
384.19	402.57
384.39	442.36
384.58	404.91
384.78	397.89
384.97	369.80
385.17	425.98
385.36	390.87
385.56	454.06
385.75	351.08
385.95	358.10
386.14	437.68
386.34	404.91
386.53	330.02
386.72	360.44
386.92	437.68
387.11	468.11
387.31	423.64
387.50	451.72
387.70	456.40
387.89	409.59
388.09	437.68
388.28	355.76
388.48	425.98
388.67	430.66
388.86	433.00
389.06	442.36
389.25	465.77
389.45	540.66
389.64	475.13
389.84	461.09
390.03	507.90
390.22	482.15
390.42	447.04
390.61	479.81
390.81	428.32
391.00	418.96
391.19	524.28
391.39	580.45
391.58	521.94
391.78	540.66
391.97	601.52
392.16	575.77
392.36	627.26
392.55	566.41
392.75	550.03
392.94	505.56
393.13	514.92
393.33	531.30
393.52	552.37
393.71	566.41
393.91	564.07
394.10	535.98
394.29	559.39
394.49	533.64
394.68	566.41
394.88	655.35
395.07	620.24
395.26	610.88
395.46	688.12
395.65	589.82
395.84	734.93
396.04	662.37
396.23	681.10
396.42	697.48
396.62	657.69
396.81	545.34
397.00	610.88
397.19	622.58
397.39	667.05
397.58	674.07
397.77	641.31
397.97	669.39
398.16	608.54
398.35	681.10
398.55	718.54
398.74	683.44
398.93	704.50
399.12	725.57
399.32	770.04
399.51	692.80
399.70	744.29
399.90	753.65
400.09	702.16
400.28	877.70
400.47	725.57
400.67	866.00
400.86	868.34
401.05	730.25
401.24	727.91
401.44	795.78
401.63	709.18
401.82	791.10
402.01	837.91
402.21	830.89
402.40	866.00
402.59	877.70
402.78	887.06
402.97	858.98
403.17	821.53
403.36	880.04
403.55	809.83
403.74	905.79
403.93	908.13
404.13	931.53
404.32	943.24
404.51	919.83
404.70	950.26
404.89	1004.09
405.09	945.58
405.28	954.94
405.47	1015.79
405.66	947.92
405.85	976.00
406.05	966.64
406.24	931.53
406.43	971.32
406.62	1027.50
406.81	1071.97
407.00	990.05
407.20	1074.31
407.39	1013.45
407.58	1057.92
407.77	1055.58
407.96	1081.33
408.15	1118.78
408.34	1149.20
408.54	1088.35
408.73	1039.20
408.92	1153.88
409.11	1118.78
409.30	1069.62
409.49	1095.37
409.68	1160.91
409.87	1146.86
410.07	1090.69
410.26	1160.91
410.45	1268.57
410.64	1196.01
410.83	1221.76
411.02	1245.16
411.21	1203.04
411.40	1219.42
411.59	1261.55
411.78	1284.95
411.98	1198.35
412.17	1266.23
412.36	1235.80
412.55	1308.36
412.74	1294.32
412.93	1315.38
413.12	1299.00
413.31	1427.73
413.50	1423.05
413.69	1455.81
413.88	1420.71
414.07	1409.00
414.26	1425.39
414.45	1467.52
414.64	1483.90
414.83	1530.71
415.02	1511.99
415.22	1540.07
415.41	1549.43
415.60	1474.54
415.79	1563.48
415.98	1631.35
416.17	1659.44
416.36	1563.48
416.55	1600.93
416.74	1600.93
416.93	1640.72
417.12	1680.50
417.31	1614.97
417.50	1682.85
417.69	1703.91
417.88	1717.95
418.07	1827.96
418.26	1741.36
418.45	1682.85
418.64	1727.32
418.83	1741.36
419.02	1762.42
419.21	1678.16
419.39	1746.04
419.58	1741.36
419.77	1755.40
419.96	1830.30
420.15	1860.73
420.34	1870.09
420.53	1881.79
420.72	1975.41
420.91	1937.96
421.10	1905.20
421.29	2017.54
421.48	1849.02
421.67	1879.45
421.86	1905.20
422.05	1935.62
422.24	1947.33
422.43	1984.77
422.61	2043.29
422.80	2059.67
422.99	2073.71
423.18	2106.48
423.37	2076.06
423.56	2101.80
423.75	2026.90
423.94	1942.64
424.13	1818.60
424.32	1881.79
424.50	2071.37
424.69	1963.71
424.88	2115.84
425.07	2052.65
425.26	2036.27
425.45	2040.95
425.64	2005.84
425.83	2003.50
426.01	1991.80
426.20	2087.76
426.39	2036.27
426.58	2062.01
426.77	1933.28
426.96	2120.53
427.15	2120.53
427.33	2190.74
427.52	2062.01
427.71	2148.61
427.90	2176.70
428.09	2195.42
428.28	2197.76
428.46	2246.91
428.65	2174.36
428.84	2279.68
429.03	2321.81
429.22	2188.40
429.40	2202.44
429.59	2214.15
429.78	2176.70
429.97	2202.44
430.16	2244.57
430.34	2310.11
430.53	2335.85
430.72	2338.20
430.91	2218.83
431.10	2335.85
431.28	2282.02
431.47	2429.48
431.66	2429.48
431.85	2352.24
432.03	2363.94
432.22	2438.84
432.41	2473.95
432.60	2413.09
432.79	2499.69
432.97	2506.71
433.16	2532.46
433.35	2448.20
433.54	2429.48
433.72	2506.71
433.91	2495.01
434.10	2466.92
434.28	2452.88
434.47	2544.16
434.66	2586.29
434.85	2609.70
435.03	2558.21
435.22	2609.70
435.41	2738.43
435.59	2516.08
435.78	2637.78
435.97	2764.17
436.16	2619.06
436.34	2708.00
436.53	2607.36
436.72	2794.60
436.90	2757.15
437.09	2792.26
437.28	2621.40
437.46	2731.41
437.65	2752.47
437.84	2827.37
438.02	2750.13
438.21	2696.30
438.40	2818.00
438.58	2876.52
438.77	2928.01
438.96	2946.73
439.14	2937.37
439.33	2920.99
439.52	2895.24
439.70	3066.10
439.89	2981.84
440.08	3112.91
440.26	3131.64
440.45	3063.76
440.63	3038.02
440.82	3133.98
441.01	3077.80
441.19	3126.96
441.38	3155.04
441.57	3208.87
441.75	3183.13
441.94	3328.24
442.12	3288.45
442.31	3262.71
442.50	3314.20
442.68	3293.13
442.87	3281.43
443.05	3508.46
443.24	3435.91
443.43	3281.43
443.61	3445.27
443.80	3428.88
443.98	3421.86
444.17	3365.69
444.35	3543.57
444.54	3508.46
444.73	3417.18
444.91	3459.31
445.10	3475.70
445.28	3543.57
445.47	3410.16
445.65	3473.36
445.84	3463.99
446.02	3431.23
446.21	3543.57
446.39	3475.70
446.58	3611.45
446.77	3407.82
446.95	3335.26
447.14	3454.63
447.32	3466.33
447.51	3520.17
447.69	3501.44
447.88	3559.95
448.06	3599.74
448.25	3492.08
448.43	3520.17
448.62	3485.06
448.80	3557.61
448.99	3562.30
449.17	3651.24
449.36	3545.91
449.54	3742.52
449.73	3775.28
449.91	3829.12
450.10	3756.56
450.28	3796.35
450.46	3786.99
450.65	3698.05
450.83	3740.18
451.02	3812.73
451.20	3740.18
451.39	3852.52
451.57	3901.67
451.76	3742.52
451.94	3779.97
452.13	3992.95
452.31	3882.95
452.49	3929.76
452.68	3850.18
452.86	3819.75
453.05	3892.31
453.23	3925.08
453.42	3868.91
453.60	3871.25
453.78	3852.52
453.97	3896.99
454.15	3833.80
454.34	3920.40
454.52	4063.17
454.70	3950.82
454.89	4095.94
455.07	4124.02
455.26	4039.76
455.44	4140.41
455.62	4227.01
455.81	4028.06
455.99	4138.07
456.17	4037.42
456.36	4124.02
456.54	4156.79
456.73	4320.63
456.91	4308.93
457.09	4379.14
457.28	4397.87
457.46	4400.21
457.64	4386.16
457.83	4327.65
458.01	4318.29
458.19	4353.40
458.38	4355.74
458.56	4458.72
458.74	4409.57
458.93	4540.64
459.11	4519.57
459.29	4374.46
459.48	4517.23
459.66	4381.48
459.84	4493.83
460.03	4753.63
460.21	4681.07
460.39	4538.30
460.57	4449.36
460.76	4615.54
460.94	4744.27
461.12	4617.88
461.31	4561.70
461.49	4683.41
461.67	4599.15
461.85	4669.37
462.04	4695.11
462.22	4798.10
462.40	4662.35
462.59	4732.56
462.77	4547.66
462.95	4762.99
463.13	4819.16
463.32	4837.89
463.50	4889.38
463.68	4959.60
463.86	4877.68
464.05	4873.00
464.23	4830.87
464.41	4854.27
464.59	4896.40
464.78	4938.53
464.96	4805.12
465.14	4868.31
465.32	5050.88
465.50	5064.92
465.69	5020.45
465.87	4908.10
466.05	5076.62
466.23	5067.26
466.41	5076.62
466.60	5151.52
466.78	5055.56
466.96	5078.96
467.14	5167.90
467.32	5025.13
467.51	5231.10
467.69	5083.64
467.87	5139.82
468.05	5158.54
468.23	5093.01
468.41	5130.45
468.60	5060.24
468.78	5214.71
468.96	5268.55
469.14	5275.57
469.32	5280.25
469.50	5289.61
469.69	5404.30
469.87	5350.46
470.05	5416.00
470.23	5430.04
470.41	5448.77
470.59	5572.82
470.77	5638.35
470.95	5423.02
471.14	5427.70
471.32	5547.07
471.50	5673.46
471.68	5523.66
471.86	5575.16
472.04	5694.52
472.22	5746.02
472.40	5556.43
472.58	5696.86
472.77	5631.33
472.95	5832.62
473.13	5989.43
473.31	5902.83
473.49	5837.30
473.67	5921.56
473.85	5984.75
474.03	5912.19
474.21	5954.32
474.39	6169.65
474.57	6272.64
474.75	6078.37
474.93	6218.80
475.12	6260.93
475.30	6094.76
475.48	6291.36
475.66	6207.10
475.84	6228.17
476.02	6450.52
476.20	6401.37
476.38	6410.73
476.56	6532.44
476.74	6487.96
476.92	6597.97
477.10	6691.59
477.28	6588.61
477.46	6628.40
477.64	6773.51
477.82	6825.00
478.00	7002.88
478.18	7033.31
478.36	7021.61
478.54	7215.87
478.72	7080.12
478.90	7199.49
479.08	7260.34
479.26	7311.83
479.44	7358.64
479.62	7267.36
479.80	7360.98
479.98	7473.33
480.16	7517.80
480.34	7529.50
480.52	7590.36
480.70	7714.41
480.88	7686.32
481.06	7737.81
481.24	7742.49
481.41	7962.50
481.59	7969.52
481.77	8131.02
481.95	8074.85
482.13	8051.44
482.31	8152.09
482.49	8219.96
482.67	8149.75
482.85	8484.44
483.03	8547.64
483.21	8575.72
483.39	8507.85
483.57	8517.21
483.74	8676.37
483.92	8762.97
484.10	8793.39
484.28	9027.45
484.46	9071.92
484.64	9177.24
484.82	9097.66
485.00	9041.49
485.18	9118.73
485.35	9364.48
485.53	9418.32
485.71	9518.96
485.89	9537.68
486.07	9486.19
486.25	9479.17
486.43	9600.88
486.61	9673.43
486.78	10064.30
486.96	10087.71
487.14	10382.62
487.32	9947.28
487.50	10197.71
487.68	10200.05
487.85	10553.48
488.03	10576.88
488.21	10590.92
488.39	10658.80
488.57	10743.06
488.75	10651.78
488.92	10682.20
489.10	11005.20
489.28	10988.82
489.46	11089.46
489.64	11246.27
489.81	11101.16
489.99	11365.64
490.17	11456.92
490.35	11599.70
490.53	11552.88
490.70	11700.34
490.88	11573.95
491.06	11861.84
491.24	11709.70
491.41	11962.48
491.59	12161.42
491.77	11969.50
491.95	12191.85
492.13	12152.06
492.30	12243.34
492.48	12367.39
492.66	12156.74
492.84	12287.81
493.01	12837.84
493.19	12695.07
493.37	12807.41
493.54	12624.85
493.72	13062.53
493.90	13137.43
494.08	13095.30
494.25	12992.31
494.43	13092.96
494.61	13460.42
494.79	13427.65
494.96	13357.44
495.14	13341.05
495.32	13619.58
495.49	13479.15
495.67	13748.31
495.85	13837.25
496.02	13816.18
496.20	14075.98
496.38	13898.10
496.55	13738.94
496.73	14436.42
496.91	13891.08
497.09	14258.54
497.26	14443.45
497.44	14630.69
497.62	14281.95
497.79	14532.39
497.97	14370.89
498.14	14553.45
498.32	14841.34
498.50	14824.95
498.67	15199.44
498.85	14930.28
499.03	14916.23
499.20	15201.78
499.38	15098.80
499.56	15171.35
499.73	15545.84
499.91	15377.32
500.08	15733.08
500.26	15250.93
500.44	15452.22
500.61	15482.64
500.79	15496.69
500.97	15871.17
501.14	15997.56
501.32	15782.23
501.49	15690.95
501.67	15763.51
501.84	16030.33
502.02	15978.84
502.20	16257.36
502.37	16322.90
502.55	16056.08
502.72	16149.70
502.90	16362.69
503.07	16105.23
503.25	16173.10
503.43	16430.56
503.60	16664.61
503.78	16622.48
503.95	16498.44
504.13	16772.28
504.30	16594.40
504.48	16636.53
504.65	16861.22
504.83	16826.11
505.01	17146.76
505.18	17055.48
505.36	17322.30
505.53	17165.49
505.71	17142.08
505.88	17078.89
506.06	16849.52
506.23	17439.33
506.41	17205.28
506.58	17451.03
506.76	17570.40
506.93	17488.48
507.11	17224.00
507.28	17528.27
507.46	17619.55
507.63	17748.28
507.81	17668.70
507.98	17764.67
508.16	17687.43
508.33	17795.09
508.50	17975.31
508.68	18150.85
508.85	18368.52
509.03	18092.34
509.20	18106.38
509.38	18349.80
509.55	18324.05
509.73	18129.79
509.90	18647.05
510.08	18209.37
510.25	18459.81
510.42	18625.98
510.60	18513.64
510.77	18768.76
510.95	18827.27
511.12	18625.98
511.30	18574.49
511.47	18892.80
511.64	19061.32
511.82	19033.24
511.99	19126.86
512.17	19068.34
512.34	19204.10
512.51	19344.53
512.69	19372.61
512.86	19206.44
513.04	19557.52
513.21	19609.01
513.38	19419.42
513.56	19475.60
513.73	19410.06
513.90	19576.24
514.08	19740.08
514.25	19707.31
514.43	19936.68
514.60	19786.89
514.77	19843.06
514.95	19981.15
515.12	19812.63
515.29	19878.17
515.47	19981.15
515.64	20233.93
515.81	20320.53
515.99	20067.75
516.16	20357.98
516.33	20357.98
516.51	20376.70
516.68	20439.90
516.85	20458.62
517.03	20388.41
517.20	20676.29
517.37	20798.00
517.54	20662.25
517.72	20910.35
517.89	20704.38
518.06	20938.43
518.24	20444.58
518.41	20762.89
518.58	20734.81
518.75	20830.77
518.93	21010.99
519.10	20936.09
519.27	20819.07
519.45	21064.82
519.62	21097.59
519.79	21008.65
519.96	21315.26
520.14	21472.07
520.31	21345.69
520.48	21582.08
520.65	21163.12
520.83	21605.49
521.00	21191.21
521.17	21488.46
521.34	21436.97
521.52	21296.53
521.69	21493.14
521.86	21731.87
522.03	21979.97
522.20	21844.22
522.38	21818.47
522.55	21954.22
522.72	21912.10
522.89	22242.11
523.07	22312.33
523.24	21970.61
523.41	22157.85
523.58	22246.79
523.75	22232.75
523.92	21944.86
524.10	22141.47
524.27	22387.22
524.44	22295.94
524.61	22747.67
524.78	22707.88
524.96	22324.03
525.13	22438.72
525.30	22452.76
525.47	22719.58
525.64	22731.28
525.81	22686.81
525.98	22862.35
526.16	22466.80
526.33	22951.29
526.50	22974.70
526.67	22874.06
526.84	22593.19
527.01	23124.49
527.18	23108.11
527.36	23468.55
527.53	23178.33
527.70	23026.19
527.87	23442.81
528.04	23594.94
528.21	23468.55
528.38	23058.96
528.55	23555.15
528.72	23140.88
528.89	23548.13
529.07	23658.14
529.24	23337.48
529.41	23183.01
529.58	23477.91
529.75	23590.26
529.92	23681.54
530.09	23623.03
530.26	23646.43
530.43	23786.86
530.60	23573.88
530.77	23583.24
530.94	23653.45
531.11	23906.23
531.28	23660.48
531.46	23894.53
531.63	23988.15
531.80	23955.38
531.97	24264.33
532.14	23971.77
532.31	24367.32
532.48	24173.05
532.65	24077.09
532.82	24123.90
532.99	24477.32
533.16	24404.77
533.33	24402.43
533.50	24910.32
533.67	24615.41
533.84	24341.57
534.01	24390.72
534.18	24292.42
534.35	24580.31
534.52	24397.74
534.69	25060.12
534.86	24697.33
535.03	24474.98
535.20	24563.92
535.37	24559.24
535.54	24659.88
535.71	24231.57
535.88	24936.07
536.05	24922.02
536.22	25062.46
536.38	25397.15
536.55	25113.95
536.72	24922.02
536.89	24893.94
537.06	25036.71
537.23	25280.13
537.40	25443.96
537.57	25385.45
537.74	25205.23
537.91	25528.22
538.08	25443.96
538.25	25282.47
538.42	25263.74
538.59	25256.72
538.75	25008.62
538.92	25303.53
539.09	25570.35
539.26	25078.84
539.43	25696.74
539.60	25710.78
539.77	25701.42
539.94	25949.52
540.11	25872.28
540.28	25486.09
540.44	25528.22
540.61	25692.06
540.78	25762.28
540.95	26127.40
541.12	25675.68
541.29	25940.16
541.46	25954.20
541.62	25764.62
541.79	26064.21
541.96	25462.69
542.13	26033.78
542.30	26012.71
542.47	26127.40
542.63	26101.65
542.80	26136.76
542.97	26426.99
543.14	26438.69
543.31	26382.52
543.48	26057.18
543.64	26436.35
543.81	26742.96
543.98	26679.77
544.15	26370.82
544.32	26712.53
544.48	26932.54
544.65	26724.24
544.82	26672.74
544.99	26368.48
545.16	26890.41
545.32	26658.70
545.49	27281.28
545.66	26927.86
545.83	27410.01
546.00	27147.87
546.16	26946.59
546.33	26902.12
546.50	26370.82
546.67	26969.99
546.83	26588.49
547.00	27096.38
547.17	27007.44
547.34	27105.74
547.50	27194.68
547.67	27681.52
547.84	27473.21
548.00	27185.32
548.17	27168.94
548.34	27211.07
548.51	27377.25
548.67	27288.31
548.84	27454.48
549.01	27374.91
549.18	26974.67
549.34	27367.88
549.51	27129.15
549.68	27304.69
549.84	27157.24
550.01	27744.71
550.18	27246.18
550.34	27655.77
550.51	27276.60
550.68	27751.73
550.84	27475.55
551.01	27660.45
551.18	27578.53
551.34	27667.47
551.51	27578.53
551.68	27435.76
551.84	27817.27
552.01	28013.87
552.18	27892.16
552.34	27503.64
552.51	27915.57
552.68	27721.30
552.84	27566.83
553.01	27655.77
553.18	27676.83
553.34	28011.53
553.51	27990.47
553.67	28203.46
553.84	28355.59
554.01	28128.56
554.17	28222.18
554.34	28198.77
554.51	27828.97
554.67	27941.32
554.84	28311.12
555.00	28383.68
555.17	28386.02
555.33	28430.49
555.50	28013.87
555.67	28456.23
555.83	28261.97
556.00	28531.13
556.16	28563.90
556.33	28582.62
556.50	28484.32
556.66	28355.59
556.83	28320.48
556.99	28587.30
557.16	28552.20
557.32	28678.58
557.49	28734.76
557.65	28154.30
557.82	28409.42
557.98	28566.24
558.15	28526.45
558.32	28725.39
558.48	28622.41
558.65	28884.55
558.81	28716.03
558.98	28790.93
559.14	28650.50
559.31	28905.62
559.47	28374.31
559.64	28631.77
559.80	28938.38
559.97	28709.01
560.13	28837.74
560.30	28786.25
560.46	28821.36
560.63	28861.15
560.79	28868.17
560.96	28917.32
561.12	29071.79
561.29	28964.13
561.45	28694.97
561.61	28905.62
561.78	28627.09
561.94	29219.25
562.11	29020.30
562.27	28842.42
562.44	28538.15
562.60	28723.05
562.77	28994.56
562.93	28994.56
563.10	29259.04
563.26	28570.92
563.42	29301.17
563.59	29186.48
563.75	29069.45
563.92	29577.35
564.08	29214.57
564.24	29142.01
564.41	29153.71
564.57	29104.56
564.74	29509.47
564.90	29647.57
565.07	29329.25
565.23	29212.23
565.39	29394.79
565.56	29331.59
565.72	29394.79
565.88	29174.78
566.05	29104.56
566.21	28814.34
566.38	29507.13
566.54	29032.00
566.70	29511.81
566.87	29446.28
567.03	29640.54
567.19	29596.07
567.36	29530.54
567.52	29369.04
567.68	29373.72
567.85	29352.66
568.01	29486.07
568.17	29394.79
568.34	29642.88
568.50	29619.48
568.66	29439.26
568.83	29511.81
568.99	29347.98
569.15	29804.38
569.32	29127.97
569.48	28919.66
569.64	29399.47
569.81	29965.88
569.97	28978.17
570.13	29614.80
570.30	29582.03
570.46	29888.64
570.62	29575.01
570.78	29469.69
570.95	29748.21
571.11	29748.21
571.27	29472.03
571.43	29233.29
571.60	29443.94
571.76	29696.72
571.92	29617.14
572.09	29764.59
572.25	29898.00
572.41	29993.97
572.57	29570.33
572.74	29708.42
572.90	29703.74
573.06	29439.26
573.22	29476.71
573.38	29326.91
573.55	29605.44
573.71	30085.25
573.87	30085.25
574.03	29357.34
574.20	29947.15
574.36	29474.37
574.52	29642.88
574.68	29591.39
574.84	29567.99
575.01	29785.66
575.17	29865.24
575.33	29741.19
575.49	29685.01
575.65	29757.57
575.82	30050.14
575.98	29834.81
576.14	30113.33
576.30	29750.55
576.46	29659.27
576.62	29752.89
576.79	29535.22
576.95	29750.55
577.11	29984.60
577.27	29673.31
577.43	30249.08
577.59	30043.12
577.75	29755.23
577.92	29956.52
578.08	29560.97
578.24	29731.83
578.40	29813.74
578.56	30057.16
578.72	29944.81
578.88	30073.54
579.04	29935.45
579.21	29813.74
579.37	29956.52
579.53	30129.72
579.69	29883.96
579.85	29930.77
580.01	29780.98
580.17	29972.90
580.33	30094.61
580.49	30000.99
580.65	29968.22
580.82	29982.26
580.98	30047.80
581.14	30118.01
581.30	30026.73
581.46	30036.09
581.62	29837.15
581.78	29961.20
581.94	29881.62
582.10	29830.13
582.26	30260.79
582.42	30000.99
582.58	29680.33
582.74	30080.56
582.90	29951.84
583.06	30235.04
583.22	29722.46
583.38	30164.82
583.54	30429.30
583.70	30022.05
583.86	30279.51
584.02	29841.83
584.18	30321.64
584.34	30174.19
584.50	29989.28
584.66	29930.77
584.82	29909.71
584.98	30246.74
585.14	30157.80
585.30	30064.18
585.46	29546.92
585.62	29954.18
585.78	30096.95
585.94	30134.40
586.10	30410.58
586.26	30190.57
586.42	30391.86
586.58	30235.04
586.74	30139.08
586.90	29694.38
587.06	29567.99
587.22	29755.23
587.38	30176.53
587.54	30354.41
587.70	30352.07
587.86	30323.98
588.02	30101.63
588.18	30536.97
588.34	30099.29
588.49	30178.87
588.65	30075.88
588.81	30368.45
588.97	30225.68
589.13	30120.35
589.29	30195.25
589.45	30541.65
589.61	30075.88
589.77	30553.35
589.93	30438.67
590.08	30047.80
590.24	30618.89
590.40	30394.20
590.56	30511.22
590.72	30452.71
590.88	30132.06
591.04	30181.21
591.20	31072.95
591.35	30572.08
591.51	30754.64
591.67	30764.00
591.83	30726.55
591.99	30499.52
