SpectraSuite Data File
++++++++++++++++++++++++++++++++++++
Date: Fri Oct 18 13:58:30 GMT-05:00 2013
User: bianchi
Dark Spectrum Present: No
Reference Spectrum Present: No
Number of Sampled Component Spectra: 1
Spectrometers: USB2+H05261
Integration Time (usec): 50000 (USB2+H05261)
Spectra Averaged: 1 (USB2+H05261)
Boxcar Smoothing: 0 (USB2+H05261)
Correct for Electrical Dark: No (USB2+H05261)
Strobe/Lamp Enabled: No (USB2+H05261)
Correct for Detector Non-linearity: No (USB2+H05261)
Correct for Stray Light: No (USB2+H05261)
Number of Pixels in Processed Spectrum: 2048
>>>>>Begin Processed Spectral Data<<<<<
365.73	0.00
365.92	0.00
366.12	0.00
366.32	0.00
366.52	0.00
366.72	0.00
366.91	0.00
367.11	0.00
367.31	0.00
367.51	0.00
367.70	0.00
367.90	0.00
368.10	0.00
368.30	0.00
368.49	0.00
368.69	0.00
368.89	0.00
369.09	0.00
369.28	0.00
369.48	0.00
369.68	0.00
369.87	0.00
370.07	0.00
370.27	0.00
370.47	0.00
370.66	63.19
370.86	98.30
371.06	159.16
371.25	205.97
371.45	84.26
371.65	175.54
371.84	98.30
372.04	161.50
372.24	191.92
372.44	138.09
372.63	222.35
372.83	210.65
373.03	234.05
373.22	166.18
373.42	163.84
373.62	182.56
373.81	227.03
374.01	203.63
374.21	248.10
374.40	208.31
374.60	280.86
374.79	220.01
374.99	271.50
375.19	259.80
375.38	334.70
375.58	287.89
375.78	255.12
375.97	271.50
376.17	259.80
376.37	222.35
376.56	297.25
376.76	269.16
376.95	238.73
377.15	271.50
377.35	315.97
377.54	276.18
377.74	290.23
377.93	248.10
378.13	327.68
378.33	278.52
378.52	290.23
378.72	229.37
378.91	266.82
379.11	294.91
379.31	248.10
379.50	264.48
379.70	297.25
379.89	325.33
380.09	290.23
380.28	351.08
380.48	330.02
380.68	273.84
380.87	376.83
381.07	299.59
381.26	327.68
381.46	330.02
381.65	322.99
381.85	348.74
382.04	367.46
382.24	381.51
382.43	315.97
382.63	297.25
382.83	285.55
383.02	374.49
383.22	379.17
383.41	334.70
383.61	362.78
383.80	421.30
384.00	351.08
384.19	355.76
384.39	304.27
384.58	339.38
384.78	351.08
384.97	353.42
385.17	358.10
385.36	294.91
385.56	414.27
385.75	311.29
385.95	367.46
386.14	353.42
386.34	313.63
386.53	346.40
386.72	334.70
386.92	376.83
387.11	379.17
387.31	416.62
387.50	346.40
387.70	435.34
387.89	365.12
388.09	397.89
388.28	402.57
388.48	416.62
388.67	491.51
388.86	458.74
389.06	423.64
389.25	500.87
389.45	440.02
389.64	496.19
389.84	493.85
390.03	514.92
390.22	482.15
390.42	514.92
390.61	430.66
390.81	430.66
391.00	444.70
391.19	470.45
391.39	428.32
391.58	414.27
391.78	517.26
391.97	493.85
392.16	528.96
392.36	533.64
392.55	552.37
392.75	500.87
392.94	580.45
393.13	533.64
393.33	491.51
393.52	610.88
393.71	547.69
393.91	573.43
394.10	528.96
394.29	519.60
394.49	552.37
394.68	585.13
394.88	554.71
395.07	620.24
395.26	531.30
395.46	664.71
395.65	608.54
395.84	568.75
396.04	645.99
396.23	641.31
396.42	643.65
396.62	653.01
396.81	631.94
397.00	634.29
397.19	674.07
397.39	718.54
397.58	653.01
397.77	678.76
397.97	669.39
398.16	727.91
398.35	671.73
398.55	624.92
398.74	681.10
398.93	669.39
399.12	634.29
399.32	739.61
399.51	676.41
399.70	788.76
399.90	692.80
400.09	737.27
400.28	777.06
400.47	727.91
400.67	777.06
400.86	727.91
401.05	692.80
401.24	802.80
401.44	814.51
401.63	767.70
401.82	727.91
402.01	774.72
402.21	851.96
402.40	856.64
402.59	856.64
402.78	819.19
402.97	863.66
403.17	882.38
403.36	887.06
403.55	866.00
403.74	866.00
403.93	849.61
404.13	856.64
404.32	875.36
404.51	851.96
404.70	894.08
404.89	905.79
405.09	997.07
405.28	968.98
405.47	903.45
405.66	983.02
405.85	915.15
406.05	896.43
406.24	999.41
406.43	976.00
406.62	943.24
406.81	1004.09
407.00	945.58
407.20	936.21
407.39	973.66
407.58	1020.47
407.77	980.68
407.96	1067.28
408.15	1043.88
408.34	1116.44
408.54	1062.60
408.73	1036.86
408.92	1071.97
409.11	1156.22
409.30	1163.25
409.49	1064.94
409.68	1153.88
409.87	1123.46
410.07	1188.99
410.26	1114.10
410.45	1114.10
410.64	1160.91
410.83	1149.20
411.02	1167.93
411.21	1219.42
411.40	1226.44
411.59	1167.93
411.78	1224.10
411.98	1177.29
412.17	1275.59
412.36	1315.38
412.55	1352.83
412.74	1261.55
412.93	1315.38
413.12	1266.23
413.31	1343.47
413.50	1380.92
413.69	1352.83
413.88	1394.96
414.07	1427.73
414.26	1528.37
414.45	1413.68
414.64	1413.68
414.83	1535.39
415.02	1427.73
415.22	1462.83
415.41	1423.05
415.60	1493.26
415.79	1530.71
415.98	1526.03
416.17	1455.81
416.36	1495.60
416.55	1657.10
416.74	1568.16
416.93	1638.38
417.12	1607.95
417.31	1689.87
417.50	1699.23
417.69	1729.66
417.88	1783.49
418.07	1708.59
418.26	1664.12
418.45	1708.59
418.64	1769.44
418.83	1743.70
419.02	1724.97
419.21	1710.93
419.39	1776.47
419.58	1797.53
419.77	1795.19
419.96	1884.13
420.15	1881.79
420.34	1846.68
420.53	1827.96
420.72	1802.21
420.91	1870.09
421.10	1914.56
421.29	2036.27
421.48	1802.21
421.67	1832.64
421.86	1832.64
422.05	1809.23
422.24	1989.46
422.43	1935.62
422.61	1977.75
422.80	1888.81
422.99	1968.39
423.18	1961.37
423.37	2047.97
423.56	1963.71
423.75	2005.84
423.94	2029.24
424.13	1844.34
424.32	1891.15
424.50	2010.52
424.69	2127.55
424.88	2080.74
425.07	2069.03
425.26	1952.01
425.45	1919.24
425.64	1984.77
425.83	2043.29
426.01	2010.52
426.20	2031.58
426.39	1942.64
426.58	2052.65
426.77	1980.09
426.96	2005.84
427.15	2043.29
427.33	2071.37
427.52	1963.71
427.71	1998.82
427.90	2132.23
428.09	2054.99
428.28	2052.65
428.46	2162.66
428.65	2134.57
428.84	2176.70
429.03	2230.53
429.22	2036.27
429.40	2190.74
429.59	2181.38
429.78	2080.74
429.97	2019.88
430.16	2160.31
430.34	2172.02
430.53	2307.77
430.72	2392.03
430.91	2190.74
431.10	2214.15
431.28	2338.20
431.47	2345.22
431.66	2401.39
431.85	2389.69
432.03	2387.35
432.22	2490.33
432.41	2373.30
432.60	2403.73
432.79	2406.07
432.97	2389.69
433.16	2340.54
433.35	2516.08
433.54	2326.49
433.72	2359.26
433.91	2410.75
434.10	2527.78
434.28	2448.20
434.47	2413.09
434.66	2574.59
434.85	2483.31
435.03	2464.58
435.22	2464.58
435.41	2527.78
435.59	2590.97
435.78	2693.96
435.97	2532.46
436.16	2635.44
436.34	2647.15
436.53	2609.70
436.72	2738.43
436.90	2614.38
437.09	2799.28
437.28	2495.01
437.46	2558.21
437.65	2644.81
437.84	2724.38
438.02	2689.28
438.21	2778.22
438.40	2665.87
438.58	2834.39
438.77	2818.00
438.96	2736.09
439.14	2916.31
439.33	2890.56
439.52	2944.39
439.70	3030.99
439.89	2909.29
440.08	2977.16
440.26	3014.61
440.45	3040.36
440.63	3000.57
440.82	3080.14
441.01	2909.29
441.19	3143.34
441.38	3094.19
441.57	3176.11
441.75	3150.36
441.94	3314.20
442.12	3155.04
442.31	3300.16
442.50	3194.83
442.68	3197.17
442.87	3183.13
443.05	3328.24
443.24	3375.05
443.43	3433.57
443.61	3302.50
443.80	3379.73
443.98	3218.24
444.17	3073.12
444.35	3337.60
444.54	3337.60
444.73	3412.50
444.91	3473.36
445.10	3349.31
445.28	3386.76
445.47	3379.73
445.65	3389.10
445.84	3459.31
446.02	3414.84
446.21	3442.93
446.39	3330.58
446.58	3449.95
446.77	3449.95
446.95	3258.03
447.14	3489.74
447.32	3471.01
447.51	3548.25
447.69	3531.87
447.88	3412.50
448.06	3398.46
448.25	3475.70
448.43	3569.32
448.62	3435.91
448.80	3557.61
448.99	3501.44
449.17	3445.27
449.36	3438.25
449.54	3613.79
449.73	3632.51
449.91	3592.72
450.10	3609.11
450.28	3588.04
450.46	3749.54
450.65	3693.37
450.83	3775.28
451.02	3728.47
451.20	3672.30
451.39	3772.94
451.57	3588.04
451.76	3653.58
451.94	3770.60
452.13	3775.28
452.31	3803.37
452.49	3777.62
452.68	3801.03
452.86	3892.31
453.05	3794.01
453.23	3920.40
453.42	3742.52
453.60	3798.69
453.78	3707.41
453.97	3791.67
454.15	3798.69
454.34	3866.56
454.52	3868.91
454.70	3971.89
454.89	3885.29
455.07	4025.72
455.26	3922.74
455.44	4063.17
455.62	3985.93
455.81	3911.04
455.99	4107.64
456.17	4114.66
456.36	4021.04
456.54	4117.00
456.73	4198.92
456.91	4320.63
457.09	4245.73
457.28	4306.59
457.46	4227.01
457.64	4327.65
457.83	4299.56
458.01	4177.86
458.19	4346.37
458.38	4425.95
458.56	4435.32
458.74	4341.69
458.93	4329.99
459.11	4397.87
459.29	4280.84
459.48	4390.84
459.66	4355.74
459.84	4432.97
460.03	4603.83
460.21	4468.08
460.39	4566.39
460.57	4322.97
460.76	4582.77
460.94	4650.64
461.12	4447.02
461.31	4512.55
461.49	4535.96
461.67	4575.75
461.85	4554.68
462.04	4538.30
462.22	4767.67
462.40	4676.39
462.59	4606.17
462.77	4610.86
462.95	4683.41
463.13	4695.11
463.32	4648.30
463.50	4812.14
463.68	4730.22
463.86	4784.06
464.05	4723.20
464.23	4741.93
464.41	4802.78
464.59	4685.75
464.78	4931.51
464.96	4798.10
465.14	4793.42
465.32	4858.95
465.50	5109.39
465.69	4894.06
465.87	5011.09
466.05	4905.76
466.23	4903.42
466.41	5006.41
466.60	5144.50
466.78	4816.82
466.96	4990.02
467.14	4816.82
467.32	4912.78
467.51	5046.20
467.69	4807.46
467.87	5083.64
468.05	5088.32
468.23	4924.49
468.41	5097.69
468.60	5032.15
468.78	5149.18
468.96	5069.60
469.14	5179.61
469.32	5266.21
469.50	5151.52
469.69	5254.50
469.87	5385.57
470.05	5303.65
470.23	5371.53
470.41	5273.23
470.59	5423.02
470.77	5158.54
470.95	5434.72
471.14	5408.98
471.32	5294.29
471.50	5603.24
471.68	5413.66
471.86	5593.88
472.04	5504.94
472.22	5579.84
472.40	5526.00
472.58	5724.95
472.77	5624.31
472.95	5619.63
473.13	5858.36
473.31	5565.79
473.49	5675.80
473.67	5767.08
473.85	5839.64
474.03	6001.13
474.21	5956.66
474.39	5860.70
474.57	6008.16
474.75	5928.58
474.93	5975.39
475.12	6024.54
475.30	6024.54
475.48	5980.07
475.66	6085.39
475.84	6043.26
476.02	6193.06
476.20	6235.19
476.38	6286.68
476.56	6483.28
476.74	6455.20
476.92	6455.20
477.10	6413.07
477.28	6707.98
477.46	6403.71
477.64	6551.16
477.82	6722.02
478.00	6829.68
478.18	6867.13
478.36	6874.15
478.54	6942.03
478.72	6972.46
478.90	6984.16
479.08	6925.65
479.26	7187.79
479.44	7145.66
479.62	7192.47
479.80	7346.94
479.98	7393.75
480.16	7232.26
480.34	7391.41
480.52	7564.61
480.70	7396.09
480.88	7386.73
481.06	7487.37
481.24	7494.40
481.41	7585.68
481.59	7716.75
481.77	7854.84
481.95	7936.76
482.13	8025.70
482.31	7878.24
482.49	8245.71
482.67	8170.81
482.85	8173.15
483.03	8215.28
483.21	8379.12
483.39	8308.90
483.57	8388.48
483.74	8456.36
483.92	8470.40
484.10	8407.20
484.28	8814.46
484.46	8901.06
484.64	8997.02
484.82	8781.69
485.00	8905.74
485.18	8968.93
485.35	9146.81
485.53	9057.87
485.71	9254.48
485.89	9369.16
486.07	9270.86
486.25	9444.06
486.43	9575.13
486.61	9547.05
486.78	9715.56
486.96	9870.04
487.14	9853.66
487.32	9764.72
487.50	10050.26
487.68	9977.70
487.85	10066.64
488.03	10319.42
488.21	10436.45
488.39	10186.01
488.57	10422.41
488.75	10403.68
488.92	10787.53
489.10	10738.38
489.28	10609.65
489.46	10977.11
489.64	10661.14
489.81	10965.41
489.99	11152.65
490.17	11119.89
490.35	10974.77
490.53	11084.78
490.70	11344.58
490.88	11253.30
491.06	11316.49
491.24	11276.70
491.41	11489.69
491.59	11564.59
491.77	11599.70
491.95	12156.74
492.13	12086.53
492.30	12013.97
492.48	11927.37
492.66	11967.16
492.84	12210.57
493.01	12299.52
493.19	12320.58
493.37	12271.43
493.54	12465.69
493.72	12428.24
493.90	12627.19
494.08	12685.70
494.25	13135.09
494.43	12622.51
494.61	12940.82
494.79	13057.85
494.96	12992.31
495.14	13284.88
495.32	13331.69
495.49	13186.58
495.67	13654.69
495.85	13385.52
496.02	13589.15
496.20	13640.64
496.38	13806.82
496.55	14003.43
496.73	13914.48
496.91	13888.74
497.09	13722.56
497.26	13947.25
497.44	13858.31
497.62	14052.58
497.79	13872.36
497.97	14207.05
498.14	14396.64
498.32	14464.51
498.50	14244.50
498.67	14757.08
498.85	14626.01
499.03	14661.12
499.20	14663.46
499.38	14473.87
499.56	14848.36
499.73	14857.72
499.91	14925.60
500.08	15080.07
500.26	15140.93
500.44	14874.10
500.61	15321.15
500.79	15276.68
500.97	15307.10
501.14	15426.47
501.32	15335.19
501.49	15365.62
501.67	15669.89
501.84	15466.26
502.02	15426.47
502.20	15400.72
502.37	15981.18
502.55	15815.00
502.72	15772.87
502.90	15674.57
503.07	15712.02
503.25	16182.46
503.43	15932.03
503.60	16226.93
503.78	16320.56
503.95	15955.43
504.13	16177.78
504.30	16358.00
504.48	16334.60
504.65	16620.14
504.83	16383.75
505.01	16535.88
505.18	16627.17
505.36	16627.17
505.53	16692.70
505.71	16835.47
505.88	16882.28
506.06	16655.25
506.23	16566.31
506.41	16664.61
506.58	17055.48
506.76	16826.11
506.93	17104.64
507.11	17226.34
507.28	17376.14
507.46	17336.35
507.63	17390.18
507.81	17252.09
507.98	17404.22
508.16	17572.74
508.33	17451.03
508.50	17493.16
508.68	17245.07
508.85	17635.94
509.03	17530.61
509.20	17767.01
509.38	18197.67
509.55	17956.59
509.73	17895.74
509.90	17942.55
510.08	17947.23
510.25	17947.23
510.42	18338.10
510.60	18153.20
510.77	18284.26
510.95	18375.55
511.12	18443.42
511.30	17942.55
511.47	18537.04
511.64	18377.89
511.82	18738.33
511.99	18665.77
512.17	18600.24
512.34	18618.96
512.51	18721.95
512.69	18838.97
512.86	18794.50
513.04	19136.22
513.21	19096.43
513.38	19054.30
513.56	19236.86
513.73	19271.97
513.90	18724.29
514.08	18967.70
514.25	19461.55
514.43	19089.41
514.60	19349.21
514.77	19262.61
514.95	19644.12
515.12	19264.95
515.29	19204.10
515.47	19697.95
515.64	19782.21
515.81	19510.71
515.99	19604.33
516.16	19857.10
516.33	19859.45
516.51	19800.93
516.68	19910.94
516.85	20077.12
517.03	19812.63
517.20	20180.10
517.37	20065.41
517.54	19936.68
517.72	20100.52
517.89	19992.86
518.06	20107.54
518.24	20383.73
518.41	20306.49
518.58	20095.84
518.75	20367.34
518.93	20592.03
519.10	20563.95
519.27	20332.23
519.45	20573.31
519.62	20601.40
519.79	20482.03
519.96	20365.00
520.14	20563.95
520.31	20758.21
520.48	20676.29
520.65	21064.82
520.83	20833.11
521.00	20723.10
521.17	20732.47
521.34	21135.04
521.52	21123.33
521.69	20924.39
521.86	21226.32
522.03	21252.06
522.20	21319.94
522.38	21401.86
522.55	21404.20
522.72	21233.34
522.89	21448.67
523.07	21610.17
523.24	21804.43
523.41	21876.99
523.58	21245.04
523.75	21743.58
523.92	21472.07
524.10	21783.37
524.27	21563.36
524.44	22005.72
524.61	21895.71
524.78	22141.47
524.96	22101.68
525.13	22211.68
525.30	22036.14
525.47	22164.87
525.64	21937.84
525.81	21830.18
525.98	22405.95
526.16	22148.49
526.33	22235.09
526.50	22160.19
526.67	22354.46
526.84	22129.77
527.01	22504.25
527.18	22326.37
527.36	22642.34
527.53	22761.71
527.70	22862.35
527.87	22948.95
528.04	22490.21
528.21	22948.95
528.38	22712.56
528.55	22885.76
528.72	22871.72
528.89	22967.68
529.07	23009.81
529.24	22611.92
529.41	23213.43
529.58	22890.44
529.75	22803.84
529.92	22972.36
530.09	22883.42
530.26	23234.50
530.43	23061.30
530.60	23077.68
530.77	23180.67
530.94	23398.34
531.11	23225.14
531.28	23051.94
531.46	23246.20
531.63	23667.50
531.80	23197.05
531.97	23651.11
532.14	23569.19
532.31	23386.63
532.48	23939.00
532.65	23405.36
532.82	23307.05
532.99	23697.92
533.16	23840.70
533.33	23634.73
533.50	23805.59
533.67	23941.34
533.84	23683.88
534.01	23552.81
534.18	23527.06
534.35	24037.30
534.52	23728.35
534.69	23828.99
534.86	24465.62
535.03	23875.80
535.20	24135.60
535.37	24271.36
535.54	24290.08
535.71	24163.69
535.88	24016.24
536.05	24196.46
536.22	24269.01
536.38	24493.71
536.55	24306.46
536.72	24397.74
536.89	24615.41
537.06	24376.68
537.23	24404.77
537.40	24486.68
537.57	24402.43
537.74	24545.20
537.91	24884.58
538.08	24788.61
538.25	24493.71
538.42	24877.55
538.59	24886.92
538.75	24711.38
538.92	24269.01
539.09	24905.64
539.26	24875.21
539.43	24980.54
539.60	24783.93
539.77	24783.93
539.94	24924.36
540.11	25006.28
540.28	24790.95
540.44	25252.04
540.61	24936.07
540.78	24863.51
540.95	25268.42
541.12	25188.85
541.29	25085.86
541.46	25139.69
541.62	25053.09
541.79	25062.46
541.96	25135.01
542.13	25469.71
542.30	25319.92
542.47	25979.95
542.63	25565.67
542.80	25963.56
542.97	25645.25
543.14	25841.85
543.31	25605.46
543.48	25518.86
543.64	25804.41
543.81	25975.27
543.98	25905.05
544.15	25963.56
544.32	25781.00
544.48	25837.17
544.65	25912.07
544.82	25867.60
544.99	25539.93
545.16	25982.29
545.32	25481.41
545.49	26108.68
545.66	26551.04
545.83	26108.68
546.00	26567.42
546.16	26214.00
546.33	25888.67
546.50	25764.62
546.67	26300.60
546.83	25703.76
547.00	25958.88
547.17	26192.94
547.34	26314.64
547.50	26270.17
547.67	26363.79
547.84	26188.25
548.00	26661.04
548.17	26415.29
548.34	26164.85
548.51	26923.18
548.67	26705.51
548.84	26359.11
549.01	26288.90
549.18	26841.26
549.34	26740.62
549.51	26752.32
549.68	26529.97
549.84	26398.90
550.01	26862.33
550.18	26384.86
550.34	26862.33
550.51	26988.72
550.68	27047.23
550.84	26581.46
551.01	27166.60
551.18	26635.30
551.34	26562.74
551.51	26817.86
551.68	26890.41
551.84	27175.96
552.01	26972.33
552.18	27019.14
552.34	26820.20
552.51	26962.97
552.68	27194.68
552.84	27084.68
553.01	27150.21
553.18	27023.83
553.34	27714.28
553.51	27178.30
553.67	27363.20
553.84	27358.52
554.01	27056.59
554.17	27805.56
554.34	27407.67
554.51	27274.26
554.67	27353.84
554.84	27269.58
555.00	27620.66
555.17	27587.89
555.33	27608.96
555.50	27545.76
555.67	27405.33
555.83	27335.12
556.00	27534.06
556.16	28175.37
556.33	27578.53
556.50	27601.94
556.66	27623.00
556.83	27372.57
556.99	28156.64
557.16	27887.48
557.32	27964.72
557.49	27517.68
557.65	27573.85
557.82	27580.87
557.98	27765.78
558.15	27449.80
558.32	27859.40
558.48	27871.10
558.65	27796.20
558.81	28102.81
558.98	28142.60
559.14	28154.30
559.31	27777.48
559.47	28158.99
559.64	27854.72
559.80	27913.23
559.97	27903.87
560.13	28039.62
560.30	28332.18
560.46	28208.14
560.63	28046.64
560.79	28067.70
560.96	27999.83
561.12	28135.58
561.29	27953.02
561.45	28297.08
561.61	28112.17
561.78	27681.52
561.94	28163.67
562.11	28133.24
562.27	28161.33
562.44	28355.59
562.60	28268.99
562.77	28217.50
562.93	28496.02
563.10	28318.14
563.26	28163.67
563.42	28624.75
563.59	28037.28
563.75	28116.86
563.92	28753.48
564.08	28285.37
564.24	28678.58
564.41	28498.36
564.57	28250.27
564.74	28481.98
564.90	28540.49
565.07	28243.24
565.23	28238.56
565.39	28666.88
565.56	28680.92
565.72	28137.92
565.88	28519.43
566.05	28390.70
566.21	28659.86
566.38	28547.51
566.54	28425.81
566.70	28704.33
566.87	28580.28
567.03	28360.27
567.19	28760.50
567.36	28350.91
567.52	28346.23
567.68	28769.86
567.85	28250.27
568.01	28685.61
568.17	28655.18
568.34	28753.48
568.50	28582.62
568.66	28472.62
568.83	28840.08
568.99	28526.45
569.15	28362.61
569.32	28842.42
569.48	28442.19
569.64	28697.31
569.81	28903.28
569.97	28631.77
570.13	28914.98
570.30	28545.17
570.46	28325.16
570.62	28723.05
570.78	28741.78
570.95	28573.26
571.11	28769.86
571.27	28346.23
571.43	28453.89
571.60	28765.18
571.76	28732.42
571.92	29240.31
572.09	28940.72
572.25	28804.97
572.41	28793.27
572.57	28809.65
572.74	28835.40
572.90	28809.65
573.06	28814.34
573.22	28840.08
573.38	28528.79
573.55	28844.76
573.71	29188.82
573.87	29200.52
574.03	28692.63
574.20	29106.90
574.36	28748.80
574.52	28734.76
574.68	28861.15
574.84	29165.42
575.01	28666.88
575.17	29158.39
575.33	28952.43
575.49	28769.86
575.65	29202.86
575.82	28961.79
575.98	28723.05
576.14	29088.18
576.30	29139.67
576.46	28922.00
576.62	28769.86
576.79	29151.37
576.95	29008.60
577.11	29200.52
577.27	29209.89
577.43	29207.55
577.59	28725.39
577.75	28755.82
577.92	28914.98
578.08	28851.78
578.24	28631.77
578.40	29123.29
578.56	28959.45
578.72	29195.84
578.88	28982.85
579.04	29205.20
579.21	29151.37
579.37	29118.60
579.53	29486.07
579.69	28893.91
579.85	29088.18
580.01	29081.16
580.17	28891.57
580.33	28680.92
580.49	29001.58
580.65	29039.03
580.82	29343.30
580.98	29329.25
581.14	29429.90
581.30	29355.00
581.46	29195.84
581.62	29116.26
581.78	29074.13
581.94	29237.97
582.10	28875.19
582.26	29390.11
582.42	29158.39
582.58	29338.62
582.74	29179.46
582.90	28994.56
583.06	29483.73
583.22	29064.77
583.38	29177.12
583.54	28947.75
583.70	29188.82
583.86	29223.93
584.02	28907.96
584.18	29179.46
584.34	29127.97
584.50	29369.04
584.66	29273.08
584.82	28816.68
584.98	29336.27
585.14	29301.17
585.30	28945.41
585.46	29102.22
585.62	29116.26
585.78	28996.90
585.94	28882.21
586.10	29076.48
586.26	29067.11
586.42	29521.18
586.58	29570.33
586.74	29263.72
586.90	28994.56
587.06	29254.36
587.22	28800.29
587.38	29034.35
587.54	29123.29
587.70	29612.46
587.86	29390.11
588.02	29071.79
588.18	29624.16
588.34	29331.59
588.49	29172.44
588.65	29113.92
588.81	29132.65
588.97	29195.84
589.13	29560.97
589.29	29024.98
589.45	29432.24
589.61	29575.01
589.77	29762.25
589.93	29549.26
590.08	29392.45
590.24	29600.76
590.40	29696.72
590.56	29626.50
590.72	29298.83
590.88	29502.45
591.04	29617.14
591.20	29797.36
591.35	29788.00
591.51	29715.44
591.67	29685.01
591.83	30087.59
591.99	29652.25
