SpectraSuite Data File
++++++++++++++++++++++++++++++++++++
Date: Fri Oct 18 13:58:33 GMT-05:00 2013
User: bianchi
Dark Spectrum Present: No
Reference Spectrum Present: No
Number of Sampled Component Spectra: 1
Spectrometers: USB2+H05261
Integration Time (usec): 50000 (USB2+H05261)
Spectra Averaged: 1 (USB2+H05261)
Boxcar Smoothing: 0 (USB2+H05261)
Correct for Electrical Dark: No (USB2+H05261)
Strobe/Lamp Enabled: No (USB2+H05261)
Correct for Detector Non-linearity: No (USB2+H05261)
Correct for Stray Light: No (USB2+H05261)
Number of Pixels in Processed Spectrum: 2048
>>>>>Begin Processed Spectral Data<<<<<
365.73	0.00
365.92	0.00
366.12	0.00
366.32	0.00
366.52	0.00
366.72	0.00
366.91	0.00
367.11	0.00
367.31	0.00
367.51	0.00
367.70	0.00
367.90	0.00
368.10	0.00
368.30	0.00
368.49	0.00
368.69	0.00
368.89	0.00
369.09	0.00
369.28	0.00
369.48	0.00
369.68	0.00
369.87	0.00
370.07	0.00
370.27	0.00
370.47	0.00
370.66	67.88
370.86	77.24
371.06	168.52
371.25	166.18
371.45	86.60
371.65	112.35
371.84	79.58
372.04	175.54
372.24	180.22
372.44	271.50
372.63	191.92
372.83	245.76
373.03	126.39
373.22	210.65
373.42	152.13
373.62	215.33
373.81	262.14
374.01	220.01
374.21	245.76
374.40	175.54
374.60	198.95
374.79	243.42
374.99	269.16
375.19	238.73
375.38	236.39
375.58	163.84
375.78	238.73
375.97	294.91
376.17	278.52
376.37	215.33
376.56	252.78
376.76	278.52
376.95	236.39
377.15	311.29
377.35	222.35
377.54	278.52
377.74	276.18
377.93	205.97
378.13	325.33
378.33	234.05
378.52	231.71
378.72	322.99
378.91	301.93
379.11	280.86
379.31	292.57
379.50	304.27
379.70	301.93
379.89	306.61
380.09	212.99
380.28	245.76
380.48	266.82
380.68	327.68
380.87	292.57
381.07	351.08
381.26	362.78
381.46	325.33
381.65	231.71
381.85	313.63
382.04	306.61
382.24	299.59
382.43	266.82
382.63	306.61
382.83	325.33
383.02	404.91
383.22	346.40
383.41	299.59
383.61	365.12
383.80	400.23
384.00	325.33
384.19	376.83
384.39	423.64
384.58	442.36
384.78	435.34
384.97	372.15
385.17	437.68
385.36	362.78
385.56	360.44
385.75	334.70
385.95	376.83
386.14	374.49
386.34	444.70
386.53	379.17
386.72	482.15
386.92	444.70
387.11	461.09
387.31	472.79
387.50	367.46
387.70	447.04
387.89	465.77
388.09	358.10
388.28	428.32
388.48	411.93
388.67	458.74
388.86	449.38
389.06	456.40
389.25	442.36
389.45	533.64
389.64	388.53
389.84	449.38
390.03	477.47
390.22	465.77
390.42	404.91
390.61	500.87
390.81	531.30
391.00	454.06
391.19	479.81
391.39	482.15
391.58	547.69
391.78	430.66
391.97	601.52
392.16	454.06
392.36	482.15
392.55	479.81
392.75	528.96
392.94	458.74
393.13	582.79
393.33	507.90
393.52	528.96
393.71	585.13
393.91	596.84
394.10	519.60
394.29	510.24
394.49	552.37
394.68	538.32
394.88	585.13
395.07	580.45
395.26	617.90
395.46	592.16
395.65	587.47
395.84	498.53
396.04	716.20
396.23	636.63
396.42	575.77
396.62	631.94
396.81	730.25
397.00	638.97
397.19	610.88
397.39	631.94
397.58	730.25
397.77	669.39
397.97	725.57
398.16	685.78
398.35	648.33
398.55	748.97
398.74	741.95
398.93	690.46
399.12	716.20
399.32	674.07
399.51	826.21
399.70	746.63
399.90	767.70
400.09	765.36
400.28	753.65
400.47	706.84
400.67	805.14
400.86	760.67
401.05	748.97
401.24	763.01
401.44	713.86
401.63	755.99
401.82	805.14
402.01	823.87
402.21	805.14
402.40	748.97
402.59	898.77
402.78	856.64
402.97	826.21
403.17	856.64
403.36	891.74
403.55	805.14
403.74	854.30
403.93	840.25
404.13	961.96
404.32	887.06
404.51	931.53
404.70	908.13
404.89	905.79
405.09	968.98
405.28	903.45
405.47	901.11
405.66	992.39
405.85	1055.58
406.05	1025.15
406.24	1050.90
406.43	985.37
406.62	1013.45
406.81	1081.33
407.00	990.05
407.20	966.64
407.39	1034.52
407.58	1032.18
407.77	1088.35
407.96	1041.54
408.15	1057.92
408.34	1097.71
408.54	1055.58
408.73	1093.03
408.92	1064.94
409.11	1086.01
409.30	1193.67
409.49	1116.44
409.68	1200.69
409.87	1153.88
410.07	1135.16
410.26	1226.44
410.45	1142.18
410.64	1139.84
410.83	1221.76
411.02	1170.27
411.21	1277.93
411.40	1308.36
411.59	1193.67
411.78	1214.74
411.98	1268.57
412.17	1214.74
412.36	1315.38
412.55	1240.48
412.74	1282.61
412.93	1299.00
413.12	1306.02
413.31	1343.47
413.50	1373.89
413.69	1369.21
413.88	1467.52
414.07	1383.26
414.26	1451.13
414.45	1479.22
414.64	1441.77
414.83	1369.21
415.02	1432.41
415.22	1519.01
415.41	1500.28
415.60	1523.69
415.79	1535.39
415.98	1540.07
416.17	1486.24
416.36	1570.50
416.55	1589.22
416.74	1570.50
416.93	1598.59
417.12	1640.72
417.31	1570.50
417.50	1654.76
417.69	1769.44
417.88	1750.72
418.07	1657.10
418.26	1586.88
418.45	1729.66
418.64	1755.40
418.83	1776.47
419.02	1734.34
419.21	1755.40
419.39	1799.87
419.58	1776.47
419.77	1769.44
419.96	1811.57
420.15	1797.53
420.34	1729.66
420.53	1764.76
420.72	1858.39
420.91	1935.62
421.10	1874.77
421.29	2001.16
421.48	1975.41
421.67	1987.11
421.86	1893.49
422.05	1849.02
422.24	1923.92
422.43	1856.04
422.61	1947.33
422.80	1935.62
422.99	2038.61
423.18	1998.82
423.37	1963.71
423.56	2003.50
423.75	2031.58
423.94	1912.22
424.13	1809.23
424.32	1895.83
424.50	2038.61
424.69	2010.52
424.88	1963.71
425.07	2057.33
425.26	1980.09
425.45	2036.27
425.64	1998.82
425.83	1961.37
426.01	2019.88
426.20	2019.88
426.39	2052.65
426.58	2012.86
426.77	2038.61
426.96	2139.25
427.15	2122.87
427.33	2275.00
427.52	2167.34
427.71	2019.88
427.90	2195.42
428.09	2125.21
428.28	2139.25
428.46	2165.00
428.65	2242.23
428.84	2169.68
429.03	2162.66
429.22	2120.53
429.40	2251.60
429.59	2132.23
429.78	2087.76
429.97	2108.82
430.16	2111.16
430.34	2328.83
430.53	2279.68
430.72	2385.01
430.91	2263.30
431.10	2249.25
431.28	2279.68
431.47	2471.61
431.66	2342.88
431.85	2328.83
432.03	2349.90
432.22	2459.90
432.41	2497.35
432.60	2417.77
432.79	2392.03
432.97	2406.07
433.16	2443.52
433.35	2361.60
433.54	2448.20
433.72	2523.10
433.91	2537.14
434.10	2373.30
434.28	2532.46
434.47	2480.97
434.66	2438.84
434.85	2408.41
435.03	2572.25
435.22	2656.51
435.41	2733.75
435.59	2726.72
435.78	2574.59
435.97	2583.95
436.16	2576.93
436.34	2609.70
436.53	2658.85
436.72	2743.11
436.90	2658.85
437.09	2637.78
437.28	2595.65
437.46	2752.47
437.65	2761.83
437.84	2686.94
438.02	2794.60
438.21	2773.53
438.40	2750.13
438.58	2883.54
438.77	2778.22
438.96	2782.90
439.14	2909.29
439.33	2846.09
439.52	2988.86
439.70	2993.55
439.89	2960.78
440.08	2993.55
440.26	3040.36
440.45	3038.02
440.63	3016.95
440.82	3150.36
441.01	3098.87
441.19	3117.59
441.38	3162.06
441.57	3227.60
441.75	3150.36
441.94	3204.19
442.12	3183.13
442.31	3260.37
442.50	3201.85
442.68	3281.43
442.87	3295.47
443.05	3527.19
443.24	3339.94
443.43	3283.77
443.61	3276.75
443.80	3417.18
443.98	3318.88
444.17	3208.87
444.35	3375.05
444.54	3339.94
444.73	3398.46
444.91	3391.44
445.10	3382.07
445.28	3339.94
445.47	3358.67
445.65	3323.56
445.84	3248.66
446.02	3417.18
446.21	3410.16
446.39	3480.38
446.58	3513.14
446.77	3471.01
446.95	3428.88
447.14	3440.59
447.32	3492.08
447.51	3410.16
447.69	3452.29
447.88	3506.12
448.06	3438.25
448.25	3506.12
448.43	3384.41
448.62	3337.60
448.80	3463.99
448.99	3555.27
449.17	3679.32
449.36	3616.13
449.54	3660.60
449.73	3742.52
449.91	3702.73
450.10	3616.13
450.28	3665.28
450.46	3859.54
450.65	3688.68
450.83	3623.15
451.02	3660.60
451.20	3681.66
451.39	3810.39
451.57	3693.37
451.76	3606.77
451.94	3852.52
452.13	3765.92
452.31	3751.88
452.49	3756.56
452.68	3829.12
452.86	3803.37
453.05	3859.54
453.23	3850.18
453.42	3845.50
453.60	3861.88
453.78	3913.38
453.97	3829.12
454.15	3796.35
454.34	4018.70
454.52	4074.87
454.70	4035.08
454.89	4131.05
455.07	4014.02
455.26	3934.44
455.44	4014.02
455.62	4128.70
455.81	4175.52
455.99	4002.32
456.17	3967.21
456.36	4018.70
456.54	4156.79
456.73	4095.94
456.91	4325.31
457.09	4215.30
457.28	4219.99
457.46	4315.95
457.64	4163.81
457.83	4227.01
458.01	4079.55
458.19	4105.30
458.38	4348.72
458.56	4337.01
458.74	4381.48
458.93	4365.10
459.11	4313.61
459.29	4297.22
459.48	4582.77
459.66	4465.74
459.84	4510.21
460.03	4573.41
460.21	4510.21
460.39	4578.09
460.57	4348.72
460.76	4645.96
460.94	4465.74
461.12	4514.89
461.31	4589.79
461.49	4524.26
461.67	4517.23
461.85	4770.01
462.04	4573.41
462.22	4622.56
462.40	4695.11
462.59	4727.88
462.77	4779.37
462.95	4655.33
463.13	4636.60
463.32	4734.90
463.50	4744.27
463.68	4814.48
463.86	4863.63
464.05	4898.74
464.23	4844.91
464.41	4905.76
464.59	4823.84
464.78	4868.31
464.96	4952.57
465.14	4826.18
465.32	4997.04
465.50	5018.11
465.69	5011.09
465.87	4861.29
466.05	4943.21
466.23	4919.81
466.41	4964.28
466.60	5259.18
466.78	5048.54
466.96	5048.54
467.14	4903.42
467.32	5090.67
467.51	5078.96
467.69	5032.15
467.87	5193.65
468.05	5125.77
468.23	5093.01
468.41	4929.17
468.60	5270.89
468.78	5275.57
468.96	5081.30
469.14	5205.35
469.32	5219.39
469.50	5144.50
469.69	5408.98
469.87	5242.80
470.05	5394.93
470.23	5287.27
470.41	5298.97
470.59	5275.57
470.77	5380.89
470.95	5425.36
471.14	5411.32
471.32	5336.42
471.50	5516.64
471.68	5493.24
471.86	5561.11
472.04	5809.21
472.22	5694.52
472.40	5516.64
472.58	5584.52
472.77	5720.27
472.95	5884.11
473.13	5930.92
473.31	5881.77
473.49	5731.97
473.67	5731.97
473.85	5891.13
474.03	5956.66
474.21	5975.39
474.39	5928.58
474.57	5968.37
474.75	6001.13
474.93	6097.10
475.12	5996.45
475.30	6225.82
475.48	6242.21
475.66	6200.08
475.84	6120.50
476.02	6270.30
476.20	6319.45
476.38	6377.96
476.56	6462.22
476.74	6539.46
476.92	6415.41
477.10	6537.12
477.28	6579.25
477.46	6476.26
477.64	6572.22
477.82	6949.05
478.00	6808.62
478.18	6986.50
478.36	7077.78
478.54	6906.92
478.72	7005.22
478.90	6984.16
479.08	6960.75
479.26	7267.36
479.44	7234.60
479.62	7274.38
479.80	7342.26
479.98	7337.58
480.16	7410.14
480.34	7524.82
480.52	7456.95
480.70	7524.82
480.88	7623.12
481.06	7639.51
481.24	7667.60
481.41	7627.81
481.59	7854.84
481.77	7782.28
481.95	7934.42
482.13	8056.12
482.31	7957.82
482.49	8095.91
482.67	8028.04
482.85	8292.52
483.03	8430.61
483.21	8533.59
483.39	8603.81
483.57	8540.61
483.74	8374.44
483.92	8348.69
484.10	8381.46
484.28	8765.31
484.46	8978.30
484.64	9006.38
484.82	8966.59
485.00	8968.93
485.18	9043.83
485.35	9502.58
485.53	9102.34
485.71	9179.58
485.89	9390.23
486.07	9270.86
486.25	9474.49
486.43	9579.81
486.61	9614.92
486.78	9603.22
486.96	9638.33
487.14	10036.22
487.32	10078.35
487.50	9991.75
487.68	10005.79
487.85	10141.54
488.03	10235.16
488.21	10611.99
488.39	10469.22
488.57	10408.36
488.75	10745.40
488.92	10504.32
489.10	10867.11
489.28	11000.52
489.46	10988.82
489.64	10892.85
489.81	11131.59
489.99	11199.46
490.17	11236.91
490.35	11276.70
490.53	11321.17
490.70	11538.84
490.88	11513.10
491.06	11674.59
491.24	11740.13
491.41	11655.87
491.59	11693.32
491.77	11950.78
491.95	11960.14
492.13	11782.26
492.30	12079.50
492.48	12180.15
492.66	12147.38
492.84	12191.85
493.01	12116.95
493.19	12657.62
493.37	12592.08
493.54	12627.19
493.72	12533.57
493.90	12732.51
494.08	13041.46
494.25	12980.61
494.43	12905.71
494.61	13163.17
494.79	13224.03
494.96	13090.62
495.14	13123.38
495.32	13078.91
495.49	13465.10
495.67	13598.51
495.85	13568.09
496.02	13401.91
496.20	13678.09
496.38	13661.71
496.55	13736.60
496.73	14064.28
496.91	13837.25
497.09	14249.18
497.26	14115.77
497.44	14001.08
497.62	14246.84
497.79	14640.05
497.97	14478.55
498.14	14295.99
498.32	14766.44
498.50	14766.44
498.67	14885.81
498.85	14738.35
499.03	14820.27
499.20	14757.08
499.38	14792.19
499.56	15119.86
499.73	15073.05
499.91	15180.71
500.08	15154.97
500.26	15173.69
500.44	15377.32
500.61	15344.55
500.79	15309.44
500.97	15609.03
501.14	15709.68
501.32	15658.18
501.49	15681.59
501.67	15627.76
501.84	15910.96
502.02	15594.99
502.20	15843.09
502.37	15892.24
502.55	16173.10
502.72	16009.26
502.90	16016.29
503.07	15786.91
503.25	15999.90
503.43	15985.86
503.60	16116.93
503.78	16554.61
503.95	16280.77
504.13	16538.23
504.30	16374.39
504.48	16308.85
504.65	16716.11
504.83	16475.03
505.01	16638.87
505.18	16966.54
505.36	16563.97
505.53	16683.34
505.71	16744.19
505.88	16643.55
506.06	16695.04
506.23	17142.08
506.41	17156.13
506.58	16973.56
506.76	17282.52
506.93	17298.90
507.11	17156.13
507.28	17322.30
507.46	17324.65
507.63	17451.03
507.81	17568.06
507.98	17209.96
508.16	17441.67
508.33	17493.16
508.50	17326.99
508.68	17975.31
508.85	17696.79
509.03	17813.82
509.20	18218.73
509.38	18155.54
509.55	18394.27
509.73	18017.44
509.90	18326.39
510.08	18054.89
510.25	18429.38
510.42	18396.61
510.60	18405.97
510.77	18373.21
510.95	18649.39
511.12	18197.67
511.30	18347.46
511.47	18487.89
511.64	18588.53
511.82	18511.30
511.99	18565.13
512.17	18918.55
512.34	19091.75
512.51	18801.52
512.69	18885.78
512.86	18958.34
513.04	19176.01
513.21	19154.94
513.38	19255.59
513.56	18855.36
513.73	19351.55
513.90	18998.13
514.08	19054.30
514.25	19257.93
514.43	19147.92
514.60	19463.90
514.77	19744.76
514.95	19599.65
515.12	19616.03
515.29	19697.95
515.47	19623.05
515.64	19796.25
515.81	19576.24
515.99	20020.94
516.16	20016.26
516.33	20166.06
516.51	20198.82
516.68	20142.65
516.85	20013.92
517.03	20189.46
517.20	20226.91
517.37	20381.38
517.54	20091.16
517.72	20369.68
517.89	20327.55
518.06	20648.21
518.24	20243.29
518.41	20137.97
518.58	20484.37
518.75	20601.40
518.93	20631.82
519.10	20648.21
519.27	20477.35
519.45	20540.54
519.62	20800.34
519.79	20725.44
519.96	20837.79
520.14	20989.92
520.31	20966.52
520.48	21525.91
520.65	20734.81
520.83	21231.00
521.00	21153.76
521.17	20828.43
521.34	21053.12
521.52	21319.94
521.69	21664.00
521.86	21308.24
522.03	21528.25
522.20	21905.07
522.38	21455.69
522.55	21607.83
522.72	21619.53
522.89	21703.79
523.07	21848.90
523.24	21656.98
523.41	21881.67
523.58	21689.74
523.75	21928.48
523.92	21809.11
524.10	21678.04
524.27	22036.14
524.44	22270.20
524.61	22298.28
524.78	21949.54
524.96	22513.61
525.13	22272.54
525.30	22195.30
525.47	22314.67
525.64	21968.27
525.81	22403.61
525.98	22544.04
526.16	22377.86
526.33	22398.93
526.50	22689.15
526.67	22384.88
526.84	22501.91
527.01	22515.95
527.18	22621.28
527.36	22724.26
527.53	22677.45
527.70	22874.06
527.87	22881.08
528.04	22686.81
528.21	22991.08
528.38	22972.36
528.55	23117.47
528.72	22897.46
528.89	22836.61
529.07	23419.40
529.24	23175.98
529.41	23063.64
529.58	23227.48
529.75	23187.69
529.92	23063.64
530.09	23466.21
530.26	23683.88
530.43	23297.69
530.60	23253.22
530.77	23487.28
530.94	23728.35
531.11	23295.35
531.28	23688.56
531.46	23812.61
531.63	23665.16
531.80	23601.96
531.97	23344.50
532.14	23798.57
532.31	23604.30
532.48	23730.69
532.65	23660.48
532.82	23899.21
532.99	23814.95
533.16	24144.97
533.33	24030.28
533.50	24245.61
533.67	24290.08
533.84	24002.19
534.01	24121.56
534.18	23936.66
534.35	23976.45
534.52	24079.43
534.69	24376.68
534.86	24561.58
535.03	24261.99
535.20	24491.37
535.37	24507.75
535.54	24163.69
535.71	24357.96
535.88	24479.66
536.05	24526.47
536.22	24573.28
536.38	24496.05
536.55	24727.76
536.72	24575.62
536.89	24629.46
537.06	24467.96
537.23	24678.61
537.40	24655.20
537.57	24807.34
537.74	24964.15
537.91	24964.15
538.08	24795.64
538.25	24512.43
538.42	24929.05
538.59	25352.68
538.75	24847.13
538.92	24982.88
539.09	25006.28
539.26	25441.62
539.43	25394.81
539.60	25090.54
539.77	24917.34
539.94	25369.07
540.11	25352.68
540.28	25165.44
540.44	24980.54
540.61	25282.47
540.78	25546.95
540.95	25233.32
541.12	25443.96
541.29	25619.50
541.46	25352.68
541.62	25518.86
541.79	25640.57
541.96	25495.46
542.13	25247.36
542.30	25249.70
542.47	25795.04
542.63	26139.10
542.80	25928.45
542.97	26036.12
543.14	26050.16
543.31	25855.90
543.48	26125.06
543.64	25881.64
543.81	26066.55
543.98	26396.56
544.15	26192.94
544.32	26501.89
544.48	26459.76
544.65	25759.94
544.82	26103.99
544.99	25781.00
545.16	26061.87
545.32	26199.96
545.49	26450.39
545.66	26515.93
545.83	26452.73
546.00	26293.58
546.16	26197.62
546.33	26204.64
546.50	26001.01
546.67	26263.15
546.83	26410.60
547.00	26771.05
547.17	26415.29
547.34	26525.29
547.50	26632.96
547.67	26859.99
547.84	26513.59
548.00	26635.30
548.17	26890.41
548.34	26745.30
548.51	26787.43
548.67	27068.30
548.84	26801.47
549.01	26485.50
549.18	26977.01
549.34	26682.11
549.51	26927.86
549.68	26874.03
549.84	26876.37
550.01	27190.00
550.18	26981.70
550.34	27126.81
550.51	27445.12
550.68	27491.93
550.84	26902.12
551.01	27555.13
551.18	26988.72
551.34	26969.99
551.51	27096.38
551.68	27639.39
551.84	26939.57
552.01	27398.31
552.18	27733.01
552.34	27302.35
552.51	27473.21
552.68	27239.15
552.84	27538.74
553.01	27257.88
553.18	27709.60
553.34	27274.26
553.51	27440.44
553.67	27681.52
553.84	27812.59
554.01	27789.18
554.17	27527.04
554.34	27405.33
554.51	27653.43
554.67	27681.52
554.84	27763.43
555.00	27648.75
555.17	28037.28
555.33	27749.39
555.50	27964.72
555.67	27953.02
555.83	28013.87
556.00	27749.39
556.16	27964.72
556.33	28144.94
556.50	27845.35
556.66	28063.02
556.83	27901.53
556.99	28060.68
557.16	28060.68
557.32	28191.75
557.49	27765.78
557.65	27882.80
557.82	27833.65
557.98	28039.62
558.15	27749.39
558.32	27931.95
558.48	28088.77
558.65	28180.05
558.81	28063.02
558.98	28046.64
559.14	28292.40
559.31	27866.42
559.47	28343.89
559.64	28470.28
559.80	28180.05
559.97	28339.21
560.13	27962.38
560.30	28589.64
560.46	28432.83
560.63	28313.46
560.79	28498.36
560.96	28348.57
561.12	28416.44
561.29	28652.84
561.45	28051.32
561.61	28311.12
561.78	28449.21
561.94	28542.83
562.11	28386.02
562.27	28713.69
562.44	28437.51
562.60	28362.61
562.77	28554.54
562.93	28484.32
563.10	28606.03
563.26	28287.71
563.42	28737.10
563.59	28636.45
563.75	28570.92
563.92	28685.61
564.08	28755.82
564.24	28376.66
564.41	28561.56
564.57	28428.15
564.74	28613.05
564.90	28599.01
565.07	28851.78
565.23	28872.85
565.39	28666.88
565.56	28819.02
565.72	28811.99
565.88	28879.87
566.05	28512.41
566.21	29106.90
566.38	28393.04
566.54	28943.06
566.70	29113.92
566.87	29130.31
567.03	28589.64
567.19	29149.03
567.36	29120.95
567.52	28823.70
567.68	29205.20
567.85	28889.23
568.01	28947.75
568.17	29006.26
568.34	28950.09
568.50	29172.44
568.66	28692.63
568.83	29397.13
568.99	29036.69
569.15	29015.62
569.32	28751.14
569.48	28676.24
569.64	28669.22
569.81	28973.49
569.97	28938.38
570.13	29301.17
570.30	28828.38
570.46	29116.26
570.62	28849.44
570.78	28851.78
570.95	29024.98
571.11	29219.25
571.27	29226.27
571.43	29247.33
571.60	28889.23
571.76	29362.02
571.92	28917.32
572.09	29408.83
572.25	29092.86
572.41	29233.29
572.57	29345.64
572.74	29514.16
572.90	29130.31
573.06	28931.36
573.22	29352.66
573.38	28996.90
573.55	29125.63
573.71	29448.62
573.87	29516.50
574.03	28903.28
574.20	29134.99
574.36	29270.74
574.52	28844.76
574.68	28898.59
574.84	29312.87
575.01	28893.91
575.17	29343.30
575.33	28816.68
575.49	29352.66
575.65	29502.45
575.82	29259.04
575.98	29184.14
576.14	29411.17
576.30	29397.13
576.46	29207.55
576.62	29041.37
576.79	29626.50
576.95	29102.22
577.11	29556.28
577.27	29425.22
577.43	29472.03
577.59	29242.65
577.75	29240.31
577.92	29654.59
578.08	29125.63
578.24	29453.30
578.40	29144.35
578.56	29483.73
578.72	29450.96
578.88	29308.19
579.04	29469.69
579.21	29612.46
579.37	29317.55
579.53	29708.42
579.69	29209.89
579.85	28973.49
580.01	29324.57
580.17	29064.77
580.33	29598.41
580.49	29277.76
580.65	29404.15
580.82	29474.37
580.98	29347.98
581.14	29675.65
581.30	29338.62
581.46	29408.83
581.62	29247.33
581.78	29233.29
581.94	29350.32
582.10	29170.10
582.26	28870.51
582.42	29780.98
582.58	29411.17
582.74	29422.87
582.90	29401.81
583.06	29455.64
583.22	29605.44
583.38	29195.84
583.54	29621.82
583.70	29479.05
583.86	29546.92
584.02	28912.64
584.18	29687.36
584.34	29642.88
584.50	29638.20
584.66	29244.99
584.82	29083.50
584.98	29340.96
585.14	29563.31
585.30	29378.40
585.46	29582.03
585.62	29434.58
585.78	29633.52
585.94	29408.83
586.10	29436.92
586.26	29708.42
586.42	29731.83
586.58	30019.71
586.74	29259.04
586.90	29359.68
587.06	29593.73
587.22	29699.06
587.38	29521.18
587.54	29832.47
587.70	29699.06
587.86	29589.05
588.02	29500.11
588.18	29947.15
588.34	29642.88
588.49	29567.99
588.65	29567.99
588.81	29277.76
588.97	29748.21
589.13	29277.76
589.29	29802.04
589.45	29724.80
589.61	29825.45
589.77	29654.59
589.93	30188.23
590.08	29921.41
590.24	30099.29
590.40	30000.99
590.56	30103.97
590.72	29813.74
590.88	29383.09
591.04	29631.18
591.20	30183.55
591.35	30000.99
591.51	30082.91
591.67	30101.63
591.83	29883.96
591.99	30043.12
