SpectraSuite Data File
++++++++++++++++++++++++++++++++++++
Date: Fri Oct 18 13:57:53 GMT-05:00 2013
User: bianchi
Dark Spectrum Present: No
Reference Spectrum Present: No
Number of Sampled Component Spectra: 1
Spectrometers: USB2+H05261
Integration Time (usec): 50000 (USB2+H05261)
Spectra Averaged: 1 (USB2+H05261)
Boxcar Smoothing: 0 (USB2+H05261)
Correct for Electrical Dark: No (USB2+H05261)
Strobe/Lamp Enabled: No (USB2+H05261)
Correct for Detector Non-linearity: No (USB2+H05261)
Correct for Stray Light: No (USB2+H05261)
Number of Pixels in Processed Spectrum: 2048
>>>>>Begin Processed Spectral Data<<<<<
365.73	0.00
365.92	0.00
366.12	0.00
366.32	0.00
366.52	0.00
366.72	0.00
366.91	0.00
367.11	0.00
367.31	0.00
367.51	0.00
367.70	0.00
367.90	0.00
368.10	0.00
368.30	0.00
368.49	0.00
368.69	0.00
368.89	0.00
369.09	0.00
369.28	0.00
369.48	0.00
369.68	0.00
369.87	0.00
370.07	0.00
370.27	0.00
370.47	0.00
370.66	114.69
370.86	95.96
371.06	180.22
371.25	203.63
371.45	161.50
371.65	112.35
371.84	163.84
372.04	135.75
372.24	149.79
372.44	128.73
372.63	201.29
372.83	224.69
373.03	220.01
373.22	189.58
373.42	194.26
373.62	168.52
373.81	191.92
374.01	177.88
374.21	266.82
374.40	269.16
374.60	287.89
374.79	196.60
374.99	215.33
375.19	175.54
375.38	201.29
375.58	266.82
375.78	276.18
375.97	191.92
376.17	229.37
376.37	201.29
376.56	313.63
376.76	294.91
376.95	294.91
377.15	308.95
377.35	255.12
377.54	308.95
377.74	285.55
377.93	243.42
378.13	238.73
378.33	238.73
378.52	334.70
378.72	241.08
378.91	266.82
379.11	248.10
379.31	264.48
379.50	299.59
379.70	238.73
379.89	304.27
380.09	332.36
380.28	294.91
380.48	341.72
380.68	334.70
380.87	252.78
381.07	320.65
381.26	337.04
381.46	245.76
381.65	365.12
381.85	358.10
382.04	271.50
382.24	418.96
382.43	224.69
382.63	299.59
382.83	320.65
383.02	360.44
383.22	400.23
383.41	348.74
383.61	292.57
383.80	301.93
384.00	372.15
384.19	351.08
384.39	444.70
384.58	435.34
384.78	386.19
384.97	404.91
385.17	393.21
385.36	447.04
385.56	362.78
385.75	351.08
385.95	400.23
386.14	395.55
386.34	407.25
386.53	435.34
386.72	402.57
386.92	404.91
387.11	482.15
387.31	517.26
387.50	458.74
387.70	339.38
387.89	491.51
388.09	465.77
388.28	409.59
388.48	468.11
388.67	437.68
388.86	430.66
389.06	456.40
389.25	386.19
389.45	463.43
389.64	507.90
389.84	533.64
390.03	393.21
390.22	503.22
390.42	482.15
390.61	414.27
390.81	451.72
391.00	447.04
391.19	521.94
391.39	428.32
391.58	482.15
391.78	550.03
391.97	524.28
392.16	498.53
392.36	552.37
392.55	578.11
392.75	517.26
392.94	496.19
393.13	524.28
393.33	484.49
393.52	496.19
393.71	636.63
393.91	498.53
394.10	510.24
394.29	472.79
394.49	592.16
394.68	613.22
394.88	514.92
395.07	547.69
395.26	596.84
395.46	601.52
395.65	613.22
395.84	725.57
396.04	671.73
396.23	645.99
396.42	627.26
396.62	678.76
396.81	620.24
397.00	664.71
397.19	641.31
397.39	578.11
397.58	718.54
397.77	655.35
397.97	697.48
398.16	624.92
398.35	702.16
398.55	681.10
398.74	681.10
398.93	744.29
399.12	812.17
399.32	697.48
399.51	730.25
399.70	727.91
399.90	763.01
400.09	798.12
400.28	709.18
400.47	760.67
400.67	734.93
400.86	802.80
401.05	760.67
401.24	802.80
401.44	805.14
401.63	767.70
401.82	781.74
402.01	727.91
402.21	919.83
402.40	741.95
402.59	807.48
402.78	877.70
402.97	840.25
403.17	875.36
403.36	812.17
403.55	880.04
403.74	961.96
403.93	926.85
404.13	858.98
404.32	980.68
404.51	875.36
404.70	884.72
404.89	983.02
405.09	894.08
405.28	990.05
405.47	973.66
405.66	959.62
405.85	1008.77
406.05	1006.43
406.24	873.02
406.43	957.28
406.62	987.71
406.81	1046.22
407.00	1128.14
407.20	1008.77
407.39	1020.47
407.58	1081.33
407.77	954.94
407.96	1036.86
408.15	1109.41
408.34	1064.94
408.54	1177.29
408.73	1123.46
408.92	1170.27
409.11	1064.94
409.30	1090.69
409.49	1081.33
409.68	1198.35
409.87	1078.99
410.07	1109.41
410.26	1170.27
410.45	1128.14
410.64	1210.06
410.83	1121.12
411.02	1240.48
411.21	1163.25
411.40	1301.34
411.59	1249.85
411.78	1217.08
411.98	1289.64
412.17	1282.61
412.36	1270.91
412.55	1282.61
412.74	1282.61
412.93	1371.55
413.12	1369.21
413.31	1406.66
413.50	1275.59
413.69	1378.58
413.88	1378.58
414.07	1336.45
414.26	1483.90
414.45	1420.71
414.64	1533.05
414.83	1554.12
415.02	1413.68
415.22	1554.12
415.41	1486.24
415.60	1572.84
415.79	1565.82
415.98	1554.12
416.17	1619.65
416.36	1682.85
416.55	1675.82
416.74	1664.12
416.93	1755.40
417.12	1668.80
417.31	1657.10
417.50	1645.40
417.69	1717.95
417.88	1722.63
418.07	1753.06
418.26	1722.63
418.45	1703.91
418.64	1825.62
418.83	1856.04
419.02	1795.19
419.21	1736.68
419.39	1802.21
419.58	1727.32
419.77	1790.51
419.96	1849.02
420.15	1902.86
420.34	1872.43
420.53	1867.75
420.72	1905.20
420.91	1853.70
421.10	1996.48
421.29	2069.03
421.48	2017.54
421.67	1937.96
421.86	2010.52
422.05	1996.48
422.24	1905.20
422.43	1966.05
422.61	1935.62
422.80	1959.03
422.99	1959.03
423.18	2076.06
423.37	2122.87
423.56	2069.03
423.75	1937.96
423.94	2022.22
424.13	1816.26
424.32	1888.81
424.50	2115.84
424.69	2174.36
424.88	2094.78
425.07	1980.09
425.26	1956.69
425.45	2008.18
425.64	1994.14
425.83	2045.63
426.01	2167.34
426.20	1989.46
426.39	2104.14
426.58	2017.54
426.77	2118.18
426.96	2113.50
427.15	2176.70
427.33	2237.55
427.52	2087.76
427.71	2078.40
427.90	2125.21
428.09	2186.06
428.28	2024.56
428.46	2094.78
428.65	2289.04
428.84	2242.23
429.03	2286.70
429.22	2277.34
429.40	2286.70
429.59	2396.71
429.78	2197.76
429.97	2181.38
430.16	2207.13
430.34	2242.23
430.53	2242.23
430.72	2349.90
430.91	2228.19
431.10	2256.28
431.28	2473.95
431.47	2342.88
431.66	2392.03
431.85	2366.28
432.03	2504.37
432.22	2415.43
432.41	2555.86
432.60	2504.37
432.79	2431.82
432.97	2483.31
433.16	2420.11
433.35	2420.11
433.54	2459.90
433.72	2504.37
433.91	2438.84
434.10	2464.58
434.28	2546.50
434.47	2509.05
434.66	2586.29
434.85	2558.21
435.03	2612.04
435.22	2696.30
435.41	2607.36
435.59	2715.02
435.78	2605.02
435.97	2705.66
436.16	2609.70
436.34	2616.72
436.53	2661.19
436.72	2780.56
436.90	2775.88
437.09	2764.17
437.28	2750.13
437.46	2825.03
437.65	2696.30
437.84	2724.38
438.02	2778.22
438.21	2832.05
438.40	2850.77
438.58	2878.86
438.77	2846.09
438.96	2920.99
439.14	2939.71
439.33	3014.61
439.52	2984.18
439.70	2925.67
439.89	3066.10
440.08	3019.29
440.26	3042.70
440.45	3145.68
440.63	3059.08
440.82	3056.74
441.01	3180.79
441.19	3183.13
441.38	3267.39
441.57	3176.11
441.75	3309.52
441.94	3375.05
442.12	3384.41
442.31	3358.67
442.50	3346.97
442.68	3293.13
442.87	3356.33
443.05	3349.31
443.24	3410.16
443.43	3356.33
443.61	3396.12
443.80	3494.42
443.98	3300.16
444.17	3248.66
444.35	3269.73
444.54	3398.46
444.73	3377.39
444.91	3379.73
445.10	3492.08
445.28	3407.82
445.47	3419.52
445.65	3363.35
445.84	3487.40
446.02	3576.34
446.21	3466.33
446.39	3515.48
446.58	3492.08
446.77	3496.76
446.95	3379.73
447.14	3531.87
447.32	3599.74
447.51	3545.91
447.69	3499.10
447.88	3548.25
448.06	3468.67
448.25	3377.39
448.43	3506.12
448.62	3541.23
448.80	3454.63
448.99	3571.66
449.17	3463.99
449.36	3475.70
449.54	3676.98
449.73	3644.21
449.91	3611.45
450.10	3658.26
450.28	3838.48
450.46	3684.00
450.65	3681.66
450.83	3824.44
451.02	3719.11
451.20	3838.48
451.39	3866.56
451.57	3623.15
451.76	3751.88
451.94	3840.82
452.13	3801.03
452.31	3866.56
452.49	3733.15
452.68	3868.91
452.86	3712.09
453.05	3782.31
453.23	3889.97
453.42	3955.51
453.60	3796.35
453.78	3868.91
453.97	3794.01
454.15	3981.25
454.34	3925.08
454.52	4131.05
454.70	4070.19
454.89	4119.34
455.07	4037.42
455.26	4032.74
455.44	4067.85
455.62	4056.15
455.81	4028.06
455.99	4067.85
456.17	4147.43
456.36	4217.65
456.54	4266.80
456.73	4227.01
456.91	4379.14
457.09	4355.74
457.28	4273.82
457.46	4294.88
457.64	4383.82
457.83	4437.66
458.01	4231.69
458.19	4404.89
458.38	4344.03
458.56	4512.55
458.74	4358.08
458.93	4264.46
459.11	4425.95
459.29	4365.10
459.48	4564.04
459.66	4407.23
459.84	4585.11
460.03	4547.66
460.21	4535.96
460.39	4470.42
460.57	4482.13
460.76	4496.17
460.94	4798.10
461.12	4741.93
461.31	4737.24
461.49	4622.56
461.67	4617.88
461.85	4699.80
462.04	4648.30
462.22	5200.67
462.40	4919.81
462.59	4863.63
462.77	4837.89
462.95	4856.61
463.13	4718.52
463.32	4821.50
463.50	4851.93
463.68	4933.85
463.86	4814.48
464.05	4786.40
464.23	4975.98
464.41	4882.36
464.59	4901.08
464.78	4997.04
464.96	4966.62
465.14	4924.49
465.32	5205.35
465.50	5060.24
465.69	4947.89
465.87	4755.97
466.05	4917.47
466.23	5011.09
466.41	5015.77
466.60	5142.16
466.78	5006.41
466.96	5198.33
467.14	4975.98
467.32	5083.64
467.51	5074.28
467.69	4983.00
467.87	5165.56
468.05	5228.76
468.23	5011.09
468.41	5193.65
468.60	5191.31
468.78	5191.31
468.96	5179.61
469.14	5434.72
469.32	5193.65
469.50	5146.84
469.69	5387.91
469.87	5488.56
470.05	5526.00
470.23	5493.24
470.41	5453.45
470.59	5603.24
470.77	5411.32
470.95	5692.18
471.14	5638.35
471.32	5423.02
471.50	5626.65
471.68	5533.03
471.86	5687.50
472.04	5668.78
472.22	5832.62
472.40	5687.50
472.58	5734.31
472.77	5830.27
472.95	5799.85
473.13	6031.56
473.31	5935.60
473.49	5844.32
473.67	5692.18
473.85	5930.92
474.03	6108.80
474.21	6024.54
474.39	6101.78
474.57	5942.62
474.75	6246.89
474.93	6090.07
475.12	6211.78
475.30	6317.11
475.48	6017.52
475.66	6286.68
475.84	6340.51
476.02	6349.87
476.20	6342.85
476.38	6469.24
476.56	6597.97
476.74	6509.03
476.92	6612.01
477.10	6724.36
477.28	6651.80
477.46	6677.55
477.64	6920.96
477.82	6850.75
478.00	7129.27
478.18	7246.30
478.36	7045.01
478.54	6909.26
478.72	7246.30
478.90	7122.25
479.08	7215.87
479.26	7159.70
479.44	7351.62
479.62	7253.32
479.80	7410.14
479.98	7424.18
480.16	7454.61
480.34	7496.74
480.52	7585.68
480.70	7728.45
480.88	7857.18
481.06	7815.05
481.24	7604.40
481.41	7808.03
481.59	7868.88
481.77	7981.23
481.95	7957.82
482.13	8173.15
482.31	8196.56
482.49	8325.29
482.67	8257.41
482.85	8463.38
483.03	8472.74
483.21	8713.81
483.39	8769.99
483.57	8428.27
483.74	8676.37
483.92	8854.25
484.10	8688.07
484.28	8973.61
484.46	9043.83
484.64	9277.88
484.82	9095.32
485.00	9322.35
485.18	9474.49
485.35	9518.96
485.53	9408.95
485.71	9434.70
485.89	9628.96
486.07	9572.79
486.25	9856.00
486.43	9635.99
486.61	9767.06
486.78	9827.91
486.96	10068.98
487.14	10310.06
487.32	10111.11
487.50	10139.20
487.68	10221.12
487.85	10370.91
488.03	10420.06
488.21	10719.65
488.39	10469.22
488.57	10544.11
488.75	10689.23
488.92	11023.92
489.10	10885.83
489.28	10995.84
489.46	11019.24
489.64	11133.93
489.81	11297.77
489.99	11192.44
490.17	11466.28
490.35	11763.53
490.53	11520.12
490.70	11730.76
490.88	11782.26
491.06	11763.53
491.24	11744.81
491.41	12051.42
491.59	12311.22
491.77	12070.14
491.95	12294.83
492.13	12358.03
492.30	12484.42
492.48	12428.24
492.66	12372.07
492.84	12458.67
493.01	12489.10
493.19	12631.87
493.37	12952.52
493.54	12784.01
493.72	12975.93
493.90	12968.91
494.08	13231.05
494.25	12886.99
494.43	13062.53
494.61	13252.11
494.79	13348.08
494.96	13249.77
495.14	13532.98
495.32	13514.25
495.49	13806.82
495.67	13694.47
495.85	13968.32
496.02	13823.20
496.20	14036.19
496.38	13975.34
496.55	14057.26
496.73	14246.84
496.91	14281.95
497.09	14256.20
497.26	14562.81
497.44	14487.92
497.62	14618.99
497.79	14815.59
497.97	14396.64
498.14	14972.41
498.32	14707.93
498.50	14911.55
498.67	15101.14
498.85	14806.23
499.03	15234.55
499.20	14869.42
499.38	14918.57
499.56	15286.04
499.73	15377.32
499.91	15431.15
500.08	15662.86
500.26	15594.99
500.44	15499.03
500.61	15618.39
500.79	15424.13
500.97	15807.98
501.14	15915.64
501.32	15716.70
501.49	16025.65
501.67	15812.66
501.84	15981.18
502.02	16175.44
502.20	16102.89
502.37	16531.20
502.55	16145.02
502.72	16248.00
502.90	16470.35
503.07	16439.92
503.25	16273.74
503.43	16299.49
503.60	16545.25
503.78	16458.65
503.95	16510.14
504.13	16549.93
504.30	16720.79
504.48	16786.32
504.65	17027.40
504.83	16856.54
505.01	17231.02
505.18	16924.41
505.36	17149.11
505.53	17081.23
505.71	17078.89
505.88	17177.19
506.06	17116.34
506.23	17596.15
506.41	17228.68
506.58	17523.59
506.76	17336.35
506.93	17509.55
507.11	17568.06
507.28	17722.54
507.46	17568.06
507.63	17804.46
507.81	18223.41
507.98	17572.74
508.16	18066.60
508.33	17977.65
508.50	18141.49
508.68	17806.80
508.85	18281.92
509.03	18108.72
509.20	18211.71
509.38	18312.35
509.55	18485.55
509.73	18281.92
509.90	18523.00
510.08	18499.59
510.25	18525.34
510.42	18682.16
510.60	18857.70
510.77	18530.02
510.95	19019.19
511.12	18778.12
511.30	18768.76
511.47	19030.90
511.64	18827.27
511.82	18871.74
511.99	19278.99
512.17	19220.48
512.34	18974.72
512.51	19342.19
512.69	19360.91
512.86	19293.04
513.04	19674.54
513.21	19494.32
513.38	19686.25
513.56	19534.11
513.73	19461.55
513.90	19735.40
514.08	19676.88
514.25	19964.77
514.43	19882.85
514.60	19637.09
514.77	19714.33
514.95	20180.10
515.12	19803.27
515.29	19845.40
515.47	20311.17
515.64	20233.93
515.81	19992.86
515.99	20336.91
516.16	20397.77
516.33	20418.83
516.51	20596.71
516.68	20255.00
516.85	20503.09
517.03	20479.69
517.20	20706.72
517.37	20713.74
517.54	20828.43
517.72	20507.77
517.89	20634.16
518.06	20786.30
518.24	20783.96
518.41	20418.83
518.58	20896.30
518.75	20809.70
518.93	20978.22
519.10	21160.78
519.27	20971.20
519.45	21027.37
519.62	21064.82
519.79	21179.51
519.96	21319.94
520.14	21652.30
520.31	21235.68
520.48	21434.63
520.65	20912.69
520.83	21848.90
521.00	21614.85
521.17	21544.63
521.34	21621.87
521.52	21731.87
521.69	21724.85
521.86	21745.92
522.03	21947.20
522.20	22111.04
522.38	22087.64
522.55	21755.28
522.72	21839.54
522.89	22160.19
523.07	22370.84
523.24	22066.57
523.41	22218.71
523.58	22115.72
523.75	22480.85
523.92	22389.56
524.10	22160.19
524.27	22419.99
524.44	22583.83
524.61	22909.16
524.78	22745.33
524.96	22705.54
525.13	22445.74
525.30	22405.95
525.47	22555.74
525.64	22595.53
525.81	22874.06
525.98	23152.58
526.16	23110.45
526.33	23016.83
526.50	23152.58
526.67	22955.97
526.84	23161.94
527.01	22939.59
527.18	23051.94
527.36	22693.83
527.53	23412.38
527.70	23342.16
527.87	23527.06
528.04	22906.82
528.21	23243.86
528.38	23264.92
528.55	23623.03
528.72	23232.16
528.89	23606.64
529.07	23405.36
529.24	23454.51
529.41	23538.77
529.58	23534.09
529.75	23426.42
529.92	23611.32
530.09	23716.65
530.26	23948.36
530.43	24037.30
530.60	23697.92
530.77	23674.52
530.94	23931.98
531.11	23555.15
531.28	23740.05
531.46	23957.72
531.63	24374.34
531.80	24362.64
531.97	24154.33
532.14	23885.17
532.31	24243.27
532.48	24320.51
532.65	24084.11
532.82	24416.47
532.99	24482.00
533.16	24067.73
533.33	24877.55
533.50	24952.45
533.67	24795.64
533.84	24531.15
534.01	24357.96
534.18	24404.77
534.35	24528.81
534.52	24755.85
534.69	24821.38
534.86	24725.42
535.03	24727.76
535.20	24940.75
535.37	24896.28
535.54	24702.01
535.71	24575.62
535.88	24755.85
536.05	24910.32
536.22	25149.06
536.38	25411.20
536.55	25310.55
536.72	24985.22
536.89	25188.85
537.06	25226.29
537.23	25261.40
537.40	25172.46
537.57	25259.06
537.74	25172.46
537.91	25891.01
538.08	25291.83
538.25	25259.06
538.42	25340.98
538.59	25305.87
538.75	25685.04
538.92	25362.04
539.09	25518.86
539.26	25603.12
539.43	25565.67
539.60	25781.00
539.77	25668.66
539.94	25757.60
540.11	25909.73
540.28	25951.86
540.44	25652.27
540.61	25439.28
540.78	25937.82
540.95	25689.72
541.12	25972.92
541.29	25839.51
541.46	25874.62
541.62	25631.21
541.79	25923.77
541.96	25422.90
542.13	26068.89
542.30	26089.95
542.47	26281.88
542.63	26169.53
542.80	26567.42
542.97	26085.27
543.14	26548.70
543.31	26410.60
543.48	26476.14
543.64	26396.56
543.81	26974.67
543.98	26766.37
544.15	26602.53
544.32	27122.13
544.48	27115.11
544.65	26789.77
544.82	26551.04
544.99	26838.92
545.16	26696.15
545.32	26375.50
545.49	26726.58
545.66	26955.95
545.83	27002.76
546.00	27087.02
546.16	27145.53
546.33	26609.55
546.50	26455.08
546.67	26953.61
546.83	26895.10
547.00	27019.14
547.17	26761.69
547.34	27105.74
547.50	27508.32
547.67	27470.87
547.84	27264.90
548.00	27178.30
548.17	27204.05
548.34	27140.85
548.51	27480.23
548.67	27714.28
548.84	27498.95
549.01	27410.01
549.18	27491.93
549.34	27271.92
549.51	27442.78
549.68	27428.74
549.84	27232.13
550.01	27412.35
550.18	27274.26
550.34	27730.67
550.51	27700.24
550.68	28004.51
550.84	27470.87
551.01	27819.61
551.18	27812.59
551.34	27728.33
551.51	28009.19
551.68	28072.39
551.84	27782.16
552.01	27946.00
552.18	28144.94
552.34	27693.22
552.51	27733.01
552.68	27796.20
552.84	28166.01
553.01	27857.06
553.18	27859.40
553.34	28481.98
553.51	28133.24
553.67	28166.01
553.84	28285.37
554.01	28393.04
554.17	27901.53
554.34	28182.39
554.51	28226.86
554.67	28341.55
554.84	28299.42
555.00	28102.81
555.17	28304.10
555.33	28383.68
555.50	28224.52
555.67	28517.09
555.83	28409.42
556.00	28357.93
556.16	29001.58
556.33	28783.91
556.50	28411.76
556.66	29060.09
556.83	28280.69
556.99	28945.41
557.16	28655.18
557.32	28526.45
557.49	28713.69
557.65	28535.81
557.82	28683.27
557.98	28383.68
558.15	28222.18
558.32	28641.14
558.48	28877.53
558.65	28662.20
558.81	28540.49
558.98	28666.88
559.14	29003.92
559.31	28690.29
559.47	28709.01
559.64	28931.36
559.80	28624.75
559.97	28992.22
560.13	29083.50
560.30	28989.88
560.46	28922.00
560.63	29111.58
560.79	28893.91
560.96	29233.29
561.12	28903.28
561.29	28971.15
561.45	29095.20
561.61	29137.33
561.78	28973.49
561.94	29371.38
562.11	28945.41
562.27	29134.99
562.44	28943.06
562.60	28849.44
562.77	29029.66
562.93	28652.84
563.10	29514.16
563.26	29020.30
563.42	29404.15
563.59	29621.82
563.75	29317.55
563.92	29481.39
564.08	29221.59
564.24	28926.68
564.41	29102.22
564.57	29205.20
564.74	29235.63
564.90	29120.95
565.07	28985.19
565.23	29303.51
565.39	29139.67
565.56	29811.40
565.72	29008.60
565.88	29537.56
566.05	29219.25
566.21	29350.32
566.38	29514.16
566.54	29261.38
566.70	29593.73
566.87	29570.33
567.03	29584.37
567.19	30213.98
567.36	29687.36
567.52	29317.55
567.68	29677.99
567.85	29729.48
568.01	29619.48
568.17	29282.44
568.34	29893.32
568.50	29532.88
568.66	29759.91
568.83	29722.46
568.99	29670.97
569.15	29479.05
569.32	29191.16
569.48	29280.10
569.64	29743.53
569.81	29455.64
569.97	29991.62
570.13	29909.71
570.30	29673.31
570.46	29654.59
570.62	29762.25
570.78	29612.46
570.95	29537.56
571.11	30052.48
571.27	29532.88
571.43	29439.26
571.60	29738.85
571.76	30122.69
571.92	29656.93
572.09	29881.62
572.25	29788.00
572.41	30029.07
572.57	29757.57
572.74	29872.26
572.90	29872.26
573.06	29832.47
573.22	29715.44
573.38	30125.04
573.55	29961.20
573.71	29975.24
573.87	29865.24
574.03	29989.28
574.20	30171.85
574.36	29977.58
574.52	29862.90
574.68	29902.68
574.84	29862.90
575.01	29834.81
575.17	29949.50
575.33	29680.33
575.49	30038.44
575.65	30181.21
575.82	29792.68
575.98	29673.31
576.14	29898.00
576.30	30045.46
576.46	29977.58
576.62	29991.62
576.79	29694.38
576.95	29860.55
577.11	29972.90
577.27	29860.55
577.43	29996.31
577.59	29989.28
577.75	29958.86
577.92	29986.94
578.08	29764.59
578.24	29841.83
578.40	29984.60
578.56	30038.44
578.72	30110.99
578.88	30429.30
579.04	30008.01
579.21	30089.93
579.37	30120.35
579.53	30029.07
579.69	29979.92
579.85	29785.66
580.01	29986.94
580.17	29539.90
580.33	30298.23
580.49	30101.63
580.65	30232.70
580.82	30258.45
580.98	30064.18
581.14	30668.04
581.30	30356.75
581.46	29949.50
581.62	30316.96
581.78	30153.12
581.94	30312.28
582.10	29806.72
582.26	30253.76
582.42	29949.50
582.58	30085.25
582.74	30431.65
582.90	30223.34
583.06	30132.06
583.22	30110.99
583.38	30476.12
583.54	30471.43
583.70	30328.66
583.86	29928.43
584.02	29942.47
584.18	30295.89
584.34	30532.29
584.50	30286.53
584.66	30455.05
584.82	29965.88
584.98	30237.38
585.14	30473.78
585.30	29949.50
585.46	30373.13
585.62	30073.54
585.78	30377.81
585.94	29909.71
586.10	30267.81
586.26	30160.14
586.42	30579.10
586.58	30483.14
586.74	30389.52
586.90	30408.24
587.06	30134.40
587.22	29956.52
587.38	30052.48
587.54	30410.58
587.70	30672.72
587.86	30675.06
588.02	30433.99
588.18	30913.80
588.34	30361.43
588.49	30443.35
588.65	30045.46
588.81	30417.60
588.97	30057.16
589.13	30005.67
589.29	30471.43
589.45	30300.58
589.61	30745.28
589.77	30630.59
589.93	30579.10
590.08	30831.88
590.24	30565.06
590.40	30419.94
590.56	30614.21
590.72	30195.25
590.88	30272.49
591.04	30153.12
591.20	30661.02
591.35	30527.61
591.51	31105.72
591.67	30775.70
591.83	30703.15
591.99	30462.07
