SpectraSuite Data File
++++++++++++++++++++++++++++++++++++
Date: Fri Oct 18 13:58:29 GMT-05:00 2013
User: bianchi
Dark Spectrum Present: No
Reference Spectrum Present: No
Number of Sampled Component Spectra: 1
Spectrometers: USB2+H05261
Integration Time (usec): 50000 (USB2+H05261)
Spectra Averaged: 1 (USB2+H05261)
Boxcar Smoothing: 0 (USB2+H05261)
Correct for Electrical Dark: No (USB2+H05261)
Strobe/Lamp Enabled: No (USB2+H05261)
Correct for Detector Non-linearity: No (USB2+H05261)
Correct for Stray Light: No (USB2+H05261)
Number of Pixels in Processed Spectrum: 2048
>>>>>Begin Processed Spectral Data<<<<<
365.73	0.00
365.92	0.00
366.12	0.00
366.32	0.00
366.52	0.00
366.72	0.00
366.91	0.00
367.11	0.00
367.31	0.00
367.51	0.00
367.70	0.00
367.90	0.00
368.10	0.00
368.30	0.00
368.49	0.00
368.69	0.00
368.89	0.00
369.09	0.00
369.28	0.00
369.48	0.00
369.68	0.00
369.87	0.00
370.07	0.00
370.27	0.00
370.47	0.00
370.66	46.81
370.86	77.24
371.06	163.84
371.25	152.13
371.45	163.84
371.65	152.13
371.84	163.84
372.04	140.43
372.24	161.50
372.44	140.43
372.63	264.48
372.83	166.18
373.03	198.95
373.22	208.31
373.42	168.52
373.62	166.18
373.81	229.37
374.01	236.39
374.21	205.97
374.40	280.86
374.60	215.33
374.79	238.73
374.99	322.99
375.19	245.76
375.38	224.69
375.58	315.97
375.78	215.33
375.97	224.69
376.17	297.25
376.37	294.91
376.56	292.57
376.76	229.37
376.95	273.84
377.15	294.91
377.35	257.46
377.54	311.29
377.74	287.89
377.93	276.18
378.13	191.92
378.33	259.80
378.52	313.63
378.72	222.35
378.91	301.93
379.11	311.29
379.31	262.14
379.50	269.16
379.70	285.55
379.89	292.57
380.09	264.48
380.28	299.59
380.48	297.25
380.68	257.46
380.87	348.74
381.07	257.46
381.26	351.08
381.46	341.72
381.65	390.87
381.85	308.95
382.04	320.65
382.24	262.14
382.43	271.50
382.63	348.74
382.83	344.06
383.02	358.10
383.22	346.40
383.41	318.31
383.61	353.42
383.80	430.66
384.00	395.55
384.19	381.51
384.39	421.30
384.58	362.78
384.78	362.78
384.97	418.96
385.17	416.62
385.36	358.10
385.56	379.17
385.75	301.93
385.95	355.76
386.14	379.17
386.34	449.38
386.53	437.68
386.72	388.53
386.92	430.66
387.11	407.25
387.31	449.38
387.50	360.44
387.70	397.89
387.89	341.72
388.09	346.40
388.28	292.57
388.48	428.32
388.67	414.27
388.86	402.57
389.06	479.81
389.25	435.34
389.45	421.30
389.64	477.47
389.84	475.13
390.03	507.90
390.22	416.62
390.42	538.32
390.61	414.27
390.81	416.62
391.00	449.38
391.19	477.47
391.39	486.83
391.58	477.47
391.78	526.62
391.97	533.64
392.16	477.47
392.36	578.11
392.55	496.19
392.75	454.06
392.94	507.90
393.13	627.26
393.33	589.82
393.52	547.69
393.71	545.34
393.91	547.69
394.10	547.69
394.29	505.56
394.49	592.16
394.68	596.84
394.88	589.82
395.07	608.54
395.26	554.71
395.46	615.56
395.65	554.71
395.84	592.16
396.04	653.01
396.23	578.11
396.42	624.92
396.62	648.33
396.81	678.76
397.00	681.10
397.19	617.90
397.39	650.67
397.58	575.77
397.77	638.97
397.97	704.50
398.16	627.26
398.35	683.44
398.55	688.12
398.74	706.84
398.93	669.39
399.12	685.78
399.32	725.57
399.51	681.10
399.70	781.74
399.90	692.80
400.09	760.67
400.28	791.10
400.47	711.52
400.67	681.10
400.86	802.80
401.05	718.54
401.24	695.14
401.44	844.93
401.63	758.33
401.82	823.87
402.01	751.31
402.21	873.02
402.40	816.85
402.59	777.06
402.78	774.72
402.97	861.32
403.17	788.76
403.36	947.92
403.55	830.89
403.74	774.72
403.93	912.81
404.13	863.66
404.32	868.34
404.51	837.91
404.70	926.85
404.89	849.61
405.09	933.87
405.28	917.49
405.47	966.64
405.66	1006.43
405.85	999.41
406.05	971.32
406.24	992.39
406.43	961.96
406.62	1039.20
406.81	1050.90
407.00	1015.79
407.20	1004.09
407.39	1029.84
407.58	1146.86
407.77	1139.84
407.96	1102.39
408.15	1029.84
408.34	1050.90
408.54	1034.52
408.73	1118.78
408.92	1074.31
409.11	1212.40
409.30	1090.69
409.49	1093.03
409.68	1191.33
409.87	1151.54
410.07	1132.82
410.26	1139.84
410.45	1149.20
410.64	1210.06
410.83	1210.06
411.02	1158.57
411.21	1144.52
411.40	1228.78
411.59	1268.57
411.78	1268.57
411.98	1296.66
412.17	1364.53
412.36	1336.45
412.55	1277.93
412.74	1273.25
412.93	1313.04
413.12	1352.83
413.31	1504.96
413.50	1397.30
413.69	1343.47
413.88	1420.71
414.07	1411.34
414.26	1425.39
414.45	1537.73
414.64	1460.49
414.83	1554.12
415.02	1523.69
415.22	1502.62
415.41	1542.41
415.60	1579.86
415.79	1570.50
415.98	1558.80
416.17	1617.31
416.36	1490.92
416.55	1577.52
416.74	1603.27
416.93	1544.75
417.12	1652.42
417.31	1603.27
417.50	1673.48
417.69	1699.23
417.88	1621.99
418.07	1706.25
418.26	1631.35
418.45	1619.65
418.64	1741.36
418.83	1806.89
419.02	1816.26
419.21	1797.53
419.39	1823.28
419.58	1827.96
419.77	1827.96
419.96	1825.62
420.15	1872.43
420.34	1874.77
420.53	1872.43
420.72	1881.79
420.91	1923.92
421.10	2008.18
421.29	2038.61
421.48	1804.55
421.67	1830.30
421.86	1872.43
422.05	1963.71
422.24	2008.18
422.43	2033.93
422.61	1898.17
422.80	2054.99
422.99	2083.08
423.18	1959.03
423.37	2005.84
423.56	2113.50
423.75	2108.82
423.94	2001.16
424.13	1940.30
424.32	1888.81
424.50	2008.18
424.69	2073.71
424.88	2120.53
425.07	2001.16
425.26	2094.78
425.45	2047.97
425.64	1970.73
425.83	1959.03
426.01	2083.08
426.20	1991.80
426.39	2017.54
426.58	2221.17
426.77	2005.84
426.96	2036.27
427.15	2064.35
427.33	2043.29
427.52	1994.14
427.71	2132.23
427.90	2111.16
428.09	1989.46
428.28	2232.87
428.46	2120.53
428.65	2094.78
428.84	2232.87
429.03	2176.70
429.22	2148.61
429.40	2181.38
429.59	2272.66
429.78	2019.88
429.97	2127.55
430.16	2174.36
430.34	2249.25
430.53	2396.71
430.72	2331.17
430.91	2279.68
431.10	2228.19
431.28	2387.35
431.47	2265.64
431.66	2464.58
431.85	2263.30
432.03	2366.28
432.22	2480.97
432.41	2511.39
432.60	2441.18
432.79	2417.77
432.97	2523.10
433.16	2413.09
433.35	2492.67
433.54	2443.52
433.72	2551.18
433.91	2518.42
434.10	2499.69
434.28	2586.29
434.47	2473.95
434.66	2457.56
434.85	2609.70
435.03	2539.48
435.22	2450.54
435.41	2651.83
435.59	2551.18
435.78	2569.91
435.97	2729.06
436.16	2621.40
436.34	2679.91
436.53	2736.09
436.72	2705.66
436.90	2597.99
437.09	2843.75
437.28	2633.10
437.46	2750.13
437.65	2708.00
437.84	2813.32
438.02	2806.30
438.21	2670.55
438.40	2682.25
438.58	2832.05
438.77	2855.45
438.96	2834.39
439.14	2920.99
439.33	2935.03
439.52	3059.08
439.70	2963.12
439.89	2935.03
440.08	2967.80
440.26	2932.69
440.45	2899.92
440.63	3033.33
440.82	3035.67
441.01	3136.32
441.19	3164.40
441.38	3215.90
441.57	3222.92
441.75	3091.85
441.94	3192.49
442.12	3204.19
442.31	3389.10
442.50	3356.33
442.68	3276.75
442.87	3281.43
443.05	3232.28
443.24	3428.88
443.43	3260.37
443.61	3368.03
443.80	3468.67
443.98	3391.44
444.17	3265.05
444.35	3412.50
444.54	3447.61
444.73	3440.59
444.91	3356.33
445.10	3325.90
445.28	3590.38
445.47	3482.72
445.65	3440.59
445.84	3494.42
446.02	3449.95
446.21	3442.93
446.39	3351.65
446.58	3400.80
446.77	3550.59
446.95	3527.19
447.14	3389.10
447.32	3412.50
447.51	3339.94
447.69	3531.87
447.88	3634.85
448.06	3641.87
448.25	3468.67
448.43	3471.01
448.62	3538.89
448.80	3492.08
448.99	3597.40
449.17	3574.00
449.36	3447.61
449.54	3667.62
449.73	3674.64
449.91	3632.51
450.10	3770.60
450.28	3623.15
450.46	3707.41
450.65	3761.24
450.83	3698.05
451.02	3737.84
451.20	3864.22
451.39	3754.22
451.57	3758.90
451.76	3641.87
451.94	3751.88
452.13	3985.93
452.31	3852.52
452.49	3859.54
452.68	3808.05
452.86	3730.81
453.05	3714.43
453.23	3836.14
453.42	3906.35
453.60	3899.33
453.78	3852.52
453.97	3749.54
454.15	3882.95
454.34	3819.75
454.52	4016.36
454.70	3943.80
454.89	4051.47
455.07	3988.27
455.26	4007.00
455.44	4049.13
455.62	4168.49
455.81	4025.72
455.99	4023.38
456.17	4191.90
456.36	4102.96
456.54	4135.73
456.73	4217.65
456.91	4402.55
457.09	4311.27
457.28	4320.63
457.46	4210.62
457.64	4379.14
457.83	4360.42
458.01	4257.43
458.19	4414.25
458.38	4262.12
458.56	4362.76
458.74	4493.83
458.93	4369.78
459.11	4521.92
459.29	4308.93
459.48	4479.79
459.66	4304.25
459.84	4585.11
460.03	4606.17
460.21	4645.96
460.39	4468.08
460.57	4477.44
460.76	4528.94
460.94	4730.22
461.12	4723.20
461.31	4641.28
461.49	4606.17
461.67	4662.35
461.85	4671.71
462.04	4608.51
462.22	4725.54
462.40	4566.39
462.59	4580.43
462.77	4760.65
462.95	4660.01
463.13	4692.77
463.32	4762.99
463.50	4807.46
463.68	4854.27
463.86	4770.01
464.05	4727.88
464.23	4826.18
464.41	5020.45
464.59	4727.88
464.78	4882.36
464.96	5027.47
465.14	4692.77
465.32	5057.90
465.50	4973.64
465.69	4985.34
465.87	4905.76
466.05	4880.02
466.23	4992.36
466.41	4959.60
466.60	5242.80
466.78	5085.98
466.96	4847.25
467.14	4877.68
467.32	5174.92
467.51	5179.61
467.69	4959.60
467.87	5034.49
468.05	5008.75
468.23	5144.50
468.41	5186.63
468.60	5298.97
468.78	5191.31
468.96	5046.20
469.14	5210.03
469.32	5270.89
469.50	5107.05
469.69	5277.91
469.87	5329.40
470.05	5390.25
470.23	5364.51
470.41	5210.03
470.59	5366.85
470.77	5427.70
470.95	5378.55
471.14	5549.41
471.32	5465.15
471.50	5568.13
471.68	5626.65
471.86	5465.15
472.04	5643.03
472.22	5778.78
472.40	5652.39
472.58	5605.58
472.77	5673.46
472.95	5624.31
473.13	5977.73
473.31	5809.21
473.49	5806.87
473.67	5877.09
473.85	5804.53
474.03	6066.67
474.21	5858.36
474.39	6036.24
474.57	6033.90
474.75	6312.42
474.93	6260.93
475.12	5870.06
475.30	6094.76
475.48	6045.60
475.66	6274.98
475.84	6312.42
476.02	6333.49
476.20	6429.45
476.38	6441.15
476.56	6462.22
476.74	6562.86
476.92	6581.59
477.10	6429.45
477.28	6537.12
477.46	6497.33
477.64	6707.98
477.82	6853.09
478.00	6967.77
478.18	6857.77
478.36	6799.26
478.54	6899.90
478.72	7190.13
478.90	7131.61
479.08	7030.97
479.26	7101.19
479.44	7304.81
479.62	7281.41
479.80	7389.07
479.98	7414.82
480.16	7449.93
480.34	7534.18
480.52	7538.87
480.70	7405.46
480.88	7508.44
481.06	7449.93
481.24	7665.25
481.41	7854.84
481.59	7796.32
481.77	7955.48
481.95	8018.68
482.13	8109.96
482.31	8189.53
482.49	8116.98
482.67	8112.30
482.85	8390.82
483.03	8437.63
483.21	8458.70
483.39	8540.61
483.57	8498.49
483.74	8643.60
483.92	8802.75
484.10	8652.96
484.28	8816.80
484.46	9034.47
484.64	9132.77
484.82	9053.19
485.00	9095.32
485.18	9355.12
485.35	9305.97
485.53	9439.38
485.71	9322.35
485.89	9418.32
486.07	9530.66
486.25	9603.22
486.43	9525.98
486.61	9633.64
486.78	9753.01
486.96	9827.91
487.14	10115.80
487.32	10136.86
487.50	9987.07
487.68	9982.38
487.85	10249.21
488.03	10303.04
488.21	10384.96
488.39	10509.01
488.57	10630.71
488.75	10672.84
488.92	10764.12
489.10	10876.47
489.28	10832.00
489.46	11115.20
489.64	11152.65
489.81	11157.33
489.99	11215.85
490.17	11295.43
490.35	11463.94
490.53	11482.67
490.70	11609.06
490.88	11342.24
491.06	11669.91
491.24	11728.42
491.41	12039.72
491.59	11978.86
491.77	11854.81
491.95	12145.04
492.13	12222.28
492.30	12411.86
492.48	12425.90
492.66	12269.09
492.84	12432.93
493.01	12266.75
493.19	12283.13
493.37	12552.29
493.54	12603.78
493.72	12842.52
493.90	12727.83
494.08	12868.27
494.25	13006.36
494.43	13111.68
494.61	13130.41
494.79	13282.54
494.96	13207.64
495.14	13380.84
495.32	13437.02
495.49	13575.11
495.67	13582.13
495.85	13858.31
496.02	13886.40
496.20	13745.97
496.38	13565.74
496.55	13781.07
496.73	13956.61
496.91	14115.77
497.09	14136.84
497.26	14321.74
497.44	14202.37
497.62	14141.52
497.79	14237.48
497.97	14466.85
498.14	14820.27
498.32	14597.92
498.50	14576.86
498.67	14988.79
498.85	14953.68
499.03	14890.49
499.20	14759.42
499.38	14974.75
499.56	15054.33
499.73	15211.14
499.91	15503.71
500.08	15370.30
500.26	15304.76
500.44	15108.16
500.61	15515.41
500.79	15269.66
500.97	15585.63
501.14	15833.72
501.32	15726.06
501.49	15557.54
501.67	15438.17
501.84	15674.57
502.02	15719.04
502.20	15803.30
502.37	16269.06
502.55	15927.35
502.72	16095.86
502.90	16102.89
503.07	16070.12
503.25	16222.25
503.43	16107.57
503.60	16285.45
503.78	16435.24
503.95	16383.75
504.13	16563.97
504.30	16505.46
504.48	16685.68
504.65	16779.30
504.83	16505.46
505.01	16798.02
505.18	16821.43
505.36	17001.65
505.53	17092.93
505.71	16769.94
505.88	17011.01
506.06	16947.82
506.23	17404.22
506.41	17181.87
506.58	17422.95
506.76	17577.42
506.93	17273.15
507.11	17170.17
507.28	17132.72
507.46	17446.35
507.63	17673.39
507.81	17802.11
507.98	17771.69
508.16	17914.46
508.33	17818.50
508.50	17626.57
508.68	17748.28
508.85	17928.50
509.03	18045.53
509.20	18171.92
509.38	18209.37
509.55	18050.21
509.73	18305.33
509.90	18267.88
510.08	18162.56
510.25	18113.41
510.42	18270.22
510.60	18567.47
510.77	18560.45
510.95	19066.00
511.12	18874.08
511.30	18609.60
511.47	18778.12
511.64	18743.01
511.82	18757.05
511.99	18857.70
512.17	19239.20
512.34	19040.26
512.51	19154.94
512.69	18995.79
512.86	19421.77
513.04	19384.32
513.21	19325.80
513.38	19262.61
513.56	19442.83
513.73	19171.33
513.90	18974.72
514.08	19351.55
514.25	19374.95
514.43	19318.78
514.60	19571.56
514.77	19517.73
514.95	20006.90
515.12	19594.96
515.29	19522.41
515.47	19662.84
515.64	19976.47
515.81	19817.32
515.99	19845.40
516.16	20276.06
516.33	20112.22
516.51	20123.93
516.68	19814.98
516.85	19814.98
517.03	20049.03
517.20	20189.46
517.37	20318.19
517.54	20346.28
517.72	20467.98
517.89	20491.39
518.06	20685.65
518.24	20650.55
518.41	20627.14
518.58	20856.51
518.75	20585.01
518.93	20826.09
519.10	20837.79
519.27	20507.77
519.45	20741.83
519.62	20606.08
519.79	20889.28
519.96	20699.70
520.14	21200.57
520.31	21060.14
520.48	21181.85
520.65	21273.13
520.83	21448.67
521.00	21008.65
521.17	20919.71
521.34	21275.47
521.52	21350.37
521.69	21256.75
521.86	21666.34
522.03	21715.49
522.20	21429.94
522.38	21572.72
522.55	21607.83
522.72	21633.57
522.89	21862.94
523.07	21818.47
523.24	22022.10
523.41	21830.18
523.58	22162.53
523.75	22485.53
523.92	22033.80
524.10	21766.98
524.27	22146.15
524.44	22340.41
524.61	22590.85
524.78	22459.78
524.96	22274.88
525.13	22438.72
525.30	22513.61
525.47	22455.10
525.64	22525.32
525.81	22855.33
525.98	22967.68
526.16	22513.61
526.33	22670.43
526.50	23030.87
526.67	22436.38
526.84	22810.86
527.01	22565.10
527.18	22941.93
527.36	22909.16
527.53	22930.23
527.70	23150.24
527.87	23255.56
528.04	23183.01
528.21	22981.72
528.38	23283.65
528.55	23126.83
528.72	23042.57
528.89	23108.11
529.07	23243.86
529.24	23557.49
529.41	23405.36
529.58	23314.08
529.75	23094.07
529.92	23442.81
530.09	23138.54
530.26	23374.93
530.43	23271.95
530.60	23616.01
530.77	23702.61
530.94	23917.93
531.11	23618.35
531.28	23356.21
531.46	23381.95
531.63	23667.50
531.80	23641.75
531.97	23733.03
532.14	23943.68
532.31	23676.86
532.48	23962.40
532.65	24077.09
532.82	23878.15
532.99	23634.73
533.16	23740.05
533.33	24025.60
533.50	24336.89
533.67	24294.76
533.84	24240.93
534.01	24229.23
534.18	24147.31
534.35	24093.47
534.52	24517.11
534.69	24430.51
534.86	24587.33
535.03	24381.36
535.20	24372.00
535.37	24514.77
535.54	24797.98
535.71	24177.73
535.88	24638.82
536.05	24769.89
536.22	24870.53
536.38	24896.28
536.55	24751.17
536.72	24837.76
536.89	24524.13
537.06	24521.79
537.23	24723.08
537.40	24526.47
537.57	24844.79
537.74	24542.86
537.91	25151.40
538.08	25319.92
538.25	24910.32
538.42	25167.78
538.59	25261.40
538.75	24786.27
538.92	25214.59
539.09	25443.96
539.26	25490.77
539.43	25228.63
539.60	25275.45
539.77	25434.60
539.94	25481.41
540.11	25348.00
540.28	25322.26
540.44	25348.00
540.61	25102.25
540.78	25050.75
540.95	25446.30
541.12	25558.65
541.29	25678.02
541.46	25652.27
541.62	25556.31
541.79	25593.76
541.96	25523.54
542.13	25116.29
542.30	25813.77
542.47	25937.82
542.63	25701.42
542.80	25916.75
542.97	26136.76
543.14	26092.29
543.31	26127.40
543.48	25996.33
543.64	26108.68
543.81	26075.91
543.98	26239.75
544.15	26490.18
544.32	26551.04
544.48	26611.89
544.65	26286.56
544.82	26155.49
544.99	25982.29
545.16	26340.39
545.32	26202.30
545.49	26876.37
545.66	26859.99
545.83	26824.88
546.00	26841.26
546.16	26707.85
546.33	26314.64
546.50	26064.21
546.67	26595.51
546.83	26225.70
547.00	26335.71
547.17	26471.46
547.34	26745.30
547.50	26953.61
547.67	26927.86
547.84	27019.14
548.00	26778.07
548.17	27108.08
548.34	26939.57
548.51	27028.51
548.67	27211.07
548.84	27248.52
549.01	26815.52
549.18	27061.27
549.34	27075.32
549.51	27211.07
549.68	26862.33
549.84	26628.27
550.01	27136.17
550.18	27138.51
550.34	27204.05
550.51	27395.97
550.68	27283.62
550.84	27307.03
551.01	27915.57
551.18	27292.99
551.34	27091.70
551.51	27346.82
551.68	27447.46
551.84	27065.96
552.01	27613.64
552.18	27400.65
552.34	27356.18
552.51	27578.53
552.68	27442.78
552.84	27435.76
553.01	27807.90
553.18	27449.80
553.34	27756.41
553.51	27737.69
553.67	27438.10
553.84	28114.52
554.01	28093.45
554.17	27824.29
554.34	27515.34
554.51	27775.14
554.67	28039.62
554.84	27552.79
555.00	28123.88
555.17	27534.06
555.33	27875.78
555.50	28004.51
555.67	27892.16
555.83	27772.80
556.00	27772.80
556.16	28229.20
556.33	28130.90
556.50	28339.21
556.66	28182.39
556.83	28070.04
556.99	28053.66
557.16	28507.72
557.32	28158.99
557.49	28245.58
557.65	28343.89
557.82	27990.47
557.98	28086.43
558.15	28421.13
558.32	28383.68
558.48	28409.42
558.65	28481.98
558.81	28875.19
558.98	28182.39
559.14	28191.75
559.31	27967.06
559.47	28292.40
559.64	28521.77
559.80	28397.72
559.97	28397.72
560.13	28037.28
560.30	28374.31
560.46	28690.29
560.63	28552.20
560.79	28460.91
560.96	28421.13
561.12	28580.28
561.29	28325.16
561.45	28343.89
561.61	28421.13
561.78	28737.10
561.94	28603.69
562.11	29127.97
562.27	28882.21
562.44	28713.69
562.60	28783.91
562.77	28505.38
562.93	28687.95
563.10	28734.76
563.26	28772.21
563.42	29060.09
563.59	28437.51
563.75	28622.41
563.92	28819.02
564.08	28952.43
564.24	28783.91
564.41	28882.21
564.57	28765.18
564.74	28753.48
564.90	29048.39
565.07	29184.14
565.23	28875.19
565.39	28725.39
565.56	28800.29
565.72	28898.59
565.88	28982.85
566.05	28870.51
566.21	29230.95
566.38	28933.70
566.54	29443.94
566.70	29015.62
566.87	29160.73
567.03	29029.66
567.19	28985.19
567.36	29041.37
567.52	29284.78
567.68	29048.39
567.85	29062.43
568.01	29280.10
568.17	29357.34
568.34	29013.28
568.50	29411.17
568.66	29167.76
568.83	29525.86
568.99	29310.53
569.15	28879.87
569.32	29247.33
569.48	28496.02
569.64	28968.81
569.81	29106.90
569.97	29460.32
570.13	29214.57
570.30	29343.30
570.46	29247.33
570.62	28999.24
570.78	29270.74
570.95	29127.97
571.11	29600.76
571.27	29078.82
571.43	29043.71
571.60	29230.95
571.76	29104.56
571.92	29352.66
572.09	29439.26
572.25	29530.54
572.41	29490.75
572.57	29380.74
572.74	29287.12
572.90	29383.09
573.06	29383.09
573.22	29235.63
573.38	29237.97
573.55	29570.33
573.71	29586.71
573.87	29675.65
574.03	29249.67
574.20	29252.02
574.36	29406.49
574.52	29582.03
574.68	29198.18
574.84	29303.51
575.01	29422.87
575.17	29404.15
575.33	29436.92
575.49	29315.21
575.65	29369.04
575.82	29586.71
575.98	29399.47
576.14	29502.45
576.30	29553.94
576.46	29308.19
576.62	28744.12
576.79	29736.51
576.95	29563.31
577.11	29598.41
577.27	29378.40
577.43	29699.06
577.59	29383.09
577.75	29488.41
577.92	29345.64
578.08	29090.52
578.24	29453.30
578.40	29521.18
578.56	29694.38
578.72	29474.37
578.88	29750.55
579.04	29858.21
579.21	29579.69
579.37	29645.23
579.53	29811.40
579.69	29677.99
579.85	29090.52
580.01	29167.76
580.17	29268.40
580.33	29406.49
580.49	29584.37
580.65	29544.58
580.82	29418.19
580.98	29680.33
581.14	29261.38
581.30	29780.98
581.46	29724.80
581.62	29340.96
581.78	29081.16
581.94	29687.36
582.10	29509.47
582.26	29443.94
582.42	29596.07
582.58	29600.76
582.74	29624.16
582.90	29652.25
583.06	29860.55
583.22	29738.85
583.38	29582.03
583.54	29532.88
583.70	29572.67
583.86	29879.28
584.02	29507.13
584.18	29844.17
584.34	29797.36
584.50	29748.21
584.66	29930.77
584.82	29565.65
584.98	29593.73
585.14	29600.76
585.30	29724.80
585.46	29160.73
585.62	29443.94
585.78	29668.63
585.94	29467.34
586.10	29427.56
586.26	29837.15
586.42	29596.07
586.58	29472.03
586.74	29734.17
586.90	29867.58
587.06	29724.80
587.22	29633.52
587.38	29511.81
587.54	29860.55
587.70	29720.12
587.86	29951.84
588.02	29689.70
588.18	29752.89
588.34	29996.31
588.49	29799.70
588.65	29612.46
588.81	29986.94
588.97	29701.40
589.13	29773.95
589.29	29469.69
589.45	29795.02
589.61	30277.17
589.77	30129.72
589.93	30244.40
590.08	30141.42
590.24	29830.13
590.40	30312.28
590.56	30024.39
590.72	29862.90
590.88	29865.24
591.04	30012.69
591.20	30134.40
591.35	30307.60
591.51	30366.11
591.67	30045.46
591.83	30244.40
591.99	29853.53
