SpectraSuite Data File
++++++++++++++++++++++++++++++++++++
Date: Fri Oct 18 13:58:29 GMT-05:00 2013
User: bianchi
Dark Spectrum Present: No
Reference Spectrum Present: No
Number of Sampled Component Spectra: 1
Spectrometers: USB2+H05261
Integration Time (usec): 50000 (USB2+H05261)
Spectra Averaged: 1 (USB2+H05261)
Boxcar Smoothing: 0 (USB2+H05261)
Correct for Electrical Dark: No (USB2+H05261)
Strobe/Lamp Enabled: No (USB2+H05261)
Correct for Detector Non-linearity: No (USB2+H05261)
Correct for Stray Light: No (USB2+H05261)
Number of Pixels in Processed Spectrum: 2048
>>>>>Begin Processed Spectral Data<<<<<
365.73	0.00
365.92	0.00
366.12	0.00
366.32	0.00
366.52	0.00
366.72	0.00
366.91	0.00
367.11	0.00
367.31	0.00
367.51	0.00
367.70	0.00
367.90	0.00
368.10	0.00
368.30	0.00
368.49	0.00
368.69	0.00
368.89	0.00
369.09	0.00
369.28	0.00
369.48	0.00
369.68	0.00
369.87	0.00
370.07	0.00
370.27	0.00
370.47	0.00
370.66	74.90
370.86	102.98
371.06	161.50
371.25	163.84
371.45	114.69
371.65	198.95
371.84	100.64
372.04	88.94
372.24	196.60
372.44	138.09
372.63	217.67
372.83	168.52
373.03	236.39
373.22	177.88
373.42	124.05
373.62	187.24
373.81	245.76
374.01	180.22
374.21	173.20
374.40	276.18
374.60	311.29
374.79	201.29
374.99	297.25
375.19	217.67
375.38	280.86
375.58	220.01
375.78	191.92
375.97	238.73
376.17	304.27
376.37	311.29
376.56	262.14
376.76	301.93
376.95	229.37
377.15	248.10
377.35	229.37
377.54	292.57
377.74	301.93
377.93	229.37
378.13	238.73
378.33	287.89
378.52	222.35
378.72	388.53
378.91	278.52
379.11	313.63
379.31	257.46
379.50	248.10
379.70	376.83
379.89	315.97
380.09	245.76
380.28	301.93
380.48	367.46
380.68	308.95
380.87	290.23
381.07	306.61
381.26	203.63
381.46	360.44
381.65	353.42
381.85	285.55
382.04	283.20
382.24	341.72
382.43	318.31
382.63	322.99
382.83	297.25
383.02	407.25
383.22	358.10
383.41	348.74
383.61	381.51
383.80	339.38
384.00	381.51
384.19	451.72
384.39	299.59
384.58	390.87
384.78	383.85
384.97	393.21
385.17	320.65
385.36	346.40
385.56	348.74
385.75	388.53
385.95	346.40
386.14	341.72
386.34	444.70
386.53	386.19
386.72	348.74
386.92	390.87
387.11	409.59
387.31	388.53
387.50	383.85
387.70	468.11
387.89	322.99
388.09	362.78
388.28	435.34
388.48	386.19
388.67	404.91
388.86	496.19
389.06	435.34
389.25	505.56
389.45	554.71
389.64	475.13
389.84	458.74
390.03	493.85
390.22	472.79
390.42	454.06
390.61	444.70
390.81	472.79
391.00	482.15
391.19	500.87
391.39	454.06
391.58	505.56
391.78	521.94
391.97	503.22
392.16	514.92
392.36	566.41
392.55	599.18
392.75	528.96
392.94	456.40
393.13	526.62
393.33	535.98
393.52	599.18
393.71	503.22
393.91	538.32
394.10	440.02
394.29	641.31
394.49	566.41
394.68	526.62
394.88	519.60
395.07	617.90
395.26	557.05
395.46	599.18
395.65	594.50
395.84	575.77
396.04	655.35
396.23	599.18
396.42	620.24
396.62	697.48
396.81	615.56
397.00	589.82
397.19	704.50
397.39	610.88
397.58	608.54
397.77	664.71
397.97	688.12
398.16	638.97
398.35	725.57
398.55	713.86
398.74	709.18
398.93	727.91
399.12	753.65
399.32	755.99
399.51	688.12
399.70	777.06
399.90	791.10
400.09	758.33
400.28	758.33
400.47	688.12
400.67	636.63
400.86	727.91
401.05	842.59
401.24	821.53
401.44	840.25
401.63	795.78
401.82	772.38
402.01	702.16
402.21	798.12
402.40	837.91
402.59	791.10
402.78	849.61
402.97	842.59
403.17	835.57
403.36	880.04
403.55	873.02
403.74	901.11
403.93	861.32
404.13	922.17
404.32	858.98
404.51	793.44
404.70	884.72
404.89	915.15
405.09	959.62
405.28	940.90
405.47	877.70
405.66	922.17
405.85	912.81
406.05	1036.86
406.24	1027.50
406.43	933.87
406.62	938.55
406.81	1015.79
407.00	987.71
407.20	954.94
407.39	1018.13
407.58	966.64
407.77	1083.67
407.96	1153.88
408.15	1118.78
408.34	1069.62
408.54	1062.60
408.73	1135.16
408.92	1046.22
409.11	1118.78
409.30	1102.39
409.49	1163.25
409.68	1086.01
409.87	1104.73
410.07	1156.22
410.26	1142.18
410.45	1153.88
410.64	1125.80
410.83	1203.04
411.02	1121.12
411.21	1203.04
411.40	1249.85
411.59	1282.61
411.78	1219.42
411.98	1170.27
412.17	1277.93
412.36	1324.74
412.55	1303.68
412.74	1296.66
412.93	1406.66
413.12	1334.11
413.31	1401.98
413.50	1273.25
413.69	1348.15
413.88	1383.26
414.07	1430.07
414.26	1455.81
414.45	1507.30
414.64	1528.37
414.83	1444.11
415.02	1366.87
415.22	1570.50
415.41	1584.54
415.60	1507.30
415.79	1575.18
415.98	1572.84
416.17	1572.84
416.36	1621.99
416.55	1629.01
416.74	1607.95
416.93	1694.55
417.12	1647.74
417.31	1591.56
417.50	1645.40
417.69	1703.91
417.88	1717.95
418.07	1720.29
418.26	1743.70
418.45	1755.40
418.64	1741.36
418.83	1886.47
419.02	1802.21
419.21	1832.64
419.39	1888.81
419.58	1788.17
419.77	1827.96
419.96	1830.30
420.15	1909.88
420.34	1830.30
420.53	1755.40
420.72	1839.66
420.91	1865.41
421.10	1907.54
421.29	2026.90
421.48	1895.83
421.67	1928.60
421.86	2001.16
422.05	2015.20
422.24	1949.67
422.43	1973.07
422.61	1952.01
422.80	2015.20
422.99	1982.43
423.18	1942.64
423.37	1909.88
423.56	1968.39
423.75	1947.33
423.94	1980.09
424.13	1846.68
424.32	1987.11
424.50	1905.20
424.69	1937.96
424.88	2190.74
425.07	1994.14
425.26	1975.41
425.45	2043.29
425.64	1984.77
425.83	2022.22
426.01	2106.48
426.20	2012.86
426.39	1998.82
426.58	2043.29
426.77	2066.69
426.96	2064.35
427.15	2054.99
427.33	2106.48
427.52	2174.36
427.71	2132.23
427.90	2176.70
428.09	2155.63
428.28	2118.18
428.46	2256.28
428.65	2104.14
428.84	2211.81
429.03	2148.61
429.22	2162.66
429.40	2218.83
429.59	2204.78
429.78	2162.66
429.97	2143.93
430.16	2366.28
430.34	2333.51
430.53	2333.51
430.72	2296.07
430.91	2352.24
431.10	2242.23
431.28	2349.90
431.47	2385.01
431.66	2394.37
431.85	2427.14
432.03	2443.52
432.22	2406.07
432.41	2466.92
432.60	2392.03
432.79	2422.45
432.97	2392.03
433.16	2502.03
433.35	2410.75
433.54	2558.21
433.72	2562.89
433.91	2375.64
434.10	2413.09
434.28	2485.65
434.47	2457.56
434.66	2483.31
434.85	2647.15
435.03	2637.78
435.22	2600.34
435.41	2787.58
435.59	2649.49
435.78	2656.51
435.97	2565.23
436.16	2658.85
436.34	2715.02
436.53	2672.89
436.72	2698.64
436.90	2642.46
437.09	2649.49
437.28	2682.25
437.46	2761.83
437.65	2761.83
437.84	2787.58
438.02	2658.85
438.21	2771.19
438.40	2656.51
438.58	2876.52
438.77	2864.82
438.96	2855.45
439.14	3054.40
439.33	2888.22
439.52	2953.76
439.70	2839.07
439.89	2981.84
440.08	3077.80
440.26	3061.42
440.45	2986.52
440.63	3117.59
440.82	3094.19
441.01	3091.85
441.19	3098.87
441.38	3194.83
441.57	3204.19
441.75	3138.66
441.94	3066.10
442.12	3178.45
442.31	3414.84
442.50	3304.84
442.68	3293.13
442.87	3192.49
443.05	3269.73
443.24	3346.97
443.43	3353.99
443.61	3346.97
443.80	3361.01
443.98	3302.50
444.17	3148.02
444.35	3260.37
444.54	3428.88
444.73	3377.39
444.91	3440.59
445.10	3433.57
445.28	3349.31
445.47	3419.52
445.65	3447.61
445.84	3407.82
446.02	3506.12
446.21	3400.80
446.39	3405.48
446.58	3389.10
446.77	3438.25
446.95	3412.50
447.14	3459.31
447.32	3468.67
447.51	3590.38
447.69	3459.31
447.88	3487.40
448.06	3473.36
448.25	3513.14
448.43	3517.83
448.62	3541.23
448.80	3552.93
448.99	3506.12
449.17	3599.74
449.36	3595.06
449.54	3550.59
449.73	3777.62
449.91	3702.73
450.10	3707.41
450.28	3749.54
450.46	3857.20
450.65	3691.02
450.83	3700.39
451.02	3737.84
451.20	3768.26
451.39	3749.54
451.57	3810.39
451.76	3777.62
451.94	3782.31
452.13	3695.71
452.31	3779.97
452.49	3700.39
452.68	3742.52
452.86	3857.20
453.05	3768.26
453.23	4021.04
453.42	3712.09
453.60	3775.28
453.78	4014.02
453.97	3948.48
454.15	3831.46
454.34	3929.76
454.52	3969.55
454.70	3985.93
454.89	4079.55
455.07	3969.55
455.26	3943.80
455.44	4088.92
455.62	4007.00
455.81	4046.79
455.99	4219.99
456.17	4074.87
456.36	4100.62
456.54	4175.52
456.73	4320.63
456.91	4325.31
457.09	4444.68
457.28	4430.63
457.46	4194.24
457.64	4250.41
457.83	4320.63
458.01	4212.96
458.19	4337.01
458.38	4222.33
458.56	4294.88
458.74	4341.69
458.93	4388.50
459.11	4442.34
459.29	4437.66
459.48	4514.89
459.66	4411.91
459.84	4573.41
460.03	4587.45
460.21	4561.70
460.39	4416.59
460.57	4538.30
460.76	4528.94
460.94	4575.75
461.12	4559.36
461.31	4585.11
461.49	4559.36
461.67	4559.36
461.85	4711.50
462.04	4842.57
462.22	4814.48
462.40	4795.76
462.59	4580.43
462.77	4762.99
462.95	4957.25
463.13	4578.09
463.32	4741.93
463.50	4875.34
463.68	4823.84
463.86	4823.84
464.05	4791.08
464.23	4807.46
464.41	4746.61
464.59	4760.65
464.78	4931.51
464.96	4940.87
465.14	4774.69
465.32	4966.62
465.50	4926.83
465.69	4870.65
465.87	4966.62
466.05	5018.11
466.23	4957.25
466.41	4980.66
466.60	5184.29
466.78	5043.85
466.96	4912.78
467.14	4894.06
467.32	5055.56
467.51	4992.36
467.69	5008.75
467.87	4987.68
468.05	5228.76
468.23	5118.75
468.41	5172.58
468.60	5107.05
468.78	5207.69
468.96	5195.99
469.14	5221.74
469.32	5268.55
469.50	5165.56
469.69	5287.27
469.87	5277.91
470.05	5481.53
470.23	5420.68
470.41	5270.89
470.59	5444.09
470.77	5394.93
470.95	5563.45
471.14	5549.41
471.32	5547.07
471.50	5490.90
471.68	5448.77
471.86	5441.75
472.04	5720.27
472.22	5830.27
472.40	5680.48
472.58	5593.88
472.77	5750.70
472.95	5696.86
473.13	5851.34
473.31	5774.10
473.49	5776.44
473.67	5797.51
473.85	5715.59
474.03	5912.19
474.21	5820.91
474.39	6050.28
474.57	6087.73
474.75	6148.59
474.93	6218.80
475.12	6176.67
475.30	6235.19
475.48	6029.22
475.66	6073.69
475.84	6296.04
476.02	6120.50
476.20	6256.25
476.38	6307.74
476.56	6342.85
476.74	6408.39
476.92	6516.05
477.10	6373.28
477.28	6684.57
477.46	6654.14
477.64	6789.89
477.82	6750.10
478.00	6780.53
478.18	6677.55
478.36	6967.77
478.54	6843.73
478.72	7066.08
478.90	7136.29
479.08	7185.44
479.26	7080.12
479.44	7318.86
479.62	7222.89
479.80	7316.51
479.98	7243.96
480.16	7557.59
480.34	7478.01
480.52	7487.37
480.70	7691.00
480.88	7583.34
481.06	7588.02
481.24	7625.47
481.41	7833.77
481.59	8032.72
481.77	7955.48
481.95	7798.66
482.13	8116.98
482.31	8067.83
482.49	8145.06
482.67	7999.95
482.85	8416.57
483.03	8484.44
483.21	8475.08
483.39	8781.69
483.57	8446.99
483.74	8645.94
483.92	8716.16
484.10	8608.49
484.28	8603.81
484.46	8999.36
484.64	9275.54
484.82	8975.95
485.00	8849.57
485.18	9036.81
485.35	9245.12
485.53	9305.97
485.71	9289.59
485.89	9486.19
486.07	9401.93
486.25	9432.36
486.43	9699.18
486.61	9692.16
486.78	9771.74
486.96	9958.98
487.14	10010.47
487.32	9865.36
487.50	9767.06
487.68	10040.90
487.85	10377.94
488.03	10523.05
488.21	10544.11
488.39	10523.05
488.57	10609.65
488.75	10532.41
488.92	10595.61
489.10	10745.40
489.28	10843.70
489.46	11014.56
489.64	10815.62
489.81	11101.16
489.99	11234.57
490.17	11101.16
490.35	11389.05
490.53	11360.96
490.70	11595.01
490.88	11543.52
491.06	11754.17
491.24	11803.32
491.41	11761.19
491.59	11831.41
491.77	11744.81
491.95	11988.22
492.13	11950.78
492.30	12210.57
492.48	12217.60
492.66	12226.96
492.84	12311.22
493.01	12306.54
493.19	12301.86
493.37	12519.53
493.54	12336.96
493.72	12809.75
493.90	12559.31
494.08	12945.50
494.25	13062.53
494.43	13055.51
494.61	13158.49
494.79	13104.66
494.96	13350.42
495.14	13261.48
495.32	13371.48
495.49	13135.09
495.67	13626.60
495.85	13640.64
496.02	13874.70
496.20	13813.84
496.38	13888.74
496.55	14003.43
496.73	13877.04
496.91	13975.34
497.09	14244.50
497.26	14176.62
497.44	14239.82
497.62	14150.88
497.79	14551.11
497.97	14195.35
498.14	14707.93
498.32	14801.55
498.50	14649.41
498.67	14831.97
498.85	14710.27
499.03	14862.40
499.20	14731.33
499.38	14986.45
499.56	14745.38
499.73	15201.78
499.91	15475.62
500.08	15400.72
500.26	15335.19
500.44	14949.00
500.61	15218.16
500.79	15171.35
500.97	15206.46
501.14	15859.47
501.32	15538.82
501.49	15630.10
501.67	15527.11
501.84	15747.12
502.02	15735.42
502.20	15836.06
502.37	16074.80
502.55	15726.06
502.72	15999.90
502.90	16168.42
503.07	16166.08
503.25	16360.34
503.43	16156.72
503.60	16203.53
503.78	16475.03
503.95	16643.55
504.13	16393.11
504.30	16283.11
504.48	16498.44
504.65	16767.60
504.83	16809.73
505.01	16510.14
505.18	16603.76
505.36	16989.95
505.53	16961.86
505.71	16802.71
505.88	16865.90
506.06	16898.67
506.23	17205.28
506.41	17041.44
506.58	17303.58
506.76	17170.17
506.93	17153.79
507.11	17214.64
507.28	17235.70
507.46	17355.07
507.63	17348.05
507.81	17502.53
507.98	17383.16
508.16	17397.20
508.33	17930.84
508.50	17762.33
508.68	17827.86
508.85	17853.61
509.03	17909.78
509.20	17888.71
509.38	18073.62
509.55	18178.94
509.73	18232.77
509.90	18188.30
510.08	18265.54
510.25	17930.84
510.42	18485.55
510.60	18445.76
510.77	18583.85
510.95	18616.62
511.12	18480.87
511.30	18513.64
511.47	18553.43
511.64	18398.95
511.82	18911.53
511.99	18700.88
512.17	18689.18
512.34	18658.75
512.51	18984.09
512.69	18747.69
512.86	18923.23
513.04	19194.73
513.21	19138.56
513.38	19260.27
513.56	19527.09
513.73	19365.59
513.90	19426.45
514.08	19365.59
514.25	19653.48
514.43	19405.38
514.60	19208.78
514.77	19847.74
514.95	19609.01
515.12	19749.44
515.29	19716.67
515.47	19648.80
515.64	19857.10
515.81	19763.48
515.99	20098.18
516.16	19995.20
516.33	20126.27
516.51	19932.00
516.68	20112.22
516.85	19873.49
517.03	20217.55
517.20	20025.62
517.37	20119.24
517.54	20292.44
517.72	20491.39
517.89	20255.00
518.06	20435.22
518.24	20423.51
518.41	20528.84
518.58	20465.64
518.75	20713.74
518.93	20638.84
519.10	20753.53
519.27	21308.24
519.45	20739.49
519.62	20601.40
519.79	20673.95
519.96	20816.72
520.14	21060.14
520.31	21099.93
520.48	21095.25
520.65	20938.43
520.83	21172.49
521.00	21025.03
521.17	20971.20
521.34	21146.74
521.52	21357.39
521.69	21392.50
521.86	21259.09
522.03	21998.70
522.20	21523.57
522.38	21715.49
522.55	21425.26
522.72	21708.47
522.89	21500.16
523.07	21853.58
523.24	22001.04
523.41	22040.82
523.58	21886.35
523.75	21942.52
523.92	21933.16
524.10	21799.75
524.27	22066.57
524.44	22197.64
524.61	22195.30
524.78	22054.87
524.96	22230.41
525.13	22113.38
525.30	22113.38
525.47	22532.34
525.64	22066.57
525.81	22752.35
525.98	22735.96
526.16	22288.92
526.33	22497.23
526.50	22614.26
526.67	22668.09
526.84	22473.82
527.01	22324.03
527.18	22651.70
527.36	23119.81
527.53	23012.15
527.70	23211.09
527.87	23023.85
528.04	22857.67
528.21	23264.92
528.38	22874.06
528.55	23073.00
528.72	23084.70
528.89	23346.84
529.07	23274.29
529.24	23042.57
529.41	23180.67
529.58	23183.01
529.75	23075.34
529.92	23255.56
530.09	23557.49
530.26	23396.00
530.43	23463.87
530.60	23187.69
530.77	23403.02
530.94	23442.81
531.11	23407.70
531.28	23384.29
531.46	23456.85
531.63	23742.39
531.80	23735.37
531.97	23955.38
532.14	23817.29
532.31	24004.53
532.48	23894.53
532.65	23857.08
532.82	23723.67
532.99	23747.08
533.16	24236.25
533.33	24173.05
533.50	24191.78
533.67	24325.19
533.84	24229.23
534.01	23840.70
534.18	23903.89
534.35	24603.71
534.52	24173.05
534.69	24526.47
534.86	24489.03
535.03	24334.55
535.20	24584.99
535.37	24140.29
535.54	24627.12
535.71	24414.13
535.88	24453.92
536.05	24201.14
536.22	24620.10
536.38	25060.12
536.55	24858.83
536.72	24650.52
536.89	24507.75
537.06	24699.67
537.23	24851.81
537.40	24662.22
537.57	24861.17
537.74	24985.22
537.91	25109.27
538.08	24641.16
538.25	24776.91
538.42	24893.94
538.59	25102.25
538.75	24610.73
538.92	25036.71
539.09	24929.05
539.26	24926.71
539.43	25097.56
539.60	25345.66
539.77	24910.32
539.94	25125.65
540.11	25322.26
540.28	25338.64
540.44	25010.96
540.61	25322.26
540.78	25401.83
540.95	25532.90
541.12	25102.25
541.29	25359.70
541.46	25736.53
541.62	25450.99
541.79	25408.86
541.96	24938.41
542.13	25675.68
542.30	25717.81
542.47	25893.35
542.63	25914.41
542.80	25806.75
542.97	26359.11
543.14	25970.58
543.31	25876.96
543.48	25993.99
543.64	26450.39
543.81	26127.40
543.98	26122.72
544.15	26106.34
544.32	26452.73
544.48	26230.38
544.65	26235.06
544.82	26632.96
544.99	26265.49
545.16	26429.33
545.32	26218.68
545.49	26361.45
545.66	26513.59
545.83	26508.91
546.00	26551.04
546.16	26478.48
546.33	26403.58
546.50	26263.15
546.67	26499.55
546.83	26405.92
547.00	26501.89
547.17	26707.85
547.34	26583.80
547.50	26611.89
547.67	26948.93
547.84	26955.95
548.00	26749.98
548.17	26944.25
548.34	26635.30
548.51	26871.69
548.67	26981.70
548.84	26792.11
549.01	26927.86
549.18	26944.25
549.34	26967.65
549.51	26611.89
549.68	27094.04
549.84	26890.41
550.01	27269.58
550.18	26876.37
550.34	27304.69
550.51	27386.61
550.68	27056.59
550.84	27159.58
551.01	27262.56
551.18	26948.93
551.34	26883.39
551.51	27103.40
551.68	27388.95
551.84	27274.26
552.01	27222.77
552.18	27351.50
552.34	27330.44
552.51	27487.25
552.68	27510.66
552.84	27185.32
553.01	27723.65
553.18	27337.46
553.34	27133.83
553.51	27655.77
553.67	27756.41
553.84	28119.20
554.01	27861.74
554.17	27917.91
554.34	27496.61
554.51	27562.15
554.67	27826.63
554.84	27674.49
555.00	27679.18
555.17	28268.99
555.33	27887.48
555.50	27878.12
555.67	27917.91
555.83	27590.24
556.00	27714.28
556.16	28133.24
556.33	27709.60
556.50	27779.82
556.66	28369.63
556.83	27597.26
556.99	27985.79
557.16	28119.20
557.32	28236.22
557.49	28194.09
557.65	27880.46
557.82	28147.28
557.98	28276.01
558.15	28313.46
558.32	28486.66
558.48	27878.12
558.65	28215.16
558.81	28226.86
558.98	28404.74
559.14	28119.20
559.31	28226.86
559.47	28250.27
559.64	28212.82
559.80	28044.30
559.97	28723.05
560.13	27936.63
560.30	28634.11
560.46	28451.55
560.63	28208.14
560.79	28414.10
560.96	28730.08
561.12	28645.82
561.29	28034.94
561.45	28472.62
561.61	28584.96
561.78	28570.92
561.94	28842.42
562.11	28971.15
562.27	28554.54
562.44	28041.96
562.60	28526.45
562.77	28809.65
562.93	28112.17
563.10	28711.35
563.26	28685.61
563.42	28804.97
563.59	28519.43
563.75	28676.24
563.92	28950.09
564.08	28620.07
564.24	28620.07
564.41	28416.44
564.57	28638.80
564.74	28861.15
564.90	28669.22
565.07	28954.77
565.23	28746.46
565.39	28570.92
565.56	28680.92
565.72	28467.94
565.88	28732.42
566.05	28807.31
566.21	28922.00
566.38	28879.87
566.54	28797.95
566.70	29160.73
566.87	29326.91
567.03	29010.94
567.19	29280.10
567.36	29149.03
567.52	28865.83
567.68	29193.50
567.85	28765.18
568.01	29109.24
568.17	29039.03
568.34	29394.79
568.50	28676.24
568.66	29039.03
568.83	29071.79
568.99	28947.75
569.15	28863.49
569.32	28940.72
569.48	28940.72
569.64	29099.88
569.81	28900.94
569.97	28945.41
570.13	29081.16
570.30	29120.95
570.46	28765.18
570.62	29195.84
570.78	28896.25
570.95	28727.74
571.11	29273.08
571.27	28833.06
571.43	29001.58
571.60	29455.64
571.76	28741.78
571.92	29266.06
572.09	29202.86
572.25	29317.55
572.41	29553.94
572.57	29319.89
572.74	29518.84
572.90	28968.81
573.06	29137.33
573.22	29252.02
573.38	28879.87
573.55	29134.99
573.71	29600.76
573.87	29603.10
574.03	29134.99
574.20	29661.61
574.36	28926.68
574.52	29053.07
574.68	29373.72
574.84	29472.03
575.01	29432.24
575.17	29296.49
575.33	28788.59
575.49	29242.65
575.65	29521.18
575.82	29460.32
575.98	29357.34
576.14	29345.64
576.30	29163.08
576.46	29308.19
576.62	29441.60
576.79	29301.17
576.95	29450.96
577.11	29329.25
577.27	29420.53
577.43	29638.20
577.59	29584.37
577.75	29385.43
577.92	29282.44
578.08	29160.73
578.24	29212.23
578.40	29142.01
578.56	29333.93
578.72	29312.87
578.88	29766.93
579.04	29645.23
579.21	29165.42
579.37	29385.43
579.53	29701.40
579.69	29532.88
579.85	29291.80
580.01	29411.17
580.17	29046.05
580.33	29282.44
580.49	29191.16
580.65	29837.15
580.82	29722.46
580.98	29575.01
581.14	29535.22
581.30	29434.58
581.46	29453.30
581.62	29298.83
581.78	29490.75
581.94	29710.76
582.10	29170.10
582.26	29102.22
582.42	29633.52
582.58	29401.81
582.74	29242.65
582.90	29315.21
583.06	29167.76
583.22	29205.20
583.38	29479.05
583.54	29420.53
583.70	29448.62
583.86	29893.32
584.02	29357.34
584.18	29701.40
584.34	29640.54
584.50	29921.41
584.66	29392.45
584.82	29252.02
584.98	29237.97
585.14	29745.87
585.30	29357.34
585.46	29422.87
585.62	29619.48
585.78	29619.48
585.94	29565.65
586.10	29558.63
586.26	29853.53
586.42	29596.07
586.58	29383.09
586.74	29617.14
586.90	29373.72
587.06	29537.56
587.22	29689.70
587.38	29720.12
587.54	29607.78
587.70	29820.77
587.86	29722.46
588.02	29837.15
588.18	29970.56
588.34	29460.32
588.49	29406.49
588.65	29748.21
588.81	29570.33
588.97	29745.87
589.13	29462.66
589.29	29460.32
589.45	29610.12
589.61	29408.83
589.77	30211.64
589.93	29883.96
590.08	29750.55
590.24	30246.74
590.40	30050.14
590.56	29647.57
590.72	29790.34
590.88	29500.11
591.04	29727.14
591.20	29956.52
591.35	29830.13
591.51	30054.82
591.67	29942.47
591.83	30019.71
591.99	29879.28
