SpectraSuite Data File
++++++++++++++++++++++++++++++++++++
Date: Fri Oct 18 13:58:19 GMT-05:00 2013
User: bianchi
Dark Spectrum Present: No
Reference Spectrum Present: No
Number of Sampled Component Spectra: 1
Spectrometers: USB2+H05261
Integration Time (usec): 50000 (USB2+H05261)
Spectra Averaged: 1 (USB2+H05261)
Boxcar Smoothing: 0 (USB2+H05261)
Correct for Electrical Dark: No (USB2+H05261)
Strobe/Lamp Enabled: No (USB2+H05261)
Correct for Detector Non-linearity: No (USB2+H05261)
Correct for Stray Light: No (USB2+H05261)
Number of Pixels in Processed Spectrum: 2048
>>>>>Begin Processed Spectral Data<<<<<
365.73	0.00
365.92	0.00
366.12	0.00
366.32	0.00
366.52	0.00
366.72	0.00
366.91	0.00
367.11	0.00
367.31	0.00
367.51	0.00
367.70	0.00
367.90	0.00
368.10	0.00
368.30	0.00
368.49	0.00
368.69	0.00
368.89	0.00
369.09	0.00
369.28	0.00
369.48	0.00
369.68	0.00
369.87	0.00
370.07	0.00
370.27	0.00
370.47	0.00
370.66	107.66
370.86	39.79
371.06	126.39
371.25	149.79
371.45	142.77
371.65	149.79
371.84	105.32
372.04	110.01
372.24	182.56
372.44	212.99
372.63	243.42
372.83	215.33
373.03	198.95
373.22	147.45
373.42	175.54
373.62	159.16
373.81	220.01
374.01	215.33
374.21	250.44
374.40	222.35
374.60	238.73
374.79	215.33
374.99	250.44
375.19	184.90
375.38	304.27
375.58	252.78
375.78	201.29
375.97	262.14
376.17	238.73
376.37	264.48
376.56	212.99
376.76	271.50
376.95	194.26
377.15	280.86
377.35	292.57
377.54	322.99
377.74	285.55
377.93	217.67
378.13	304.27
378.33	292.57
378.52	257.46
378.72	283.20
378.91	262.14
379.11	248.10
379.31	294.91
379.50	248.10
379.70	278.52
379.89	325.33
380.09	325.33
380.28	308.95
380.48	292.57
380.68	299.59
380.87	313.63
381.07	299.59
381.26	311.29
381.46	358.10
381.65	299.59
381.85	346.40
382.04	290.23
382.24	327.68
382.43	411.93
382.63	332.36
382.83	348.74
383.02	318.31
383.22	402.57
383.41	395.55
383.61	348.74
383.80	372.15
384.00	313.63
384.19	353.42
384.39	369.80
384.58	477.47
384.78	407.25
384.97	433.00
385.17	372.15
385.36	386.19
385.56	365.12
385.75	383.85
385.95	381.51
386.14	409.59
386.34	430.66
386.53	383.85
386.72	386.19
386.92	411.93
387.11	437.68
387.31	435.34
387.50	440.02
387.70	440.02
387.89	430.66
388.09	402.57
388.28	407.25
388.48	451.72
388.67	465.77
388.86	442.36
389.06	472.79
389.25	400.23
389.45	489.17
389.64	482.15
389.84	498.53
390.03	477.47
390.22	472.79
390.42	578.11
390.61	433.00
390.81	482.15
391.00	524.28
391.19	493.85
391.39	461.09
391.58	545.34
391.78	521.94
391.97	545.34
392.16	477.47
392.36	507.90
392.55	477.47
392.75	550.03
392.94	517.26
393.13	545.34
393.33	580.45
393.52	582.79
393.71	559.39
393.91	580.45
394.10	568.75
394.29	477.47
394.49	463.43
394.68	594.50
394.88	533.64
395.07	636.63
395.26	629.60
395.46	608.54
395.65	629.60
395.84	657.69
396.04	594.50
396.23	660.03
396.42	622.58
396.62	606.20
396.81	681.10
397.00	566.41
397.19	718.54
397.39	725.57
397.58	681.10
397.77	688.12
397.97	685.78
398.16	699.82
398.35	671.73
398.55	802.80
398.74	699.82
398.93	751.31
399.12	772.38
399.32	725.57
399.51	634.29
399.70	744.29
399.90	678.76
400.09	744.29
400.28	774.72
400.47	746.63
400.67	755.99
400.86	784.08
401.05	828.55
401.24	723.23
401.44	835.57
401.63	770.04
401.82	730.25
402.01	896.43
402.21	851.96
402.40	772.38
402.59	788.76
402.78	791.10
402.97	851.96
403.17	866.00
403.36	887.06
403.55	791.10
403.74	889.40
403.93	802.80
404.13	929.19
404.32	819.19
404.51	791.10
404.70	1013.45
404.89	877.70
405.09	983.02
405.28	940.90
405.47	1048.56
405.66	976.00
405.85	976.00
406.05	901.11
406.24	938.55
406.43	945.58
406.62	922.17
406.81	1025.15
407.00	978.34
407.20	985.37
407.39	1048.56
407.58	947.92
407.77	1069.62
407.96	1086.01
408.15	1078.99
408.34	1076.65
408.54	1095.37
408.73	997.07
408.92	1153.88
409.11	1090.69
409.30	1144.52
409.49	1217.08
409.68	1167.93
409.87	1167.93
410.07	1261.55
410.26	1310.70
410.45	1170.27
410.64	1226.44
410.83	1224.10
411.02	1100.05
411.21	1240.48
411.40	1259.21
411.59	1334.11
411.78	1273.25
411.98	1268.57
412.17	1226.44
412.36	1245.16
412.55	1352.83
412.74	1324.74
412.93	1282.61
413.12	1322.40
413.31	1467.52
413.50	1416.02
413.69	1458.15
413.88	1432.41
414.07	1430.07
414.26	1479.22
414.45	1387.94
414.64	1425.39
414.83	1359.85
415.02	1472.20
415.22	1521.35
415.41	1563.48
415.60	1523.69
415.79	1476.88
415.98	1551.78
416.17	1600.93
416.36	1596.25
416.55	1568.16
416.74	1722.63
416.93	1645.40
417.12	1626.67
417.31	1753.06
417.50	1724.97
417.69	1739.02
417.88	1699.23
418.07	1685.19
418.26	1748.38
418.45	1799.87
418.64	1741.36
418.83	1825.62
419.02	1715.61
419.21	1774.13
419.39	1813.92
419.58	1827.96
419.77	1781.15
419.96	1799.87
420.15	1881.79
420.34	1851.36
420.53	1842.00
420.72	1975.41
420.91	1923.92
421.10	2005.84
421.29	1968.39
421.48	1888.81
421.67	1849.02
421.86	1886.47
422.05	1818.60
422.24	2040.95
422.43	1952.01
422.61	1975.41
422.80	1930.94
422.99	1956.69
423.18	1902.86
423.37	2047.97
423.56	2026.90
423.75	1949.67
423.94	1987.11
424.13	1823.28
424.32	1830.30
424.50	2040.95
424.69	1989.46
424.88	2076.06
425.07	2094.78
425.26	2071.37
425.45	2040.95
425.64	2083.08
425.83	2122.87
426.01	2059.67
426.20	2066.69
426.39	2108.82
426.58	2125.21
426.77	2106.48
426.96	2129.89
427.15	2136.91
427.33	2176.70
427.52	2150.95
427.71	2136.91
427.90	2225.85
428.09	2167.34
428.28	2249.25
428.46	2256.28
428.65	2176.70
428.84	2216.49
429.03	2349.90
429.22	2090.10
429.40	2284.36
429.59	2202.44
429.78	2200.10
429.97	2204.78
430.16	2258.62
430.34	2211.81
430.53	2275.00
430.72	2321.81
430.91	2235.21
431.10	2361.60
431.28	2303.09
431.47	2349.90
431.66	2516.08
431.85	2296.07
432.03	2452.88
432.22	2537.14
432.41	2380.32
432.60	2499.69
432.79	2466.92
432.97	2471.61
433.16	2560.55
433.35	2504.37
433.54	2490.33
433.72	2562.89
433.91	2431.82
434.10	2438.84
434.28	2490.33
434.47	2450.54
434.66	2502.03
434.85	2574.59
435.03	2621.40
435.22	2562.89
435.41	2679.91
435.59	2696.30
435.78	2644.81
435.97	2558.21
436.16	2696.30
436.34	2640.12
436.53	2626.08
436.72	2766.51
436.90	2729.06
437.09	2710.34
437.28	2642.46
437.46	2710.34
437.65	2733.75
437.84	2862.48
438.02	2719.70
438.21	2846.09
438.40	2722.04
438.58	2799.28
438.77	2923.33
438.96	2906.95
439.14	2953.76
439.33	2998.23
439.52	2935.03
439.70	2970.14
439.89	2979.50
440.08	3047.38
440.26	3089.51
440.45	3080.14
440.63	3126.96
440.82	3054.40
441.01	3169.09
441.19	3150.36
441.38	3178.45
441.57	3239.30
441.75	3206.53
441.94	3148.02
442.12	3253.34
442.31	3342.28
442.50	3265.05
442.68	3304.84
442.87	3309.52
443.05	3262.71
443.24	3393.78
443.43	3438.25
443.61	3335.26
443.80	3564.64
443.98	3159.72
444.17	3220.58
444.35	3377.39
444.54	3311.86
444.73	3386.76
444.91	3452.29
445.10	3335.26
445.28	3433.57
445.47	3398.46
445.65	3398.46
445.84	3447.61
446.02	3527.19
446.21	3349.31
446.39	3480.38
446.58	3447.61
446.77	3529.53
446.95	3508.46
447.14	3463.99
447.32	3452.29
447.51	3492.08
447.69	3531.87
447.88	3368.03
448.06	3536.55
448.25	3529.53
448.43	3522.51
448.62	3452.29
448.80	3548.25
448.99	3506.12
449.17	3576.34
449.36	3555.27
449.54	3599.74
449.73	3583.36
449.91	3552.93
450.10	3796.35
450.28	3847.84
450.46	3847.84
450.65	3698.05
450.83	3733.15
451.02	3728.47
451.20	3707.41
451.39	3765.92
451.57	3688.68
451.76	3801.03
451.94	3812.73
452.13	3899.33
452.31	3911.04
452.49	3838.48
452.68	3777.62
452.86	3794.01
453.05	3929.76
453.23	3880.61
453.42	3941.46
453.60	3840.82
453.78	3822.09
453.97	3950.82
454.15	3896.99
454.34	3882.95
454.52	4030.40
454.70	4058.49
454.89	4018.70
455.07	4091.26
455.26	4234.03
455.44	4161.47
455.62	4161.47
455.81	4166.15
455.99	4166.15
456.17	4264.46
456.36	4210.62
456.54	4196.58
456.73	4304.25
456.91	4337.01
457.09	4194.24
457.28	4337.01
457.46	4283.18
457.64	4283.18
457.83	4257.43
458.01	4152.11
458.19	4470.42
458.38	4346.37
458.56	4386.16
458.74	4395.53
458.93	4432.97
459.11	4273.82
459.29	4346.37
459.48	4489.15
459.66	4477.44
459.84	4578.09
460.03	4704.48
460.21	4489.15
460.39	4472.76
460.57	4449.36
460.76	4554.68
460.94	4526.60
461.12	4547.66
461.31	4629.58
461.49	4667.03
461.67	4746.61
461.85	4880.02
462.04	4592.13
462.22	5055.56
462.40	4681.07
462.59	4713.84
462.77	4732.56
462.95	4746.61
463.13	4947.89
463.32	4793.42
463.50	4795.76
463.68	4725.54
463.86	4875.34
464.05	4933.85
464.23	4915.12
464.41	5008.75
464.59	4812.14
464.78	5018.11
464.96	4840.23
465.14	4882.36
465.32	5053.22
465.50	5048.54
465.69	4947.89
465.87	4938.53
466.05	5158.54
466.23	5032.15
466.41	5053.22
466.60	5078.96
466.78	5015.77
466.96	5004.07
467.14	4978.32
467.32	5029.81
467.51	5048.54
467.69	4994.70
467.87	5114.07
468.05	5111.73
468.23	5359.83
468.41	5111.73
468.60	5242.80
468.78	5408.98
468.96	5172.58
469.14	5263.86
469.32	5310.68
469.50	5203.01
469.69	5348.12
469.87	5411.32
470.05	5460.47
470.23	5380.89
470.41	5411.32
470.59	5497.92
470.77	5439.40
470.95	5474.51
471.14	5600.90
471.32	5441.75
471.50	5631.33
471.68	5647.71
471.86	5659.42
472.04	5614.95
472.22	5774.10
472.40	5600.90
472.58	5771.76
472.77	5809.21
472.95	5612.60
473.13	6125.18
473.31	5715.59
473.49	5884.11
473.67	5874.74
473.85	5933.26
474.03	6195.40
474.21	5874.74
474.39	6078.37
474.57	6045.60
474.75	6033.90
474.93	6094.76
475.12	6270.30
475.30	6223.48
475.48	6087.73
475.66	6188.38
475.84	6284.34
476.02	6347.53
476.20	6441.15
476.38	6546.48
476.56	6717.34
476.74	6630.74
476.92	6581.59
477.10	6436.47
477.28	6829.68
477.46	6551.16
477.64	6869.47
477.82	6834.36
478.00	6752.45
478.18	7077.78
478.36	7061.40
478.54	7059.06
478.72	7140.97
478.90	7019.27
479.08	7040.33
479.26	7290.77
479.44	7342.26
479.62	7466.31
479.80	7398.43
479.98	7403.11
480.16	7393.75
480.34	7506.10
480.52	7630.15
480.70	7709.72
480.88	7712.07
481.06	7658.23
481.24	7733.13
481.41	7742.49
481.59	7967.18
481.77	8016.33
481.95	8156.77
482.13	8156.77
482.31	8212.94
482.49	8304.22
482.67	8234.00
482.85	8259.75
483.03	8535.93
483.21	8615.51
483.39	8545.30
483.57	8580.40
483.74	8542.96
483.92	8627.21
484.10	8929.14
484.28	9060.21
484.46	9076.60
484.64	9334.06
484.82	9069.58
485.00	9137.45
485.18	9198.31
485.35	9488.53
485.53	9364.48
485.71	9490.87
485.89	9650.03
486.07	9329.38
486.25	9617.26
486.43	9633.64
486.61	9762.37
486.78	9912.17
486.96	10068.98
487.14	10061.96
487.32	9998.77
487.50	10167.29
487.68	10459.85
487.85	10307.72
488.03	10553.48
488.21	10490.28
488.39	10775.83
488.57	10672.84
488.75	10867.11
488.92	10757.10
489.10	11037.97
489.28	10846.04
489.46	11140.95
489.64	11028.60
489.81	11489.69
489.99	11365.64
490.17	11124.57
490.35	11742.47
490.53	11496.71
490.70	11765.87
490.88	11742.47
491.06	11737.79
491.24	11726.08
491.41	11726.08
491.59	11981.20
491.77	11831.41
491.95	12229.30
492.13	12336.96
492.30	12465.69
492.48	12411.86
492.66	12262.07
492.84	12374.41
493.01	12580.38
493.19	12545.27
493.37	12884.65
493.54	12753.58
493.72	13123.38
493.90	12760.60
494.08	13018.06
494.25	12905.71
494.43	13167.85
494.61	13305.95
494.79	13568.09
494.96	13280.20
495.14	13575.11
495.32	13628.94
495.49	13673.41
495.67	13727.24
495.85	13659.37
496.02	14066.62
496.20	13989.38
496.38	13916.83
496.55	13973.00
496.73	14239.82
496.91	14317.06
497.09	14380.25
497.26	14455.15
497.44	14398.98
497.62	14462.17
497.79	14670.48
497.97	14560.47
498.14	14743.03
498.32	14860.06
498.50	15033.26
498.67	15185.40
498.85	14853.04
499.03	15154.97
499.20	15002.83
499.38	15136.24
499.56	15433.49
499.73	15487.32
499.91	15655.84
500.08	15426.47
500.26	15272.00
500.44	15604.35
500.61	15377.32
500.79	15562.22
500.97	15653.50
501.14	15971.82
501.32	15665.21
501.49	15899.26
501.67	15868.83
501.84	16091.18
502.02	15756.49
502.20	16269.06
502.37	16123.95
502.55	16046.71
502.72	16189.49
502.90	16119.27
503.07	16271.40
503.25	16390.77
503.43	16224.59
503.60	16606.10
503.78	16468.01
503.95	16795.68
504.13	16933.78
504.30	16620.14
504.48	16774.62
504.65	17053.14
504.83	16709.08
505.01	17102.29
505.18	16912.71
505.36	17298.90
505.53	16964.20
505.71	17135.06
505.88	17102.29
506.06	16973.56
506.23	17226.34
506.41	17083.57
506.58	17490.82
506.76	17638.28
506.93	17563.38
507.11	17479.12
507.28	17687.43
507.46	17631.26
507.63	17776.37
507.81	17755.30
507.98	17860.63
508.16	18024.47
508.33	17797.43
508.50	17907.44
508.68	18216.39
508.85	18003.40
509.03	18104.04
509.20	18134.47
509.38	18532.36
509.55	18312.35
509.73	18270.22
509.90	18197.67
510.08	18602.58
510.25	18375.55
510.42	18396.61
510.60	18927.91
510.77	18913.87
510.95	18724.29
511.12	18707.90
511.30	18525.34
511.47	18808.54
511.64	18923.23
511.82	18986.43
511.99	19239.20
512.17	19351.55
512.34	19058.98
512.51	19318.78
512.69	19290.70
512.86	19501.34
513.04	19587.94
513.21	19344.53
513.38	19403.04
513.56	19625.39
513.73	19714.33
513.90	19482.62
514.08	19379.64
514.25	19641.78
514.43	19449.85
514.60	19826.68
514.77	19875.83
514.95	20205.84
515.12	19847.74
515.29	19803.27
515.47	20011.58
515.64	20402.45
515.81	20046.69
515.99	20287.76
516.16	20444.58
516.33	20437.56
516.51	20070.09
516.68	20051.37
516.85	20418.83
517.03	20442.24
517.20	20554.58
517.37	20795.66
517.54	20596.71
517.72	20774.60
517.89	20938.43
518.06	21128.02
518.24	20793.32
518.41	20655.23
518.58	20678.63
518.75	21158.44
518.93	21053.12
519.10	20987.58
519.27	21118.65
519.45	21039.08
519.62	20966.52
519.79	21289.51
519.96	21069.50
520.14	21357.39
520.31	21179.51
520.48	21661.66
520.65	21443.99
520.83	21523.57
521.00	21326.96
521.17	21425.26
521.34	21549.31
521.52	21818.47
521.69	21549.31
521.86	21656.98
522.03	21762.30
522.20	21617.19
522.38	21867.63
522.55	22082.95
522.72	21970.61
522.89	22040.82
523.07	22167.21
523.24	22120.40
523.41	22361.48
523.58	21975.29
523.75	22455.10
523.92	22059.55
524.10	22047.85
524.27	22398.93
524.44	22445.74
524.61	22602.55
524.78	22551.06
524.96	22721.92
525.13	22588.51
525.30	22548.72
525.47	22630.64
525.64	22443.40
525.81	22555.74
525.98	22993.42
526.16	22810.86
526.33	22562.76
526.50	23239.18
526.67	22677.45
526.84	22841.29
527.01	22946.61
527.18	23042.57
527.36	23161.94
527.53	23356.21
527.70	23449.83
527.87	23412.38
528.04	23498.98
528.21	23386.63
528.38	23398.34
528.55	23480.25
528.72	23477.91
528.89	23735.37
529.07	23442.81
529.24	23077.68
529.41	23653.45
529.58	23351.52
529.75	23398.34
529.92	23625.37
530.09	23534.09
530.26	23679.20
530.43	23763.46
530.60	23821.97
530.77	23707.29
530.94	23997.51
531.11	24037.30
531.28	23981.13
531.46	24027.94
531.63	24208.16
531.80	24002.19
531.97	24280.72
532.14	24339.23
532.31	24510.09
532.48	24034.96
532.65	24332.21
532.82	24285.40
532.99	24357.96
533.16	24538.18
533.33	24655.20
533.50	24556.90
533.67	24283.06
533.84	24128.58
534.01	24336.89
534.18	24482.00
534.35	24549.88
534.52	24353.27
534.69	25057.78
534.86	24673.93
535.03	24725.42
535.20	24802.66
535.37	24694.99
535.54	24465.62
535.71	24975.86
535.88	24781.59
536.05	24716.06
536.22	24854.15
536.38	24879.89
536.55	25008.62
536.72	24982.88
536.89	24514.77
537.06	25205.23
537.23	24924.36
537.40	24702.01
537.57	25235.66
537.74	25397.15
537.91	25465.03
538.08	25544.61
538.25	25301.19
538.42	25268.42
538.59	25617.16
538.75	25383.11
538.92	25504.82
539.09	25570.35
539.26	25146.72
539.43	25333.96
539.60	25717.81
539.77	25319.92
539.94	25469.71
540.11	25584.40
540.28	25497.80
540.44	25766.96
540.61	25797.38
540.78	25603.12
540.95	25888.67
541.12	25820.79
541.29	26052.50
541.46	25720.15
541.62	25699.08
541.79	25703.76
541.96	25776.32
542.13	25656.95
542.30	25914.41
542.47	26202.30
542.63	26384.86
542.80	26553.38
542.97	26181.23
543.14	26127.40
543.31	26513.59
543.48	26190.59
543.64	26590.83
543.81	26628.27
543.98	26466.78
544.15	26284.22
544.32	26546.36
544.48	27091.70
544.65	26733.60
544.82	26419.97
544.99	26448.05
545.16	26696.15
545.32	26663.38
545.49	27070.64
545.66	26721.90
545.83	26981.70
546.00	27044.89
546.16	26817.86
546.33	26642.32
546.50	26513.59
546.67	26988.72
546.83	26888.07
547.00	27342.14
547.17	27229.79
547.34	27206.39
547.50	27257.88
547.67	27587.89
547.84	27372.57
548.00	27143.19
548.17	27417.04
548.34	26962.97
548.51	27318.73
548.67	27494.27
548.84	27276.60
549.01	27197.02
549.18	27363.20
549.34	27136.17
549.51	27552.79
549.68	26845.94
549.84	27255.54
550.01	27384.27
550.18	27534.06
550.34	27431.08
550.51	27800.88
550.68	27826.63
550.84	27297.67
551.01	27630.02
551.18	27461.51
551.34	27449.80
551.51	27459.16
551.68	27531.72
551.84	27992.81
552.01	27803.22
552.18	28060.68
552.34	27592.58
552.51	28027.92
552.68	27761.09
552.84	28252.61
553.01	28004.51
553.18	28093.45
553.34	27807.90
553.51	27866.42
553.67	28102.81
553.84	27835.99
554.01	28170.69
554.17	28163.67
554.34	27960.04
554.51	27730.67
554.67	28095.79
554.84	28467.94
555.00	28041.96
555.17	28304.10
555.33	28334.53
555.50	28400.06
555.67	28009.19
555.83	28201.11
556.00	28271.33
556.16	28584.96
556.33	28423.47
556.50	28404.74
556.66	28519.43
556.83	28577.94
556.99	28877.53
557.16	28786.25
557.32	28563.90
557.49	29057.75
557.65	28390.70
557.82	28610.71
557.98	28423.47
558.15	28561.56
558.32	28613.05
558.48	28734.76
558.65	28837.74
558.81	28716.03
558.98	28858.81
559.14	28673.90
559.31	28414.10
559.47	28643.48
559.64	28690.29
559.80	28430.49
559.97	28828.38
560.13	28786.25
560.30	28872.85
560.46	29010.94
560.63	28755.82
560.79	29062.43
560.96	28830.72
561.12	28407.08
561.29	28851.78
561.45	29032.00
561.61	29172.44
561.78	28945.41
561.94	28968.81
562.11	29497.77
562.27	29024.98
562.44	29202.86
562.60	28732.42
562.77	28966.47
562.93	28615.39
563.10	29385.43
563.26	29308.19
563.42	29347.98
563.59	29261.38
563.75	29090.52
563.92	29099.88
564.08	29102.22
564.24	29081.16
564.41	28790.93
564.57	28980.51
564.74	29476.71
564.90	28900.94
565.07	29186.48
565.23	29006.26
565.39	29029.66
565.56	29411.17
565.72	29406.49
565.88	29521.18
566.05	28868.17
566.21	29556.28
566.38	29193.50
566.54	29191.16
566.70	29418.19
566.87	29628.84
567.03	29434.58
567.19	29610.12
567.36	29713.10
567.52	29635.86
567.68	29703.74
567.85	29338.62
568.01	29202.86
568.17	29809.06
568.34	29591.39
568.50	29397.13
568.66	29642.88
568.83	29687.36
568.99	29460.32
569.15	29305.85
569.32	29301.17
569.48	29420.53
569.64	29280.10
569.81	29401.81
569.97	29401.81
570.13	29610.12
570.30	29235.63
570.46	29769.27
570.62	29429.90
570.78	29486.07
570.95	29479.05
571.11	29830.13
571.27	29429.90
571.43	29006.26
571.60	29495.43
571.76	29867.58
571.92	29766.93
572.09	29692.04
572.25	29762.25
572.41	29898.00
572.57	30040.78
572.74	29722.46
572.90	29621.82
573.06	29720.12
573.22	29846.51
573.38	29846.51
573.55	29734.17
573.71	29839.49
573.87	30015.03
574.03	29846.51
574.20	29937.79
574.36	29535.22
574.52	29460.32
574.68	29244.99
574.84	29930.77
575.01	29780.98
575.17	29951.84
575.33	29558.63
575.49	29963.54
575.65	29687.36
575.82	29762.25
575.98	29991.62
576.14	29748.21
576.30	29954.18
576.46	29773.95
576.62	29692.04
576.79	29898.00
576.95	30040.78
577.11	29736.51
577.27	29474.37
577.43	29816.08
577.59	30000.99
577.75	29928.43
577.92	29699.06
578.08	29387.77
578.24	29837.15
578.40	29961.20
578.56	29535.22
578.72	29977.58
578.88	30352.07
579.04	30155.46
579.21	29972.90
579.37	29640.54
579.53	30045.46
579.69	29191.16
579.85	29839.49
580.01	29680.33
580.17	29626.50
580.33	29958.86
580.49	29928.43
580.65	29743.53
580.82	29930.77
580.98	30113.33
581.14	30141.42
581.30	29703.74
581.46	29633.52
581.62	29893.32
581.78	29745.87
581.94	29881.62
582.10	30017.37
582.26	30157.80
582.42	29785.66
582.58	30288.87
582.74	29560.97
582.90	29909.71
583.06	29963.54
583.22	29621.82
583.38	30302.92
583.54	29944.81
583.70	29654.59
583.86	29633.52
584.02	29710.76
584.18	30012.69
584.34	30455.05
584.50	30106.31
584.66	30115.67
584.82	29926.09
584.98	30291.21
585.14	30050.14
585.30	30148.44
585.46	29907.37
585.62	29933.11
585.78	30239.72
585.94	29818.42
586.10	29942.47
586.26	29963.54
586.42	30361.43
586.58	30331.00
586.74	29905.02
586.90	29827.79
587.06	29724.80
587.22	30057.16
587.38	29958.86
587.54	30466.75
587.70	30525.27
587.86	30560.37
588.02	30206.95
588.18	31042.53
588.34	30490.16
588.49	30141.42
588.65	29984.60
588.81	30228.02
588.97	30230.36
589.13	30576.76
589.29	30298.23
589.45	30110.99
589.61	30125.04
589.77	30623.57
589.93	30410.58
590.08	30340.36
590.24	30536.97
590.40	30429.30
590.56	30284.19
590.72	30192.91
590.88	29865.24
591.04	30183.55
591.20	30607.19
591.35	30473.78
591.51	30831.88
591.67	30462.07
591.83	31206.36
591.99	30527.61
