SpectraSuite Data File
++++++++++++++++++++++++++++++++++++
Date: Fri Oct 18 13:58:30 GMT-05:00 2013
User: bianchi
Dark Spectrum Present: No
Reference Spectrum Present: No
Number of Sampled Component Spectra: 1
Spectrometers: USB2+H05261
Integration Time (usec): 50000 (USB2+H05261)
Spectra Averaged: 1 (USB2+H05261)
Boxcar Smoothing: 0 (USB2+H05261)
Correct for Electrical Dark: No (USB2+H05261)
Strobe/Lamp Enabled: No (USB2+H05261)
Correct for Detector Non-linearity: No (USB2+H05261)
Correct for Stray Light: No (USB2+H05261)
Number of Pixels in Processed Spectrum: 2048
>>>>>Begin Processed Spectral Data<<<<<
365.73	0.00
365.92	0.00
366.12	0.00
366.32	0.00
366.52	0.00
366.72	0.00
366.91	0.00
367.11	0.00
367.31	0.00
367.51	0.00
367.70	0.00
367.90	0.00
368.10	0.00
368.30	0.00
368.49	0.00
368.69	0.00
368.89	0.00
369.09	0.00
369.28	0.00
369.48	0.00
369.68	0.00
369.87	0.00
370.07	0.00
370.27	0.00
370.47	0.00
370.66	117.03
370.86	121.71
371.06	135.75
371.25	149.79
371.45	95.96
371.65	142.77
371.84	140.43
372.04	114.69
372.24	175.54
372.44	128.73
372.63	229.37
372.83	187.24
373.03	217.67
373.22	177.88
373.42	189.58
373.62	140.43
373.81	212.99
374.01	252.78
374.21	227.03
374.40	205.97
374.60	210.65
374.79	252.78
374.99	234.05
375.19	241.08
375.38	229.37
375.58	271.50
375.78	252.78
375.97	292.57
376.17	243.42
376.37	236.39
376.56	278.52
376.76	294.91
376.95	205.97
377.15	231.71
377.35	276.18
377.54	325.33
377.74	341.72
377.93	290.23
378.13	229.37
378.33	327.68
378.52	386.19
378.72	301.93
378.91	278.52
379.11	234.05
379.31	264.48
379.50	252.78
379.70	304.27
379.89	294.91
380.09	313.63
380.28	322.99
380.48	327.68
380.68	278.52
380.87	262.14
381.07	252.78
381.26	304.27
381.46	330.02
381.65	395.55
381.85	360.44
382.04	353.42
382.24	273.84
382.43	332.36
382.63	358.10
382.83	407.25
383.02	318.31
383.22	353.42
383.41	297.25
383.61	273.84
383.80	334.70
384.00	369.80
384.19	332.36
384.39	435.34
384.58	318.31
384.78	358.10
384.97	337.04
385.17	276.18
385.36	355.76
385.56	421.30
385.75	306.61
385.95	376.83
386.14	430.66
386.34	379.17
386.53	397.89
386.72	325.33
386.92	369.80
387.11	395.55
387.31	383.85
387.50	379.17
387.70	449.38
387.89	360.44
388.09	407.25
388.28	383.85
388.48	486.83
388.67	362.78
388.86	475.13
389.06	449.38
389.25	435.34
389.45	500.87
389.64	465.77
389.84	519.60
390.03	465.77
390.22	498.53
390.42	358.10
390.61	470.45
390.81	390.87
391.00	400.23
391.19	535.98
391.39	533.64
391.58	498.53
391.78	510.24
391.97	531.30
392.16	521.94
392.36	603.86
392.55	575.77
392.75	575.77
392.94	540.66
393.13	491.51
393.33	510.24
393.52	557.05
393.71	538.32
393.91	615.56
394.10	468.11
394.29	606.20
394.49	559.39
394.68	559.39
394.88	557.05
395.07	573.43
395.26	589.82
395.46	617.90
395.65	564.07
395.84	622.58
396.04	662.37
396.23	585.13
396.42	559.39
396.62	671.73
396.81	629.60
397.00	631.94
397.19	580.45
397.39	592.16
397.58	634.29
397.77	561.73
397.97	641.31
398.16	636.63
398.35	643.65
398.55	723.23
398.74	643.65
398.93	671.73
399.12	648.33
399.32	636.63
399.51	683.44
399.70	720.88
399.90	657.69
400.09	723.23
400.28	702.16
400.47	791.10
400.67	706.84
400.86	711.52
401.05	699.82
401.24	819.19
401.44	770.04
401.63	833.23
401.82	753.65
402.01	692.80
402.21	760.67
402.40	725.57
402.59	802.80
402.78	772.38
402.97	821.53
403.17	912.81
403.36	851.96
403.55	910.47
403.74	894.08
403.93	837.91
404.13	908.13
404.32	901.11
404.51	887.06
404.70	861.32
404.89	891.74
405.09	898.77
405.28	870.68
405.47	990.05
405.66	954.94
405.85	957.28
406.05	919.83
406.24	1001.75
406.43	1036.86
406.62	954.94
406.81	973.66
407.00	959.62
407.20	959.62
407.39	889.40
407.58	1074.31
407.77	997.07
407.96	1062.60
408.15	1069.62
408.34	999.41
408.54	973.66
408.73	1050.90
408.92	1076.65
409.11	1074.31
409.30	994.73
409.49	1116.44
409.68	1153.88
409.87	1086.01
410.07	1114.10
410.26	1071.97
410.45	1121.12
410.64	1132.82
410.83	1156.22
411.02	1146.86
411.21	1226.44
411.40	1294.32
411.59	1184.31
411.78	1196.01
411.98	1191.33
412.17	1303.68
412.36	1270.91
412.55	1167.93
412.74	1277.93
412.93	1348.15
413.12	1348.15
413.31	1355.17
413.50	1317.72
413.69	1338.79
413.88	1226.44
414.07	1385.60
414.26	1401.98
414.45	1460.49
414.64	1387.94
414.83	1406.66
415.02	1493.26
415.22	1493.26
415.41	1458.15
415.60	1598.59
415.79	1565.82
415.98	1598.59
416.17	1556.46
416.36	1584.54
416.55	1535.39
416.74	1605.61
416.93	1647.74
417.12	1703.91
417.31	1600.93
417.50	1591.56
417.69	1696.89
417.88	1666.46
418.07	1724.97
418.26	1769.44
418.45	1750.72
418.64	1774.13
418.83	1666.46
419.02	1732.00
419.21	1703.91
419.39	1839.66
419.58	1771.79
419.77	1713.27
419.96	1834.98
420.15	1851.36
420.34	1860.73
420.53	1877.11
420.72	1893.49
420.91	1888.81
421.10	1788.17
421.29	1926.26
421.48	1870.09
421.67	1944.99
421.86	1923.92
422.05	2064.35
422.24	1916.90
422.43	1952.01
422.61	1870.09
422.80	1926.26
422.99	1944.99
423.18	1954.35
423.37	1900.52
423.56	2066.69
423.75	1989.46
423.94	1870.09
424.13	1792.85
424.32	1886.47
424.50	1975.41
424.69	1919.24
424.88	2017.54
425.07	1961.37
425.26	1982.43
425.45	2022.22
425.64	2083.08
425.83	2066.69
426.01	2153.29
426.20	1973.07
426.39	2038.61
426.58	2038.61
426.77	1956.69
426.96	1994.14
427.15	2052.65
427.33	2080.74
427.52	2069.03
427.71	2118.18
427.90	2139.25
428.09	2188.40
428.28	2097.12
428.46	2204.78
428.65	2167.34
428.84	2239.89
429.03	2188.40
429.22	2129.89
429.40	2235.21
429.59	2225.85
429.78	2026.90
429.97	2083.08
430.16	2122.87
430.34	2216.49
430.53	2225.85
430.72	2174.36
430.91	2263.30
431.10	2218.83
431.28	2347.56
431.47	2307.77
431.66	2373.30
431.85	2232.87
432.03	2452.88
432.22	2422.45
432.41	2368.62
432.60	2466.92
432.79	2303.09
432.97	2499.69
433.16	2406.07
433.35	2373.30
433.54	2436.50
433.72	2466.92
433.91	2396.71
434.10	2403.73
434.28	2443.52
434.47	2471.61
434.66	2436.50
434.85	2487.99
435.03	2506.71
435.22	2560.55
435.41	2640.12
435.59	2537.14
435.78	2661.19
435.97	2541.82
436.16	2574.59
436.34	2621.40
436.53	2679.91
436.72	2712.68
436.90	2668.21
437.09	2689.28
437.28	2602.68
437.46	2761.83
437.65	2630.76
437.84	2778.22
438.02	2588.63
438.21	2729.06
438.40	2745.45
438.58	2818.00
438.77	2789.92
438.96	2876.52
439.14	2803.96
439.33	2974.82
439.52	2932.69
439.70	3030.99
439.89	2991.20
440.08	2904.60
440.26	2977.16
440.45	2995.89
440.63	3005.25
440.82	3000.57
441.01	2998.23
441.19	3098.87
441.38	3012.27
441.57	3117.59
441.75	3124.62
441.94	3330.58
442.12	3190.15
442.31	3138.66
442.50	3307.18
442.68	3236.96
442.87	3330.58
443.05	3108.23
443.24	3410.16
443.43	3218.24
443.61	3232.28
443.80	3522.51
443.98	3339.94
444.17	3068.44
444.35	3342.28
444.54	3262.71
444.73	3494.42
444.91	3222.92
445.10	3318.88
445.28	3192.49
445.47	3316.54
445.65	3431.23
445.84	3461.65
446.02	3534.21
446.21	3379.73
446.39	3403.14
446.58	3283.77
446.77	3328.24
446.95	3323.56
447.14	3342.28
447.32	3412.50
447.51	3295.47
447.69	3438.25
447.88	3506.12
448.06	3438.25
448.25	3293.13
448.43	3496.76
448.62	3403.14
448.80	3386.76
448.99	3520.17
449.17	3492.08
449.36	3459.31
449.54	3396.12
449.73	3602.08
449.91	3695.71
450.10	3480.38
450.28	3709.75
450.46	3599.74
450.65	3634.85
450.83	3782.31
451.02	3634.85
451.20	3733.15
451.39	3698.05
451.57	3719.11
451.76	3644.21
451.94	3562.30
452.13	3918.06
452.31	3794.01
452.49	3754.22
452.68	3723.79
452.86	3735.50
453.05	3789.33
453.23	3854.86
453.42	3740.18
453.60	3648.90
453.78	3871.25
453.97	3880.61
454.15	3782.31
454.34	3843.16
454.52	3908.69
454.70	3887.63
454.89	3927.42
455.07	3918.06
455.26	4063.17
455.44	4091.26
455.62	3941.46
455.81	3950.82
455.99	4004.66
456.17	4007.00
456.36	3985.93
456.54	4037.42
456.73	4133.39
456.91	4095.94
457.09	4189.56
457.28	4198.92
457.46	4243.39
457.64	4191.90
457.83	4255.09
458.01	4201.26
458.19	4262.12
458.38	4154.45
458.56	4285.52
458.74	4348.72
458.93	4339.35
459.11	4437.66
459.29	4287.86
459.48	4358.08
459.66	4416.59
459.84	4358.08
460.03	4409.57
460.21	4224.67
460.39	4514.89
460.57	4353.40
460.76	4503.19
460.94	4489.15
461.12	4545.32
461.31	4500.85
461.49	4503.19
461.67	4575.75
461.85	4601.49
462.04	4545.32
462.22	4702.14
462.40	4704.48
462.59	4664.69
462.77	4587.45
462.95	4739.58
463.13	4681.07
463.32	4718.52
463.50	4634.26
463.68	4622.56
463.86	4812.14
464.05	4674.05
464.23	4800.44
464.41	4926.83
464.59	4667.03
464.78	4741.93
464.96	4755.97
465.14	4842.57
465.32	4966.62
465.50	4851.93
465.69	5006.41
465.87	4884.70
466.05	4987.68
466.23	4833.21
466.41	4819.16
466.60	5055.56
466.78	4957.25
466.96	4891.72
467.14	4961.94
467.32	4919.81
467.51	5046.20
467.69	4959.60
467.87	5034.49
468.05	5060.24
468.23	5104.71
468.41	5088.32
468.60	5177.26
468.78	5144.50
468.96	5069.60
469.14	5085.98
469.32	5217.05
469.50	5039.17
469.69	5277.91
469.87	5385.57
470.05	5100.03
470.23	5212.37
470.41	5305.99
470.59	5301.31
470.77	5345.78
470.95	5352.81
471.14	5479.19
471.32	5320.04
471.50	5364.51
471.68	5364.51
471.86	5430.04
472.04	5469.83
472.22	5661.76
472.40	5551.75
472.58	5301.31
472.77	5598.56
472.95	5561.11
473.13	5678.14
473.31	5713.25
473.49	5598.56
473.67	5687.50
473.85	5865.38
474.03	5891.13
474.21	5699.20
474.39	5858.36
474.57	5853.68
474.75	6069.01
474.93	6073.69
475.12	5984.75
475.30	5968.37
475.48	6083.05
475.66	6134.54
475.84	6143.91
476.02	6305.40
476.20	6101.78
476.38	6015.18
476.56	6282.00
476.74	6443.49
476.92	6319.45
477.10	6300.72
477.28	6480.94
477.46	6396.68
477.64	6576.91
477.82	6705.63
478.00	6665.85
478.18	6677.55
478.36	6817.98
478.54	6904.58
478.72	6843.73
478.90	6761.81
479.08	6970.12
479.26	7073.10
479.44	7082.46
479.62	7246.30
479.80	7206.51
479.98	7178.42
480.16	7332.90
480.34	7246.30
480.52	7613.76
480.70	7573.97
480.88	7463.97
481.06	7611.42
481.24	7363.33
481.41	7761.22
481.59	7592.70
481.77	7772.92
481.95	7824.41
482.13	7859.52
482.31	7796.32
482.49	8065.49
482.67	8156.77
482.85	8198.90
483.03	8114.64
483.21	8355.71
483.39	8454.02
483.57	8386.14
483.74	8393.16
483.92	8454.02
484.10	8540.61
484.28	8542.96
484.46	9008.72
484.64	8959.57
484.82	8788.71
485.00	8847.22
485.18	9100.00
485.35	9392.57
485.53	9057.87
485.71	9338.74
485.89	9401.93
486.07	9259.16
486.25	9205.33
486.43	9474.49
486.61	9535.34
486.78	9650.03
486.96	9825.57
487.14	9785.78
487.32	9497.89
487.50	9863.02
487.68	9851.31
487.85	9963.66
488.03	10202.40
488.21	10459.85
488.39	10359.21
488.57	10296.02
488.75	10480.92
488.92	10616.67
489.10	10654.12
489.28	10537.09
489.46	10633.05
489.64	10757.10
489.81	10970.09
489.99	11016.90
490.17	11105.84
490.35	11154.99
490.53	11229.89
490.70	11346.92
490.88	11342.24
491.06	11599.70
491.24	11370.32
491.41	11281.38
491.59	11623.10
491.77	11590.33
491.95	11899.28
492.13	11808.00
492.30	11871.20
492.48	12020.99
492.66	11918.01
492.84	12016.31
493.01	12292.49
493.19	12241.00
493.37	12372.07
493.54	12257.39
493.72	12430.59
493.90	12472.71
494.08	12493.78
494.25	12882.31
494.43	12765.28
494.61	12751.24
494.79	12982.95
494.96	12961.89
495.14	12931.46
495.32	13259.13
495.49	13177.22
495.67	13013.38
495.85	13411.27
496.02	13640.64
496.20	13671.07
496.38	13624.26
496.55	13694.47
496.73	13790.44
496.91	13839.59
497.09	14115.77
497.26	13954.27
497.44	13965.98
497.62	14225.78
497.79	14408.34
497.97	14122.79
498.14	14328.76
498.32	14555.79
498.50	14455.15
498.67	14417.70
498.85	14572.18
499.03	14537.07
499.20	14614.30
499.38	14768.78
499.56	14871.76
499.73	14963.04
499.91	14728.99
500.08	15080.07
500.26	14902.19
500.44	15096.46
500.61	15161.99
500.79	15367.96
500.97	15325.83
501.14	15667.55
501.32	15424.13
501.49	15424.13
501.67	15194.76
501.84	15496.69
502.02	15611.37
502.20	15690.95
502.37	15990.54
502.55	15648.82
502.72	15793.94
502.90	15903.94
503.07	15587.97
503.25	15850.11
503.43	15985.86
503.60	15981.18
503.78	15861.81
503.95	16133.31
504.13	16358.00
504.30	16355.66
504.48	15882.88
504.65	16240.98
504.83	16301.83
505.01	16348.64
505.18	16671.64
505.36	16732.49
505.53	16739.51
505.71	16376.73
505.88	16580.36
506.06	16655.25
506.23	17050.80
506.41	16702.06
506.58	16851.86
506.76	16835.47
506.93	17149.11
507.11	17121.02
507.28	17188.89
507.46	17022.72
507.63	17305.92
507.81	17645.30
507.98	17343.37
508.16	17156.13
508.33	17238.05
508.50	17465.08
508.68	17593.81
508.85	17781.05
509.03	17481.46
509.20	17507.21
509.38	18202.35
509.55	17937.87
509.73	17888.71
509.90	18012.76
510.08	17769.35
510.25	17970.63
510.42	18200.01
510.60	18169.58
510.77	18317.03
510.95	18743.01
511.12	17965.95
511.30	18157.88
511.47	18008.08
511.64	18443.42
511.82	18675.13
511.99	18684.50
512.17	18476.19
512.34	18616.62
512.51	18581.51
512.69	18862.38
512.86	18841.31
513.04	18838.97
513.21	18574.49
513.38	19145.58
513.56	19286.01
513.73	18867.06
513.90	19033.24
514.08	18794.50
514.25	18827.27
514.43	19119.84
514.60	19456.87
514.77	19087.07
514.95	19323.46
515.12	19250.91
515.29	19274.31
515.47	19716.67
515.64	19513.05
515.81	19435.81
515.99	19243.88
516.16	19660.50
516.33	20149.67
516.51	19784.55
516.68	19665.18
516.85	19913.28
517.03	19756.46
517.20	19915.62
517.37	20126.27
517.54	19786.89
517.72	20173.08
517.89	19852.42
518.06	20140.31
518.24	20147.33
518.41	20247.97
518.58	20367.34
518.75	20255.00
518.93	20505.43
519.10	20327.55
519.27	20444.58
519.45	20620.12
519.62	20676.29
519.79	20147.33
519.96	20615.44
520.14	20842.47
520.31	20648.21
520.48	20868.22
520.65	20765.23
520.83	20723.10
521.00	20877.58
521.17	20776.94
521.34	21130.36
521.52	20926.73
521.69	20800.34
521.86	21172.49
522.03	21113.97
522.20	21195.89
522.38	20975.88
522.55	21511.86
522.72	21490.80
522.89	21343.35
523.07	21523.57
523.24	21369.09
523.41	21708.47
523.58	21366.75
523.75	21741.24
523.92	21495.48
524.10	21617.19
524.27	21762.30
524.44	21888.69
524.61	21816.13
524.78	21724.85
524.96	21874.65
525.13	21893.37
525.30	21626.55
525.47	22122.74
525.64	21905.07
525.81	22167.21
525.98	21968.27
526.16	22253.81
526.33	21825.50
526.50	22300.62
526.67	22085.30
526.84	22361.48
527.01	22253.81
527.18	22427.01
527.36	22347.44
527.53	22635.32
527.70	22752.35
527.87	22958.31
528.04	22829.59
528.21	22719.58
528.38	22548.72
528.55	22794.48
528.72	22621.28
528.89	22757.03
529.07	22895.12
529.24	22815.54
529.41	23185.35
529.58	23136.20
529.75	22909.16
529.92	22899.80
530.09	23061.30
530.26	22904.48
530.43	22913.84
530.60	22953.63
530.77	22658.73
530.94	23452.17
531.11	23161.94
531.28	23339.82
531.46	23211.09
531.63	23143.22
531.80	23360.89
531.97	23576.22
532.14	23456.85
532.31	23398.34
532.48	23403.02
532.65	23522.38
532.82	23358.55
532.99	23737.71
533.16	23831.33
533.33	23978.79
533.50	24046.66
533.67	23807.93
533.84	23674.52
534.01	23878.15
534.18	23999.85
534.35	23754.10
534.52	23761.12
534.69	24049.00
534.86	24018.58
535.03	23824.31
535.20	24482.00
535.37	24088.79
535.54	24025.60
535.71	24025.60
535.88	23878.15
536.05	23931.98
536.22	24292.42
536.38	24510.09
536.55	24070.07
536.72	24339.23
536.89	23828.99
537.06	24421.15
537.23	24580.31
537.40	24009.22
537.57	24292.42
537.74	24587.33
537.91	24730.10
538.08	24231.57
538.25	24631.80
538.42	24704.35
538.59	24311.14
538.75	24556.90
538.92	24769.89
539.09	24577.97
539.26	24666.91
539.43	24767.55
539.60	24512.43
539.77	24687.97
539.94	24519.45
540.11	24968.84
540.28	24950.11
540.44	25160.76
540.61	25109.27
540.78	24987.56
540.95	24886.92
541.12	24844.79
541.29	25078.84
541.46	24659.88
541.62	25207.57
541.79	25008.62
541.96	25099.90
542.13	24968.84
542.30	25076.50
542.47	25247.36
542.63	25179.48
542.80	25343.32
542.97	25671.00
543.14	25663.97
543.31	25813.77
543.48	25652.27
543.64	25961.22
543.81	25453.33
543.98	25710.78
544.15	25404.17
544.32	25879.30
544.48	26047.82
544.65	25654.61
544.82	25736.53
544.99	25443.96
545.16	25671.00
545.32	25572.69
545.49	26089.95
545.66	26106.34
545.83	25991.65
546.00	26211.66
546.16	25699.08
546.33	25621.84
546.50	25645.25
546.67	26347.41
546.83	25804.41
547.00	25785.68
547.17	26244.43
547.34	26441.03
547.50	26335.71
547.67	26522.95
547.84	26244.43
548.00	26579.12
548.17	26375.50
548.34	26473.80
548.51	26661.04
548.67	26527.63
548.84	26796.79
549.01	26450.39
549.18	26455.08
549.34	26635.30
549.51	26473.80
549.68	26284.22
549.84	26469.12
550.01	26567.42
550.18	26532.31
550.34	26857.65
550.51	27082.34
550.68	26974.67
550.84	26637.64
551.01	26787.43
551.18	26536.99
551.34	26291.24
551.51	26780.41
551.68	26934.88
551.84	26911.48
552.01	26820.20
552.18	27098.72
552.34	26691.47
552.51	26902.12
552.68	26962.97
552.84	26380.18
553.01	27344.48
553.18	27054.25
553.34	26820.20
553.51	26897.44
553.67	27269.58
553.84	27297.67
554.01	27379.59
554.17	27536.40
554.34	27304.69
554.51	27000.42
554.67	27243.84
554.84	27470.87
555.00	27428.74
555.17	27321.07
555.33	27325.75
555.50	27110.43
555.67	27220.43
555.83	27758.75
556.00	27349.16
556.16	27725.99
556.33	27360.86
556.50	27325.75
556.66	27866.42
556.83	27515.34
556.99	27608.96
557.16	28177.71
557.32	27571.51
557.49	28116.86
557.65	27400.65
557.82	27562.15
557.98	27580.87
558.15	27466.19
558.32	28226.86
558.48	27828.97
558.65	27835.99
558.81	27693.22
558.98	27723.65
559.14	27875.78
559.31	27527.04
559.47	27840.67
559.64	27896.85
559.80	28072.39
559.97	27868.76
560.13	28144.94
560.30	27967.06
560.46	28407.08
560.63	28154.30
560.79	27814.93
560.96	28112.17
561.12	27723.65
561.29	27817.27
561.45	27857.06
561.61	28325.16
561.78	28020.89
561.94	28149.62
562.11	28381.34
562.27	28264.31
562.44	28056.00
562.60	28056.00
562.77	27981.10
562.93	28158.99
563.10	28306.44
563.26	28116.86
563.42	28517.09
563.59	28236.22
563.75	28077.07
563.92	28559.22
564.08	27835.99
564.24	28280.69
564.41	27835.99
564.57	28453.89
564.74	28271.33
564.90	28545.17
565.07	28510.07
565.23	28580.28
565.39	28444.53
565.56	28531.13
565.72	28149.62
565.88	28212.82
566.05	27957.70
566.21	28276.01
566.38	28456.23
566.54	28788.59
566.70	28772.21
566.87	28606.03
567.03	28547.51
567.19	28793.27
567.36	28432.83
567.52	28510.07
567.68	28510.07
567.85	28444.53
568.01	28861.15
568.17	28503.04
568.34	28669.22
568.50	28449.21
568.66	28671.56
568.83	28802.63
568.99	28430.49
569.15	28606.03
569.32	28692.63
569.48	28884.55
569.64	28435.17
569.81	28690.29
569.97	28472.62
570.13	28732.42
570.30	28430.49
570.46	28819.02
570.62	28762.84
570.78	28596.67
570.95	28673.90
571.11	28753.48
571.27	28503.04
571.43	28559.22
571.60	28891.57
571.76	28563.90
571.92	29088.18
572.09	28879.87
572.25	28975.83
572.41	28613.05
572.57	28758.16
572.74	29308.19
572.90	28751.14
573.06	28931.36
573.22	28622.41
573.38	29001.58
573.55	28940.72
573.71	29113.92
573.87	28868.17
574.03	28617.73
574.20	29340.96
574.36	28912.64
574.52	28762.84
574.68	28765.18
574.84	28711.35
575.01	28922.00
575.17	28636.45
575.33	28559.22
575.49	29041.37
575.65	28664.54
575.82	29034.35
575.98	28643.48
576.14	29020.30
576.30	28814.34
576.46	28889.23
576.62	28563.90
576.79	28730.08
576.95	28891.57
577.11	28943.06
577.27	29170.10
577.43	28945.41
577.59	29067.11
577.75	29013.28
577.92	28919.66
578.08	28774.55
578.24	28713.69
578.40	28924.34
578.56	29032.00
578.72	28879.87
578.88	28835.40
579.04	29233.29
579.21	28716.03
579.37	29104.56
579.53	28797.95
579.69	28591.98
579.85	28914.98
580.01	28947.75
580.17	28922.00
580.33	28659.86
580.49	28936.04
580.65	29153.71
580.82	29172.44
580.98	29244.99
581.14	29254.36
581.30	29039.03
581.46	29151.37
581.62	28914.98
581.78	28896.25
581.94	28914.98
582.10	28978.17
582.26	29022.64
582.42	28680.92
582.58	29179.46
582.74	28753.48
582.90	29081.16
583.06	29221.59
583.22	29200.52
583.38	28835.40
583.54	29048.39
583.70	29048.39
583.86	28905.62
584.02	29308.19
584.18	29174.78
584.34	28985.19
584.50	29319.89
584.66	28989.88
584.82	28877.53
584.98	28788.59
585.14	29151.37
585.30	28591.98
585.46	29460.32
585.62	29195.84
585.78	29029.66
585.94	28875.19
586.10	28987.53
586.26	28957.11
586.42	29380.74
586.58	29191.16
586.74	29020.30
586.90	28481.98
587.06	28870.51
587.22	29050.73
587.38	28863.49
587.54	29406.49
587.70	29181.80
587.86	29289.46
588.02	29614.80
588.18	29249.67
588.34	29378.40
588.49	29252.02
588.65	29130.31
588.81	29120.95
588.97	29549.26
589.13	29142.01
589.29	29521.18
589.45	29230.95
589.61	29631.18
589.77	29591.39
589.93	29413.51
590.08	29310.53
590.24	29296.49
590.40	29450.96
590.56	29436.92
590.72	29347.98
590.88	29127.97
591.04	29015.62
591.20	29523.52
591.35	29582.03
591.51	29504.79
591.67	29507.13
591.83	29626.50
591.99	29228.61
