SpectraSuite Data File
++++++++++++++++++++++++++++++++++++
Date: Fri Oct 18 13:58:01 GMT-05:00 2013
User: bianchi
Dark Spectrum Present: No
Reference Spectrum Present: No
Number of Sampled Component Spectra: 1
Spectrometers: USB2+H05261
Integration Time (usec): 50000 (USB2+H05261)
Spectra Averaged: 1 (USB2+H05261)
Boxcar Smoothing: 0 (USB2+H05261)
Correct for Electrical Dark: No (USB2+H05261)
Strobe/Lamp Enabled: No (USB2+H05261)
Correct for Detector Non-linearity: No (USB2+H05261)
Correct for Stray Light: No (USB2+H05261)
Number of Pixels in Processed Spectrum: 2048
>>>>>Begin Processed Spectral Data<<<<<
365.73	0.00
365.92	0.00
366.12	0.00
366.32	0.00
366.52	0.00
366.72	0.00
366.91	0.00
367.11	0.00
367.31	0.00
367.51	0.00
367.70	0.00
367.90	0.00
368.10	0.00
368.30	0.00
368.49	0.00
368.69	0.00
368.89	0.00
369.09	0.00
369.28	0.00
369.48	0.00
369.68	0.00
369.87	0.00
370.07	0.00
370.27	0.00
370.47	0.00
370.66	74.90
370.86	98.30
371.06	166.18
371.25	177.88
371.45	74.90
371.65	58.51
371.84	107.66
372.04	156.82
372.24	149.79
372.44	187.24
372.63	222.35
372.83	245.76
373.03	271.50
373.22	262.14
373.42	177.88
373.62	191.92
373.81	252.78
374.01	170.86
374.21	245.76
374.40	280.86
374.60	198.95
374.79	245.76
374.99	212.99
375.19	276.18
375.38	257.46
375.58	257.46
375.78	205.97
375.97	280.86
376.17	313.63
376.37	259.80
376.56	236.39
376.76	208.31
376.95	320.65
377.15	273.84
377.35	231.71
377.54	259.80
377.74	318.31
377.93	234.05
378.13	273.84
378.33	344.06
378.52	203.63
378.72	334.70
378.91	285.55
379.11	304.27
379.31	330.02
379.50	294.91
379.70	330.02
379.89	306.61
380.09	362.78
380.28	276.18
380.48	245.76
380.68	315.97
380.87	264.48
381.07	287.89
381.26	334.70
381.46	304.27
381.65	353.42
381.85	344.06
382.04	266.82
382.24	360.44
382.43	262.14
382.63	341.72
382.83	367.46
383.02	379.17
383.22	355.76
383.41	203.63
383.61	404.91
383.80	409.59
384.00	365.12
384.19	423.64
384.39	404.91
384.58	330.02
384.78	320.65
384.97	320.65
385.17	374.49
385.36	327.68
385.56	388.53
385.75	315.97
385.95	423.64
386.14	362.78
386.34	388.53
386.53	383.85
386.72	407.25
386.92	414.27
387.11	365.12
387.31	437.68
387.50	472.79
387.70	475.13
387.89	416.62
388.09	430.66
388.28	400.23
388.48	505.56
388.67	465.77
388.86	440.02
389.06	463.43
389.25	388.53
389.45	514.92
389.64	475.13
389.84	503.22
390.03	404.91
390.22	442.36
390.42	559.39
390.61	465.77
390.81	447.04
391.00	440.02
391.19	512.58
391.39	533.64
391.58	468.11
391.78	486.83
391.97	531.30
392.16	561.73
392.36	512.58
392.55	578.11
392.75	498.53
392.94	578.11
393.13	561.73
393.33	484.49
393.52	514.92
393.71	617.90
393.91	571.09
394.10	524.28
394.29	594.50
394.49	596.84
394.68	578.11
394.88	622.58
395.07	688.12
395.26	603.86
395.46	564.07
395.65	613.22
395.84	697.48
396.04	636.63
396.23	603.86
396.42	610.88
396.62	669.39
396.81	697.48
397.00	662.37
397.19	648.33
397.39	660.03
397.58	683.44
397.77	699.82
397.97	645.99
398.16	643.65
398.35	690.46
398.55	678.76
398.74	751.31
398.93	725.57
399.12	711.52
399.32	676.41
399.51	692.80
399.70	702.16
399.90	727.91
400.09	777.06
400.28	711.52
400.47	779.40
400.67	746.63
400.86	781.74
401.05	809.83
401.24	748.97
401.44	858.98
401.63	791.10
401.82	819.19
402.01	788.76
402.21	774.72
402.40	774.72
402.59	795.78
402.78	880.04
402.97	767.70
403.17	908.13
403.36	823.87
403.55	770.04
403.74	894.08
403.93	861.32
404.13	919.83
404.32	912.81
404.51	931.53
404.70	891.74
404.89	847.27
405.09	940.90
405.28	905.79
405.47	1008.77
405.66	1027.50
405.85	1029.84
406.05	950.26
406.24	961.96
406.43	957.28
406.62	1029.84
406.81	1064.94
407.00	1041.54
407.20	976.00
407.39	1015.79
407.58	999.41
407.77	1088.35
407.96	1025.15
408.15	1050.90
408.34	1170.27
408.54	1076.65
408.73	1149.20
408.92	1097.71
409.11	1102.39
409.30	1090.69
409.49	1163.25
409.68	1102.39
409.87	1142.18
410.07	1273.25
410.26	1144.52
410.45	1146.86
410.64	1135.16
410.83	1181.97
411.02	1086.01
411.21	1156.22
411.40	1214.74
411.59	1254.53
411.78	1334.11
411.98	1263.89
412.17	1296.66
412.36	1270.91
412.55	1336.45
412.74	1301.34
412.93	1462.83
413.12	1270.91
413.31	1434.75
413.50	1341.13
413.69	1373.89
413.88	1369.21
414.07	1299.00
414.26	1376.24
414.45	1416.02
414.64	1465.18
414.83	1497.94
415.02	1495.60
415.22	1614.97
415.41	1547.09
415.60	1572.84
415.79	1610.29
415.98	1568.16
416.17	1500.28
416.36	1661.78
416.55	1579.86
416.74	1598.59
416.93	1650.08
417.12	1678.16
417.31	1713.27
417.50	1720.29
417.69	1596.25
417.88	1678.16
418.07	1687.53
418.26	1832.64
418.45	1678.16
418.64	1858.39
418.83	1762.42
419.02	1692.21
419.21	1818.60
419.39	1858.39
419.58	1842.00
419.77	1832.64
419.96	1865.41
420.15	1886.47
420.34	1827.96
420.53	1795.19
420.72	1916.90
420.91	2001.16
421.10	1900.52
421.29	2050.31
421.48	1912.22
421.67	1956.69
421.86	1944.99
422.05	1982.43
422.24	1935.62
422.43	1973.07
422.61	1935.62
422.80	2062.01
422.99	2029.24
423.18	1998.82
423.37	2019.88
423.56	1968.39
423.75	1994.14
423.94	2097.12
424.13	1895.83
424.32	1909.88
424.50	2029.24
424.69	2033.93
424.88	2015.20
425.07	1980.09
425.26	2031.58
425.45	1989.46
425.64	1921.58
425.83	2085.42
426.01	2148.61
426.20	2024.56
426.39	2106.48
426.58	2045.63
426.77	2001.16
426.96	2139.25
427.15	2129.89
427.33	2106.48
427.52	2078.40
427.71	2148.61
427.90	2225.85
428.09	2312.45
428.28	2155.63
428.46	2279.68
428.65	2310.11
428.84	2160.31
429.03	2282.02
429.22	2253.94
429.40	2221.17
429.59	2296.07
429.78	2167.34
429.97	2193.08
430.16	2216.49
430.34	2242.23
430.53	2270.32
430.72	2275.00
430.91	2181.38
431.10	2354.58
431.28	2345.22
431.47	2394.37
431.66	2422.45
431.85	2443.52
432.03	2487.99
432.22	2429.48
432.41	2415.43
432.60	2377.98
432.79	2359.26
432.97	2464.58
433.16	2530.12
433.35	2455.22
433.54	2616.72
433.72	2448.20
433.91	2471.61
434.10	2476.29
434.28	2527.78
434.47	2590.97
434.66	2656.51
434.85	2520.76
435.03	2593.31
435.22	2539.48
435.41	2712.68
435.59	2581.61
435.78	2553.52
435.97	2633.10
436.16	2600.34
436.34	2628.42
436.53	2745.45
436.72	2747.79
436.90	2614.38
437.09	2806.30
437.28	2548.84
437.46	2764.17
437.65	2747.79
437.84	2731.41
438.02	2708.00
438.21	2684.59
438.40	2738.43
438.58	2846.09
438.77	2888.22
438.96	2820.35
439.14	2818.00
439.33	2946.73
439.52	2860.13
439.70	3045.04
439.89	3030.99
440.08	2949.08
440.26	3066.10
440.45	3073.12
440.63	3133.98
440.82	3108.23
441.01	3243.98
441.19	3276.75
441.38	3038.02
441.57	3061.42
441.75	3225.26
441.94	3258.03
442.12	3183.13
442.31	3410.16
442.50	3213.56
442.68	3194.83
442.87	3412.50
443.05	3288.45
443.24	3339.94
443.43	3346.97
443.61	3361.01
443.80	3438.25
443.98	3302.50
444.17	3255.69
444.35	3368.03
444.54	3480.38
444.73	3452.29
444.91	3344.63
445.10	3435.91
445.28	3541.23
445.47	3353.99
445.65	3407.82
445.84	3442.93
446.02	3454.63
446.21	3379.73
446.39	3396.12
446.58	3592.72
446.77	3611.45
446.95	3405.48
447.14	3501.44
447.32	3463.99
447.51	3494.42
447.69	3595.06
447.88	3449.95
448.06	3468.67
448.25	3461.65
448.43	3456.97
448.62	3503.78
448.80	3576.34
448.99	3674.64
449.17	3667.62
449.36	3541.23
449.54	3676.98
449.73	3571.66
449.91	3545.91
450.10	3681.66
450.28	3707.41
450.46	3707.41
450.65	3772.94
450.83	3714.43
451.02	3782.31
451.20	3843.16
451.39	3929.76
451.57	3733.15
451.76	3655.92
451.94	3779.97
452.13	3782.31
452.31	3803.37
452.49	3859.54
452.68	3761.24
452.86	3852.52
453.05	3779.97
453.23	3922.74
453.42	3861.88
453.60	3826.78
453.78	3843.16
453.97	3981.25
454.15	3948.48
454.34	3826.78
454.52	4042.11
454.70	4058.49
454.89	4018.70
455.07	4044.45
455.26	4060.83
455.44	4175.52
455.62	4147.43
455.81	4145.09
455.99	4114.66
456.17	4135.73
456.36	4219.99
456.54	4168.49
456.73	4217.65
456.91	4334.67
457.09	4409.57
457.28	4322.97
457.46	4362.76
457.64	4322.97
457.83	4388.50
458.01	4241.05
458.19	4348.72
458.38	4386.16
458.56	4430.63
458.74	4538.30
458.93	4339.35
459.11	4416.59
459.29	4456.38
459.48	4535.96
459.66	4461.06
459.84	4587.45
460.03	4615.54
460.21	4489.15
460.39	4273.82
460.57	4545.32
460.76	4727.88
460.94	4503.19
461.12	4493.83
461.31	4620.22
461.49	4550.00
461.67	4629.58
461.85	4746.61
462.04	4657.67
462.22	4999.38
462.40	4678.73
462.59	4503.19
462.77	4669.37
462.95	4720.86
463.13	4678.73
463.32	4760.65
463.50	4922.15
463.68	4844.91
463.86	4842.57
464.05	4887.04
464.23	4716.18
464.41	4854.27
464.59	4753.63
464.78	4861.29
464.96	4933.85
465.14	4809.80
465.32	4954.91
465.50	5076.62
465.69	4842.57
465.87	5015.77
466.05	4985.34
466.23	4964.28
466.41	5067.26
466.60	5186.63
466.78	5074.28
466.96	5172.58
467.14	4830.87
467.32	5146.84
467.51	5053.22
467.69	5032.15
467.87	5095.35
468.05	5203.01
468.23	5123.43
468.41	5109.39
468.60	5198.33
468.78	5195.99
468.96	5203.01
469.14	5430.04
469.32	5240.46
469.50	5172.58
469.69	5385.57
469.87	5390.25
470.05	5390.25
470.23	5165.56
470.41	5451.11
470.59	5483.88
470.77	5493.24
470.95	5469.83
471.14	5542.39
471.32	5458.13
471.50	5657.07
471.68	5504.94
471.86	5568.13
472.04	5673.46
472.22	5849.00
472.40	5603.24
472.58	5556.43
472.77	5769.42
472.95	5748.36
473.13	6076.03
473.31	5949.64
473.49	6019.86
473.67	5928.58
473.85	5738.99
474.03	5879.43
474.21	6024.54
474.39	6153.27
474.57	6101.78
474.75	6132.20
474.93	6162.63
475.12	6146.25
475.30	6148.59
475.48	6235.19
475.66	6190.72
475.84	6214.12
476.02	6153.27
476.20	6375.62
476.38	6274.98
476.56	6567.54
476.74	6600.31
476.92	6518.39
477.10	6558.18
477.28	6525.41
477.46	6621.38
477.64	6544.14
477.82	6874.15
478.00	6810.96
478.18	6930.33
478.36	7014.59
478.54	6970.12
478.72	7218.21
478.90	7178.42
479.08	7194.81
479.26	7250.98
479.44	7166.72
479.62	7173.74
479.80	7485.03
479.98	7473.33
480.16	7403.11
480.34	7475.67
480.52	7702.70
480.70	7510.78
480.88	7613.76
481.06	7618.44
481.24	7606.74
481.41	7726.11
481.59	7852.50
481.77	7950.80
481.95	8126.34
482.13	8086.55
482.31	8145.06
482.49	8372.10
482.67	8372.10
482.85	8458.70
483.03	8475.08
483.21	8521.89
483.39	8650.62
483.57	8432.95
483.74	8748.92
483.92	8636.58
484.10	8535.93
484.28	8971.27
484.46	9151.49
484.64	9097.66
484.82	8954.89
485.00	9132.77
485.18	9259.16
485.35	9275.54
485.53	9210.01
485.71	9254.48
485.89	9753.01
486.07	9280.22
486.25	9568.11
486.43	9336.40
486.61	9816.21
486.78	10043.24
486.96	9755.35
487.14	9912.17
487.32	10033.88
487.50	10218.78
487.68	10230.48
487.85	10335.81
488.03	10483.26
488.21	10494.96
488.39	10700.93
488.57	10686.89
488.75	10752.42
488.92	10998.18
489.10	10829.66
489.28	10764.12
489.46	11166.70
489.64	10822.64
489.81	11150.31
489.99	11229.89
490.17	11414.79
490.35	11515.44
490.53	11470.97
490.70	11770.55
490.88	11522.46
491.06	11840.77
491.24	11637.14
491.41	11896.94
491.59	12006.95
491.77	11878.22
491.95	12196.53
492.13	11866.52
492.30	12301.86
492.48	12287.81
492.66	12145.04
492.84	12280.79
493.01	12205.89
493.19	12411.86
493.37	12496.12
493.54	12709.11
493.72	12879.97
493.90	12786.35
494.08	12886.99
494.25	13249.77
494.43	13081.25
494.61	13312.97
494.79	13406.59
494.96	13280.20
495.14	13266.16
495.32	13661.71
495.49	13493.19
495.67	13481.49
495.85	13619.58
496.02	13802.14
496.20	13818.52
496.38	13769.37
496.55	13846.61
496.73	14356.85
496.91	13823.20
497.09	14380.25
497.26	14190.67
497.44	14394.29
497.62	14267.91
497.79	14792.19
497.97	14410.68
498.14	14642.39
498.32	14836.66
498.50	14834.32
498.67	14817.93
498.85	14923.26
499.03	14808.57
499.20	14965.39
499.38	14874.10
499.56	15068.37
499.73	15527.11
499.91	15405.41
500.08	15730.74
500.26	15449.88
500.44	15351.57
500.61	15840.75
500.79	15644.14
500.97	15805.64
501.14	15744.78
501.32	15943.73
501.49	15843.09
501.67	15819.68
501.84	15957.77
502.02	15946.07
502.20	16208.21
502.37	15873.51
502.55	16189.49
502.72	16163.74
502.90	16233.96
503.07	16006.92
503.25	16320.56
503.43	16135.65
503.60	16329.92
503.78	16465.67
503.95	16166.08
504.13	16589.72
504.30	16711.42
504.48	16987.61
504.65	16727.81
504.83	16805.05
505.01	16966.54
505.18	17170.17
505.36	16999.31
505.53	16767.60
505.71	17118.68
505.88	16987.61
506.06	16823.77
506.23	17284.86
506.41	17142.08
506.58	17600.83
506.76	17214.64
506.93	17640.62
507.11	17575.08
507.28	17652.32
507.46	17584.44
507.63	18097.02
507.81	17755.30
507.98	17633.60
508.16	17750.62
508.33	17792.75
508.50	17830.20
508.68	18068.94
508.85	18066.60
509.03	18068.94
509.20	18155.54
509.38	18490.23
509.55	18464.49
509.73	18230.43
509.90	18321.71
510.08	18288.95
510.25	18324.05
510.42	18705.56
510.60	18551.09
510.77	18602.58
510.95	18618.96
511.12	18799.18
511.30	18462.15
511.47	18768.76
511.64	18780.46
511.82	18827.27
511.99	18850.67
512.17	19227.50
512.34	19016.85
512.51	19253.25
512.69	19143.24
512.86	19255.59
513.04	19573.90
513.21	19386.66
513.38	19267.29
513.56	19456.87
513.73	19349.21
513.90	19548.15
514.08	19484.96
514.25	19939.02
514.43	19810.29
514.60	19627.73
514.77	19604.33
514.95	19899.23
515.12	19749.44
515.29	19852.42
515.47	19819.66
515.64	20238.61
515.81	19988.18
515.99	20205.84
516.16	20538.20
516.33	20393.09
516.51	20163.72
516.68	20243.29
516.85	20264.36
517.03	20613.10
517.20	20503.09
517.37	20713.74
517.54	20479.69
517.72	20772.25
517.89	20472.67
518.06	20510.11
518.24	20549.90
518.41	20416.49
518.58	20821.41
518.75	20884.60
518.93	20676.29
519.10	20767.57
519.27	21092.91
519.45	21111.63
519.62	21001.63
519.79	21128.02
519.96	20884.60
520.14	21420.58
520.31	21120.99
520.48	21179.51
520.65	21425.26
520.83	21399.52
521.00	21301.22
521.17	21099.93
521.34	21500.16
521.52	21511.86
521.69	21675.70
521.86	21514.20
522.03	21986.99
522.20	21727.19
522.38	21813.79
522.55	21701.45
522.72	21652.30
522.89	22012.74
523.07	22125.08
523.24	22092.32
523.41	22031.46
523.58	21895.71
523.75	22045.51
523.92	22080.61
524.10	22085.30
524.27	22436.38
524.44	22541.70
524.61	22710.22
524.78	22513.61
524.96	22515.95
525.13	22480.85
525.30	22473.82
525.47	22548.72
525.64	22466.80
525.81	22394.25
525.98	22806.18
526.16	22565.10
526.33	22848.31
526.50	22937.25
526.67	22750.01
526.84	22778.09
527.01	22972.36
527.18	22787.46
527.36	22869.37
527.53	22838.95
527.70	23131.51
527.87	23183.01
528.04	23157.26
528.21	23257.90
528.38	23267.27
528.55	23555.15
528.72	23243.86
528.89	23241.52
529.07	23707.29
529.24	23374.93
529.41	23709.63
529.58	23367.91
529.75	23426.42
529.92	23564.51
530.09	23646.43
530.26	23608.98
530.43	24037.30
530.60	23557.49
530.77	23962.40
530.94	23644.09
531.11	24077.09
531.28	23777.50
531.46	23845.38
531.63	23424.08
531.80	23765.80
531.97	24666.91
532.14	23948.36
532.31	24072.41
532.48	24276.04
532.65	24095.82
532.82	24112.20
532.99	24217.52
533.16	24023.26
533.33	24355.61
533.50	24453.92
533.67	24137.94
533.84	24470.30
534.01	24086.45
534.18	24018.58
534.35	24442.21
534.52	24280.72
534.69	24912.66
534.86	24577.97
535.03	24409.45
535.20	24596.69
535.37	24608.39
535.54	24439.87
535.71	24680.95
535.88	24489.03
536.05	24493.71
536.22	25025.01
536.38	24821.38
536.55	25247.36
536.72	24875.21
536.89	24819.04
537.06	24814.36
537.23	25343.32
537.40	25015.65
537.57	25151.40
537.74	25158.42
537.91	25453.33
538.08	25235.66
538.25	25046.07
538.42	25364.39
538.59	25010.96
538.75	24917.34
538.92	25312.89
539.09	25614.82
539.26	25511.84
539.43	25212.25
539.60	25694.40
539.77	25294.17
539.94	25736.53
540.11	25635.89
540.28	25549.29
540.44	25577.37
540.61	25511.84
540.78	25364.39
540.95	25678.02
541.12	25998.67
541.29	25900.37
541.46	25731.85
541.62	25661.63
541.79	25813.77
541.96	25860.58
542.13	25898.03
542.30	25783.34
542.47	26113.36
542.63	26284.22
542.80	26103.99
542.97	26195.28
543.14	26272.51
543.31	26314.64
543.48	26445.71
543.64	26602.53
543.81	26111.02
543.98	26775.73
544.15	26445.71
544.32	26913.82
544.48	26590.83
544.65	26438.69
544.82	26429.33
544.99	26082.93
545.16	26576.78
545.32	26183.57
545.49	27030.85
545.66	26803.82
545.83	26560.40
546.00	27042.55
546.16	26941.91
546.33	26551.04
546.50	26253.79
546.67	26792.11
546.83	26366.13
547.00	26981.70
547.17	26691.47
547.34	26595.51
547.50	27197.02
547.67	27304.69
547.84	27103.40
548.00	27276.60
548.17	26841.26
548.34	26869.35
548.51	27103.40
548.67	27089.36
548.84	27356.18
549.01	27529.38
549.18	27538.74
549.34	27049.57
549.51	27498.95
549.68	27110.43
549.84	27468.53
550.01	27489.59
550.18	27040.21
550.34	27229.79
550.51	27740.03
550.68	27374.91
550.84	27391.29
551.01	27608.96
551.18	27573.85
551.34	27550.45
551.51	27573.85
551.68	27517.68
551.84	27381.93
552.01	27477.89
552.18	28020.89
552.34	27597.26
552.51	27487.25
552.68	27667.47
552.84	27768.12
553.01	27683.86
553.18	27552.79
553.34	27754.07
553.51	27761.09
553.67	28041.96
553.84	27978.76
554.01	28077.07
554.17	27992.81
554.34	27843.01
554.51	27887.48
554.67	28048.98
554.84	28067.70
555.00	28409.42
555.17	27887.48
555.33	28350.91
555.50	28271.33
555.67	28048.98
555.83	27992.81
556.00	28116.86
556.16	28388.36
556.33	28102.81
556.50	28285.37
556.66	28446.87
556.83	28285.37
556.99	28484.32
557.16	28666.88
557.32	28423.47
557.49	28437.51
557.65	28142.60
557.82	28243.24
557.98	28037.28
558.15	28360.27
558.32	28720.71
558.48	28374.31
558.65	28517.09
558.81	28774.55
558.98	28533.47
559.14	28294.74
559.31	28538.15
559.47	28706.67
559.64	28807.31
559.80	28772.21
559.97	28914.98
560.13	28650.50
560.30	28844.76
560.46	29144.35
560.63	28767.52
560.79	28631.77
560.96	29015.62
561.12	28671.56
561.29	28802.63
561.45	28774.55
561.61	28662.20
561.78	28957.11
561.94	29039.03
562.11	29247.33
562.27	28992.22
562.44	29053.07
562.60	28528.79
562.77	28804.97
562.93	28884.55
563.10	28938.38
563.26	29083.50
563.42	29113.92
563.59	29317.55
563.75	28931.36
563.92	29317.55
564.08	28643.48
564.24	28861.15
564.41	28861.15
564.57	28933.70
564.74	29291.80
564.90	28872.85
565.07	29507.13
565.23	29237.97
565.39	29104.56
565.56	29333.93
565.72	29015.62
565.88	29048.39
566.05	29266.06
566.21	29142.01
566.38	29123.29
566.54	29352.66
566.70	29277.76
566.87	29579.69
567.03	29460.32
567.19	29694.38
567.36	29350.32
567.52	29680.33
567.68	29069.45
567.85	29455.64
568.01	29212.23
568.17	29099.88
568.34	29200.52
568.50	29521.18
568.66	29476.71
568.83	29577.35
568.99	29305.85
569.15	29149.03
569.32	29029.66
569.48	29305.85
569.64	29205.20
569.81	29270.74
569.97	29244.99
570.13	29383.09
570.30	29237.97
570.46	29539.90
570.62	29315.21
570.78	29329.25
570.95	29294.14
571.11	29289.46
571.27	29273.08
571.43	29219.25
571.60	29530.54
571.76	29783.32
571.92	29448.62
572.09	29284.78
572.25	29886.30
572.41	29680.33
572.57	29392.45
572.74	29331.59
572.90	29453.30
573.06	29465.00
573.22	29621.82
573.38	29572.67
573.55	29298.83
573.71	29727.14
573.87	29989.28
574.03	29659.27
574.20	29902.68
574.36	29436.92
574.52	29439.26
574.68	29706.08
574.84	29935.45
575.01	29600.76
575.17	29560.97
575.33	29612.46
575.49	29532.88
575.65	29853.53
575.82	29516.50
575.98	29724.80
576.14	29951.84
576.30	29996.31
576.46	29745.87
576.62	29738.85
576.79	29507.13
576.95	29507.13
577.11	29654.59
577.27	30139.08
577.43	29785.66
577.59	29970.56
577.75	29790.34
577.92	29469.69
578.08	29490.75
578.24	29621.82
578.40	29546.92
578.56	30108.65
578.72	30155.46
578.88	30127.38
579.04	30251.42
579.21	29701.40
579.37	29713.10
579.53	29919.07
579.69	29563.31
579.85	29516.50
580.01	29933.11
580.17	29692.04
580.33	29579.69
580.49	29748.21
580.65	29876.94
580.82	29661.61
580.98	29951.84
581.14	29881.62
581.30	29914.39
581.46	30267.81
581.62	29757.57
581.78	29820.77
581.94	29729.48
582.10	29713.10
582.26	29972.90
582.42	29788.00
582.58	30249.08
582.74	29806.72
582.90	30096.95
583.06	29811.40
583.22	29860.55
583.38	30307.60
583.54	30068.86
583.70	29607.78
583.86	29890.98
584.02	29809.06
584.18	30068.86
584.34	30274.83
584.50	30024.39
584.66	29823.11
584.82	29795.02
584.98	30157.80
585.14	30022.05
585.30	29720.12
585.46	30038.44
585.62	30040.78
585.78	30167.16
585.94	29685.01
586.10	29722.46
586.26	29785.66
586.42	30235.04
586.58	30494.84
586.74	29991.62
586.90	29827.79
587.06	30089.93
587.22	29738.85
587.38	30017.37
587.54	29900.34
587.70	29895.66
587.86	29958.86
588.02	30155.46
588.18	30508.88
588.34	30188.23
588.49	29879.28
588.65	29832.47
588.81	29783.32
588.97	30012.69
589.13	30092.27
589.29	29895.66
589.45	30209.29
589.61	30139.08
589.77	30033.75
589.93	29926.09
590.08	30408.24
590.24	30689.10
590.40	30323.98
590.56	30321.64
590.72	30321.64
590.88	30089.93
591.04	29773.95
591.20	30370.79
591.35	30501.86
591.51	30773.36
591.67	30008.01
591.83	30527.61
591.99	30005.67
