SpectraSuite Data File
++++++++++++++++++++++++++++++++++++
Date: Fri Oct 18 13:58:16 GMT-05:00 2013
User: bianchi
Dark Spectrum Present: No
Reference Spectrum Present: No
Number of Sampled Component Spectra: 1
Spectrometers: USB2+H05261
Integration Time (usec): 50000 (USB2+H05261)
Spectra Averaged: 1 (USB2+H05261)
Boxcar Smoothing: 0 (USB2+H05261)
Correct for Electrical Dark: No (USB2+H05261)
Strobe/Lamp Enabled: No (USB2+H05261)
Correct for Detector Non-linearity: No (USB2+H05261)
Correct for Stray Light: No (USB2+H05261)
Number of Pixels in Processed Spectrum: 2048
>>>>>Begin Processed Spectral Data<<<<<
365.73	0.00
365.92	0.00
366.12	0.00
366.32	0.00
366.52	0.00
366.72	0.00
366.91	0.00
367.11	0.00
367.31	0.00
367.51	0.00
367.70	0.00
367.90	0.00
368.10	0.00
368.30	0.00
368.49	0.00
368.69	0.00
368.89	0.00
369.09	0.00
369.28	0.00
369.48	0.00
369.68	0.00
369.87	0.00
370.07	0.00
370.27	0.00
370.47	0.00
370.66	65.54
370.86	102.98
371.06	102.98
371.25	154.48
371.45	149.79
371.65	189.58
371.84	163.84
372.04	203.63
372.24	124.05
372.44	187.24
372.63	201.29
372.83	229.37
373.03	198.95
373.22	201.29
373.42	189.58
373.62	205.97
373.81	217.67
374.01	205.97
374.21	112.35
374.40	269.16
374.60	212.99
374.79	250.44
374.99	250.44
375.19	210.65
375.38	191.92
375.58	229.37
375.78	262.14
375.97	245.76
376.17	259.80
376.37	283.20
376.56	315.97
376.76	189.58
376.95	248.10
377.15	318.31
377.35	262.14
377.54	238.73
377.74	266.82
377.93	184.90
378.13	297.25
378.33	236.39
378.52	266.82
378.72	299.59
378.91	257.46
379.11	266.82
379.31	285.55
379.50	304.27
379.70	297.25
379.89	339.38
380.09	262.14
380.28	355.76
380.48	327.68
380.68	301.93
380.87	325.33
381.07	376.83
381.26	238.73
381.46	311.29
381.65	346.40
381.85	355.76
382.04	269.16
382.24	353.42
382.43	381.51
382.63	313.63
382.83	407.25
383.02	344.06
383.22	308.95
383.41	355.76
383.61	355.76
383.80	327.68
384.00	409.59
384.19	330.02
384.39	416.62
384.58	444.70
384.78	369.80
384.97	458.74
385.17	390.87
385.36	327.68
385.56	362.78
385.75	404.91
385.95	447.04
386.14	372.15
386.34	400.23
386.53	341.72
386.72	306.61
386.92	472.79
387.11	404.91
387.31	440.02
387.50	447.04
387.70	362.78
387.89	423.64
388.09	372.15
388.28	425.98
388.48	381.51
388.67	449.38
388.86	407.25
389.06	470.45
389.25	470.45
389.45	433.00
389.64	418.96
389.84	456.40
390.03	484.49
390.22	500.87
390.42	451.72
390.61	437.68
390.81	428.32
391.00	440.02
391.19	559.39
391.39	538.32
391.58	533.64
391.78	528.96
391.97	517.26
392.16	498.53
392.36	578.11
392.55	554.71
392.75	564.07
392.94	500.87
393.13	465.77
393.33	645.99
393.52	482.15
393.71	578.11
393.91	528.96
394.10	575.77
394.29	561.73
394.49	578.11
394.68	594.50
394.88	596.84
395.07	601.52
395.26	587.47
395.46	655.35
395.65	585.13
395.84	589.82
396.04	699.82
396.23	685.78
396.42	653.01
396.62	713.86
396.81	688.12
397.00	601.52
397.19	629.60
397.39	561.73
397.58	568.75
397.77	622.58
397.97	692.80
398.16	660.03
398.35	692.80
398.55	676.41
398.74	727.91
398.93	763.01
399.12	786.42
399.32	718.54
399.51	664.71
399.70	706.84
399.90	653.01
400.09	692.80
400.28	692.80
400.47	765.36
400.67	786.42
400.86	774.72
401.05	770.04
401.24	840.25
401.44	770.04
401.63	805.14
401.82	844.93
402.01	819.19
402.21	697.48
402.40	758.33
402.59	812.17
402.78	844.93
402.97	858.98
403.17	880.04
403.36	868.34
403.55	901.11
403.74	924.51
403.93	863.66
404.13	929.19
404.32	971.32
404.51	844.93
404.70	903.45
404.89	959.62
405.09	1011.11
405.28	940.90
405.47	849.61
405.66	931.53
405.85	987.71
406.05	912.81
406.24	1032.18
406.43	1008.77
406.62	964.30
406.81	1055.58
407.00	1050.90
407.20	1064.94
407.39	1025.15
407.58	1057.92
407.77	1046.22
407.96	1167.93
408.15	1090.69
408.34	1076.65
408.54	1046.22
408.73	1027.50
408.92	1109.41
409.11	1137.50
409.30	1224.10
409.49	1156.22
409.68	1163.25
409.87	1121.12
410.07	1160.91
410.26	1118.78
410.45	1174.95
410.64	1252.19
410.83	1125.80
411.02	1139.84
411.21	1247.51
411.40	1273.25
411.59	1282.61
411.78	1289.64
411.98	1320.06
412.17	1184.31
412.36	1228.78
412.55	1256.87
412.74	1317.72
412.93	1345.81
413.12	1413.68
413.31	1446.45
413.50	1338.79
413.69	1348.15
413.88	1401.98
414.07	1425.39
414.26	1479.22
414.45	1507.30
414.64	1526.03
414.83	1535.39
415.02	1519.01
415.22	1483.90
415.41	1533.05
415.60	1500.28
415.79	1633.69
415.98	1619.65
416.17	1610.29
416.36	1596.25
416.55	1593.90
416.74	1591.56
416.93	1626.67
417.12	1638.38
417.31	1729.66
417.50	1633.69
417.69	1694.55
417.88	1764.76
418.07	1732.00
418.26	1720.29
418.45	1764.76
418.64	1802.21
418.83	1755.40
419.02	1701.57
419.21	1804.55
419.39	1923.92
419.58	1760.08
419.77	1825.62
419.96	1783.49
420.15	2001.16
420.34	1804.55
420.53	1813.92
420.72	1858.39
420.91	1891.15
421.10	1818.60
421.29	1900.52
421.48	1919.24
421.67	1930.94
421.86	1893.49
422.05	1919.24
422.24	1842.00
422.43	1874.77
422.61	1984.77
422.80	2099.46
422.99	2078.40
423.18	1968.39
423.37	1984.77
423.56	1949.67
423.75	1923.92
423.94	1968.39
424.13	1884.13
424.32	1907.54
424.50	2071.37
424.69	2076.06
424.88	2092.44
425.07	1893.49
425.26	2033.93
425.45	2010.52
425.64	1968.39
425.83	2047.97
426.01	2111.16
426.20	1996.48
426.39	2059.67
426.58	2090.10
426.77	2162.66
426.96	2083.08
427.15	2045.63
427.33	2076.06
427.52	2094.78
427.71	2101.80
427.90	2136.91
428.09	2099.46
428.28	2193.08
428.46	2162.66
428.65	2160.31
428.84	2157.97
429.03	2169.68
429.22	2118.18
429.40	2289.04
429.59	2279.68
429.78	2214.15
429.97	2083.08
430.16	2216.49
430.34	2235.21
430.53	2324.15
430.72	2377.98
430.91	2380.32
431.10	2333.51
431.28	2363.94
431.47	2286.70
431.66	2459.90
431.85	2413.09
432.03	2361.60
432.22	2497.35
432.41	2450.54
432.60	2497.35
432.79	2413.09
432.97	2478.63
433.16	2394.37
433.35	2483.31
433.54	2525.44
433.72	2513.74
433.91	2443.52
434.10	2539.48
434.28	2497.35
434.47	2483.31
434.66	2480.97
434.85	2600.34
435.03	2541.82
435.22	2562.89
435.41	2607.36
435.59	2583.95
435.78	2605.02
435.97	2672.89
436.16	2588.63
436.34	2633.10
436.53	2644.81
436.72	2717.36
436.90	2754.81
437.09	2708.00
437.28	2689.28
437.46	2719.70
437.65	2771.19
437.84	2911.63
438.02	2731.41
438.21	2738.43
438.40	2764.17
438.58	2944.39
438.77	2902.26
438.96	2883.54
439.14	2864.82
439.33	2874.18
439.52	2967.80
439.70	3023.97
439.89	3052.06
440.08	2895.24
440.26	2920.99
440.45	2984.18
440.63	3178.45
440.82	3115.25
441.01	3126.96
441.19	3176.11
441.38	3143.34
441.57	3260.37
441.75	3162.06
441.94	3258.03
442.12	3187.81
442.31	3220.58
442.50	3262.71
442.68	3370.37
442.87	3382.07
443.05	3323.56
443.24	3321.22
443.43	3316.54
443.61	3295.47
443.80	3548.25
443.98	3293.13
444.17	3274.41
444.35	3445.27
444.54	3363.35
444.73	3454.63
444.91	3342.28
445.10	3452.29
445.28	3449.95
445.47	3361.01
445.65	3433.57
445.84	3358.67
446.02	3555.27
446.21	3543.57
446.39	3564.64
446.58	3459.31
446.77	3513.14
446.95	3400.80
447.14	3456.97
447.32	3566.98
447.51	3454.63
447.69	3510.80
447.88	3590.38
448.06	3433.57
448.25	3510.80
448.43	3506.12
448.62	3637.19
448.80	3559.95
448.99	3492.08
449.17	3609.11
449.36	3506.12
449.54	3655.92
449.73	3794.01
449.91	3651.24
450.10	3777.62
450.28	3714.43
450.46	3667.62
450.65	3794.01
450.83	3733.15
451.02	3756.56
451.20	3737.84
451.39	3889.97
451.57	3719.11
451.76	3719.11
451.94	3882.95
452.13	3990.61
452.31	3859.54
452.49	3700.39
452.68	3918.06
452.86	3728.47
453.05	3906.35
453.23	3922.74
453.42	3868.91
453.60	3716.77
453.78	3974.23
453.97	3934.44
454.15	3892.31
454.34	3906.35
454.52	3939.12
454.70	3992.95
454.89	3985.93
455.07	3899.33
455.26	4051.47
455.44	4070.19
455.62	3995.29
455.81	4095.94
455.99	4140.41
456.17	4184.88
456.36	4117.00
456.54	4203.60
456.73	4318.29
456.91	4255.09
457.09	4325.31
457.28	4430.63
457.46	4278.50
457.64	4313.61
457.83	4262.12
458.01	4126.36
458.19	4425.95
458.38	4304.25
458.56	4458.72
458.74	4500.85
458.93	4402.55
459.11	4428.29
459.29	4510.21
459.48	4437.66
459.66	4521.92
459.84	4493.83
460.03	4582.77
460.21	4582.77
460.39	4629.58
460.57	4360.42
460.76	4559.36
460.94	4624.90
461.12	4524.26
461.31	4550.00
461.49	4711.50
461.67	4510.21
461.85	4645.96
462.04	4596.81
462.22	4980.66
462.40	4788.74
462.59	4880.02
462.77	4671.71
462.95	4751.29
463.13	4622.56
463.32	4800.44
463.50	4891.72
463.68	4854.27
463.86	4791.08
464.05	4821.50
464.23	4826.18
464.41	4889.38
464.59	4816.82
464.78	4851.93
464.96	4863.63
465.14	4767.67
465.32	4959.60
465.50	4983.00
465.69	5111.73
465.87	4973.64
466.05	4983.00
466.23	5001.72
466.41	4968.96
466.60	5095.35
466.78	4992.36
466.96	5116.41
467.14	5078.96
467.32	4966.62
467.51	5128.11
467.69	4971.30
467.87	5167.90
468.05	5060.24
468.23	5245.14
468.41	5076.62
468.60	5123.43
468.78	5411.32
468.96	5144.50
469.14	5228.76
469.32	5270.89
469.50	5233.44
469.69	5296.63
469.87	5416.00
470.05	5341.10
470.23	5444.09
470.41	5469.83
470.59	5526.00
470.77	5343.44
470.95	5514.30
471.14	5490.90
471.32	5310.68
471.50	5636.01
471.68	5631.33
471.86	5671.12
472.04	5778.78
472.22	5661.76
472.40	5729.63
472.58	5736.65
472.77	5628.99
472.95	5717.93
473.13	5959.00
473.31	5748.36
473.49	5820.91
473.67	5877.09
473.85	6012.84
474.03	5984.75
474.21	5841.98
474.39	6141.57
474.57	6071.35
474.75	6230.51
474.93	6204.76
475.12	6080.71
475.30	6153.27
475.48	6153.27
475.66	6253.91
475.84	6216.46
476.02	6235.19
476.20	6186.04
476.38	6434.13
476.56	6612.01
476.74	6621.38
476.92	6265.61
477.10	6422.43
477.28	6607.33
477.46	6579.25
477.64	6630.74
477.82	6775.85
478.00	6939.69
478.18	7042.67
478.36	7082.46
478.54	7117.57
478.72	7007.56
478.90	7183.10
479.08	7068.42
479.26	7014.59
479.44	7239.28
479.62	7269.70
479.80	7297.79
479.98	7379.71
480.16	7375.03
480.34	7452.27
480.52	7496.74
480.70	7660.57
480.88	7470.99
481.06	7641.85
481.24	7595.04
481.41	7812.71
481.59	7791.64
481.77	8116.98
481.95	7969.52
482.13	8046.76
482.31	7976.55
482.49	8203.58
482.67	8219.96
482.85	8318.26
483.03	8524.23
483.21	8468.06
483.39	8444.65
483.57	8400.18
483.74	8594.45
483.92	8659.98
484.10	8894.04
484.28	8697.43
484.46	8926.80
484.64	9064.89
484.82	8851.91
485.00	9219.37
485.18	9352.78
485.35	9282.56
485.53	9259.16
485.71	9308.31
485.89	9760.03
486.07	9563.43
486.25	9689.82
486.43	9572.79
486.61	9736.63
486.78	9689.82
486.96	10015.15
487.14	10083.03
487.32	9907.49
487.50	10143.88
487.68	9994.09
487.85	10441.13
488.03	10256.23
488.21	10459.85
488.39	10574.54
488.57	10455.17
488.75	10562.84
488.92	10801.57
489.10	10967.75
489.28	10937.32
489.46	11012.22
489.64	10942.00
489.81	11232.23
489.99	11367.98
490.17	11262.66
490.35	11428.84
490.53	11609.06
490.70	11559.91
490.88	11431.18
491.06	11819.71
491.24	11538.84
491.41	11899.28
491.59	11913.33
491.77	11868.86
491.95	12107.59
492.13	12074.82
492.30	12198.87
492.48	12241.00
492.66	12147.38
492.84	12395.48
493.01	12561.66
493.19	12608.47
493.37	12711.45
493.54	12894.01
493.72	12629.53
493.90	12945.50
494.08	12863.58
494.25	13118.70
494.43	13020.40
494.61	13111.68
494.79	13174.88
494.96	13046.15
495.14	13444.04
495.32	13467.44
495.49	13570.43
495.67	13572.77
495.85	13647.66
496.02	13542.34
496.20	13790.44
496.38	13762.35
496.55	14029.17
496.73	13998.74
496.91	14185.99
497.09	14209.39
497.26	14230.46
497.44	14157.90
497.62	14267.91
497.79	14576.86
497.97	14649.41
498.14	14700.90
498.32	14981.77
498.50	14759.42
498.67	14853.04
498.85	14848.36
499.03	14794.53
499.20	14867.08
499.38	14857.72
499.56	15108.16
499.73	15428.81
499.91	15222.84
500.08	15548.18
500.26	15222.84
500.44	15101.14
500.61	15513.07
500.79	15234.55
500.97	15686.27
501.14	15950.75
501.32	15742.44
501.49	15784.57
501.67	15665.21
501.84	15775.21
502.02	16032.67
502.20	16170.76
502.37	16130.97
502.55	16098.20
502.72	16276.09
502.90	16013.95
503.07	15992.88
503.25	16369.71
503.43	16128.63
503.60	16386.09
503.78	16582.70
503.95	16566.31
504.13	16191.83
504.30	16460.99
504.48	16603.76
504.65	16652.91
504.83	16816.75
505.01	16919.73
505.18	17114.00
505.36	16718.45
505.53	16875.26
505.71	16809.73
505.88	17088.25
506.06	17006.33
506.23	17324.65
506.41	16971.22
506.58	17305.92
506.76	17355.07
506.93	17462.74
507.11	17231.02
507.28	17600.83
507.46	17544.66
507.63	17657.00
507.81	17909.78
507.98	17783.39
508.16	17940.21
508.33	17757.64
508.50	17811.48
508.68	17654.66
508.85	17958.93
509.03	18134.47
509.20	18382.57
509.38	18230.43
509.55	18153.20
509.73	18279.58
509.90	18075.96
510.08	18249.16
510.25	18389.59
510.42	18260.86
510.60	18338.10
510.77	18581.51
510.95	18745.35
511.12	18478.53
511.30	18518.32
511.47	18661.09
511.64	18532.36
511.82	18717.26
511.99	18831.95
512.17	18867.06
512.34	18693.86
512.51	19157.28
512.69	19381.98
512.86	19349.21
513.04	19365.59
513.21	19295.38
513.38	19276.65
513.56	19480.28
513.73	19496.66
513.90	19262.61
514.08	19508.37
514.25	19674.54
514.43	19648.80
514.60	19716.67
514.77	19988.18
514.95	19920.30
515.12	19662.84
515.29	19611.35
515.47	19932.00
515.64	20313.51
515.81	19733.06
515.99	20231.59
516.16	20077.12
516.33	20524.16
516.51	20606.08
516.68	20313.51
516.85	20074.77
517.03	20353.30
517.20	20343.94
517.37	20589.69
517.54	20294.79
517.72	20599.05
517.89	20510.11
518.06	20915.03
518.24	20664.59
518.41	20348.62
518.58	20805.02
518.75	20709.06
518.93	21022.69
519.10	20884.60
519.27	20943.11
519.45	20919.71
519.62	20783.96
519.79	20964.18
519.96	20805.02
520.14	21118.65
520.31	20961.84
520.48	21387.82
520.65	21165.46
520.83	21118.65
521.00	21139.72
521.17	21404.20
521.34	21392.50
521.52	21586.76
521.69	21291.85
521.86	21462.71
522.03	21989.33
522.20	21778.68
522.38	21642.93
522.55	21713.15
522.72	21458.03
522.89	21743.58
523.07	22092.32
523.24	21956.57
523.41	22141.47
523.58	21504.84
523.75	22108.70
523.92	21656.98
524.10	21729.53
524.27	21907.41
524.44	22197.64
524.61	22419.99
524.78	22534.68
524.96	22394.25
525.13	22419.99
525.30	22319.35
525.47	22518.29
525.64	22214.02
525.81	22757.03
525.98	22651.70
526.16	23014.49
526.33	22984.06
526.50	22930.23
526.67	22558.08
526.84	22707.88
527.01	22525.32
527.18	22836.61
527.36	23325.78
527.53	23377.27
527.70	23126.83
527.87	23702.61
528.04	22930.23
528.21	23412.38
528.38	23440.47
528.55	23194.71
528.72	23019.17
528.89	23222.80
529.07	23431.10
529.24	23377.27
529.41	23381.95
529.58	23407.70
529.75	23718.99
529.92	23241.52
530.09	23386.63
530.26	23843.04
530.43	23449.83
530.60	23356.21
530.77	23716.65
530.94	23857.08
531.11	23482.59
531.28	23709.63
531.46	23861.76
531.63	23669.84
531.80	24325.19
531.97	23917.93
532.14	24023.26
532.31	23302.37
532.48	23969.43
532.65	24121.56
532.82	24025.60
532.99	24142.63
533.16	24161.35
533.33	24149.65
533.50	24339.23
533.67	24233.91
533.84	24369.66
534.01	23981.13
534.18	24329.87
534.35	24430.51
534.52	24388.38
534.69	24596.69
534.86	24765.21
535.03	24456.26
535.20	24774.57
535.37	24954.79
535.54	24744.14
535.71	24751.17
535.88	25055.43
536.05	24807.34
536.22	24929.05
536.38	24538.18
536.55	24893.94
536.72	24851.81
536.89	24765.21
537.06	24971.18
537.23	24746.48
537.40	24788.61
537.57	24620.10
537.74	25348.00
537.91	25453.33
538.08	24964.15
538.25	24980.54
538.42	25102.25
538.59	25434.60
538.75	25216.93
538.92	25245.02
539.09	25387.79
539.26	25284.81
539.43	25039.05
539.60	25577.37
539.77	25514.18
539.94	25757.60
540.11	25652.27
540.28	25834.83
540.44	25249.70
540.61	25291.83
540.78	25439.28
540.95	25820.79
541.12	25706.10
541.29	25238.00
541.46	25497.80
541.62	25586.74
541.79	25624.18
541.96	25675.68
542.13	25773.98
542.30	26040.80
542.47	25914.41
542.63	25785.68
542.80	26202.30
542.97	26146.12
543.14	26398.90
543.31	26279.54
543.48	26225.70
543.64	26593.17
543.81	26398.90
543.98	26445.71
544.15	26689.13
544.32	26693.81
544.48	26544.02
544.65	26455.08
544.82	26710.19
544.99	26026.76
545.16	26534.65
545.32	26567.42
545.49	26724.24
545.66	26796.79
545.83	26689.13
546.00	27021.48
546.16	26693.81
546.33	26302.94
546.50	26244.43
546.67	26941.91
546.83	26462.10
547.00	26785.09
547.17	27077.66
547.34	27194.68
547.50	26616.57
547.67	26937.23
547.84	27344.48
548.00	27051.91
548.17	27051.91
548.34	26969.99
548.51	26946.59
548.67	27445.12
548.84	27173.62
549.01	27325.75
549.18	26782.75
549.34	27014.46
549.51	27080.00
549.68	27199.37
549.84	27068.30
550.01	27005.10
550.18	27260.22
550.34	27232.13
550.51	27391.29
550.68	27520.02
550.84	27557.47
551.01	27548.11
551.18	27440.44
551.34	27445.12
551.51	27737.69
551.68	27601.94
551.84	27843.01
552.01	27772.80
552.18	27367.88
552.34	27639.39
552.51	27793.86
552.68	27576.19
552.84	27955.36
553.01	27718.96
553.18	27431.08
553.34	27817.27
553.51	27917.91
553.67	27578.53
553.84	28189.41
554.01	28339.21
554.17	27864.08
554.34	28032.60
554.51	27597.26
554.67	28173.03
554.84	28046.64
555.00	27976.42
555.17	28051.32
555.33	28233.88
555.50	28273.67
555.67	27962.38
555.83	27875.78
556.00	27835.99
556.16	28105.15
556.33	27894.50
556.50	28591.98
556.66	28793.27
556.83	27964.72
556.99	28570.92
557.16	28519.43
557.32	28208.14
557.49	28563.90
557.65	28240.90
557.82	28121.54
557.98	28503.04
558.15	28587.30
558.32	28608.37
558.48	28238.56
558.65	28711.35
558.81	28379.00
558.98	28287.71
559.14	28346.23
559.31	28451.55
559.47	28217.50
559.64	28343.89
559.80	28730.08
559.97	28591.98
560.13	28280.69
560.30	28847.10
560.46	28861.15
560.63	28629.43
560.79	28744.12
560.96	28828.38
561.12	28842.42
561.29	28538.15
561.45	28697.31
561.61	29055.41
561.78	28919.66
561.94	28936.04
562.11	28823.70
562.27	28952.43
562.44	28924.34
562.60	28627.09
562.77	29064.77
562.93	28744.12
563.10	28767.52
563.26	28840.08
563.42	29097.54
563.59	28954.77
563.75	29113.92
563.92	29118.60
564.08	28671.56
564.24	28950.09
564.41	29102.22
564.57	28905.62
564.74	29151.37
564.90	29003.92
565.07	28992.22
565.23	28615.39
565.39	29434.58
565.56	29125.63
565.72	29230.95
565.88	29008.60
566.05	29097.54
566.21	28723.05
566.38	29249.67
566.54	29465.00
566.70	29191.16
566.87	29575.01
567.03	29144.35
567.19	29816.08
567.36	29432.24
567.52	29244.99
567.68	29504.79
567.85	29266.06
568.01	29202.86
568.17	29331.59
568.34	29198.18
568.50	29116.26
568.66	29378.40
568.83	29500.11
568.99	29455.64
569.15	29207.55
569.32	29226.27
569.48	29315.21
569.64	29411.17
569.81	29177.12
569.97	29373.72
570.13	29553.94
570.30	29024.98
570.46	29111.58
570.62	29312.87
570.78	29303.51
570.95	29411.17
571.11	29280.10
571.27	29071.79
571.43	28896.25
571.60	29111.58
571.76	29305.85
571.92	29277.76
572.09	29551.60
572.25	29612.46
572.41	29804.38
572.57	29205.20
572.74	29567.99
572.90	29584.37
573.06	29694.38
573.22	29429.90
573.38	29551.60
573.55	29413.51
573.71	29720.12
573.87	29537.56
574.03	29347.98
574.20	29748.21
574.36	29516.50
574.52	29809.06
574.68	29610.12
574.84	29577.35
575.01	29308.19
575.17	29741.19
575.33	29439.26
575.49	29544.58
575.65	29736.51
575.82	29706.08
575.98	29457.98
576.14	29319.89
576.30	29336.27
576.46	29432.24
576.62	29252.02
576.79	29715.44
576.95	29914.39
577.11	29706.08
577.27	29848.85
577.43	29598.41
577.59	29778.64
577.75	29867.58
577.92	30125.04
578.08	29525.86
578.24	29333.93
578.40	29928.43
578.56	29872.26
578.72	29722.46
578.88	29893.32
579.04	30181.21
579.21	29647.57
579.37	29696.72
579.53	29710.76
579.69	29619.48
579.85	29759.91
580.01	29757.57
580.17	29600.76
580.33	30019.71
580.49	29455.64
580.65	29591.39
580.82	29832.47
580.98	29624.16
581.14	29809.06
581.30	29827.79
581.46	29886.30
581.62	29275.42
581.78	29792.68
581.94	29724.80
582.10	29528.20
582.26	29752.89
582.42	29556.28
582.58	29961.20
582.74	29420.53
582.90	29851.19
583.06	29993.97
583.22	29813.74
583.38	29750.55
583.54	29621.82
583.70	29898.00
583.86	29830.13
584.02	29811.40
584.18	30024.39
584.34	29975.24
584.50	30078.22
584.66	29551.60
584.82	29399.47
584.98	30141.42
585.14	29703.74
585.30	29837.15
585.46	29532.88
585.62	29944.81
585.78	29748.21
585.94	29741.19
586.10	29652.25
586.26	29876.94
586.42	30291.21
586.58	29898.00
586.74	29603.10
586.90	29869.92
587.06	29685.01
587.22	29460.32
587.38	29448.62
587.54	29970.56
587.70	30132.06
587.86	29659.27
588.02	30094.61
588.18	29872.26
588.34	29935.45
588.49	30223.34
588.65	29722.46
588.81	30089.93
588.97	29888.64
589.13	29771.61
589.29	29673.31
589.45	29804.38
589.61	29682.67
589.77	30277.17
589.93	30312.28
590.08	30380.15
590.24	30539.31
590.40	30221.00
590.56	30274.83
590.72	30185.89
590.88	29745.87
591.04	30258.45
591.20	30455.05
591.35	30410.58
591.51	30698.47
591.67	30600.16
591.83	30717.19
591.99	30239.72
