SpectraSuite Data File
++++++++++++++++++++++++++++++++++++
Date: Fri Oct 18 13:58:00 GMT-05:00 2013
User: bianchi
Dark Spectrum Present: No
Reference Spectrum Present: No
Number of Sampled Component Spectra: 1
Spectrometers: USB2+H05261
Integration Time (usec): 50000 (USB2+H05261)
Spectra Averaged: 1 (USB2+H05261)
Boxcar Smoothing: 0 (USB2+H05261)
Correct for Electrical Dark: No (USB2+H05261)
Strobe/Lamp Enabled: No (USB2+H05261)
Correct for Detector Non-linearity: No (USB2+H05261)
Correct for Stray Light: No (USB2+H05261)
Number of Pixels in Processed Spectrum: 2048
>>>>>Begin Processed Spectral Data<<<<<
365.73	0.00
365.92	0.00
366.12	0.00
366.32	0.00
366.52	0.00
366.72	0.00
366.91	0.00
367.11	0.00
367.31	0.00
367.51	0.00
367.70	0.00
367.90	0.00
368.10	0.00
368.30	0.00
368.49	0.00
368.69	0.00
368.89	0.00
369.09	0.00
369.28	0.00
369.48	0.00
369.68	0.00
369.87	0.00
370.07	0.00
370.27	0.00
370.47	0.00
370.66	44.47
370.86	114.69
371.06	107.66
371.25	128.73
371.45	177.88
371.65	135.75
371.84	91.28
372.04	175.54
372.24	269.16
372.44	168.52
372.63	187.24
372.83	224.69
373.03	252.78
373.22	175.54
373.42	203.63
373.62	177.88
373.81	184.90
374.01	250.44
374.21	236.39
374.40	191.92
374.60	203.63
374.79	271.50
374.99	248.10
375.19	276.18
375.38	250.44
375.58	257.46
375.78	248.10
375.97	322.99
376.17	252.78
376.37	315.97
376.56	266.82
376.76	229.37
376.95	236.39
377.15	266.82
377.35	311.29
377.54	236.39
377.74	287.89
377.93	252.78
378.13	292.57
378.33	287.89
378.52	220.01
378.72	280.86
378.91	184.90
379.11	308.95
379.31	224.69
379.50	236.39
379.70	245.76
379.89	311.29
380.09	266.82
380.28	301.93
380.48	262.14
380.68	308.95
380.87	304.27
381.07	304.27
381.26	344.06
381.46	227.03
381.65	353.42
381.85	339.38
382.04	360.44
382.24	306.61
382.43	313.63
382.63	334.70
382.83	362.78
383.02	351.08
383.22	407.25
383.41	362.78
383.61	332.36
383.80	414.27
384.00	496.19
384.19	381.51
384.39	444.70
384.58	320.65
384.78	381.51
384.97	372.15
385.17	428.32
385.36	393.21
385.56	367.46
385.75	367.46
385.95	418.96
386.14	435.34
386.34	402.57
386.53	433.00
386.72	404.91
386.92	416.62
387.11	397.89
387.31	337.04
387.50	411.93
387.70	400.23
387.89	449.38
388.09	376.83
388.28	409.59
388.48	411.93
388.67	430.66
388.86	458.74
389.06	358.10
389.25	493.85
389.45	411.93
389.64	407.25
389.84	528.96
390.03	388.53
390.22	505.56
390.42	468.11
390.61	449.38
390.81	505.56
391.00	557.05
391.19	589.82
391.39	496.19
391.58	524.28
391.78	489.17
391.97	557.05
392.16	514.92
392.36	540.66
392.55	538.32
392.75	526.62
392.94	498.53
393.13	580.45
393.33	554.71
393.52	528.96
393.71	585.13
393.91	517.26
394.10	521.94
394.29	589.82
394.49	564.07
394.68	617.90
394.88	603.86
395.07	582.79
395.26	575.77
395.46	622.58
395.65	613.22
395.84	662.37
396.04	669.39
396.23	631.94
396.42	627.26
396.62	657.69
396.81	615.56
397.00	568.75
397.19	704.50
397.39	685.78
397.58	683.44
397.77	674.07
397.97	711.52
398.16	704.50
398.35	653.01
398.55	603.86
398.74	589.82
398.93	662.37
399.12	718.54
399.32	723.23
399.51	716.20
399.70	711.52
399.90	713.86
400.09	751.31
400.28	842.59
400.47	697.48
400.67	723.23
400.86	695.14
401.05	718.54
401.24	662.37
401.44	772.38
401.63	798.12
401.82	840.25
402.01	851.96
402.21	844.93
402.40	788.76
402.59	777.06
402.78	823.87
402.97	802.80
403.17	896.43
403.36	924.51
403.55	894.08
403.74	851.96
403.93	896.43
404.13	837.91
404.32	882.38
404.51	854.30
404.70	915.15
404.89	922.17
405.09	968.98
405.28	983.02
405.47	922.17
405.66	866.00
405.85	1025.15
406.05	933.87
406.24	929.19
406.43	901.11
406.62	1020.47
406.81	1107.07
407.00	1006.43
407.20	987.71
407.39	1046.22
407.58	999.41
407.77	1172.61
407.96	1086.01
408.15	1118.78
408.34	1036.86
408.54	1107.07
408.73	1062.60
408.92	1114.10
409.11	1083.67
409.30	1083.67
409.49	1139.84
409.68	1179.63
409.87	1128.14
410.07	1142.18
410.26	1179.63
410.45	1219.42
410.64	1142.18
410.83	1203.04
411.02	1203.04
411.21	1184.31
411.40	1263.89
411.59	1324.74
411.78	1198.35
411.98	1270.91
412.17	1167.93
412.36	1245.16
412.55	1324.74
412.74	1345.81
412.93	1366.87
413.12	1324.74
413.31	1446.45
413.50	1409.00
413.69	1341.13
413.88	1439.43
414.07	1472.20
414.26	1488.58
414.45	1397.30
414.64	1490.92
414.83	1514.33
415.02	1591.56
415.22	1589.22
415.41	1514.33
415.60	1584.54
415.79	1521.35
415.98	1551.78
416.17	1629.01
416.36	1540.07
416.55	1579.86
416.74	1547.09
416.93	1577.52
417.12	1652.42
417.31	1650.08
417.50	1598.59
417.69	1732.00
417.88	1652.42
418.07	1636.03
418.26	1734.34
418.45	1736.68
418.64	1795.19
418.83	1795.19
419.02	1865.41
419.21	1783.49
419.39	1710.93
419.58	1827.96
419.77	1755.40
419.96	1769.44
420.15	1858.39
420.34	1851.36
420.53	1750.72
420.72	1802.21
420.91	1944.99
421.10	1921.58
421.29	1954.35
421.48	1877.11
421.67	1842.00
421.86	1926.26
422.05	1966.05
422.24	1942.64
422.43	1977.75
422.61	1996.48
422.80	1973.07
422.99	1989.46
423.18	2050.31
423.37	2033.93
423.56	1928.60
423.75	1966.05
423.94	1989.46
424.13	1888.81
424.32	1923.92
424.50	1944.99
424.69	2033.93
424.88	2062.01
425.07	2054.99
425.26	1933.28
425.45	1933.28
425.64	1867.75
425.83	2052.65
426.01	2097.12
426.20	2019.88
426.39	2160.31
426.58	2057.33
426.77	2139.25
426.96	2029.24
427.15	2012.86
427.33	2118.18
427.52	2019.88
427.71	2099.46
427.90	2160.31
428.09	2211.81
428.28	2092.44
428.46	2260.96
428.65	2179.04
428.84	2150.95
429.03	2174.36
429.22	2085.42
429.40	2157.97
429.59	2113.50
429.78	2228.19
429.97	2181.38
430.16	2340.54
430.34	2347.56
430.53	2328.83
430.72	2345.22
430.91	2207.13
431.10	2167.34
431.28	2373.30
431.47	2349.90
431.66	2455.22
431.85	2415.43
432.03	2525.44
432.22	2471.61
432.41	2373.30
432.60	2420.11
432.79	2399.05
432.97	2530.12
433.16	2408.41
433.35	2347.56
433.54	2520.76
433.72	2471.61
433.91	2574.59
434.10	2487.99
434.28	2588.63
434.47	2427.14
434.66	2551.18
434.85	2558.21
435.03	2633.10
435.22	2527.78
435.41	2705.66
435.59	2647.15
435.78	2647.15
435.97	2553.52
436.16	2621.40
436.34	2548.84
436.53	2736.09
436.72	2726.72
436.90	2710.34
437.09	2775.88
437.28	2696.30
437.46	2628.42
437.65	2750.13
437.84	2736.09
438.02	2754.81
438.21	2792.26
438.40	2700.98
438.58	2803.96
438.77	2789.92
438.96	2869.50
439.14	2937.37
439.33	2972.48
439.52	2892.90
439.70	3000.57
439.89	2913.97
440.08	2876.52
440.26	3014.61
440.45	2960.78
440.63	3045.04
440.82	3187.81
441.01	3073.12
441.19	3075.46
441.38	3192.49
441.57	3141.00
441.75	3279.09
441.94	3239.30
442.12	3239.30
442.31	3232.28
442.50	3290.79
442.68	3311.86
442.87	3332.92
443.05	3302.50
443.24	3290.79
443.43	3419.52
443.61	3335.26
443.80	3384.41
443.98	3332.92
444.17	3229.94
444.35	3337.60
444.54	3562.30
444.73	3428.88
444.91	3407.82
445.10	3466.33
445.28	3461.65
445.47	3393.78
445.65	3398.46
445.84	3405.48
446.02	3435.91
446.21	3368.03
446.39	3468.67
446.58	3508.46
446.77	3463.99
446.95	3417.18
447.14	3478.04
447.32	3574.00
447.51	3515.48
447.69	3412.50
447.88	3520.17
448.06	3667.62
448.25	3485.06
448.43	3468.67
448.62	3585.70
448.80	3513.14
448.99	3569.32
449.17	3454.63
449.36	3344.63
449.54	3613.79
449.73	3721.45
449.91	3716.77
450.10	3754.22
450.28	3630.17
450.46	3763.58
450.65	3723.79
450.83	3627.83
451.02	3772.94
451.20	3758.90
451.39	3747.20
451.57	3721.45
451.76	3609.11
451.94	3782.31
452.13	3850.18
452.31	3786.99
452.49	3864.22
452.68	3749.54
452.86	3716.77
453.05	3906.35
453.23	3815.07
453.42	3784.65
453.60	3749.54
453.78	3899.33
453.97	3953.16
454.15	4046.79
454.34	3847.84
454.52	4032.74
454.70	3918.06
454.89	4067.85
455.07	4074.87
455.26	4051.47
455.44	4077.21
455.62	4063.17
455.81	4039.76
455.99	4049.13
456.17	4058.49
456.36	4189.56
456.54	4154.45
456.73	4306.59
456.91	4264.46
457.09	4273.82
457.28	4430.63
457.46	4304.25
457.64	4351.06
457.83	4351.06
458.01	4264.46
458.19	4262.12
458.38	4423.61
458.56	4463.40
458.74	4252.75
458.93	4299.56
459.11	4348.72
459.29	4425.95
459.48	4353.40
459.66	4482.13
459.84	4545.32
460.03	4622.56
460.21	4571.07
460.39	4599.15
460.57	4557.02
460.76	4524.26
460.94	4603.83
461.12	4564.04
461.31	4683.41
461.49	4617.88
461.67	4432.97
461.85	4571.07
462.04	4692.77
462.22	4823.84
462.40	4798.10
462.59	4713.84
462.77	4697.46
462.95	4688.09
463.13	4809.80
463.32	4589.79
463.50	4844.91
463.68	4770.01
463.86	4999.38
464.05	4844.91
464.23	4791.08
464.41	4922.15
464.59	4765.33
464.78	4842.57
464.96	4926.83
465.14	4774.69
465.32	5001.72
465.50	4947.89
465.69	5013.43
465.87	4840.23
466.05	4964.28
466.23	4940.87
466.41	4985.34
466.60	5074.28
466.78	4968.96
466.96	5048.54
467.14	4999.38
467.32	5011.09
467.51	5284.93
467.69	4961.94
467.87	5076.62
468.05	5158.54
468.23	5107.05
468.41	5128.11
468.60	5240.46
468.78	5174.92
468.96	5170.24
469.14	5224.08
469.32	5474.51
469.50	5224.08
469.69	5371.53
469.87	5350.46
470.05	5296.63
470.23	5376.21
470.41	5437.06
470.59	5533.03
470.77	5549.41
470.95	5305.99
471.14	5577.50
471.32	5378.55
471.50	5547.07
471.68	5568.13
471.86	5577.50
472.04	5722.61
472.22	5680.48
472.40	5472.17
472.58	5533.03
472.77	5692.18
472.95	5778.78
473.13	5743.67
473.31	5832.62
473.49	5769.42
473.67	5921.56
473.85	5809.21
474.03	6029.22
474.21	5874.74
474.39	5930.92
474.57	6036.24
474.75	5982.41
474.93	6153.27
475.12	6200.08
475.30	6195.40
475.48	6019.86
475.66	6237.53
475.84	6031.56
476.02	6141.57
476.20	6445.84
476.38	6317.11
476.56	6569.88
476.74	6485.62
476.92	6502.01
477.10	6471.58
477.28	6518.39
477.46	6651.80
477.64	6834.36
477.82	6712.66
478.00	6832.02
478.18	6927.99
478.36	6981.82
478.54	7098.84
478.72	6937.35
478.90	7089.48
479.08	7005.22
479.26	7227.57
479.44	7419.50
479.62	7253.32
479.80	7211.19
479.98	7379.71
480.16	7480.35
480.34	7368.01
480.52	7487.37
480.70	7576.31
480.88	7391.41
481.06	7595.04
481.24	7590.36
481.41	7997.61
481.59	7829.09
481.77	8051.44
481.95	7969.52
482.13	8039.74
482.31	8119.32
482.49	8039.74
482.67	8372.10
482.85	8416.57
483.03	8512.53
483.21	8421.25
483.39	8566.36
483.57	8610.83
483.74	8592.11
483.92	8709.13
484.10	8557.00
484.28	8753.60
484.46	8915.10
484.64	9050.85
484.82	8821.48
485.00	9153.84
485.18	9474.49
485.35	9303.63
485.53	9394.91
485.71	9493.21
485.89	9593.86
486.07	9408.95
486.25	9511.94
486.43	9717.90
486.61	9778.76
486.78	9823.23
486.96	9961.32
487.14	10012.81
487.32	10008.13
487.50	9909.83
487.68	10134.52
487.85	10310.06
488.03	10476.24
488.21	10448.15
488.39	10410.70
488.57	10663.48
488.75	10714.97
488.92	10827.32
489.10	10843.70
489.28	10909.24
489.46	11054.35
489.64	10970.09
489.81	11110.52
489.99	11274.36
490.17	11243.93
490.35	11370.32
490.53	11454.58
490.70	11669.91
490.88	11566.93
491.06	11658.21
491.24	11726.08
491.41	11763.53
491.59	11962.48
491.77	11915.67
491.95	11843.11
492.13	12018.65
492.30	12381.43
492.48	12301.86
492.66	12393.14
492.84	12262.07
493.01	12362.71
493.19	12573.36
493.37	12652.94
493.54	12514.84
493.72	12711.45
493.90	12545.27
494.08	12716.13
494.25	12879.97
494.43	13139.77
494.61	13135.09
494.79	13270.84
494.96	13099.98
495.14	13202.96
495.32	13563.40
495.49	13561.06
495.67	13635.96
495.85	13717.88
496.02	13661.71
496.20	13715.54
496.38	13935.55
496.55	14094.71
496.73	14118.11
496.91	14200.03
497.09	14010.45
497.26	14326.42
497.44	14066.62
497.62	14328.76
497.79	14745.38
497.97	14396.64
498.14	14415.36
498.32	14686.86
498.50	14831.97
498.67	14876.44
498.85	14822.61
499.03	14696.22
499.20	15019.22
499.38	14920.92
499.56	15227.53
499.73	15349.23
499.91	15414.77
500.08	15379.66
500.26	15180.71
500.44	15152.63
500.61	15604.35
500.79	15473.28
500.97	15456.90
501.14	15768.19
501.32	15765.85
501.49	15831.38
501.67	15751.81
501.84	15896.92
502.02	15852.45
502.20	16084.16
502.37	15859.47
502.55	16369.71
502.72	16077.14
502.90	16116.93
503.07	16100.55
503.25	16084.16
503.43	16173.10
503.60	16350.98
503.78	16421.20
503.95	16662.27
504.13	16643.55
504.30	16358.00
504.48	16645.89
504.65	16758.24
504.83	16840.15
505.01	16908.03
505.18	16877.60
505.36	16968.88
505.53	16774.62
505.71	17067.19
505.88	17067.19
506.06	17039.10
506.23	17378.48
506.41	17224.00
506.58	17322.30
506.76	17228.68
506.93	17261.45
507.11	17242.73
507.28	17397.20
507.46	17436.99
507.63	17802.11
507.81	17682.75
507.98	17558.70
508.16	17816.16
508.33	17809.14
508.50	17970.63
508.68	17661.68
508.85	18033.83
509.03	17778.71
509.20	18192.98
509.38	18244.48
509.55	18162.56
509.73	18202.35
509.90	18274.90
510.08	18143.83
510.25	18532.36
510.42	18590.88
510.60	18609.60
510.77	18689.18
510.95	18731.31
511.12	18970.04
511.30	18544.06
511.47	18658.75
511.64	18883.44
511.82	18890.46
511.99	18932.59
512.17	19112.81
512.34	18815.57
512.51	18864.72
512.69	19117.50
512.86	19077.71
513.04	19070.68
513.21	19353.89
513.38	19330.48
513.56	19351.55
513.73	19501.34
513.90	19267.29
514.08	19297.72
514.25	19754.12
514.43	19679.22
514.60	19536.45
514.77	19859.45
514.95	19878.17
515.12	20121.59
515.29	19775.19
515.47	20208.19
515.64	20013.92
515.81	20224.57
515.99	20166.06
516.16	20081.80
516.33	20025.62
516.51	20453.94
516.68	20163.72
516.85	20114.56
517.03	20189.46
517.20	20446.92
517.37	20512.46
517.54	20320.53
517.72	20589.69
517.89	20421.17
518.06	20482.03
518.24	20521.82
518.41	20446.92
518.58	20526.50
518.75	20699.70
518.93	20760.55
519.10	21111.63
519.27	21425.26
519.45	20765.23
519.62	21022.69
519.79	21179.51
519.96	21102.27
520.14	20987.58
520.31	21170.15
520.48	21474.42
520.65	21149.08
520.83	21310.58
521.00	21345.69
521.17	21034.39
521.34	21284.83
521.52	21333.98
521.69	21490.80
521.86	21439.31
522.03	21696.77
522.20	21565.70
522.38	21640.59
522.55	21783.37
522.72	21837.20
522.89	21752.94
523.07	21867.63
523.24	22169.55
523.41	22375.52
523.58	21907.41
523.75	21731.87
523.92	21909.75
524.10	21734.21
524.27	22150.83
524.44	22558.08
524.61	22345.09
524.78	22499.57
524.96	22537.02
525.13	22506.59
525.30	22902.14
525.47	22558.08
525.64	22380.20
525.81	22726.60
525.98	22562.76
526.16	22520.63
526.33	22668.09
526.50	22745.33
526.67	22593.19
526.84	22937.25
527.01	22967.68
527.18	22855.33
527.36	22965.34
527.53	23101.09
527.70	23435.78
527.87	23185.35
528.04	22934.91
528.21	23183.01
528.38	22803.84
528.55	23466.21
528.72	23321.10
528.89	23000.44
529.07	23262.58
529.24	23374.93
529.41	23674.52
529.58	23665.16
529.75	23323.44
529.92	23365.57
530.09	23220.45
530.26	23784.52
530.43	23887.51
530.60	23613.66
530.77	23484.94
530.94	23791.55
531.11	23573.88
531.28	23695.58
531.46	23793.89
531.63	23702.61
531.80	23632.39
531.97	24046.66
532.14	24002.19
532.31	24039.64
532.48	24081.77
532.65	23913.25
532.82	23997.51
532.99	24063.05
533.16	24039.64
533.33	24147.31
533.50	24367.32
533.67	24465.62
533.84	24250.29
534.01	24292.42
534.18	24341.57
534.35	24409.45
534.52	24514.77
534.69	24561.58
534.86	24664.57
535.03	24379.02
535.20	24561.58
535.37	24334.55
535.54	24842.45
535.71	24491.37
535.88	24446.90
536.05	24641.16
536.22	24535.84
536.38	25120.97
536.55	24900.96
536.72	24781.59
536.89	24460.94
537.06	24929.05
537.23	24966.49
537.40	24769.89
537.57	24919.68
537.74	25118.63
537.91	25846.54
538.08	25338.64
538.25	24879.89
538.42	24898.62
538.59	25275.45
538.75	25137.35
538.92	25261.40
539.09	25500.14
539.26	25277.79
539.43	25357.36
539.60	25228.63
539.77	25366.73
539.94	25429.92
540.11	25549.29
540.28	25193.53
540.44	25284.81
540.61	25436.94
540.78	25296.51
540.95	25553.97
541.12	25479.07
541.29	25724.83
541.46	25633.55
541.62	25476.73
541.79	25809.09
541.96	25539.93
542.13	25713.13
542.30	25453.33
542.47	25935.48
542.63	26052.50
542.80	26096.97
542.97	26057.18
543.14	26426.99
543.31	26417.63
543.48	26096.97
543.64	26225.70
543.81	26232.72
543.98	26424.65
544.15	26452.73
544.32	26396.56
544.48	26630.62
544.65	26265.49
544.82	26597.85
544.99	26129.74
545.16	26497.20
545.32	26331.03
545.49	26794.45
545.66	26773.39
545.83	26764.03
546.00	26642.32
546.16	26703.17
546.33	26586.15
546.50	26157.83
546.67	27037.87
546.83	26244.43
547.00	26934.88
547.17	26340.39
547.34	26824.88
547.50	27061.27
547.67	26892.76
547.84	27030.85
548.00	26995.74
548.17	27407.67
548.34	27122.13
548.51	27374.91
548.67	27117.45
548.84	27215.75
549.01	27342.14
549.18	27407.67
549.34	27058.93
549.51	26960.63
549.68	27168.94
549.84	27136.17
550.01	27473.21
550.18	27040.21
550.34	27129.15
550.51	27321.07
550.68	27365.54
550.84	27178.30
551.01	27962.38
551.18	27625.34
551.34	27405.33
551.51	27206.39
551.68	27445.12
551.84	27131.49
552.01	27522.36
552.18	27721.30
552.34	27536.40
552.51	27690.88
552.68	27686.20
552.84	27522.36
553.01	27613.64
553.18	27573.85
553.34	27924.93
553.51	27772.80
553.67	28196.43
553.84	28114.52
554.01	27655.77
554.17	27964.72
554.34	27714.28
554.51	27807.90
554.67	28428.15
554.84	27957.70
555.00	27859.40
555.17	28018.55
555.33	28350.91
555.50	28156.64
555.67	27936.63
555.83	27814.93
556.00	28222.18
556.16	28493.68
556.33	28063.02
556.50	28205.80
556.66	28486.66
556.83	28191.75
556.99	28332.18
557.16	28219.84
557.32	28538.15
557.49	28343.89
557.65	28126.22
557.82	28357.93
557.98	27924.93
558.15	28100.47
558.32	28538.15
558.48	28240.90
558.65	28809.65
558.81	28580.28
558.98	28472.62
559.14	28428.15
559.31	28549.85
559.47	28542.83
559.64	28240.90
559.80	28514.75
559.97	28840.08
560.13	28428.15
560.30	28797.95
560.46	28793.27
560.63	28744.12
560.79	28929.02
560.96	28575.60
561.12	28676.24
561.29	28325.16
561.45	28975.83
561.61	29099.88
561.78	28652.84
561.94	28837.74
562.11	28905.62
562.27	28989.88
562.44	29244.99
562.60	28966.47
562.77	28636.45
562.93	28613.05
563.10	28952.43
563.26	28776.89
563.42	29476.71
563.59	28879.87
563.75	28907.96
563.92	29043.71
564.08	28643.48
564.24	28900.94
564.41	28570.92
564.57	28823.70
564.74	28835.40
564.90	29048.39
565.07	29331.59
565.23	28996.90
565.39	29235.63
565.56	29294.14
565.72	28790.93
565.88	29010.94
566.05	28994.56
566.21	29017.96
566.38	28851.78
566.54	28826.04
566.70	29736.51
566.87	28922.00
567.03	29123.29
567.19	29436.92
567.36	29551.60
567.52	29427.56
567.68	29549.26
567.85	28926.68
568.01	29113.92
568.17	28973.49
568.34	29333.93
568.50	29132.65
568.66	29319.89
568.83	29860.55
568.99	29340.96
569.15	29074.13
569.32	29095.20
569.48	28992.22
569.64	29422.87
569.81	29415.85
569.97	29560.97
570.13	29731.83
570.30	29432.24
570.46	29376.06
570.62	29244.99
570.78	29397.13
570.95	29287.12
571.11	29397.13
571.27	29223.93
571.43	29039.03
571.60	29287.12
571.76	29261.38
571.92	29090.52
572.09	29713.10
572.25	29811.40
572.41	29305.85
572.57	29373.72
572.74	29633.52
572.90	29373.72
573.06	29326.91
573.22	29415.85
573.38	29420.53
573.55	29495.43
573.71	29773.95
573.87	29912.05
574.03	29586.71
574.20	29912.05
574.36	29413.51
574.52	29703.74
574.68	29486.07
574.84	29603.10
575.01	29614.80
575.17	29827.79
575.33	29549.26
575.49	29832.47
575.65	29853.53
575.82	29673.31
575.98	29570.33
576.14	30024.39
576.30	29460.32
576.46	29539.90
576.62	29577.35
576.79	29514.16
576.95	29507.13
577.11	30043.12
577.27	29811.40
577.43	29902.68
577.59	29549.26
577.75	29685.01
577.92	29441.60
578.08	29689.70
578.24	29717.78
578.40	29724.80
578.56	29579.69
578.72	29820.77
578.88	29614.80
579.04	29792.68
579.21	29701.40
579.37	29567.99
579.53	29748.21
579.69	29570.33
579.85	29673.31
580.01	29745.87
580.17	29610.12
580.33	29741.19
580.49	29560.97
580.65	29937.79
580.82	29933.11
580.98	29717.78
581.14	29680.33
581.30	29865.24
581.46	29420.53
581.62	29687.36
581.78	29472.03
581.94	29942.47
582.10	29626.50
582.26	29567.99
582.42	29663.95
582.58	30054.82
582.74	30029.07
582.90	29551.60
583.06	30197.59
583.22	30029.07
583.38	29965.88
583.54	29799.70
583.70	29668.63
583.86	29675.65
584.02	29518.84
584.18	29951.84
584.34	30087.59
584.50	30155.46
584.66	29734.17
584.82	29333.93
584.98	29701.40
585.14	29724.80
585.30	30012.69
585.46	29717.78
585.62	29879.28
585.78	29778.64
585.94	29722.46
586.10	30029.07
586.26	29881.62
586.42	29968.22
586.58	30338.02
586.74	30176.53
586.90	29734.17
587.06	29853.53
587.22	29773.95
587.38	30054.82
587.54	30148.44
587.70	29876.94
587.86	30120.35
588.02	30040.78
588.18	30462.07
588.34	29778.64
588.49	30061.84
588.65	29748.21
588.81	29600.76
588.97	29773.95
589.13	30139.08
589.29	29619.48
589.45	30356.75
589.61	29907.37
589.77	30092.27
589.93	30529.95
590.08	30230.36
590.24	30478.46
590.40	30527.61
590.56	30504.20
590.72	29886.30
590.88	30228.02
591.04	30075.88
591.20	30277.17
591.35	30457.39
591.51	30438.67
591.67	30078.22
591.83	30176.53
591.99	30178.87
