SpectraSuite Data File
++++++++++++++++++++++++++++++++++++
Date: Fri Oct 18 13:58:16 GMT-05:00 2013
User: bianchi
Dark Spectrum Present: No
Reference Spectrum Present: No
Number of Sampled Component Spectra: 1
Spectrometers: USB2+H05261
Integration Time (usec): 50000 (USB2+H05261)
Spectra Averaged: 1 (USB2+H05261)
Boxcar Smoothing: 0 (USB2+H05261)
Correct for Electrical Dark: No (USB2+H05261)
Strobe/Lamp Enabled: No (USB2+H05261)
Correct for Detector Non-linearity: No (USB2+H05261)
Correct for Stray Light: No (USB2+H05261)
Number of Pixels in Processed Spectrum: 2048
>>>>>Begin Processed Spectral Data<<<<<
365.73	0.00
365.92	0.00
366.12	0.00
366.32	0.00
366.52	0.00
366.72	0.00
366.91	0.00
367.11	0.00
367.31	0.00
367.51	0.00
367.70	0.00
367.90	0.00
368.10	0.00
368.30	0.00
368.49	0.00
368.69	0.00
368.89	0.00
369.09	0.00
369.28	0.00
369.48	0.00
369.68	0.00
369.87	0.00
370.07	0.00
370.27	0.00
370.47	0.00
370.66	114.69
370.86	65.54
371.06	112.35
371.25	95.96
371.45	173.20
371.65	98.30
371.84	163.84
372.04	124.05
372.24	154.48
372.44	170.86
372.63	191.92
372.83	210.65
373.03	217.67
373.22	212.99
373.42	191.92
373.62	231.71
373.81	156.82
374.01	294.91
374.21	306.61
374.40	238.73
374.60	184.90
374.79	210.65
374.99	208.31
375.19	229.37
375.38	262.14
375.58	215.33
375.78	367.46
375.97	283.20
376.17	269.16
376.37	271.50
376.56	196.60
376.76	220.01
376.95	262.14
377.15	236.39
377.35	269.16
377.54	276.18
377.74	184.90
377.93	299.59
378.13	397.89
378.33	337.04
378.52	306.61
378.72	285.55
378.91	250.44
379.11	273.84
379.31	301.93
379.50	191.92
379.70	313.63
379.89	308.95
380.09	292.57
380.28	220.01
380.48	325.33
380.68	210.65
380.87	290.23
381.07	252.78
381.26	290.23
381.46	404.91
381.65	337.04
381.85	262.14
382.04	360.44
382.24	278.52
382.43	308.95
382.63	320.65
382.83	346.40
383.02	344.06
383.22	322.99
383.41	276.18
383.61	330.02
383.80	381.51
384.00	297.25
384.19	315.97
384.39	433.00
384.58	358.10
384.78	428.32
384.97	444.70
385.17	437.68
385.36	376.83
385.56	344.06
385.75	332.36
385.95	367.46
386.14	411.93
386.34	358.10
386.53	414.27
386.72	411.93
386.92	411.93
387.11	376.83
387.31	440.02
387.50	449.38
387.70	435.34
387.89	451.72
388.09	458.74
388.28	482.15
388.48	454.06
388.67	456.40
388.86	402.57
389.06	456.40
389.25	456.40
389.45	428.32
389.64	461.09
389.84	507.90
390.03	533.64
390.22	470.45
390.42	456.40
390.61	433.00
390.81	449.38
391.00	465.77
391.19	561.73
391.39	435.34
391.58	557.05
391.78	468.11
391.97	510.24
392.16	540.66
392.36	585.13
392.55	519.60
392.75	498.53
392.94	503.22
393.13	496.19
393.33	575.77
393.52	568.75
393.71	681.10
393.91	636.63
394.10	517.26
394.29	580.45
394.49	552.37
394.68	517.26
394.88	575.77
395.07	606.20
395.26	561.73
395.46	655.35
395.65	613.22
395.84	725.57
396.04	615.56
396.23	557.05
396.42	610.88
396.62	716.20
396.81	727.91
397.00	685.78
397.19	676.41
397.39	671.73
397.58	645.99
397.77	690.46
397.97	730.25
398.16	732.59
398.35	739.61
398.55	620.24
398.74	727.91
398.93	727.91
399.12	692.80
399.32	699.82
399.51	730.25
399.70	758.33
399.90	812.17
400.09	777.06
400.28	760.67
400.47	800.46
400.67	840.25
400.86	664.71
401.05	802.80
401.24	844.93
401.44	821.53
401.63	793.44
401.82	840.25
402.01	781.74
402.21	875.36
402.40	819.19
402.59	863.66
402.78	821.53
402.97	851.96
403.17	940.90
403.36	896.43
403.55	851.96
403.74	842.59
403.93	856.64
404.13	896.43
404.32	884.72
404.51	926.85
404.70	961.96
404.89	936.21
405.09	964.30
405.28	985.37
405.47	912.81
405.66	959.62
405.85	945.58
406.05	957.28
406.24	924.51
406.43	931.53
406.62	1025.15
406.81	1039.20
407.00	1025.15
407.20	1036.86
407.39	994.73
407.58	978.34
407.77	1046.22
407.96	1039.20
408.15	1062.60
408.34	1083.67
408.54	1050.90
408.73	1039.20
408.92	1186.65
409.11	1029.84
409.30	1093.03
409.49	1062.60
409.68	1156.22
409.87	1102.39
410.07	1135.16
410.26	1170.27
410.45	1191.33
410.64	1156.22
410.83	1270.91
411.02	1179.63
411.21	1259.21
411.40	1231.12
411.59	1306.02
411.78	1212.40
411.98	1284.95
412.17	1334.11
412.36	1366.87
412.55	1336.45
412.74	1289.64
412.93	1306.02
413.12	1317.72
413.31	1434.75
413.50	1327.08
413.69	1493.26
413.88	1451.13
414.07	1439.43
414.26	1483.90
414.45	1523.69
414.64	1397.30
414.83	1458.15
415.02	1453.47
415.22	1462.83
415.41	1547.09
415.60	1577.52
415.79	1526.03
415.98	1544.75
416.17	1544.75
416.36	1607.95
416.55	1570.50
416.74	1680.50
416.93	1610.29
417.12	1753.06
417.31	1621.99
417.50	1722.63
417.69	1694.55
417.88	1710.93
418.07	1774.13
418.26	1727.32
418.45	1664.12
418.64	1842.00
418.83	1736.68
419.02	1755.40
419.21	1799.87
419.39	1853.70
419.58	1820.94
419.77	1776.47
419.96	1830.30
420.15	1895.83
420.34	1895.83
420.53	1846.68
420.72	1839.66
420.91	1898.17
421.10	1849.02
421.29	1928.60
421.48	1928.60
421.67	1902.86
421.86	1944.99
422.05	1919.24
422.24	1919.24
422.43	1970.73
422.61	1940.30
422.80	2059.67
422.99	1959.03
423.18	2125.21
423.37	2031.58
423.56	1975.41
423.75	1959.03
423.94	2050.31
424.13	1741.36
424.32	2033.93
424.50	2036.27
424.69	2139.25
424.88	2017.54
425.07	2001.16
425.26	1949.67
425.45	2073.71
425.64	1966.05
425.83	2036.27
426.01	2143.93
426.20	1996.48
426.39	2054.99
426.58	2085.42
426.77	2003.50
426.96	2073.71
427.15	2024.56
427.33	2127.55
427.52	2106.48
427.71	2127.55
427.90	2127.55
428.09	2160.31
428.28	2139.25
428.46	2202.44
428.65	2115.84
428.84	2186.06
429.03	2340.54
429.22	2186.06
429.40	2188.40
429.59	2275.00
429.78	2052.65
429.97	2069.03
430.16	2122.87
430.34	2258.62
430.53	2394.37
430.72	2260.96
430.91	2291.38
431.10	2258.62
431.28	2356.92
431.47	2373.30
431.66	2436.50
431.85	2300.75
432.03	2396.71
432.22	2434.16
432.41	2464.58
432.60	2424.80
432.79	2518.42
432.97	2424.80
433.16	2478.63
433.35	2497.35
433.54	2399.05
433.72	2429.48
433.91	2499.69
434.10	2588.63
434.28	2492.67
434.47	2609.70
434.66	2574.59
434.85	2677.57
435.03	2544.16
435.22	2553.52
435.41	2785.24
435.59	2647.15
435.78	2583.95
435.97	2560.55
436.16	2630.76
436.34	2724.38
436.53	2654.17
436.72	2785.24
436.90	2626.08
437.09	2712.68
437.28	2621.40
437.46	2719.70
437.65	2813.32
437.84	2757.15
438.02	2672.89
438.21	2843.75
438.40	2747.79
438.58	2853.11
438.77	2773.53
438.96	2878.86
439.14	3063.76
439.33	2972.48
439.52	3009.93
439.70	2899.92
439.89	2981.84
440.08	2977.16
440.26	3049.72
440.45	3021.63
440.63	3035.67
440.82	3061.42
441.01	3145.68
441.19	3180.79
441.38	3180.79
441.57	3251.00
441.75	3269.73
441.94	3199.51
442.12	3152.70
442.31	3358.67
442.50	3269.73
442.68	3316.54
442.87	3288.45
443.05	3208.87
443.24	3391.44
443.43	3342.28
443.61	3330.58
443.80	3330.58
443.98	3295.47
444.17	3152.70
444.35	3508.46
444.54	3529.53
444.73	3407.82
444.91	3496.76
445.10	3382.07
445.28	3375.05
445.47	3400.80
445.65	3496.76
445.84	3461.65
446.02	3410.16
446.21	3461.65
446.39	3478.04
446.58	3503.78
446.77	3386.76
446.95	3463.99
447.14	3597.40
447.32	3595.06
447.51	3452.29
447.69	3473.36
447.88	3637.19
448.06	3510.80
448.25	3384.41
448.43	3426.54
448.62	3440.59
448.80	3562.30
448.99	3707.41
449.17	3620.81
449.36	3531.87
449.54	3651.24
449.73	3620.81
449.91	3761.24
450.10	3742.52
450.28	3747.20
450.46	3882.95
450.65	3646.55
450.83	3789.33
451.02	3681.66
451.20	3761.24
451.39	3749.54
451.57	3695.71
451.76	3831.46
451.94	3845.50
452.13	3819.75
452.31	3805.71
452.49	3667.62
452.68	3733.15
452.86	3983.59
453.05	3749.54
453.23	4007.00
453.42	3864.22
453.60	3878.27
453.78	3950.82
453.97	3946.14
454.15	3967.21
454.34	4053.81
454.52	3974.23
454.70	3880.61
454.89	4002.32
455.07	3992.95
455.26	4128.70
455.44	4037.42
455.62	4152.11
455.81	4119.34
455.99	4060.83
456.17	4058.49
456.36	4198.92
456.54	4191.90
456.73	4217.65
456.91	4285.52
457.09	4322.97
457.28	4353.40
457.46	4166.15
457.64	4393.19
457.83	4313.61
458.01	4159.13
458.19	4315.95
458.38	4259.78
458.56	4308.93
458.74	4353.40
458.93	4255.09
459.11	4486.81
459.29	4414.25
459.48	4503.19
459.66	4447.02
459.84	4683.41
460.03	4507.87
460.21	4514.89
460.39	4505.53
460.57	4620.22
460.76	4458.72
460.94	4601.49
461.12	4608.51
461.31	4643.62
461.49	4641.28
461.67	4585.11
461.85	4617.88
462.04	4652.98
462.22	4947.89
462.40	4819.16
462.59	4667.03
462.77	4882.36
462.95	4767.67
463.13	4943.21
463.32	4795.76
463.50	4786.40
463.68	4861.29
463.86	4954.91
464.05	4716.18
464.23	4755.97
464.41	4990.02
464.59	4744.27
464.78	4938.53
464.96	4861.29
465.14	4828.53
465.32	4975.98
465.50	4929.17
465.69	5097.69
465.87	5053.22
466.05	5041.51
466.23	4987.68
466.41	4945.55
466.60	5224.08
466.78	4975.98
466.96	4994.70
467.14	4961.94
467.32	5179.61
467.51	5313.02
467.69	5039.17
467.87	5071.94
468.05	5497.92
468.23	5100.03
468.41	4947.89
468.60	5191.31
468.78	5193.65
468.96	5256.84
469.14	5467.49
469.32	5259.18
469.50	5224.08
469.69	5383.23
469.87	5509.62
470.05	5397.28
470.23	5310.68
470.41	5509.62
470.59	5476.85
470.77	5425.36
470.95	5504.94
471.14	5446.43
471.32	5558.77
471.50	5486.22
471.68	5465.15
471.86	5659.42
472.04	5453.45
472.22	5650.05
472.40	5678.14
472.58	5647.71
472.77	5802.19
472.95	5888.79
473.13	6066.67
473.31	5914.53
473.49	5839.64
473.67	5818.57
473.85	5900.49
474.03	6033.90
474.21	5994.11
474.39	5980.07
474.57	5944.96
474.75	6005.81
474.93	6157.95
475.12	6010.50
475.30	6120.50
475.48	6022.20
475.66	6291.36
475.84	6300.72
476.02	6246.89
476.20	6431.79
476.38	6377.96
476.56	6640.10
476.74	6700.95
476.92	6663.51
477.10	6583.93
477.28	6693.93
477.46	6656.48
477.64	6651.80
477.82	6633.08
478.00	6853.09
478.18	6923.30
478.36	6991.18
478.54	7133.95
478.72	7005.22
478.90	7000.54
479.08	7084.80
479.26	7164.38
479.44	7061.40
479.62	7316.51
479.80	7417.16
479.98	7372.69
480.16	7442.90
480.34	7550.57
480.52	7480.35
480.70	7669.94
480.88	7489.71
481.06	7679.30
481.24	7597.38
481.41	7803.35
481.59	7803.35
481.77	8105.28
481.95	8086.55
482.13	7981.23
482.31	8072.51
482.49	8149.75
482.67	8212.94
482.85	8264.43
483.03	8456.36
483.21	8503.17
483.39	8489.12
483.57	8645.94
483.74	8610.83
483.92	8800.41
484.10	8702.11
484.28	9107.02
484.46	9001.70
484.64	9076.60
484.82	8931.48
485.00	8985.32
485.18	9305.97
485.35	9280.22
485.53	9310.65
485.71	9324.69
485.89	9598.54
486.07	9717.90
486.25	9373.85
486.43	9743.65
486.61	9715.56
486.78	10012.81
486.96	9797.48
487.14	10092.39
487.32	9940.26
487.50	9940.26
487.68	10099.41
487.85	10317.08
488.03	10544.11
488.21	10565.18
488.39	10497.30
488.57	10637.73
488.75	10614.33
488.92	10658.80
489.10	10691.57
489.28	10934.98
489.46	10988.82
489.64	11037.97
489.81	11183.08
489.99	11215.85
490.17	11435.86
490.35	11454.58
490.53	11489.69
490.70	11559.91
490.88	11566.93
491.06	11754.17
491.24	11674.59
491.41	11751.83
491.59	11920.35
491.77	11990.56
491.95	12107.59
492.13	12166.10
492.30	12266.75
492.48	12346.33
492.66	12215.26
492.84	12116.95
493.01	12418.88
493.19	12334.62
493.37	12758.26
493.54	12676.34
493.72	12886.99
493.90	12884.65
494.08	12982.95
494.25	13174.88
494.43	13252.11
494.61	13158.49
494.79	13284.88
494.96	13261.48
495.14	13284.88
495.32	13448.72
495.49	13507.23
495.67	13511.91
495.85	13523.62
496.02	13891.08
496.20	14003.43
496.38	13708.52
496.55	13839.59
496.73	14141.52
496.91	14258.54
497.09	14122.79
497.26	14408.34
497.44	14373.23
497.62	14363.87
497.79	14537.07
497.97	14611.96
498.14	14855.38
498.32	14883.47
498.50	14860.06
498.67	14834.32
498.85	14834.32
499.03	15169.01
499.20	15274.34
499.38	15054.33
499.56	15487.32
499.73	15274.34
499.91	15433.49
500.08	15393.70
500.26	15396.04
500.44	15606.69
500.61	15690.95
500.79	15510.73
500.97	15482.64
501.14	15747.12
501.32	16025.65
501.49	15976.50
501.67	15637.12
501.84	15974.16
502.02	15950.75
502.20	16152.04
502.37	16355.66
502.55	16081.82
502.72	16046.71
502.90	16259.70
503.07	16152.04
503.25	16341.62
503.43	16468.01
503.60	16521.84
503.78	16493.76
503.95	16732.49
504.13	16606.10
504.30	16418.86
504.48	16538.23
504.65	16645.89
504.83	17219.32
505.01	16620.14
505.18	16938.46
505.36	17296.56
505.53	16695.04
505.71	16912.71
505.88	17083.57
506.06	16821.43
506.23	17170.17
506.41	17507.21
506.58	17202.94
506.76	17062.51
506.93	17418.27
507.11	17397.20
507.28	17640.62
507.46	17668.70
507.63	17830.20
507.81	17958.93
507.98	17671.04
508.16	17727.22
508.33	17586.79
508.50	17724.88
508.68	17818.50
508.85	17982.34
509.03	18146.17
509.20	18249.16
509.38	18141.49
509.55	18253.84
509.73	18398.95
509.90	18115.75
510.08	18356.82
510.25	18225.75
510.42	18286.61
510.60	18677.48
510.77	18757.05
510.95	18586.19
511.12	18827.27
511.30	18918.55
511.47	19101.11
511.64	18974.72
511.82	19033.24
511.99	18878.76
512.17	19035.58
512.34	19044.94
512.51	19033.24
512.69	18995.79
512.86	19377.30
513.04	19323.46
513.21	19559.86
513.38	19470.92
513.56	19627.73
513.73	19410.06
513.90	19548.15
514.08	19290.70
514.25	19494.32
514.43	19829.02
514.60	19700.29
514.77	19569.22
514.95	19854.76
515.12	19723.69
515.29	19873.49
515.47	19903.92
515.64	20072.43
515.81	20262.02
515.99	20327.55
516.16	20156.69
516.33	20332.23
516.51	20596.71
516.68	20304.15
516.85	19999.88
517.03	20217.55
517.20	20688.00
517.37	20402.45
517.54	20835.45
517.72	20739.49
517.89	20538.20
518.06	20676.29
518.24	20437.56
518.41	20320.53
518.58	20982.90
518.75	20816.72
518.93	21057.80
519.10	20840.13
519.27	20877.58
519.45	21135.04
519.62	21186.53
519.79	21085.89
519.96	21153.76
520.14	21212.28
520.31	21186.53
520.48	21205.25
520.65	21373.77
520.83	21355.05
521.00	21214.62
521.17	21542.29
521.34	20968.86
521.52	21448.67
521.69	21451.01
521.86	21509.52
522.03	21792.73
522.20	21619.53
522.38	21656.98
522.55	21731.87
522.72	21766.98
522.89	22043.17
523.07	22309.99
523.24	21970.61
523.41	22178.92
523.58	22050.19
523.75	22251.47
523.92	21652.30
524.10	22181.26
524.27	22295.94
524.44	22232.75
524.61	22326.37
524.78	22476.16
524.96	22267.86
525.13	22174.24
525.30	22419.99
525.47	22450.42
525.64	22417.65
525.81	22607.23
525.98	22757.03
526.16	22703.20
526.33	22778.09
526.50	23089.38
526.67	22719.58
526.84	22855.33
527.01	22583.83
527.18	22794.48
527.36	23005.13
527.53	23269.61
527.70	23442.81
527.87	23442.81
528.04	23014.49
528.21	23133.86
528.38	23129.17
528.55	23377.27
528.72	23115.13
528.89	23613.66
529.07	23410.04
529.24	23285.99
529.41	23480.25
529.58	23620.69
529.75	23452.17
529.92	23648.77
530.09	23683.88
530.26	23730.69
530.43	23648.77
530.60	23379.61
530.77	23805.59
530.94	24027.94
531.11	23730.69
531.28	23840.70
531.46	23304.71
531.63	23704.95
531.80	23934.32
531.97	23976.45
532.14	23885.17
532.31	24159.01
532.48	24056.03
532.65	24156.67
532.82	23929.64
532.99	24009.22
533.16	24067.73
533.33	24435.19
533.50	24601.37
533.67	24477.32
533.84	24114.54
534.01	24540.52
534.18	24477.32
534.35	24650.52
534.52	24416.47
534.69	24577.97
534.86	24702.01
535.03	24208.16
535.20	24720.74
535.37	24739.46
535.54	24774.57
535.71	24702.01
535.88	24823.72
536.05	24577.97
536.22	25053.09
536.38	25118.63
536.55	24959.47
536.72	25130.33
536.89	25015.65
537.06	24861.17
537.23	24964.15
537.40	24779.25
537.57	25174.80
537.74	25156.08
537.91	25366.73
538.08	25076.50
538.25	25027.35
538.42	25165.44
538.59	25214.59
538.75	24943.09
538.92	25137.35
539.09	25422.90
539.26	25380.77
539.43	25479.07
539.60	25844.20
539.77	25717.81
539.94	25752.91
540.11	25546.95
540.28	25958.88
540.44	25661.63
540.61	25530.56
540.78	25467.37
540.95	25247.36
541.12	25495.46
541.29	25462.69
541.46	25961.22
541.62	25752.91
541.79	25743.55
541.96	25832.49
542.13	25881.64
542.30	25600.78
542.47	26080.59
542.63	25862.92
542.80	26230.38
542.97	26129.74
543.14	26616.57
543.31	26160.17
543.48	26417.63
543.64	26253.79
543.81	26375.50
543.98	26541.68
544.15	26611.89
544.32	26551.04
544.48	26520.61
544.65	26567.42
544.82	26639.98
544.99	26169.53
545.16	26513.59
545.32	26422.31
545.49	26602.53
545.66	26749.98
545.83	27084.68
546.00	27201.71
546.16	26710.19
546.33	26684.45
546.50	26469.12
546.67	26721.90
546.83	26242.09
547.00	26885.73
547.17	26934.88
547.34	27119.79
547.50	26972.33
547.67	27056.59
547.84	27016.80
548.00	27496.61
548.17	27269.58
548.34	27260.22
548.51	27475.55
548.67	26998.08
548.84	27246.18
549.01	27199.37
549.18	26932.54
549.34	27192.34
549.51	27424.06
549.68	26986.38
549.84	27496.61
550.01	27590.24
550.18	27115.11
550.34	27527.04
550.51	27929.61
550.68	27672.15
550.84	27470.87
551.01	27658.11
551.18	27536.40
551.34	27552.79
551.51	27243.84
551.68	27728.33
551.84	27597.26
552.01	27985.79
552.18	27630.02
552.34	27857.06
552.51	27674.49
552.68	27292.99
552.84	27948.34
553.01	27751.73
553.18	27620.66
553.34	28166.01
553.51	28060.68
553.67	27974.08
553.84	28627.09
554.01	27885.14
554.17	28114.52
554.34	28285.37
554.51	27831.31
554.67	28205.80
554.84	27765.78
555.00	28072.39
555.17	28048.98
555.33	28465.60
555.50	28072.39
555.67	28233.88
555.83	28229.20
556.00	27999.83
556.16	28486.66
556.33	28013.87
556.50	28112.17
556.66	28250.27
556.83	28203.46
556.99	28299.42
557.16	28231.54
557.32	28219.84
557.49	28126.22
557.65	28114.52
557.82	28355.59
557.98	28503.04
558.15	28327.50
558.32	28858.81
558.48	28474.96
558.65	28797.95
558.81	28315.80
558.98	28926.68
559.14	28746.46
559.31	28540.49
559.47	28790.93
559.64	28643.48
559.80	28821.36
559.97	28959.45
560.13	28624.75
560.30	28507.72
560.46	29022.64
560.63	28725.39
560.79	28746.46
560.96	28690.29
561.12	28531.13
561.29	28655.18
561.45	28954.77
561.61	29109.24
561.78	28662.20
561.94	28886.89
562.11	29191.16
562.27	28807.31
562.44	28907.96
562.60	28657.52
562.77	29083.50
562.93	28912.64
563.10	29507.13
563.26	28865.83
563.42	29263.72
563.59	28900.94
563.75	28936.04
563.92	28924.34
564.08	28645.82
564.24	28858.81
564.41	28830.72
564.57	29104.56
564.74	29287.12
564.90	29357.34
565.07	29120.95
565.23	29188.82
565.39	28952.43
565.56	29343.30
565.72	29198.18
565.88	29418.19
566.05	28896.25
566.21	28826.04
566.38	29270.74
566.54	29158.39
566.70	29549.26
566.87	29448.62
567.03	29167.76
567.19	29427.56
567.36	29472.03
567.52	28985.19
567.68	29017.96
567.85	29198.18
568.01	29305.85
568.17	29118.60
568.34	29729.48
568.50	29408.83
568.66	29481.39
568.83	29493.09
568.99	29738.85
569.15	29542.24
569.32	29177.12
569.48	29158.39
569.64	29392.45
569.81	29652.25
569.97	29352.66
570.13	29350.32
570.30	29479.05
570.46	29549.26
570.62	29516.50
570.78	29474.37
570.95	29212.23
571.11	29472.03
571.27	29411.17
571.43	29322.23
571.60	29656.93
571.76	29759.91
571.92	29537.56
572.09	29567.99
572.25	29699.06
572.41	29743.53
572.57	29589.05
572.74	29710.76
572.90	29565.65
573.06	29551.60
573.22	28823.70
573.38	29460.32
573.55	29699.06
573.71	29944.81
573.87	29560.97
574.03	29783.32
574.20	29465.00
574.36	29256.70
574.52	29186.48
574.68	29376.06
574.84	29940.13
575.01	29575.01
575.17	29598.41
575.33	29699.06
575.49	29525.86
575.65	29750.55
575.82	29596.07
575.98	29493.09
576.14	29731.83
576.30	29635.86
576.46	29874.60
576.62	29677.99
576.79	29778.64
576.95	29521.18
577.11	29951.84
577.27	29881.62
577.43	29834.81
577.59	29542.24
577.75	29635.86
577.92	29703.74
578.08	29806.72
578.24	29820.77
578.40	29467.34
578.56	29715.44
578.72	29514.16
578.88	29900.34
579.04	30103.97
579.21	29848.85
579.37	29778.64
579.53	30211.64
579.69	29820.77
579.85	30148.44
580.01	29490.75
580.17	29582.03
580.33	29933.11
580.49	29874.60
580.65	29841.83
580.82	29497.77
580.98	29827.79
581.14	29905.02
581.30	29811.40
581.46	29694.38
581.62	29762.25
581.78	29544.58
581.94	29830.13
582.10	29912.05
582.26	29788.00
582.42	30022.05
582.58	29872.26
582.74	29799.70
582.90	30000.99
583.06	30190.57
583.22	30309.94
583.38	29706.08
583.54	29567.99
583.70	29673.31
583.86	29743.53
584.02	29762.25
584.18	30284.19
584.34	30087.59
584.50	30359.09
584.66	30036.09
584.82	29881.62
584.98	29839.49
585.14	29930.77
585.30	29455.64
585.46	29329.25
585.62	29661.61
585.78	30047.80
585.94	29495.43
586.10	29853.53
586.26	30010.35
586.42	29832.47
586.58	29982.26
586.74	29745.87
586.90	29509.47
587.06	29741.19
587.22	29720.12
587.38	29624.16
587.54	30497.18
587.70	30302.92
587.86	29984.60
588.02	30452.71
588.18	30366.11
588.34	30251.42
588.49	29827.79
588.65	29757.57
588.81	30342.70
588.97	29984.60
589.13	29926.09
589.29	29738.85
589.45	30258.45
589.61	30316.96
589.77	30733.57
589.93	30279.51
590.08	30242.06
590.24	30747.62
590.40	30436.33
590.56	30410.58
590.72	30066.52
590.88	30195.25
591.04	30183.55
591.20	30199.93
591.35	30473.78
591.51	30373.13
591.67	30239.72
591.83	30473.78
591.99	30590.80
