SpectraSuite Data File
++++++++++++++++++++++++++++++++++++
Date: Fri Oct 18 13:58:23 GMT-05:00 2013
User: bianchi
Dark Spectrum Present: No
Reference Spectrum Present: No
Number of Sampled Component Spectra: 1
Spectrometers: USB2+H05261
Integration Time (usec): 50000 (USB2+H05261)
Spectra Averaged: 1 (USB2+H05261)
Boxcar Smoothing: 0 (USB2+H05261)
Correct for Electrical Dark: No (USB2+H05261)
Strobe/Lamp Enabled: No (USB2+H05261)
Correct for Detector Non-linearity: No (USB2+H05261)
Correct for Stray Light: No (USB2+H05261)
Number of Pixels in Processed Spectrum: 2048
>>>>>Begin Processed Spectral Data<<<<<
365.73	0.00
365.92	0.00
366.12	0.00
366.32	0.00
366.52	0.00
366.72	0.00
366.91	0.00
367.11	0.00
367.31	0.00
367.51	0.00
367.70	0.00
367.90	0.00
368.10	0.00
368.30	0.00
368.49	0.00
368.69	0.00
368.89	0.00
369.09	0.00
369.28	0.00
369.48	0.00
369.68	0.00
369.87	0.00
370.07	0.00
370.27	0.00
370.47	0.00
370.66	138.09
370.86	140.43
371.06	154.48
371.25	138.09
371.45	147.45
371.65	217.67
371.84	112.35
372.04	126.39
372.24	175.54
372.44	182.56
372.63	234.05
372.83	205.97
373.03	238.73
373.22	205.97
373.42	217.67
373.62	203.63
373.81	276.18
374.01	301.93
374.21	208.31
374.40	243.42
374.60	187.24
374.79	299.59
374.99	248.10
375.19	318.31
375.38	360.44
375.58	294.91
375.78	262.14
375.97	208.31
376.17	304.27
376.37	259.80
376.56	234.05
376.76	292.57
376.95	189.58
377.15	297.25
377.35	255.12
377.54	245.76
377.74	259.80
377.93	280.86
378.13	304.27
378.33	266.82
378.52	203.63
378.72	266.82
378.91	271.50
379.11	238.73
379.31	301.93
379.50	234.05
379.70	379.17
379.89	301.93
380.09	322.99
380.28	297.25
380.48	327.68
380.68	315.97
380.87	280.86
381.07	292.57
381.26	271.50
381.46	276.18
381.65	353.42
381.85	353.42
382.04	409.59
382.24	280.86
382.43	330.02
382.63	344.06
382.83	360.44
383.02	332.36
383.22	355.76
383.41	344.06
383.61	404.91
383.80	397.89
384.00	395.55
384.19	341.72
384.39	348.74
384.58	358.10
384.78	400.23
384.97	395.55
385.17	390.87
385.36	376.83
385.56	374.49
385.75	383.85
385.95	308.95
386.14	365.12
386.34	379.17
386.53	461.09
386.72	388.53
386.92	386.19
387.11	416.62
387.31	454.06
387.50	465.77
387.70	437.68
387.89	409.59
388.09	433.00
388.28	411.93
388.48	496.19
388.67	461.09
388.86	402.57
389.06	456.40
389.25	472.79
389.45	479.81
389.64	503.22
389.84	463.43
390.03	503.22
390.22	493.85
390.42	500.87
390.61	479.81
390.81	461.09
391.00	503.22
391.19	535.98
391.39	519.60
391.58	517.26
391.78	524.28
391.97	535.98
392.16	514.92
392.36	603.86
392.55	507.90
392.75	564.07
392.94	514.92
393.13	645.99
393.33	500.87
393.52	550.03
393.71	592.16
393.91	610.88
394.10	638.97
394.29	550.03
394.49	615.56
394.68	559.39
394.88	617.90
395.07	617.90
395.26	650.67
395.46	599.18
395.65	596.84
395.84	617.90
396.04	683.44
396.23	641.31
396.42	573.43
396.62	662.37
396.81	650.67
397.00	763.01
397.19	599.18
397.39	636.63
397.58	709.18
397.77	638.97
397.97	720.88
398.16	674.07
398.35	730.25
398.55	655.35
398.74	692.80
398.93	683.44
399.12	688.12
399.32	723.23
399.51	690.46
399.70	788.76
399.90	727.91
400.09	741.95
400.28	805.14
400.47	835.57
400.67	772.38
400.86	828.55
401.05	725.57
401.24	772.38
401.44	858.98
401.63	758.33
401.82	767.70
402.01	870.68
402.21	779.40
402.40	835.57
402.59	940.90
402.78	816.85
402.97	868.34
403.17	870.68
403.36	856.64
403.55	980.68
403.74	826.21
403.93	999.41
404.13	950.26
404.32	922.17
404.51	938.55
404.70	866.00
404.89	884.72
405.09	985.37
405.28	964.30
405.47	894.08
405.66	978.34
405.85	1064.94
406.05	992.39
406.24	945.58
406.43	999.41
406.62	1039.20
406.81	1107.07
407.00	1097.71
407.20	1062.60
407.39	971.32
407.58	1118.78
407.77	1067.28
407.96	1093.03
408.15	1107.07
408.34	1111.75
408.54	1090.69
408.73	1039.20
408.92	1043.88
409.11	1118.78
409.30	1142.18
409.49	1174.95
409.68	1249.85
409.87	1179.63
410.07	1153.88
410.26	1188.99
410.45	1188.99
410.64	1188.99
410.83	1238.14
411.02	1212.40
411.21	1193.67
411.40	1205.38
411.59	1350.49
411.78	1303.68
411.98	1282.61
412.17	1345.81
412.36	1350.49
412.55	1303.68
412.74	1275.59
412.93	1329.42
413.12	1289.64
413.31	1376.24
413.50	1343.47
413.69	1495.60
413.88	1427.73
414.07	1488.58
414.26	1514.33
414.45	1551.78
414.64	1476.88
414.83	1458.15
415.02	1533.05
415.22	1549.43
415.41	1713.27
415.60	1593.90
415.79	1661.78
415.98	1589.22
416.17	1671.14
416.36	1621.99
416.55	1502.62
416.74	1603.27
416.93	1621.99
417.12	1701.57
417.31	1678.16
417.50	1689.87
417.69	1736.68
417.88	1741.36
418.07	1671.14
418.26	1687.53
418.45	1739.02
418.64	1781.15
418.83	1802.21
419.02	1849.02
419.21	1994.14
419.39	1895.83
419.58	1769.44
419.77	1788.17
419.96	1870.09
420.15	1816.26
420.34	1853.70
420.53	1923.92
420.72	1942.64
420.91	1935.62
421.10	2001.16
421.29	1921.58
421.48	1998.82
421.67	1994.14
421.86	2026.90
422.05	2136.91
422.24	1973.07
422.43	2008.18
422.61	2019.88
422.80	2003.50
422.99	2031.58
423.18	2073.71
423.37	2043.29
423.56	1926.26
423.75	1944.99
423.94	1973.07
424.13	1888.81
424.32	1870.09
424.50	1952.01
424.69	2045.63
424.88	1952.01
425.07	2026.90
425.26	1977.75
425.45	2099.46
425.64	2125.21
425.83	2066.69
426.01	2066.69
426.20	1975.41
426.39	2052.65
426.58	2134.57
426.77	1966.05
426.96	2080.74
427.15	2172.02
427.33	2190.74
427.52	2223.51
427.71	2172.02
427.90	2090.10
428.09	2209.47
428.28	2160.31
428.46	2080.74
428.65	2207.13
428.84	2207.13
429.03	2326.49
429.22	2108.82
429.40	2270.32
429.59	2300.75
429.78	2113.50
429.97	2193.08
430.16	2235.21
430.34	2361.60
430.53	2417.77
430.72	2338.20
430.91	2249.25
431.10	2303.09
431.28	2349.90
431.47	2324.15
431.66	2389.69
431.85	2389.69
432.03	2527.78
432.22	2495.01
432.41	2476.29
432.60	2518.42
432.79	2434.16
432.97	2415.43
433.16	2492.67
433.35	2448.20
433.54	2483.31
433.72	2590.97
433.91	2478.63
434.10	2377.98
434.28	2495.01
434.47	2511.39
434.66	2612.04
434.85	2677.57
435.03	2668.21
435.22	2619.06
435.41	2623.74
435.59	2764.17
435.78	2565.23
435.97	2513.74
436.16	2633.10
436.34	2616.72
436.53	2679.91
436.72	2724.38
436.90	2715.02
437.09	2764.17
437.28	2731.41
437.46	2757.15
437.65	2808.64
437.84	2796.94
438.02	2710.34
438.21	2911.63
438.40	2778.22
438.58	2899.92
438.77	2979.50
438.96	2916.31
439.14	2967.80
439.33	2967.80
439.52	3089.51
439.70	3145.68
439.89	3108.23
440.08	3000.57
440.26	3084.83
440.45	3052.06
440.63	3068.44
440.82	3204.19
441.01	3009.93
441.19	3066.10
441.38	3176.11
441.57	3220.58
441.75	3337.60
441.94	3368.03
442.12	3323.56
442.31	3267.39
442.50	3365.69
442.68	3325.90
442.87	3433.57
443.05	3414.84
443.24	3510.80
443.43	3501.44
443.61	3499.10
443.80	3445.27
443.98	3225.26
444.17	3377.39
444.35	3426.54
444.54	3501.44
444.73	3459.31
444.91	3459.31
445.10	3318.88
445.28	3452.29
445.47	3522.51
445.65	3524.85
445.84	3602.08
446.02	3627.83
446.21	3440.59
446.39	3494.42
446.58	3531.87
446.77	3503.78
446.95	3454.63
447.14	3445.27
447.32	3597.40
447.51	3613.79
447.69	3489.74
447.88	3515.48
448.06	3449.95
448.25	3487.40
448.43	3613.79
448.62	3653.58
448.80	3513.14
448.99	3515.48
449.17	3651.24
449.36	3583.36
449.54	3655.92
449.73	3658.26
449.91	3609.11
450.10	3705.07
450.28	3630.17
450.46	3669.96
450.65	3588.04
450.83	3737.84
451.02	3815.07
451.20	3892.31
451.39	3730.81
451.57	3786.99
451.76	3765.92
451.94	3758.90
452.13	3854.86
452.31	3796.35
452.49	3822.09
452.68	3845.50
452.86	3840.82
453.05	3857.20
453.23	3962.53
453.42	3955.51
453.60	3833.80
453.78	3906.35
453.97	4007.00
454.15	4004.66
454.34	3896.99
454.52	4070.19
454.70	4051.47
454.89	3999.98
455.07	4056.15
455.26	3934.44
455.44	3936.78
455.62	4046.79
455.81	4196.58
455.99	4142.75
456.17	4297.22
456.36	4315.95
456.54	4299.56
456.73	4222.33
456.91	4299.56
457.09	4283.18
457.28	4353.40
457.46	4166.15
457.64	4512.55
457.83	4301.90
458.01	4149.77
458.19	4409.57
458.38	4369.78
458.56	4517.23
458.74	4454.04
458.93	4414.25
459.11	4575.75
459.29	4489.15
459.48	4594.47
459.66	4564.04
459.84	4552.34
460.03	4606.17
460.21	4669.37
460.39	4514.89
460.57	4564.04
460.76	4559.36
460.94	4709.16
461.12	4524.26
461.31	4765.33
461.49	4601.49
461.67	4456.38
461.85	4739.58
462.04	4779.37
462.22	4807.46
462.40	4772.35
462.59	4744.27
462.77	4650.64
462.95	4805.12
463.13	4767.67
463.32	4723.20
463.50	4905.76
463.68	4924.49
463.86	4950.23
464.05	4760.65
464.23	4716.18
464.41	4880.02
464.59	4891.72
464.78	5067.26
464.96	4936.19
465.14	5020.45
465.32	5020.45
465.50	4994.70
465.69	4896.40
465.87	4910.44
466.05	5060.24
466.23	5034.49
466.41	5013.43
466.60	5217.05
466.78	5114.07
466.96	5069.60
467.14	5085.98
467.32	5125.77
467.51	5224.08
467.69	5090.67
467.87	5160.88
468.05	5296.63
468.23	5125.77
468.41	5146.84
468.60	5231.10
468.78	5125.77
468.96	5226.42
469.14	5378.55
469.32	5235.78
469.50	5352.81
469.69	5280.25
469.87	5313.02
470.05	5514.30
470.23	5516.64
470.41	5495.58
470.59	5472.17
470.77	5556.43
470.95	5610.26
471.14	5509.62
471.32	5458.13
471.50	5771.76
471.68	5659.42
471.86	5598.56
472.04	5600.90
472.22	5844.32
472.40	5544.73
472.58	5774.10
472.77	5933.26
472.95	5678.14
473.13	5970.71
473.31	5806.87
473.49	5975.39
473.67	5930.92
473.85	5951.98
474.03	6029.22
474.21	6099.44
474.39	6190.72
474.57	6228.17
474.75	6106.46
474.93	6150.93
475.12	6239.87
475.30	6232.85
475.48	6204.76
475.66	6314.77
475.84	6317.11
476.02	6338.17
476.20	6394.34
476.38	6445.84
476.56	6597.97
476.74	6569.88
476.92	6600.31
477.10	6628.40
477.28	6658.82
477.46	6675.21
477.64	6623.72
477.82	6813.30
478.00	6993.52
478.18	7030.97
478.36	6984.16
478.54	7126.93
478.72	7136.29
478.90	7164.38
479.08	7267.36
479.26	7311.83
479.44	7225.23
479.62	7447.58
479.80	7496.74
479.98	7403.11
480.16	7513.12
480.34	7424.18
480.52	7756.54
480.70	7833.77
480.88	7648.87
481.06	7712.07
481.24	7581.00
481.41	7932.08
481.59	8208.26
481.77	7808.03
481.95	8072.51
482.13	8196.56
482.31	8257.41
482.49	8353.37
482.67	8404.86
482.85	8329.97
483.03	8603.81
483.21	8535.93
483.39	8578.06
483.57	8557.00
483.74	8755.94
483.92	8795.73
484.10	8716.16
484.28	8809.78
484.46	9085.96
484.64	9259.16
484.82	9069.58
485.00	8997.02
485.18	9327.03
485.35	9542.36
485.53	9352.78
485.71	9694.50
485.89	9731.95
486.07	9500.23
486.25	9783.44
486.43	9860.68
486.61	9802.16
486.78	9809.19
486.96	9863.02
487.14	10286.65
487.32	9909.83
487.50	10090.05
487.68	10281.97
487.85	10401.34
488.03	10469.22
488.21	10476.24
488.39	10712.63
488.57	10874.13
488.75	10871.79
488.92	11131.59
489.10	10958.39
489.28	11140.95
489.46	11227.55
489.64	11115.20
489.81	11150.31
489.99	11363.30
490.17	11300.11
490.35	11353.94
490.53	11665.23
490.70	11541.18
490.88	11800.98
491.06	11836.09
491.24	11819.71
491.41	12030.35
491.59	12194.19
491.77	11875.88
491.95	12189.51
492.13	12446.97
492.30	12318.24
492.48	12531.23
492.66	12131.00
492.84	12379.09
493.01	12933.80
493.19	12638.89
493.37	12493.78
493.54	12819.11
493.72	12901.03
493.90	12894.01
494.08	12943.16
494.25	13156.15
494.43	13298.92
494.61	13341.05
494.79	13331.69
494.96	13345.73
495.14	13516.59
495.32	13790.44
495.49	13661.71
495.67	13642.98
495.85	13748.31
496.02	14033.85
496.20	13940.23
496.38	14122.79
496.55	14115.77
496.73	14569.83
496.91	13886.40
497.09	14298.33
497.26	14675.16
497.44	14251.52
497.62	14579.20
497.79	14787.50
497.97	14415.36
498.14	15082.41
498.32	14794.53
498.50	14719.63
498.67	15295.40
498.85	15166.67
499.03	15190.08
499.20	15204.12
499.38	15213.48
499.56	15398.38
499.73	15552.86
499.91	15559.88
500.08	15431.15
500.26	15314.13
500.44	15482.64
500.61	15662.86
500.79	15747.12
500.97	15735.42
501.14	15882.88
501.32	15978.84
501.49	16140.33
501.67	15896.92
501.84	16086.50
502.02	16123.95
502.20	16280.77
502.37	16381.41
502.55	16313.53
502.72	16629.51
502.90	16360.34
503.07	16528.86
503.25	16449.28
503.43	16559.29
503.60	16449.28
503.78	16723.13
503.95	16643.55
504.13	16748.87
504.30	16879.94
504.48	16762.92
504.65	17039.10
504.83	16791.00
505.01	16978.25
505.18	17380.82
505.36	17209.96
505.53	17130.38
505.71	17083.57
505.88	17270.81
506.06	17043.78
506.23	17401.88
506.41	17401.88
506.58	17781.05
506.76	17371.46
506.93	17708.49
507.11	17631.26
507.28	17720.20
507.46	17797.43
507.63	17900.42
507.81	17820.84
507.98	17685.09
508.16	18001.06
508.33	17666.36
508.50	18113.41
508.68	18047.87
508.85	18295.97
509.03	18003.40
509.20	18209.37
509.38	18588.53
509.55	18363.84
509.73	18647.05
509.90	18492.57
510.08	18586.19
510.25	18672.79
510.42	18693.86
510.60	19168.99
510.77	18831.95
510.95	18757.05
511.12	18724.29
511.30	18604.92
511.47	19058.98
511.64	18963.02
511.82	19358.57
511.99	19349.21
512.17	19278.99
512.34	19190.05
512.51	19555.18
512.69	19286.01
512.86	19410.06
513.04	19789.23
513.21	19524.75
513.38	19772.85
513.56	19868.81
513.73	19456.87
513.90	19690.93
514.08	19461.55
514.25	19611.35
514.43	19887.53
514.60	19901.58
514.77	20058.39
514.95	19805.61
515.12	19978.81
515.29	20072.43
515.47	20187.12
515.64	20341.60
515.81	20184.78
515.99	20205.84
516.16	20519.48
516.33	20620.12
516.51	20606.08
516.68	20119.24
516.85	20865.88
517.03	20123.93
517.20	20875.24
517.37	21118.65
517.54	20819.07
517.72	20975.88
517.89	20823.75
518.06	20868.22
518.24	20624.80
518.41	20615.44
518.58	21205.25
518.75	20893.96
518.93	21118.65
519.10	21200.57
519.27	21364.41
519.45	20917.37
519.62	21209.93
519.79	21263.77
519.96	21118.65
520.14	21411.22
520.31	21525.91
520.48	21631.23
520.65	21493.14
520.83	21628.89
521.00	21855.92
521.17	21516.54
521.34	21764.64
521.52	21886.35
521.69	21539.95
521.86	21666.34
522.03	21839.54
522.20	21942.52
522.38	21958.91
522.55	22115.72
522.72	21944.86
522.89	22068.91
523.07	22305.31
523.24	22387.22
523.41	22562.76
523.58	22019.76
523.75	22291.26
523.92	21914.44
524.10	22541.70
524.27	22429.35
524.44	22450.42
524.61	22845.97
524.78	22560.42
524.96	22455.10
525.13	22642.34
525.30	22766.39
525.47	22462.12
525.64	22867.03
525.81	22871.72
525.98	22977.04
526.16	22899.80
526.33	22885.76
526.50	23250.88
526.67	22815.54
526.84	22796.82
527.01	23040.23
527.18	23033.21
527.36	23248.54
527.53	23494.30
527.70	23428.76
527.87	23419.40
528.04	23264.92
528.21	23367.91
528.38	23403.02
528.55	23669.84
528.72	23817.29
528.89	23344.50
529.07	23756.44
529.24	23735.37
529.41	23950.70
529.58	23768.14
529.75	23449.83
529.92	24051.34
530.09	23718.99
530.26	24032.62
530.43	24051.34
530.60	23864.10
530.77	23777.50
530.94	23917.93
531.11	23929.64
531.28	24006.87
531.46	24034.96
531.63	24173.05
531.80	24166.03
531.97	24222.20
532.14	24421.15
532.31	24407.11
532.48	24215.18
532.65	24390.72
532.82	24170.71
532.99	24545.20
533.16	24034.96
533.33	24383.70
533.50	24687.97
533.67	24524.13
533.84	24400.08
534.01	24313.48
534.18	24486.68
534.35	24959.47
534.52	24683.29
534.69	24947.77
534.86	25116.29
535.03	24627.12
535.20	24938.41
535.37	24805.00
535.54	25003.94
535.71	24547.54
535.88	24577.97
536.05	25027.35
536.22	25317.57
536.38	24975.86
536.55	25186.50
536.72	25350.34
536.89	24879.89
537.06	24753.51
537.23	25331.62
537.40	25074.16
537.57	25053.09
537.74	25443.96
537.91	25682.70
538.08	25582.06
538.25	25558.65
538.42	25542.27
538.59	25343.32
538.75	25151.40
538.92	25502.48
539.09	25373.75
539.26	25855.90
539.43	25731.85
539.60	26202.30
539.77	25752.91
539.94	25839.51
540.11	25584.40
540.28	25738.87
540.44	25584.40
540.61	25638.23
540.78	25813.77
540.95	25837.17
541.12	26012.71
541.29	26302.94
541.46	26155.49
541.62	26094.63
541.79	26340.39
541.96	25731.85
542.13	26029.10
542.30	26111.02
542.47	26071.23
542.63	26338.05
542.80	26450.39
542.97	26621.25
543.14	26375.50
543.31	26422.31
543.48	26529.97
543.64	26808.50
543.81	26724.24
543.98	26848.29
544.15	26738.28
544.32	26909.14
544.48	27166.60
544.65	26508.91
544.82	26752.32
544.99	26616.57
545.16	26749.98
545.32	26419.97
545.49	26979.36
545.66	26958.29
545.83	27302.35
546.00	27173.62
546.16	27094.04
546.33	26878.71
546.50	26927.86
546.67	27206.39
546.83	26611.89
547.00	27339.80
547.17	27178.30
547.34	27044.89
547.50	27323.41
547.67	27232.13
547.84	27199.37
548.00	27686.20
548.17	27379.59
548.34	27428.74
548.51	27782.16
548.67	27496.61
548.84	27707.26
549.01	27449.80
549.18	27613.64
549.34	27543.42
549.51	27353.84
549.68	27363.20
549.84	27875.78
550.01	27491.93
550.18	27410.01
550.34	27718.96
550.51	27812.59
550.68	27800.88
550.84	27482.57
551.01	27683.86
551.18	27487.25
551.34	27821.95
551.51	27800.88
551.68	27910.89
551.84	27854.72
552.01	27866.42
552.18	27866.42
552.34	28189.41
552.51	27999.83
552.68	27917.91
552.84	27995.15
553.01	27723.65
553.18	27899.19
553.34	28383.68
553.51	28095.79
553.67	28140.26
553.84	28376.66
554.01	28481.98
554.17	28196.43
554.34	28116.86
554.51	28116.86
554.67	28411.76
554.84	28362.61
555.00	28187.07
555.17	28224.52
555.33	28444.53
555.50	28301.76
555.67	28371.97
555.83	28233.88
556.00	28041.96
556.16	28327.50
556.33	28474.96
556.50	28346.23
556.66	28582.62
556.83	28636.45
556.99	28945.41
557.16	28891.57
557.32	28807.31
557.49	29006.26
557.65	28418.78
557.82	28636.45
557.98	28435.17
558.15	28587.30
558.32	28788.59
558.48	28765.18
558.65	28891.57
558.81	28891.57
558.98	29081.16
559.14	28795.61
559.31	28926.68
559.47	28524.11
559.64	28671.56
559.80	28926.68
559.97	29029.66
560.13	28758.16
560.30	29064.77
560.46	29050.73
560.63	29132.65
560.79	29144.35
560.96	28830.72
561.12	28629.43
561.29	29174.78
561.45	28959.45
561.61	29242.65
561.78	28821.36
561.94	29418.19
562.11	28936.04
562.27	28797.95
562.44	29263.72
562.60	29020.30
562.77	29261.38
562.93	29078.82
563.10	29413.51
563.26	28940.72
563.42	29586.71
563.59	29450.96
563.75	29303.51
563.92	29048.39
564.08	28823.70
564.24	29191.16
564.41	29315.21
564.57	29233.29
564.74	29256.70
564.90	29514.16
565.07	29638.20
565.23	29942.47
565.39	29383.09
565.56	29827.79
565.72	29233.29
565.88	29303.51
566.05	29486.07
566.21	29125.63
566.38	29764.59
566.54	29631.18
566.70	30115.67
566.87	29528.20
567.03	29261.38
567.19	29591.39
567.36	29748.21
567.52	29724.80
567.68	29467.34
567.85	29408.83
568.01	29607.78
568.17	29427.56
568.34	29783.32
568.50	29490.75
568.66	29532.88
568.83	29916.73
568.99	29589.05
569.15	29481.39
569.32	29455.64
569.48	29710.76
569.64	29809.06
569.81	29397.13
569.97	29710.76
570.13	29785.66
570.30	29252.02
570.46	29706.08
570.62	29912.05
570.78	29401.81
570.95	29511.81
571.11	29673.31
571.27	29034.35
571.43	29319.89
571.60	30000.99
571.76	29659.27
571.92	29984.60
572.09	30024.39
572.25	29795.02
572.41	29893.32
572.57	29408.83
572.74	29958.86
572.90	29788.00
573.06	29890.98
573.22	29724.80
573.38	29575.01
573.55	29750.55
573.71	29954.18
573.87	30080.56
574.03	30017.37
574.20	29895.66
574.36	29895.66
574.52	30089.93
574.68	29673.31
574.84	29907.37
575.01	29879.28
575.17	30054.82
575.33	29984.60
575.49	29916.73
575.65	30068.86
575.82	29993.97
575.98	30024.39
576.14	30532.29
576.30	30050.14
576.46	29935.45
576.62	29659.27
576.79	29701.40
576.95	29687.36
577.11	30017.37
577.27	29998.65
577.43	30178.87
577.59	30321.64
577.75	29851.19
577.92	29675.65
578.08	30019.71
578.24	30164.82
578.40	30150.78
578.56	29928.43
578.72	29956.52
578.88	30338.02
579.04	30354.41
579.21	29954.18
579.37	30258.45
579.53	30054.82
579.69	29511.81
579.85	30085.25
580.01	29802.04
580.17	29713.10
580.33	30066.52
580.49	30204.61
580.65	30103.97
580.82	30110.99
580.98	30160.14
581.14	30368.45
581.30	30272.49
581.46	30342.70
581.62	29610.12
581.78	30223.34
581.94	29963.54
582.10	30188.23
582.26	30274.83
582.42	30235.04
582.58	30548.67
582.74	29867.58
582.90	30178.87
583.06	30504.20
583.22	29991.62
583.38	29886.30
583.54	30431.65
583.70	30197.59
583.86	30143.76
584.02	29993.97
584.18	30132.06
584.34	30263.13
584.50	30572.08
584.66	29809.06
584.82	30206.95
584.98	30436.33
585.14	30237.38
585.30	29858.21
585.46	29984.60
585.62	30075.88
585.78	30204.61
585.94	30263.13
586.10	30656.34
586.26	30443.35
586.42	30551.01
586.58	29940.13
586.74	30171.85
586.90	29778.64
587.06	30052.48
587.22	30096.95
587.38	29872.26
587.54	30211.64
587.70	30225.68
587.86	30291.21
588.02	30391.86
588.18	30387.18
588.34	30249.08
588.49	30595.48
588.65	30249.08
588.81	30118.01
588.97	30419.94
589.13	30085.25
589.29	29991.62
589.45	30663.36
589.61	30609.53
589.77	30445.69
589.93	30623.57
590.08	30815.49
590.24	30480.80
590.40	30689.10
590.56	30597.82
590.72	30548.67
590.88	30286.53
591.04	30518.25
591.20	30698.47
591.35	30721.87
591.51	30728.89
591.67	30616.55
591.83	30728.89
591.99	31108.06
