SpectraSuite Data File
++++++++++++++++++++++++++++++++++++
Date: Fri Oct 18 13:58:10 GMT-05:00 2013
User: bianchi
Dark Spectrum Present: No
Reference Spectrum Present: No
Number of Sampled Component Spectra: 1
Spectrometers: USB2+H05261
Integration Time (usec): 50000 (USB2+H05261)
Spectra Averaged: 1 (USB2+H05261)
Boxcar Smoothing: 0 (USB2+H05261)
Correct for Electrical Dark: No (USB2+H05261)
Strobe/Lamp Enabled: No (USB2+H05261)
Correct for Detector Non-linearity: No (USB2+H05261)
Correct for Stray Light: No (USB2+H05261)
Number of Pixels in Processed Spectrum: 2048
>>>>>Begin Processed Spectral Data<<<<<
365.73	0.00
365.92	0.00
366.12	0.00
366.32	0.00
366.52	0.00
366.72	0.00
366.91	0.00
367.11	0.00
367.31	0.00
367.51	0.00
367.70	0.00
367.90	0.00
368.10	0.00
368.30	0.00
368.49	0.00
368.69	0.00
368.89	0.00
369.09	0.00
369.28	0.00
369.48	0.00
369.68	0.00
369.87	0.00
370.07	0.00
370.27	0.00
370.47	0.00
370.66	86.60
370.86	72.56
371.06	170.86
371.25	152.13
371.45	147.45
371.65	138.09
371.84	138.09
372.04	39.79
372.24	191.92
372.44	196.60
372.63	231.71
372.83	220.01
373.03	264.48
373.22	177.88
373.42	184.90
373.62	189.58
373.81	231.71
374.01	224.69
374.21	252.78
374.40	203.63
374.60	243.42
374.79	264.48
374.99	287.89
375.19	252.78
375.38	191.92
375.58	292.57
375.78	271.50
375.97	294.91
376.17	231.71
376.37	231.71
376.56	222.35
376.76	264.48
376.95	285.55
377.15	234.05
377.35	297.25
377.54	266.82
377.74	241.08
377.93	266.82
378.13	327.68
378.33	313.63
378.52	222.35
378.72	238.73
378.91	365.12
379.11	276.18
379.31	304.27
379.50	374.49
379.70	325.33
379.89	341.72
380.09	332.36
380.28	353.42
380.48	330.02
380.68	325.33
380.87	245.76
381.07	287.89
381.26	262.14
381.46	315.97
381.65	280.86
381.85	332.36
382.04	365.12
382.24	348.74
382.43	337.04
382.63	313.63
382.83	301.93
383.02	386.19
383.22	290.23
383.41	299.59
383.61	325.33
383.80	449.38
384.00	402.57
384.19	435.34
384.39	322.99
384.58	339.38
384.78	320.65
384.97	344.06
385.17	388.53
385.36	425.98
385.56	337.04
385.75	351.08
385.95	393.21
386.14	437.68
386.34	444.70
386.53	386.19
386.72	435.34
386.92	503.22
387.11	418.96
387.31	454.06
387.50	468.11
387.70	482.15
387.89	479.81
388.09	414.27
388.28	498.53
388.48	470.45
388.67	493.85
388.86	496.19
389.06	496.19
389.25	468.11
389.45	435.34
389.64	395.55
389.84	440.02
390.03	440.02
390.22	500.87
390.42	433.00
390.61	437.68
390.81	559.39
391.00	573.43
391.19	559.39
391.39	655.35
391.58	428.32
391.78	503.22
391.97	552.37
392.16	496.19
392.36	571.09
392.55	535.98
392.75	521.94
392.94	561.73
393.13	547.69
393.33	477.47
393.52	566.41
393.71	615.56
393.91	622.58
394.10	552.37
394.29	594.50
394.49	575.77
394.68	507.90
394.88	660.03
395.07	578.11
395.26	610.88
395.46	550.03
395.65	629.60
395.84	592.16
396.04	655.35
396.23	678.76
396.42	589.82
396.62	681.10
396.81	690.46
397.00	638.97
397.19	713.86
397.39	648.33
397.58	718.54
397.77	674.07
397.97	645.99
398.16	674.07
398.35	765.36
398.55	763.01
398.74	763.01
398.93	779.40
399.12	732.59
399.32	748.97
399.51	667.05
399.70	772.38
399.90	725.57
400.09	784.08
400.28	833.23
400.47	833.23
400.67	819.19
400.86	809.83
401.05	863.66
401.24	826.21
401.44	816.85
401.63	690.46
401.82	821.53
402.01	833.23
402.21	737.27
402.40	828.55
402.59	826.21
402.78	812.17
402.97	835.57
403.17	856.64
403.36	842.59
403.55	894.08
403.74	940.90
403.93	901.11
404.13	992.39
404.32	812.17
404.51	971.32
404.70	938.55
404.89	915.15
405.09	992.39
405.28	978.34
405.47	945.58
405.66	1048.56
405.85	978.34
406.05	964.30
406.24	1011.11
406.43	1039.20
406.62	980.68
406.81	1064.94
407.00	1027.50
407.20	1036.86
407.39	997.07
407.58	1083.67
407.77	1179.63
407.96	1081.33
408.15	1053.24
408.34	1125.80
408.54	1104.73
408.73	1210.06
408.92	1100.05
409.11	1207.72
409.30	1034.52
409.49	1158.57
409.68	1095.37
409.87	1135.16
410.07	1242.82
410.26	1212.40
410.45	1200.69
410.64	1266.23
410.83	1214.74
411.02	1268.57
411.21	1291.98
411.40	1263.89
411.59	1198.35
411.78	1280.27
411.98	1324.74
412.17	1217.08
412.36	1336.45
412.55	1369.21
412.74	1369.21
412.93	1362.19
413.12	1392.62
413.31	1385.60
413.50	1399.64
413.69	1425.39
413.88	1413.68
414.07	1488.58
414.26	1547.09
414.45	1472.20
414.64	1519.01
414.83	1558.80
415.02	1425.39
415.22	1549.43
415.41	1577.52
415.60	1556.46
415.79	1638.38
415.98	1542.41
416.17	1516.67
416.36	1638.38
416.55	1668.80
416.74	1636.03
416.93	1710.93
417.12	1624.33
417.31	1727.32
417.50	1680.50
417.69	1795.19
417.88	1776.47
418.07	1776.47
418.26	1739.02
418.45	1788.17
418.64	1895.83
418.83	1755.40
419.02	1839.66
419.21	1921.58
419.39	1856.04
419.58	1849.02
419.77	1891.15
419.96	1902.86
420.15	1834.98
420.34	1984.77
420.53	1881.79
420.72	1980.09
420.91	1991.80
421.10	1970.73
421.29	2038.61
421.48	1856.04
421.67	2029.24
421.86	2052.65
422.05	1956.69
422.24	1963.71
422.43	1816.26
422.61	1893.49
422.80	2062.01
422.99	2129.89
423.18	2125.21
423.37	2120.53
423.56	1989.46
423.75	2003.50
423.94	2115.84
424.13	1956.69
424.32	1956.69
424.50	2015.20
424.69	2125.21
424.88	2085.42
425.07	2087.76
425.26	2064.35
425.45	1944.99
425.64	1987.11
425.83	2064.35
426.01	2141.59
426.20	2022.22
426.39	1994.14
426.58	2108.82
426.77	2101.80
426.96	2167.34
427.15	2125.21
427.33	2139.25
427.52	2237.55
427.71	2228.19
427.90	2242.23
428.09	2141.59
428.28	2253.94
428.46	2160.31
428.65	2272.66
428.84	2328.83
429.03	2347.56
429.22	2251.60
429.40	2279.68
429.59	2366.28
429.78	2197.76
429.97	2132.23
430.16	2328.83
430.34	2431.82
430.53	2340.54
430.72	2267.98
430.91	2265.64
431.10	2324.15
431.28	2317.13
431.47	2459.90
431.66	2513.74
431.85	2368.62
432.03	2516.08
432.22	2417.77
432.41	2406.07
432.60	2647.15
432.79	2413.09
432.97	2682.25
433.16	2520.76
433.35	2534.80
433.54	2431.82
433.72	2576.93
433.91	2565.23
434.10	2539.48
434.28	2628.42
434.47	2623.74
434.66	2642.46
434.85	2595.65
435.03	2637.78
435.22	2595.65
435.41	2757.15
435.59	2738.43
435.78	2649.49
435.97	2661.19
436.16	2696.30
436.34	2633.10
436.53	2715.02
436.72	2750.13
436.90	2719.70
437.09	2778.22
437.28	2759.49
437.46	2801.62
437.65	2740.77
437.84	2789.92
438.02	2778.22
438.21	2759.49
438.40	2867.16
438.58	2913.97
438.77	2972.48
438.96	2937.37
439.14	3026.31
439.33	2951.42
439.52	3040.36
439.70	3000.57
439.89	3033.33
440.08	2972.48
440.26	3131.64
440.45	3105.89
440.63	3164.40
440.82	3229.94
441.01	3063.76
441.19	3255.69
441.38	3176.11
441.57	3293.13
441.75	3185.47
441.94	3417.18
442.12	3365.69
442.31	3428.88
442.50	3283.77
442.68	3377.39
442.87	3353.99
443.05	3517.83
443.24	3487.40
443.43	3410.16
443.61	3440.59
443.80	3508.46
443.98	3375.05
444.17	3136.32
444.35	3351.65
444.54	3595.06
444.73	3569.32
444.91	3515.48
445.10	3478.04
445.28	3433.57
445.47	3361.01
445.65	3634.85
445.84	3496.76
446.02	3552.93
446.21	3588.04
446.39	3438.25
446.58	3548.25
446.77	3604.42
446.95	3454.63
447.14	3536.55
447.32	3599.74
447.51	3592.72
447.69	3485.06
447.88	3442.93
448.06	3597.40
448.25	3609.11
448.43	3590.38
448.62	3662.94
448.80	3597.40
448.99	3644.21
449.17	3763.58
449.36	3597.40
449.54	3859.54
449.73	3716.77
449.91	3681.66
450.10	3840.82
450.28	3946.14
450.46	3882.95
450.65	3784.65
450.83	3721.45
451.02	3794.01
451.20	3925.08
451.39	3894.65
451.57	3632.51
451.76	3726.13
451.94	3831.46
452.13	3761.24
452.31	3894.65
452.49	3852.52
452.68	3803.37
452.86	3941.46
453.05	3981.25
453.23	4028.06
453.42	3880.61
453.60	3920.40
453.78	3976.57
453.97	3908.69
454.15	4002.32
454.34	3934.44
454.52	4093.60
454.70	4060.83
454.89	4098.28
455.07	4135.73
455.26	4138.07
455.44	4173.18
455.62	4173.18
455.81	4114.66
455.99	4077.21
456.17	4341.69
456.36	4180.20
456.54	4416.59
456.73	4241.05
456.91	4411.91
457.09	4442.34
457.28	4395.53
457.46	4287.86
457.64	4318.29
457.83	4388.50
458.01	4290.20
458.19	4507.87
458.38	4318.29
458.56	4505.53
458.74	4465.74
458.93	4528.94
459.11	4482.13
459.29	4568.73
459.48	4575.75
459.66	4437.66
459.84	4699.80
460.03	4648.30
460.21	4629.58
460.39	4582.77
460.57	4575.75
460.76	4610.86
460.94	4683.41
461.12	4615.54
461.31	4720.86
461.49	4667.03
461.67	4751.29
461.85	4767.67
462.04	4636.60
462.22	4968.96
462.40	4791.08
462.59	4980.66
462.77	4821.50
462.95	4856.61
463.13	4884.70
463.32	4985.34
463.50	4903.42
463.68	4919.81
463.86	4854.27
464.05	4940.87
464.23	4865.97
464.41	5055.56
464.59	4901.08
464.78	4997.04
464.96	5097.69
465.14	4905.76
465.32	5153.86
465.50	4973.64
465.69	5081.30
465.87	5050.88
466.05	5076.62
466.23	5125.77
466.41	5027.47
466.60	5231.10
466.78	5207.69
466.96	5109.39
467.14	4943.21
467.32	5160.88
467.51	5437.06
467.69	5153.86
467.87	5116.41
468.05	5240.46
468.23	5242.80
468.41	5275.57
468.60	5355.15
468.78	5352.81
468.96	5322.38
469.14	5331.74
469.32	5273.23
469.50	5256.84
469.69	5406.64
469.87	5516.64
470.05	5486.22
470.23	5579.84
470.41	5549.41
470.59	5619.63
470.77	5441.75
470.95	5483.88
471.14	5631.33
471.32	5572.82
471.50	5706.23
471.68	5858.36
471.86	5734.31
472.04	5699.20
472.22	5886.45
472.40	5902.83
472.58	5937.94
472.77	5982.41
472.95	6015.18
473.13	5987.09
473.31	5977.73
473.49	5996.45
473.67	5951.98
473.85	6108.80
474.03	5947.30
474.21	6134.54
474.39	6122.84
474.57	6127.52
474.75	6282.00
474.93	6366.26
475.12	6207.10
475.30	6387.32
475.48	6193.06
475.66	6328.81
475.84	6284.34
476.02	6516.05
476.20	6256.25
476.38	6633.08
476.56	6583.93
476.74	6647.12
476.92	6696.27
477.10	6836.70
477.28	6930.33
477.46	6759.47
477.64	6827.34
477.82	6890.54
478.00	7070.76
478.18	7049.69
478.36	7220.55
478.54	7243.96
478.72	7215.87
478.90	7150.34
479.08	7286.09
479.26	7330.56
479.44	7489.71
479.62	7398.43
479.80	7604.40
479.98	7440.56
480.16	7712.07
480.34	7592.70
480.52	7843.14
480.70	7719.09
480.88	7840.79
481.06	7761.22
481.24	7756.54
481.41	7808.03
481.59	7939.10
481.77	8098.25
481.95	8257.41
482.13	8290.18
482.31	8287.84
482.49	8381.46
482.67	8430.61
482.85	8414.23
483.03	8681.05
483.21	8793.39
483.39	8599.13
483.57	8828.50
483.74	8919.78
483.92	8706.79
484.10	8990.00
484.28	8919.78
484.46	9050.85
484.64	9263.84
484.82	9092.98
485.00	9439.38
485.18	9247.46
485.35	9624.28
485.53	9507.26
485.71	9666.41
485.89	9795.14
486.07	9757.69
486.25	9851.31
486.43	9860.68
486.61	9921.53
486.78	10019.83
486.96	9977.70
487.14	10267.93
487.32	10389.64
487.50	10363.89
487.68	10621.35
487.85	10434.11
488.03	10647.10
488.21	10951.37
488.39	10785.19
488.57	10927.96
488.75	10932.64
488.92	11204.14
489.10	10925.62
489.28	11136.27
489.46	11150.31
489.64	11393.73
489.81	11433.52
489.99	11485.01
490.17	11424.15
490.35	11449.90
490.53	11859.49
490.70	11800.98
490.88	11786.94
491.06	11957.80
491.24	12074.82
491.41	12187.17
491.59	12226.96
491.77	12091.21
491.95	12461.01
492.13	12351.01
492.30	12470.37
492.48	12554.63
492.66	12713.79
492.84	12542.93
493.01	12748.90
493.19	12762.94
493.37	12996.99
493.54	12788.69
493.72	13085.94
493.90	13195.94
494.08	13121.04
494.25	12992.31
494.43	13504.89
494.61	13556.38
494.79	13518.93
494.96	13385.52
495.14	13790.44
495.32	13769.37
495.49	13774.05
495.67	13825.54
495.85	13926.19
496.02	14143.86
496.20	14256.20
496.38	14134.50
496.55	14251.52
496.73	14672.82
496.91	14228.12
497.09	14389.61
497.26	14520.68
497.44	14640.05
497.62	14553.45
497.79	14885.81
497.97	14752.40
498.14	14946.66
498.32	15019.22
498.50	15101.14
498.67	15192.42
498.85	14965.39
499.03	15110.50
499.20	15101.14
499.38	15166.67
499.56	15286.04
499.73	15637.12
499.91	15709.68
500.08	15777.55
500.26	15620.74
500.44	15822.02
500.61	15815.00
500.79	15922.66
500.97	16105.23
501.14	15999.90
501.32	16137.99
501.49	15934.37
501.67	16042.03
501.84	16149.70
502.02	16255.02
502.20	16549.93
502.37	16442.26
502.55	16255.02
502.72	16343.96
502.90	16629.51
503.07	16631.85
503.25	16383.75
503.43	16486.73
503.60	16978.25
503.78	16613.12
503.95	16961.86
504.13	16833.13
504.30	16830.79
504.48	16849.52
504.65	17383.16
504.83	17259.11
505.01	17336.35
505.18	17006.33
505.36	17727.22
505.53	17404.22
505.71	17195.92
505.88	17577.42
506.06	17219.32
506.23	17750.62
506.41	17558.70
506.58	17659.34
506.76	17628.92
506.93	17809.14
507.11	17778.71
507.28	17741.26
507.46	17837.22
507.63	18029.15
507.81	18342.78
507.98	18010.42
508.16	18036.17
508.33	18120.43
508.50	18101.70
508.68	18174.26
508.85	18586.19
509.03	18368.52
509.20	18698.54
509.38	18635.35
509.55	18448.10
509.73	18686.84
509.90	18743.01
510.08	18689.18
510.25	18951.32
510.42	18885.78
510.60	19082.39
510.77	19274.31
510.95	19075.37
511.12	18939.62
511.30	19080.05
511.47	19246.23
511.64	19243.88
511.82	19410.06
511.99	19494.32
512.17	19421.77
512.34	19431.13
512.51	19412.40
512.69	19442.83
512.86	19704.97
513.04	19721.35
513.21	19974.13
513.38	20070.09
513.56	19896.89
513.73	19786.89
513.90	19922.64
514.08	19845.40
514.25	19803.27
514.43	20304.15
514.60	20058.39
514.77	20226.91
514.95	20091.16
515.12	20437.56
515.29	20386.07
515.47	20425.86
515.64	20421.17
515.81	20437.56
515.99	20971.20
516.16	20795.66
516.33	20713.74
516.51	20746.51
516.68	20851.83
516.85	20613.10
517.03	21142.06
517.20	20872.90
517.37	20872.90
517.54	20915.03
517.72	21106.95
517.89	21067.16
518.06	20950.14
518.24	21055.46
518.41	21179.51
518.58	21057.80
518.75	21209.93
518.93	21434.63
519.10	21350.37
519.27	21640.59
519.45	21305.90
519.62	21743.58
519.79	21174.83
519.96	21238.02
520.14	21408.88
520.31	21458.03
520.48	21743.58
520.65	21460.37
520.83	21991.67
521.00	21687.40
521.17	21994.01
521.34	22104.02
521.52	21942.52
521.69	21919.12
521.86	21944.86
522.03	22185.94
522.20	22192.96
522.38	22260.84
522.55	22349.78
522.72	22291.26
522.89	22148.49
523.07	22492.55
523.24	22228.07
523.41	22551.06
523.58	22569.79
523.75	22668.09
523.92	22436.38
524.10	22455.10
524.27	22539.36
524.44	22492.55
524.61	22803.84
524.78	22918.53
524.96	22923.21
525.13	22977.04
525.30	22974.70
525.47	22918.53
525.64	23129.17
525.81	22944.27
525.98	22941.93
526.16	23168.96
526.33	23431.10
526.50	23578.56
526.67	23136.20
526.84	23344.50
527.01	23381.95
527.18	23234.50
527.36	23690.90
527.53	23487.28
527.70	23882.83
527.87	23871.12
528.04	23784.52
528.21	23517.70
528.38	23543.45
528.55	23740.05
528.72	23866.44
528.89	24039.64
529.07	23880.49
529.24	23943.68
529.41	24053.69
529.58	23903.89
529.75	23723.67
529.92	23803.25
530.09	24297.10
530.26	23840.70
530.43	23910.91
530.60	24065.39
530.77	24144.97
530.94	24278.38
531.11	23999.85
531.28	24446.90
531.46	24734.78
531.63	24622.44
531.80	24746.48
531.97	24645.84
532.14	24828.40
532.31	24472.64
532.48	24439.87
532.65	24898.62
532.82	24556.90
532.99	24580.31
533.16	24449.24
533.33	24856.49
533.50	25095.22
533.67	24755.85
533.84	24720.74
534.01	24992.24
534.18	24999.26
534.35	25048.41
534.52	24879.89
534.69	25102.25
534.86	25238.00
535.03	25228.63
535.20	25127.99
535.37	25310.55
535.54	24982.88
535.71	25245.02
535.88	25254.38
536.05	25069.48
536.22	25500.14
536.38	25626.53
536.55	25495.46
536.72	25502.48
536.89	25455.67
537.06	25394.81
537.23	25432.26
537.40	25584.40
537.57	25500.14
537.74	25738.87
537.91	26008.03
538.08	25701.42
538.25	25963.56
538.42	25706.10
538.59	25811.43
538.75	25825.47
538.92	25649.93
539.09	26026.76
539.26	25661.63
539.43	25984.63
539.60	25886.32
539.77	25963.56
539.94	26045.48
540.11	26108.68
540.28	25790.36
540.44	26181.23
540.61	26352.09
540.78	25970.58
540.95	26235.06
541.12	26122.72
541.29	26232.72
541.46	26237.41
541.62	25986.97
541.79	26562.74
541.96	26181.23
542.13	26284.22
542.30	26492.52
542.47	26820.20
542.63	27080.00
542.80	26661.04
542.97	26637.64
543.14	26941.91
543.31	27021.48
543.48	27225.11
543.64	27108.08
543.81	26785.09
543.98	26998.08
544.15	26941.91
544.32	26974.67
544.48	27070.64
544.65	26789.77
544.82	27042.55
544.99	26728.92
545.16	27220.43
545.32	26923.18
545.49	27513.00
545.66	27264.90
545.83	27468.53
546.00	27810.25
546.16	27344.48
546.33	27239.15
546.50	27232.13
546.67	27463.85
546.83	27007.44
547.00	27459.16
547.17	27311.71
547.34	27405.33
547.50	27592.58
547.67	27885.14
547.84	27828.97
548.00	27583.21
548.17	27730.67
548.34	27573.85
548.51	28030.26
548.67	27791.52
548.84	28053.66
549.01	27931.95
549.18	27864.08
549.34	27138.51
549.51	27718.96
549.68	27964.72
549.84	27335.12
550.01	27487.25
550.18	27974.08
550.34	28074.73
550.51	28105.15
550.68	28240.90
550.84	28070.04
551.01	28231.54
551.18	27896.85
551.34	27894.50
551.51	27728.33
551.68	28208.14
551.84	28224.52
552.01	28041.96
552.18	28463.25
552.34	27995.15
552.51	28240.90
552.68	28051.32
552.84	28315.80
553.01	28362.61
553.18	28350.91
553.34	28755.82
553.51	28329.84
553.67	28416.44
553.84	28847.10
554.01	28233.88
554.17	28882.21
554.34	28503.04
554.51	28329.84
554.67	28514.75
554.84	28716.03
555.00	28591.98
555.17	28872.85
555.33	28849.44
555.50	28624.75
555.67	28891.57
555.83	28781.57
556.00	28980.51
556.16	29104.56
556.33	28877.53
556.50	28671.56
556.66	28959.45
556.83	28783.91
556.99	29198.18
557.16	29137.33
557.32	29060.09
557.49	29163.08
557.65	28833.06
557.82	29134.99
557.98	28856.46
558.15	28833.06
558.32	29303.51
558.48	29209.89
558.65	29191.16
558.81	29081.16
558.98	29385.43
559.14	29369.04
559.31	29046.05
559.47	29322.23
559.64	28971.15
559.80	29301.17
559.97	29387.77
560.13	29553.94
560.30	28893.91
560.46	29371.38
560.63	29741.19
560.79	29308.19
560.96	29399.47
561.12	29364.36
561.29	29418.19
561.45	29474.37
561.61	29640.54
561.78	29567.99
561.94	29919.07
562.11	29923.75
562.27	29750.55
562.44	29628.84
562.60	29397.13
562.77	29717.78
562.93	29355.00
563.10	29961.20
563.26	29179.46
563.42	29825.45
563.59	29612.46
563.75	29425.22
563.92	29759.91
564.08	29628.84
564.24	29380.74
564.41	29645.23
564.57	29479.05
564.74	29645.23
564.90	29493.09
565.07	29649.91
565.23	30307.60
565.39	29490.75
565.56	29607.78
565.72	30022.05
565.88	29687.36
566.05	29874.60
566.21	29860.55
566.38	29589.05
566.54	29682.67
566.70	29848.85
566.87	30410.58
567.03	29902.68
567.19	30225.68
567.36	30185.89
567.52	30033.75
567.68	30061.84
567.85	29626.50
568.01	29902.68
568.17	30323.98
568.34	29909.71
568.50	29998.65
568.66	30125.04
568.83	30059.50
568.99	30089.93
569.15	29759.91
569.32	30237.38
569.48	29834.81
569.64	30354.41
569.81	30003.33
569.97	29635.86
570.13	30368.45
570.30	30249.08
570.46	30143.76
570.62	30134.40
570.78	30155.46
570.95	30008.01
571.11	30614.21
571.27	29970.56
571.43	30230.36
571.60	30075.88
571.76	30110.99
571.92	30654.00
572.09	30501.86
572.25	30471.43
572.41	30293.55
572.57	30604.84
572.74	30480.80
572.90	29930.77
573.06	29745.87
573.22	30089.93
573.38	30665.70
573.55	30199.93
573.71	30604.84
573.87	30586.12
574.03	30260.79
574.20	30085.25
574.36	30206.95
574.52	30429.30
574.68	30089.93
574.84	30101.63
575.01	30761.66
575.17	30518.25
575.33	30429.30
575.49	30221.00
575.65	30452.71
575.82	30462.07
575.98	30281.85
576.14	30183.55
576.30	30127.38
576.46	30476.12
576.62	30277.17
576.79	30307.60
576.95	30015.03
577.11	30642.29
577.27	30387.18
577.43	30918.48
577.59	30717.19
577.75	29993.97
577.92	30286.53
578.08	30057.16
578.24	30270.15
578.40	30272.49
578.56	30389.52
578.72	30216.32
578.88	30773.36
579.04	30703.15
579.21	30347.39
579.37	30909.11
579.53	30211.64
579.69	30363.77
579.85	30618.89
580.01	30501.86
580.17	30073.54
580.33	30230.36
580.49	30417.60
580.65	30448.03
580.82	31021.46
580.98	30485.48
581.14	30543.99
581.30	30728.89
581.46	30431.65
581.62	30515.90
581.78	30588.46
581.94	30541.65
582.10	30724.21
582.26	30747.62
582.42	30279.51
582.58	30707.83
582.74	30501.86
582.90	30642.29
583.06	30948.90
583.22	30616.55
583.38	30616.55
583.54	30555.69
583.70	30522.93
583.86	30649.32
584.02	30277.17
584.18	31035.50
584.34	30972.31
584.50	30864.64
584.66	30831.88
584.82	30822.51
584.98	30469.09
585.14	30478.46
585.30	30366.11
585.46	30700.81
585.62	29996.31
585.78	30546.33
585.94	30167.16
586.10	30782.73
586.26	31145.51
586.42	30621.23
586.58	30815.49
586.74	30764.00
586.90	30707.83
587.06	30609.53
587.22	30672.72
587.38	30426.96
587.54	31175.94
587.70	30831.88
587.86	30967.63
588.02	31157.21
588.18	31517.65
588.34	30822.51
588.49	31019.12
588.65	30614.21
588.81	30773.36
588.97	30855.28
589.13	30576.76
589.29	30895.07
589.45	30888.05
589.61	30899.75
589.77	31005.08
589.93	30888.05
590.08	31082.31
590.24	31339.77
590.40	31288.28
590.56	30881.03
590.72	31072.95
590.88	30878.69
591.04	30738.26
591.20	31295.30
591.35	31225.09
591.51	31424.03
591.67	31014.44
591.83	30806.13
591.99	30920.82
