SpectraSuite Data File
++++++++++++++++++++++++++++++++++++
Date: Fri Oct 18 13:58:34 GMT-05:00 2013
User: bianchi
Dark Spectrum Present: No
Reference Spectrum Present: No
Number of Sampled Component Spectra: 1
Spectrometers: USB2+H05261
Integration Time (usec): 50000 (USB2+H05261)
Spectra Averaged: 1 (USB2+H05261)
Boxcar Smoothing: 0 (USB2+H05261)
Correct for Electrical Dark: No (USB2+H05261)
Strobe/Lamp Enabled: No (USB2+H05261)
Correct for Detector Non-linearity: No (USB2+H05261)
Correct for Stray Light: No (USB2+H05261)
Number of Pixels in Processed Spectrum: 2048
>>>>>Begin Processed Spectral Data<<<<<
365.73	0.00
365.92	0.00
366.12	0.00
366.32	0.00
366.52	0.00
366.72	0.00
366.91	0.00
367.11	0.00
367.31	0.00
367.51	0.00
367.70	0.00
367.90	0.00
368.10	0.00
368.30	0.00
368.49	0.00
368.69	0.00
368.89	0.00
369.09	0.00
369.28	0.00
369.48	0.00
369.68	0.00
369.87	0.00
370.07	0.00
370.27	0.00
370.47	16.38
370.66	110.01
370.86	91.28
371.06	114.69
371.25	175.54
371.45	119.37
371.65	177.88
371.84	88.94
372.04	196.60
372.24	138.09
372.44	177.88
372.63	182.56
372.83	234.05
373.03	145.11
373.22	198.95
373.42	250.44
373.62	198.95
373.81	266.82
374.01	222.35
374.21	287.89
374.40	269.16
374.60	250.44
374.79	285.55
374.99	191.92
375.19	259.80
375.38	276.18
375.58	231.71
375.78	159.16
375.97	248.10
376.17	259.80
376.37	224.69
376.56	210.65
376.76	266.82
376.95	287.89
377.15	334.70
377.35	297.25
377.54	266.82
377.74	278.52
377.93	255.12
378.13	269.16
378.33	334.70
378.52	222.35
378.72	276.18
378.91	290.23
379.11	271.50
379.31	332.36
379.50	285.55
379.70	311.29
379.89	315.97
380.09	266.82
380.28	278.52
380.48	306.61
380.68	241.08
380.87	346.40
381.07	294.91
381.26	264.48
381.46	334.70
381.65	355.76
381.85	344.06
382.04	348.74
382.24	369.80
382.43	308.95
382.63	369.80
382.83	348.74
383.02	404.91
383.22	287.89
383.41	430.66
383.61	372.15
383.80	395.55
384.00	381.51
384.19	337.04
384.39	407.25
384.58	320.65
384.78	390.87
384.97	320.65
385.17	367.46
385.36	360.44
385.56	404.91
385.75	351.08
385.95	360.44
386.14	386.19
386.34	416.62
386.53	465.77
386.72	407.25
386.92	339.38
387.11	428.32
387.31	468.11
387.50	477.47
387.70	395.55
387.89	381.51
388.09	456.40
388.28	386.19
388.48	461.09
388.67	397.89
388.86	454.06
389.06	421.30
389.25	440.02
389.45	458.74
389.64	477.47
389.84	435.34
390.03	550.03
390.22	423.64
390.42	454.06
390.61	472.79
390.81	404.91
391.00	573.43
391.19	475.13
391.39	503.22
391.58	489.17
391.78	564.07
391.97	559.39
392.16	554.71
392.36	622.58
392.55	559.39
392.75	582.79
392.94	540.66
393.13	526.62
393.33	468.11
393.52	463.43
393.71	580.45
393.91	587.47
394.10	638.97
394.29	564.07
394.49	613.22
394.68	587.47
394.88	592.16
395.07	594.50
395.26	587.47
395.46	564.07
395.65	578.11
395.84	622.58
396.04	660.03
396.23	596.84
396.42	624.92
396.62	610.88
396.81	648.33
397.00	561.73
397.19	664.71
397.39	664.71
397.58	741.95
397.77	699.82
397.97	702.16
398.16	664.71
398.35	692.80
398.55	725.57
398.74	763.01
398.93	737.27
399.12	704.50
399.32	655.35
399.51	664.71
399.70	732.59
399.90	770.04
400.09	758.33
400.28	744.29
400.47	739.61
400.67	805.14
400.86	767.70
401.05	781.74
401.24	882.38
401.44	755.99
401.63	800.46
401.82	760.67
402.01	807.48
402.21	943.24
402.40	842.59
402.59	772.38
402.78	880.04
402.97	851.96
403.17	884.72
403.36	847.27
403.55	830.89
403.74	858.98
403.93	910.47
404.13	926.85
404.32	931.53
404.51	954.94
404.70	959.62
404.89	943.24
405.09	866.00
405.28	915.15
405.47	978.34
405.66	983.02
405.85	891.74
406.05	936.21
406.24	880.04
406.43	997.07
406.62	1020.47
406.81	980.68
407.00	1015.79
407.20	1107.07
407.39	1043.88
407.58	1027.50
407.77	987.71
407.96	1043.88
408.15	1170.27
408.34	1064.94
408.54	1142.18
408.73	1064.94
408.92	1109.41
409.11	1001.75
409.30	1170.27
409.49	1135.16
409.68	1095.37
409.87	1128.14
410.07	1214.74
410.26	1226.44
410.45	1153.88
410.64	1090.69
410.83	1226.44
411.02	1203.04
411.21	1268.57
411.40	1247.51
411.59	1310.70
411.78	1252.19
411.98	1291.98
412.17	1188.99
412.36	1240.48
412.55	1296.66
412.74	1423.05
412.93	1350.49
413.12	1219.42
413.31	1502.62
413.50	1390.28
413.69	1362.19
413.88	1423.05
414.07	1504.96
414.26	1437.09
414.45	1420.71
414.64	1495.60
414.83	1472.20
415.02	1563.48
415.22	1563.48
415.41	1572.84
415.60	1617.31
415.79	1614.97
415.98	1561.14
416.17	1521.35
416.36	1509.65
416.55	1685.19
416.74	1621.99
416.93	1631.35
417.12	1570.50
417.31	1708.59
417.50	1619.65
417.69	1750.72
417.88	1736.68
418.07	1715.61
418.26	1668.80
418.45	1722.63
418.64	1839.66
418.83	1701.57
419.02	1813.92
419.21	1767.10
419.39	1900.52
419.58	1842.00
419.77	1767.10
419.96	1830.30
420.15	1830.30
420.34	1827.96
420.53	1753.06
420.72	1760.08
420.91	1816.26
421.10	1970.73
421.29	2015.20
421.48	1825.62
421.67	2010.52
421.86	1813.92
422.05	1872.43
422.24	1970.73
422.43	1944.99
422.61	2005.84
422.80	1998.82
422.99	2069.03
423.18	1944.99
423.37	2101.80
423.56	2019.88
423.75	2050.31
423.94	2010.52
424.13	1809.23
424.32	1886.47
424.50	2071.37
424.69	2050.31
424.88	1947.33
425.07	2064.35
425.26	2019.88
425.45	2202.44
425.64	2057.33
425.83	1949.67
426.01	2157.97
426.20	2050.31
426.39	2228.19
426.58	1975.41
426.77	1884.13
426.96	2047.97
427.15	2019.88
427.33	2057.33
427.52	2008.18
427.71	2054.99
427.90	2069.03
428.09	2146.27
428.28	2190.74
428.46	2324.15
428.65	2155.63
428.84	2225.85
429.03	2195.42
429.22	2143.93
429.40	2354.58
429.59	2265.64
429.78	2165.00
429.97	2155.63
430.16	2216.49
430.34	2286.70
430.53	2401.39
430.72	2242.23
430.91	2221.17
431.10	2298.41
431.28	2399.05
431.47	2321.81
431.66	2436.50
431.85	2324.15
432.03	2434.16
432.22	2551.18
432.41	2609.70
432.60	2340.54
432.79	2520.76
432.97	2401.39
433.16	2448.20
433.35	2406.07
433.54	2436.50
433.72	2583.95
433.91	2485.65
434.10	2619.06
434.28	2413.09
434.47	2504.37
434.66	2523.10
434.85	2553.52
435.03	2530.12
435.22	2630.76
435.41	2682.25
435.59	2602.68
435.78	2443.52
435.97	2679.91
436.16	2815.66
436.34	2736.09
436.53	2656.51
436.72	2672.89
436.90	2729.06
437.09	2703.32
437.28	2691.62
437.46	2696.30
437.65	2644.81
437.84	2733.75
438.02	2754.81
438.21	2775.88
438.40	2722.04
438.58	2785.24
438.77	2829.71
438.96	2904.60
439.14	2820.35
439.33	3012.27
439.52	3038.02
439.70	2902.26
439.89	3059.08
440.08	2998.23
440.26	2988.86
440.45	3030.99
440.63	2979.50
440.82	3194.83
441.01	3103.55
441.19	3157.38
441.38	3234.62
441.57	3148.02
441.75	3143.34
441.94	3265.05
442.12	3208.87
442.31	3255.69
442.50	3272.07
442.68	3239.30
442.87	3251.00
443.05	3178.45
443.24	3272.07
443.43	3419.52
443.61	3400.80
443.80	3569.32
443.98	3398.46
444.17	3300.16
444.35	3368.03
444.54	3468.67
444.73	3389.10
444.91	3473.36
445.10	3459.31
445.28	3499.10
445.47	3419.52
445.65	3396.12
445.84	3449.95
446.02	3485.06
446.21	3485.06
446.39	3311.86
446.58	3496.76
446.77	3400.80
446.95	3550.59
447.14	3552.93
447.32	3471.01
447.51	3452.29
447.69	3569.32
447.88	3461.65
448.06	3590.38
448.25	3466.33
448.43	3578.68
448.62	3520.17
448.80	3473.36
448.99	3531.87
449.17	3581.02
449.36	3534.21
449.54	3644.21
449.73	3782.31
449.91	3702.73
450.10	3644.21
450.28	3824.44
450.46	3637.19
450.65	3815.07
450.83	3684.00
451.02	3651.24
451.20	3829.12
451.39	3751.88
451.57	3644.21
451.76	3686.34
451.94	3894.65
452.13	3911.04
452.31	3826.78
452.49	3726.13
452.68	3847.84
452.86	3810.39
453.05	3684.00
453.23	3960.19
453.42	3953.16
453.60	3681.66
453.78	3913.38
453.97	4002.32
454.15	3803.37
454.34	3852.52
454.52	3946.14
454.70	3969.55
454.89	4105.30
455.07	4025.72
455.26	4187.22
455.44	4177.86
455.62	4030.40
455.81	4032.74
455.99	4044.45
456.17	4018.70
456.36	4072.53
456.54	4318.29
456.73	4114.66
456.91	4311.27
457.09	4248.07
457.28	4346.37
457.46	4269.14
457.64	4372.12
457.83	4269.14
458.01	4301.90
458.19	4400.21
458.38	4367.44
458.56	4311.27
458.74	4334.67
458.93	4374.46
459.11	4252.75
459.29	4320.63
459.48	4348.72
459.66	4484.47
459.84	4519.57
460.03	4685.75
460.21	4582.77
460.39	4468.08
460.57	4477.44
460.76	4631.92
460.94	4580.43
461.12	4645.96
461.31	4599.15
461.49	4542.98
461.67	4671.71
461.85	4774.69
462.04	4648.30
462.22	4844.91
462.40	4671.71
462.59	4751.29
462.77	4713.84
462.95	4695.11
463.13	4868.31
463.32	4812.14
463.50	4833.21
463.68	4837.89
463.86	4762.99
464.05	4947.89
464.23	4802.78
464.41	4985.34
464.59	4854.27
464.78	5085.98
464.96	4961.94
465.14	4812.14
465.32	4980.66
465.50	5043.85
465.69	4894.06
465.87	4924.49
466.05	5029.81
466.23	4882.36
466.41	5219.39
466.60	5205.35
466.78	5125.77
466.96	5097.69
467.14	4844.91
467.32	5259.18
467.51	5069.60
467.69	4961.94
467.87	4896.40
468.05	5261.52
468.23	5043.85
468.41	5144.50
468.60	5060.24
468.78	5179.61
468.96	5137.48
469.14	5231.10
469.32	5376.21
469.50	5078.96
469.69	5235.78
469.87	5324.72
470.05	5364.51
470.23	5334.08
470.41	5277.91
470.59	5329.40
470.77	5416.00
470.95	5479.19
471.14	5423.02
471.32	5411.32
471.50	5500.26
471.68	5659.42
471.86	5481.53
472.04	5509.62
472.22	5717.93
472.40	5673.46
472.58	5825.59
472.77	5731.97
472.95	5781.12
473.13	5998.79
473.31	5809.21
473.49	5717.93
473.67	5844.32
473.85	5856.02
474.03	5898.15
474.21	6031.56
474.39	5928.58
474.57	6069.01
474.75	5989.43
474.93	6031.56
475.12	6050.28
475.30	6179.01
475.48	6122.84
475.66	6104.12
475.84	6427.11
476.02	6340.51
476.20	6312.42
476.38	6352.21
476.56	6457.54
476.74	6473.92
476.92	6553.50
477.10	6581.59
477.28	6740.74
477.46	6609.67
477.64	6661.16
477.82	6817.98
478.00	6867.13
478.18	6848.41
478.36	6979.48
478.54	7030.97
478.72	6930.33
478.90	7220.55
479.08	7232.26
479.26	7215.87
479.44	7307.15
479.62	7213.53
479.80	7328.22
479.98	7370.35
480.16	7660.57
480.34	7417.16
480.52	7527.16
480.70	7492.05
480.88	7545.89
481.06	7541.21
481.24	7595.04
481.41	7765.90
481.59	8002.29
481.77	7777.60
481.95	7964.84
482.13	7971.86
482.31	8198.90
482.49	8070.17
482.67	8049.10
482.85	8210.60
483.03	8416.57
483.21	8418.91
483.39	8479.76
483.57	8475.08
483.74	8655.30
483.92	8519.55
484.10	8697.43
484.28	8875.31
484.46	9029.79
484.64	9163.20
484.82	9095.32
485.00	8872.97
485.18	9305.97
485.35	9387.89
485.53	9341.08
485.71	9324.69
485.89	9692.16
486.07	9554.07
486.25	9483.85
486.43	9549.39
486.61	9738.97
486.78	9834.93
486.96	9902.81
487.14	10162.61
487.32	9792.80
487.50	10078.35
487.68	10139.20
487.85	10150.90
488.03	10560.50
488.21	10464.54
488.39	10553.48
488.57	10623.69
488.75	10677.52
488.92	10803.91
489.10	10878.81
489.28	10946.69
489.46	10956.05
489.64	11005.20
489.81	11164.36
489.99	11260.32
490.17	11255.64
490.35	11389.05
490.53	11393.73
490.70	11412.45
490.88	11571.61
491.06	11597.35
491.24	11735.45
491.41	11576.29
491.59	11913.33
491.77	11826.73
491.95	12011.63
492.13	11999.93
492.30	12301.86
492.48	12219.94
492.66	12121.63
492.84	11971.84
493.01	12472.71
493.19	12526.55
493.37	12533.57
493.54	12849.54
493.72	12622.51
493.90	12800.39
494.08	12870.61
494.25	13060.19
494.43	13088.28
494.61	13006.36
494.79	13282.54
494.96	13172.54
495.14	13329.35
495.32	13336.37
495.49	13547.02
495.67	13483.83
495.85	13687.45
496.02	13734.26
496.20	13802.14
496.38	13731.92
496.55	14066.62
496.73	14059.60
496.91	14052.58
497.09	14171.94
497.26	14225.78
497.44	14291.31
497.62	14324.08
497.79	14356.85
497.97	14295.99
498.14	14579.20
498.32	14747.72
498.50	14965.39
498.67	14595.58
498.85	14803.89
499.03	14736.01
499.20	15056.67
499.38	15140.93
499.56	14927.94
499.73	15084.75
499.91	15262.63
500.08	15311.78
500.26	15267.31
500.44	15559.88
500.61	15360.94
500.79	15442.85
500.97	15573.92
501.14	15899.26
501.32	15819.68
501.49	15810.32
501.67	15744.78
501.84	16013.95
502.02	15868.83
502.20	16201.19
502.37	15978.84
502.55	16250.34
502.72	15889.90
502.90	16215.23
503.07	16044.37
503.25	16334.60
503.43	16229.27
503.60	16367.37
503.78	16030.33
503.95	16332.26
504.13	16491.41
504.30	16559.29
504.48	16570.99
504.65	16643.55
504.83	16730.15
505.01	16746.53
505.18	16833.13
505.36	16933.78
505.53	16844.84
505.71	16819.09
505.88	17125.70
506.06	16879.94
506.23	17514.23
506.41	17060.16
506.58	17383.16
506.76	17408.90
506.93	17128.04
507.11	17109.32
507.28	17308.26
507.46	17645.30
507.63	17467.42
507.81	17577.42
507.98	17645.30
508.16	17455.72
508.33	17521.25
508.50	17657.00
508.68	17762.33
508.85	17944.89
509.03	18075.96
509.20	18160.22
509.38	18317.03
509.55	18293.63
509.73	18300.65
509.90	18118.09
510.08	18092.34
510.25	18143.83
510.42	18541.72
510.60	18581.51
510.77	18633.00
510.95	18616.62
511.12	18597.90
511.30	18705.56
511.47	18473.85
511.64	18670.45
511.82	18834.29
511.99	19007.49
512.17	19096.43
512.34	18869.40
512.51	19171.33
512.69	18925.57
512.86	19136.22
513.04	19222.82
513.21	19176.01
513.38	19461.55
513.56	19353.89
513.73	19199.41
513.90	19227.50
514.08	19187.71
514.25	19456.87
514.43	19669.86
514.60	19871.15
514.77	19576.24
514.95	19889.87
515.12	19665.18
515.29	19576.24
515.47	19702.63
515.64	20180.10
515.81	19740.08
515.99	20311.17
516.16	20198.82
516.33	20313.51
516.51	19779.87
516.68	20170.74
516.85	20325.21
517.03	20219.89
517.20	20245.63
517.37	20381.38
517.54	20573.31
517.72	20734.81
517.89	20570.97
518.06	20610.76
518.24	20505.43
518.41	20737.15
518.58	20587.35
518.75	20774.60
518.93	20851.83
519.10	20870.56
519.27	20798.00
519.45	21151.42
519.62	20718.42
519.79	20594.37
519.96	20924.39
520.14	21153.76
520.31	21174.83
520.48	21209.93
520.65	21151.42
520.83	21373.77
521.00	21151.42
521.17	20863.54
521.34	21401.86
521.52	21401.86
521.69	21642.93
521.86	21226.32
522.03	21656.98
522.20	21544.63
522.38	21731.87
522.55	21448.67
522.72	21722.51
522.89	21493.14
523.07	21876.99
523.24	21774.00
523.41	22251.47
523.58	22061.89
523.75	22040.82
523.92	21935.50
524.10	22127.42
524.27	22284.24
524.44	21706.13
524.61	22658.73
524.78	22415.31
524.96	22553.40
525.13	22380.20
525.30	22403.61
525.47	22249.13
525.64	22487.87
525.81	22274.88
525.98	22419.99
526.16	22513.61
526.33	22572.13
526.50	22869.37
526.67	22492.55
526.84	22679.79
527.01	22616.60
527.18	22871.72
527.36	22803.84
527.53	23154.92
527.70	23337.48
527.87	22958.31
528.04	23391.31
528.21	23318.76
528.38	23178.33
528.55	23112.79
528.72	23220.45
528.89	23115.13
529.07	23129.17
529.24	23243.86
529.41	22822.56
529.58	23260.24
529.75	23700.26
529.92	23503.66
530.09	23489.62
530.26	23566.85
530.43	23475.57
530.60	23517.70
530.77	23527.06
530.94	23372.59
531.11	23758.78
531.28	23332.80
531.46	23543.45
531.63	23803.25
531.80	23796.23
531.97	23915.59
532.14	23939.00
532.31	23936.66
532.48	23651.11
532.65	23880.49
532.82	23740.05
532.99	23840.70
533.16	23985.81
533.33	24189.44
533.50	24173.05
533.67	24170.71
533.84	24018.58
534.01	24067.73
534.18	24002.19
534.35	24161.35
534.52	24297.10
534.69	24254.97
534.86	24603.71
535.03	24470.30
535.20	24292.42
535.37	24489.03
535.54	24346.25
535.71	24301.78
535.88	24760.53
536.05	24601.37
536.22	24762.87
536.38	24922.02
536.55	25163.10
536.72	24922.02
536.89	24694.99
537.06	24718.40
537.23	24713.72
537.40	25146.72
537.57	25013.31
537.74	25010.96
537.91	25055.43
538.08	24912.66
538.25	24650.52
538.42	24978.20
538.59	25226.29
538.75	24875.21
538.92	25350.34
539.09	25333.96
539.26	25282.47
539.43	25453.33
539.60	25820.79
539.77	25455.67
539.94	25408.86
540.11	25383.11
540.28	25298.85
540.44	25324.60
540.61	25200.55
540.78	25415.88
540.95	25773.98
541.12	25326.94
541.29	25207.57
541.46	25673.34
541.62	25308.21
541.79	25532.90
541.96	25268.42
542.13	25305.87
542.30	25628.87
542.47	25532.90
542.63	25816.11
542.80	26057.18
542.97	26356.77
543.14	26118.04
543.31	26122.72
543.48	25773.98
543.64	25949.52
543.81	26382.52
543.98	26162.51
544.15	26099.31
544.32	26520.61
544.48	26771.05
544.65	26167.19
544.82	26113.36
544.99	25996.33
545.16	26272.51
545.32	26120.38
545.49	26546.36
545.66	26560.40
545.83	26574.44
546.00	27002.76
546.16	26560.40
546.33	26286.56
546.50	26267.83
546.67	26441.03
546.83	26192.94
547.00	26852.97
547.17	26611.89
547.34	26539.33
547.50	26356.77
547.67	27110.43
547.84	27082.34
548.00	26911.48
548.17	26668.06
548.34	26679.77
548.51	27295.33
548.67	27505.98
548.84	27051.91
549.01	27065.96
549.18	27007.44
549.34	27087.02
549.51	26981.70
549.68	27035.53
549.84	27220.43
550.01	27089.36
550.18	27239.15
550.34	27133.83
550.51	27260.22
550.68	27290.65
550.84	27065.96
551.01	27459.16
551.18	27250.86
551.34	27182.98
551.51	27388.95
551.68	27601.94
551.84	27297.67
552.01	27332.78
552.18	27740.03
552.34	27463.85
552.51	27487.25
552.68	27534.06
552.84	27402.99
553.01	27667.47
553.18	27606.62
553.34	27625.34
553.51	27522.36
553.67	27768.12
553.84	27983.44
554.01	27702.58
554.17	27707.26
554.34	27936.63
554.51	27796.20
554.67	28247.93
554.84	27936.63
555.00	27906.21
555.17	28046.64
555.33	28264.31
555.50	28009.19
555.67	28170.69
555.83	27971.74
556.00	27756.41
556.16	28259.63
556.33	27929.61
556.50	28086.43
556.66	28414.10
556.83	27906.21
556.99	27852.38
557.16	28243.24
557.32	28357.93
557.49	28535.81
557.65	28184.73
557.82	28390.70
557.98	28182.39
558.15	28264.31
558.32	28343.89
558.48	28531.13
558.65	28161.33
558.81	28334.53
558.98	28070.04
559.14	28245.58
559.31	28304.10
559.47	28573.26
559.64	28205.80
559.80	28493.68
559.97	28369.63
560.13	28292.40
560.30	28606.03
560.46	28238.56
560.63	28386.02
560.79	28449.21
560.96	28271.33
561.12	28629.43
561.29	28428.15
561.45	28645.82
561.61	28299.42
561.78	28697.31
561.94	28566.24
562.11	28531.13
562.27	28645.82
562.44	28510.07
562.60	28519.43
562.77	28854.12
562.93	28439.85
563.10	28823.70
563.26	28456.23
563.42	28814.34
563.59	28828.38
563.75	28783.91
563.92	28821.36
564.08	28650.50
564.24	28751.14
564.41	28355.59
564.57	28950.09
564.74	28999.24
564.90	28893.91
565.07	29088.18
565.23	28931.36
565.39	28982.85
565.56	29076.48
565.72	29015.62
565.88	29439.26
566.05	29057.75
566.21	28542.83
566.38	29219.25
566.54	29134.99
566.70	28914.98
566.87	29174.78
567.03	29174.78
567.19	29457.98
567.36	29350.32
567.52	29010.94
567.68	28793.27
567.85	28776.89
568.01	29113.92
568.17	29027.32
568.34	28947.75
568.50	28893.91
568.66	29064.77
568.83	29315.21
568.99	29287.12
569.15	29017.96
569.32	29055.41
569.48	29062.43
569.64	29427.56
569.81	29301.17
569.97	29167.76
570.13	29099.88
570.30	29324.57
570.46	29415.85
570.62	29053.07
570.78	29106.90
570.95	28797.95
571.11	29448.62
571.27	29027.32
571.43	29113.92
571.60	28938.38
571.76	29165.42
571.92	29263.72
572.09	29209.89
572.25	29359.68
572.41	29397.13
572.57	29659.27
572.74	29457.98
572.90	29525.86
573.06	29284.78
573.22	29221.59
573.38	29156.05
573.55	29010.94
573.71	29539.90
573.87	29673.31
574.03	29240.31
574.20	29273.08
574.36	29614.80
574.52	29509.47
574.68	29324.57
574.84	29539.90
575.01	29467.34
575.17	29322.23
575.33	29411.17
575.49	29046.05
575.65	29289.46
575.82	29479.05
575.98	29390.11
576.14	29315.21
576.30	29579.69
576.46	29352.66
576.62	29123.29
576.79	29696.72
576.95	29172.44
577.11	29357.34
577.27	29752.89
577.43	29507.13
577.59	29490.75
577.75	29591.39
577.92	29462.66
578.08	28975.83
578.24	29544.58
578.40	29736.51
578.56	29329.25
578.72	29797.36
578.88	29614.80
579.04	29759.91
579.21	29355.00
579.37	29591.39
579.53	29394.79
579.69	29378.40
579.85	29682.67
580.01	29406.49
580.17	29130.31
580.33	29422.87
580.49	29783.32
580.65	29635.86
580.82	29544.58
580.98	29876.94
581.14	29301.17
581.30	29766.93
581.46	29699.06
581.62	29575.01
581.78	29663.95
581.94	29699.06
582.10	29642.88
582.26	29523.52
582.42	29713.10
582.58	29465.00
582.74	29460.32
582.90	29729.48
583.06	30101.63
583.22	29816.08
583.38	29663.95
583.54	29776.30
583.70	29530.54
583.86	29741.19
584.02	29586.71
584.18	29769.27
584.34	29357.34
584.50	29816.08
584.66	29603.10
584.82	29504.79
584.98	29666.29
585.14	29249.67
585.30	29310.53
585.46	29443.94
585.62	29457.98
585.78	29675.65
585.94	29378.40
586.10	29567.99
586.26	29366.70
586.42	30022.05
586.58	29645.23
586.74	29785.66
586.90	29656.93
587.06	29394.79
587.22	29579.69
587.38	29252.02
587.54	30239.72
587.70	29984.60
587.86	30026.73
588.02	29862.90
588.18	30066.52
588.34	29687.36
588.49	29476.71
588.65	29797.36
588.81	29476.71
588.97	29551.60
589.13	29724.80
589.29	29846.51
589.45	29886.30
589.61	29830.13
589.77	30059.50
589.93	30164.82
590.08	30302.92
590.24	30279.51
590.40	30099.29
590.56	30377.81
590.72	29940.13
590.88	29984.60
591.04	29837.15
591.20	29970.56
591.35	30181.21
591.51	30071.20
591.67	30141.42
591.83	30319.30
591.99	30361.43
