SpectraSuite Data File
++++++++++++++++++++++++++++++++++++
Date: Fri Oct 18 13:58:40 GMT-05:00 2013
User: bianchi
Dark Spectrum Present: No
Reference Spectrum Present: No
Number of Sampled Component Spectra: 1
Spectrometers: USB2+H05261
Integration Time (usec): 50000 (USB2+H05261)
Spectra Averaged: 1 (USB2+H05261)
Boxcar Smoothing: 0 (USB2+H05261)
Correct for Electrical Dark: No (USB2+H05261)
Strobe/Lamp Enabled: No (USB2+H05261)
Correct for Detector Non-linearity: No (USB2+H05261)
Correct for Stray Light: No (USB2+H05261)
Number of Pixels in Processed Spectrum: 2048
>>>>>Begin Processed Spectral Data<<<<<
365.73	0.00
365.92	0.00
366.12	0.00
366.32	0.00
366.52	0.00
366.72	0.00
366.91	0.00
367.11	0.00
367.31	0.00
367.51	0.00
367.70	0.00
367.90	0.00
368.10	0.00
368.30	0.00
368.49	0.00
368.69	0.00
368.89	0.00
369.09	0.00
369.28	0.00
369.48	0.00
369.68	0.00
369.87	0.00
370.07	0.00
370.27	0.00
370.47	0.00
370.66	98.30
370.86	138.09
371.06	117.03
371.25	121.71
371.45	182.56
371.65	156.82
371.84	152.13
372.04	234.05
372.24	220.01
372.44	283.20
372.63	224.69
372.83	217.67
373.03	187.24
373.22	131.07
373.42	252.78
373.62	163.84
373.81	212.99
374.01	166.18
374.21	198.95
374.40	149.79
374.60	257.46
374.79	248.10
374.99	248.10
375.19	222.35
375.38	255.12
375.58	245.76
375.78	313.63
375.97	229.37
376.17	222.35
376.37	248.10
376.56	252.78
376.76	292.57
376.95	264.48
377.15	297.25
377.35	255.12
377.54	320.65
377.74	292.57
377.93	224.69
378.13	241.08
378.33	238.73
378.52	252.78
378.72	290.23
378.91	241.08
379.11	339.38
379.31	311.29
379.50	278.52
379.70	369.80
379.89	320.65
380.09	346.40
380.28	292.57
380.48	351.08
380.68	320.65
380.87	325.33
381.07	325.33
381.26	390.87
381.46	304.27
381.65	318.31
381.85	341.72
382.04	330.02
382.24	290.23
382.43	320.65
382.63	374.49
382.83	339.38
383.02	334.70
383.22	379.17
383.41	374.49
383.61	334.70
383.80	299.59
384.00	400.23
384.19	400.23
384.39	337.04
384.58	425.98
384.78	376.83
384.97	376.83
385.17	416.62
385.36	397.89
385.56	374.49
385.75	346.40
385.95	437.68
386.14	430.66
386.34	416.62
386.53	433.00
386.72	388.53
386.92	461.09
387.11	404.91
387.31	421.30
387.50	365.12
387.70	348.74
387.89	489.17
388.09	372.15
388.28	507.90
388.48	456.40
388.67	484.49
388.86	458.74
389.06	425.98
389.25	418.96
389.45	500.87
389.64	472.79
389.84	484.49
390.03	510.24
390.22	463.43
390.42	486.83
390.61	528.96
390.81	477.47
391.00	407.25
391.19	496.19
391.39	491.51
391.58	554.71
391.78	533.64
391.97	503.22
392.16	535.98
392.36	589.82
392.55	517.26
392.75	505.56
392.94	599.18
393.13	554.71
393.33	531.30
393.52	610.88
393.71	641.31
393.91	657.69
394.10	550.03
394.29	503.22
394.49	571.09
394.68	631.94
394.88	547.69
395.07	496.19
395.26	636.63
395.46	648.33
395.65	653.01
395.84	594.50
396.04	617.90
396.23	638.97
396.42	662.37
396.62	648.33
396.81	784.08
397.00	711.52
397.19	643.65
397.39	561.73
397.58	645.99
397.77	615.56
397.97	688.12
398.16	739.61
398.35	706.84
398.55	648.33
398.74	669.39
398.93	636.63
399.12	795.78
399.32	657.69
399.51	699.82
399.70	812.17
399.90	772.38
400.09	779.40
400.28	690.46
400.47	763.01
400.67	770.04
400.86	739.61
401.05	772.38
401.24	819.19
401.44	814.51
401.63	795.78
401.82	760.67
402.01	751.31
402.21	777.06
402.40	880.04
402.59	833.23
402.78	863.66
402.97	875.36
403.17	837.91
403.36	842.59
403.55	880.04
403.74	903.45
403.93	898.77
404.13	903.45
404.32	896.43
404.51	898.77
404.70	915.15
404.89	877.70
405.09	959.62
405.28	936.21
405.47	922.17
405.66	957.28
405.85	924.51
406.05	994.73
406.24	997.07
406.43	1013.45
406.62	1013.45
406.81	1015.79
407.00	1039.20
407.20	1008.77
407.39	912.81
407.58	1116.44
407.77	1100.05
407.96	1015.79
408.15	1090.69
408.34	1048.56
408.54	1011.11
408.73	1078.99
408.92	1107.07
409.11	1144.52
409.30	1156.22
409.49	1123.46
409.68	1086.01
409.87	1095.37
410.07	1177.29
410.26	1118.78
410.45	1158.57
410.64	1160.91
410.83	1149.20
411.02	1139.84
411.21	1256.87
411.40	1254.53
411.59	1238.14
411.78	1249.85
411.98	1291.98
412.17	1254.53
412.36	1348.15
412.55	1390.28
412.74	1341.13
412.93	1315.38
413.12	1322.40
413.31	1385.60
413.50	1331.76
413.69	1350.49
413.88	1336.45
414.07	1390.28
414.26	1390.28
414.45	1474.54
414.64	1399.64
414.83	1563.48
415.02	1514.33
415.22	1458.15
415.41	1598.59
415.60	1586.88
415.79	1563.48
415.98	1540.07
416.17	1572.84
416.36	1577.52
416.55	1500.28
416.74	1659.44
416.93	1563.48
417.12	1605.61
417.31	1633.69
417.50	1739.02
417.69	1760.08
417.88	1748.38
418.07	1703.91
418.26	1739.02
418.45	1727.32
418.64	1818.60
418.83	1804.55
419.02	1839.66
419.21	1849.02
419.39	1825.62
419.58	1872.43
419.77	1902.86
419.96	1785.83
420.15	1865.41
420.34	1940.30
420.53	1776.47
420.72	1799.87
420.91	1907.54
421.10	1959.03
421.29	1834.98
421.48	1792.85
421.67	1921.58
421.86	1940.30
422.05	2003.50
422.24	2017.54
422.43	1952.01
422.61	1973.07
422.80	1914.56
422.99	1989.46
423.18	1940.30
423.37	2090.10
423.56	2101.80
423.75	1944.99
423.94	1926.26
424.13	1914.56
424.32	1900.52
424.50	1994.14
424.69	2148.61
424.88	2136.91
425.07	1980.09
425.26	2026.90
425.45	2040.95
425.64	1975.41
425.83	2022.22
426.01	2221.17
426.20	2008.18
426.39	2090.10
426.58	1926.26
426.77	2047.97
426.96	2012.86
427.15	2047.97
427.33	2099.46
427.52	2097.12
427.71	2223.51
427.90	2181.38
428.09	2239.89
428.28	2172.02
428.46	2186.06
428.65	2258.62
428.84	2267.98
429.03	2218.83
429.22	2242.23
429.40	2321.81
429.59	2331.17
429.78	2132.23
429.97	2141.59
430.16	2218.83
430.34	2263.30
430.53	2293.72
430.72	2244.57
430.91	2328.83
431.10	2275.00
431.28	2392.03
431.47	2342.88
431.66	2495.01
431.85	2368.62
432.03	2382.67
432.22	2551.18
432.41	2279.68
432.60	2438.84
432.79	2420.11
432.97	2518.42
433.16	2429.48
433.35	2600.34
433.54	2483.31
433.72	2459.90
433.91	2518.42
434.10	2375.64
434.28	2530.12
434.47	2497.35
434.66	2506.71
434.85	2551.18
435.03	2602.68
435.22	2576.93
435.41	2705.66
435.59	2619.06
435.78	2658.85
435.97	2722.04
436.16	2626.08
436.34	2605.02
436.53	2651.83
436.72	2672.89
436.90	2626.08
437.09	2745.45
437.28	2691.62
437.46	2651.83
437.65	2722.04
437.84	2752.47
438.02	2764.17
438.21	2654.17
438.40	2752.47
438.58	2829.71
438.77	2782.90
438.96	2864.82
439.14	2813.32
439.33	2918.65
439.52	2928.01
439.70	2951.42
439.89	2981.84
440.08	2977.16
440.26	3084.83
440.45	3026.31
440.63	3073.12
440.82	3063.76
441.01	3094.19
441.19	3274.41
441.38	3073.12
441.57	3190.15
441.75	3276.75
441.94	3351.65
442.12	3197.17
442.31	3293.13
442.50	3316.54
442.68	3208.87
442.87	3222.92
443.05	3307.18
443.24	3393.78
443.43	3389.10
443.61	3445.27
443.80	3494.42
443.98	3311.86
444.17	3225.26
444.35	3382.07
444.54	3515.48
444.73	3382.07
444.91	3487.40
445.10	3368.03
445.28	3433.57
445.47	3267.39
445.65	3508.46
445.84	3566.98
446.02	3471.01
446.21	3503.78
446.39	3466.33
446.58	3482.72
446.77	3496.76
446.95	3396.12
447.14	3623.15
447.32	3599.74
447.51	3522.51
447.69	3417.18
447.88	3578.68
448.06	3368.03
448.25	3445.27
448.43	3665.28
448.62	3576.34
448.80	3513.14
448.99	3571.66
449.17	3693.37
449.36	3496.76
449.54	3672.30
449.73	3768.26
449.91	3583.36
450.10	3566.98
450.28	3803.37
450.46	3646.55
450.65	3747.20
450.83	3705.07
451.02	3751.88
451.20	3768.26
451.39	3808.05
451.57	3758.90
451.76	3794.01
451.94	3737.84
452.13	3864.22
452.31	3798.69
452.49	3716.77
452.68	3887.63
452.86	3845.50
453.05	3702.73
453.23	4046.79
453.42	3885.29
453.60	4016.36
453.78	3920.40
453.97	3896.99
454.15	3934.44
454.34	3934.44
454.52	3934.44
454.70	3976.57
454.89	4030.40
455.07	4072.53
455.26	3908.69
455.44	4166.15
455.62	4011.68
455.81	4042.11
455.99	4112.32
456.17	4072.53
456.36	4067.85
456.54	4149.77
456.73	4124.02
456.91	4292.54
457.09	4379.14
457.28	4360.42
457.46	4334.67
457.64	4386.16
457.83	4182.54
458.01	4184.88
458.19	4337.01
458.38	4432.97
458.56	4362.76
458.74	4355.74
458.93	4250.41
459.11	4447.02
459.29	4301.90
459.48	4416.59
459.66	4465.74
459.84	4449.36
460.03	4503.19
460.21	4648.30
460.39	4468.08
460.57	4355.74
460.76	4526.60
460.94	4627.24
461.12	4554.68
461.31	4578.09
461.49	4624.90
461.67	4430.63
461.85	4613.20
462.04	4655.33
462.22	4716.18
462.40	4662.35
462.59	4739.58
462.77	4791.08
462.95	4627.24
463.13	4669.37
463.32	4704.48
463.50	4798.10
463.68	4966.62
463.86	4842.57
464.05	4940.87
464.23	4744.27
464.41	4856.61
464.59	4737.24
464.78	4880.02
464.96	4929.17
465.14	4737.24
465.32	4882.36
465.50	4842.57
465.69	5011.09
465.87	4816.82
466.05	4915.12
466.23	4954.91
466.41	5041.51
466.60	5022.79
466.78	5022.79
466.96	5053.22
467.14	5027.47
467.32	5100.03
467.51	5235.78
467.69	4781.71
467.87	5041.51
468.05	5167.90
468.23	4994.70
468.41	5048.54
468.60	5118.75
468.78	5235.78
468.96	5235.78
469.14	5240.46
469.32	5369.19
469.50	5060.24
469.69	5266.21
469.87	5296.63
470.05	5385.57
470.23	5469.83
470.41	5540.05
470.59	5420.68
470.77	5343.44
470.95	5495.58
471.14	5540.05
471.32	5376.21
471.50	5523.66
471.68	5432.38
471.86	5589.20
472.04	5603.24
472.22	5738.99
472.40	5579.84
472.58	5760.06
472.77	5624.31
472.95	5682.82
473.13	5959.00
473.31	5750.70
473.49	5708.57
473.67	5933.26
473.85	5942.62
474.03	5888.79
474.21	5905.17
474.39	5975.39
474.57	6080.71
474.75	6113.48
474.93	5956.66
475.12	6085.39
475.30	6155.61
475.48	6115.82
475.66	6097.10
475.84	6139.23
476.02	6317.11
476.20	6019.86
476.38	6499.67
476.56	6476.26
476.74	6478.60
476.92	6396.68
477.10	6293.70
477.28	6595.63
477.46	6544.14
477.64	6813.30
477.82	6789.89
478.00	7087.14
478.18	6878.83
478.36	6860.11
478.54	7091.82
478.72	7035.65
478.90	7056.72
479.08	7229.91
479.26	7068.42
479.44	7342.26
479.62	7356.30
479.80	7279.07
479.98	7281.41
480.16	7480.35
480.34	7641.85
480.52	7562.27
480.70	7676.96
480.88	7412.48
481.06	7887.61
481.24	7733.13
481.41	7873.56
481.59	7801.01
481.77	7960.16
481.95	7934.42
482.13	7943.78
482.31	8028.04
482.49	8219.96
482.67	8222.30
482.85	8154.43
483.03	8430.61
483.21	8482.10
483.39	8493.80
483.57	8421.25
483.74	8624.87
483.92	8863.61
484.10	8678.71
484.28	8730.20
484.46	9048.51
484.64	9102.34
484.82	8938.51
485.00	8990.00
485.18	9100.00
485.35	9378.53
485.53	9231.07
485.71	9376.19
485.89	9596.20
486.07	9525.98
486.25	9542.36
486.43	9846.63
486.61	9731.95
486.78	9891.10
486.96	9809.19
487.14	9982.38
487.32	9944.94
487.50	10026.86
487.68	10054.94
487.85	10214.10
488.03	10310.06
488.21	10579.22
488.39	10445.81
488.57	10406.02
488.75	10501.98
488.92	10906.90
489.10	10981.79
489.28	10796.89
489.46	11016.90
489.64	10909.24
489.81	11178.40
489.99	11222.87
490.17	11014.56
490.35	11468.62
490.53	11428.84
490.70	11585.65
490.88	11611.40
491.06	11646.51
491.24	11742.47
491.41	11833.75
491.59	11978.86
491.77	12140.36
491.95	12163.76
492.13	12044.40
492.30	12304.20
492.48	12320.58
492.66	12262.07
492.84	12278.45
493.01	12514.84
493.19	12711.45
493.37	12531.23
493.54	12840.18
493.72	12748.90
493.90	12809.75
494.08	12781.67
494.25	13095.30
494.43	13004.02
494.61	13177.22
494.79	13338.71
494.96	13184.24
495.14	13392.55
495.32	13408.93
495.49	13415.95
495.67	13556.38
495.85	13767.03
496.02	13792.78
496.20	13888.74
496.38	13851.29
496.55	14120.45
496.73	14162.58
496.91	14258.54
497.09	14263.22
497.26	14480.89
497.44	14455.15
497.62	14333.44
497.79	14537.07
497.97	14565.15
498.14	14516.00
498.32	14967.73
498.50	14628.35
498.67	14778.14
498.85	14747.72
499.03	14850.70
499.20	15147.95
499.38	14946.66
499.56	15337.53
499.73	15176.03
499.91	15159.65
500.08	15328.17
500.26	15129.22
500.44	15311.78
500.61	15239.23
500.79	15246.25
500.97	15583.29
501.14	15740.10
501.32	15765.85
501.49	15826.70
501.67	15730.74
501.84	15969.48
502.02	15894.58
502.20	15857.13
502.37	16442.26
502.55	16184.80
502.72	16240.98
502.90	16133.31
503.07	16016.29
503.25	16002.24
503.43	16233.96
503.60	16386.09
503.78	16519.50
503.95	16219.91
504.13	16652.91
504.30	16383.75
504.48	16301.83
504.65	16758.24
504.83	17048.46
505.01	17219.32
505.18	16830.79
505.36	16812.07
505.53	17011.01
505.71	17195.92
505.88	17191.23
506.06	16814.41
506.23	17247.41
506.41	17090.59
506.58	17373.80
506.76	17518.91
506.93	17312.94
507.11	17504.87
507.28	17584.44
507.46	17390.18
507.63	17792.75
507.81	17713.17
507.98	17544.66
508.16	17638.28
508.33	17509.55
508.50	17701.47
508.68	17923.82
508.85	17949.57
509.03	17961.27
509.20	18068.94
509.38	18178.94
509.55	18504.28
509.73	18534.70
509.90	18272.56
510.08	18375.55
510.25	18361.50
510.42	18396.61
510.60	18637.69
510.77	18518.32
510.95	18523.00
511.12	18487.89
511.30	18420.02
511.47	18537.04
511.64	18530.02
511.82	18965.36
511.99	18752.37
512.17	18764.07
512.34	18881.10
512.51	19194.73
512.69	19316.44
512.86	18878.76
513.04	19016.85
513.21	19480.28
513.38	19159.63
513.56	19356.23
513.73	18867.06
513.90	19335.17
514.08	19524.75
514.25	19882.85
514.43	19510.71
514.60	19630.07
514.77	19611.35
514.95	19683.91
515.12	19641.78
515.29	19529.43
515.47	19833.70
515.64	20088.82
515.81	19936.68
515.99	20201.16
516.16	20259.68
516.33	20264.36
516.51	20053.71
516.68	20053.71
516.85	19971.79
517.03	20369.68
517.20	20547.56
517.37	20908.01
517.54	20566.29
517.72	20517.14
517.89	20524.16
518.06	20271.38
518.24	20720.76
518.41	20606.08
518.58	20844.81
518.75	20917.37
518.93	20711.40
519.10	20809.70
519.27	21081.21
519.45	20816.72
519.62	20830.77
519.79	20807.36
519.96	20900.98
520.14	21092.91
520.31	21139.72
520.48	20929.07
520.65	21221.64
520.83	21188.87
521.00	21216.96
521.17	21256.75
521.34	21235.68
521.52	21343.35
521.69	21720.17
521.86	21776.34
522.03	21591.44
522.20	21785.71
522.38	21635.91
522.55	21788.05
522.72	21844.22
522.89	21813.79
523.07	22181.26
523.24	22181.26
523.41	22192.96
523.58	22001.04
523.75	22188.28
523.92	22216.36
524.10	22092.32
524.27	22317.01
524.44	22352.12
524.61	22136.79
524.78	22518.29
524.96	22410.63
525.13	22604.89
525.30	22714.90
525.47	22515.95
525.64	22742.99
525.81	22614.26
525.98	22778.09
526.16	22635.32
526.33	22525.32
526.50	22698.52
526.67	22693.83
526.84	22689.15
527.01	22742.99
527.18	22799.16
527.36	23070.66
527.53	23222.80
527.70	23075.34
527.87	23211.09
528.04	22963.00
528.21	23108.11
528.38	23124.49
528.55	23314.08
528.72	23229.82
528.89	23119.81
529.07	23197.05
529.24	23454.51
529.41	23599.62
529.58	23550.47
529.75	23143.22
529.92	23513.02
530.09	23278.97
530.26	23686.22
530.43	23517.70
530.60	23456.85
530.77	23711.97
530.94	23744.73
531.11	23651.11
531.28	23552.81
531.46	23524.72
531.63	23758.78
531.80	23473.23
531.97	24093.47
532.14	23971.77
532.31	23730.69
532.48	23838.36
532.65	23800.91
532.82	24107.52
532.99	24269.01
533.16	23953.04
533.33	24210.50
533.50	24847.13
533.67	24159.01
533.84	23917.93
534.01	24402.43
534.18	24105.18
534.35	24634.14
534.52	24357.96
534.69	24608.39
534.86	24395.40
535.03	24467.96
535.20	24687.97
535.37	24423.49
535.54	24287.74
535.71	24549.88
535.88	24503.07
536.05	24606.05
536.22	24549.88
536.38	24783.93
536.55	25013.31
536.72	25120.97
536.89	24624.78
537.06	24919.68
537.23	24816.70
537.40	25008.62
537.57	24905.64
537.74	24919.68
537.91	24987.56
538.08	24964.15
538.25	25214.59
538.42	25092.88
538.59	25163.10
538.75	25078.84
538.92	25263.74
539.09	25245.02
539.26	25144.38
539.43	25467.37
539.60	25245.02
539.77	24947.77
539.94	25605.46
540.11	25495.46
540.28	25333.96
540.44	25846.54
540.61	25315.23
540.78	25418.22
540.95	25846.54
541.12	25593.76
541.29	25715.47
541.46	25436.94
541.62	25968.24
541.79	25312.89
541.96	25474.39
542.13	25752.91
542.30	25476.73
542.47	25862.92
542.63	25942.50
542.80	25944.84
542.97	26174.21
543.14	26443.37
543.31	26120.38
543.48	26206.98
543.64	26607.21
543.81	26448.05
543.98	26169.53
544.15	26541.68
544.32	26473.80
544.48	26857.65
544.65	25986.97
544.82	26717.22
544.99	26314.64
545.16	26441.03
545.32	26251.45
545.49	26745.30
545.66	26857.65
545.83	26438.69
546.00	26883.39
546.16	26574.44
546.33	26434.01
546.50	26361.45
546.67	26515.93
546.83	26206.98
547.00	26829.56
547.17	26721.90
547.34	26787.43
547.50	27051.91
547.67	27330.44
547.84	26972.33
548.00	27133.83
548.17	27438.10
548.34	26904.46
548.51	27105.74
548.67	27529.38
548.84	26838.92
549.01	27014.46
549.18	27197.02
549.34	27061.27
549.51	26878.71
549.68	26995.74
549.84	26948.93
550.01	27056.59
550.18	27236.81
550.34	27173.62
550.51	27646.41
550.68	27662.79
550.84	27262.56
551.01	27421.72
551.18	27349.16
551.34	27271.92
551.51	27494.27
551.68	27580.87
551.84	27513.00
552.01	27566.83
552.18	27789.18
552.34	27709.60
552.51	27459.16
552.68	27798.54
552.84	27873.44
553.01	27700.24
553.18	27618.32
553.34	27648.75
553.51	27807.90
553.67	27793.86
553.84	28025.57
554.01	28013.87
554.17	27688.54
554.34	27938.97
554.51	27725.99
554.67	28056.00
554.84	27761.09
555.00	27953.02
555.17	27941.32
555.33	28268.99
555.50	28056.00
555.67	27974.08
555.83	28219.84
556.00	28173.03
556.16	28095.79
556.33	27950.68
556.50	28182.39
556.66	28231.54
556.83	28112.17
556.99	28341.55
557.16	28407.08
557.32	28456.23
557.49	28545.17
557.65	28088.77
557.82	28334.53
557.98	28552.20
558.15	28252.61
558.32	28423.47
558.48	28203.46
558.65	28467.94
558.81	28088.77
558.98	28568.58
559.14	28105.15
559.31	28304.10
559.47	28383.68
559.64	28283.03
559.80	28819.02
559.97	28856.46
560.13	28432.83
560.30	28222.18
560.46	28730.08
560.63	28758.16
560.79	28666.88
560.96	28889.23
561.12	28744.12
561.29	28439.85
561.45	28463.25
561.61	28999.24
561.78	28552.20
561.94	29165.42
562.11	28994.56
562.27	28671.56
562.44	28613.05
562.60	28685.61
562.77	29057.75
562.93	28388.36
563.10	28823.70
563.26	28783.91
563.42	29319.89
563.59	28816.68
563.75	28821.36
563.92	28830.72
564.08	28676.24
564.24	28694.97
564.41	28744.12
564.57	28748.80
564.74	28769.86
564.90	29048.39
565.07	29081.16
565.23	29586.71
565.39	28910.30
565.56	28933.70
565.72	28641.14
565.88	29050.73
566.05	28933.70
566.21	29167.76
566.38	28694.97
566.54	29376.06
566.70	29326.91
566.87	29340.96
567.03	29240.31
567.19	29383.09
567.36	29493.09
567.52	28959.45
567.68	29252.02
567.85	28891.57
568.01	29212.23
568.17	29036.69
568.34	29352.66
568.50	29095.20
568.66	29181.80
568.83	29427.56
568.99	29429.90
569.15	29083.50
569.32	29394.79
569.48	28783.91
569.64	29233.29
569.81	29479.05
569.97	29413.51
570.13	29158.39
570.30	29219.25
570.46	29390.11
570.62	29677.99
570.78	28851.78
570.95	29184.14
571.11	29244.99
571.27	29179.46
571.43	29263.72
571.60	29254.36
571.76	29497.77
571.92	29472.03
572.09	29495.43
572.25	29401.81
572.41	29223.93
572.57	29507.13
572.74	29706.08
572.90	29106.90
573.06	29394.79
573.22	29333.93
573.38	29546.92
573.55	29724.80
573.71	29937.79
573.87	29069.45
574.03	29523.52
574.20	29614.80
574.36	29331.59
574.52	29575.01
574.68	29357.34
574.84	29558.63
575.01	29371.38
575.17	29675.65
575.33	28959.45
575.49	29326.91
575.65	29448.62
575.82	29193.50
575.98	29446.28
576.14	29743.53
576.30	29549.26
576.46	29057.75
576.62	29380.74
576.79	29647.57
576.95	29535.22
577.11	29500.11
577.27	30052.48
577.43	29895.66
577.59	29495.43
577.75	29879.28
577.92	29701.40
578.08	29010.94
578.24	29584.37
578.40	29008.60
578.56	29483.73
578.72	29584.37
578.88	29930.77
579.04	29895.66
579.21	29535.22
579.37	30019.71
579.53	29633.52
579.69	29603.10
579.85	29188.82
580.01	29696.72
580.17	29333.93
580.33	29418.19
580.49	29523.52
580.65	29647.57
580.82	29659.27
580.98	30120.35
581.14	29509.47
581.30	29846.51
581.46	29565.65
581.62	29947.15
581.78	29326.91
581.94	29738.85
582.10	29502.45
582.26	30050.14
582.42	29694.38
582.58	30204.61
582.74	29907.37
582.90	29795.02
583.06	29783.32
583.22	29874.60
583.38	29869.92
583.54	29663.95
583.70	29759.91
583.86	29670.97
584.02	29649.91
584.18	29802.04
584.34	30017.37
584.50	30040.78
584.66	29696.72
584.82	29507.13
584.98	29907.37
585.14	29605.44
585.30	29308.19
585.46	29785.66
585.62	29362.02
585.78	29783.32
585.94	29579.69
586.10	29729.48
586.26	30139.08
586.42	30000.99
586.58	30272.49
586.74	29930.77
586.90	29731.83
587.06	29621.82
587.22	29933.11
587.38	29563.31
587.54	30300.58
587.70	29954.18
587.86	30082.91
588.02	30094.61
588.18	29930.77
588.34	30125.04
588.49	29935.45
588.65	29905.02
588.81	29975.24
588.97	30029.07
589.13	29572.67
589.29	29579.69
589.45	29764.59
589.61	29912.05
589.77	30092.27
589.93	30146.10
590.08	30085.25
590.24	30162.48
590.40	30408.24
590.56	30082.91
590.72	30050.14
590.88	29773.95
591.04	30141.42
591.20	30513.56
591.35	30663.36
591.51	30272.49
591.67	30190.57
591.83	30508.88
591.99	30157.80
