SpectraSuite Data File
++++++++++++++++++++++++++++++++++++
Date: Fri Oct 18 13:58:23 GMT-05:00 2013
User: bianchi
Dark Spectrum Present: No
Reference Spectrum Present: No
Number of Sampled Component Spectra: 1
Spectrometers: USB2+H05261
Integration Time (usec): 50000 (USB2+H05261)
Spectra Averaged: 1 (USB2+H05261)
Boxcar Smoothing: 0 (USB2+H05261)
Correct for Electrical Dark: No (USB2+H05261)
Strobe/Lamp Enabled: No (USB2+H05261)
Correct for Detector Non-linearity: No (USB2+H05261)
Correct for Stray Light: No (USB2+H05261)
Number of Pixels in Processed Spectrum: 2048
>>>>>Begin Processed Spectral Data<<<<<
365.73	0.00
365.92	0.00
366.12	0.00
366.32	0.00
366.52	0.00
366.72	0.00
366.91	0.00
367.11	0.00
367.31	0.00
367.51	0.00
367.70	0.00
367.90	0.00
368.10	0.00
368.30	0.00
368.49	0.00
368.69	0.00
368.89	0.00
369.09	0.00
369.28	0.00
369.48	0.00
369.68	0.00
369.87	0.00
370.07	0.00
370.27	0.00
370.47	0.00
370.66	67.88
370.86	168.52
371.06	128.73
371.25	241.08
371.45	220.01
371.65	187.24
371.84	156.82
372.04	203.63
372.24	177.88
372.44	208.31
372.63	217.67
372.83	224.69
373.03	220.01
373.22	161.50
373.42	250.44
373.62	231.71
373.81	205.97
374.01	208.31
374.21	264.48
374.40	252.78
374.60	227.03
374.79	198.95
374.99	173.20
375.19	241.08
375.38	231.71
375.58	210.65
375.78	187.24
375.97	231.71
376.17	341.72
376.37	255.12
376.56	318.31
376.76	238.73
376.95	271.50
377.15	358.10
377.35	285.55
377.54	283.20
377.74	257.46
377.93	257.46
378.13	299.59
378.33	266.82
378.52	304.27
378.72	325.33
378.91	374.49
379.11	229.37
379.31	348.74
379.50	269.16
379.70	318.31
379.89	290.23
380.09	294.91
380.28	339.38
380.48	383.85
380.68	301.93
380.87	358.10
381.07	301.93
381.26	304.27
381.46	327.68
381.65	369.80
381.85	367.46
382.04	367.46
382.24	353.42
382.43	308.95
382.63	292.57
382.83	409.59
383.02	334.70
383.22	402.57
383.41	320.65
383.61	362.78
383.80	411.93
384.00	402.57
384.19	330.02
384.39	376.83
384.58	381.51
384.78	435.34
384.97	381.51
385.17	390.87
385.36	395.55
385.56	383.85
385.75	386.19
385.95	362.78
386.14	510.24
386.34	297.25
386.53	407.25
386.72	414.27
386.92	475.13
387.11	451.72
387.31	411.93
387.50	360.44
387.70	503.22
387.89	442.36
388.09	409.59
388.28	397.89
388.48	531.30
388.67	402.57
388.86	330.02
389.06	465.77
389.25	503.22
389.45	486.83
389.64	538.32
389.84	423.64
390.03	465.77
390.22	512.58
390.42	411.93
390.61	430.66
390.81	514.92
391.00	500.87
391.19	465.77
391.39	472.79
391.58	559.39
391.78	519.60
391.97	493.85
392.16	472.79
392.36	484.49
392.55	582.79
392.75	475.13
392.94	521.94
393.13	580.45
393.33	505.56
393.52	634.29
393.71	559.39
393.91	582.79
394.10	620.24
394.29	601.52
394.49	634.29
394.68	561.73
394.88	641.31
395.07	624.92
395.26	634.29
395.46	580.45
395.65	655.35
395.84	641.31
396.04	695.14
396.23	662.37
396.42	643.65
396.62	688.12
396.81	613.22
397.00	662.37
397.19	706.84
397.39	681.10
397.58	718.54
397.77	699.82
397.97	648.33
398.16	653.01
398.35	730.25
398.55	699.82
398.74	716.20
398.93	704.50
399.12	713.86
399.32	669.39
399.51	744.29
399.70	744.29
399.90	777.06
400.09	767.70
400.28	835.57
400.47	697.48
400.67	748.97
400.86	744.29
401.05	798.12
401.24	830.89
401.44	795.78
401.63	887.06
401.82	774.72
402.01	802.80
402.21	744.29
402.40	685.78
402.59	821.53
402.78	875.36
402.97	828.55
403.17	870.68
403.36	847.27
403.55	725.57
403.74	870.68
403.93	856.64
404.13	938.55
404.32	905.79
404.51	842.59
404.70	919.83
404.89	954.94
405.09	1081.33
405.28	957.28
405.47	947.92
405.66	1043.88
405.85	940.90
406.05	938.55
406.24	964.30
406.43	947.92
406.62	1048.56
406.81	1081.33
407.00	1008.77
407.20	1015.79
407.39	1053.24
407.58	1048.56
407.77	992.39
407.96	1156.22
408.15	1011.11
408.34	1011.11
408.54	992.39
408.73	1067.28
408.92	1036.86
409.11	1160.91
409.30	1228.78
409.49	1137.50
409.68	1102.39
409.87	1142.18
410.07	1214.74
410.26	1097.71
410.45	1186.65
410.64	1160.91
410.83	1188.99
411.02	1324.74
411.21	1313.04
411.40	1296.66
411.59	1259.21
411.78	1217.08
411.98	1242.82
412.17	1238.14
412.36	1224.10
412.55	1294.32
412.74	1416.02
412.93	1317.72
413.12	1324.74
413.31	1364.53
413.50	1416.02
413.69	1469.86
413.88	1490.92
414.07	1458.15
414.26	1406.66
414.45	1533.05
414.64	1439.43
414.83	1551.78
415.02	1521.35
415.22	1502.62
415.41	1605.61
415.60	1486.24
415.79	1502.62
415.98	1708.59
416.17	1514.33
416.36	1650.08
416.55	1544.75
416.74	1629.01
416.93	1629.01
417.12	1762.42
417.31	1696.89
417.50	1680.50
417.69	1692.21
417.88	1701.57
418.07	1666.46
418.26	1760.08
418.45	1743.70
418.64	1846.68
418.83	1781.15
419.02	1820.94
419.21	1783.49
419.39	1799.87
419.58	1792.85
419.77	1825.62
419.96	1865.41
420.15	1795.19
420.34	1846.68
420.53	1907.54
420.72	1926.26
420.91	1940.30
421.10	1867.75
421.29	1891.15
421.48	1928.60
421.67	1937.96
421.86	1863.07
422.05	1987.11
422.24	1998.82
422.43	1900.52
422.61	1942.64
422.80	2012.86
422.99	1935.62
423.18	2010.52
423.37	2104.14
423.56	2008.18
423.75	1963.71
423.94	1975.41
424.13	1928.60
424.32	1872.43
424.50	2115.84
424.69	1991.80
424.88	2045.63
425.07	2015.20
425.26	2097.12
425.45	1966.05
425.64	1968.39
425.83	2024.56
426.01	2059.67
426.20	2076.06
426.39	2026.90
426.58	2050.31
426.77	2071.37
426.96	2106.48
427.15	2076.06
427.33	2181.38
427.52	2071.37
427.71	2129.89
427.90	2033.93
428.09	2104.14
428.28	2188.40
428.46	2181.38
428.65	2298.41
428.84	2209.47
429.03	2211.81
429.22	2165.00
429.40	2289.04
429.59	2211.81
429.78	2289.04
429.97	2216.49
430.16	2263.30
430.34	2385.01
430.53	2333.51
430.72	2186.06
430.91	2380.32
431.10	2380.32
431.28	2338.20
431.47	2352.24
431.66	2359.26
431.85	2310.11
432.03	2253.94
432.22	2420.11
432.41	2387.35
432.60	2396.71
432.79	2483.31
432.97	2527.78
433.16	2588.63
433.35	2471.61
433.54	2525.44
433.72	2562.89
433.91	2392.03
434.10	2471.61
434.28	2609.70
434.47	2492.67
434.66	2614.38
434.85	2616.72
435.03	2649.49
435.22	2569.91
435.41	2684.59
435.59	2696.30
435.78	2623.74
435.97	2649.49
436.16	2576.93
436.34	2635.44
436.53	2640.12
436.72	2747.79
436.90	2635.44
437.09	2675.23
437.28	2710.34
437.46	2729.06
437.65	2656.51
437.84	2785.24
438.02	2768.85
438.21	2878.86
438.40	2700.98
438.58	2885.88
438.77	2876.52
438.96	2878.86
439.14	2972.48
439.33	2960.78
439.52	3026.31
439.70	2967.80
439.89	3068.44
440.08	3070.78
440.26	2963.12
440.45	2916.31
440.63	3059.08
440.82	3080.14
441.01	3119.93
441.19	3178.45
441.38	3173.77
441.57	3309.52
441.75	3255.69
441.94	3344.63
442.12	3389.10
442.31	3412.50
442.50	3187.81
442.68	3346.97
442.87	3321.22
443.05	3412.50
443.24	3351.65
443.43	3330.58
443.61	3375.05
443.80	3527.19
443.98	3358.67
444.17	3204.19
444.35	3475.70
444.54	3499.10
444.73	3456.97
444.91	3372.71
445.10	3421.86
445.28	3480.38
445.47	3435.91
445.65	3400.80
445.84	3449.95
446.02	3534.21
446.21	3534.21
446.39	3456.97
446.58	3506.12
446.77	3449.95
446.95	3426.54
447.14	3534.21
447.32	3499.10
447.51	3466.33
447.69	3466.33
447.88	3578.68
448.06	3515.48
448.25	3730.81
448.43	3501.44
448.62	3520.17
448.80	3482.72
448.99	3550.59
449.17	3665.28
449.36	3557.61
449.54	3674.64
449.73	3761.24
449.91	3653.58
450.10	3581.02
450.28	3815.07
450.46	3655.92
450.65	3779.97
450.83	3733.15
451.02	3623.15
451.20	3822.09
451.39	3817.41
451.57	3611.45
451.76	3728.47
451.94	3866.56
452.13	3847.84
452.31	3817.41
452.49	3786.99
452.68	3791.67
452.86	3922.74
453.05	3861.88
453.23	3978.91
453.42	3943.80
453.60	3791.67
453.78	3880.61
453.97	3885.29
454.15	3906.35
454.34	3887.63
454.52	4004.66
454.70	3885.29
454.89	3957.85
455.07	3866.56
455.26	4079.55
455.44	4124.02
455.62	4138.07
455.81	4121.68
455.99	4109.98
456.17	4135.73
456.36	4248.07
456.54	4257.43
456.73	4156.79
456.91	4238.71
457.09	4339.35
457.28	4465.74
457.46	4248.07
457.64	4484.47
457.83	4301.90
458.01	4308.93
458.19	4477.44
458.38	4297.22
458.56	4416.59
458.74	4418.93
458.93	4411.91
459.11	4440.00
459.29	4528.94
459.48	4421.27
459.66	4367.44
459.84	4493.83
460.03	4725.54
460.21	4585.11
460.39	4578.09
460.57	4517.23
460.76	4610.86
460.94	4695.11
461.12	4458.72
461.31	4638.94
461.49	4615.54
461.67	4631.92
461.85	4627.24
462.04	4610.86
462.22	4821.50
462.40	4882.36
462.59	4924.49
462.77	4732.56
462.95	4901.08
463.13	4683.41
463.32	4919.81
463.50	4660.01
463.68	4894.06
463.86	4858.95
464.05	4828.53
464.23	4788.74
464.41	4983.00
464.59	4781.71
464.78	4896.40
464.96	4873.00
465.14	4875.34
465.32	4961.94
465.50	5128.11
465.69	5020.45
465.87	4945.55
466.05	5020.45
466.23	5036.83
466.41	5036.83
466.60	5149.18
466.78	4952.57
466.96	4947.89
467.14	5090.67
467.32	5233.44
467.51	5128.11
467.69	4947.89
467.87	5029.81
468.05	5139.82
468.23	5156.20
468.41	5041.51
468.60	5205.35
468.78	5137.48
468.96	5296.63
469.14	5198.33
469.32	5378.55
469.50	5303.65
469.69	5298.97
469.87	5397.28
470.05	5411.32
470.23	5369.19
470.41	5502.60
470.59	5373.87
470.77	5596.22
470.95	5507.28
471.14	5624.31
471.32	5359.83
471.50	5495.58
471.68	5570.48
471.86	5469.83
472.04	5572.82
472.22	5760.06
472.40	5582.18
472.58	5816.23
472.77	5734.31
472.95	5846.66
473.13	5785.80
473.31	5820.91
473.49	5753.04
473.67	5853.68
473.85	5944.96
474.03	5959.00
474.21	5989.43
474.39	6029.22
474.57	6157.95
474.75	6101.78
474.93	6349.87
475.12	6186.04
475.30	6303.06
475.48	6090.07
475.66	6260.93
475.84	6186.04
476.02	6317.11
476.20	6392.00
476.38	6429.45
476.56	6420.09
476.74	6686.91
476.92	6539.46
477.10	6443.49
477.28	6452.86
477.46	6574.56
477.64	6745.42
477.82	6747.76
478.00	6942.03
478.18	6937.35
478.36	6991.18
478.54	7138.63
478.72	7162.04
478.90	7059.06
479.08	7187.79
479.26	7143.32
479.44	7349.28
479.62	7297.79
479.80	7400.77
479.98	7360.98
480.16	7470.99
480.34	7564.61
480.52	7688.66
480.70	7735.47
480.88	7478.01
481.06	7751.85
481.24	7756.54
481.41	7520.14
481.59	7824.41
481.77	8053.78
481.95	7911.01
482.13	8042.08
482.31	8100.59
482.49	8189.53
482.67	8259.75
482.85	8489.12
483.03	8383.80
483.21	8690.41
483.39	8622.53
483.57	8493.80
483.74	8505.51
483.92	8704.45
484.10	8650.62
484.28	8959.57
484.46	9104.68
484.64	9076.60
484.82	9027.45
485.00	9074.26
485.18	9352.78
485.35	9472.15
485.53	9483.85
485.71	9448.74
485.89	9664.07
486.07	9418.32
486.25	9626.62
486.43	9699.18
486.61	9753.01
486.78	9820.89
486.96	10059.62
487.14	9944.94
487.32	9989.41
487.50	10253.89
487.68	10148.56
487.85	10218.78
488.03	10389.64
488.21	10712.63
488.39	10857.75
488.57	10626.03
488.75	10820.30
488.92	10846.04
489.10	10892.85
489.28	11131.59
489.46	10890.51
489.64	11042.65
489.81	11302.45
489.99	11197.12
490.17	11243.93
490.35	11508.41
490.53	11700.34
490.70	11667.57
490.88	11389.05
491.06	11789.28
491.24	11929.71
491.41	11829.07
491.59	11927.37
491.77	11751.83
491.95	12095.89
492.13	12065.46
492.30	12255.04
492.48	12329.94
492.66	12320.58
492.84	12571.02
493.01	12540.59
493.19	12580.38
493.37	12931.46
493.54	12608.47
493.72	12835.50
493.90	12664.64
494.08	13013.38
494.25	13048.49
494.43	13092.96
494.61	13338.71
494.79	13263.82
494.96	13238.07
495.14	13259.13
495.32	13589.15
495.49	13556.38
495.67	13736.60
495.85	13926.19
496.02	13792.78
496.20	13935.55
496.38	14038.53
496.55	13799.80
496.73	14106.41
496.91	14183.65
497.09	14108.75
497.26	14359.19
497.44	14438.76
497.62	14469.19
497.79	14501.96
497.97	14380.25
498.14	14764.10
498.32	14752.40
498.50	14703.25
498.67	14941.98
498.85	14850.70
499.03	14806.23
499.20	14918.57
499.38	15000.49
499.56	15557.54
499.73	15194.76
499.91	15405.41
500.08	15667.55
500.26	15318.81
500.44	15410.09
500.61	15520.09
500.79	15573.92
500.97	15484.98
501.14	15946.07
501.32	15950.75
501.49	15859.47
501.67	15749.46
501.84	15793.94
502.02	15866.49
502.20	16049.05
502.37	16123.95
502.55	16107.57
502.72	16210.55
502.90	16187.14
503.07	16161.40
503.25	16425.88
503.43	16285.45
503.60	16524.18
503.78	16486.73
503.95	16603.76
504.13	16627.17
504.30	16676.32
504.48	16800.37
504.65	16760.58
504.83	16720.79
505.01	16936.12
505.18	16655.25
505.36	17128.04
505.53	16748.87
505.71	17125.70
505.88	17149.11
506.06	17104.64
506.23	17334.01
506.41	17373.80
506.58	17139.74
506.76	17209.96
506.93	17507.21
507.11	17207.62
507.28	17823.18
507.46	17668.70
507.63	17874.67
507.81	17998.72
507.98	17720.20
508.16	17830.20
508.33	18040.85
508.50	17666.36
508.68	18237.45
508.85	17895.74
509.03	18087.66
509.20	18038.51
509.38	18036.17
509.55	18181.28
509.73	18574.49
509.90	18464.49
510.08	18380.23
510.25	18258.52
510.42	18801.52
510.60	18853.02
510.77	18794.50
510.95	18595.56
511.12	18759.39
511.30	18857.70
511.47	18934.93
511.64	18876.42
511.82	18710.24
511.99	19239.20
512.17	19449.85
512.34	18904.51
512.51	19073.03
512.69	19147.92
512.86	19222.82
513.04	19527.09
513.21	19571.56
513.38	19463.90
513.56	19501.34
513.73	19356.23
513.90	19772.85
514.08	19499.00
514.25	19573.90
514.43	19630.07
514.60	19967.11
514.77	20046.69
514.95	20039.67
515.12	19749.44
515.29	19922.64
515.47	20205.84
515.64	20140.31
515.81	20163.72
515.99	20308.83
516.16	20257.34
516.33	20617.78
516.51	20554.58
516.68	20194.14
516.85	20517.14
517.03	20620.12
517.20	20439.90
517.37	20533.52
517.54	20538.20
517.72	20971.20
517.89	20900.98
518.06	20868.22
518.24	20589.69
518.41	20561.61
518.58	20823.75
518.75	20697.36
518.93	21078.86
519.10	20943.11
519.27	21043.76
519.45	20889.28
519.62	21172.49
519.79	21032.05
519.96	20870.56
520.14	21329.30
520.31	21116.31
520.48	21333.98
520.65	21022.69
520.83	21308.24
521.00	21172.49
521.17	21338.66
521.34	21544.63
521.52	21488.46
521.69	21315.26
521.86	21891.03
522.03	21958.91
522.20	21888.69
522.38	21984.65
522.55	21781.03
522.72	21699.11
522.89	21830.18
523.07	22087.64
523.24	21923.80
523.41	22291.26
523.58	22305.31
523.75	22391.91
523.92	21750.60
524.10	22422.33
524.27	22391.91
524.44	22658.73
524.61	22775.75
524.78	22384.88
524.96	22478.50
525.13	22752.35
525.30	22293.60
525.47	22663.41
525.64	22569.79
525.81	22630.64
525.98	22806.18
526.16	22806.18
526.33	22499.57
526.50	23115.13
526.67	22785.12
526.84	22780.43
527.01	22810.86
527.18	22916.19
527.36	23019.17
527.53	23105.77
527.70	23440.47
527.87	23508.34
528.04	23297.69
528.21	23014.49
528.38	23227.48
528.55	23159.60
528.72	23616.01
528.89	23353.87
529.07	23573.88
529.24	23569.19
529.41	23669.84
529.58	23433.44
529.75	23171.30
529.92	23276.63
530.09	23473.23
530.26	23552.81
530.43	23908.57
530.60	23852.40
530.77	23756.44
530.94	23536.43
531.11	23805.59
531.28	23791.55
531.46	23566.85
531.63	23819.63
531.80	24053.69
531.97	24130.92
532.14	24180.07
532.31	24168.37
532.48	24379.02
532.65	24369.66
532.82	23847.72
532.99	24147.31
533.16	24084.11
533.33	24606.05
533.50	24599.03
533.67	24280.72
533.84	24109.86
534.01	24257.31
534.18	24467.96
534.35	24173.05
534.52	24699.67
534.69	24566.26
534.86	24907.98
535.03	24554.56
535.20	24718.40
535.37	24758.19
535.54	24868.19
535.71	24893.94
535.88	24519.45
536.05	24751.17
536.22	24664.57
536.38	24613.07
536.55	24936.07
536.72	25144.38
536.89	24978.20
537.06	24966.49
537.23	24856.49
537.40	25252.04
537.57	24879.89
537.74	25455.67
537.91	25525.88
538.08	25425.24
538.25	25270.76
538.42	25579.71
538.59	25359.70
538.75	25216.93
538.92	25198.21
539.09	25418.22
539.26	25448.64
539.43	25467.37
539.60	25701.42
539.77	25579.71
539.94	25708.44
540.11	25757.60
540.28	25378.43
540.44	25448.64
540.61	25532.90
540.78	25642.91
540.95	25727.17
541.12	25766.96
541.29	25996.33
541.46	25661.63
541.62	25612.48
541.79	25790.36
541.96	25701.42
542.13	25898.03
542.30	25867.60
542.47	26162.51
542.63	26394.22
542.80	26387.20
542.97	26616.57
543.14	26558.06
543.31	26270.17
543.48	26155.49
543.64	26471.46
543.81	26684.45
543.98	26431.67
544.15	26267.83
544.32	26710.19
544.48	26677.43
544.65	26745.30
544.82	26745.30
544.99	26316.98
545.16	26382.52
545.32	26654.02
545.49	26738.28
545.66	26775.73
545.83	27061.27
546.00	27274.26
546.16	26588.49
546.33	26459.76
546.50	26389.54
546.67	27044.89
546.83	26548.70
547.00	27220.43
547.17	26937.23
547.34	26902.12
547.50	27480.23
547.67	27182.98
547.84	26962.97
548.00	27206.39
548.17	27337.46
548.34	27318.73
548.51	27566.83
548.67	27393.63
548.84	27578.53
549.01	27257.88
549.18	27213.41
549.34	27190.00
549.51	27505.98
549.68	27328.10
549.84	27297.67
550.01	27379.59
550.18	27381.93
550.34	27475.55
550.51	27323.41
550.68	27360.86
550.84	27463.85
551.01	27681.52
551.18	27613.64
551.34	27295.33
551.51	27765.78
551.68	27470.87
551.84	27667.47
552.01	27742.37
552.18	28151.96
552.34	27615.98
552.51	27997.49
552.68	27461.51
552.84	28264.31
553.01	27730.67
553.18	27763.43
553.34	27901.53
553.51	27840.67
553.67	27676.83
553.84	28102.81
554.01	28566.24
554.17	27974.08
554.34	27988.13
554.51	28313.46
554.67	28334.53
554.84	27859.40
555.00	27889.82
555.17	28224.52
555.33	28456.23
555.50	27786.84
555.67	28177.71
555.83	28196.43
556.00	28250.27
556.16	28704.33
556.33	28304.10
556.50	28376.66
556.66	28659.86
556.83	28430.49
556.99	28505.38
557.16	28704.33
557.32	28589.64
557.49	28940.72
557.65	28620.07
557.82	28652.84
557.98	27988.13
558.15	28641.14
558.32	28599.01
558.48	28521.77
558.65	28709.01
558.81	28854.12
558.98	28617.73
559.14	28409.42
559.31	28741.78
559.47	28498.36
559.64	28655.18
559.80	28767.52
559.97	28849.44
560.13	28425.81
560.30	28811.99
560.46	28697.31
560.63	28486.66
560.79	29010.94
560.96	28940.72
561.12	28863.49
561.29	28940.72
561.45	28811.99
561.61	29153.71
561.78	28884.55
561.94	29244.99
562.11	29036.69
562.27	29125.63
562.44	29195.84
562.60	29144.35
562.77	28631.77
562.93	29029.66
563.10	29083.50
563.26	28762.84
563.42	29598.41
563.59	29001.58
563.75	29125.63
563.92	29509.47
564.08	29207.55
564.24	29153.71
564.41	29053.07
564.57	29001.58
564.74	29069.45
564.90	29144.35
565.07	29008.60
565.23	29509.47
565.39	29226.27
565.56	29242.65
565.72	29008.60
565.88	28903.28
566.05	28989.88
566.21	29113.92
566.38	29235.63
566.54	29455.64
566.70	29497.77
566.87	29467.34
567.03	29301.17
567.19	29556.28
567.36	29298.83
567.52	29277.76
567.68	29535.22
567.85	29373.72
568.01	29331.59
568.17	29528.20
568.34	29668.63
568.50	29731.83
568.66	29399.47
568.83	29647.57
568.99	29181.80
569.15	29261.38
569.32	29331.59
569.48	29308.19
569.64	29413.51
569.81	29420.53
569.97	29472.03
570.13	29549.26
570.30	29280.10
570.46	29696.72
570.62	29380.74
570.78	29563.31
570.95	29214.57
571.11	29575.01
571.27	29235.63
571.43	29436.92
571.60	29546.92
571.76	29694.38
571.92	29427.56
572.09	29493.09
572.25	29792.68
572.41	29972.90
572.57	29635.86
572.74	29441.60
572.90	29575.01
573.06	29919.07
573.22	29820.77
573.38	29738.85
573.55	29467.34
573.71	29977.58
573.87	30164.82
574.03	29369.04
574.20	29532.88
574.36	29795.02
574.52	29549.26
574.68	29788.00
574.84	29984.60
575.01	29881.62
575.17	29706.08
575.33	29532.88
575.49	29584.37
575.65	29610.12
575.82	29916.73
575.98	29668.63
576.14	29799.70
576.30	29860.55
576.46	29420.53
576.62	29661.61
576.79	29528.20
576.95	29736.51
577.11	29858.21
577.27	29722.46
577.43	29970.56
577.59	29837.15
577.75	29806.72
577.92	29670.97
578.08	29689.70
578.24	29287.12
578.40	29575.01
578.56	30125.04
578.72	29879.28
578.88	29867.58
579.04	29806.72
579.21	30075.88
579.37	29687.36
579.53	29890.98
579.69	29619.48
579.85	29717.78
580.01	29532.88
580.17	29612.46
580.33	29717.78
580.49	29991.62
580.65	29687.36
580.82	29975.24
580.98	29954.18
581.14	30059.50
581.30	29834.81
581.46	29797.36
581.62	30064.18
581.78	29631.18
581.94	29670.97
582.10	29975.24
582.26	30050.14
582.42	30244.40
582.58	30143.76
582.74	30129.72
582.90	30132.06
583.06	30061.84
583.22	29680.33
583.38	30125.04
583.54	29895.66
583.70	30251.42
583.86	29989.28
584.02	29656.93
584.18	30328.66
584.34	29879.28
584.50	30305.26
584.66	30155.46
584.82	29816.08
584.98	30082.91
585.14	29795.02
585.30	29523.52
585.46	29860.55
585.62	29844.17
585.78	29759.91
585.94	29221.59
586.10	30260.79
586.26	29893.32
586.42	30213.98
586.58	29982.26
586.74	29635.86
586.90	30022.05
587.06	29727.14
587.22	29752.89
587.38	29846.51
587.54	30022.05
587.70	30101.63
587.86	29788.00
588.02	30293.55
588.18	30249.08
588.34	30288.87
588.49	30309.94
588.65	29834.81
588.81	29841.83
588.97	29832.47
589.13	30405.90
589.29	30113.33
589.45	30045.46
589.61	30377.81
589.77	30312.28
589.93	30338.02
590.08	30445.69
590.24	30480.80
590.40	30277.17
590.56	30527.61
590.72	30228.02
590.88	30068.86
591.04	30345.05
591.20	30658.68
591.35	30464.41
591.51	30534.63
591.67	30787.41
591.83	30780.39
591.99	30441.01
