SpectraSuite Data File
++++++++++++++++++++++++++++++++++++
Date: Fri Oct 18 13:58:13 GMT-05:00 2013
User: bianchi
Dark Spectrum Present: No
Reference Spectrum Present: No
Number of Sampled Component Spectra: 1
Spectrometers: USB2+H05261
Integration Time (usec): 50000 (USB2+H05261)
Spectra Averaged: 1 (USB2+H05261)
Boxcar Smoothing: 0 (USB2+H05261)
Correct for Electrical Dark: No (USB2+H05261)
Strobe/Lamp Enabled: No (USB2+H05261)
Correct for Detector Non-linearity: No (USB2+H05261)
Correct for Stray Light: No (USB2+H05261)
Number of Pixels in Processed Spectrum: 2048
>>>>>Begin Processed Spectral Data<<<<<
365.73	0.00
365.92	0.00
366.12	0.00
366.32	0.00
366.52	0.00
366.72	0.00
366.91	0.00
367.11	0.00
367.31	0.00
367.51	0.00
367.70	0.00
367.90	0.00
368.10	0.00
368.30	0.00
368.49	0.00
368.69	0.00
368.89	0.00
369.09	0.00
369.28	0.00
369.48	0.00
369.68	0.00
369.87	0.00
370.07	0.00
370.27	0.00
370.47	0.00
370.66	51.49
370.86	93.62
371.06	217.67
371.25	149.79
371.45	156.82
371.65	189.58
371.84	147.45
372.04	212.99
372.24	161.50
372.44	163.84
372.63	229.37
372.83	84.26
373.03	156.82
373.22	196.60
373.42	215.33
373.62	252.78
373.81	229.37
374.01	224.69
374.21	156.82
374.40	248.10
374.60	250.44
374.79	243.42
374.99	346.40
375.19	241.08
375.38	252.78
375.58	292.57
375.78	252.78
375.97	285.55
376.17	327.68
376.37	271.50
376.56	287.89
376.76	255.12
376.95	248.10
377.15	264.48
377.35	175.54
377.54	224.69
377.74	255.12
377.93	227.03
378.13	264.48
378.33	299.59
378.52	294.91
378.72	325.33
378.91	315.97
379.11	220.01
379.31	287.89
379.50	287.89
379.70	355.76
379.89	346.40
380.09	285.55
380.28	346.40
380.48	339.38
380.68	196.60
380.87	308.95
381.07	325.33
381.26	299.59
381.46	376.83
381.65	365.12
381.85	341.72
382.04	390.87
382.24	330.02
382.43	297.25
382.63	339.38
382.83	355.76
383.02	407.25
383.22	458.74
383.41	383.85
383.61	327.68
383.80	372.15
384.00	365.12
384.19	393.21
384.39	421.30
384.58	334.70
384.78	404.91
384.97	337.04
385.17	339.38
385.36	381.51
385.56	395.55
385.75	325.33
385.95	372.15
386.14	428.32
386.34	393.21
386.53	461.09
386.72	379.17
386.92	449.38
387.11	458.74
387.31	390.87
387.50	418.96
387.70	477.47
387.89	447.04
388.09	395.55
388.28	496.19
388.48	470.45
388.67	465.77
388.86	456.40
389.06	411.93
389.25	423.64
389.45	500.87
389.64	440.02
389.84	500.87
390.03	503.22
390.22	500.87
390.42	524.28
390.61	486.83
390.81	503.22
391.00	486.83
391.19	512.58
391.39	578.11
391.58	578.11
391.78	568.75
391.97	578.11
392.16	503.22
392.36	664.71
392.55	503.22
392.75	608.54
392.94	503.22
393.13	561.73
393.33	514.92
393.52	627.26
393.71	599.18
393.91	603.86
394.10	521.94
394.29	636.63
394.49	608.54
394.68	648.33
394.88	601.52
395.07	559.39
395.26	648.33
395.46	528.96
395.65	657.69
395.84	716.20
396.04	641.31
396.23	571.09
396.42	601.52
396.62	667.05
396.81	702.16
397.00	613.22
397.19	685.78
397.39	676.41
397.58	650.67
397.77	690.46
397.97	667.05
398.16	720.88
398.35	730.25
398.55	727.91
398.74	774.72
398.93	800.46
399.12	772.38
399.32	791.10
399.51	713.86
399.70	704.50
399.90	772.38
400.09	753.65
400.28	823.87
400.47	816.85
400.67	791.10
400.86	788.76
401.05	781.74
401.24	889.40
401.44	858.98
401.63	770.04
401.82	840.25
402.01	854.30
402.21	784.08
402.40	880.04
402.59	882.38
402.78	905.79
402.97	870.68
403.17	917.49
403.36	896.43
403.55	891.74
403.74	1032.18
403.93	1060.26
404.13	957.28
404.32	961.96
404.51	924.51
404.70	936.21
404.89	1032.18
405.09	1095.37
405.28	1029.84
405.47	987.71
405.66	915.15
405.85	1048.56
406.05	1027.50
406.24	1039.20
406.43	877.70
406.62	1081.33
406.81	992.39
407.00	943.24
407.20	1043.88
407.39	1064.94
407.58	992.39
407.77	1149.20
407.96	1048.56
408.15	1118.78
408.34	1116.44
408.54	1064.94
408.73	1123.46
408.92	1160.91
409.11	1151.54
409.30	1111.75
409.49	1226.44
409.68	1174.95
409.87	1163.25
410.07	1226.44
410.26	1128.14
410.45	1151.54
410.64	1233.46
410.83	1231.12
411.02	1240.48
411.21	1273.25
411.40	1149.20
411.59	1362.19
411.78	1341.13
411.98	1303.68
412.17	1401.98
412.36	1357.51
412.55	1390.28
412.74	1266.23
412.93	1416.02
413.12	1383.26
413.31	1350.49
413.50	1364.53
413.69	1420.71
413.88	1404.32
414.07	1488.58
414.26	1469.86
414.45	1516.67
414.64	1490.92
414.83	1526.03
415.02	1514.33
415.22	1547.09
415.41	1614.97
415.60	1570.50
415.79	1535.39
415.98	1575.18
416.17	1654.76
416.36	1600.93
416.55	1816.26
416.74	1631.35
416.93	1614.97
417.12	1783.49
417.31	1710.93
417.50	1668.80
417.69	1851.36
417.88	1753.06
418.07	1699.23
418.26	1783.49
418.45	1900.52
418.64	1912.22
418.83	1856.04
419.02	1795.19
419.21	1886.47
419.39	1877.11
419.58	1830.30
419.77	1771.79
419.96	1877.11
420.15	1926.26
420.34	1921.58
420.53	1900.52
420.72	2022.22
420.91	2005.84
421.10	2024.56
421.29	1982.43
421.48	1975.41
421.67	2050.31
421.86	1973.07
422.05	2052.65
422.24	1977.75
422.43	2069.03
422.61	2054.99
422.80	2045.63
422.99	2134.57
423.18	2167.34
423.37	2134.57
423.56	2176.70
423.75	2078.40
423.94	2005.84
424.13	1874.77
424.32	2069.03
424.50	2083.08
424.69	2113.50
424.88	2118.18
425.07	2078.40
425.26	2076.06
425.45	2097.12
425.64	2087.76
425.83	2062.01
426.01	2176.70
426.20	2101.80
426.39	2115.84
426.58	1982.43
426.77	2083.08
426.96	2062.01
427.15	2073.71
427.33	2106.48
427.52	2216.49
427.71	2094.78
427.90	2094.78
428.09	2160.31
428.28	2225.85
428.46	2361.60
428.65	2258.62
428.84	2207.13
429.03	2312.45
429.22	2260.96
429.40	2230.53
429.59	2324.15
429.78	2207.13
429.97	2319.47
430.16	2111.16
430.34	2232.87
430.53	2375.64
430.72	2431.82
430.91	2319.47
431.10	2352.24
431.28	2438.84
431.47	2406.07
431.66	2490.33
431.85	2321.81
432.03	2506.71
432.22	2553.52
432.41	2436.50
432.60	2499.69
432.79	2518.42
432.97	2569.91
433.16	2626.08
433.35	2480.97
433.54	2534.80
433.72	2567.57
433.91	2558.21
434.10	2516.08
434.28	2576.93
434.47	2546.50
434.66	2583.95
434.85	2602.68
435.03	2612.04
435.22	2626.08
435.41	2731.41
435.59	2775.88
435.78	2586.29
435.97	2663.53
436.16	2675.23
436.34	2677.57
436.53	2682.25
436.72	2827.37
436.90	2839.07
437.09	2822.69
437.28	2911.63
437.46	2855.45
437.65	2925.67
437.84	2796.94
438.02	2848.43
438.21	2787.58
438.40	2712.68
438.58	2932.69
438.77	2986.52
438.96	2951.42
439.14	2986.52
439.33	3033.33
439.52	3019.29
439.70	3035.67
439.89	3042.70
440.08	3117.59
440.26	3150.36
440.45	3159.72
440.63	3211.22
440.82	3269.73
441.01	3101.21
441.19	3180.79
441.38	3260.37
441.57	3185.47
441.75	3206.53
441.94	3414.84
442.12	3300.16
442.31	3428.88
442.50	3456.97
442.68	3288.45
442.87	3440.59
443.05	3492.08
443.24	3454.63
443.43	3356.33
443.61	3435.91
443.80	3599.74
443.98	3272.07
444.17	3440.59
444.35	3538.89
444.54	3494.42
444.73	3578.68
444.91	3559.95
445.10	3473.36
445.28	3433.57
445.47	3410.16
445.65	3442.93
445.84	3506.12
446.02	3609.11
446.21	3478.04
446.39	3536.55
446.58	3634.85
446.77	3562.30
446.95	3552.93
447.14	3566.98
447.32	3555.27
447.51	3454.63
447.69	3513.14
447.88	3609.11
448.06	3716.77
448.25	3574.00
448.43	3599.74
448.62	3681.66
448.80	3529.53
448.99	3714.43
449.17	3545.91
449.36	3744.86
449.54	3714.43
449.73	3836.14
449.91	3730.81
450.10	3775.28
450.28	3763.58
450.46	3716.77
450.65	3854.86
450.83	3801.03
451.02	3700.39
451.20	3805.71
451.39	3782.31
451.57	3798.69
451.76	3948.48
451.94	3868.91
452.13	4002.32
452.31	3864.22
452.49	3913.38
452.68	3964.87
452.86	3976.57
453.05	4011.68
453.23	4114.66
453.42	3969.55
453.60	3988.27
453.78	4030.40
453.97	3955.51
454.15	4166.15
454.34	4142.75
454.52	4058.49
454.70	4194.24
454.89	4128.70
455.07	4112.32
455.26	4154.45
455.44	4081.89
455.62	4124.02
455.81	4264.46
455.99	4255.09
456.17	4091.26
456.36	4189.56
456.54	4456.38
456.73	4428.29
456.91	4381.48
457.09	4339.35
457.28	4542.98
457.46	4430.63
457.64	4461.06
457.83	4374.46
458.01	4435.32
458.19	4557.02
458.38	4320.63
458.56	4559.36
458.74	4636.60
458.93	4461.06
459.11	4421.27
459.29	4500.85
459.48	4617.88
459.66	4615.54
459.84	4617.88
460.03	4807.46
460.21	4596.81
460.39	4655.33
460.57	4720.86
460.76	4746.61
460.94	4662.35
461.12	4847.25
461.31	4798.10
461.49	4669.37
461.67	4758.31
461.85	4945.55
462.04	4840.23
462.22	5121.09
462.40	4896.40
462.59	4936.19
462.77	4933.85
462.95	4826.18
463.13	4873.00
463.32	4933.85
463.50	4873.00
463.68	4868.31
463.86	4828.53
464.05	4837.89
464.23	4842.57
464.41	4994.70
464.59	4968.96
464.78	5205.35
464.96	5107.05
465.14	5055.56
465.32	5071.94
465.50	5156.20
465.69	5217.05
465.87	5053.22
466.05	5165.56
466.23	5123.43
466.41	5327.06
466.60	5308.34
466.78	5146.84
466.96	5224.08
467.14	5233.44
467.32	5109.39
467.51	5266.21
467.69	5200.67
467.87	5357.49
468.05	5268.55
468.23	5373.87
468.41	5205.35
468.60	5191.31
468.78	5364.51
468.96	5465.15
469.14	5352.81
469.32	5563.45
469.50	5338.76
469.69	5593.88
469.87	5533.03
470.05	5753.04
470.23	5675.80
470.41	5549.41
470.59	5572.82
470.77	5521.32
470.95	5706.23
471.14	5605.58
471.32	5596.22
471.50	5706.23
471.68	5675.80
471.86	5785.80
472.04	5743.67
472.22	5893.47
472.40	5902.83
472.58	5839.64
472.77	5839.64
472.95	5785.80
473.13	6122.84
473.31	5987.09
473.49	5935.60
473.67	6045.60
473.85	6141.57
474.03	6111.14
474.21	6136.88
474.39	6326.47
474.57	6153.27
474.75	6127.52
474.93	6509.03
475.12	6384.98
475.30	6300.72
475.48	6420.09
475.66	6377.96
475.84	6602.65
476.02	6609.67
476.20	6415.41
476.38	6623.72
476.56	6651.80
476.74	6754.79
476.92	6740.74
477.10	6731.38
477.28	6862.45
477.46	6745.42
477.64	6869.47
477.82	6967.77
478.00	7098.84
478.18	7019.27
478.36	7094.16
478.54	7180.76
478.72	7260.34
478.90	7304.81
479.08	7304.81
479.26	7372.69
479.44	7363.33
479.62	7611.42
479.80	7606.74
479.98	7691.00
480.16	7922.71
480.34	7679.30
480.52	7934.42
480.70	7613.76
480.88	7597.38
481.06	7861.86
481.24	7831.43
481.41	8046.76
481.59	8046.76
481.77	8156.77
481.95	8248.05
482.13	8320.60
482.31	8444.65
482.49	8393.16
482.67	8449.33
482.85	8500.83
483.03	8812.12
483.21	8847.22
483.39	8924.46
483.57	8648.28
483.74	8898.72
483.92	8891.70
484.10	8884.67
484.28	9076.60
484.46	9352.78
484.64	9570.45
484.82	9383.21
485.00	9504.92
485.18	9397.25
485.35	9673.43
485.53	9561.09
485.71	9577.47
485.89	10017.49
486.07	9921.53
486.25	9891.10
486.43	10001.11
486.61	10052.60
486.78	10160.27
486.96	10076.01
487.14	10340.49
487.32	10349.85
487.50	10539.43
487.68	10441.13
487.85	10668.16
488.03	10689.23
488.21	10988.82
488.39	10991.16
488.57	10857.75
488.75	10946.69
488.92	11084.78
489.10	11101.16
489.28	11016.90
489.46	11330.53
489.64	11229.89
489.81	11681.61
489.99	11515.44
490.17	11651.19
490.35	12102.91
490.53	11908.65
490.70	12016.31
490.88	11983.54
491.06	12163.76
491.24	12002.27
491.41	11889.92
491.59	12397.82
491.77	12266.75
491.95	12425.90
492.13	12627.19
492.30	12608.47
492.48	12582.72
492.66	12622.51
492.84	12652.94
493.01	12809.75
493.19	12996.99
493.37	13193.60
493.54	13195.94
493.72	13556.38
493.90	13107.00
494.08	13331.69
494.25	13366.80
494.43	13502.55
494.61	13680.43
494.79	13785.76
494.96	13884.06
495.14	13715.54
495.32	13834.91
495.49	13912.14
495.67	14045.55
495.85	14204.71
496.02	14291.31
496.20	14398.98
496.38	14340.46
496.55	14572.18
496.73	14623.67
496.91	14925.60
497.09	14679.84
497.26	14654.09
497.44	14867.08
497.62	14684.52
497.79	15019.22
497.97	14906.87
498.14	15077.73
498.32	15023.90
498.50	15178.37
498.67	15463.92
498.85	15365.62
499.03	15211.14
499.20	15098.80
499.38	15396.04
499.56	15695.63
499.73	15791.59
499.91	15789.25
500.08	15798.62
500.26	15641.80
500.44	15983.52
500.61	16304.17
500.79	15871.17
500.97	16006.92
501.14	16077.14
501.32	16402.47
501.49	16032.67
501.67	16039.69
501.84	16449.28
502.02	16187.14
502.20	16465.67
502.37	16713.77
502.55	16662.27
502.72	16308.85
502.90	16730.15
503.07	16702.06
503.25	16758.24
503.43	16692.70
503.60	16690.36
503.78	17081.23
503.95	16837.81
504.13	16926.75
504.30	17287.20
504.48	16849.52
504.65	17261.45
504.83	17696.79
505.01	17345.71
505.18	17444.01
505.36	17647.64
505.53	17195.92
505.71	17535.29
505.88	17472.10
506.06	17877.01
506.23	17699.13
506.41	17727.22
506.58	17806.80
506.76	17649.98
506.93	18003.40
507.11	18111.07
507.28	17933.18
507.46	18293.63
507.63	18246.82
507.81	18340.44
507.98	18427.04
508.16	18347.46
508.33	18347.46
508.50	17989.36
508.68	18579.17
508.85	18480.87
509.03	18546.40
509.20	18614.28
509.38	18808.54
509.55	18881.10
509.73	18860.04
509.90	18941.96
510.08	18651.73
510.25	19248.57
510.42	19208.78
510.60	19187.71
510.77	19564.54
510.95	19328.14
511.12	19166.65
511.30	19288.35
511.47	19564.54
511.64	19417.08
511.82	19445.17
511.99	19484.96
512.17	19903.92
512.34	19686.25
512.51	19496.66
512.69	19719.01
512.86	19592.62
513.04	20088.82
513.21	19917.96
513.38	19990.52
513.56	19880.51
513.73	19932.00
513.90	20020.94
514.08	20020.94
514.25	20360.32
514.43	20767.57
514.60	20350.96
514.77	20519.48
514.95	20669.27
515.12	20554.58
515.29	20233.93
515.47	20615.44
515.64	20769.91
515.81	20556.93
515.99	20805.02
516.16	21010.99
516.33	20863.54
516.51	20922.05
516.68	20760.55
516.85	20769.91
517.03	20994.61
517.20	21312.92
517.37	21104.61
517.54	21170.15
517.72	21233.34
517.89	21453.35
518.06	21284.83
518.24	21015.67
518.41	21214.62
518.58	21343.35
518.75	21495.48
518.93	21305.90
519.10	21633.57
519.27	21652.30
519.45	21331.64
519.62	21561.02
519.79	21469.73
519.96	21511.86
520.14	22064.23
520.31	21841.88
520.48	21884.01
520.65	21788.05
520.83	22097.00
521.00	21792.73
521.17	21926.14
521.34	21937.84
521.52	22277.22
521.69	22022.10
521.86	22401.27
522.03	22480.85
522.20	22595.53
522.38	22651.70
522.55	22600.21
522.72	22551.06
522.89	22651.70
523.07	22827.24
523.24	22817.88
523.41	22916.19
523.58	22661.07
523.75	23098.75
523.92	22689.15
524.10	22544.04
524.27	22679.79
524.44	23180.67
524.61	23051.94
524.78	23351.52
524.96	23190.03
525.13	23101.09
525.30	23283.65
525.47	23267.27
525.64	23012.15
525.81	23424.08
525.98	23501.32
526.16	23274.29
526.33	23433.44
526.50	23372.59
526.67	23398.34
526.84	23349.18
527.01	23559.83
527.18	23477.91
527.36	23332.80
527.53	23676.86
527.70	23658.14
527.87	23777.50
528.04	24039.64
528.21	23957.72
528.38	23709.63
528.55	24102.84
528.72	23845.38
528.89	24004.53
529.07	24126.24
529.24	23899.21
529.41	24360.30
529.58	24102.84
529.75	24285.40
529.92	24130.92
530.09	24374.34
530.26	24205.82
530.43	24580.31
530.60	24320.51
530.77	24397.74
530.94	24404.77
531.11	24388.38
531.28	24205.82
531.46	24149.65
531.63	24545.20
531.80	24741.80
531.97	24676.27
532.14	24898.62
532.31	24828.40
532.48	24526.47
532.65	25053.09
532.82	24765.21
532.99	24826.06
533.16	24676.27
533.33	24903.30
533.50	25329.28
533.67	25399.49
533.84	25088.20
534.01	24863.51
534.18	24907.98
534.35	25380.77
534.52	25254.38
534.69	25488.43
534.86	25483.75
535.03	25287.15
535.20	25191.19
535.37	25586.74
535.54	25720.15
535.71	25254.38
535.88	25076.50
536.05	25305.87
536.22	25656.95
536.38	25982.29
536.55	25958.88
536.72	25776.32
536.89	25333.96
537.06	25652.27
537.23	25961.22
537.40	25799.73
537.57	25773.98
537.74	25706.10
537.91	25970.58
538.08	26356.77
538.25	25560.99
538.42	26209.32
538.59	26015.05
538.75	26293.58
538.92	25813.77
539.09	26101.65
539.26	26185.91
539.43	26354.43
539.60	26333.37
539.77	26366.13
539.94	26038.46
540.11	26171.87
540.28	26373.16
540.44	26443.37
540.61	26410.60
540.78	26426.99
540.95	26480.82
541.12	26171.87
541.29	26541.68
541.46	26497.20
541.62	26567.42
541.79	26621.25
541.96	26647.00
542.13	26515.93
542.30	26822.54
542.47	26969.99
542.63	26871.69
542.80	27035.53
542.97	27349.16
543.14	27300.01
543.31	26918.50
543.48	27381.93
543.64	27234.47
543.81	27587.89
543.98	27363.20
544.15	27056.59
544.32	27211.07
544.48	27623.00
544.65	27077.66
544.82	27426.40
544.99	27374.91
545.16	27126.81
545.32	26960.63
545.49	27597.26
545.66	27562.15
545.83	27697.90
546.00	27833.65
546.16	27377.25
546.33	27211.07
546.50	27564.49
546.67	27161.92
546.83	27292.99
547.00	27941.32
547.17	27384.27
547.34	27700.24
547.50	27906.21
547.67	27915.57
547.84	28182.39
548.00	27843.01
548.17	28350.91
548.34	27880.46
548.51	28140.26
548.67	28362.61
548.84	28175.37
549.01	27976.42
549.18	28107.49
549.34	28217.50
549.51	28287.71
549.68	28130.90
549.84	27786.84
550.01	27985.79
550.18	28280.69
550.34	28294.74
550.51	28418.78
550.68	28582.62
550.84	28065.36
551.01	28711.35
551.18	28713.69
551.34	27707.26
551.51	28390.70
551.68	28545.17
551.84	28804.97
552.01	28505.38
552.18	28311.12
552.34	28409.42
552.51	28390.70
552.68	28474.96
552.84	28891.57
553.01	28673.90
553.18	28765.18
553.34	28631.77
553.51	28648.16
553.67	28835.40
553.84	29048.39
554.01	29034.35
554.17	29074.13
554.34	28655.18
554.51	28891.57
554.67	28549.85
554.84	28613.05
555.00	28793.27
555.17	28737.10
555.33	29010.94
555.50	28809.65
555.67	28737.10
555.83	28844.76
556.00	28982.85
556.16	29493.09
556.33	28938.38
556.50	28737.10
556.66	29151.37
556.83	29029.66
556.99	29497.77
557.16	29537.56
557.32	29315.21
557.49	29635.86
557.65	29029.66
557.82	29083.50
557.98	29553.94
558.15	29041.37
558.32	29673.31
558.48	29277.76
558.65	29525.86
558.81	29294.14
558.98	29680.33
559.14	29738.85
559.31	28992.22
559.47	29376.06
559.64	29448.62
559.80	29479.05
559.97	30015.03
560.13	29406.49
560.30	29507.13
560.46	30071.20
560.63	29745.87
560.79	29797.36
560.96	29638.20
561.12	29497.77
561.29	29329.25
561.45	29483.73
561.61	29539.90
561.78	29713.10
561.94	29715.44
562.11	29860.55
562.27	30050.14
562.44	30174.19
562.60	29694.38
562.77	29851.19
562.93	30010.35
563.10	30089.93
563.26	30068.86
563.42	30073.54
563.59	30061.84
563.75	29572.67
563.92	30202.27
564.08	30000.99
564.24	30204.61
564.41	29954.18
564.57	30204.61
564.74	30033.75
564.90	29741.19
565.07	29951.84
565.23	30036.09
565.39	30108.65
565.56	30164.82
565.72	29862.90
565.88	29692.04
566.05	30019.71
566.21	30108.65
566.38	30157.80
566.54	30206.95
566.70	30483.14
566.87	30345.05
567.03	30211.64
567.19	30518.25
567.36	30375.47
567.52	30424.62
567.68	30211.64
567.85	30148.44
568.01	29968.22
568.17	30438.67
568.34	30459.73
568.50	30302.92
568.66	30206.95
568.83	30443.35
568.99	30141.42
569.15	30312.28
569.32	30176.53
569.48	29680.33
569.64	30609.53
569.81	30373.13
569.97	30316.96
570.13	30574.42
570.30	30483.14
570.46	30075.88
570.62	30534.63
570.78	30396.54
570.95	30061.84
571.11	30298.23
571.27	30422.28
571.43	30342.70
571.60	30560.37
571.76	30536.97
571.92	30235.04
572.09	30522.93
572.25	30897.41
572.41	30682.08
572.57	30712.51
572.74	30740.60
572.90	30398.88
573.06	30782.73
573.22	30834.22
573.38	30527.61
573.55	30295.89
573.71	30602.50
573.87	30604.84
574.03	30991.03
574.20	30504.20
574.36	30326.32
574.52	30419.94
574.68	30764.00
574.84	30593.14
575.01	31030.82
575.17	30494.84
575.33	30492.50
575.49	30347.39
575.65	30916.14
575.82	30810.81
575.98	30745.28
576.14	30593.14
576.30	30717.19
576.46	30733.57
576.62	30560.37
576.79	30279.51
576.95	30506.54
577.11	30728.89
577.27	30883.37
577.43	30576.76
577.59	30923.16
577.75	30579.10
577.92	30551.01
578.08	30639.95
578.24	30656.34
578.40	30724.21
578.56	30651.66
578.72	30466.75
578.88	31110.40
579.04	30937.20
579.21	30705.49
579.37	30906.77
579.53	30738.26
579.69	30738.26
579.85	30658.68
580.01	30213.98
580.17	30630.59
580.33	31056.57
580.49	30874.01
580.65	30895.07
580.82	31110.40
580.98	31143.17
581.14	30911.46
581.30	30932.52
581.46	30600.16
581.62	30955.93
581.78	30792.09
581.94	30848.26
582.10	30677.40
582.26	30813.15
582.42	31026.14
582.58	30803.79
582.74	30796.77
582.90	31110.40
583.06	30843.58
583.22	31103.38
583.38	31105.72
583.54	30902.09
583.70	30871.67
583.86	30724.21
584.02	30391.86
584.18	30815.49
584.34	31026.14
584.50	30962.95
584.66	30700.81
584.82	30457.39
584.98	30859.96
585.14	30532.29
585.30	30242.06
585.46	30780.39
585.62	30469.09
585.78	30923.16
585.94	30677.40
586.10	31208.70
586.26	31068.27
586.42	30909.11
586.58	31009.76
586.74	30693.79
586.90	30506.54
587.06	30326.32
587.22	30993.37
587.38	30953.58
587.54	31178.28
587.70	31316.37
587.86	31065.93
588.02	31253.17
588.18	31601.91
588.34	31433.39
588.49	30827.20
588.65	30745.28
588.81	31094.02
588.97	30759.32
589.13	31215.72
589.29	30731.23
589.45	31250.83
589.61	31218.07
589.77	31309.35
589.93	31552.76
590.08	31236.79
590.24	31470.84
590.40	31456.80
590.56	31608.93
590.72	31318.71
590.88	31072.95
591.04	31686.17
591.20	31716.60
591.35	31309.35
591.51	31538.72
591.67	31424.03
591.83	31407.65
