SpectraSuite Data File
++++++++++++++++++++++++++++++++++++
Date: Fri Oct 18 13:57:56 GMT-05:00 2013
User: bianchi
Dark Spectrum Present: No
Reference Spectrum Present: No
Number of Sampled Component Spectra: 1
Spectrometers: USB2+H05261
Integration Time (usec): 50000 (USB2+H05261)
Spectra Averaged: 1 (USB2+H05261)
Boxcar Smoothing: 0 (USB2+H05261)
Correct for Electrical Dark: No (USB2+H05261)
Strobe/Lamp Enabled: No (USB2+H05261)
Correct for Detector Non-linearity: No (USB2+H05261)
Correct for Stray Light: No (USB2+H05261)
Number of Pixels in Processed Spectrum: 2048
>>>>>Begin Processed Spectral Data<<<<<
365.73	0.00
365.92	0.00
366.12	0.00
366.32	0.00
366.52	0.00
366.72	0.00
366.91	0.00
367.11	0.00
367.31	0.00
367.51	0.00
367.70	0.00
367.90	0.00
368.10	0.00
368.30	0.00
368.49	0.00
368.69	0.00
368.89	0.00
369.09	0.00
369.28	0.00
369.48	0.00
369.68	0.00
369.87	0.00
370.07	0.00
370.27	0.00
370.47	0.00
370.66	98.30
370.86	205.97
371.06	110.01
371.25	210.65
371.45	138.09
371.65	154.48
371.84	135.75
372.04	145.11
372.24	180.22
372.44	224.69
372.63	231.71
372.83	196.60
373.03	198.95
373.22	252.78
373.42	257.46
373.62	210.65
373.81	203.63
374.01	322.99
374.21	287.89
374.40	215.33
374.60	241.08
374.79	266.82
374.99	271.50
375.19	252.78
375.38	280.86
375.58	259.80
375.78	250.44
375.97	337.04
376.17	297.25
376.37	301.93
376.56	245.76
376.76	220.01
376.95	273.84
377.15	299.59
377.35	304.27
377.54	287.89
377.74	248.10
377.93	276.18
378.13	276.18
378.33	320.65
378.52	299.59
378.72	273.84
378.91	369.80
379.11	322.99
379.31	280.86
379.50	290.23
379.70	290.23
379.89	365.12
380.09	287.89
380.28	353.42
380.48	322.99
380.68	362.78
380.87	257.46
381.07	369.80
381.26	341.72
381.46	330.02
381.65	376.83
381.85	285.55
382.04	428.32
382.24	360.44
382.43	341.72
382.63	374.49
382.83	325.33
383.02	358.10
383.22	430.66
383.41	395.55
383.61	372.15
383.80	400.23
384.00	402.57
384.19	381.51
384.39	353.42
384.58	428.32
384.78	383.85
384.97	435.34
385.17	402.57
385.36	397.89
385.56	346.40
385.75	437.68
385.95	428.32
386.14	390.87
386.34	388.53
386.53	414.27
386.72	416.62
386.92	390.87
387.11	456.40
387.31	355.76
387.50	489.17
387.70	418.96
387.89	369.80
388.09	496.19
388.28	461.09
388.48	400.23
388.67	505.56
388.86	449.38
389.06	433.00
389.25	526.62
389.45	395.55
389.64	472.79
389.84	554.71
390.03	531.30
390.22	407.25
390.42	477.47
390.61	533.64
390.81	435.34
391.00	599.18
391.19	503.22
391.39	596.84
391.58	547.69
391.78	545.34
391.97	592.16
392.16	582.79
392.36	594.50
392.55	622.58
392.75	552.37
392.94	561.73
393.13	535.98
393.33	592.16
393.52	566.41
393.71	564.07
393.91	603.86
394.10	517.26
394.29	578.11
394.49	641.31
394.68	631.94
394.88	575.77
395.07	608.54
395.26	634.29
395.46	685.78
395.65	779.40
395.84	690.46
396.04	667.05
396.23	674.07
396.42	655.35
396.62	730.25
396.81	683.44
397.00	648.33
397.19	641.31
397.39	629.60
397.58	713.86
397.77	688.12
397.97	725.57
398.16	681.10
398.35	718.54
398.55	688.12
398.74	746.63
398.93	737.27
399.12	753.65
399.32	765.36
399.51	709.18
399.70	821.53
399.90	748.97
400.09	763.01
400.28	905.79
400.47	713.86
400.67	837.91
400.86	798.12
401.05	828.55
401.24	727.91
401.44	727.91
401.63	779.40
401.82	898.77
402.01	877.70
402.21	894.08
402.40	821.53
402.59	863.66
402.78	875.36
402.97	828.55
403.17	828.55
403.36	858.98
403.55	968.98
403.74	842.59
403.93	924.51
404.13	901.11
404.32	973.66
404.51	908.13
404.70	964.30
404.89	903.45
405.09	1043.88
405.28	929.19
405.47	1015.79
405.66	1006.43
405.85	971.32
406.05	990.05
406.24	1046.22
406.43	992.39
406.62	1020.47
406.81	1118.78
407.00	1039.20
407.20	1069.62
407.39	926.85
407.58	1032.18
407.77	1029.84
407.96	1139.84
408.15	1097.71
408.34	1149.20
408.54	1121.12
408.73	1067.28
408.92	1207.72
409.11	1118.78
409.30	1233.46
409.49	1205.38
409.68	1188.99
409.87	1205.38
410.07	1205.38
410.26	1151.54
410.45	1226.44
410.64	1217.08
410.83	1371.55
411.02	1301.34
411.21	1324.74
411.40	1256.87
411.59	1315.38
411.78	1277.93
411.98	1151.54
412.17	1352.83
412.36	1268.57
412.55	1380.92
412.74	1338.79
412.93	1387.94
413.12	1366.87
413.31	1497.94
413.50	1390.28
413.69	1406.66
413.88	1371.55
414.07	1572.84
414.26	1493.26
414.45	1509.65
414.64	1519.01
414.83	1511.99
415.02	1479.22
415.22	1490.92
415.41	1675.82
415.60	1633.69
415.79	1638.38
415.98	1722.63
416.17	1706.25
416.36	1720.29
416.55	1750.72
416.74	1671.14
416.93	1619.65
417.12	1617.31
417.31	1699.23
417.50	1736.68
417.69	1727.32
417.88	1886.47
418.07	1781.15
418.26	1710.93
418.45	1760.08
418.64	1755.40
418.83	1870.09
419.02	1853.70
419.21	1832.64
419.39	1891.15
419.58	1830.30
419.77	1874.77
419.96	1966.05
420.15	1863.07
420.34	1844.34
420.53	1954.35
420.72	1982.43
420.91	2029.24
421.10	1987.11
421.29	2059.67
421.48	2017.54
421.67	2090.10
421.86	2026.90
422.05	2019.88
422.24	1994.14
422.43	2052.65
422.61	2069.03
422.80	2001.16
422.99	2120.53
423.18	2057.33
423.37	2176.70
423.56	2118.18
423.75	2073.71
423.94	2003.50
424.13	1984.77
424.32	1937.96
424.50	2062.01
424.69	2223.51
424.88	2106.48
425.07	2071.37
425.26	2064.35
425.45	2064.35
425.64	2085.42
425.83	2031.58
426.01	2047.97
426.20	2139.25
426.39	2153.29
426.58	2085.42
426.77	2153.29
426.96	2209.47
427.15	2214.15
427.33	2092.44
427.52	2150.95
427.71	2167.34
427.90	2195.42
428.09	2263.30
428.28	2186.06
428.46	2275.00
428.65	2307.77
428.84	2237.55
429.03	2324.15
429.22	2221.17
429.40	2244.57
429.59	2300.75
429.78	2209.47
429.97	2162.66
430.16	2293.72
430.34	2310.11
430.53	2394.37
430.72	2370.96
430.91	2385.01
431.10	2284.36
431.28	2438.84
431.47	2450.54
431.66	2497.35
431.85	2363.94
432.03	2499.69
432.22	2473.95
432.41	2382.67
432.60	2588.63
432.79	2469.27
432.97	2747.79
433.16	2544.16
433.35	2532.46
433.54	2593.31
433.72	2642.46
433.91	2614.38
434.10	2691.62
434.28	2586.29
434.47	2689.28
434.66	2647.15
434.85	2600.34
435.03	2663.53
435.22	2761.83
435.41	2794.60
435.59	2722.04
435.78	2689.28
435.97	2827.37
436.16	2789.92
436.34	2799.28
436.53	2703.32
436.72	2729.06
436.90	2708.00
437.09	2848.43
437.28	2867.16
437.46	2801.62
437.65	2829.71
437.84	2782.90
438.02	2785.24
438.21	2974.82
438.40	2904.60
438.58	2888.22
438.77	2944.39
438.96	2937.37
439.14	3194.83
439.33	3073.12
439.52	3098.87
439.70	3080.14
439.89	3152.70
440.08	3070.78
440.26	3215.90
440.45	3056.74
440.63	3222.92
440.82	3180.79
441.01	3122.27
441.19	3124.62
441.38	3246.32
441.57	3208.87
441.75	3344.63
441.94	3328.24
442.12	3433.57
442.31	3372.71
442.50	3452.29
442.68	3627.83
442.87	3410.16
443.05	3471.01
443.24	3499.10
443.43	3527.19
443.61	3473.36
443.80	3693.37
443.98	3421.86
444.17	3452.29
444.35	3564.64
444.54	3707.41
444.73	3648.90
444.91	3578.68
445.10	3426.54
445.28	3538.89
445.47	3499.10
445.65	3517.83
445.84	3555.27
446.02	3578.68
446.21	3501.44
446.39	3545.91
446.58	3552.93
446.77	3861.88
446.95	3489.74
447.14	3630.17
447.32	3726.13
447.51	3531.87
447.69	3482.72
447.88	3517.83
448.06	3702.73
448.25	3620.81
448.43	3630.17
448.62	3655.92
448.80	3625.49
448.99	3824.44
449.17	3698.05
449.36	3756.56
449.54	3721.45
449.73	3796.35
449.91	3824.44
450.10	3765.92
450.28	3969.55
450.46	3829.12
450.65	3889.97
450.83	3875.93
451.02	3843.16
451.20	3906.35
451.39	3955.51
451.57	3850.18
451.76	4014.02
451.94	3861.88
452.13	3943.80
452.31	3974.23
452.49	3915.72
452.68	3941.46
452.86	4095.94
453.05	3920.40
453.23	3990.61
453.42	3911.04
453.60	3889.97
453.78	4011.68
453.97	3934.44
454.15	4023.38
454.34	4028.06
454.52	4170.83
454.70	4109.98
454.89	4322.97
455.07	4007.00
455.26	4107.64
455.44	4222.33
455.62	4124.02
455.81	4252.75
455.99	4266.80
456.17	4224.67
456.36	4271.48
456.54	4400.21
456.73	4369.78
456.91	4496.17
457.09	4486.81
457.28	4615.54
457.46	4372.12
457.64	4379.14
457.83	4585.11
458.01	4414.25
458.19	4519.57
458.38	4519.57
458.56	4531.28
458.74	4376.80
458.93	4535.96
459.11	4723.20
459.29	4575.75
459.48	4671.71
459.66	4669.37
459.84	4603.83
460.03	4823.84
460.21	4704.48
460.39	4770.01
460.57	4585.11
460.76	4648.30
460.94	4758.31
461.12	4851.93
461.31	4767.67
461.49	4805.12
461.67	4755.97
461.85	4856.61
462.04	4826.18
462.22	5088.32
462.40	4814.48
462.59	4863.63
462.77	4952.57
462.95	4999.38
463.13	4983.00
463.32	5029.81
463.50	5100.03
463.68	5071.94
463.86	5043.85
464.05	4915.12
464.23	4978.32
464.41	5137.48
464.59	5041.51
464.78	5116.41
464.96	4940.87
465.14	5006.41
465.32	5132.79
465.50	5195.99
465.69	5139.82
465.87	5149.18
466.05	5291.95
466.23	5228.76
466.41	5331.74
466.60	5352.81
466.78	5284.93
466.96	5188.97
467.14	5102.37
467.32	5266.21
467.51	5507.28
467.69	5198.33
467.87	5460.47
468.05	5460.47
468.23	5273.23
468.41	5280.25
468.60	5350.46
468.78	5387.91
468.96	5387.91
469.14	5509.62
469.32	5500.26
469.50	5430.04
469.69	5547.07
469.87	5589.20
470.05	5526.00
470.23	5509.62
470.41	5673.46
470.59	5598.56
470.77	5561.11
470.95	5734.31
471.14	5834.96
471.32	5678.14
471.50	5928.58
471.68	5820.91
471.86	5769.42
472.04	5734.31
472.22	6003.47
472.40	5816.23
472.58	5881.77
472.77	5886.45
472.95	6125.18
473.13	6162.63
473.31	5881.77
473.49	5825.59
473.67	5944.96
473.85	5989.43
474.03	6279.66
474.21	6317.11
474.39	6221.14
474.57	6424.77
474.75	6286.68
474.93	6499.67
475.12	6349.87
475.30	6502.01
475.48	6169.65
475.66	6328.81
475.84	6354.55
476.02	6520.73
476.20	6658.82
476.38	6703.29
476.56	6883.52
476.74	6778.19
476.92	6906.92
477.10	6712.66
477.28	6754.79
477.46	6925.65
477.64	6930.33
477.82	6927.99
478.00	7110.55
478.18	7225.23
478.36	7243.96
478.54	7250.98
478.72	7461.63
478.90	7438.22
479.08	7665.25
479.26	7414.82
479.44	7508.44
479.62	7604.40
479.80	7691.00
479.98	7627.81
480.16	7873.56
480.34	7681.64
480.52	7932.08
480.70	7882.92
480.88	7854.84
481.06	7791.64
481.24	7936.76
481.41	8135.70
481.59	8119.32
481.77	8067.83
481.95	8306.56
482.13	8444.65
482.31	8269.11
482.49	8575.72
482.67	8671.68
482.85	8695.09
483.03	9083.62
483.21	8786.37
483.39	8961.91
483.57	8945.53
483.74	8968.93
483.92	9092.98
484.10	8915.10
484.28	9137.45
484.46	9488.53
484.64	9493.21
484.82	9114.05
485.00	9413.63
485.18	9355.12
485.35	9638.33
485.53	9628.96
485.71	9748.33
485.89	9841.95
486.07	9839.61
486.25	9942.60
486.43	9928.55
486.61	10141.54
486.78	10359.21
486.96	10368.57
487.14	10373.25
487.32	10532.41
487.50	10333.47
487.68	10579.22
487.85	10476.24
488.03	10843.70
488.21	10834.34
488.39	10923.28
488.57	11101.16
488.75	11171.38
488.92	11070.73
489.10	11372.66
489.28	11503.73
489.46	11744.81
489.64	11363.30
489.81	11714.38
489.99	11637.14
490.17	11779.92
490.35	12046.74
490.53	12039.72
490.70	11964.82
490.88	12084.19
491.06	12301.86
491.24	12119.29
491.41	12023.33
491.59	12346.33
491.77	12322.92
491.95	12762.94
492.13	12526.55
492.30	12702.09
492.48	12755.92
492.66	12627.19
492.84	12608.47
493.01	12891.67
493.19	12950.18
493.37	13008.70
493.54	13123.38
493.72	13312.97
493.90	13240.41
494.08	13378.50
494.25	13743.63
494.43	13607.87
494.61	13858.31
494.79	13907.46
494.96	14001.08
495.14	13881.72
495.32	13820.86
495.49	14104.07
495.67	14157.90
495.85	14260.88
496.02	14501.96
496.20	14361.53
496.38	14328.76
496.55	14466.85
496.73	14906.87
496.91	14941.98
497.09	14902.19
497.26	14871.76
497.44	14677.50
497.62	14743.03
497.79	15201.78
497.97	15192.42
498.14	15274.34
498.32	15569.24
498.50	15789.25
498.67	15637.12
498.85	15426.47
499.03	15859.47
499.20	15534.14
499.38	15782.23
499.56	15431.15
499.73	15714.36
499.91	15880.53
500.08	16081.82
500.26	15630.10
500.44	15770.53
500.61	15997.56
500.79	15983.52
500.97	16257.36
501.14	16402.47
501.32	16400.13
501.49	16458.65
501.67	16343.96
501.84	16465.67
502.02	16872.92
502.20	16690.36
502.37	16889.31
502.55	16898.67
502.72	16908.03
502.90	16716.11
503.07	16751.21
503.25	17018.04
503.43	16971.22
503.60	17085.91
503.78	17193.58
503.95	17156.13
504.13	17259.11
504.30	17137.40
504.48	17158.47
504.65	17390.18
504.83	17689.77
505.01	17649.98
505.18	17834.88
505.36	17881.69
505.53	17584.44
505.71	17490.82
505.88	17853.61
506.06	17638.28
506.23	18195.32
506.41	17956.59
506.58	18073.62
506.76	18001.06
506.93	18214.05
507.11	18115.75
507.28	18190.64
507.46	18209.37
507.63	18342.78
507.81	18576.83
507.98	18249.16
508.16	18391.93
508.33	18494.91
508.50	18200.01
508.68	18705.56
508.85	18904.51
509.03	18808.54
509.20	18796.84
509.38	19197.07
509.55	19068.34
509.73	19117.50
509.90	18958.34
510.08	18836.63
510.25	19147.92
510.42	19276.65
510.60	19360.91
510.77	19365.59
510.95	19653.48
511.12	19527.09
511.30	19257.93
511.47	19335.17
511.64	19557.52
511.82	19482.62
511.99	19737.74
512.17	19992.86
512.34	19906.26
512.51	19831.36
512.69	19885.19
512.86	20020.94
513.04	19953.07
513.21	20343.94
513.38	20250.32
513.56	20013.92
513.73	19922.64
513.90	19957.75
514.08	19985.83
514.25	20320.53
514.43	20273.72
514.60	20493.73
514.77	20676.29
514.95	20505.43
515.12	20362.66
515.29	20442.24
515.47	20952.48
515.64	20961.84
515.81	20720.76
515.99	20961.84
516.16	21156.10
516.33	20975.88
516.51	21120.99
516.68	21039.08
516.85	21298.88
517.03	21298.88
517.20	21422.92
517.37	21408.88
517.54	21209.93
517.72	21584.42
517.89	21769.32
518.06	21598.46
518.24	21673.36
518.41	21509.52
518.58	21516.54
518.75	21781.03
518.93	21682.72
519.10	21668.68
519.27	21972.95
519.45	21921.46
519.62	21413.56
519.79	21542.29
519.96	21813.79
520.14	22071.25
520.31	21991.67
520.48	22129.77
520.65	21989.33
520.83	22298.28
521.00	22064.23
521.17	21996.35
521.34	22101.68
521.52	22471.48
521.69	22618.94
521.86	22621.28
522.03	22483.19
522.20	22607.23
522.38	22867.03
522.55	22459.78
522.72	22485.53
522.89	22761.71
523.07	23110.45
523.24	22906.82
523.41	23145.56
523.58	22927.89
523.75	23168.96
523.92	22572.13
524.10	22691.49
524.27	23044.91
524.44	23356.21
524.61	23166.62
524.78	23571.54
524.96	23653.45
525.13	23206.41
525.30	23452.17
525.47	23522.38
525.64	23283.65
525.81	23498.98
525.98	23311.74
526.16	23845.38
526.33	23665.16
526.50	23941.34
526.67	23637.07
526.84	23737.71
527.01	23496.64
527.18	23899.21
527.36	23901.55
527.53	24168.37
527.70	24245.61
527.87	24266.67
528.04	24041.98
528.21	24100.50
528.38	24254.97
528.55	23934.32
528.72	24130.92
528.89	24205.82
529.07	24231.57
529.24	24189.44
529.41	24657.54
529.58	24357.96
529.75	24592.01
529.92	24545.20
530.09	24444.56
530.26	24259.65
530.43	24884.58
530.60	24573.28
530.77	24706.70
530.94	24788.61
531.11	24486.68
531.28	24601.37
531.46	24622.44
531.63	24896.28
531.80	24858.83
531.97	24762.87
532.14	24882.24
532.31	25046.07
532.48	25067.14
532.65	25184.16
532.82	24992.24
532.99	25071.82
533.16	24975.86
533.33	25715.47
533.50	25235.66
533.67	25469.71
533.84	25331.62
534.01	25401.83
534.18	25127.99
534.35	25530.56
534.52	25399.49
534.69	25399.49
534.86	25537.59
535.03	25357.36
535.20	25530.56
535.37	25598.44
535.54	25750.57
535.71	25333.96
535.88	25675.68
536.05	26082.93
536.22	26139.10
536.38	25912.07
536.55	25935.48
536.72	25589.08
536.89	25872.28
537.06	26015.05
537.23	26370.82
537.40	25605.46
537.57	25795.04
537.74	26015.05
537.91	26356.77
538.08	26253.79
538.25	26253.79
538.42	26260.81
538.59	26190.59
538.75	26335.71
538.92	26436.35
539.09	26258.47
539.26	26436.35
539.43	26661.04
539.60	26665.72
539.77	26661.04
539.94	26621.25
540.11	26342.73
540.28	26738.28
540.44	26487.84
540.61	26443.37
540.78	26485.50
540.95	26675.09
541.12	26892.76
541.29	26534.65
541.46	27096.38
541.62	26522.95
541.79	26843.60
541.96	26625.93
542.13	26764.03
542.30	26757.00
542.47	26911.48
542.63	26925.52
542.80	27353.84
542.97	27257.88
543.14	27501.29
543.31	27625.34
543.48	27248.52
543.64	27784.50
543.81	27498.95
543.98	27349.16
544.15	27637.05
544.32	27971.74
544.48	27768.12
544.65	27756.41
544.82	27627.68
544.99	27578.53
545.16	27796.20
545.32	27264.90
545.49	27470.87
545.66	27969.40
545.83	27910.89
546.00	28074.73
546.16	27700.24
546.33	27321.07
546.50	27648.75
546.67	27749.39
546.83	27658.11
547.00	27981.10
547.17	27840.67
547.34	28067.70
547.50	28081.75
547.67	28268.99
547.84	28039.62
548.00	28091.11
548.17	27999.83
548.34	28023.23
548.51	28491.34
548.67	28446.87
548.84	28264.31
549.01	28409.42
549.18	28339.21
549.34	28407.08
549.51	28308.78
549.68	28278.35
549.84	28224.52
550.01	28498.36
550.18	28367.29
550.34	28648.16
550.51	28940.72
550.68	28519.43
550.84	28531.13
551.01	28936.04
551.18	28575.60
551.34	28191.75
551.51	28884.55
551.68	28978.17
551.84	28510.07
552.01	28816.68
552.18	28882.21
552.34	28664.54
552.51	28804.97
552.68	28790.93
552.84	28833.06
553.01	28982.85
553.18	28847.10
553.34	29184.14
553.51	29120.95
553.67	29029.66
553.84	28828.38
554.01	29322.23
554.17	29486.07
554.34	28905.62
554.51	29263.72
554.67	29191.16
554.84	29205.20
555.00	29308.19
555.17	28957.11
555.33	28924.34
555.50	29408.83
555.67	28994.56
555.83	29310.53
556.00	29029.66
556.16	29546.92
556.33	29689.70
556.50	29378.40
556.66	29757.57
556.83	29509.47
556.99	29385.43
557.16	29677.99
557.32	29755.23
557.49	29809.06
557.65	29535.22
557.82	29481.39
557.98	29195.84
558.15	29560.97
558.32	29682.67
558.48	29722.46
558.65	29977.58
558.81	30038.44
558.98	29511.81
559.14	29603.10
559.31	29764.59
559.47	29855.87
559.64	29907.37
559.80	30139.08
559.97	29614.80
560.13	30160.14
560.30	30251.42
560.46	30094.61
560.63	29930.77
560.79	30139.08
560.96	29991.62
561.12	29689.70
561.29	30082.91
561.45	29975.24
561.61	30129.72
561.78	30188.23
561.94	29977.58
562.11	30132.06
562.27	30089.93
562.44	30167.16
562.60	30103.97
562.77	30263.13
562.93	30249.08
563.10	30038.44
563.26	30462.07
563.42	30349.73
563.59	30211.64
563.75	30087.59
563.92	30422.28
564.08	29996.31
564.24	30639.95
564.41	30054.82
564.57	30242.06
564.74	30560.37
564.90	30597.82
565.07	30213.98
565.23	30462.07
565.39	30363.77
565.56	30419.94
565.72	30225.68
565.88	30263.13
566.05	30527.61
566.21	30361.43
566.38	30345.05
566.54	30422.28
566.70	30691.44
566.87	30972.31
567.03	30616.55
567.19	30930.18
567.36	30609.53
567.52	30298.23
567.68	30787.41
567.85	30518.25
568.01	30534.63
568.17	30293.55
568.34	30445.69
568.50	30803.79
568.66	30731.23
568.83	31035.50
568.99	30703.15
569.15	30412.92
569.32	31040.18
569.48	30661.02
569.64	30522.93
569.81	30944.22
569.97	30581.44
570.13	30789.75
570.30	30593.14
570.46	31054.23
570.62	30817.83
570.78	30520.59
570.95	30724.21
571.11	30572.08
571.27	30656.34
571.43	30632.93
571.60	30953.58
571.76	30611.87
571.92	30869.33
572.09	30754.64
572.25	31222.75
572.41	30761.66
572.57	30642.29
572.74	31143.17
572.90	30593.14
573.06	30693.79
573.22	30768.68
573.38	30953.58
573.55	30466.75
573.71	30813.15
573.87	31260.20
574.03	30747.62
574.20	30850.60
574.36	31033.16
574.52	31131.47
574.68	30857.62
574.84	31197.00
575.01	30792.09
575.17	30857.62
575.33	30478.46
575.49	30714.85
575.65	31201.68
575.82	30752.30
575.98	31297.64
576.14	31065.93
576.30	30836.56
576.46	30991.03
576.62	30902.09
576.79	30916.14
576.95	30703.15
577.11	31325.73
577.27	31005.08
577.43	31016.78
577.59	31084.65
577.75	31267.22
577.92	30808.47
578.08	30646.97
578.24	30747.62
578.40	30817.83
578.56	31283.60
578.72	31260.20
578.88	31173.60
579.04	31365.52
579.21	31519.99
579.37	31047.21
579.53	31136.15
579.69	30939.54
579.85	31159.55
580.01	30834.22
580.17	30902.09
580.33	31283.60
580.49	31292.96
580.65	31082.31
580.82	31178.28
580.98	31204.02
581.14	31295.30
581.30	31489.57
581.46	31519.99
581.62	31229.77
581.78	30513.56
581.94	31033.16
582.10	31115.08
582.26	31402.97
582.42	31459.14
582.58	31505.95
582.74	31068.27
582.90	30895.07
583.06	31454.46
583.22	31342.11
583.38	31161.89
583.54	30806.13
583.70	31208.70
583.86	31152.53
584.02	30974.65
584.18	31494.25
584.34	31241.47
584.50	31342.11
584.66	31299.98
584.82	31264.88
584.98	30806.13
585.14	31255.51
585.30	30756.98
585.46	31409.99
585.62	31175.94
585.78	31180.62
585.94	31110.40
586.10	31489.57
586.26	31508.29
586.42	31206.36
586.58	31372.54
586.74	31157.21
586.90	31021.46
587.06	31096.36
587.22	31498.93
587.38	31152.53
587.54	31433.39
587.70	31318.71
587.86	31089.34
588.02	31768.09
588.18	31604.25
588.34	31482.55
588.49	31372.54
588.65	31342.11
588.81	31440.42
588.97	31065.93
589.13	31309.35
589.29	31534.04
589.45	31697.88
589.61	31639.36
589.77	31676.81
589.93	31349.14
590.08	31885.12
590.24	31683.83
590.40	31630.00
590.56	31646.38
590.72	31810.22
590.88	31438.08
591.04	31276.58
591.20	31482.55
591.35	31840.65
591.51	31943.63
591.67	31852.35
591.83	31775.11
