SpectraSuite Data File
++++++++++++++++++++++++++++++++++++
Date: Fri Oct 18 13:58:36 GMT-05:00 2013
User: bianchi
Dark Spectrum Present: No
Reference Spectrum Present: No
Number of Sampled Component Spectra: 1
Spectrometers: USB2+H05261
Integration Time (usec): 50000 (USB2+H05261)
Spectra Averaged: 1 (USB2+H05261)
Boxcar Smoothing: 0 (USB2+H05261)
Correct for Electrical Dark: No (USB2+H05261)
Strobe/Lamp Enabled: No (USB2+H05261)
Correct for Detector Non-linearity: No (USB2+H05261)
Correct for Stray Light: No (USB2+H05261)
Number of Pixels in Processed Spectrum: 2048
>>>>>Begin Processed Spectral Data<<<<<
365.73	0.00
365.92	0.00
366.12	0.00
366.32	0.00
366.52	0.00
366.72	0.00
366.91	0.00
367.11	0.00
367.31	0.00
367.51	0.00
367.70	0.00
367.90	0.00
368.10	0.00
368.30	0.00
368.49	0.00
368.69	0.00
368.89	0.00
369.09	0.00
369.28	0.00
369.48	0.00
369.68	0.00
369.87	0.00
370.07	0.00
370.27	0.00
370.47	7.02
370.66	14.04
370.86	9.36
371.06	91.28
371.25	102.98
371.45	128.73
371.65	201.29
371.84	159.16
372.04	215.33
372.24	156.82
372.44	177.88
372.63	166.18
372.83	159.16
373.03	215.33
373.22	220.01
373.42	229.37
373.62	170.86
373.81	220.01
374.01	318.31
374.21	257.46
374.40	283.20
374.60	290.23
374.79	187.24
374.99	304.27
375.19	280.86
375.38	224.69
375.58	201.29
375.78	245.76
375.97	168.52
376.17	269.16
376.37	283.20
376.56	308.95
376.76	313.63
376.95	257.46
377.15	257.46
377.35	322.99
377.54	294.91
377.74	231.71
377.93	238.73
378.13	285.55
378.33	234.05
378.52	301.93
378.72	262.14
378.91	299.59
379.11	280.86
379.31	320.65
379.50	290.23
379.70	290.23
379.89	304.27
380.09	271.50
380.28	337.04
380.48	332.36
380.68	320.65
380.87	346.40
381.07	358.10
381.26	351.08
381.46	285.55
381.65	322.99
381.85	365.12
382.04	311.29
382.24	320.65
382.43	367.46
382.63	334.70
382.83	330.02
383.02	332.36
383.22	414.27
383.41	297.25
383.61	355.76
383.80	355.76
384.00	334.70
384.19	346.40
384.39	339.38
384.58	388.53
384.78	379.17
384.97	337.04
385.17	393.21
385.36	299.59
385.56	493.85
385.75	379.17
385.95	414.27
386.14	397.89
386.34	435.34
386.53	404.91
386.72	535.98
386.92	484.49
387.11	383.85
387.31	386.19
387.50	468.11
387.70	353.42
387.89	386.19
388.09	386.19
388.28	369.80
388.48	409.59
388.67	514.92
388.86	447.04
389.06	510.24
389.25	449.38
389.45	444.70
389.64	479.81
389.84	397.89
390.03	475.13
390.22	528.96
390.42	524.28
390.61	449.38
390.81	528.96
391.00	496.19
391.19	484.49
391.39	550.03
391.58	561.73
391.78	477.47
391.97	472.79
392.16	519.60
392.36	461.09
392.55	531.30
392.75	510.24
392.94	550.03
393.13	533.64
393.33	519.60
393.52	578.11
393.71	524.28
393.91	517.26
394.10	559.39
394.29	512.58
394.49	573.43
394.68	638.97
394.88	650.67
395.07	585.13
395.26	594.50
395.46	622.58
395.65	573.43
395.84	641.31
396.04	674.07
396.23	634.29
396.42	514.92
396.62	653.01
396.81	692.80
397.00	674.07
397.19	667.05
397.39	645.99
397.58	648.33
397.77	695.14
397.97	622.58
398.16	690.46
398.35	631.94
398.55	678.76
398.74	725.57
398.93	695.14
399.12	777.06
399.32	751.31
399.51	737.27
399.70	772.38
399.90	667.05
400.09	816.85
400.28	720.88
400.47	765.36
400.67	851.96
400.86	718.54
401.05	767.70
401.24	727.91
401.44	725.57
401.63	842.59
401.82	795.78
402.01	786.42
402.21	772.38
402.40	784.08
402.59	779.40
402.78	842.59
402.97	947.92
403.17	866.00
403.36	891.74
403.55	833.23
403.74	870.68
403.93	933.87
404.13	926.85
404.32	882.38
404.51	870.68
404.70	901.11
404.89	901.11
405.09	950.26
405.28	1018.13
405.47	901.11
405.66	947.92
405.85	1008.77
406.05	898.77
406.24	929.19
406.43	947.92
406.62	1022.81
406.81	1067.28
407.00	997.07
407.20	1027.50
407.39	1039.20
407.58	1032.18
407.77	990.05
407.96	1011.11
408.15	1069.62
408.34	1069.62
408.54	992.39
408.73	1025.15
408.92	1074.31
409.11	940.90
409.30	1139.84
409.49	1109.41
409.68	1090.69
409.87	1160.91
410.07	1259.21
410.26	1181.97
410.45	1137.50
410.64	1224.10
410.83	1135.16
411.02	1259.21
411.21	1308.36
411.40	1153.88
411.59	1245.16
411.78	1270.91
411.98	1238.14
412.17	1277.93
412.36	1301.34
412.55	1331.76
412.74	1299.00
412.93	1355.17
413.12	1320.06
413.31	1444.11
413.50	1355.17
413.69	1390.28
413.88	1369.21
414.07	1462.83
414.26	1432.41
414.45	1509.65
414.64	1458.15
414.83	1451.13
415.02	1425.39
415.22	1526.03
415.41	1570.50
415.60	1556.46
415.79	1614.97
415.98	1586.88
416.17	1519.01
416.36	1598.59
416.55	1631.35
416.74	1549.43
416.93	1551.78
417.12	1614.97
417.31	1717.95
417.50	1774.13
417.69	1757.74
417.88	1708.59
418.07	1764.76
418.26	1685.19
418.45	1722.63
418.64	1788.17
418.83	1750.72
419.02	1736.68
419.21	1664.12
419.39	1912.22
419.58	1874.77
419.77	1813.92
419.96	1900.52
420.15	1856.04
420.34	1834.98
420.53	1853.70
420.72	1863.07
420.91	1884.13
421.10	1940.30
421.29	1956.69
421.48	1914.56
421.67	1947.33
421.86	1919.24
422.05	1961.37
422.24	1902.86
422.43	2043.29
422.61	1912.22
422.80	1984.77
422.99	1898.17
423.18	1933.28
423.37	1963.71
423.56	1973.07
423.75	1989.46
423.94	1888.81
424.13	1867.75
424.32	1881.79
424.50	1996.48
424.69	1996.48
424.88	2167.34
425.07	1926.26
425.26	1949.67
425.45	2038.61
425.64	2012.86
425.83	1923.92
426.01	1996.48
426.20	2071.37
426.39	1956.69
426.58	2066.69
426.77	2104.14
426.96	2080.74
427.15	1970.73
427.33	2092.44
427.52	2176.70
427.71	2127.55
427.90	2141.59
428.09	2176.70
428.28	2150.95
428.46	2162.66
428.65	2251.60
428.84	2174.36
429.03	2235.21
429.22	2083.08
429.40	2127.55
429.59	2207.13
429.78	2172.02
429.97	2069.03
430.16	2338.20
430.34	2209.47
430.53	2286.70
430.72	2272.66
430.91	2211.81
431.10	2242.23
431.28	2321.81
431.47	2328.83
431.66	2422.45
431.85	2387.35
432.03	2307.77
432.22	2478.63
432.41	2431.82
432.60	2396.71
432.79	2321.81
432.97	2415.43
433.16	2347.56
433.35	2401.39
433.54	2434.16
433.72	2466.92
433.91	2518.42
434.10	2633.10
434.28	2562.89
434.47	2399.05
434.66	2537.14
434.85	2511.39
435.03	2504.37
435.22	2541.82
435.41	2649.49
435.59	2609.70
435.78	2614.38
435.97	2612.04
436.16	2785.24
436.34	2532.46
436.53	2747.79
436.72	2644.81
436.90	2623.74
437.09	2640.12
437.28	2696.30
437.46	2630.76
437.65	2616.72
437.84	2731.41
438.02	2597.99
438.21	2843.75
438.40	2708.00
438.58	2871.84
438.77	2932.69
438.96	2846.09
439.14	2984.18
439.33	2979.50
439.52	2928.01
439.70	2960.78
439.89	2932.69
440.08	3016.95
440.26	2977.16
440.45	2918.65
440.63	3098.87
440.82	3019.29
441.01	3054.40
441.19	3173.77
441.38	3131.64
441.57	3173.77
441.75	3105.89
441.94	3215.90
442.12	3300.16
442.31	3218.24
442.50	3211.22
442.68	3162.06
442.87	3187.81
443.05	3274.41
443.24	3293.13
443.43	3368.03
443.61	3307.18
443.80	3494.42
443.98	3272.07
444.17	3382.07
444.35	3372.71
444.54	3281.43
444.73	3442.93
444.91	3337.60
445.10	3471.01
445.28	3302.50
445.47	3468.67
445.65	3351.65
445.84	3545.91
446.02	3517.83
446.21	3449.95
446.39	3433.57
446.58	3391.44
446.77	3473.36
446.95	3419.52
447.14	3417.18
447.32	3571.66
447.51	3520.17
447.69	3431.23
447.88	3510.80
448.06	3522.51
448.25	3417.18
448.43	3574.00
448.62	3541.23
448.80	3499.10
448.99	3494.42
449.17	3482.72
449.36	3538.89
449.54	3712.09
449.73	3714.43
449.91	3857.20
450.10	3662.94
450.28	3742.52
450.46	3679.32
450.65	3613.79
450.83	3765.92
451.02	3613.79
451.20	3665.28
451.39	3791.67
451.57	3660.60
451.76	3712.09
451.94	3681.66
452.13	3782.31
452.31	3779.97
452.49	3712.09
452.68	3843.16
452.86	3962.53
453.05	3990.61
453.23	3899.33
453.42	3815.07
453.60	3763.58
453.78	3927.42
453.97	3908.69
454.15	3819.75
454.34	3847.84
454.52	3941.46
454.70	3911.04
454.89	3934.44
455.07	4004.66
455.26	4126.36
455.44	4170.83
455.62	4037.42
455.81	3911.04
455.99	4117.00
456.17	4180.20
456.36	4105.30
456.54	4119.34
456.73	4222.33
456.91	4245.73
457.09	4208.28
457.28	4397.87
457.46	4332.33
457.64	4435.32
457.83	4252.75
458.01	4198.92
458.19	4337.01
458.38	4376.80
458.56	4442.34
458.74	4311.27
458.93	4407.23
459.11	4416.59
459.29	4346.37
459.48	4435.32
459.66	4526.60
459.84	4475.10
460.03	4655.33
460.21	4533.62
460.39	4306.59
460.57	4409.57
460.76	4573.41
460.94	4503.19
461.12	4388.50
461.31	4554.68
461.49	4617.88
461.67	4629.58
461.85	4517.23
462.04	4585.11
462.22	4807.46
462.40	4683.41
462.59	4678.73
462.77	4533.62
462.95	4723.20
463.13	4737.24
463.32	4784.06
463.50	4753.63
463.68	4814.48
463.86	4718.52
464.05	4692.77
464.23	4812.14
464.41	4802.78
464.59	4851.93
464.78	4968.96
464.96	4807.46
465.14	4727.88
465.32	4828.53
465.50	4997.04
465.69	4926.83
465.87	4954.91
466.05	4842.57
466.23	4880.02
466.41	5078.96
466.60	5224.08
466.78	4985.34
466.96	4957.25
467.14	5032.15
467.32	5013.43
467.51	4987.68
467.69	5039.17
467.87	5057.90
468.05	5104.71
468.23	5008.75
468.41	5125.77
468.60	5184.29
468.78	5317.70
468.96	4971.30
469.14	5102.37
469.32	5125.77
469.50	5123.43
469.69	5345.78
469.87	5277.91
470.05	5364.51
470.23	5329.40
470.41	5331.74
470.59	5348.12
470.77	5298.97
470.95	5310.68
471.14	5493.24
471.32	5362.17
471.50	5584.52
471.68	5437.06
471.86	5568.13
472.04	5722.61
472.22	5687.50
472.40	5626.65
472.58	5750.70
472.77	5617.29
472.95	5734.31
473.13	6061.99
473.31	5750.70
473.49	5783.46
473.67	5778.78
473.85	5881.77
474.03	5944.96
474.21	6106.46
474.39	5813.89
474.57	5933.26
474.75	5937.94
474.93	6188.38
475.12	6169.65
475.30	6164.97
475.48	6113.48
475.66	6085.39
475.84	6085.39
476.02	6328.81
476.20	6326.47
476.38	6312.42
476.56	6487.96
476.74	6497.33
476.92	6480.94
477.10	6356.90
477.28	6682.23
477.46	6637.76
477.64	6665.85
477.82	6768.83
478.00	6792.23
478.18	6958.41
478.36	6881.18
478.54	6906.92
478.72	7073.10
478.90	7103.53
479.08	7199.49
479.26	7159.70
479.44	7265.02
479.62	6958.41
479.80	7370.35
479.98	7393.75
480.16	7562.27
480.34	7494.40
480.52	7485.03
480.70	7489.71
480.88	7480.35
481.06	7606.74
481.24	7520.14
481.41	7571.63
481.59	7833.77
481.77	7915.69
481.95	8056.12
482.13	8060.80
482.31	8109.96
482.49	8107.62
482.67	8238.69
482.85	8304.22
483.03	8463.38
483.21	8320.60
483.39	8336.99
483.57	8575.72
483.74	8674.03
483.92	8351.03
484.10	8650.62
484.28	8767.65
484.46	8847.22
484.64	9111.71
484.82	8887.01
485.00	8664.66
485.18	9046.17
485.35	9303.63
485.53	9100.00
485.71	9228.73
485.89	9488.53
486.07	9600.88
486.25	9640.67
486.43	9586.83
486.61	9628.96
486.78	9776.42
486.96	9984.73
487.14	10129.84
487.32	10209.42
487.50	10050.26
487.68	10186.01
487.85	10293.68
488.03	10141.54
488.21	10164.95
488.39	10567.52
488.57	10525.39
488.75	10427.09
488.92	10719.65
489.10	10958.39
489.28	10902.22
489.46	10836.68
489.64	11047.33
489.81	11190.10
489.99	11253.30
490.17	11180.74
490.35	11379.68
490.53	11295.43
490.70	11473.31
490.88	11618.42
491.06	11756.51
491.24	11602.04
491.41	11630.12
491.59	11946.09
491.77	11999.93
491.95	12126.32
492.13	12121.63
492.30	12203.55
492.48	12205.89
492.66	12013.97
492.84	12198.87
493.01	12348.67
493.19	12573.36
493.37	12580.38
493.54	12659.96
493.72	12870.61
493.90	12690.38
494.08	12936.14
494.25	13345.73
494.43	13008.70
494.61	13001.68
494.79	12865.92
494.96	13170.19
495.14	13275.52
495.32	13343.39
495.49	13659.37
495.67	13254.45
495.85	13577.45
496.02	13790.44
496.20	13624.26
496.38	13947.25
496.55	13647.66
496.73	14106.41
496.91	14003.43
497.09	14242.16
497.26	14260.88
497.44	13708.52
497.62	14394.29
497.79	14183.65
497.97	14218.75
498.14	14635.37
498.32	14656.43
498.50	14752.40
498.67	14686.86
498.85	14714.95
499.03	14782.82
499.20	15059.01
499.38	14909.21
499.56	15084.75
499.73	15342.21
499.91	15393.70
500.08	15180.71
500.26	15030.92
500.44	15250.93
500.61	15374.98
500.79	15417.11
500.97	15676.91
501.14	15667.55
501.32	15438.17
501.49	15838.41
501.67	15611.37
501.84	15934.37
502.02	15583.29
502.20	15857.13
502.37	16016.29
502.55	15981.18
502.72	15953.09
502.90	15969.48
503.07	15854.79
503.25	16257.36
503.43	16198.85
503.60	16414.18
503.78	16201.19
503.95	16545.25
504.13	16304.17
504.30	16430.56
504.48	16325.24
504.65	16669.30
504.83	16652.91
505.01	16826.11
505.18	16802.71
505.36	17137.40
505.53	16758.24
505.71	16594.40
505.88	17027.40
506.06	16961.86
506.23	17490.82
506.41	17130.38
506.58	17205.28
506.76	16968.88
506.93	17053.14
507.11	17404.22
507.28	17366.78
507.46	17387.84
507.63	17596.15
507.81	17371.46
507.98	17568.06
508.16	17446.35
508.33	17834.88
508.50	17649.98
508.68	17640.62
508.85	17664.02
509.03	18033.83
509.20	18118.09
509.38	18249.16
509.55	18209.37
509.73	18225.75
509.90	18263.20
510.08	18270.22
510.25	17998.72
510.42	18396.61
510.60	18663.43
510.77	18403.63
510.95	18455.12
511.12	18237.45
511.30	18743.01
511.47	18841.31
511.64	18595.56
511.82	18728.97
511.99	18785.14
512.17	18630.66
512.34	18588.53
512.51	18885.78
512.69	19042.60
512.86	19112.81
513.04	19250.91
513.21	19047.28
513.38	18991.11
513.56	19405.38
513.73	19250.91
513.90	19559.86
514.08	19374.95
514.25	19389.00
514.43	19524.75
514.60	19484.96
514.77	19686.25
514.95	20107.54
515.12	19571.56
515.29	19943.70
515.47	19562.20
515.64	20114.56
515.81	19861.79
515.99	19866.47
516.16	20161.37
516.33	19953.07
516.51	20322.87
516.68	20217.55
516.85	19857.10
517.03	20159.03
517.20	20032.65
517.37	20025.62
517.54	20650.55
517.72	20507.77
517.89	20379.04
518.06	20252.66
518.24	20622.46
518.41	20336.91
518.58	20470.33
518.75	20318.19
518.93	20912.69
519.10	20437.56
519.27	20893.96
519.45	20596.71
519.62	20641.18
519.79	20985.24
519.96	20793.32
520.14	20959.50
520.31	20826.09
520.48	21139.72
520.65	21329.30
520.83	21074.18
521.00	21380.79
521.17	21406.54
521.34	21003.97
521.52	21348.03
521.69	21493.14
521.86	21626.55
522.03	21556.33
522.20	21558.67
522.38	21497.82
522.55	21537.61
522.72	21680.38
522.89	21649.96
523.07	21869.97
523.24	21827.84
523.41	21813.79
523.58	21762.30
523.75	21937.84
523.92	21923.80
524.10	21930.82
524.27	22366.16
524.44	22277.22
524.61	22256.15
524.78	22134.45
524.96	21982.31
525.13	22202.32
525.30	22422.33
525.47	22207.00
525.64	22483.19
525.81	22312.33
525.98	22366.16
526.16	22677.45
526.33	22590.85
526.50	23009.81
526.67	22382.54
526.84	22757.03
527.01	22324.03
527.18	22515.95
527.36	22436.38
527.53	23150.24
527.70	22986.40
527.87	23323.44
528.04	22820.22
528.21	22551.06
528.38	23225.14
528.55	23346.84
528.72	22995.76
528.89	23264.92
529.07	22965.34
529.24	23302.37
529.41	23124.49
529.58	23424.08
529.75	23309.40
529.92	23843.04
530.09	23248.54
530.26	23363.23
530.43	23557.49
530.60	23328.12
530.77	23381.95
530.94	23651.11
531.11	23506.00
531.28	23513.02
531.46	23660.48
531.63	23620.69
531.80	23726.01
531.97	23983.47
532.14	24184.76
532.31	23838.36
532.48	23939.00
532.65	23770.48
532.82	23707.29
532.99	24137.94
533.16	23695.58
533.33	24084.11
533.50	24140.29
533.67	24056.03
533.84	24020.92
534.01	24425.83
534.18	23999.85
534.35	24121.56
534.52	24215.18
534.69	24276.04
534.86	24608.39
535.03	24198.80
535.20	24463.28
535.37	24278.38
535.54	24159.01
535.71	24116.88
535.88	24341.57
536.05	24404.77
536.22	24699.67
536.38	24549.88
536.55	24905.64
536.72	24599.03
536.89	24786.27
537.06	24589.67
537.23	24854.15
537.40	24809.68
537.57	24599.03
537.74	24828.40
537.91	25118.63
538.08	25259.06
538.25	25057.78
538.42	24802.66
538.59	25041.39
538.75	25158.42
538.92	25022.67
539.09	25017.99
539.26	25476.73
539.43	25092.88
539.60	25294.17
539.77	25376.09
539.94	25556.31
540.11	25193.53
540.28	25429.92
540.44	25170.12
540.61	24931.39
540.78	25118.63
540.95	25137.35
541.12	25717.81
541.29	25511.84
541.46	25443.96
541.62	25188.85
541.79	25851.22
541.96	25376.09
542.13	25792.70
542.30	25682.70
542.47	25724.83
542.63	25816.11
542.80	25883.98
542.97	26221.02
543.14	25645.25
543.31	25888.67
543.48	25921.43
543.64	26232.72
543.81	26366.13
543.98	26319.32
544.15	26373.16
544.32	26178.89
544.48	26462.10
544.65	26284.22
544.82	26377.84
544.99	25986.97
545.16	26305.28
545.32	26457.42
545.49	26700.83
545.66	26768.71
545.83	26560.40
546.00	26712.53
546.16	26874.03
546.33	26237.41
546.50	25811.43
546.67	26441.03
546.83	26263.15
547.00	26560.40
547.17	26637.64
547.34	26946.59
547.50	26937.23
547.67	26815.52
547.84	26944.25
548.00	26946.59
548.17	26979.36
548.34	26661.04
548.51	26984.04
548.67	27246.18
548.84	26913.82
549.01	27311.71
549.18	27105.74
549.34	26759.34
549.51	27082.34
549.68	27005.10
549.84	26923.18
550.01	27103.40
550.18	26944.25
550.34	27028.51
550.51	27152.55
550.68	27147.87
550.84	27103.40
551.01	27772.80
551.18	27077.66
551.34	27491.93
551.51	27185.32
551.68	27498.95
551.84	27379.59
552.01	27140.85
552.18	27723.65
552.34	27372.57
552.51	27772.80
552.68	27402.99
552.84	27543.42
553.01	27700.24
553.18	27377.25
553.34	27641.73
553.51	27452.14
553.67	28044.30
553.84	28004.51
554.01	27733.01
554.17	27651.09
554.34	27555.13
554.51	27864.08
554.67	27592.58
554.84	27653.43
555.00	28063.02
555.17	27580.87
555.33	27957.70
555.50	27627.68
555.67	27772.80
555.83	27679.18
556.00	27938.97
556.16	28039.62
556.33	28030.26
556.50	28163.67
556.66	27929.61
556.83	27920.25
556.99	27693.22
557.16	28002.17
557.32	28161.33
557.49	28252.61
557.65	28121.54
557.82	27929.61
557.98	28320.48
558.15	28116.86
558.32	28119.20
558.48	28332.18
558.65	28271.33
558.81	28629.43
558.98	28327.50
559.14	28268.99
559.31	28273.67
559.47	28503.04
559.64	28343.89
559.80	28613.05
559.97	28500.70
560.13	28456.23
560.30	28666.88
560.46	28332.18
560.63	28521.77
560.79	28231.54
560.96	28444.53
561.12	28367.29
561.29	28208.14
561.45	28233.88
561.61	28826.04
561.78	28697.31
561.94	28568.58
562.11	28727.74
562.27	28762.84
562.44	28842.42
562.60	28634.11
562.77	28634.11
562.93	28624.75
563.10	28767.52
563.26	28751.14
563.42	28467.94
563.59	29008.60
563.75	28393.04
563.92	28945.41
564.08	28470.28
564.24	28823.70
564.41	28512.41
564.57	28877.53
564.74	28786.25
564.90	28809.65
565.07	29120.95
565.23	28664.54
565.39	29027.32
565.56	29188.82
565.72	29010.94
565.88	28549.85
566.05	28854.12
566.21	28779.23
566.38	29092.86
566.54	28479.64
566.70	29029.66
566.87	29158.39
567.03	29523.52
567.19	29256.70
567.36	29090.52
567.52	28933.70
567.68	29343.30
567.85	29095.20
568.01	28727.74
568.17	28739.44
568.34	29364.36
568.50	29193.50
568.66	29034.35
568.83	29322.23
568.99	28861.15
569.15	28933.70
569.32	29127.97
569.48	28638.80
569.64	28982.85
569.81	28893.91
569.97	28905.62
570.13	29228.61
570.30	29266.06
570.46	29116.26
570.62	29085.84
570.78	28989.88
570.95	29144.35
571.11	29125.63
571.27	29198.18
571.43	29076.48
571.60	28877.53
571.76	29130.31
571.92	29043.71
572.09	29535.22
572.25	29350.32
572.41	29207.55
572.57	29137.33
572.74	29373.72
572.90	29427.56
573.06	29298.83
573.22	28978.17
573.38	29319.89
573.55	29465.00
573.71	29504.79
573.87	29677.99
574.03	29511.81
574.20	29514.16
574.36	28971.15
574.52	29465.00
574.68	29184.14
574.84	29542.24
575.01	29340.96
575.17	29443.94
575.33	29184.14
575.49	29479.05
575.65	29591.39
575.82	29771.61
575.98	29509.47
576.14	29542.24
576.30	29362.02
576.46	29474.37
576.62	29193.50
576.79	29511.81
576.95	29523.52
577.11	29926.09
577.27	29502.45
577.43	29722.46
577.59	29252.02
577.75	29586.71
577.92	29280.10
578.08	29223.93
578.24	29392.45
578.40	29357.34
578.56	29530.54
578.72	29713.10
578.88	29848.85
579.04	29439.26
579.21	29518.84
579.37	29813.74
579.53	29514.16
579.69	29427.56
579.85	29254.36
580.01	29738.85
580.17	29539.90
580.33	29401.81
580.49	29516.50
580.65	29720.12
580.82	29598.41
580.98	29919.07
581.14	29263.72
581.30	29593.73
581.46	29692.04
581.62	29230.95
581.78	29460.32
581.94	29390.11
582.10	29509.47
582.26	29450.96
582.42	29642.88
582.58	29474.37
582.74	29661.61
582.90	29507.13
583.06	29841.83
583.22	29858.21
583.38	29624.16
583.54	29504.79
583.70	29713.10
583.86	29764.59
584.02	29149.03
584.18	29621.82
584.34	29963.54
584.50	29661.61
584.66	29659.27
584.82	29792.68
584.98	29565.65
585.14	29308.19
585.30	29350.32
585.46	29563.31
585.62	29544.58
585.78	29886.30
585.94	29425.22
586.10	29680.33
586.26	29809.06
586.42	29872.26
586.58	29528.20
586.74	29535.22
586.90	29755.23
587.06	29521.18
587.22	29713.10
587.38	29521.18
587.54	29881.62
587.70	29663.95
587.86	29713.10
588.02	29532.88
588.18	30127.38
588.34	29780.98
588.49	29979.92
588.65	29647.57
588.81	29369.04
588.97	29883.96
589.13	29677.99
589.29	29406.49
589.45	29425.22
589.61	30005.67
589.77	30253.76
589.93	30380.15
590.08	30338.02
590.24	29881.62
590.40	30108.65
590.56	29780.98
590.72	29696.72
590.88	29846.51
591.04	29886.30
591.20	30064.18
591.35	30118.01
591.51	30377.81
591.67	30288.87
591.83	30469.09
591.99	30045.46
