SpectraSuite Data File
++++++++++++++++++++++++++++++++++++
Date: Fri Oct 18 13:58:31 GMT-05:00 2013
User: bianchi
Dark Spectrum Present: No
Reference Spectrum Present: No
Number of Sampled Component Spectra: 1
Spectrometers: USB2+H05261
Integration Time (usec): 50000 (USB2+H05261)
Spectra Averaged: 1 (USB2+H05261)
Boxcar Smoothing: 0 (USB2+H05261)
Correct for Electrical Dark: No (USB2+H05261)
Strobe/Lamp Enabled: No (USB2+H05261)
Correct for Detector Non-linearity: No (USB2+H05261)
Correct for Stray Light: No (USB2+H05261)
Number of Pixels in Processed Spectrum: 2048
>>>>>Begin Processed Spectral Data<<<<<
365.73	0.00
365.92	0.00
366.12	0.00
366.32	0.00
366.52	0.00
366.72	0.00
366.91	0.00
367.11	0.00
367.31	0.00
367.51	0.00
367.70	0.00
367.90	0.00
368.10	0.00
368.30	0.00
368.49	0.00
368.69	0.00
368.89	0.00
369.09	0.00
369.28	0.00
369.48	0.00
369.68	0.00
369.87	0.00
370.07	0.00
370.27	0.00
370.47	7.02
370.66	154.48
370.86	21.06
371.06	147.45
371.25	175.54
371.45	102.98
371.65	154.48
371.84	154.48
372.04	30.43
372.24	236.39
372.44	175.54
372.63	112.35
372.83	278.52
373.03	250.44
373.22	205.97
373.42	241.08
373.62	210.65
373.81	182.56
374.01	215.33
374.21	294.91
374.40	248.10
374.60	276.18
374.79	182.56
374.99	259.80
375.19	187.24
375.38	245.76
375.58	248.10
375.78	222.35
375.97	245.76
376.17	238.73
376.37	236.39
376.56	262.14
376.76	196.60
376.95	245.76
377.15	278.52
377.35	283.20
377.54	308.95
377.74	271.50
377.93	182.56
378.13	308.95
378.33	271.50
378.52	250.44
378.72	287.89
378.91	283.20
379.11	220.01
379.31	238.73
379.50	156.82
379.70	294.91
379.89	241.08
380.09	339.38
380.28	297.25
380.48	276.18
380.68	264.48
380.87	388.53
381.07	318.31
381.26	308.95
381.46	311.29
381.65	294.91
381.85	386.19
382.04	327.68
382.24	271.50
382.43	344.06
382.63	351.08
382.83	325.33
383.02	351.08
383.22	255.12
383.41	351.08
383.61	315.97
383.80	367.46
384.00	292.57
384.19	355.76
384.39	311.29
384.58	374.49
384.78	416.62
384.97	388.53
385.17	393.21
385.36	447.04
385.56	402.57
385.75	365.12
385.95	372.15
386.14	395.55
386.34	327.68
386.53	353.42
386.72	365.12
386.92	402.57
387.11	318.31
387.31	411.93
387.50	482.15
387.70	362.78
387.89	353.42
388.09	454.06
388.28	468.11
388.48	360.44
388.67	395.55
388.86	468.11
389.06	407.25
389.25	444.70
389.45	400.23
389.64	456.40
389.84	435.34
390.03	477.47
390.22	411.93
390.42	449.38
390.61	477.47
390.81	428.32
391.00	484.49
391.19	514.92
391.39	498.53
391.58	475.13
391.78	465.77
391.97	533.64
392.16	496.19
392.36	517.26
392.55	517.26
392.75	477.47
392.94	521.94
393.13	538.32
393.33	482.15
393.52	486.83
393.71	571.09
393.91	594.50
394.10	482.15
394.29	582.79
394.49	519.60
394.68	608.54
394.88	468.11
395.07	571.09
395.26	643.65
395.46	615.56
395.65	606.20
395.84	608.54
396.04	634.29
396.23	575.77
396.42	631.94
396.62	566.41
396.81	505.56
397.00	641.31
397.19	683.44
397.39	629.60
397.58	582.79
397.77	601.52
397.97	638.97
398.16	622.58
398.35	610.88
398.55	650.67
398.74	692.80
398.93	641.31
399.12	685.78
399.32	763.01
399.51	699.82
399.70	748.97
399.90	643.65
400.09	800.46
400.28	786.42
400.47	751.31
400.67	784.08
400.86	770.04
401.05	765.36
401.24	711.52
401.44	779.40
401.63	734.93
401.82	751.31
402.01	816.85
402.21	772.38
402.40	772.38
402.59	763.01
402.78	870.68
402.97	844.93
403.17	805.14
403.36	758.33
403.55	873.02
403.74	880.04
403.93	891.74
404.13	856.64
404.32	812.17
404.51	823.87
404.70	898.77
404.89	964.30
405.09	957.28
405.28	828.55
405.47	917.49
405.66	924.51
405.85	990.05
406.05	947.92
406.24	1102.39
406.43	957.28
406.62	945.58
406.81	1074.31
407.00	1029.84
407.20	1008.77
407.39	894.08
407.58	910.47
407.77	1088.35
407.96	933.87
408.15	1027.50
408.34	1088.35
408.54	1020.47
408.73	1118.78
408.92	1006.43
409.11	1039.20
409.30	1088.35
409.49	1046.22
409.68	1118.78
409.87	1078.99
410.07	1165.59
410.26	1046.22
410.45	1027.50
410.64	1174.95
410.83	1137.50
411.02	1172.61
411.21	1238.14
411.40	1160.91
411.59	1231.12
411.78	1210.06
411.98	1275.59
412.17	1158.57
412.36	1235.80
412.55	1277.93
412.74	1317.72
412.93	1451.13
413.12	1385.60
413.31	1357.51
413.50	1299.00
413.69	1301.34
413.88	1413.68
414.07	1385.60
414.26	1359.85
414.45	1493.26
414.64	1453.47
414.83	1437.09
415.02	1521.35
415.22	1511.99
415.41	1469.86
415.60	1579.86
415.79	1437.09
415.98	1418.36
416.17	1481.56
416.36	1516.67
416.55	1582.20
416.74	1619.65
416.93	1661.78
417.12	1652.42
417.31	1664.12
417.50	1605.61
417.69	1710.93
417.88	1617.31
418.07	1717.95
418.26	1778.81
418.45	1638.38
418.64	1717.95
418.83	1750.72
419.02	1689.87
419.21	1701.57
419.39	1795.19
419.58	1596.25
419.77	1762.42
419.96	1867.75
420.15	1837.32
420.34	1799.87
420.53	1823.28
420.72	1806.89
420.91	1865.41
421.10	1937.96
421.29	1905.20
421.48	1858.39
421.67	1816.26
421.86	1914.56
422.05	1947.33
422.24	1940.30
422.43	1966.05
422.61	1886.47
422.80	1996.48
422.99	2043.29
423.18	1994.14
423.37	1933.28
423.56	1994.14
423.75	1973.07
423.94	1973.07
424.13	1844.34
424.32	1832.64
424.50	2010.52
424.69	2003.50
424.88	2120.53
425.07	1844.34
425.26	1947.33
425.45	1961.37
425.64	1937.96
425.83	1977.75
426.01	2057.33
426.20	2040.95
426.39	2040.95
426.58	2050.31
426.77	1989.46
426.96	2001.16
427.15	1867.75
427.33	2139.25
427.52	2099.46
427.71	2122.87
427.90	2052.65
428.09	2143.93
428.28	2218.83
428.46	2214.15
428.65	2228.19
428.84	2174.36
429.03	2193.08
429.22	2202.44
429.40	2078.40
429.59	2202.44
429.78	2148.61
429.97	2209.47
430.16	2174.36
430.34	2146.27
430.53	2260.96
430.72	2282.02
430.91	2108.82
431.10	2232.87
431.28	2272.66
431.47	2363.94
431.66	2319.47
431.85	2387.35
432.03	2413.09
432.22	2399.05
432.41	2324.15
432.60	2450.54
432.79	2363.94
432.97	2380.32
433.16	2464.58
433.35	2347.56
433.54	2377.98
433.72	2504.37
433.91	2415.43
434.10	2539.48
434.28	2492.67
434.47	2478.63
434.66	2483.31
434.85	2497.35
435.03	2558.21
435.22	2560.55
435.41	2434.16
435.59	2612.04
435.78	2399.05
435.97	2661.19
436.16	2567.57
436.34	2586.29
436.53	2616.72
436.72	2693.96
436.90	2612.04
437.09	2675.23
437.28	2588.63
437.46	2605.02
437.65	2677.57
437.84	2764.17
438.02	2684.59
438.21	2839.07
438.40	2843.75
438.58	2871.84
438.77	2909.29
438.96	2761.83
439.14	2834.39
439.33	2977.16
439.52	2890.56
439.70	2871.84
439.89	3002.91
440.08	2974.82
440.26	2958.44
440.45	3014.61
440.63	2991.20
440.82	3126.96
441.01	2998.23
441.19	3066.10
441.38	3061.42
441.57	3030.99
441.75	3246.32
441.94	3241.64
442.12	3016.95
442.31	3169.09
442.50	3260.37
442.68	3150.36
442.87	3293.13
443.05	3321.22
443.24	3339.94
443.43	3349.31
443.61	3272.07
443.80	3393.78
443.98	3314.20
444.17	3173.77
444.35	3288.45
444.54	3473.36
444.73	3447.61
444.91	3295.47
445.10	3419.52
445.28	3372.71
445.47	3234.62
445.65	3255.69
445.84	3365.69
446.02	3414.84
446.21	3393.78
446.39	3370.37
446.58	3393.78
446.77	3309.52
446.95	3276.75
447.14	3489.74
447.32	3361.01
447.51	3389.10
447.69	3407.82
447.88	3400.80
448.06	3400.80
448.25	3492.08
448.43	3447.61
448.62	3496.76
448.80	3421.86
448.99	3557.61
449.17	3496.76
449.36	3552.93
449.54	3588.04
449.73	3651.24
449.91	3588.04
450.10	3691.02
450.28	3693.37
450.46	3562.30
450.65	3639.53
450.83	3602.08
451.02	3620.81
451.20	3714.43
451.39	3707.41
451.57	3646.55
451.76	3627.83
451.94	3744.86
452.13	3847.84
452.31	3796.35
452.49	3604.42
452.68	3775.28
452.86	3644.21
453.05	3815.07
453.23	3847.84
453.42	3763.58
453.60	3819.75
453.78	3838.48
453.97	3665.28
454.15	3812.73
454.34	3929.76
454.52	3845.50
454.70	3868.91
454.89	3812.73
455.07	3892.31
455.26	3875.93
455.44	4166.15
455.62	3962.53
455.81	3995.29
455.99	4011.68
456.17	3901.67
456.36	3981.25
456.54	4152.11
456.73	3992.95
456.91	4212.96
457.09	4100.62
457.28	4341.69
457.46	4180.20
457.64	4372.12
457.83	4259.78
458.01	4187.22
458.19	4308.93
458.38	4215.30
458.56	4365.10
458.74	4374.46
458.93	4365.10
459.11	4334.67
459.29	4325.31
459.48	4346.37
459.66	4444.68
459.84	4365.10
460.03	4437.66
460.21	4493.83
460.39	4465.74
460.57	4388.50
460.76	4458.72
460.94	4681.07
461.12	4545.32
461.31	4379.14
461.49	4461.06
461.67	4386.16
461.85	4678.73
462.04	4500.85
462.22	4585.11
462.40	4603.83
462.59	4610.86
462.77	4716.18
462.95	4655.33
463.13	4667.03
463.32	4641.28
463.50	4641.28
463.68	4798.10
463.86	4903.42
464.05	4751.29
464.23	4730.22
464.41	4945.55
464.59	4720.86
464.78	4849.59
464.96	4882.36
465.14	4751.29
465.32	4805.12
465.50	4961.94
465.69	4896.40
465.87	4896.40
466.05	4931.51
466.23	4788.74
466.41	4861.29
466.60	4898.74
466.78	4877.68
466.96	4973.64
467.14	4814.48
467.32	5053.22
467.51	5053.22
467.69	5006.41
467.87	5151.52
468.05	5060.24
468.23	5081.30
468.41	4983.00
468.60	5109.39
468.78	5078.96
468.96	5100.03
469.14	5032.15
469.32	5123.43
469.50	5048.54
469.69	5191.31
469.87	5394.93
470.05	5249.82
470.23	5203.01
470.41	5373.87
470.59	5322.38
470.77	5317.70
470.95	5348.12
471.14	5341.10
471.32	5376.21
471.50	5483.88
471.68	5528.35
471.86	5551.75
472.04	5591.54
472.22	5593.88
472.40	5439.40
472.58	5401.96
472.77	5591.54
472.95	5673.46
473.13	5914.53
473.31	5610.26
473.49	5680.48
473.67	5626.65
473.85	5530.69
474.03	5853.68
474.21	5947.30
474.39	5968.37
474.57	5846.66
474.75	5975.39
474.93	5926.24
475.12	5830.27
475.30	6038.58
475.48	6092.41
475.66	5989.43
475.84	6129.86
476.02	6169.65
476.20	6193.06
476.38	6427.11
476.56	6246.89
476.74	6284.34
476.92	6523.07
477.10	6422.43
477.28	6368.60
477.46	6403.71
477.64	6579.25
477.82	6670.53
478.00	6761.81
478.18	6860.11
478.36	6780.53
478.54	6869.47
478.72	6834.36
478.90	6904.58
479.08	6909.26
479.26	6986.50
479.44	7016.93
479.62	7140.97
479.80	7192.47
479.98	7379.71
480.16	7403.11
480.34	7447.58
480.52	7314.17
480.70	7384.39
480.88	7328.22
481.06	7377.37
481.24	7627.81
481.41	7808.03
481.59	7686.32
481.77	7779.94
481.95	7779.94
482.13	7873.56
482.31	7761.22
482.49	8142.72
482.67	8133.36
482.85	8098.25
483.03	8241.03
483.21	8486.78
483.39	8269.11
483.57	8451.67
483.74	8397.84
483.92	8559.34
484.10	8505.51
484.28	8676.37
484.46	8793.39
484.64	8774.67
484.82	8905.74
485.00	9004.04
485.18	9050.85
485.35	9095.32
485.53	9121.07
485.71	9247.46
485.89	9317.67
486.07	9373.85
486.25	9359.80
486.43	9312.99
486.61	9305.97
486.78	9617.26
486.96	9820.89
487.14	9839.61
487.32	9689.82
487.50	9907.49
487.68	9923.87
487.85	10134.52
488.03	10195.37
488.21	10291.34
488.39	10286.65
488.57	10408.36
488.75	10335.81
488.92	10516.03
489.10	10597.95
489.28	10649.44
489.46	10815.62
489.64	10691.57
489.81	11220.53
489.99	11185.42
490.17	10862.43
490.35	11414.79
490.53	11311.81
490.70	11487.35
490.88	11360.96
491.06	11351.60
491.24	11461.60
491.41	11384.37
491.59	11847.79
491.77	11665.23
491.95	11836.09
492.13	11925.03
492.30	11782.26
492.48	11901.62
492.66	12067.80
492.84	12020.99
493.01	12402.50
493.19	12198.87
493.37	12453.99
493.54	12395.48
493.72	12617.83
493.90	12648.26
494.08	12678.68
494.25	12697.41
494.43	12833.16
494.61	12954.87
494.79	13022.74
494.96	12910.40
495.14	12905.71
495.32	13132.75
495.49	13083.59
495.67	13327.01
495.85	13525.96
496.02	13420.63
496.20	13561.06
496.38	13448.72
496.55	13647.66
496.73	13844.27
496.91	13738.94
497.09	14022.15
497.26	14104.07
497.44	13820.86
497.62	14267.91
497.79	14209.39
497.97	14342.80
498.14	14530.05
498.32	14450.47
498.50	14347.48
498.67	14647.07
498.85	14792.19
499.03	14642.39
499.20	14441.11
499.38	14799.21
499.56	14792.19
499.73	14775.80
499.91	14904.53
500.08	15248.59
500.26	14949.00
500.44	15197.10
500.61	15171.35
500.79	15068.37
500.97	15164.33
501.14	15545.84
501.32	15384.34
501.49	15578.61
501.67	15161.99
501.84	15611.37
502.02	15545.84
502.20	15683.93
502.37	15702.65
502.55	15838.41
502.72	15789.25
502.90	15620.74
503.07	15709.68
503.25	15777.55
503.43	15742.44
503.60	16119.27
503.78	16098.20
503.95	16182.46
504.13	16203.53
504.30	16315.87
504.48	16353.32
504.65	16409.50
504.83	16388.43
505.01	16837.81
505.18	16418.86
505.36	16865.90
505.53	16732.49
505.71	16732.49
505.88	16891.65
506.06	16772.28
506.23	17053.14
506.41	16893.99
506.58	16959.52
506.76	16901.01
506.93	16922.07
507.11	16903.35
507.28	17214.64
507.46	17219.32
507.63	17114.00
507.81	17584.44
507.98	17198.26
508.16	17326.99
508.33	17371.46
508.50	17469.76
508.68	17591.47
508.85	17764.67
509.03	17561.04
509.20	17797.43
509.38	17928.50
509.55	17802.11
509.73	18050.21
509.90	18078.30
510.08	17708.49
510.25	18017.44
510.42	18068.94
510.60	18352.14
510.77	18171.92
510.95	18150.85
511.12	18326.39
511.30	18218.73
511.47	18361.50
511.64	18288.95
511.82	18752.37
511.99	18232.77
512.17	18560.45
512.34	18576.83
512.51	18801.52
512.69	18466.83
512.86	18555.77
513.04	19096.43
513.21	19157.28
513.38	19063.66
513.56	18923.23
513.73	19103.45
513.90	19126.86
514.08	19016.85
514.25	19213.46
514.43	19033.24
514.60	19323.46
514.77	19484.96
514.95	19590.28
515.12	19435.81
515.29	19002.81
515.47	19487.30
515.64	19419.42
515.81	19545.81
515.99	19814.98
516.16	19833.70
516.33	19829.02
516.51	19903.92
516.68	19644.12
516.85	20013.92
517.03	19927.32
517.20	19885.19
517.37	20004.56
517.54	20320.53
517.72	19964.77
517.89	20053.71
518.06	19910.94
518.24	19929.66
518.41	20203.50
518.58	20273.72
518.75	20276.06
518.93	20383.73
519.10	20594.37
519.27	20407.13
519.45	20327.55
519.62	20758.21
519.79	20549.90
519.96	20453.94
520.14	20606.08
520.31	20627.14
520.48	20896.30
520.65	20774.60
520.83	20816.72
521.00	20985.24
521.17	20739.49
521.34	21029.71
521.52	20933.75
521.69	21055.46
521.86	21055.46
522.03	21216.96
522.20	21146.74
522.38	21280.15
522.55	21355.05
522.72	21476.76
522.89	21832.52
523.07	21673.36
523.24	21607.83
523.41	21546.97
523.58	21509.52
523.75	21607.83
523.92	21446.33
524.10	22195.30
524.27	21687.40
524.44	21743.58
524.61	21926.14
524.78	21860.60
524.96	21860.60
525.13	21907.41
525.30	21799.75
525.47	22066.57
525.64	22108.70
525.81	22068.91
525.98	22417.65
526.16	22169.55
526.33	22085.30
526.50	22593.19
526.67	22043.17
526.84	22361.48
527.01	22211.68
527.18	22256.15
527.36	22363.82
527.53	22506.59
527.70	22698.52
527.87	22881.08
528.04	22553.40
528.21	22775.75
528.38	22394.25
528.55	22932.57
528.72	22902.14
528.89	22775.75
529.07	23002.78
529.24	22565.10
529.41	22923.21
529.58	23323.44
529.75	22785.12
529.92	22850.65
530.09	22448.08
530.26	23133.86
530.43	23035.55
530.60	22991.08
530.77	23227.48
530.94	23293.01
531.11	23073.00
531.28	23330.46
531.46	22979.38
531.63	23323.44
531.80	23473.23
531.97	23569.19
532.14	23363.23
532.31	23461.53
532.48	23524.72
532.65	23662.82
532.82	23154.92
532.99	23241.52
533.16	23667.50
533.33	23976.45
533.50	24147.31
533.67	23421.74
533.84	23765.80
534.01	23592.60
534.18	23365.57
534.35	23857.08
534.52	23737.71
534.69	24224.54
534.86	23854.74
535.03	24081.77
535.20	24198.80
535.37	24332.21
535.54	23967.09
535.71	23908.57
535.88	23995.17
536.05	24144.97
536.22	24411.79
536.38	24489.03
536.55	24325.19
536.72	24393.06
536.89	24528.81
537.06	24173.05
537.23	23943.68
537.40	24606.05
537.57	24451.58
537.74	24519.45
537.91	24739.46
538.08	24812.02
538.25	24840.11
538.42	24327.53
538.59	24652.86
538.75	24435.19
538.92	24711.38
539.09	24741.80
539.26	24898.62
539.43	24657.54
539.60	25085.86
539.77	24868.19
539.94	24886.92
540.11	24865.85
540.28	24978.20
540.44	24851.81
540.61	24980.54
540.78	25013.31
540.95	25156.08
541.12	24926.71
541.29	25102.25
541.46	24835.42
541.62	25043.73
541.79	25104.59
541.96	24868.19
542.13	25298.85
542.30	25359.70
542.47	25631.21
542.63	25738.87
542.80	25570.35
542.97	25628.87
543.14	25734.19
543.31	25376.09
543.48	25586.74
543.64	25851.22
543.81	25785.68
543.98	25975.27
544.15	25649.93
544.32	25696.74
544.48	25916.75
544.65	25951.86
544.82	25788.02
544.99	25905.05
545.16	25947.18
545.32	25827.81
545.49	25687.38
545.66	26511.25
545.83	26522.95
546.00	26206.98
546.16	26174.21
546.33	25893.35
546.50	25408.86
546.67	26092.29
546.83	25895.69
547.00	26270.17
547.17	26504.23
547.34	26349.75
547.50	26668.06
547.67	26483.16
547.84	26022.08
548.00	26157.83
548.17	26771.05
548.34	26279.54
548.51	26752.32
548.67	26412.95
548.84	26494.86
549.01	26717.22
549.18	26682.11
549.34	26705.51
549.51	26668.06
549.68	26576.78
549.84	26487.84
550.01	26504.23
550.18	26586.15
550.34	26661.04
550.51	26909.14
550.68	27129.15
550.84	26504.23
551.01	26555.72
551.18	26555.72
551.34	26745.30
551.51	26548.70
551.68	26941.91
551.84	26728.92
552.01	26618.91
552.18	26995.74
552.34	26808.50
552.51	26841.26
552.68	26778.07
552.84	27047.23
553.01	26911.48
553.18	26998.08
553.34	26806.16
553.51	27276.60
553.67	27765.78
553.84	27517.68
554.01	27302.35
554.17	27658.11
554.34	26986.38
554.51	27138.51
554.67	27510.66
554.84	27164.26
555.00	27447.46
555.17	27489.59
555.33	27391.29
555.50	27536.40
555.67	27388.95
555.83	27463.85
556.00	27594.92
556.16	27714.28
556.33	27566.83
556.50	27234.47
556.66	27784.50
556.83	27962.38
556.99	27651.09
557.16	27604.28
557.32	27637.05
557.49	27957.70
557.65	27283.62
557.82	27503.64
557.98	27571.51
558.15	27548.11
558.32	27791.52
558.48	27552.79
558.65	27826.63
558.81	27814.93
558.98	27889.82
559.14	28278.35
559.31	27700.24
559.47	27859.40
559.64	28109.83
559.80	27915.57
559.97	27976.42
560.13	27690.88
560.30	28025.57
560.46	28112.17
560.63	27908.55
560.79	28119.20
560.96	28215.16
561.12	28077.07
561.29	27627.68
561.45	27964.72
561.61	28002.17
561.78	28322.82
561.94	28196.43
562.11	28407.08
562.27	28030.26
562.44	28409.42
562.60	27878.12
562.77	28224.52
562.93	28254.95
563.10	27772.80
563.26	28236.22
563.42	28308.78
563.59	28318.14
563.75	28168.35
563.92	28552.20
564.08	28072.39
564.24	28102.81
564.41	28168.35
564.57	28034.94
564.74	28105.15
564.90	28610.71
565.07	28383.68
565.23	28559.22
565.39	28362.61
565.56	28297.08
565.72	28123.88
565.88	28376.66
566.05	28318.14
566.21	28208.14
566.38	27873.44
566.54	28156.64
566.70	28641.14
566.87	29116.26
567.03	28643.48
567.19	28886.89
567.36	28622.41
567.52	28599.01
567.68	28311.12
567.85	28283.03
568.01	28519.43
568.17	28219.84
568.34	28451.55
568.50	28425.81
568.66	28472.62
568.83	28531.13
568.99	28491.34
569.15	28613.05
569.32	28271.33
569.48	28346.23
569.64	28549.85
569.81	28273.67
569.97	28371.97
570.13	28837.74
570.30	28620.07
570.46	28655.18
570.62	28772.21
570.78	28744.12
570.95	28500.70
571.11	28615.39
571.27	28313.46
571.43	28493.68
571.60	28725.39
571.76	28823.70
571.92	28547.51
572.09	28561.56
572.25	28669.22
572.41	28664.54
572.57	28732.42
572.74	28971.15
572.90	28664.54
573.06	28673.90
573.22	28606.03
573.38	28594.32
573.55	28615.39
573.71	29142.01
573.87	28758.16
574.03	28692.63
574.20	28943.06
574.36	28788.59
574.52	28849.44
574.68	28800.29
574.84	28627.09
575.01	28718.37
575.17	28877.53
575.33	28830.72
575.49	28608.37
575.65	29242.65
575.82	29024.98
575.98	28961.79
576.14	29102.22
576.30	28870.51
576.46	28879.87
576.62	28917.32
576.79	29120.95
576.95	28540.49
577.11	28858.81
577.27	28973.49
577.43	29120.95
577.59	28868.17
577.75	29015.62
577.92	29055.41
578.08	29146.69
578.24	28662.20
578.40	28701.99
578.56	29139.67
578.72	29259.04
578.88	29078.82
579.04	29102.22
579.21	29333.93
579.37	29024.98
579.53	29247.33
579.69	28919.66
579.85	28774.55
580.01	29020.30
580.17	28500.70
580.33	28858.81
580.49	28971.15
580.65	28989.88
580.82	29064.77
580.98	29160.73
581.14	28849.44
581.30	29067.11
581.46	28589.64
581.62	28952.43
581.78	28907.96
581.94	28961.79
582.10	29083.50
582.26	28744.12
582.42	29015.62
582.58	29125.63
582.74	29151.37
582.90	28847.10
583.06	28868.17
583.22	29034.35
583.38	28795.61
583.54	28748.80
583.70	28713.69
583.86	28933.70
584.02	28786.25
584.18	28840.08
584.34	29139.67
584.50	29069.45
584.66	29415.85
584.82	28753.48
584.98	29046.05
585.14	29024.98
585.30	29223.93
585.46	28786.25
585.62	28786.25
585.78	29432.24
585.94	29008.60
586.10	29214.57
586.26	29266.06
586.42	29345.64
586.58	29111.58
586.74	29008.60
586.90	28875.19
587.06	28772.21
587.22	29095.20
587.38	29057.75
587.54	29294.14
587.70	29172.44
587.86	29039.03
588.02	29364.36
588.18	29432.24
588.34	29455.64
588.49	29268.40
588.65	29163.08
588.81	28973.49
588.97	29287.12
589.13	29544.58
589.29	29198.18
589.45	29380.74
589.61	29252.02
589.77	29701.40
589.93	29104.56
590.08	29282.44
590.24	29750.55
590.40	29586.71
590.56	29404.15
590.72	29369.04
590.88	29139.67
591.04	29137.33
591.20	29280.10
591.35	29331.59
591.51	29642.88
591.67	29469.69
591.83	29460.32
591.99	29617.14
