SpectraSuite Data File
++++++++++++++++++++++++++++++++++++
Date: Fri Oct 18 13:58:32 GMT-05:00 2013
User: bianchi
Dark Spectrum Present: No
Reference Spectrum Present: No
Number of Sampled Component Spectra: 1
Spectrometers: USB2+H05261
Integration Time (usec): 50000 (USB2+H05261)
Spectra Averaged: 1 (USB2+H05261)
Boxcar Smoothing: 0 (USB2+H05261)
Correct for Electrical Dark: No (USB2+H05261)
Strobe/Lamp Enabled: No (USB2+H05261)
Correct for Detector Non-linearity: No (USB2+H05261)
Correct for Stray Light: No (USB2+H05261)
Number of Pixels in Processed Spectrum: 2048
>>>>>Begin Processed Spectral Data<<<<<
365.73	0.00
365.92	0.00
366.12	0.00
366.32	0.00
366.52	0.00
366.72	0.00
366.91	0.00
367.11	0.00
367.31	0.00
367.51	0.00
367.70	0.00
367.90	0.00
368.10	0.00
368.30	0.00
368.49	0.00
368.69	0.00
368.89	0.00
369.09	0.00
369.28	0.00
369.48	0.00
369.68	0.00
369.87	0.00
370.07	0.00
370.27	0.00
370.47	0.00
370.66	4.68
370.86	93.62
371.06	184.90
371.25	107.66
371.45	159.16
371.65	112.35
371.84	93.62
372.04	88.94
372.24	79.58
372.44	161.50
372.63	149.79
372.83	210.65
373.03	212.99
373.22	140.43
373.42	194.26
373.62	227.03
373.81	238.73
374.01	238.73
374.21	248.10
374.40	234.05
374.60	320.65
374.79	236.39
374.99	222.35
375.19	212.99
375.38	241.08
375.58	271.50
375.78	198.95
375.97	285.55
376.17	273.84
376.37	184.90
376.56	315.97
376.76	220.01
376.95	320.65
377.15	227.03
377.35	264.48
377.54	358.10
377.74	257.46
377.93	318.31
378.13	266.82
378.33	271.50
378.52	271.50
378.72	297.25
378.91	290.23
379.11	269.16
379.31	372.15
379.50	269.16
379.70	297.25
379.89	290.23
380.09	266.82
380.28	297.25
380.48	313.63
380.68	287.89
380.87	259.80
381.07	299.59
381.26	348.74
381.46	365.12
381.65	283.20
381.85	353.42
382.04	273.84
382.24	341.72
382.43	351.08
382.63	311.29
382.83	320.65
383.02	402.57
383.22	208.31
383.41	348.74
383.61	346.40
383.80	381.51
384.00	372.15
384.19	318.31
384.39	362.78
384.58	318.31
384.78	449.38
384.97	360.44
385.17	423.64
385.36	479.81
385.56	386.19
385.75	337.04
385.95	358.10
386.14	393.21
386.34	409.59
386.53	344.06
386.72	433.00
386.92	402.57
387.11	379.17
387.31	402.57
387.50	400.23
387.70	425.98
387.89	397.89
388.09	411.93
388.28	449.38
388.48	435.34
388.67	423.64
388.86	475.13
389.06	367.46
389.25	451.72
389.45	404.91
389.64	524.28
389.84	528.96
390.03	470.45
390.22	512.58
390.42	454.06
390.61	447.04
390.81	475.13
391.00	475.13
391.19	507.90
391.39	449.38
391.58	573.43
391.78	465.77
391.97	477.47
392.16	547.69
392.36	531.30
392.55	521.94
392.75	552.37
392.94	582.79
393.13	514.92
393.33	531.30
393.52	554.71
393.71	636.63
393.91	578.11
394.10	596.84
394.29	564.07
394.49	521.94
394.68	561.73
394.88	578.11
395.07	585.13
395.26	575.77
395.46	557.05
395.65	592.16
395.84	662.37
396.04	718.54
396.23	730.25
396.42	702.16
396.62	599.18
396.81	671.73
397.00	643.65
397.19	667.05
397.39	578.11
397.58	676.41
397.77	655.35
397.97	636.63
398.16	667.05
398.35	634.29
398.55	695.14
398.74	739.61
398.93	669.39
399.12	613.22
399.32	711.52
399.51	674.07
399.70	671.73
399.90	772.38
400.09	692.80
400.28	800.46
400.47	713.86
400.67	777.06
400.86	812.17
401.05	753.65
401.24	737.27
401.44	711.52
401.63	746.63
401.82	812.17
402.01	793.44
402.21	683.44
402.40	809.83
402.59	800.46
402.78	847.27
402.97	863.66
403.17	866.00
403.36	968.98
403.55	889.40
403.74	868.34
403.93	880.04
404.13	943.24
404.32	875.36
404.51	805.14
404.70	926.85
404.89	891.74
405.09	973.66
405.28	940.90
405.47	968.98
405.66	959.62
405.85	957.28
406.05	933.87
406.24	959.62
406.43	1011.11
406.62	919.83
406.81	997.07
407.00	931.53
407.20	957.28
407.39	992.39
407.58	992.39
407.77	999.41
407.96	1102.39
408.15	1114.10
408.34	1048.56
408.54	1018.13
408.73	1214.74
408.92	1144.52
409.11	1093.03
409.30	1135.16
409.49	1172.61
409.68	1151.54
409.87	1102.39
410.07	1160.91
410.26	1167.93
410.45	1102.39
410.64	1149.20
410.83	1263.89
411.02	1233.46
411.21	1196.01
411.40	1121.12
411.59	1111.75
411.78	1327.08
411.98	1235.80
412.17	1313.04
412.36	1240.48
412.55	1324.74
412.74	1294.32
412.93	1341.13
413.12	1378.58
413.31	1385.60
413.50	1348.15
413.69	1282.61
413.88	1432.41
414.07	1378.58
414.26	1439.43
414.45	1521.35
414.64	1420.71
414.83	1425.39
415.02	1486.24
415.22	1490.92
415.41	1493.26
415.60	1432.41
415.79	1427.73
415.98	1540.07
416.17	1619.65
416.36	1610.29
416.55	1633.69
416.74	1556.46
416.93	1638.38
417.12	1614.97
417.31	1682.85
417.50	1584.54
417.69	1722.63
417.88	1774.13
418.07	1668.80
418.26	1685.19
418.45	1713.27
418.64	1802.21
418.83	1729.66
419.02	1771.79
419.21	1834.98
419.39	1891.15
419.58	1767.10
419.77	1732.00
419.96	1820.94
420.15	1858.39
420.34	1888.81
420.53	1865.41
420.72	1921.58
420.91	1982.43
421.10	1891.15
421.29	1980.09
421.48	2003.50
421.67	1909.88
421.86	1970.73
422.05	1996.48
422.24	1881.79
422.43	1893.49
422.61	1991.80
422.80	2047.97
422.99	1954.35
423.18	1970.73
423.37	2050.31
423.56	1966.05
423.75	1973.07
423.94	2005.84
424.13	1774.13
424.32	1987.11
424.50	2094.78
424.69	1980.09
424.88	1919.24
425.07	2040.95
425.26	2017.54
425.45	2001.16
425.64	2026.90
425.83	2099.46
426.01	2036.27
426.20	1987.11
426.39	2085.42
426.58	2001.16
426.77	1989.46
426.96	1998.82
427.15	2062.01
427.33	2069.03
427.52	1963.71
427.71	2040.95
427.90	2045.63
428.09	2148.61
428.28	2225.85
428.46	2094.78
428.65	2202.44
428.84	2211.81
429.03	2207.13
429.22	2326.49
429.40	2174.36
429.59	2293.72
429.78	2115.84
429.97	2160.31
430.16	2146.27
430.34	2218.83
430.53	2282.02
430.72	2340.54
430.91	2335.85
431.10	2282.02
431.28	2338.20
431.47	2349.90
431.66	2403.73
431.85	2462.24
432.03	2483.31
432.22	2413.09
432.41	2354.58
432.60	2511.39
432.79	2476.29
432.97	2520.76
433.16	2448.20
433.35	2431.82
433.54	2558.21
433.72	2413.09
433.91	2399.05
434.10	2487.99
434.28	2504.37
434.47	2459.90
434.66	2509.05
434.85	2656.51
435.03	2635.44
435.22	2588.63
435.41	2668.21
435.59	2677.57
435.78	2612.04
435.97	2710.34
436.16	2712.68
436.34	2588.63
436.53	2689.28
436.72	2696.30
436.90	2567.57
437.09	2654.17
437.28	2729.06
437.46	2672.89
437.65	2626.08
437.84	2806.30
438.02	2766.51
438.21	2614.38
438.40	2703.32
438.58	2766.51
438.77	2810.98
438.96	2787.58
439.14	2916.31
439.33	2862.48
439.52	3009.93
439.70	2953.76
439.89	2920.99
440.08	3012.27
440.26	2958.44
440.45	3045.04
440.63	3084.83
440.82	2993.55
441.01	3066.10
441.19	3129.30
441.38	3131.64
441.57	3283.77
441.75	3258.03
441.94	3272.07
442.12	3148.02
442.31	3258.03
442.50	3180.79
442.68	3276.75
442.87	3253.34
443.05	3239.30
443.24	3382.07
443.43	3323.56
443.61	3328.24
443.80	3337.60
443.98	3433.57
444.17	3164.40
444.35	3349.31
444.54	3417.18
444.73	3368.03
444.91	3323.56
445.10	3403.14
445.28	3361.01
445.47	3353.99
445.65	3349.31
445.84	3531.87
446.02	3447.61
446.21	3365.69
446.39	3478.04
446.58	3459.31
446.77	3496.76
446.95	3363.35
447.14	3485.06
447.32	3482.72
447.51	3513.14
447.69	3501.44
447.88	3515.48
448.06	3431.23
448.25	3454.63
448.43	3583.36
448.62	3468.67
448.80	3440.59
448.99	3550.59
449.17	3618.47
449.36	3632.51
449.54	3658.26
449.73	3492.08
449.91	3578.68
450.10	3686.34
450.28	3674.64
450.46	3630.17
450.65	3705.07
450.83	3686.34
451.02	3693.37
451.20	3686.34
451.39	3740.18
451.57	3786.99
451.76	3794.01
451.94	3904.01
452.13	3861.88
452.31	3845.50
452.49	3669.96
452.68	3740.18
452.86	3709.75
453.05	3782.31
453.23	3920.40
453.42	3964.87
453.60	3791.67
453.78	3847.84
453.97	3822.09
454.15	3770.60
454.34	3829.12
454.52	3943.80
454.70	3976.57
454.89	3939.12
455.07	3896.99
455.26	4056.15
455.44	3913.38
455.62	4067.85
455.81	4198.92
455.99	4009.34
456.17	4081.89
456.36	4159.13
456.54	4135.73
456.73	4177.86
456.91	4152.11
457.09	4259.78
457.28	4212.96
457.46	4170.83
457.64	4400.21
457.83	4348.72
458.01	4217.65
458.19	4351.06
458.38	4276.16
458.56	4339.35
458.74	4224.67
458.93	4346.37
459.11	4329.99
459.29	4266.80
459.48	4390.84
459.66	4329.99
459.84	4456.38
460.03	4568.73
460.21	4571.07
460.39	4575.75
460.57	4458.72
460.76	4552.34
460.94	4454.04
461.12	4596.81
461.31	4512.55
461.49	4582.77
461.67	4465.74
461.85	4854.27
462.04	4669.37
462.22	4723.20
462.40	4599.15
462.59	4645.96
462.77	4699.80
462.95	4725.54
463.13	4720.86
463.32	4723.20
463.50	4863.63
463.68	4847.25
463.86	4844.91
464.05	4830.87
464.23	4844.91
464.41	4856.61
464.59	4851.93
464.78	4816.82
464.96	4908.10
465.14	4891.72
465.32	4919.81
465.50	4999.38
465.69	4971.30
465.87	4966.62
466.05	4931.51
466.23	5004.07
466.41	5013.43
466.60	5116.41
466.78	4952.57
466.96	4945.55
467.14	4905.76
467.32	5020.45
467.51	5102.37
467.69	4896.40
467.87	5137.48
468.05	4971.30
468.23	5062.58
468.41	4994.70
468.60	5245.14
468.78	5259.18
468.96	5249.82
469.14	5160.88
469.32	5245.14
469.50	5224.08
469.69	5289.61
469.87	5343.44
470.05	5336.42
470.23	5369.19
470.41	5308.34
470.59	5355.15
470.77	5259.18
470.95	5458.13
471.14	5427.70
471.32	5359.83
471.50	5497.92
471.68	5570.48
471.86	5706.23
472.04	5479.19
472.22	5607.92
472.40	5462.81
472.58	5549.41
472.77	5565.79
472.95	5699.20
473.13	5790.49
473.31	5675.80
473.49	5664.10
473.67	5830.27
473.85	5710.91
474.03	5975.39
474.21	5912.19
474.39	5767.08
474.57	6010.50
474.75	6064.33
474.93	6188.38
475.12	6136.88
475.30	6181.35
475.48	6104.12
475.66	6193.06
475.84	6153.27
476.02	6167.31
476.20	6242.21
476.38	6413.07
476.56	6630.74
476.74	6511.37
476.92	6424.77
477.10	6619.04
477.28	6502.01
477.46	6600.31
477.64	6579.25
477.82	6649.46
478.00	6937.35
478.18	6883.52
478.36	7035.65
478.54	7012.24
478.72	7082.46
478.90	7110.55
479.08	7023.95
479.26	7023.95
479.44	7300.13
479.62	7201.83
479.80	7424.18
479.98	7405.46
480.16	7475.67
480.34	7597.38
480.52	7456.95
480.70	7590.36
480.88	7417.16
481.06	7585.68
481.24	7714.41
481.41	7847.82
481.59	7831.43
481.77	7859.52
481.95	7962.50
482.13	8009.31
482.31	7997.61
482.49	8135.70
482.67	7896.97
482.85	8397.84
483.03	8369.76
483.21	8407.20
483.39	8557.00
483.57	8418.91
483.74	8411.89
483.92	8540.61
484.10	8564.02
484.28	8805.10
484.46	8809.78
484.64	9067.24
484.82	9036.81
485.00	9151.49
485.18	9163.20
485.35	9186.60
485.53	9217.03
485.71	9303.63
485.89	9451.08
486.07	9465.13
486.25	9458.10
486.43	9549.39
486.61	9692.16
486.78	9715.56
486.96	9755.35
487.14	9701.52
487.32	10026.86
487.50	10162.61
487.68	9893.44
487.85	10125.16
488.03	10256.23
488.21	10291.34
488.39	10480.92
488.57	10450.49
488.75	10483.26
488.92	10466.88
489.10	10705.61
489.28	10630.71
489.46	11178.40
489.64	10888.17
489.81	10993.50
489.99	11070.73
490.17	11150.31
490.35	11360.96
490.53	11503.73
490.70	11641.82
490.88	11316.49
491.06	11632.46
491.24	11702.68
491.41	11613.74
491.59	11796.30
491.77	11740.13
491.95	11887.58
492.13	11882.90
492.30	12278.45
492.48	11775.24
492.66	12259.73
492.84	12250.36
493.01	12318.24
493.19	12334.62
493.37	12585.06
493.54	12372.07
493.72	12894.01
493.90	12828.48
494.08	12788.69
494.25	12919.76
494.43	12931.46
494.61	13111.68
494.79	13090.62
494.96	13088.28
495.14	13247.43
495.32	13331.69
495.49	13444.04
495.67	13357.44
495.85	13532.98
496.02	13844.27
496.20	13710.86
496.38	13729.58
496.55	13675.75
496.73	14359.19
496.91	14324.08
497.09	14057.26
497.26	14551.11
497.44	14003.43
497.62	14272.59
497.79	14181.31
497.97	14092.37
498.14	14640.05
498.32	14712.61
498.50	14523.02
498.67	14878.79
498.85	14579.20
499.03	14913.89
499.20	14991.13
499.38	14824.95
499.56	15080.07
499.73	15150.29
499.91	14963.04
500.08	15400.72
500.26	14904.53
500.44	15281.36
500.61	15344.55
500.79	15456.90
500.97	15335.19
501.14	15704.99
501.32	15644.14
501.49	15606.69
501.67	15527.11
501.84	15812.66
502.02	15466.26
502.20	15824.36
502.37	15754.15
502.55	15913.30
502.72	15838.41
502.90	15981.18
503.07	16072.46
503.25	16030.33
503.43	16365.03
503.60	16252.68
503.78	16259.70
503.95	16156.72
504.13	16486.73
504.30	16320.56
504.48	16365.03
504.65	16421.20
504.83	16468.01
505.01	16898.67
505.18	16489.07
505.36	16783.98
505.53	16755.90
505.71	16613.12
505.88	17198.26
506.06	16716.11
506.23	17144.42
506.41	17125.70
506.58	17156.13
506.76	17057.82
506.93	17216.98
507.11	17043.78
507.28	17315.28
507.46	17298.90
507.63	17436.99
507.81	17823.18
507.98	17434.65
508.16	17453.37
508.33	17577.42
508.50	17626.57
508.68	17682.75
508.85	17776.37
509.03	17528.27
509.20	17982.34
509.38	18141.49
509.55	18085.32
509.73	18171.92
509.90	18050.21
510.08	17965.95
510.25	18073.62
510.42	18288.95
510.60	18405.97
510.77	18338.10
510.95	18637.69
511.12	18228.09
511.30	18352.14
511.47	18534.70
511.64	18719.60
511.82	18530.02
511.99	18403.63
512.17	18925.57
512.34	19091.75
512.51	18981.74
512.69	19307.08
512.86	18909.19
513.04	19234.52
513.21	18958.34
513.38	19119.84
513.56	19124.52
513.73	19105.79
513.90	19133.88
514.08	19374.95
514.25	19316.44
514.43	19711.99
514.60	19524.75
514.77	19606.67
514.95	19917.96
515.12	20013.92
515.29	19613.69
515.47	19857.10
515.64	19800.93
515.81	19679.22
515.99	19852.42
516.16	20027.96
516.33	19969.45
516.51	20065.41
516.68	19845.40
516.85	19955.41
517.03	20173.08
517.20	20191.80
517.37	20086.48
517.54	20430.54
517.72	20339.26
517.89	20416.49
518.06	20381.38
518.24	20407.13
518.41	20292.44
518.58	20407.13
518.75	20577.99
518.93	20741.83
519.10	20409.47
519.27	20645.87
519.45	20898.64
519.62	20577.99
519.79	20526.50
519.96	20793.32
520.14	21216.96
520.31	20615.44
520.48	20980.56
520.65	20746.51
520.83	21034.39
521.00	21282.49
521.17	20964.18
521.34	21060.14
521.52	21149.08
521.69	21434.63
521.86	21385.47
522.03	21427.60
522.20	21348.03
522.38	21329.30
522.55	21336.32
522.72	21659.32
522.89	21443.99
523.07	22022.10
523.24	21795.07
523.41	21907.41
523.58	21788.05
523.75	21982.31
523.92	21912.10
524.10	21942.52
524.27	21872.31
524.44	22190.62
524.61	22305.31
524.78	22246.79
524.96	22155.51
525.13	22129.77
525.30	22462.12
525.47	21881.67
525.64	22239.77
525.81	22766.39
525.98	22630.64
526.16	22785.12
526.33	22654.05
526.50	22810.86
526.67	22319.35
526.84	22335.73
527.01	22438.72
527.18	22506.59
527.36	22324.03
527.53	22717.24
527.70	23000.44
527.87	22934.91
528.04	22679.79
528.21	22869.37
528.38	23040.23
528.55	23190.03
528.72	22991.08
528.89	23253.22
529.07	23161.94
529.24	22803.84
529.41	23445.15
529.58	22883.42
529.75	22876.40
529.92	23171.30
530.09	23026.19
530.26	23171.30
530.43	23484.94
530.60	23117.47
530.77	23363.23
530.94	23328.12
531.11	23082.36
531.28	23143.22
531.46	23522.38
531.63	23435.78
531.80	23667.50
531.97	23498.98
532.14	23644.09
532.31	23627.71
532.48	23597.28
532.65	23915.59
532.82	23763.46
532.99	24060.71
533.16	23920.28
533.33	24023.26
533.50	24144.97
533.67	24079.43
533.84	24187.10
534.01	24053.69
534.18	23796.23
534.35	24126.24
534.52	24334.55
534.69	24210.50
534.86	24465.62
535.03	24243.27
535.20	24208.16
535.37	24432.85
535.54	24283.06
535.71	24280.72
535.88	24533.50
536.05	24341.57
536.22	24641.16
536.38	24751.17
536.55	24875.21
536.72	24355.61
536.89	24594.35
537.06	24631.80
537.23	24800.32
537.40	24924.36
537.57	24542.86
537.74	24725.42
537.91	25221.61
538.08	24631.80
538.25	24828.40
538.42	24929.05
538.59	25247.36
538.75	24940.75
538.92	24900.96
539.09	24985.22
539.26	24903.30
539.43	25212.25
539.60	25212.25
539.77	24917.34
539.94	25443.96
540.11	24966.49
540.28	25055.43
540.44	24931.39
540.61	25020.33
540.78	25090.54
540.95	25172.46
541.12	25343.32
541.29	25249.70
541.46	25425.24
541.62	25462.69
541.79	25802.07
541.96	25472.05
542.13	25177.14
542.30	25591.42
542.47	25425.24
542.63	25422.90
542.80	25773.98
542.97	25806.75
543.14	25986.97
543.31	25825.47
543.48	25645.25
543.64	26122.72
543.81	26408.26
543.98	26417.63
544.15	26260.81
544.32	26321.66
544.48	26452.73
544.65	26265.49
544.82	26008.03
544.99	26157.83
545.16	26075.91
545.32	26017.40
545.49	26609.55
545.66	26403.58
545.83	26426.99
546.00	26513.59
546.16	26443.37
546.33	25984.63
546.50	25909.73
546.67	26696.15
546.83	26120.38
547.00	26513.59
547.17	26326.35
547.34	26443.37
547.50	26979.36
547.67	26937.23
547.84	26581.46
548.00	26815.52
548.17	26836.58
548.34	27131.49
548.51	26948.93
548.67	26932.54
548.84	27091.70
549.01	26841.26
549.18	26764.03
549.34	27161.92
549.51	26967.65
549.68	27072.98
549.84	26969.99
550.01	26993.40
550.18	26841.26
550.34	27075.32
550.51	27475.55
550.68	27585.55
550.84	27026.17
551.01	27164.26
551.18	27019.14
551.34	26670.40
551.51	26899.78
551.68	27140.85
551.84	27328.10
552.01	27185.32
552.18	27328.10
552.34	27255.54
552.51	27232.13
552.68	27173.62
552.84	27566.83
553.01	27161.92
553.18	27374.91
553.34	27388.95
553.51	27442.78
553.67	27676.83
553.84	27604.28
554.01	27761.09
554.17	27433.42
554.34	27410.01
554.51	27700.24
554.67	27838.33
554.84	27658.11
555.00	27985.79
555.17	27672.15
555.33	28086.43
555.50	27386.61
555.67	27660.45
555.83	27711.94
556.00	27995.15
556.16	28276.01
556.33	27793.86
556.50	27810.25
556.66	27749.39
556.83	28053.66
556.99	27974.08
557.16	28067.70
557.32	28299.42
557.49	28158.99
557.65	27852.38
557.82	27644.07
557.98	28259.63
558.15	28589.64
558.32	28531.13
558.48	28329.84
558.65	28491.34
558.81	27999.83
558.98	28376.66
559.14	28156.64
559.31	28276.01
559.47	28381.34
559.64	27999.83
559.80	28393.04
559.97	28638.80
560.13	28285.37
560.30	28257.29
560.46	28465.60
560.63	28606.03
560.79	28229.20
560.96	28414.10
561.12	28336.87
561.29	28180.05
561.45	28355.59
561.61	28231.54
561.78	28439.85
561.94	28774.55
562.11	28381.34
562.27	28243.24
562.44	28400.06
562.60	28285.37
562.77	28287.71
562.93	28760.50
563.10	28479.64
563.26	28180.05
563.42	28774.55
563.59	28624.75
563.75	28666.88
563.92	28493.68
564.08	28486.66
564.24	28479.64
564.41	28442.19
564.57	28746.46
564.74	28570.92
564.90	28802.63
565.07	28844.76
565.23	29256.70
565.39	28987.53
565.56	28474.96
565.72	28519.43
565.88	28435.17
566.05	28685.61
566.21	28701.99
566.38	28725.39
566.54	29097.54
566.70	29242.65
566.87	29053.07
567.03	28893.91
567.19	29123.29
567.36	28739.44
567.52	29116.26
567.68	29064.77
567.85	28919.66
568.01	28854.12
568.17	28933.70
568.34	28879.87
568.50	29181.80
568.66	28545.17
568.83	29259.04
568.99	28865.83
569.15	28889.23
569.32	28622.41
569.48	28430.49
569.64	28954.77
569.81	29020.30
569.97	28884.55
570.13	28929.02
570.30	28797.95
570.46	28767.52
570.62	29102.22
570.78	28772.21
570.95	28870.51
571.11	28753.48
571.27	28889.23
571.43	28811.99
571.60	29104.56
571.76	28776.89
571.92	28790.93
572.09	29280.10
572.25	29296.49
572.41	29172.44
572.57	29383.09
572.74	29390.11
572.90	28877.53
573.06	29268.40
573.22	29371.38
573.38	29116.26
573.55	28863.49
573.71	29755.23
573.87	29439.26
574.03	29266.06
574.20	29006.26
574.36	29003.92
574.52	29137.33
574.68	29158.39
574.84	29137.33
575.01	29291.80
575.17	29556.28
575.33	29123.29
575.49	29425.22
575.65	29457.98
575.82	29291.80
575.98	29223.93
576.14	29359.68
576.30	29254.36
576.46	29277.76
576.62	28975.83
576.79	29560.97
576.95	29069.45
577.11	29048.39
577.27	28840.08
577.43	29439.26
577.59	29308.19
577.75	29376.06
577.92	29177.12
578.08	29184.14
578.24	29366.70
578.40	29109.24
578.56	29088.18
578.72	29142.01
578.88	29376.06
579.04	29411.17
579.21	29298.83
579.37	29134.99
579.53	29371.38
579.69	29221.59
579.85	29071.79
580.01	29399.47
580.17	28966.47
580.33	29404.15
580.49	29336.27
580.65	29266.06
580.82	29563.31
580.98	29631.18
581.14	29322.23
581.30	29509.47
581.46	29282.44
581.62	29277.76
581.78	29331.59
581.94	29525.86
582.10	29380.74
582.26	29242.65
582.42	29575.01
582.58	29336.27
582.74	29287.12
582.90	29549.26
583.06	29575.01
583.22	28947.75
583.38	29062.43
583.54	29467.34
583.70	29289.46
583.86	29406.49
584.02	29352.66
584.18	29067.11
584.34	29736.51
584.50	29909.71
584.66	29249.67
584.82	29275.42
584.98	29626.50
585.14	29441.60
585.30	29186.48
585.46	29502.45
585.62	29362.02
585.78	29593.73
585.94	29532.88
586.10	29708.42
586.26	29797.36
586.42	29736.51
586.58	29450.96
586.74	29673.31
586.90	29266.06
587.06	28711.35
587.22	29649.91
587.38	29310.53
587.54	29380.74
587.70	29750.55
587.86	29436.92
588.02	29195.84
588.18	30066.52
588.34	29432.24
588.49	29441.60
588.65	29645.23
588.81	29685.01
588.97	29614.80
589.13	29708.42
589.29	29619.48
589.45	29439.26
589.61	29909.71
589.77	29668.63
589.93	29551.60
590.08	29883.96
590.24	29886.30
590.40	29867.58
590.56	29766.93
590.72	29839.49
590.88	29542.24
591.04	29387.77
591.20	29837.15
591.35	30099.29
591.51	30574.42
591.67	30298.23
591.83	29898.00
591.99	29841.83
592.15	29951.84
