SpectraSuite Data File
++++++++++++++++++++++++++++++++++++
Date: Fri Oct 18 13:57:54 GMT-05:00 2013
User: bianchi
Dark Spectrum Present: No
Reference Spectrum Present: No
Number of Sampled Component Spectra: 1
Spectrometers: USB2+H05261
Integration Time (usec): 50000 (USB2+H05261)
Spectra Averaged: 1 (USB2+H05261)
Boxcar Smoothing: 0 (USB2+H05261)
Correct for Electrical Dark: No (USB2+H05261)
Strobe/Lamp Enabled: No (USB2+H05261)
Correct for Detector Non-linearity: No (USB2+H05261)
Correct for Stray Light: No (USB2+H05261)
Number of Pixels in Processed Spectrum: 2048
>>>>>Begin Processed Spectral Data<<<<<
365.73	0.00
365.92	0.00
366.12	0.00
366.32	0.00
366.52	0.00
366.72	0.00
366.91	0.00
367.11	0.00
367.31	0.00
367.51	0.00
367.70	0.00
367.90	0.00
368.10	0.00
368.30	0.00
368.49	0.00
368.69	0.00
368.89	0.00
369.09	0.00
369.28	0.00
369.48	0.00
369.68	0.00
369.87	0.00
370.07	0.00
370.27	0.00
370.47	18.72
370.66	86.60
370.86	0.00
371.06	95.96
371.25	149.79
371.45	152.13
371.65	187.24
371.84	138.09
372.04	95.96
372.24	173.20
372.44	161.50
372.63	220.01
372.83	220.01
373.03	205.97
373.22	170.86
373.42	231.71
373.62	257.46
373.81	212.99
374.01	297.25
374.21	269.16
374.40	278.52
374.60	292.57
374.79	222.35
374.99	224.69
375.19	301.93
375.38	273.84
375.58	229.37
375.78	266.82
375.97	250.44
376.17	337.04
376.37	236.39
376.56	229.37
376.76	208.31
376.95	271.50
377.15	348.74
377.35	290.23
377.54	308.95
377.74	315.97
377.93	306.61
378.13	287.89
378.33	283.20
378.52	215.33
378.72	280.86
378.91	308.95
379.11	301.93
379.31	271.50
379.50	297.25
379.70	299.59
379.89	376.83
380.09	365.12
380.28	290.23
380.48	318.31
380.68	269.16
380.87	322.99
381.07	271.50
381.26	379.17
381.46	313.63
381.65	248.10
381.85	318.31
382.04	393.21
382.24	322.99
382.43	332.36
382.63	322.99
382.83	313.63
383.02	358.10
383.22	395.55
383.41	348.74
383.61	351.08
383.80	351.08
384.00	449.38
384.19	381.51
384.39	337.04
384.58	376.83
384.78	451.72
384.97	454.06
385.17	374.49
385.36	486.83
385.56	442.36
385.75	437.68
385.95	388.53
386.14	388.53
386.34	423.64
386.53	437.68
386.72	435.34
386.92	505.56
387.11	395.55
387.31	472.79
387.50	411.93
387.70	435.34
387.89	475.13
388.09	433.00
388.28	463.43
388.48	545.34
388.67	418.96
388.86	465.77
389.06	484.49
389.25	421.30
389.45	456.40
389.64	561.73
389.84	505.56
390.03	479.81
390.22	479.81
390.42	472.79
390.61	465.77
390.81	435.34
391.00	531.30
391.19	479.81
391.39	538.32
391.58	519.60
391.78	524.28
391.97	557.05
392.16	540.66
392.36	535.98
392.55	531.30
392.75	601.52
392.94	559.39
393.13	610.88
393.33	571.09
393.52	545.34
393.71	617.90
393.91	552.37
394.10	594.50
394.29	596.84
394.49	578.11
394.68	596.84
394.88	599.18
395.07	592.16
395.26	587.47
395.46	629.60
395.65	653.01
395.84	641.31
396.04	709.18
396.23	608.54
396.42	582.79
396.62	627.26
396.81	746.63
397.00	636.63
397.19	763.01
397.39	667.05
397.58	650.67
397.77	720.88
397.97	716.20
398.16	734.93
398.35	688.12
398.55	643.65
398.74	697.48
398.93	800.46
399.12	758.33
399.32	713.86
399.51	702.16
399.70	767.70
399.90	755.99
400.09	807.48
400.28	751.31
400.47	753.65
400.67	866.00
400.86	709.18
401.05	875.36
401.24	791.10
401.44	809.83
401.63	734.93
401.82	755.99
402.01	772.38
402.21	889.40
402.40	873.02
402.59	844.93
402.78	851.96
402.97	875.36
403.17	905.79
403.36	922.17
403.55	908.13
403.74	898.77
403.93	889.40
404.13	922.17
404.32	971.32
404.51	880.04
404.70	987.71
404.89	959.62
405.09	973.66
405.28	964.30
405.47	1011.11
405.66	961.96
405.85	940.90
406.05	947.92
406.24	1027.50
406.43	994.73
406.62	1022.81
406.81	1128.14
407.00	1053.24
407.20	1083.67
407.39	1018.13
407.58	1109.41
407.77	1160.91
407.96	1088.35
408.15	1111.75
408.34	1088.35
408.54	1121.12
408.73	1198.35
408.92	1093.03
409.11	1179.63
409.30	1266.23
409.49	1196.01
409.68	1212.40
409.87	1200.69
410.07	1191.33
410.26	1275.59
410.45	1299.00
410.64	1263.89
410.83	1191.33
411.02	1217.08
411.21	1249.85
411.40	1324.74
411.59	1310.70
411.78	1287.29
411.98	1273.25
412.17	1369.21
412.36	1383.26
412.55	1446.45
412.74	1418.36
412.93	1446.45
413.12	1460.49
413.31	1497.94
413.50	1455.81
413.69	1432.41
413.88	1383.26
414.07	1504.96
414.26	1514.33
414.45	1437.09
414.64	1495.60
414.83	1526.03
415.02	1577.52
415.22	1575.18
415.41	1542.41
415.60	1680.50
415.79	1568.16
415.98	1668.80
416.17	1645.40
416.36	1638.38
416.55	1713.27
416.74	1638.38
416.93	1645.40
417.12	1813.92
417.31	1643.06
417.50	1673.48
417.69	1832.64
417.88	1760.08
418.07	1837.32
418.26	1734.34
418.45	1797.53
418.64	1860.73
418.83	1809.23
419.02	1851.36
419.21	1813.92
419.39	1692.21
419.58	1909.88
419.77	1694.55
419.96	1923.92
420.15	1914.56
420.34	1870.09
420.53	2057.33
420.72	1989.46
420.91	1977.75
421.10	1902.86
421.29	2019.88
421.48	1942.64
421.67	2104.14
421.86	2036.27
422.05	1926.26
422.24	1949.67
422.43	2017.54
422.61	2036.27
422.80	1989.46
422.99	2129.89
423.18	2043.29
423.37	2054.99
423.56	1984.77
423.75	2160.31
423.94	2076.06
424.13	1893.49
424.32	1956.69
424.50	2054.99
424.69	2132.23
424.88	2015.20
425.07	2146.27
425.26	2024.56
425.45	2087.76
425.64	2083.08
425.83	2136.91
426.01	2122.87
426.20	2115.84
426.39	2136.91
426.58	2111.16
426.77	2094.78
426.96	2120.53
427.15	2202.44
427.33	2174.36
427.52	2197.76
427.71	2134.57
427.90	2263.30
428.09	2230.53
428.28	2307.77
428.46	2246.91
428.65	2270.32
428.84	2190.74
429.03	2347.56
429.22	2305.43
429.40	2345.22
429.59	2267.98
429.78	2221.17
429.97	2153.29
430.16	2232.87
430.34	2331.17
430.53	2389.69
430.72	2408.41
430.91	2363.94
431.10	2406.07
431.28	2415.43
431.47	2490.33
431.66	2492.67
431.85	2457.56
432.03	2438.84
432.22	2396.71
432.41	2504.37
432.60	2609.70
432.79	2483.31
432.97	2565.23
433.16	2389.69
433.35	2490.33
433.54	2576.93
433.72	2516.08
433.91	2590.97
434.10	2502.03
434.28	2574.59
434.47	2626.08
434.66	2640.12
434.85	2644.81
435.03	2679.91
435.22	2614.38
435.41	2754.81
435.59	2743.11
435.78	2593.31
435.97	2738.43
436.16	2736.09
436.34	2607.36
436.53	2761.83
436.72	2764.17
436.90	2810.98
437.09	2794.60
437.28	2668.21
437.46	2789.92
437.65	2949.08
437.84	2949.08
438.02	2764.17
438.21	2761.83
438.40	2738.43
438.58	2892.90
438.77	3045.04
438.96	2967.80
439.14	3054.40
439.33	3112.91
439.52	3066.10
439.70	3026.31
439.89	3101.21
440.08	3166.74
440.26	3201.85
440.45	3042.70
440.63	3248.66
440.82	3328.24
441.01	3236.96
441.19	3222.92
441.38	3246.32
441.57	3234.62
441.75	3391.44
441.94	3330.58
442.12	3466.33
442.31	3487.40
442.50	3281.43
442.68	3370.37
442.87	3361.01
443.05	3391.44
443.24	3447.61
443.43	3400.80
443.61	3471.01
443.80	3611.45
443.98	3447.61
444.17	3241.64
444.35	3335.26
444.54	3616.13
444.73	3473.36
444.91	3515.48
445.10	3471.01
445.28	3590.38
445.47	3316.54
445.65	3588.04
445.84	3552.93
446.02	3543.57
446.21	3623.15
446.39	3492.08
446.58	3665.28
446.77	3623.15
446.95	3393.78
447.14	3534.21
447.32	3676.98
447.51	3695.71
447.69	3632.51
447.88	3459.31
448.06	3639.53
448.25	3566.98
448.43	3744.86
448.62	3679.32
448.80	3520.17
448.99	3648.90
449.17	3747.20
449.36	3653.58
449.54	3754.22
449.73	3817.41
449.91	3775.28
450.10	3740.18
450.28	3824.44
450.46	3836.14
450.65	3861.88
450.83	3770.60
451.02	3819.75
451.20	3775.28
451.39	3936.78
451.57	3761.24
451.76	3723.79
451.94	3868.91
452.13	4067.85
452.31	3871.25
452.49	4002.32
452.68	3950.82
452.86	3868.91
453.05	3974.23
453.23	4081.89
453.42	3934.44
453.60	4004.66
453.78	4009.34
453.97	3981.25
454.15	4014.02
454.34	3995.29
454.52	4227.01
454.70	4053.81
454.89	3920.40
455.07	4102.96
455.26	4173.18
455.44	4154.45
455.62	4037.42
455.81	4189.56
455.99	4365.10
456.17	4196.58
456.36	4262.12
456.54	4297.22
456.73	4360.42
456.91	4393.19
457.09	4376.80
457.28	4510.21
457.46	4376.80
457.64	4301.90
457.83	4372.12
458.01	4440.00
458.19	4528.94
458.38	4540.64
458.56	4692.77
458.74	4671.71
458.93	4496.17
459.11	4531.28
459.29	4575.75
459.48	4580.43
459.66	4587.45
459.84	4891.72
460.03	4711.50
460.21	4578.09
460.39	4617.88
460.57	4844.91
460.76	4657.67
460.94	4620.22
461.12	4767.67
461.31	4732.56
461.49	4664.69
461.67	4823.84
461.85	5053.22
462.04	4833.21
462.22	5062.58
462.40	4908.10
462.59	4854.27
462.77	4819.16
462.95	4840.23
463.13	4912.78
463.32	4882.36
463.50	4830.87
463.68	4894.06
463.86	4990.02
464.05	4767.67
464.23	4931.51
464.41	5102.37
464.59	4835.55
464.78	5144.50
464.96	5097.69
465.14	5097.69
465.32	4980.66
465.50	5235.78
465.69	5020.45
465.87	5062.58
466.05	5097.69
466.23	5174.92
466.41	5343.44
466.60	5219.39
466.78	5298.97
466.96	5036.83
467.14	5186.63
467.32	5350.46
467.51	5364.51
467.69	5287.27
467.87	5348.12
468.05	5420.68
468.23	5247.48
468.41	5345.78
468.60	5327.06
468.78	5348.12
468.96	5270.89
469.14	5401.96
469.32	5387.91
469.50	5502.60
469.69	5458.13
469.87	5638.35
470.05	5664.10
470.23	5572.82
470.41	5523.66
470.59	5458.13
470.77	5558.77
470.95	5603.24
471.14	5841.98
471.32	5387.91
471.50	5928.58
471.68	5706.23
471.86	5664.10
472.04	5837.30
472.22	5823.25
472.40	5633.67
472.58	5949.64
472.77	5872.40
472.95	5841.98
473.13	6134.54
473.31	6052.63
473.49	5851.34
473.67	5846.66
473.85	5951.98
474.03	6230.51
474.21	6050.28
474.39	6038.58
474.57	6284.34
474.75	6296.04
474.93	6420.09
475.12	6349.87
475.30	6317.11
475.48	6291.36
475.66	6551.16
475.84	6513.71
476.02	6466.90
476.20	6478.60
476.38	6546.48
476.56	6991.18
476.74	6939.69
476.92	6794.58
477.10	6642.44
477.28	6782.87
477.46	6768.83
477.64	6998.20
477.82	6946.71
478.00	7094.16
478.18	7105.87
478.36	7183.10
478.54	7171.40
478.72	7220.55
478.90	7344.60
479.08	7382.05
479.26	7494.40
479.44	7342.26
479.62	7669.94
479.80	7564.61
479.98	7669.94
480.16	7609.08
480.34	7665.25
480.52	8021.02
480.70	7894.63
480.88	7885.26
481.06	7871.22
481.24	7833.77
481.41	7854.84
481.59	8121.66
481.77	8304.22
481.95	8271.45
482.13	8280.82
482.31	8191.88
482.49	8573.38
482.67	8468.06
482.85	8538.27
483.03	8800.41
483.21	8753.60
483.39	8922.12
483.57	8772.33
483.74	8861.27
483.92	9046.17
484.10	8910.42
484.28	9298.95
484.46	9135.11
484.64	9600.88
484.82	9357.46
485.00	9549.39
485.18	9568.11
485.35	9600.88
485.53	9600.88
485.71	9757.69
485.89	9968.34
486.07	9717.90
486.25	9907.49
486.43	9888.76
486.61	10207.08
486.78	10171.97
486.96	10244.52
487.14	10452.83
487.32	10462.19
487.50	10221.12
487.68	10375.59
487.85	10817.96
488.03	10665.82
488.21	10808.59
488.39	11026.26
488.57	10949.03
488.75	11075.42
488.92	10960.73
489.10	11201.80
489.28	11199.46
489.46	11665.23
489.64	11363.30
489.81	11700.34
489.99	11634.80
490.17	11545.86
490.35	11754.17
490.53	11859.49
490.70	12229.30
490.88	12058.44
491.06	12201.21
491.24	11913.33
491.41	11995.25
491.59	12067.80
491.77	12430.59
491.95	12601.44
492.13	12430.59
492.30	12631.87
492.48	12599.10
492.66	12830.82
492.84	12741.88
493.01	13245.09
493.19	12999.34
493.37	12964.23
493.54	13165.51
493.72	13343.39
493.90	12802.73
494.08	13341.05
494.25	13479.15
494.43	13518.93
494.61	13834.91
494.79	13724.90
494.96	13509.57
495.14	13916.83
495.32	13996.40
495.49	14083.00
495.67	13956.61
495.85	14244.50
496.02	14181.31
496.20	14314.72
496.38	14211.73
496.55	14436.42
496.73	14787.50
496.91	14450.47
497.09	14743.03
497.26	14785.16
497.44	14801.55
497.62	14707.93
497.79	15166.67
497.97	15082.41
498.14	15220.50
498.32	15384.34
498.50	15442.85
498.67	15396.04
498.85	15529.45
499.03	15765.85
499.20	15461.58
499.38	15658.18
499.56	15681.59
499.73	15803.30
499.91	15625.42
500.08	15651.16
500.26	15807.98
500.44	15906.28
500.61	15943.73
500.79	15749.46
500.97	16093.52
501.14	16217.57
501.32	16444.60
501.49	16465.67
501.67	16521.84
501.84	16655.25
502.02	16589.72
502.20	16505.46
502.37	16744.19
502.55	16596.74
502.72	16814.41
502.90	16982.93
503.07	16699.72
503.25	16636.53
503.43	16886.97
503.60	17151.45
503.78	16978.25
503.95	17025.06
504.13	17167.83
504.30	17029.74
504.48	17181.87
504.65	17254.43
504.83	17357.41
505.01	17549.34
505.18	17500.19
505.36	17752.96
505.53	17238.05
505.71	17666.36
505.88	17877.01
506.06	17554.02
506.23	18017.44
506.41	17701.47
506.58	17900.42
506.76	17940.21
506.93	18122.77
507.11	17762.33
507.28	18223.41
507.46	18073.62
507.63	18202.35
507.81	18450.44
507.98	18192.98
508.16	18445.76
508.33	18525.34
508.50	18590.88
508.68	18487.89
508.85	18731.31
509.03	18876.42
509.20	18909.19
509.38	18792.16
509.55	18834.29
509.73	19089.41
509.90	18848.33
510.08	19145.58
510.25	18944.30
510.42	19007.49
510.60	19414.74
510.77	19264.95
510.95	19433.47
511.12	19384.32
511.30	19229.84
511.47	19508.37
511.64	19632.41
511.82	19763.48
511.99	19452.19
512.17	19704.97
512.34	19623.05
512.51	19733.06
512.69	19772.85
512.86	19971.79
513.04	20114.56
513.21	20446.92
513.38	20093.50
513.56	20252.66
513.73	20053.71
513.90	19960.09
514.08	19924.98
514.25	20238.61
514.43	20493.73
514.60	20212.87
514.77	20379.04
514.95	20533.52
515.12	20205.84
515.29	20304.15
515.47	20849.49
515.64	20851.83
515.81	20709.06
515.99	20985.24
516.16	21043.76
516.33	20786.30
516.51	20943.11
516.68	20882.26
516.85	20964.18
517.03	20889.28
517.20	21139.72
517.37	21348.03
517.54	21254.40
517.72	21181.85
517.89	21109.29
518.06	21319.94
518.24	21326.96
518.41	21397.18
518.58	21582.08
518.75	21399.52
518.93	21820.81
519.10	21727.19
519.27	21528.25
519.45	21902.73
519.62	21701.45
519.79	21848.90
519.96	21954.22
520.14	21923.80
520.31	21575.06
520.48	22085.30
520.65	21872.31
520.83	22309.99
521.00	21982.31
521.17	21923.80
521.34	22108.70
521.52	22555.74
521.69	22232.75
521.86	22450.42
522.03	22349.78
522.20	22455.10
522.38	22544.04
522.55	22766.39
522.72	22544.04
522.89	22455.10
523.07	22860.01
523.24	22773.41
523.41	22941.93
523.58	22707.88
523.75	23075.34
523.92	22864.69
524.10	22771.07
524.27	22963.00
524.44	23178.33
524.61	23110.45
524.78	22955.97
524.96	23325.78
525.13	23014.49
525.30	23594.94
525.47	23129.17
525.64	23330.46
525.81	23379.61
525.98	23672.18
526.16	23466.21
526.33	23623.03
526.50	23583.24
526.67	23606.64
526.84	23513.02
527.01	23257.90
527.18	23683.88
527.36	24116.88
527.53	23920.28
527.70	23915.59
527.87	24147.31
528.04	23889.85
528.21	24184.76
528.38	23880.49
528.55	24023.26
528.72	23988.15
528.89	23971.77
529.07	24123.90
529.24	24163.69
529.41	24276.04
529.58	24339.23
529.75	24226.89
529.92	24226.89
530.09	24161.35
530.26	24151.99
530.43	24606.05
530.60	24474.98
530.77	24119.22
530.94	24587.33
531.11	24381.36
531.28	24191.78
531.46	24599.03
531.63	24664.57
531.80	24727.76
531.97	25135.01
532.14	24627.12
532.31	25029.69
532.48	24781.59
532.65	24959.47
532.82	25025.01
532.99	25008.62
533.16	24882.24
533.33	25156.08
533.50	25249.70
533.67	25120.97
533.84	25294.17
534.01	25104.59
534.18	25287.15
534.35	25331.62
534.52	25191.19
534.69	25209.91
534.86	25549.29
535.03	25535.24
535.20	25383.11
535.37	25415.88
535.54	25362.04
535.71	25582.06
535.88	25348.00
536.05	25652.27
536.22	25923.77
536.38	25741.21
536.55	25996.33
536.72	25947.18
536.89	26040.80
537.06	25797.38
537.23	25874.62
537.40	25741.21
537.57	26197.62
537.74	25748.23
537.91	26190.59
538.08	26087.61
538.25	26216.34
538.42	26171.87
538.59	26457.42
538.75	26075.91
538.92	25984.63
539.09	26129.74
539.26	26597.85
539.43	26143.78
539.60	26354.43
539.77	26258.47
539.94	26553.38
540.11	26321.66
540.28	26412.95
540.44	26373.16
540.61	26239.75
540.78	26354.43
540.95	26445.71
541.12	26546.36
541.29	26604.87
541.46	26955.95
541.62	26831.90
541.79	26527.63
541.96	26558.06
542.13	26473.80
542.30	26878.71
542.47	26892.76
542.63	26969.99
542.80	26951.27
542.97	27194.68
543.14	27117.45
543.31	26941.91
543.48	27049.57
543.64	27194.68
543.81	27314.05
543.98	27372.57
544.15	27173.62
544.32	27648.75
544.48	27667.47
544.65	27281.28
544.82	27410.01
544.99	27051.91
545.16	27721.30
545.32	27585.55
545.49	27538.74
545.66	27817.27
545.83	27321.07
546.00	27536.40
546.16	27498.95
546.33	27735.35
546.50	27133.83
546.67	27697.90
546.83	27599.60
547.00	27964.72
547.17	27566.83
547.34	27864.08
547.50	28243.24
547.67	27847.69
547.84	28058.34
548.00	27924.93
548.17	28187.07
548.34	28013.87
548.51	28318.14
548.67	28311.12
548.84	28395.38
549.01	28311.12
549.18	28058.34
549.34	28283.03
549.51	28116.86
549.68	28304.10
549.84	28067.70
550.01	28198.77
550.18	28322.82
550.34	28308.78
550.51	28533.47
550.68	28500.70
550.84	28074.73
551.01	28458.57
551.18	28154.30
551.34	28411.76
551.51	28599.01
551.68	28381.34
551.84	28896.25
552.01	28608.37
552.18	28659.86
552.34	28751.14
552.51	28737.10
552.68	28638.80
552.84	28910.30
553.01	28886.89
553.18	28687.95
553.34	28807.31
553.51	28786.25
553.67	29350.32
553.84	29095.20
554.01	29130.31
554.17	28943.06
554.34	29071.79
554.51	28964.13
554.67	28844.76
554.84	29301.17
555.00	29041.37
555.17	29319.89
555.33	28989.88
555.50	29022.64
555.67	29252.02
555.83	29397.13
556.00	29436.92
556.16	29106.90
556.33	29039.03
556.50	29317.55
556.66	29392.45
556.83	29439.26
556.99	29722.46
557.16	29633.52
557.32	29551.60
557.49	29642.88
557.65	29165.42
557.82	29521.18
557.98	29282.44
558.15	29546.92
558.32	29661.61
558.48	29294.14
558.65	29624.16
558.81	29523.52
558.98	29647.57
559.14	29570.33
559.31	29504.79
559.47	29869.92
559.64	29762.25
559.80	30061.84
559.97	29406.49
560.13	29680.33
560.30	29736.51
560.46	29736.51
560.63	30148.44
560.79	29757.57
560.96	29923.75
561.12	29989.28
561.29	29764.59
561.45	29944.81
561.61	29879.28
561.78	29961.20
561.94	30017.37
562.11	30096.95
562.27	30071.20
562.44	30019.71
562.60	29790.34
562.77	29989.28
562.93	30038.44
563.10	30239.72
563.26	30141.42
563.42	30249.08
563.59	29968.22
563.75	30160.14
563.92	30218.66
564.08	29996.31
564.24	30038.44
564.41	30120.35
564.57	29954.18
564.74	29865.24
564.90	30015.03
565.07	30384.83
565.23	30298.23
565.39	30331.00
565.56	30256.11
565.72	30010.35
565.88	30471.43
566.05	30204.61
566.21	30274.83
566.38	30192.91
566.54	30225.68
566.70	30225.68
566.87	30775.70
567.03	30529.95
567.19	30911.46
567.36	30546.33
567.52	30036.09
567.68	30281.85
567.85	30279.51
568.01	30565.06
568.17	30190.57
568.34	30450.37
568.50	30338.02
568.66	30654.00
568.83	30855.28
568.99	30895.07
569.15	30553.35
569.32	30817.83
569.48	30333.34
569.64	30263.13
569.81	30146.10
569.97	30291.21
570.13	30651.66
570.30	30494.84
570.46	30728.89
570.62	30700.81
570.78	30286.53
570.95	30211.64
571.11	30579.10
571.27	30405.90
571.43	30396.54
571.60	30419.94
571.76	30651.66
571.92	30756.98
572.09	30555.69
572.25	30787.41
572.41	30780.39
572.57	30529.95
572.74	30768.68
572.90	30684.42
573.06	30590.80
573.22	30548.67
573.38	30529.95
573.55	30684.42
573.71	31213.38
573.87	31065.93
574.03	30590.80
574.20	30897.41
574.36	30705.49
574.52	30518.25
574.68	31033.16
574.84	31058.91
575.01	30845.92
575.17	30969.97
575.33	31061.25
575.49	30326.32
575.65	30981.67
575.82	30871.67
575.98	30874.01
576.14	30799.11
576.30	30745.28
576.46	30600.16
576.62	30574.42
576.79	30855.28
576.95	30661.02
577.11	30883.37
577.27	30874.01
577.43	30595.48
577.59	31129.12
577.75	30862.30
577.92	30766.34
578.08	30836.56
578.24	30761.66
578.40	30462.07
578.56	30909.11
578.72	30799.11
578.88	31199.34
579.04	31255.51
579.21	31103.38
579.37	31211.04
579.53	31211.04
579.69	30824.86
579.85	31185.30
580.01	31021.46
580.17	30913.80
580.33	30785.07
580.49	30918.48
580.65	30775.70
580.82	30976.99
580.98	31077.63
581.14	31178.28
581.30	30822.51
581.46	31087.00
581.62	31054.23
581.78	30883.37
581.94	30831.88
582.10	31098.70
582.26	31412.33
582.42	31005.08
582.58	31143.17
582.74	30948.90
582.90	31023.80
583.06	31496.59
583.22	31192.32
583.38	31098.70
583.54	30923.16
583.70	30843.58
583.86	30986.35
584.02	30897.41
584.18	30869.33
584.34	30967.63
584.50	31522.34
584.66	31115.08
584.82	31208.70
584.98	30677.40
585.14	31023.80
585.30	30897.41
585.46	31033.16
585.62	30974.65
585.78	31285.94
585.94	30972.31
586.10	31367.86
586.26	30946.56
586.42	31288.28
586.58	31466.16
586.74	31538.72
586.90	31138.49
587.06	31002.74
587.22	31211.04
587.38	30607.19
587.54	31370.20
587.70	31398.29
587.86	31042.53
588.02	31257.85
588.18	31791.50
588.34	31737.66
588.49	31257.85
588.65	31061.25
588.81	31096.36
588.97	31283.60
589.13	31096.36
589.29	31051.89
589.45	31178.28
589.61	31178.28
589.77	31302.32
589.93	31510.63
590.08	31487.23
590.24	31632.34
590.40	31772.77
590.56	31924.91
590.72	31342.11
590.88	31349.14
591.04	31087.00
591.20	31632.34
591.35	31686.17
591.51	32275.99
591.67	31512.97
591.83	31798.52
591.99	31873.42
