SpectraSuite Data File
++++++++++++++++++++++++++++++++++++
Date: Fri Oct 18 13:58:03 GMT-05:00 2013
User: bianchi
Dark Spectrum Present: No
Reference Spectrum Present: No
Number of Sampled Component Spectra: 1
Spectrometers: USB2+H05261
Integration Time (usec): 50000 (USB2+H05261)
Spectra Averaged: 1 (USB2+H05261)
Boxcar Smoothing: 0 (USB2+H05261)
Correct for Electrical Dark: No (USB2+H05261)
Strobe/Lamp Enabled: No (USB2+H05261)
Correct for Detector Non-linearity: No (USB2+H05261)
Correct for Stray Light: No (USB2+H05261)
Number of Pixels in Processed Spectrum: 2048
>>>>>Begin Processed Spectral Data<<<<<
365.73	0.00
365.92	0.00
366.12	0.00
366.32	0.00
366.52	0.00
366.72	0.00
366.91	0.00
367.11	0.00
367.31	0.00
367.51	0.00
367.70	0.00
367.90	0.00
368.10	0.00
368.30	0.00
368.49	0.00
368.69	0.00
368.89	0.00
369.09	0.00
369.28	0.00
369.48	0.00
369.68	0.00
369.87	0.00
370.07	0.00
370.27	0.00
370.47	0.00
370.66	42.13
370.86	91.28
371.06	196.60
371.25	161.50
371.45	145.11
371.65	177.88
371.84	117.03
372.04	112.35
372.24	112.35
372.44	236.39
372.63	187.24
372.83	184.90
373.03	217.67
373.22	215.33
373.42	114.69
373.62	184.90
373.81	142.77
374.01	163.84
374.21	269.16
374.40	229.37
374.60	276.18
374.79	259.80
374.99	283.20
375.19	212.99
375.38	269.16
375.58	201.29
375.78	227.03
375.97	287.89
376.17	297.25
376.37	236.39
376.56	250.44
376.76	264.48
376.95	292.57
377.15	269.16
377.35	278.52
377.54	280.86
377.74	231.71
377.93	243.42
378.13	278.52
378.33	266.82
378.52	257.46
378.72	212.99
378.91	278.52
379.11	290.23
379.31	238.73
379.50	327.68
379.70	285.55
379.89	297.25
380.09	236.39
380.28	304.27
380.48	332.36
380.68	332.36
380.87	362.78
381.07	283.20
381.26	395.55
381.46	332.36
381.65	304.27
381.85	379.17
382.04	271.50
382.24	353.42
382.43	327.68
382.63	334.70
382.83	330.02
383.02	353.42
383.22	395.55
383.41	322.99
383.61	339.38
383.80	311.29
384.00	379.17
384.19	393.21
384.39	334.70
384.58	388.53
384.78	320.65
384.97	407.25
385.17	334.70
385.36	437.68
385.56	430.66
385.75	374.49
385.95	409.59
386.14	388.53
386.34	376.83
386.53	379.17
386.72	418.96
386.92	362.78
387.11	397.89
387.31	435.34
387.50	407.25
387.70	411.93
387.89	421.30
388.09	442.36
388.28	435.34
388.48	402.57
388.67	470.45
388.86	409.59
389.06	437.68
389.25	425.98
389.45	451.72
389.64	517.26
389.84	463.43
390.03	437.68
390.22	407.25
390.42	433.00
390.61	454.06
390.81	404.91
391.00	486.83
391.19	526.62
391.39	470.45
391.58	433.00
391.78	517.26
391.97	559.39
392.16	557.05
392.36	645.99
392.55	622.58
392.75	559.39
392.94	617.90
393.13	580.45
393.33	477.47
393.52	552.37
393.71	519.60
393.91	594.50
394.10	585.13
394.29	664.71
394.49	608.54
394.68	629.60
394.88	561.73
395.07	578.11
395.26	559.39
395.46	629.60
395.65	603.86
395.84	671.73
396.04	653.01
396.23	709.18
396.42	648.33
396.62	713.86
396.81	650.67
397.00	648.33
397.19	627.26
397.39	676.41
397.58	660.03
397.77	606.20
397.97	664.71
398.16	643.65
398.35	685.78
398.55	704.50
398.74	674.07
398.93	741.95
399.12	758.33
399.32	685.78
399.51	770.04
399.70	709.18
399.90	837.91
400.09	744.29
400.28	746.63
400.47	681.10
400.67	840.25
400.86	774.72
401.05	793.44
401.24	807.48
401.44	795.78
401.63	767.70
401.82	828.55
402.01	802.80
402.21	798.12
402.40	882.38
402.59	861.32
402.78	816.85
402.97	896.43
403.17	954.94
403.36	924.51
403.55	847.27
403.74	823.87
403.93	863.66
404.13	929.19
404.32	947.92
404.51	912.81
404.70	957.28
404.89	903.45
405.09	1013.45
405.28	999.41
405.47	919.83
405.66	994.73
405.85	997.07
406.05	926.85
406.24	1039.20
406.43	1060.26
406.62	1043.88
406.81	1053.24
407.00	971.32
407.20	1043.88
407.39	1001.75
407.58	1018.13
407.77	1076.65
407.96	1093.03
408.15	1118.78
408.34	1032.18
408.54	1088.35
408.73	1203.04
408.92	1111.75
409.11	1048.56
409.30	1130.48
409.49	1139.84
409.68	1100.05
409.87	1025.15
410.07	1104.73
410.26	1186.65
410.45	1137.50
410.64	1205.38
410.83	1287.29
411.02	1196.01
411.21	1240.48
411.40	1217.08
411.59	1221.76
411.78	1329.42
411.98	1196.01
412.17	1306.02
412.36	1284.95
412.55	1266.23
412.74	1472.20
412.93	1423.05
413.12	1357.51
413.31	1334.11
413.50	1373.89
413.69	1439.43
413.88	1425.39
414.07	1479.22
414.26	1502.62
414.45	1451.13
414.64	1427.73
414.83	1554.12
415.02	1535.39
415.22	1549.43
415.41	1521.35
415.60	1577.52
415.79	1647.74
415.98	1713.27
416.17	1598.59
416.36	1481.56
416.55	1685.19
416.74	1694.55
416.93	1598.59
417.12	1673.48
417.31	1715.61
417.50	1657.10
417.69	1650.08
417.88	1734.34
418.07	1666.46
418.26	1870.09
418.45	1849.02
418.64	1834.98
418.83	1888.81
419.02	1802.21
419.21	1919.24
419.39	1750.72
419.58	1783.49
419.77	1842.00
419.96	1767.10
420.15	1970.73
420.34	1853.70
420.53	1816.26
420.72	2003.50
420.91	1823.28
421.10	1902.86
421.29	1968.39
421.48	1916.90
421.67	1928.60
421.86	1959.03
422.05	1942.64
422.24	1961.37
422.43	2040.95
422.61	2031.58
422.80	1989.46
422.99	2029.24
423.18	1975.41
423.37	2054.99
423.56	1984.77
423.75	2040.95
423.94	1963.71
424.13	1832.64
424.32	1856.04
424.50	2026.90
424.69	2122.87
424.88	2050.31
425.07	2038.61
425.26	2069.03
425.45	2172.02
425.64	2059.67
425.83	1991.80
426.01	2104.14
426.20	2054.99
426.39	2047.97
426.58	2033.93
426.77	2017.54
426.96	2071.37
427.15	2010.52
427.33	2169.68
427.52	2111.16
427.71	2099.46
427.90	2127.55
428.09	2090.10
428.28	2267.98
428.46	2239.89
428.65	2160.31
428.84	2223.51
429.03	2155.63
429.22	2139.25
429.40	2291.38
429.59	2197.76
429.78	2218.83
429.97	2129.89
430.16	2174.36
430.34	2321.81
430.53	2396.71
430.72	2431.82
430.91	2331.17
431.10	2307.77
431.28	2326.49
431.47	2427.14
431.66	2452.88
431.85	2321.81
432.03	2326.49
432.22	2473.95
432.41	2487.99
432.60	2483.31
432.79	2434.16
432.97	2527.78
433.16	2389.69
433.35	2385.01
433.54	2661.19
433.72	2504.37
433.91	2361.60
434.10	2574.59
434.28	2450.54
434.47	2448.20
434.66	2537.14
434.85	2583.95
435.03	2487.99
435.22	2670.55
435.41	2747.79
435.59	2539.48
435.78	2672.89
435.97	2583.95
436.16	2581.61
436.34	2656.51
436.53	2682.25
436.72	2773.53
436.90	2689.28
437.09	2740.77
437.28	2661.19
437.46	2609.70
437.65	2778.22
437.84	2892.90
438.02	2672.89
438.21	2806.30
438.40	2752.47
438.58	2874.18
438.77	2888.22
438.96	2953.76
439.14	2939.71
439.33	2946.73
439.52	3073.12
439.70	2815.66
439.89	3014.61
440.08	3045.04
440.26	2977.16
440.45	2972.48
440.63	3159.72
440.82	3215.90
441.01	3101.21
441.19	3178.45
441.38	3358.67
441.57	3265.05
441.75	3243.98
441.94	3307.18
442.12	3297.81
442.31	3368.03
442.50	3218.24
442.68	3225.26
442.87	3412.50
443.05	3335.26
443.24	3407.82
443.43	3300.16
443.61	3215.90
443.80	3375.05
443.98	3365.69
444.17	3248.66
444.35	3440.59
444.54	3454.63
444.73	3531.87
444.91	3466.33
445.10	3557.61
445.28	3337.60
445.47	3492.08
445.65	3487.40
445.84	3566.98
446.02	3506.12
446.21	3438.25
446.39	3377.39
446.58	3571.66
446.77	3520.17
446.95	3548.25
447.14	3536.55
447.32	3379.73
447.51	3623.15
447.69	3602.08
447.88	3531.87
448.06	3562.30
448.25	3421.86
448.43	3496.76
448.62	3522.51
448.80	3438.25
448.99	3623.15
449.17	3728.47
449.36	3536.55
449.54	3637.19
449.73	3728.47
449.91	3861.88
450.10	3684.00
450.28	3702.73
450.46	3772.94
450.65	3824.44
450.83	3726.13
451.02	3660.60
451.20	3744.86
451.39	3822.09
451.57	3749.54
451.76	3840.82
451.94	3747.20
452.13	3817.41
452.31	3854.86
452.49	3798.69
452.68	3880.61
452.86	3843.16
453.05	3854.86
453.23	4016.36
453.42	3775.28
453.60	3831.46
453.78	4044.45
453.97	3922.74
454.15	3941.46
454.34	3988.27
454.52	4025.72
454.70	4060.83
454.89	4077.21
455.07	4131.05
455.26	4004.66
455.44	4243.39
455.62	4028.06
455.81	4112.32
455.99	4234.03
456.17	4170.83
456.36	4184.88
456.54	4203.60
456.73	4205.94
456.91	4269.14
457.09	4159.13
457.28	4191.90
457.46	4259.78
457.64	4327.65
457.83	4372.12
458.01	4322.97
458.19	4564.04
458.38	4325.31
458.56	4372.12
458.74	4381.48
458.93	4451.70
459.11	4423.61
459.29	4468.08
459.48	4503.19
459.66	4493.83
459.84	4381.48
460.03	4531.28
460.21	4521.92
460.39	4463.40
460.57	4507.87
460.76	4456.38
460.94	4690.43
461.12	4575.75
461.31	4596.81
461.49	4526.60
461.67	4622.56
461.85	4786.40
462.04	4678.73
462.22	4971.30
462.40	4732.56
462.59	4716.18
462.77	4830.87
462.95	4894.06
463.13	4765.33
463.32	4723.20
463.50	4798.10
463.68	4936.19
463.86	4868.31
464.05	4819.16
464.23	4603.83
464.41	4922.15
464.59	4793.42
464.78	4983.00
464.96	4835.55
465.14	4805.12
465.32	5029.81
465.50	5107.05
465.69	5102.37
465.87	5039.17
466.05	4957.25
466.23	5130.45
466.41	5060.24
466.60	5193.65
466.78	5069.60
466.96	4968.96
467.14	5011.09
467.32	5142.16
467.51	5184.29
467.69	5083.64
467.87	5097.69
468.05	5165.56
468.23	5064.92
468.41	5179.61
468.60	5036.83
468.78	5303.65
468.96	5174.92
469.14	5495.58
469.32	5430.04
469.50	5132.79
469.69	5518.98
469.87	5441.75
470.05	5476.85
470.23	5486.22
470.41	5387.91
470.59	5352.81
470.77	5479.19
470.95	5458.13
471.14	5572.82
471.32	5462.81
471.50	5570.48
471.68	5600.90
471.86	5584.52
472.04	5479.19
472.22	5837.30
472.40	5701.54
472.58	5804.53
472.77	5678.14
472.95	5863.04
473.13	5970.71
473.31	5760.06
473.49	5755.38
473.67	5736.65
473.85	6012.84
474.03	6001.13
474.21	5954.32
474.39	5956.66
474.57	6171.99
474.75	6066.67
474.93	6181.35
475.12	6143.91
475.30	6225.82
475.48	6195.40
475.66	6590.95
475.84	6340.51
476.02	6317.11
476.20	6487.96
476.38	6502.01
476.56	6597.97
476.74	6494.99
476.92	6487.96
477.10	6640.10
477.28	6693.93
477.46	6717.34
477.64	6647.12
477.82	6796.92
478.00	6832.02
478.18	6972.46
478.36	7063.74
478.54	7082.46
478.72	6862.45
478.90	7129.27
479.08	7133.95
479.26	7452.27
479.44	7293.11
479.62	7229.91
479.80	7187.79
479.98	7478.01
480.16	7602.06
480.34	7487.37
480.52	7620.78
480.70	7623.12
480.88	7581.00
481.06	7662.91
481.24	7618.44
481.41	7843.14
481.59	7971.86
481.77	7957.82
481.95	8037.40
482.13	8067.83
482.31	8030.38
482.49	8294.86
482.67	8226.98
482.85	8290.18
483.03	8404.86
483.21	8631.90
483.39	8652.96
483.57	8482.10
483.74	8739.56
483.92	8713.81
484.10	8589.77
484.28	8971.27
484.46	8929.14
484.64	9006.38
484.82	9104.68
485.00	9076.60
485.18	9228.73
485.35	9399.59
485.53	9373.85
485.71	9385.55
485.89	9778.76
486.07	9481.51
486.25	9607.90
486.43	9682.80
486.61	9816.21
486.78	10190.69
486.96	10134.52
487.14	10036.22
487.32	10190.69
487.50	10178.99
487.68	10188.35
487.85	10354.53
488.03	10450.49
488.21	10520.71
488.39	10272.61
488.57	10773.49
488.75	10736.04
488.92	10857.75
489.10	11225.21
489.28	11014.56
489.46	11150.31
489.64	11267.34
489.81	11428.84
489.99	11358.62
490.17	11293.08
490.35	11447.56
490.53	11449.90
490.70	11456.92
490.88	11463.94
491.06	11826.73
491.24	11779.92
491.41	11803.32
491.59	12086.53
491.77	12121.63
491.95	12123.98
492.13	12147.38
492.30	12205.89
492.48	12409.52
492.66	12290.15
492.84	12540.59
493.01	12446.97
493.19	12575.70
493.37	12968.91
493.54	12837.84
493.72	12725.49
493.90	13069.55
494.08	13015.72
494.25	12915.08
494.43	13160.83
494.61	13198.28
494.79	13289.56
494.96	13380.84
495.14	13467.44
495.32	13504.89
495.49	13460.42
495.67	13654.69
495.85	13905.12
496.02	13792.78
496.20	13916.83
496.38	13968.32
496.55	13862.99
496.73	14324.08
496.91	13956.61
497.09	14298.33
497.26	14293.65
497.44	14286.63
497.62	14621.33
497.79	14618.99
497.97	14492.60
498.14	14740.69
498.32	14878.79
498.50	14834.32
498.67	14991.13
498.85	14761.76
499.03	15073.05
499.20	15248.59
499.38	15435.83
499.56	15183.06
499.73	15204.12
499.91	15496.69
500.08	15630.10
500.26	15154.97
500.44	15644.14
500.61	15674.57
500.79	15283.70
500.97	15501.37
501.14	15744.78
501.32	16046.71
501.49	15723.72
501.67	15983.52
501.84	16095.86
502.02	15910.96
502.20	16091.18
502.37	16154.38
502.55	16379.07
502.72	16119.27
502.90	16123.95
503.07	16180.12
503.25	16182.46
503.43	16369.71
503.60	16507.80
503.78	16760.58
503.95	16706.74
504.13	16835.47
504.30	16540.57
504.48	16781.64
504.65	16812.07
504.83	16915.05
505.01	17231.02
505.18	16992.29
505.36	17207.62
505.53	17160.81
505.71	17097.61
505.88	17205.28
506.06	17025.06
506.23	17006.33
506.41	17287.20
506.58	17523.59
506.76	17380.82
506.93	17387.84
507.11	17486.14
507.28	17259.11
507.46	17717.86
507.63	17692.11
507.81	18104.04
507.98	17881.69
508.16	17961.27
508.33	17820.84
508.50	17797.43
508.68	18169.58
508.85	18176.60
509.03	18036.17
509.20	18415.34
509.38	18455.12
509.55	18209.37
509.73	18310.01
509.90	18450.44
510.08	18150.85
510.25	18733.65
510.42	18525.34
510.60	18541.72
510.77	18867.06
510.95	18747.69
511.12	18703.22
511.30	18867.06
511.47	18934.93
511.64	18902.17
511.82	19133.88
511.99	19173.67
512.17	19466.24
512.34	18918.55
512.51	19351.55
512.69	19295.38
512.86	19101.11
513.04	19447.51
513.21	19594.96
513.38	19695.61
513.56	19580.92
513.73	19641.78
513.90	19339.85
514.08	19515.39
514.25	19683.91
514.43	19704.97
514.60	19606.67
514.77	19606.67
514.95	20098.18
515.12	19922.64
515.29	19747.10
515.47	20233.93
515.64	20383.73
515.81	20217.55
515.99	20222.23
516.16	20409.47
516.33	20645.87
516.51	20582.67
516.68	20486.71
516.85	20184.78
517.03	20617.78
517.20	20751.19
517.37	20627.14
517.54	20980.56
517.72	20786.30
517.89	20533.52
518.06	20776.94
518.24	20645.87
518.41	20713.74
518.58	20877.58
518.75	20615.44
518.93	20987.58
519.10	20891.62
519.27	21078.86
519.45	21088.23
519.62	21273.13
519.79	20964.18
519.96	20996.95
520.14	21149.08
520.31	21436.97
520.48	21549.31
520.65	21710.81
520.83	21364.41
521.00	21537.61
521.17	21443.99
521.34	21032.05
521.52	21666.34
521.69	21888.69
521.86	21699.11
522.03	21916.78
522.20	22001.04
522.38	21825.50
522.55	22031.46
522.72	22104.02
522.89	21717.83
523.07	22352.12
523.24	21928.48
523.41	22778.09
523.58	22045.51
523.75	22223.39
523.92	22232.75
524.10	22148.49
524.27	22508.93
524.44	22544.04
524.61	22778.09
524.78	22845.97
524.96	22775.75
525.13	22831.93
525.30	22483.19
525.47	23033.21
525.64	23014.49
525.81	22632.98
525.98	22644.68
526.16	22927.89
526.33	22686.81
526.50	23180.67
526.67	22757.03
526.84	22902.14
527.01	22934.91
527.18	23122.15
527.36	22923.21
527.53	23302.37
527.70	23508.34
527.87	23337.48
528.04	23384.29
528.21	23435.78
528.38	23173.64
528.55	23534.09
528.72	23562.17
528.89	23555.15
529.07	23527.06
529.24	23314.08
529.41	23676.86
529.58	23365.57
529.75	23653.45
529.92	23557.49
530.09	23967.09
530.26	23686.22
530.43	24135.60
530.60	23723.67
530.77	23550.47
530.94	23604.30
531.11	23686.22
531.28	24032.62
531.46	23838.36
531.63	24156.67
531.80	24524.13
531.97	24149.65
532.14	24397.74
532.31	24219.86
532.48	24261.99
532.65	24123.90
532.82	23939.00
532.99	24610.73
533.16	24526.47
533.33	24875.21
533.50	24589.67
533.67	24409.45
533.84	24840.11
534.01	24608.39
534.18	24130.92
534.35	24830.74
534.52	24533.50
534.69	24652.86
534.86	24732.44
535.03	24669.25
535.20	24788.61
535.37	25008.62
535.54	24950.11
535.71	24826.06
535.88	24849.47
536.05	25212.25
536.22	25102.25
536.38	25427.58
536.55	25242.68
536.72	25057.78
536.89	25280.13
537.06	25170.12
537.23	24999.26
537.40	25205.23
537.57	25067.14
537.74	25254.38
537.91	25575.03
538.08	25151.40
538.25	25338.64
538.42	25692.06
538.59	25528.22
538.75	25371.41
538.92	25277.79
539.09	25516.52
539.26	25605.46
539.43	25759.94
539.60	25617.16
539.77	25418.22
539.94	25607.80
540.11	25752.91
540.28	25523.54
540.44	25675.68
540.61	25879.30
540.78	25425.24
540.95	25855.90
541.12	25738.87
541.29	25624.18
541.46	25841.85
541.62	25663.97
541.79	25879.30
541.96	25507.16
542.13	25816.11
542.30	26178.89
542.47	26288.90
542.63	26370.82
542.80	26214.00
542.97	26749.98
543.14	26742.96
543.31	26279.54
543.48	26434.01
543.64	26548.70
543.81	26728.92
543.98	26691.47
544.15	26764.03
544.32	26607.21
544.48	26857.65
544.65	26654.02
544.82	26916.16
544.99	26586.15
545.16	26714.87
545.32	26595.51
545.49	26977.01
545.66	26771.05
545.83	26642.32
546.00	27190.00
546.16	26977.01
546.33	26927.86
546.50	26679.77
546.67	27037.87
546.83	26546.36
547.00	26984.04
547.17	27283.62
547.34	27215.75
547.50	27297.67
547.67	27580.87
547.84	26909.14
548.00	27274.26
548.17	27239.15
548.34	27215.75
548.51	27391.29
548.67	27454.48
548.84	27498.95
549.01	27578.53
549.18	27398.31
549.34	27201.71
549.51	27576.19
549.68	27300.01
549.84	27168.94
550.01	27641.73
550.18	27524.70
550.34	27398.31
550.51	27868.76
550.68	27793.86
550.84	27665.13
551.01	27742.37
551.18	27452.14
551.34	27725.99
551.51	27946.00
551.68	27927.27
551.84	28020.89
552.01	27845.35
552.18	27943.66
552.34	27707.26
552.51	28030.26
552.68	27714.28
552.84	28041.96
553.01	28020.89
553.18	27578.53
553.34	27857.06
553.51	28161.33
553.67	28229.20
553.84	28343.89
554.01	28414.10
554.17	28294.74
554.34	28006.85
554.51	27590.24
554.67	28034.94
554.84	28435.17
555.00	28222.18
555.17	28299.42
555.33	28371.97
555.50	28257.29
555.67	28568.58
555.83	28535.81
556.00	28379.00
556.16	28811.99
556.33	28491.34
556.50	28577.94
556.66	28496.02
556.83	28376.66
556.99	28926.68
557.16	28793.27
557.32	28458.57
557.49	28470.28
557.65	28301.76
557.82	28463.25
557.98	28613.05
558.15	28407.08
558.32	28800.29
558.48	28414.10
558.65	28676.24
558.81	28711.35
558.98	28823.70
559.14	28856.46
559.31	28924.34
559.47	28432.83
559.64	28355.59
559.80	28659.86
559.97	28950.09
560.13	28896.25
560.30	28851.78
560.46	28931.36
560.63	28905.62
560.79	29020.30
560.96	28891.57
561.12	28879.87
561.29	28774.55
561.45	29120.95
561.61	29174.78
561.78	28638.80
561.94	29146.69
562.11	29111.58
562.27	29151.37
562.44	28943.06
562.60	29083.50
562.77	28849.44
562.93	28816.68
563.10	29151.37
563.26	29001.58
563.42	29446.28
563.59	29223.93
563.75	29193.50
563.92	28968.81
564.08	29406.49
564.24	29376.06
564.41	29113.92
564.57	29104.56
564.74	29127.97
564.90	29457.98
565.07	29146.69
565.23	29586.71
565.39	29502.45
565.56	29472.03
565.72	29443.94
565.88	29493.09
566.05	29528.20
566.21	28961.79
566.38	29088.18
566.54	29338.62
566.70	29818.42
566.87	29371.38
567.03	29539.90
567.19	29724.80
567.36	29436.92
567.52	29874.60
567.68	29462.66
567.85	29340.96
568.01	29383.09
568.17	29546.92
568.34	29551.60
568.50	29481.39
568.66	29633.52
568.83	29694.38
568.99	29549.26
569.15	29715.44
569.32	29249.67
569.48	29465.00
569.64	29542.24
569.81	29450.96
569.97	29252.02
570.13	29942.47
570.30	29570.33
570.46	29867.58
570.62	30183.55
570.78	29507.13
570.95	29291.80
571.11	29457.98
571.27	29191.16
571.43	29605.44
571.60	29804.38
571.76	29474.37
571.92	29865.24
572.09	29469.69
572.25	29804.38
572.41	30075.88
572.57	29888.64
572.74	29745.87
572.90	29481.39
573.06	29521.18
573.22	29834.81
573.38	29701.40
573.55	29771.61
573.71	30209.29
573.87	30024.39
574.03	29675.65
574.20	29841.83
574.36	29769.27
574.52	29745.87
574.68	29710.76
574.84	29635.86
575.01	30368.45
575.17	29956.52
575.33	29315.21
575.49	30012.69
575.65	30132.06
575.82	30068.86
575.98	29788.00
576.14	30132.06
576.30	29837.15
576.46	29802.04
576.62	29483.73
576.79	30040.78
576.95	30202.27
577.11	29970.56
577.27	29830.13
577.43	30270.15
577.59	29914.39
577.75	29869.92
577.92	29680.33
578.08	29792.68
578.24	29607.78
578.40	29855.87
578.56	29865.24
578.72	30242.06
578.88	30422.28
579.04	30260.79
579.21	29626.50
579.37	30064.18
579.53	30628.25
579.69	29476.71
579.85	30118.01
580.01	29890.98
580.17	29570.33
580.33	29893.32
580.49	30057.16
580.65	30052.48
580.82	29804.38
580.98	30218.66
581.14	30274.83
581.30	30068.86
581.46	29979.92
581.62	30054.82
581.78	29937.79
581.94	29907.37
582.10	29694.38
582.26	30099.29
582.42	29998.65
582.58	30429.30
582.74	30078.22
582.90	30230.36
583.06	30375.47
583.22	30223.34
583.38	30061.84
583.54	30377.81
583.70	30059.50
583.86	30033.75
584.02	29989.28
584.18	30270.15
584.34	30459.73
584.50	30122.69
584.66	29881.62
584.82	30031.41
584.98	30221.00
585.14	30078.22
585.30	29839.49
585.46	30038.44
585.62	29984.60
585.78	29762.25
585.94	29933.11
586.10	30061.84
586.26	29872.26
586.42	30473.78
586.58	30279.51
586.74	29998.65
586.90	30192.91
587.06	29937.79
587.22	30073.54
587.38	29921.41
587.54	30101.63
587.70	30686.76
587.86	30429.30
588.02	30443.35
588.18	30415.26
588.34	30326.32
588.49	30174.19
588.65	30642.29
588.81	30480.80
588.97	30270.15
589.13	30539.31
589.29	29694.38
589.45	30323.98
589.61	30749.96
589.77	30728.89
589.93	30106.31
590.08	30206.95
590.24	30384.83
590.40	30382.49
590.56	30672.72
590.72	30499.52
590.88	30160.14
591.04	29940.13
591.20	30408.24
591.35	30675.06
591.51	30567.40
591.67	30899.75
591.83	30813.15
591.99	30396.54
