SpectraSuite Data File
++++++++++++++++++++++++++++++++++++
Date: Fri Oct 18 13:58:38 GMT-05:00 2013
User: bianchi
Dark Spectrum Present: No
Reference Spectrum Present: No
Number of Sampled Component Spectra: 1
Spectrometers: USB2+H05261
Integration Time (usec): 50000 (USB2+H05261)
Spectra Averaged: 1 (USB2+H05261)
Boxcar Smoothing: 0 (USB2+H05261)
Correct for Electrical Dark: No (USB2+H05261)
Strobe/Lamp Enabled: No (USB2+H05261)
Correct for Detector Non-linearity: No (USB2+H05261)
Correct for Stray Light: No (USB2+H05261)
Number of Pixels in Processed Spectrum: 2048
>>>>>Begin Processed Spectral Data<<<<<
365.73	0.00
365.92	0.00
366.12	0.00
366.32	0.00
366.52	0.00
366.72	0.00
366.91	0.00
367.11	0.00
367.31	0.00
367.51	0.00
367.70	0.00
367.90	0.00
368.10	0.00
368.30	0.00
368.49	0.00
368.69	0.00
368.89	0.00
369.09	0.00
369.28	0.00
369.48	0.00
369.68	0.00
369.87	0.00
370.07	0.00
370.27	0.00
370.47	0.00
370.66	135.75
370.86	140.43
371.06	140.43
371.25	124.05
371.45	222.35
371.65	201.29
371.84	133.41
372.04	133.41
372.24	161.50
372.44	173.20
372.63	156.82
372.83	224.69
373.03	227.03
373.22	212.99
373.42	205.97
373.62	189.58
373.81	222.35
374.01	163.84
374.21	198.95
374.40	182.56
374.60	315.97
374.79	264.48
374.99	205.97
375.19	224.69
375.38	287.89
375.58	344.06
375.78	292.57
375.97	306.61
376.17	238.73
376.37	238.73
376.56	266.82
376.76	332.36
376.95	280.86
377.15	252.78
377.35	248.10
377.54	297.25
377.74	273.84
377.93	238.73
378.13	273.84
378.33	257.46
378.52	311.29
378.72	299.59
378.91	238.73
379.11	276.18
379.31	346.40
379.50	292.57
379.70	262.14
379.89	308.95
380.09	243.42
380.28	330.02
380.48	243.42
380.68	292.57
380.87	294.91
381.07	358.10
381.26	374.49
381.46	334.70
381.65	280.86
381.85	334.70
382.04	320.65
382.24	369.80
382.43	355.76
382.63	241.08
382.83	285.55
383.02	278.52
383.22	341.72
383.41	374.49
383.61	379.17
383.80	397.89
384.00	379.17
384.19	425.98
384.39	425.98
384.58	388.53
384.78	369.80
384.97	372.15
385.17	306.61
385.36	418.96
385.56	402.57
385.75	365.12
385.95	390.87
386.14	421.30
386.34	372.15
386.53	414.27
386.72	355.76
386.92	430.66
387.11	355.76
387.31	416.62
387.50	393.21
387.70	437.68
387.89	435.34
388.09	346.40
388.28	498.53
388.48	451.72
388.67	470.45
388.86	440.02
389.06	416.62
389.25	491.51
389.45	369.80
389.64	461.09
389.84	433.00
390.03	468.11
390.22	521.94
390.42	498.53
390.61	484.49
390.81	449.38
391.00	482.15
391.19	472.79
391.39	458.74
391.58	512.58
391.78	461.09
391.97	524.28
392.16	507.90
392.36	531.30
392.55	599.18
392.75	514.92
392.94	524.28
393.13	543.00
393.33	554.71
393.52	575.77
393.71	606.20
393.91	580.45
394.10	538.32
394.29	510.24
394.49	533.64
394.68	624.92
394.88	547.69
395.07	599.18
395.26	531.30
395.46	660.03
395.65	571.09
395.84	582.79
396.04	669.39
396.23	596.84
396.42	627.26
396.62	657.69
396.81	587.47
397.00	568.75
397.19	702.16
397.39	669.39
397.58	699.82
397.77	664.71
397.97	692.80
398.16	629.60
398.35	589.82
398.55	688.12
398.74	631.94
398.93	779.40
399.12	653.01
399.32	718.54
399.51	718.54
399.70	613.22
399.90	678.76
400.09	629.60
400.28	786.42
400.47	711.52
400.67	842.59
400.86	781.74
401.05	695.14
401.24	819.19
401.44	880.04
401.63	767.70
401.82	767.70
402.01	763.01
402.21	763.01
402.40	854.30
402.59	777.06
402.78	760.67
402.97	880.04
403.17	826.21
403.36	898.77
403.55	896.43
403.74	1015.79
403.93	849.61
404.13	809.83
404.32	866.00
404.51	922.17
404.70	887.06
404.89	889.40
405.09	959.62
405.28	964.30
405.47	971.32
405.66	950.26
405.85	957.28
406.05	933.87
406.24	884.72
406.43	933.87
406.62	1078.99
406.81	1004.09
407.00	1025.15
407.20	959.62
407.39	983.02
407.58	1039.20
407.77	1006.43
407.96	1100.05
408.15	1053.24
408.34	1109.41
408.54	1081.33
408.73	1004.09
408.92	1057.92
409.11	1067.28
409.30	1060.26
409.49	1121.12
409.68	1128.14
409.87	1128.14
410.07	1139.84
410.26	1193.67
410.45	1160.91
410.64	1165.59
410.83	1186.65
411.02	1193.67
411.21	1207.72
411.40	1287.29
411.59	1310.70
411.78	1172.61
411.98	1142.18
412.17	1299.00
412.36	1273.25
412.55	1203.04
412.74	1348.15
412.93	1310.70
413.12	1343.47
413.31	1397.30
413.50	1387.94
413.69	1345.81
413.88	1348.15
414.07	1371.55
414.26	1434.75
414.45	1378.58
414.64	1425.39
414.83	1430.07
415.02	1526.03
415.22	1497.94
415.41	1584.54
415.60	1500.28
415.79	1504.96
415.98	1540.07
416.17	1558.80
416.36	1572.84
416.55	1626.67
416.74	1530.71
416.93	1516.67
417.12	1633.69
417.31	1598.59
417.50	1682.85
417.69	1708.59
417.88	1701.57
418.07	1706.25
418.26	1713.27
418.45	1764.76
418.64	1825.62
418.83	1778.81
419.02	1724.97
419.21	1750.72
419.39	1703.91
419.58	1797.53
419.77	1856.04
419.96	1830.30
420.15	1827.96
420.34	1776.47
420.53	1888.81
420.72	1865.41
420.91	1907.54
421.10	1961.37
421.29	2022.22
421.48	1949.67
421.67	1923.92
421.86	1977.75
422.05	2085.42
422.24	1923.92
422.43	1926.26
422.61	1912.22
422.80	2040.95
422.99	2024.56
423.18	1912.22
423.37	2129.89
423.56	1968.39
423.75	1973.07
423.94	1930.94
424.13	2003.50
424.32	1952.01
424.50	2092.44
424.69	1984.77
424.88	2090.10
425.07	1970.73
425.26	2026.90
425.45	1987.11
425.64	2125.21
425.83	2029.24
426.01	2038.61
426.20	2022.22
426.39	1975.41
426.58	1994.14
426.77	2026.90
426.96	2104.14
427.15	2113.50
427.33	2036.27
427.52	2029.24
427.71	2125.21
427.90	2134.57
428.09	2249.25
428.28	2197.76
428.46	2157.97
428.65	2174.36
428.84	2209.47
429.03	2279.68
429.22	2225.85
429.40	2174.36
429.59	2078.40
429.78	2251.60
429.97	2190.74
430.16	2148.61
430.34	2389.69
430.53	2228.19
430.72	2289.04
430.91	2176.70
431.10	2333.51
431.28	2342.88
431.47	2319.47
431.66	2335.85
431.85	2314.79
432.03	2438.84
432.22	2413.09
432.41	2490.33
432.60	2555.86
432.79	2310.11
432.97	2300.75
433.16	2459.90
433.35	2513.74
433.54	2502.03
433.72	2485.65
433.91	2469.27
434.10	2509.05
434.28	2459.90
434.47	2520.76
434.66	2647.15
434.85	2513.74
435.03	2562.89
435.22	2452.88
435.41	2560.55
435.59	2640.12
435.78	2555.86
435.97	2640.12
436.16	2644.81
436.34	2626.08
436.53	2829.71
436.72	2684.59
436.90	2729.06
437.09	2792.26
437.28	2698.64
437.46	2703.32
437.65	2743.11
437.84	2796.94
438.02	2750.13
438.21	2647.15
438.40	2647.15
438.58	2967.80
438.77	2878.86
438.96	2773.53
439.14	2895.24
439.33	2815.66
439.52	2932.69
439.70	2911.63
439.89	3021.63
440.08	3028.65
440.26	3045.04
440.45	3030.99
440.63	2951.42
440.82	3035.67
441.01	3035.67
441.19	3066.10
441.38	3157.38
441.57	3262.71
441.75	3222.92
441.94	3213.56
442.12	3281.43
442.31	3236.96
442.50	3173.77
442.68	3138.66
442.87	3199.51
443.05	3311.86
443.24	3442.93
443.43	3419.52
443.61	3414.84
443.80	3459.31
443.98	3447.61
444.17	3321.22
444.35	3442.93
444.54	3454.63
444.73	3520.17
444.91	3309.52
445.10	3468.67
445.28	3405.48
445.47	3382.07
445.65	3323.56
445.84	3473.36
446.02	3499.10
446.21	3412.50
446.39	3447.61
446.58	3471.01
446.77	3372.71
446.95	3461.65
447.14	3365.69
447.32	3611.45
447.51	3492.08
447.69	3538.89
447.88	3503.78
448.06	3379.73
448.25	3438.25
448.43	3461.65
448.62	3393.78
448.80	3428.88
448.99	3541.23
449.17	3592.72
449.36	3475.70
449.54	3583.36
449.73	3700.39
449.91	3740.18
450.10	3758.90
450.28	3716.77
450.46	3658.26
450.65	3737.84
450.83	3613.79
451.02	3698.05
451.20	3763.58
451.39	3873.59
451.57	3796.35
451.76	3669.96
451.94	3728.47
452.13	3772.94
452.31	3908.69
452.49	3922.74
452.68	3794.01
452.86	3873.59
453.05	3866.56
453.23	3957.85
453.42	3698.05
453.60	3728.47
453.78	3817.41
453.97	3756.56
454.15	3798.69
454.34	3789.33
454.52	3882.95
454.70	3943.80
454.89	4028.06
455.07	3873.59
455.26	3880.61
455.44	4191.90
455.62	4039.76
455.81	4093.60
455.99	4133.39
456.17	4229.35
456.36	4180.20
456.54	4147.43
456.73	4091.26
456.91	4351.06
457.09	4135.73
457.28	4311.27
457.46	4208.28
457.64	4224.67
457.83	4278.50
458.01	4175.52
458.19	4400.21
458.38	4140.41
458.56	4475.10
458.74	4393.19
458.93	4294.88
459.11	4514.89
459.29	4353.40
459.48	4423.61
459.66	4437.66
459.84	4278.50
460.03	4542.98
460.21	4484.47
460.39	4510.21
460.57	4557.02
460.76	4447.02
460.94	4587.45
461.12	4585.11
461.31	4596.81
461.49	4465.74
461.67	4580.43
461.85	4631.92
462.04	4657.67
462.22	4629.58
462.40	4631.92
462.59	4690.43
462.77	4802.78
462.95	4788.74
463.13	4650.64
463.32	4765.33
463.50	4777.03
463.68	4636.60
463.86	4844.91
464.05	4751.29
464.23	4793.42
464.41	4772.35
464.59	4748.95
464.78	4966.62
464.96	4985.34
465.14	4739.58
465.32	4880.02
465.50	4973.64
465.69	4919.81
465.87	4983.00
466.05	4849.59
466.23	4966.62
466.41	5027.47
466.60	5006.41
466.78	4868.31
466.96	4966.62
467.14	4889.38
467.32	5074.28
467.51	5025.13
467.69	4908.10
467.87	5116.41
468.05	4898.74
468.23	5090.67
468.41	5022.79
468.60	5097.69
468.78	5177.26
468.96	5078.96
469.14	5121.09
469.32	5193.65
469.50	5158.54
469.69	5373.87
469.87	5434.72
470.05	5416.00
470.23	5310.68
470.41	5350.46
470.59	5362.17
470.77	5301.31
470.95	5518.98
471.14	5533.03
471.32	5434.72
471.50	5596.22
471.68	5518.98
471.86	5582.18
472.04	5584.52
472.22	5731.97
472.40	5621.97
472.58	5593.88
472.77	5671.12
472.95	5753.04
473.13	6031.56
473.31	5685.16
473.49	5671.12
473.67	5921.56
473.85	5930.92
474.03	5774.10
474.21	5729.63
474.39	5963.68
474.57	5907.51
474.75	6097.10
474.93	6186.04
475.12	6134.54
475.30	6090.07
475.48	6150.93
475.66	6349.87
475.84	6211.78
476.02	6094.76
476.20	6118.16
476.38	6548.82
476.56	6576.91
476.74	6513.71
476.92	6422.43
477.10	6487.96
477.28	6834.36
477.46	6698.61
477.64	6511.37
477.82	6654.14
478.00	6780.53
478.18	6930.33
478.36	6731.38
478.54	6729.04
478.72	6885.86
478.90	6965.43
479.08	6860.11
479.26	7382.05
479.44	7110.55
479.62	7204.17
479.80	7239.28
479.98	7424.18
480.16	7576.31
480.34	7412.48
480.52	7368.01
480.70	7487.37
480.88	7403.11
481.06	7581.00
481.24	7527.16
481.41	7782.28
481.59	7850.16
481.77	7906.33
481.95	7882.92
482.13	8226.98
482.31	8226.98
482.49	8114.64
482.67	8023.36
482.85	8145.06
483.03	8458.70
483.21	8519.55
483.39	8390.82
483.57	8517.21
483.74	8582.74
483.92	8709.13
484.10	8564.02
484.28	8800.41
484.46	9027.45
484.64	8978.30
484.82	8795.73
485.00	9102.34
485.18	9214.69
485.35	9551.73
485.53	9336.40
485.71	9350.44
485.89	9591.52
486.07	9612.58
486.25	9280.22
486.43	9476.83
486.61	9521.30
486.78	9753.01
486.96	9820.89
487.14	10052.60
487.32	9966.00
487.50	10022.17
487.68	10260.91
487.85	10413.04
488.03	10260.91
488.21	10747.74
488.39	10434.11
488.57	10668.16
488.75	10569.86
488.92	10820.30
489.10	10719.65
489.28	10806.25
489.46	11021.58
489.64	10848.38
489.81	11241.59
489.99	11049.67
490.17	10977.11
490.35	11318.83
490.53	11281.38
490.70	11506.07
490.88	11297.77
491.06	11735.45
491.24	11524.80
491.41	11744.81
491.59	11735.45
491.77	11866.52
491.95	12039.72
492.13	12077.16
492.30	12170.79
492.48	12360.37
492.66	12233.98
492.84	12198.87
493.01	12276.11
493.19	12566.34
493.37	12666.98
493.54	12383.77
493.72	12746.56
493.90	12594.42
494.08	12762.94
494.25	12961.89
494.43	12713.79
494.61	13186.58
494.79	13064.87
494.96	13350.42
495.14	13415.95
495.32	13263.82
495.49	13357.44
495.67	13556.38
495.85	13708.52
496.02	13652.34
496.20	13673.41
496.38	13645.32
496.55	13696.82
496.73	14005.77
496.91	13935.55
497.09	14279.61
497.26	14031.51
497.44	14246.84
497.62	14132.15
497.79	14523.02
497.97	14345.14
498.14	14237.48
498.32	14941.98
498.50	14668.14
498.67	14913.89
498.85	14670.48
499.03	14883.47
499.20	14766.44
499.38	14939.64
499.56	14918.57
499.73	15110.50
499.91	15152.63
500.08	15194.76
500.26	15094.11
500.44	15206.46
500.61	15351.57
500.79	15166.67
500.97	15335.19
501.14	15864.15
501.32	15538.82
501.49	15609.03
501.67	15791.59
501.84	15655.84
502.02	15576.27
502.20	16042.03
502.37	15901.60
502.55	16123.95
502.72	16049.05
502.90	15985.86
503.07	16093.52
503.25	16100.55
503.43	16180.12
503.60	16418.86
503.78	16086.50
503.95	16180.12
504.13	16489.07
504.30	16741.85
504.48	16643.55
504.65	16669.30
504.83	16788.66
505.01	16861.22
505.18	16697.38
505.36	16882.28
505.53	16826.11
505.71	16643.55
505.88	16868.24
506.06	16613.12
506.23	17177.19
506.41	17235.70
506.58	17310.60
506.76	17186.55
506.93	17280.18
507.11	17181.87
507.28	17240.39
507.46	17198.26
507.63	17415.93
507.81	17387.84
507.98	17561.04
508.16	17696.79
508.33	17797.43
508.50	17582.10
508.68	17724.88
508.85	18040.85
509.03	17689.77
509.20	18008.08
509.38	18324.05
509.55	18312.35
509.73	18047.87
509.90	17940.21
510.08	17951.91
510.25	18090.00
510.42	18216.39
510.60	18497.25
510.77	18244.48
510.95	18469.17
511.12	18466.83
511.30	18317.03
511.47	18389.59
511.64	18530.02
511.82	18909.19
511.99	18693.86
512.17	19112.81
512.34	18689.18
512.51	18764.07
512.69	18946.64
512.86	19021.53
513.04	18796.84
513.21	19164.31
513.38	19302.40
513.56	19508.37
513.73	19218.14
513.90	19412.40
514.08	19398.36
514.25	19599.65
514.43	19550.49
514.60	19709.65
514.77	19674.54
514.95	19740.08
515.12	19545.81
515.29	19374.95
515.47	19396.02
515.64	19742.42
515.81	19885.19
515.99	19992.86
516.16	20149.67
516.33	20247.97
516.51	20264.36
516.68	20107.54
516.85	20252.66
517.03	19796.25
517.20	20290.10
517.37	20269.04
517.54	19845.40
517.72	20329.89
517.89	20233.93
518.06	20526.50
518.24	20629.48
518.41	20240.95
518.58	20540.54
518.75	20608.42
518.93	20702.04
519.10	20900.98
519.27	20816.72
519.45	20685.65
519.62	20751.19
519.79	20800.34
519.96	20844.81
520.14	20865.88
520.31	20812.04
520.48	20769.91
520.65	21081.21
520.83	21240.36
521.00	21312.92
521.17	21041.42
521.34	21158.44
521.52	21116.31
521.69	21373.77
521.86	21261.43
522.03	21460.37
522.20	21635.91
522.38	21331.64
522.55	21598.46
522.72	21254.40
522.89	21502.50
523.07	21788.05
523.24	22003.38
523.41	21989.33
523.58	21867.63
523.75	22047.85
523.92	22005.72
524.10	21724.85
524.27	22178.92
524.44	21977.63
524.61	22422.33
524.78	22232.75
524.96	22483.19
525.13	22066.57
525.30	22181.26
525.47	22403.61
525.64	22490.21
525.81	22300.62
525.98	22579.15
526.16	22115.72
526.33	22581.49
526.50	22672.77
526.67	21982.31
526.84	22548.72
527.01	22398.93
527.18	22799.16
527.36	22822.56
527.53	22787.46
527.70	22927.89
527.87	23016.83
528.04	22998.10
528.21	23033.21
528.38	22895.12
528.55	23110.45
528.72	22850.65
528.89	23187.69
529.07	22939.59
529.24	23098.75
529.41	23173.64
529.58	23222.80
529.75	22993.42
529.92	23161.94
530.09	23124.49
530.26	23105.77
530.43	23620.69
530.60	23014.49
530.77	23267.27
530.94	23583.24
531.11	23468.55
531.28	23435.78
531.46	23826.65
531.63	23709.63
531.80	23882.83
531.97	23950.70
532.14	24163.69
532.31	24034.96
532.48	23740.05
532.65	23786.86
532.82	23791.55
532.99	23690.90
533.16	24025.60
533.33	24056.03
533.50	23812.61
533.67	24175.39
533.84	23920.28
534.01	23716.65
534.18	24109.86
534.35	24046.66
534.52	24142.63
534.69	24154.33
534.86	24247.95
535.03	24418.81
535.20	24418.81
535.37	24680.95
535.54	24400.08
535.71	24315.83
535.88	24498.39
536.05	24304.12
536.22	24692.65
536.38	24872.87
536.55	24634.14
536.72	24739.46
536.89	24666.91
537.06	24662.22
537.23	24849.47
537.40	24379.02
537.57	24732.44
537.74	24940.75
537.91	24716.06
538.08	24837.76
538.25	24790.95
538.42	24940.75
538.59	25020.33
538.75	24814.36
538.92	24826.06
539.09	24996.92
539.26	25127.99
539.43	25378.43
539.60	25352.68
539.77	24994.58
539.94	25186.50
540.11	25123.31
540.28	25202.89
540.44	25053.09
540.61	25181.82
540.78	25280.13
540.95	25376.09
541.12	25296.51
541.29	25577.37
541.46	25626.53
541.62	25387.79
541.79	25558.65
541.96	25282.47
542.13	25523.54
542.30	25600.78
542.47	25607.80
542.63	25455.67
542.80	25745.89
542.97	25902.71
543.14	26136.76
543.31	26150.81
543.48	25692.06
543.64	26015.05
543.81	26361.45
543.98	26197.62
544.15	26010.37
544.32	26162.51
544.48	26368.48
544.65	26230.38
544.82	25993.99
544.99	26113.36
545.16	26654.02
545.32	26391.88
545.49	25989.31
545.66	26625.93
545.83	26391.88
546.00	26534.65
546.16	26197.62
546.33	26284.22
546.50	25879.30
546.67	26803.82
546.83	26230.38
547.00	26558.06
547.17	26008.03
547.34	26452.73
547.50	26279.54
547.67	26986.38
547.84	26782.75
548.00	26878.71
548.17	26848.29
548.34	26962.97
548.51	27089.36
548.67	26724.24
548.84	26867.01
549.01	26864.67
549.18	27061.27
549.34	26820.20
549.51	26836.58
549.68	26703.17
549.84	27171.28
550.01	27136.17
550.18	27026.17
550.34	27194.68
550.51	27051.91
550.68	27531.72
550.84	26796.79
551.01	27304.69
551.18	26792.11
551.34	27220.43
551.51	27065.96
551.68	27246.18
551.84	27197.02
552.01	27442.78
552.18	27168.94
552.34	27707.26
552.51	27248.52
552.68	27440.44
552.84	27421.72
553.01	27452.14
553.18	27534.06
553.34	27421.72
553.51	27541.08
553.67	27803.22
553.84	27824.29
554.01	27377.25
554.17	27505.98
554.34	27681.52
554.51	27716.62
554.67	27470.87
554.84	27828.97
555.00	27852.38
555.17	27934.29
555.33	28180.05
555.50	27747.05
555.67	27651.09
555.83	27857.06
556.00	27623.00
556.16	28154.30
556.33	27779.82
556.50	28079.41
556.66	27665.13
556.83	27772.80
556.99	28254.95
557.16	28339.21
557.32	27906.21
557.49	28067.70
557.65	27667.47
557.82	27976.42
557.98	27676.83
558.15	28074.73
558.32	28519.43
558.48	27793.86
558.65	28294.74
558.81	28304.10
558.98	28205.80
559.14	28327.50
559.31	28519.43
559.47	28371.97
559.64	28210.48
559.80	28367.29
559.97	28257.29
560.13	28479.64
560.30	28306.44
560.46	28395.38
560.63	28491.34
560.79	28304.10
560.96	28580.28
561.12	28217.50
561.29	28313.46
561.45	28343.89
561.61	28938.38
561.78	28493.68
561.94	28627.09
562.11	28893.91
562.27	28507.72
562.44	28601.35
562.60	28456.23
562.77	28301.76
562.93	28486.66
563.10	28524.11
563.26	28519.43
563.42	28814.34
563.59	28514.75
563.75	28989.88
563.92	29188.82
564.08	28435.17
564.24	28716.03
564.41	28367.29
564.57	28748.80
564.74	28397.72
564.90	29209.89
565.07	28914.98
565.23	28765.18
565.39	28964.13
565.56	28428.15
565.72	28767.52
565.88	29144.35
566.05	28617.73
566.21	28737.10
566.38	28629.43
566.54	28723.05
566.70	29156.05
566.87	29120.95
567.03	28591.98
567.19	29542.24
567.36	29142.01
567.52	29118.60
567.68	29017.96
567.85	28917.32
568.01	29240.31
568.17	28788.59
568.34	29439.26
568.50	29167.76
568.66	28940.72
568.83	29289.46
568.99	28800.29
569.15	28638.80
569.32	28601.35
569.48	28652.84
569.64	29055.41
569.81	29050.73
569.97	29322.23
570.13	29324.57
570.30	28886.89
570.46	28964.13
570.62	29242.65
570.78	29067.11
570.95	28830.72
571.11	29127.97
571.27	28933.70
571.43	29088.18
571.60	29448.62
571.76	29453.30
571.92	28922.00
572.09	29247.33
572.25	28926.68
572.41	29057.75
572.57	29195.84
572.74	29163.08
572.90	28671.56
573.06	29200.52
573.22	29326.91
573.38	29106.90
573.55	29116.26
573.71	29134.99
573.87	29713.10
574.03	29385.43
574.20	29205.20
574.36	29102.22
574.52	29457.98
574.68	28989.88
574.84	29083.50
575.01	29193.50
575.17	29149.03
575.33	29544.58
575.49	29083.50
575.65	29469.69
575.82	29207.55
575.98	29242.65
576.14	29497.77
576.30	29308.19
576.46	29188.82
576.62	29446.28
576.79	29137.33
576.95	29237.97
577.11	29467.34
577.27	29399.47
577.43	29277.76
577.59	29184.14
577.75	29181.80
577.92	29247.33
578.08	29371.38
578.24	29233.29
578.40	29401.81
578.56	29525.86
578.72	29429.90
578.88	29514.16
579.04	29717.78
579.21	29502.45
579.37	29205.20
579.53	29624.16
579.69	29186.48
579.85	29446.28
580.01	29170.10
580.17	29287.12
580.33	29120.95
580.49	29139.67
580.65	29788.00
580.82	29549.26
580.98	29364.36
581.14	29221.59
581.30	29420.53
581.46	29553.94
581.62	29577.35
581.78	29539.90
581.94	29542.24
582.10	29359.68
582.26	29493.09
582.42	29443.94
582.58	29394.79
582.74	29235.63
582.90	29350.32
583.06	29827.79
583.22	29811.40
583.38	29680.33
583.54	29582.03
583.70	29549.26
583.86	29759.91
584.02	29163.08
584.18	29900.34
584.34	29558.63
584.50	29633.52
584.66	29638.20
584.82	29259.04
584.98	29404.15
585.14	29474.37
585.30	29261.38
585.46	29507.13
585.62	29392.45
585.78	29443.94
585.94	29376.06
586.10	29827.79
586.26	29546.92
586.42	29720.12
586.58	29685.01
586.74	29876.94
586.90	29259.04
587.06	29530.54
587.22	29560.97
587.38	29301.17
587.54	29790.34
587.70	29797.36
587.86	29626.50
588.02	29933.11
588.18	29848.85
588.34	29427.56
588.49	29502.45
588.65	29357.34
588.81	29560.97
588.97	29605.44
589.13	29682.67
589.29	29415.85
589.45	29661.61
589.61	29928.43
589.77	29867.58
589.93	29425.22
590.08	29731.83
590.24	29984.60
590.40	30071.20
590.56	30221.00
590.72	29795.02
590.88	29731.83
591.04	29975.24
591.20	30183.55
591.35	30153.12
591.51	30068.86
591.67	30071.20
591.83	30232.70
591.99	30031.41
