SpectraSuite Data File
++++++++++++++++++++++++++++++++++++
Date: Fri Oct 18 13:57:53 GMT-05:00 2013
User: bianchi
Dark Spectrum Present: No
Reference Spectrum Present: No
Number of Sampled Component Spectra: 1
Spectrometers: USB2+H05261
Integration Time (usec): 50000 (USB2+H05261)
Spectra Averaged: 1 (USB2+H05261)
Boxcar Smoothing: 0 (USB2+H05261)
Correct for Electrical Dark: No (USB2+H05261)
Strobe/Lamp Enabled: No (USB2+H05261)
Correct for Detector Non-linearity: No (USB2+H05261)
Correct for Stray Light: No (USB2+H05261)
Number of Pixels in Processed Spectrum: 2048
>>>>>Begin Processed Spectral Data<<<<<
365.73	0.00
365.92	0.00
366.12	0.00
366.32	0.00
366.52	0.00
366.72	0.00
366.91	0.00
367.11	0.00
367.31	0.00
367.51	0.00
367.70	0.00
367.90	0.00
368.10	0.00
368.30	0.00
368.49	0.00
368.69	0.00
368.89	0.00
369.09	0.00
369.28	0.00
369.48	0.00
369.68	0.00
369.87	0.00
370.07	0.00
370.27	0.00
370.47	0.00
370.66	102.98
370.86	133.41
371.06	138.09
371.25	217.67
371.45	133.41
371.65	81.92
371.84	184.90
372.04	112.35
372.24	107.66
372.44	194.26
372.63	210.65
372.83	184.90
373.03	264.48
373.22	201.29
373.42	212.99
373.62	285.55
373.81	198.95
374.01	269.16
374.21	203.63
374.40	255.12
374.60	292.57
374.79	248.10
374.99	283.20
375.19	259.80
375.38	283.20
375.58	196.60
375.78	255.12
375.97	271.50
376.17	367.46
376.37	170.86
376.56	241.08
376.76	273.84
376.95	271.50
377.15	325.33
377.35	203.63
377.54	248.10
377.74	280.86
377.93	234.05
378.13	220.01
378.33	243.42
378.52	287.89
378.72	250.44
378.91	262.14
379.11	301.93
379.31	262.14
379.50	212.99
379.70	330.02
379.89	301.93
380.09	313.63
380.28	348.74
380.48	212.99
380.68	287.89
380.87	262.14
381.07	278.52
381.26	402.57
381.46	386.19
381.65	318.31
381.85	315.97
382.04	315.97
382.24	299.59
382.43	320.65
382.63	365.12
382.83	341.72
383.02	344.06
383.22	362.78
383.41	311.29
383.61	360.44
383.80	400.23
384.00	311.29
384.19	330.02
384.39	416.62
384.58	297.25
384.78	411.93
384.97	360.44
385.17	304.27
385.36	503.22
385.56	423.64
385.75	379.17
385.95	351.08
386.14	397.89
386.34	411.93
386.53	383.85
386.72	376.83
386.92	407.25
387.11	386.19
387.31	437.68
387.50	421.30
387.70	334.70
387.89	428.32
388.09	418.96
388.28	402.57
388.48	454.06
388.67	451.72
388.86	505.56
389.06	433.00
389.25	486.83
389.45	468.11
389.64	369.80
389.84	540.66
390.03	381.51
390.22	510.24
390.42	416.62
390.61	437.68
390.81	442.36
391.00	514.92
391.19	538.32
391.39	461.09
391.58	496.19
391.78	538.32
391.97	500.87
392.16	521.94
392.36	610.88
392.55	545.34
392.75	554.71
392.94	580.45
393.13	606.20
393.33	538.32
393.52	507.90
393.71	594.50
393.91	531.30
394.10	606.20
394.29	561.73
394.49	592.16
394.68	606.20
394.88	571.09
395.07	547.69
395.26	610.88
395.46	582.79
395.65	634.29
395.84	613.22
396.04	601.52
396.23	657.69
396.42	624.92
396.62	594.50
396.81	624.92
397.00	617.90
397.19	669.39
397.39	688.12
397.58	645.99
397.77	683.44
397.97	643.65
398.16	678.76
398.35	681.10
398.55	699.82
398.74	741.95
398.93	699.82
399.12	664.71
399.32	786.42
399.51	798.12
399.70	741.95
399.90	755.99
400.09	781.74
400.28	702.16
400.47	849.61
400.67	758.33
400.86	798.12
401.05	774.72
401.24	713.86
401.44	821.53
401.63	809.83
401.82	816.85
402.01	814.51
402.21	805.14
402.40	777.06
402.59	866.00
402.78	823.87
402.97	788.76
403.17	901.11
403.36	856.64
403.55	898.77
403.74	896.43
403.93	891.74
404.13	823.87
404.32	908.13
404.51	952.60
404.70	903.45
404.89	971.32
405.09	1020.47
405.28	997.07
405.47	1057.92
405.66	1025.15
405.85	889.40
406.05	1015.79
406.24	1011.11
406.43	1004.09
406.62	1076.65
406.81	1125.80
407.00	1008.77
407.20	978.34
407.39	1086.01
407.58	1048.56
407.77	1039.20
407.96	1158.57
408.15	1086.01
408.34	1111.75
408.54	1036.86
408.73	1165.59
408.92	1188.99
409.11	1097.71
409.30	1165.59
409.49	1188.99
409.68	1172.61
409.87	1121.12
410.07	1086.01
410.26	1067.28
410.45	1109.41
410.64	1181.97
410.83	1277.93
411.02	1196.01
411.21	1359.85
411.40	1275.59
411.59	1280.27
411.78	1284.95
411.98	1327.08
412.17	1259.21
412.36	1287.29
412.55	1315.38
412.74	1287.29
412.93	1327.08
413.12	1282.61
413.31	1425.39
413.50	1350.49
413.69	1331.76
413.88	1364.53
414.07	1394.96
414.26	1387.94
414.45	1465.18
414.64	1413.68
414.83	1455.81
415.02	1430.07
415.22	1554.12
415.41	1575.18
415.60	1577.52
415.79	1643.06
415.98	1577.52
416.17	1514.33
416.36	1523.69
416.55	1633.69
416.74	1685.19
416.93	1682.85
417.12	1624.33
417.31	1678.16
417.50	1734.34
417.69	1732.00
417.88	1736.68
418.07	1673.48
418.26	1680.50
418.45	1710.93
418.64	1813.92
418.83	1781.15
419.02	1682.85
419.21	1895.83
419.39	1767.10
419.58	1830.30
419.77	1820.94
419.96	1825.62
420.15	1891.15
420.34	1853.70
420.53	1870.09
420.72	1935.62
420.91	1872.43
421.10	1973.07
421.29	2012.86
421.48	1825.62
421.67	1961.37
421.86	1937.96
422.05	2062.01
422.24	1961.37
422.43	1954.35
422.61	1996.48
422.80	2125.21
422.99	1919.24
423.18	1923.92
423.37	2031.58
423.56	1935.62
423.75	2019.88
423.94	2057.33
424.13	1898.17
424.32	2038.61
424.50	2022.22
424.69	2090.10
424.88	2193.08
425.07	2057.33
425.26	2010.52
425.45	2038.61
425.64	2092.44
425.83	2062.01
426.01	1930.94
426.20	2094.78
426.39	2090.10
426.58	2097.12
426.77	2047.97
426.96	2115.84
427.15	2066.69
427.33	2195.42
427.52	2104.14
427.71	2146.27
427.90	2008.18
428.09	2275.00
428.28	2139.25
428.46	2129.89
428.65	2270.32
428.84	2267.98
429.03	2153.29
429.22	2216.49
429.40	2167.34
429.59	2239.89
429.78	2092.44
429.97	2108.82
430.16	2291.38
430.34	2286.70
430.53	2408.41
430.72	2319.47
430.91	2345.22
431.10	2284.36
431.28	2396.71
431.47	2385.01
431.66	2368.62
431.85	2300.75
432.03	2417.77
432.22	2429.48
432.41	2424.80
432.60	2499.69
432.79	2335.85
432.97	2438.84
433.16	2478.63
433.35	2399.05
433.54	2544.16
433.72	2600.34
433.91	2553.52
434.10	2635.44
434.28	2464.58
434.47	2539.48
434.66	2513.74
434.85	2595.65
435.03	2597.99
435.22	2600.34
435.41	2628.42
435.59	2567.57
435.78	2670.55
435.97	2647.15
436.16	2782.90
436.34	2600.34
436.53	2670.55
436.72	2825.03
436.90	2696.30
437.09	2729.06
437.28	2782.90
437.46	2818.00
437.65	2752.47
437.84	2897.58
438.02	2792.26
438.21	2899.92
438.40	2916.31
438.58	2832.05
438.77	2963.12
438.96	2801.62
439.14	2928.01
439.33	2897.58
439.52	3009.93
439.70	3091.85
439.89	2935.03
440.08	2993.55
440.26	3084.83
440.45	2984.18
440.63	3126.96
440.82	3096.53
441.01	2977.16
441.19	3213.56
441.38	3145.68
441.57	3314.20
441.75	3190.15
441.94	3311.86
442.12	3302.50
442.31	3295.47
442.50	3136.32
442.68	3321.22
442.87	3236.96
443.05	3274.41
443.24	3302.50
443.43	3349.31
443.61	3368.03
443.80	3466.33
443.98	3260.37
444.17	3311.86
444.35	3356.33
444.54	3550.59
444.73	3440.59
444.91	3421.86
445.10	3351.65
445.28	3468.67
445.47	3501.44
445.65	3468.67
445.84	3361.01
446.02	3618.47
446.21	3445.27
446.39	3400.80
446.58	3541.23
446.77	3723.79
446.95	3503.78
447.14	3382.07
447.32	3489.74
447.51	3616.13
447.69	3456.97
447.88	3478.04
448.06	3529.53
448.25	3611.45
448.43	3609.11
448.62	3592.72
448.80	3592.72
448.99	3627.83
449.17	3588.04
449.36	3585.70
449.54	3730.81
449.73	3684.00
449.91	3885.29
450.10	3637.19
450.28	3667.62
450.46	3686.34
450.65	3634.85
450.83	3730.81
451.02	3840.82
451.20	3651.24
451.39	3784.65
451.57	3770.60
451.76	3672.30
451.94	3889.97
452.13	3868.91
452.31	3880.61
452.49	3817.41
452.68	4058.49
452.86	3868.91
453.05	3943.80
453.23	3782.31
453.42	3892.31
453.60	3920.40
453.78	3791.67
453.97	4037.42
454.15	3871.25
454.34	3955.51
454.52	4035.08
454.70	4044.45
454.89	3845.50
455.07	4030.40
455.26	4051.47
455.44	4145.09
455.62	4051.47
455.81	4269.14
455.99	4086.58
456.17	4079.55
456.36	4175.52
456.54	4322.97
456.73	4224.67
456.91	4355.74
457.09	4360.42
457.28	4383.82
457.46	4252.75
457.64	4292.54
457.83	4308.93
458.01	4358.08
458.19	4318.29
458.38	4386.16
458.56	4437.66
458.74	4362.76
458.93	4482.13
459.11	4395.53
459.29	4432.97
459.48	4451.70
459.66	4542.98
459.84	4524.26
460.03	4683.41
460.21	4540.64
460.39	4559.36
460.57	4465.74
460.76	4624.90
460.94	4638.94
461.12	4510.21
461.31	4711.50
461.49	4622.56
461.67	4575.75
461.85	4622.56
462.04	4727.88
462.22	4929.17
462.40	4915.12
462.59	4734.90
462.77	4772.35
462.95	4746.61
463.13	4821.50
463.32	4896.40
463.50	4903.42
463.68	4833.21
463.86	4854.27
464.05	4894.06
464.23	4854.27
464.41	4898.74
464.59	4844.91
464.78	4992.36
464.96	4840.23
465.14	4873.00
465.32	5083.64
465.50	4870.65
465.69	5041.51
465.87	4903.42
466.05	5132.79
466.23	5055.56
466.41	5055.56
466.60	5116.41
466.78	5104.71
466.96	5137.48
467.14	4964.28
467.32	5121.09
467.51	5226.42
467.69	5041.51
467.87	5205.35
468.05	5149.18
468.23	5041.51
468.41	5116.41
468.60	5238.12
468.78	5380.89
468.96	5170.24
469.14	5406.64
469.32	5259.18
469.50	5074.28
469.69	5203.01
469.87	5425.36
470.05	5516.64
470.23	5387.91
470.41	5502.60
470.59	5488.56
470.77	5336.42
470.95	5591.54
471.14	5678.14
471.32	5497.92
471.50	5699.20
471.68	5509.62
471.86	5720.27
472.04	5640.69
472.22	5809.21
472.40	5734.31
472.58	5844.32
472.77	5708.57
472.95	5937.94
473.13	5989.43
473.31	5746.02
473.49	5928.58
473.67	5757.72
473.85	5937.94
474.03	5900.49
474.21	6050.28
474.39	6118.16
474.57	6235.19
474.75	6164.97
474.93	6232.85
475.12	6171.99
475.30	6237.53
475.48	6090.07
475.66	6260.93
475.84	6108.80
476.02	6342.85
476.20	6469.24
476.38	6555.84
476.56	6675.21
476.74	6590.95
476.92	6581.59
477.10	6480.94
477.28	6614.35
477.46	6682.23
477.64	6665.85
477.82	6689.25
478.00	6864.79
478.18	6867.13
478.36	6897.56
478.54	6970.12
478.72	7183.10
478.90	7033.31
479.08	7117.57
479.26	7232.26
479.44	7283.75
479.62	7351.62
479.80	7456.95
479.98	7370.35
480.16	7609.08
480.34	7428.86
480.52	7672.28
480.70	7695.68
480.88	7613.76
481.06	7573.97
481.24	7763.56
481.41	7892.29
481.59	7943.78
481.77	7887.61
481.95	8131.02
482.13	8180.17
482.31	8105.28
482.49	8217.62
482.67	8301.88
482.85	8376.78
483.03	8662.32
483.21	8568.70
483.39	8601.47
483.57	8585.08
483.74	8580.40
483.92	8765.31
484.10	8713.81
484.28	8901.06
484.46	9057.87
484.64	9207.67
484.82	8863.61
485.00	9210.01
485.18	9275.54
485.35	9483.85
485.53	9495.55
485.71	9240.44
485.89	9540.02
486.07	9479.17
486.25	9411.29
486.43	9724.93
486.61	9825.57
486.78	10068.98
486.96	9846.63
487.14	10169.63
487.32	10178.99
487.50	10225.80
487.68	10279.63
487.85	10424.75
488.03	10640.08
488.21	10822.64
488.39	10551.14
488.57	10761.78
488.75	10785.19
488.92	10911.58
489.10	11007.54
489.28	10888.17
489.46	11150.31
489.64	11061.37
489.81	11400.75
489.99	11475.65
490.17	11309.47
490.35	11627.78
490.53	11386.71
490.70	11747.15
490.88	11396.07
491.06	11775.24
491.24	11948.43
491.41	11733.11
491.59	11899.28
491.77	12079.50
491.95	12046.74
492.13	12273.77
492.30	12444.63
492.48	12465.69
492.66	12269.09
492.84	12243.34
493.01	12641.23
493.19	12645.91
493.37	12774.64
493.54	12896.35
493.72	12877.63
493.90	12891.67
494.08	13090.62
494.25	13151.47
494.43	12989.97
494.61	13378.50
494.79	13422.97
494.96	13544.68
495.14	13315.31
495.32	13500.21
495.49	13570.43
495.67	13678.09
495.85	13699.16
496.02	13944.91
496.20	13830.23
496.38	14120.45
496.55	13855.97
496.73	14354.51
496.91	14174.28
497.09	14384.93
497.26	14534.73
497.44	14085.34
497.62	14743.03
497.79	14436.42
497.97	14593.24
498.14	14759.42
498.32	14705.59
498.50	14731.33
498.67	15056.67
498.85	14853.04
499.03	15030.92
499.20	15154.97
499.38	15187.74
499.56	15204.12
499.73	15124.54
499.91	15229.87
500.08	15566.90
500.26	15264.97
500.44	15412.43
500.61	15587.97
500.79	15786.91
500.97	15616.05
501.14	16053.73
501.32	15878.19
501.49	16004.58
501.67	15906.28
501.84	15829.04
502.02	16105.23
502.20	16294.81
502.37	16163.74
502.55	15997.56
502.72	16395.45
502.90	16332.26
503.07	16365.03
503.25	16140.33
503.43	16063.10
503.60	16500.78
503.78	16776.96
503.95	16549.93
504.13	16741.85
504.30	16538.23
504.48	16760.58
504.65	16620.14
504.83	16931.44
505.01	16819.09
505.18	17128.04
505.36	17224.00
505.53	16863.56
505.71	17235.70
505.88	17081.23
506.06	16992.29
506.23	17371.46
506.41	17476.78
506.58	17387.84
506.76	17322.30
506.93	17238.05
507.11	17383.16
507.28	17799.77
507.46	17722.54
507.63	17757.64
507.81	18082.98
507.98	17659.34
508.16	17879.35
508.33	17764.67
508.50	18178.94
508.68	17912.12
508.85	18141.49
509.03	17827.86
509.20	18249.16
509.38	18647.05
509.55	18389.59
509.73	18064.25
509.90	18427.04
510.08	18326.39
510.25	18574.49
510.42	18595.56
510.60	18810.89
510.77	18841.31
510.95	18913.87
511.12	18412.99
511.30	19007.49
511.47	18789.82
511.64	18934.93
511.82	19241.54
511.99	19180.69
512.17	19356.23
512.34	19012.17
512.51	19143.24
512.69	19250.91
512.86	19349.21
513.04	19414.74
513.21	19545.81
513.38	19751.78
513.56	19494.32
513.73	19367.93
513.90	19826.68
514.08	19550.49
514.25	19601.99
514.43	19920.30
514.60	19559.86
514.77	19999.88
514.95	19915.62
515.12	19829.02
515.29	19910.94
515.47	20013.92
515.64	20105.20
515.81	20360.32
515.99	20226.91
516.16	20430.54
516.33	20332.23
516.51	20376.70
516.68	20182.44
516.85	20269.04
517.03	20276.06
517.20	20648.21
517.37	20655.23
517.54	20582.67
517.72	20580.33
517.89	20311.17
518.06	20989.92
518.24	20758.21
518.41	20908.01
518.58	20741.83
518.75	20905.66
518.93	21113.97
519.10	20940.77
519.27	21010.99
519.45	21097.59
519.62	21170.15
519.79	21193.55
519.96	21202.91
520.14	21221.64
520.31	21322.28
520.48	21373.77
520.65	21418.24
520.83	21329.30
521.00	21289.51
521.17	21486.12
521.34	21479.10
521.52	21544.63
521.69	21523.57
521.86	21961.25
522.03	21844.22
522.20	21652.30
522.38	21895.71
522.55	22054.87
522.72	22001.04
522.89	22202.32
523.07	22263.18
523.24	22286.58
523.41	22097.00
523.58	21949.54
523.75	22263.18
523.92	22008.06
524.10	22092.32
524.27	22307.65
524.44	22469.14
524.61	22684.47
524.78	22427.01
524.96	22604.89
525.13	22548.72
525.30	22611.92
525.47	22684.47
525.64	22679.79
525.81	22881.08
525.98	22864.69
526.16	22567.45
526.33	23014.49
526.50	23267.27
526.67	22836.61
526.84	22820.22
527.01	22764.05
527.18	23117.47
527.36	23274.29
527.53	22892.78
527.70	23431.10
527.87	23627.71
528.04	23271.95
528.21	22970.02
528.38	23412.38
528.55	23384.29
528.72	23616.01
528.89	23494.30
529.07	23491.96
529.24	23524.72
529.41	23606.64
529.58	23545.79
529.75	23667.50
529.92	23908.57
530.09	23466.21
530.26	23985.81
530.43	23929.64
530.60	24098.16
530.77	23644.09
530.94	23854.74
531.11	23819.63
531.28	23828.99
531.46	23964.75
531.63	24077.09
531.80	24189.44
531.97	23765.80
532.14	24329.87
532.31	23679.20
532.48	24163.69
532.65	24219.86
532.82	24130.92
532.99	24301.78
533.16	24109.86
533.33	24489.03
533.50	24500.73
533.67	24631.80
533.84	24329.87
534.01	24376.68
534.18	24374.34
534.35	24919.68
534.52	24687.97
534.69	24863.51
534.86	24755.85
535.03	24954.79
535.20	24613.07
535.37	24709.04
535.54	24723.08
535.71	24835.42
535.88	24940.75
536.05	24786.27
536.22	25132.67
536.38	25649.93
536.55	24966.49
536.72	25174.80
536.89	25013.31
537.06	25223.95
537.23	25413.54
537.40	25074.16
537.57	25245.02
537.74	25153.74
537.91	25069.48
538.08	25373.75
538.25	25324.60
538.42	25282.47
538.59	25504.82
538.75	25139.69
538.92	25289.49
539.09	25448.64
539.26	25560.99
539.43	25589.08
539.60	25666.31
539.77	25558.65
539.94	25568.01
540.11	25659.29
540.28	25970.58
540.44	25678.02
540.61	25741.21
540.78	25572.69
540.95	25989.31
541.12	26024.42
541.29	26089.95
541.46	25816.11
541.62	25773.98
541.79	25923.77
541.96	25448.64
542.13	26066.55
542.30	26094.63
542.47	26316.98
542.63	25991.65
542.80	26036.12
542.97	26679.77
543.14	26705.51
543.31	26134.42
543.48	26679.77
543.64	26700.83
543.81	26618.91
543.98	26368.48
544.15	26382.52
544.32	26705.51
544.48	27087.02
544.65	26710.19
544.82	26749.98
544.99	26698.49
545.16	26679.77
545.32	26625.93
545.49	26780.41
545.66	26977.01
545.83	27026.17
546.00	26920.84
546.16	26972.33
546.33	26625.93
546.50	26410.60
546.67	27021.48
546.83	26532.31
547.00	26859.99
547.17	27400.65
547.34	27054.25
547.50	27618.32
547.67	27349.16
547.84	27126.81
548.00	27431.08
548.17	27435.76
548.34	27204.05
548.51	27648.75
548.67	27410.01
548.84	27239.15
549.01	27372.57
549.18	27154.90
549.34	27234.47
549.51	27117.45
549.68	27431.08
549.84	27197.02
550.01	27601.94
550.18	27550.45
550.34	27601.94
550.51	27550.45
550.68	27604.28
550.84	27241.50
551.01	27728.33
551.18	27693.22
551.34	27445.12
551.51	27505.98
551.68	27611.30
551.84	27583.21
552.01	27740.03
552.18	27814.93
552.34	27819.61
552.51	27693.22
552.68	27908.55
552.84	27505.98
553.01	28114.52
553.18	27693.22
553.34	28297.08
553.51	28034.94
553.67	28077.07
553.84	28481.98
554.01	28379.00
554.17	28512.41
554.34	28060.68
554.51	28147.28
554.67	28233.88
554.84	28194.09
555.00	28002.17
555.17	27985.79
555.33	28245.58
555.50	28088.77
555.67	28638.80
555.83	28304.10
556.00	28381.34
556.16	28727.74
556.33	28348.57
556.50	28606.03
556.66	28231.54
556.83	28231.54
556.99	28760.50
557.16	28559.22
557.32	28741.78
557.49	28437.51
557.65	28259.63
557.82	28472.62
557.98	28493.68
558.15	28582.62
558.32	28559.22
558.48	28671.56
558.65	28833.06
558.81	28900.94
558.98	28584.96
559.14	28910.30
559.31	28676.24
559.47	28519.43
559.64	28898.59
559.80	29099.88
559.97	28945.41
560.13	28287.71
560.30	29036.69
560.46	29277.76
560.63	29177.12
560.79	28634.11
560.96	29024.98
561.12	28968.81
561.29	28617.73
561.45	28940.72
561.61	29355.00
561.78	29369.04
561.94	29071.79
562.11	29027.32
562.27	28751.14
562.44	29509.47
562.60	29017.96
562.77	29053.07
562.93	29179.46
563.10	29111.58
563.26	29188.82
563.42	29113.92
563.59	28896.25
563.75	28973.49
563.92	29291.80
564.08	29015.62
564.24	29029.66
564.41	28994.56
564.57	28879.87
564.74	29158.39
564.90	29500.11
565.07	29523.52
565.23	29507.13
565.39	29546.92
565.56	29575.01
565.72	29149.03
565.88	29130.31
566.05	29106.90
566.21	29237.97
566.38	29207.55
566.54	29200.52
566.70	29532.88
566.87	29647.57
567.03	29706.08
567.19	29591.39
567.36	29605.44
567.52	29479.05
567.68	29242.65
567.85	29032.00
568.01	29434.58
568.17	29158.39
568.34	29766.93
568.50	29593.73
568.66	29607.78
568.83	29811.40
568.99	29762.25
569.15	29640.54
569.32	29472.03
569.48	29638.20
569.64	29818.42
569.81	29858.21
569.97	29935.45
570.13	29743.53
570.30	29640.54
570.46	29837.15
570.62	29638.20
570.78	29518.84
570.95	29668.63
571.11	29584.37
571.27	29542.24
571.43	29408.83
571.60	29668.63
571.76	29890.98
571.92	29853.53
572.09	29954.18
572.25	29907.37
572.41	29893.32
572.57	29771.61
572.74	29516.50
572.90	29839.49
573.06	29652.25
573.22	29556.28
573.38	29893.32
573.55	29846.51
573.71	30171.85
573.87	30272.49
574.03	29720.12
574.20	29869.92
574.36	29715.44
574.52	29965.88
574.68	29991.62
574.84	29670.97
575.01	29663.95
575.17	30110.99
575.33	29729.48
575.49	29390.11
575.65	29762.25
575.82	29972.90
575.98	29610.12
576.14	29806.72
576.30	29614.80
576.46	30040.78
576.62	29975.24
576.79	30232.70
576.95	29949.50
577.11	29972.90
577.27	29837.15
577.43	30092.27
577.59	30415.26
577.75	30162.48
577.92	29853.53
578.08	29418.19
578.24	30043.12
578.40	29993.97
578.56	30115.67
578.72	30043.12
578.88	30359.09
579.04	30256.11
579.21	30085.25
579.37	30239.72
579.53	29804.38
579.69	30015.03
579.85	29935.45
580.01	29883.96
580.17	29874.60
580.33	30153.12
580.49	29982.26
580.65	30015.03
580.82	30373.13
580.98	30171.85
581.14	30178.87
581.30	30597.82
581.46	29935.45
581.62	30082.91
581.78	30113.33
581.94	29883.96
582.10	30143.76
582.26	30195.25
582.42	29930.77
582.58	30235.04
582.74	30071.20
582.90	29879.28
583.06	30462.07
583.22	29869.92
583.38	30492.50
583.54	30331.00
583.70	30141.42
583.86	30377.81
584.02	29806.72
584.18	30494.84
584.34	30103.97
584.50	30305.26
584.66	30263.13
584.82	29902.68
584.98	30302.92
585.14	30426.96
585.30	30064.18
585.46	30108.65
585.62	30125.04
585.78	30258.45
585.94	29902.68
586.10	30412.92
586.26	29982.26
586.42	30513.56
586.58	30422.28
586.74	29706.08
586.90	29968.22
587.06	29940.13
587.22	30305.26
587.38	30345.05
587.54	30609.53
587.70	30448.03
587.86	30389.52
588.02	30651.66
588.18	30396.54
588.34	30333.34
588.49	30096.95
588.65	30443.35
588.81	30642.29
588.97	30253.76
589.13	30223.34
589.29	30230.36
589.45	30309.94
589.61	30221.00
589.77	30558.03
589.93	30410.58
590.08	30569.74
590.24	30443.35
590.40	30721.87
590.56	30405.90
590.72	30281.85
590.88	30141.42
591.04	30445.69
591.20	30462.07
591.35	30562.72
591.51	30972.31
591.67	30724.21
591.83	30747.62
