SpectraSuite Data File
++++++++++++++++++++++++++++++++++++
Date: Fri Oct 18 13:58:14 GMT-05:00 2013
User: bianchi
Dark Spectrum Present: No
Reference Spectrum Present: No
Number of Sampled Component Spectra: 1
Spectrometers: USB2+H05261
Integration Time (usec): 50000 (USB2+H05261)
Spectra Averaged: 1 (USB2+H05261)
Boxcar Smoothing: 0 (USB2+H05261)
Correct for Electrical Dark: No (USB2+H05261)
Strobe/Lamp Enabled: No (USB2+H05261)
Correct for Detector Non-linearity: No (USB2+H05261)
Correct for Stray Light: No (USB2+H05261)
Number of Pixels in Processed Spectrum: 2048
>>>>>Begin Processed Spectral Data<<<<<
365.73	0.00
365.92	0.00
366.12	0.00
366.32	0.00
366.52	0.00
366.72	0.00
366.91	0.00
367.11	0.00
367.31	0.00
367.51	0.00
367.70	0.00
367.90	0.00
368.10	0.00
368.30	0.00
368.49	0.00
368.69	0.00
368.89	0.00
369.09	0.00
369.28	0.00
369.48	0.00
369.68	0.00
369.87	0.00
370.07	0.00
370.27	0.00
370.47	0.00
370.66	107.66
370.86	124.05
371.06	112.35
371.25	170.86
371.45	149.79
371.65	182.56
371.84	46.81
372.04	131.07
372.24	107.66
372.44	229.37
372.63	229.37
372.83	140.43
373.03	124.05
373.22	196.60
373.42	241.08
373.62	264.48
373.81	222.35
374.01	262.14
374.21	194.26
374.40	241.08
374.60	222.35
374.79	198.95
374.99	212.99
375.19	243.42
375.38	241.08
375.58	201.29
375.78	301.93
375.97	205.97
376.17	271.50
376.37	229.37
376.56	276.18
376.76	318.31
376.95	297.25
377.15	280.86
377.35	227.03
377.54	360.44
377.74	245.76
377.93	255.12
378.13	266.82
378.33	245.76
378.52	355.76
378.72	285.55
378.91	259.80
379.11	285.55
379.31	315.97
379.50	212.99
379.70	311.29
379.89	294.91
380.09	351.08
380.28	297.25
380.48	318.31
380.68	362.78
380.87	280.86
381.07	311.29
381.26	245.76
381.46	320.65
381.65	433.00
381.85	344.06
382.04	327.68
382.24	348.74
382.43	301.93
382.63	334.70
382.83	388.53
383.02	252.78
383.22	318.31
383.41	346.40
383.61	353.42
383.80	400.23
384.00	287.89
384.19	397.89
384.39	369.80
384.58	428.32
384.78	358.10
384.97	425.98
385.17	425.98
385.36	397.89
385.56	390.87
385.75	334.70
385.95	379.17
386.14	379.17
386.34	374.49
386.53	393.21
386.72	404.91
386.92	381.51
387.11	404.91
387.31	461.09
387.50	423.64
387.70	358.10
387.89	334.70
388.09	437.68
388.28	430.66
388.48	409.59
388.67	463.43
388.86	425.98
389.06	484.49
389.25	475.13
389.45	416.62
389.64	475.13
389.84	456.40
390.03	510.24
390.22	493.85
390.42	585.13
390.61	416.62
390.81	479.81
391.00	493.85
391.19	550.03
391.39	578.11
391.58	479.81
391.78	449.38
391.97	500.87
392.16	500.87
392.36	500.87
392.55	533.64
392.75	505.56
392.94	554.71
393.13	543.00
393.33	543.00
393.52	578.11
393.71	599.18
393.91	521.94
394.10	578.11
394.29	580.45
394.49	601.52
394.68	603.86
394.88	557.05
395.07	678.76
395.26	568.75
395.46	643.65
395.65	599.18
395.84	681.10
396.04	620.24
396.23	709.18
396.42	683.44
396.62	645.99
396.81	624.92
397.00	697.48
397.19	683.44
397.39	662.37
397.58	716.20
397.77	746.63
397.97	617.90
398.16	671.73
398.35	758.33
398.55	664.71
398.74	676.41
398.93	692.80
399.12	713.86
399.32	774.72
399.51	716.20
399.70	814.51
399.90	720.88
400.09	711.52
400.28	725.57
400.47	763.01
400.67	779.40
400.86	851.96
401.05	748.97
401.24	793.44
401.44	835.57
401.63	870.68
401.82	816.85
402.01	823.87
402.21	793.44
402.40	858.98
402.59	905.79
402.78	823.87
402.97	889.40
403.17	856.64
403.36	788.76
403.55	915.15
403.74	826.21
403.93	809.83
404.13	933.87
404.32	952.60
404.51	936.21
404.70	947.92
404.89	910.47
405.09	875.36
405.28	844.93
405.47	873.02
405.66	945.58
405.85	1011.11
406.05	1050.90
406.24	945.58
406.43	1029.84
406.62	1018.13
406.81	1088.35
407.00	1041.54
407.20	1001.75
407.39	973.66
407.58	1074.31
407.77	1043.88
407.96	1046.22
408.15	1041.54
408.34	1025.15
408.54	1128.14
408.73	1086.01
408.92	1111.75
409.11	1109.41
409.30	1104.73
409.49	1158.57
409.68	1083.67
409.87	1132.82
410.07	1174.95
410.26	1226.44
410.45	1200.69
410.64	1170.27
410.83	1249.85
411.02	1315.38
411.21	1280.27
411.40	1249.85
411.59	1238.14
411.78	1200.69
411.98	1294.32
412.17	1203.04
412.36	1291.98
412.55	1357.51
412.74	1458.15
412.93	1299.00
413.12	1336.45
413.31	1448.79
413.50	1327.08
413.69	1483.90
413.88	1500.28
414.07	1448.79
414.26	1430.07
414.45	1490.92
414.64	1551.78
414.83	1486.24
415.02	1542.41
415.22	1554.12
415.41	1596.25
415.60	1521.35
415.79	1547.09
415.98	1645.40
416.17	1526.03
416.36	1675.82
416.55	1614.97
416.74	1586.88
416.93	1710.93
417.12	1671.14
417.31	1631.35
417.50	1687.53
417.69	1755.40
417.88	1799.87
418.07	1760.08
418.26	1710.93
418.45	1748.38
418.64	1834.98
418.83	1778.81
419.02	1879.45
419.21	1898.17
419.39	1818.60
419.58	1732.00
419.77	1804.55
419.96	1851.36
420.15	1863.07
420.34	1947.33
420.53	1959.03
420.72	1949.67
420.91	1919.24
421.10	1968.39
421.29	1954.35
421.48	1975.41
421.67	1870.09
421.86	1959.03
422.05	1984.77
422.24	1947.33
422.43	1989.46
422.61	2019.88
422.80	2036.27
422.99	2132.23
423.18	2076.06
423.37	1944.99
423.56	2033.93
423.75	2059.67
423.94	1834.98
424.13	1839.66
424.32	1989.46
424.50	2153.29
424.69	2104.14
424.88	2108.82
425.07	2001.16
425.26	2043.29
425.45	2092.44
425.64	2066.69
425.83	2038.61
426.01	2083.08
426.20	2111.16
426.39	2097.12
426.58	2090.10
426.77	2099.46
426.96	2134.57
427.15	2141.59
427.33	2050.31
427.52	2101.80
427.71	2115.84
427.90	2202.44
428.09	2162.66
428.28	2228.19
428.46	2179.04
428.65	2214.15
428.84	2305.43
429.03	2296.07
429.22	2186.06
429.40	2153.29
429.59	2223.51
429.78	2188.40
429.97	2120.53
430.16	2204.78
430.34	2310.11
430.53	2345.22
430.72	2197.76
430.91	2150.95
431.10	2345.22
431.28	2368.62
431.47	2389.69
431.66	2420.11
431.85	2471.61
432.03	2478.63
432.22	2506.71
432.41	2513.74
432.60	2539.48
432.79	2450.54
432.97	2427.14
433.16	2499.69
433.35	2394.37
433.54	2600.34
433.72	2555.86
433.91	2541.82
434.10	2567.57
434.28	2593.31
434.47	2607.36
434.66	2569.91
434.85	2476.29
435.03	2597.99
435.22	2621.40
435.41	2581.61
435.59	2644.81
435.78	2621.40
435.97	2689.28
436.16	2705.66
436.34	2663.53
436.53	2778.22
436.72	2670.55
436.90	2602.68
437.09	2738.43
437.28	2691.62
437.46	2689.28
437.65	2605.02
437.84	2829.71
438.02	2745.45
438.21	2813.32
438.40	2700.98
438.58	2923.33
438.77	2827.37
438.96	2808.64
439.14	2855.45
439.33	2993.55
439.52	3007.59
439.70	2864.82
439.89	2972.48
440.08	2867.16
440.26	3028.65
440.45	3049.72
440.63	3150.36
440.82	3049.72
441.01	3014.61
441.19	3059.08
441.38	3192.49
441.57	3248.66
441.75	3141.00
441.94	3274.41
442.12	3288.45
442.31	3276.75
442.50	3372.71
442.68	3239.30
442.87	3297.81
443.05	3396.12
443.24	3459.31
443.43	3452.29
443.61	3323.56
443.80	3353.99
443.98	3475.70
444.17	3311.86
444.35	3466.33
444.54	3449.95
444.73	3496.76
444.91	3375.05
445.10	3382.07
445.28	3442.93
445.47	3337.60
445.65	3548.25
445.84	3548.25
446.02	3602.08
446.21	3506.12
446.39	3471.01
446.58	3522.51
446.77	3445.27
446.95	3571.66
447.14	3550.59
447.32	3569.32
447.51	3623.15
447.69	3489.74
447.88	3494.42
448.06	3344.63
448.25	3531.87
448.43	3506.12
448.62	3534.21
448.80	3456.97
448.99	3749.54
449.17	3644.21
449.36	3578.68
449.54	3662.94
449.73	3740.18
449.91	3744.86
450.10	3819.75
450.28	3784.65
450.46	3763.58
450.65	3756.56
450.83	3929.76
451.02	3878.27
451.20	3927.42
451.39	3829.12
451.57	3803.37
451.76	3777.62
451.94	3810.39
452.13	3943.80
452.31	3843.16
452.49	3908.69
452.68	3843.16
452.86	3871.25
453.05	3894.65
453.23	4014.02
453.42	3892.31
453.60	3871.25
453.78	3889.97
453.97	3866.56
454.15	3955.51
454.34	3904.01
454.52	3915.72
454.70	3955.51
454.89	3971.89
455.07	4117.00
455.26	4060.83
455.44	4140.41
455.62	4093.60
455.81	4032.74
455.99	4124.02
456.17	4182.54
456.36	4177.86
456.54	4322.97
456.73	4372.12
456.91	4250.41
457.09	4283.18
457.28	4440.00
457.46	4306.59
457.64	4468.08
457.83	4236.37
458.01	4367.44
458.19	4325.31
458.38	4276.16
458.56	4451.70
458.74	4456.38
458.93	4388.50
459.11	4395.53
459.29	4428.29
459.48	4479.79
459.66	4503.19
459.84	4503.19
460.03	4627.24
460.21	4521.92
460.39	4634.26
460.57	4461.06
460.76	4692.77
460.94	4606.17
461.12	4592.13
461.31	4610.86
461.49	4657.67
461.67	4641.28
461.85	4753.63
462.04	4624.90
462.22	5100.03
462.40	4755.97
462.59	4716.18
462.77	4837.89
462.95	4809.80
463.13	4840.23
463.32	4730.22
463.50	4844.91
463.68	4896.40
463.86	4943.21
464.05	4807.46
464.23	4875.34
464.41	4952.57
464.59	4770.01
464.78	4990.02
464.96	5095.35
465.14	4940.87
465.32	4997.04
465.50	4945.55
465.69	4936.19
465.87	4971.30
466.05	5071.94
466.23	5001.72
466.41	5032.15
466.60	5214.71
466.78	5027.47
466.96	5128.11
467.14	5078.96
467.32	5081.30
467.51	5214.71
467.69	4882.36
467.87	5174.92
468.05	5320.04
468.23	5146.84
468.41	5324.72
468.60	5039.17
468.78	5055.56
468.96	5394.93
469.14	5324.72
469.32	5277.91
469.50	5256.84
469.69	5273.23
469.87	5413.66
470.05	5404.30
470.23	5568.13
470.41	5343.44
470.59	5628.99
470.77	5558.77
470.95	5671.12
471.14	5722.61
471.32	5495.58
471.50	5654.73
471.68	5668.78
471.86	5582.18
472.04	5713.25
472.22	5680.48
472.40	5614.95
472.58	5586.86
472.77	5762.40
472.95	5930.92
473.13	5935.60
473.31	5731.97
473.49	5963.68
473.67	5961.34
473.85	6031.56
474.03	6043.26
474.21	6026.88
474.39	6108.80
474.57	5975.39
474.75	6244.55
474.93	6120.50
475.12	6029.22
475.30	6394.34
475.48	6113.48
475.66	6211.78
475.84	6434.13
476.02	6429.45
476.20	6445.84
476.38	6459.88
476.56	6588.61
476.74	6574.56
476.92	6663.51
477.10	6583.93
477.28	6703.29
477.46	6700.95
477.64	6740.74
477.82	6602.65
478.00	7075.44
478.18	6995.86
478.36	7061.40
478.54	7211.19
478.72	7112.89
478.90	7281.41
479.08	7199.49
479.26	7194.81
479.44	7412.48
479.62	7485.03
479.80	7651.21
479.98	7536.52
480.16	7466.31
480.34	7417.16
480.52	7637.17
480.70	7648.87
480.88	7569.29
481.06	7777.60
481.24	7779.94
481.41	7686.32
481.59	7997.61
481.77	8030.38
481.95	8056.12
482.13	8056.12
482.31	8119.32
482.49	8306.56
482.67	8346.35
482.85	8465.72
483.03	8470.40
483.21	8554.66
483.39	8692.75
483.57	8638.92
483.74	8692.75
483.92	8713.81
484.10	8725.52
484.28	8947.87
484.46	9060.21
484.64	9188.94
484.82	9057.87
485.00	9188.94
485.18	9439.38
485.35	9755.35
485.53	9191.28
485.71	9593.86
485.89	9694.50
486.07	9568.11
486.25	9500.23
486.43	9654.71
486.61	9687.48
486.78	9579.81
486.96	9902.81
487.14	10122.82
487.32	10036.22
487.50	10452.83
487.68	10469.22
487.85	10492.62
488.03	10635.39
488.21	10647.10
488.39	10670.50
488.57	10684.55
488.75	10820.30
488.92	10822.64
489.10	10899.87
489.28	10679.86
489.46	11276.70
489.64	11162.01
489.81	11330.53
489.99	11138.61
490.17	11279.04
490.35	11520.12
490.53	11714.38
490.70	11779.92
490.88	11779.92
491.06	11852.47
491.24	11927.37
491.41	11918.01
491.59	12086.53
491.77	12009.29
491.95	12175.47
492.13	12388.46
492.30	12318.24
492.48	12109.93
492.66	12320.58
492.84	12437.61
493.01	12681.02
493.19	12540.59
493.37	12910.40
493.54	12854.22
493.72	12922.10
493.90	13107.00
494.08	13025.08
494.25	13310.63
494.43	13235.73
494.61	13362.12
494.79	13544.68
494.96	13540.00
495.14	13561.06
495.32	13811.50
495.49	13668.73
495.67	13771.71
495.85	13734.26
496.02	14106.41
496.20	13921.51
496.38	14052.58
496.55	14251.52
496.73	14427.06
496.91	14293.65
497.09	14396.64
497.26	14525.36
497.44	14356.85
497.62	14525.36
497.79	14970.07
497.97	14604.94
498.14	14745.38
498.32	14750.06
498.50	14951.34
498.67	14993.47
498.85	15047.30
499.03	15061.35
499.20	14888.15
499.38	15164.33
499.56	15192.42
499.73	15346.89
499.91	15374.98
500.08	15609.03
500.26	15122.20
500.44	15594.99
500.61	15386.68
500.79	15594.99
500.97	15857.13
501.14	16231.62
501.32	16023.31
501.49	16025.65
501.67	15971.82
501.84	16091.18
502.02	16013.95
502.20	16245.66
502.37	16266.72
502.55	16475.03
502.72	16325.24
502.90	16264.38
503.07	16416.52
503.25	16336.94
503.43	16517.16
503.60	16587.38
503.78	16968.88
503.95	16542.91
504.13	16631.85
504.30	16760.58
504.48	16432.90
504.65	16702.06
504.83	17224.00
505.01	17343.37
505.18	17458.06
505.36	17326.99
505.53	17071.87
505.71	17205.28
505.88	17554.02
506.06	17303.58
506.23	17535.29
506.41	17371.46
506.58	17687.43
506.76	17474.44
506.93	17776.37
507.11	17593.81
507.28	17530.61
507.46	17806.80
507.63	17867.65
507.81	17914.46
507.98	17799.77
508.16	17771.69
508.33	17963.61
508.50	17926.16
508.68	18008.08
508.85	18176.60
509.03	18422.36
509.20	18441.08
509.38	18111.07
509.55	18436.40
509.73	18595.56
509.90	18534.70
510.08	18438.74
510.25	18579.17
510.42	18743.01
510.60	18771.10
510.77	18682.16
510.95	18895.14
511.12	18668.11
511.30	18948.98
511.47	18733.65
511.64	18874.08
511.82	19262.61
511.99	18806.20
512.17	19435.81
512.34	19365.59
512.51	19393.68
512.69	19119.84
512.86	19541.13
513.04	19314.10
513.21	19793.91
513.38	19686.25
513.56	19527.09
513.73	19531.77
513.90	19719.01
514.08	19648.80
514.25	19873.49
514.43	19927.32
514.60	19843.06
514.77	19803.27
514.95	19934.34
515.12	20037.33
515.29	19831.36
515.47	20093.50
515.64	20336.91
515.81	20350.96
515.99	20177.76
516.16	20545.22
516.33	20599.05
516.51	20414.15
516.68	20311.17
516.85	20540.54
517.03	20594.37
517.20	20624.80
517.37	20706.72
517.54	20891.62
517.72	20790.98
517.89	20823.75
518.06	20589.69
518.24	20835.45
518.41	20606.08
518.58	21193.55
518.75	21312.92
518.93	21373.77
519.10	21018.01
519.27	21010.99
519.45	21357.39
519.62	21216.96
519.79	21132.70
519.96	21451.01
520.14	21476.76
520.31	21584.42
520.48	21734.21
520.65	21350.37
520.83	21476.76
521.00	21490.80
521.17	21436.97
521.34	21649.96
521.52	21664.00
521.69	21584.42
521.86	21949.54
522.03	21951.88
522.20	21970.61
522.38	21926.14
522.55	22214.02
522.72	22391.91
522.89	22169.55
523.07	22199.98
523.24	22260.84
523.41	22530.00
523.58	22160.19
523.75	22656.39
523.92	22253.81
524.10	22258.49
524.27	22209.34
524.44	22293.60
524.61	22696.17
524.78	22527.66
524.96	22663.41
525.13	22927.89
525.30	22761.71
525.47	22750.01
525.64	22752.35
525.81	22995.76
525.98	23061.30
526.16	22829.59
526.33	22728.94
526.50	23367.91
526.67	22801.50
526.84	23087.04
527.01	22977.04
527.18	23241.52
527.36	23337.48
527.53	23140.88
527.70	23342.16
527.87	23405.36
528.04	23578.56
528.21	23087.04
528.38	23316.42
528.55	23349.18
528.72	23543.45
528.89	23424.08
529.07	23637.07
529.24	23742.39
529.41	23646.43
529.58	23527.06
529.75	23491.96
529.92	23810.27
530.09	23721.33
530.26	23548.13
530.43	23922.62
530.60	23758.78
530.77	24086.45
530.94	24381.36
531.11	23866.44
531.28	23953.04
531.46	24224.54
531.63	23953.04
531.80	23838.36
531.97	24299.44
532.14	24414.13
532.31	24329.87
532.48	24271.36
532.65	24374.34
532.82	24212.84
532.99	24135.60
533.16	24346.25
533.33	24465.62
533.50	24748.82
533.67	24744.14
533.84	24226.89
534.01	24760.53
534.18	24737.12
534.35	24767.55
534.52	24634.14
534.69	24599.03
534.86	24671.59
535.03	24694.99
535.20	25013.31
535.37	24875.21
535.54	25010.96
535.71	25205.23
535.88	25064.80
536.05	24594.35
536.22	24807.34
536.38	25242.68
536.55	24985.22
536.72	25593.76
536.89	24943.09
537.06	25083.52
537.23	25216.93
537.40	25315.23
537.57	25432.26
537.74	25575.03
537.91	25671.00
538.08	25591.42
538.25	25090.54
538.42	25607.80
538.59	25507.16
538.75	25310.55
538.92	25322.26
539.09	25394.81
539.26	25724.83
539.43	26019.74
539.60	25745.89
539.77	25745.89
539.94	25968.24
540.11	25619.50
540.28	26082.93
540.44	25771.64
540.61	25645.25
540.78	25565.67
540.95	25797.38
541.12	25715.47
541.29	26089.95
541.46	25837.17
541.62	25898.03
541.79	25958.88
541.96	25699.08
542.13	26061.87
542.30	26260.81
542.47	26445.71
542.63	26595.51
542.80	26644.66
542.97	26742.96
543.14	26658.70
543.31	26775.73
543.48	26225.70
543.64	26768.71
543.81	26712.53
543.98	26490.18
544.15	26759.34
544.32	26434.01
544.48	26658.70
544.65	26686.79
544.82	26747.64
544.99	26864.67
545.16	26536.99
545.32	26609.55
545.49	27197.02
545.66	27400.65
545.83	27337.46
546.00	27173.62
546.16	27325.75
546.33	26738.28
546.50	26391.88
546.67	27147.87
546.83	26876.37
547.00	27222.77
547.17	26967.65
547.34	27171.28
547.50	27126.81
547.67	27410.01
547.84	27344.48
548.00	27234.47
548.17	27372.57
548.34	27583.21
548.51	27281.28
548.67	27316.39
548.84	27646.41
549.01	27388.95
549.18	27346.82
549.34	27379.59
549.51	27796.20
549.68	27871.10
549.84	27571.51
550.01	27683.86
550.18	27269.58
550.34	27583.21
550.51	27615.98
550.68	28044.30
550.84	27529.38
551.01	27573.85
551.18	27599.60
551.34	27580.87
551.51	27538.74
551.68	27917.91
551.84	27789.18
552.01	27772.80
552.18	27562.15
552.34	28102.81
552.51	27997.49
552.68	27983.44
552.84	27953.02
553.01	28114.52
553.18	28451.55
553.34	28283.03
553.51	28271.33
553.67	28091.11
553.84	28629.43
554.01	28444.53
554.17	28313.46
554.34	28140.26
554.51	28166.01
554.67	27955.36
554.84	28063.02
555.00	28027.92
555.17	28414.10
555.33	28645.82
555.50	28512.41
555.67	28182.39
555.83	28397.72
556.00	28327.50
556.16	28290.06
556.33	28348.57
556.50	28383.68
556.66	28542.83
556.83	28524.11
556.99	28496.02
557.16	28889.23
557.32	28989.88
557.49	28690.29
557.65	28460.91
557.82	28538.15
557.98	28573.26
558.15	28685.61
558.32	28797.95
558.48	28432.83
558.65	29123.29
558.81	28903.28
558.98	28552.20
559.14	28835.40
559.31	28851.78
559.47	28776.89
559.64	28933.70
559.80	28584.96
559.97	28900.94
560.13	28961.79
560.30	28973.49
560.46	29142.01
560.63	28877.53
560.79	28933.70
560.96	28858.81
561.12	29064.77
561.29	28676.24
561.45	28936.04
561.61	29226.27
561.78	29064.77
561.94	29474.37
562.11	29282.44
562.27	29249.67
562.44	29027.32
562.60	29303.51
562.77	29259.04
562.93	28980.51
563.10	29591.39
563.26	29584.37
563.42	29762.25
563.59	29156.05
563.75	29165.42
563.92	28907.96
564.08	29151.37
564.24	29469.69
564.41	28657.52
564.57	29724.80
564.74	29394.79
564.90	29638.20
565.07	29383.09
565.23	29764.59
565.39	29202.86
565.56	29357.34
565.72	29413.51
565.88	29598.41
566.05	29333.93
566.21	29521.18
566.38	29521.18
566.54	29528.20
566.70	29621.82
566.87	29839.49
567.03	29827.79
567.19	29862.90
567.36	29582.03
567.52	29631.18
567.68	30045.46
567.85	29685.01
568.01	29413.51
568.17	29525.86
568.34	29486.07
568.50	29792.68
568.66	29624.16
568.83	29827.79
568.99	29596.07
569.15	29816.08
569.32	29921.41
569.48	29336.27
569.64	29731.83
569.81	29867.58
569.97	29598.41
570.13	30052.48
570.30	29511.81
570.46	29858.21
570.62	29666.29
570.78	29680.33
570.95	29799.70
571.11	29549.26
571.27	29708.42
571.43	29750.55
571.60	29783.32
571.76	29673.31
571.92	29813.74
572.09	29874.60
572.25	30209.29
572.41	30082.91
572.57	29902.68
572.74	30150.78
572.90	29846.51
573.06	29780.98
573.22	29750.55
573.38	29380.74
573.55	29675.65
573.71	30199.93
573.87	30040.78
574.03	29596.07
574.20	30141.42
574.36	29963.54
574.52	29741.19
574.68	29958.86
574.84	30071.20
575.01	29724.80
575.17	29677.99
575.33	29675.65
575.49	29827.79
575.65	30169.51
575.82	30155.46
575.98	29689.70
576.14	30359.09
576.30	29968.22
576.46	29858.21
576.62	30319.30
576.79	30071.20
576.95	29909.71
577.11	30204.61
577.27	30326.32
577.43	30249.08
577.59	29865.24
577.75	30024.39
577.92	30183.55
578.08	30183.55
578.24	29628.84
578.40	29799.70
578.56	30096.95
578.72	30323.98
578.88	30448.03
579.04	30190.57
579.21	29890.98
579.37	29893.32
579.53	30092.27
579.69	29881.62
579.85	29797.36
580.01	30244.40
580.17	30003.33
580.33	29898.00
580.49	30368.45
580.65	30331.00
580.82	30125.04
580.98	30160.14
581.14	30120.35
581.30	30164.82
581.46	29797.36
581.62	29799.70
581.78	29788.00
581.94	30272.49
582.10	30022.05
582.26	30263.13
582.42	30019.71
582.58	30258.45
582.74	30279.51
582.90	30129.72
583.06	30033.75
583.22	30108.65
583.38	30213.98
583.54	30256.11
583.70	30164.82
583.86	29982.26
584.02	30057.16
584.18	30185.89
584.34	30448.03
584.50	30293.55
584.66	30199.93
584.82	30082.91
584.98	30197.59
585.14	29954.18
585.30	30127.38
585.46	30132.06
585.62	29858.21
585.78	30223.34
585.94	30127.38
586.10	30054.82
586.26	30171.85
586.42	30483.14
586.58	30752.30
586.74	30125.04
586.90	30188.23
587.06	30087.59
587.22	30174.19
587.38	30590.80
587.54	30419.94
587.70	30586.12
587.86	30455.05
588.02	30562.72
588.18	30506.54
588.34	30305.26
588.49	29944.81
588.65	30277.17
588.81	30316.96
588.97	29998.65
589.13	30197.59
589.29	30125.04
589.45	30356.75
589.61	30787.41
589.77	30934.86
589.93	30499.52
590.08	30923.16
590.24	30803.79
590.40	30766.34
590.56	30822.51
590.72	30178.87
590.88	30679.74
591.04	30340.36
591.20	30579.10
591.35	30787.41
591.51	30939.54
591.67	30675.06
591.83	31082.31
591.99	30691.44
