SpectraSuite Data File
++++++++++++++++++++++++++++++++++++
Date: Fri Oct 18 13:58:33 GMT-05:00 2013
User: bianchi
Dark Spectrum Present: No
Reference Spectrum Present: No
Number of Sampled Component Spectra: 1
Spectrometers: USB2+H05261
Integration Time (usec): 50000 (USB2+H05261)
Spectra Averaged: 1 (USB2+H05261)
Boxcar Smoothing: 0 (USB2+H05261)
Correct for Electrical Dark: No (USB2+H05261)
Strobe/Lamp Enabled: No (USB2+H05261)
Correct for Detector Non-linearity: No (USB2+H05261)
Correct for Stray Light: No (USB2+H05261)
Number of Pixels in Processed Spectrum: 2048
>>>>>Begin Processed Spectral Data<<<<<
365.73	0.00
365.92	0.00
366.12	0.00
366.32	0.00
366.52	0.00
366.72	0.00
366.91	0.00
367.11	0.00
367.31	0.00
367.51	0.00
367.70	0.00
367.90	0.00
368.10	0.00
368.30	0.00
368.49	0.00
368.69	0.00
368.89	0.00
369.09	0.00
369.28	0.00
369.48	0.00
369.68	0.00
369.87	0.00
370.07	0.00
370.27	0.00
370.47	0.00
370.66	126.39
370.86	105.32
371.06	166.18
371.25	152.13
371.45	187.24
371.65	210.65
371.84	217.67
372.04	201.29
372.24	133.41
372.44	173.20
372.63	159.16
372.83	184.90
373.03	220.01
373.22	180.22
373.42	191.92
373.62	262.14
373.81	208.31
374.01	241.08
374.21	224.69
374.40	203.63
374.60	257.46
374.79	215.33
374.99	248.10
375.19	196.60
375.38	210.65
375.58	262.14
375.78	252.78
375.97	215.33
376.17	222.35
376.37	198.95
376.56	229.37
376.76	166.18
376.95	187.24
377.15	318.31
377.35	252.78
377.54	252.78
377.74	301.93
377.93	159.16
378.13	255.12
378.33	297.25
378.52	334.70
378.72	250.44
378.91	259.80
379.11	304.27
379.31	306.61
379.50	304.27
379.70	330.02
379.89	280.86
380.09	243.42
380.28	353.42
380.48	252.78
380.68	297.25
380.87	304.27
381.07	306.61
381.26	332.36
381.46	306.61
381.65	308.95
381.85	285.55
382.04	386.19
382.24	334.70
382.43	318.31
382.63	278.52
382.83	404.91
383.02	360.44
383.22	372.15
383.41	348.74
383.61	322.99
383.80	409.59
384.00	369.80
384.19	344.06
384.39	344.06
384.58	353.42
384.78	360.44
384.97	330.02
385.17	322.99
385.36	470.45
385.56	430.66
385.75	334.70
385.95	372.15
386.14	437.68
386.34	383.85
386.53	372.15
386.72	315.97
386.92	454.06
387.11	430.66
387.31	388.53
387.50	411.93
387.70	372.15
387.89	433.00
388.09	365.12
388.28	484.49
388.48	430.66
388.67	418.96
388.86	479.81
389.06	353.42
389.25	484.49
389.45	470.45
389.64	472.79
389.84	528.96
390.03	465.77
390.22	416.62
390.42	507.90
390.61	435.34
390.81	458.74
391.00	514.92
391.19	421.30
391.39	484.49
391.58	477.47
391.78	510.24
391.97	552.37
392.16	566.41
392.36	643.65
392.55	575.77
392.75	545.34
392.94	538.32
393.13	496.19
393.33	514.92
393.52	543.00
393.71	566.41
393.91	650.67
394.10	580.45
394.29	603.86
394.49	589.82
394.68	526.62
394.88	538.32
395.07	514.92
395.26	599.18
395.46	648.33
395.65	526.62
395.84	650.67
396.04	589.82
396.23	638.97
396.42	634.29
396.62	657.69
396.81	655.35
397.00	629.60
397.19	664.71
397.39	706.84
397.58	671.73
397.77	669.39
397.97	697.48
398.16	690.46
398.35	730.25
398.55	627.26
398.74	674.07
398.93	683.44
399.12	753.65
399.32	678.76
399.51	711.52
399.70	781.74
399.90	795.78
400.09	835.57
400.28	791.10
400.47	840.25
400.67	788.76
400.86	702.16
401.05	784.08
401.24	758.33
401.44	816.85
401.63	873.02
401.82	755.99
402.01	798.12
402.21	751.31
402.40	744.29
402.59	842.59
402.78	861.32
402.97	791.10
403.17	814.51
403.36	819.19
403.55	858.98
403.74	936.21
403.93	931.53
404.13	1043.88
404.32	915.15
404.51	863.66
404.70	964.30
404.89	903.45
405.09	1060.26
405.28	1006.43
405.47	1039.20
405.66	943.24
405.85	943.24
406.05	959.62
406.24	971.32
406.43	978.34
406.62	1041.54
406.81	992.39
407.00	980.68
407.20	1095.37
407.39	968.98
407.58	1118.78
407.77	1015.79
407.96	968.98
408.15	1069.62
408.34	1071.97
408.54	1053.24
408.73	1081.33
408.92	1104.73
409.11	1172.61
409.30	1174.95
409.49	1090.69
409.68	1128.14
409.87	1132.82
410.07	1186.65
410.26	1275.59
410.45	1233.46
410.64	1153.88
410.83	1170.27
411.02	1252.19
411.21	1200.69
411.40	1247.51
411.59	1254.53
411.78	1242.82
411.98	1301.34
412.17	1270.91
412.36	1313.04
412.55	1329.42
412.74	1397.30
412.93	1439.43
413.12	1376.24
413.31	1357.51
413.50	1329.42
413.69	1341.13
413.88	1437.09
414.07	1336.45
414.26	1427.73
414.45	1521.35
414.64	1575.18
414.83	1465.18
415.02	1586.88
415.22	1483.90
415.41	1657.10
415.60	1483.90
415.79	1528.37
415.98	1558.80
416.17	1570.50
416.36	1598.59
416.55	1591.56
416.74	1593.90
416.93	1626.67
417.12	1624.33
417.31	1640.72
417.50	1743.70
417.69	1795.19
417.88	1741.36
418.07	1778.81
418.26	1741.36
418.45	1732.00
418.64	1757.74
418.83	1804.55
419.02	1891.15
419.21	1774.13
419.39	1877.11
419.58	1760.08
419.77	1783.49
419.96	1870.09
420.15	1851.36
420.34	1872.43
420.53	1844.34
420.72	1921.58
420.91	1860.73
421.10	1982.43
421.29	1937.96
421.48	1839.66
421.67	2069.03
421.86	1853.70
422.05	2031.58
422.24	1963.71
422.43	1923.92
422.61	1930.94
422.80	1994.14
422.99	2017.54
423.18	1952.01
423.37	1928.60
423.56	1998.82
423.75	2043.29
423.94	1970.73
424.13	1853.70
424.32	1804.55
424.50	2057.33
424.69	2132.23
424.88	2054.99
425.07	2059.67
425.26	2017.54
425.45	1989.46
425.64	2104.14
425.83	2052.65
426.01	1975.41
426.20	2001.16
426.39	2052.65
426.58	1996.48
426.77	2001.16
426.96	2026.90
427.15	2157.97
427.33	2057.33
427.52	2106.48
427.71	2157.97
427.90	2113.50
428.09	2099.46
428.28	2120.53
428.46	2169.68
428.65	2277.34
428.84	2162.66
429.03	2197.76
429.22	2157.97
429.40	2232.87
429.59	2279.68
429.78	2204.78
429.97	2183.72
430.16	2186.06
430.34	2275.00
430.53	2326.49
430.72	2324.15
430.91	2162.66
431.10	2246.91
431.28	2368.62
431.47	2293.72
431.66	2326.49
431.85	2354.58
432.03	2532.46
432.22	2581.61
432.41	2361.60
432.60	2310.11
432.79	2469.27
432.97	2562.89
433.16	2677.57
433.35	2466.92
433.54	2546.50
433.72	2464.58
433.91	2487.99
434.10	2495.01
434.28	2485.65
434.47	2380.32
434.66	2490.33
434.85	2668.21
435.03	2537.14
435.22	2579.27
435.41	2558.21
435.59	2602.68
435.78	2633.10
435.97	2572.25
436.16	2726.72
436.34	2628.42
436.53	2689.28
436.72	2738.43
436.90	2600.34
437.09	2787.58
437.28	2708.00
437.46	2722.04
437.65	2792.26
437.84	2787.58
438.02	2904.60
438.21	2724.38
438.40	2663.53
438.58	2832.05
438.77	2918.65
438.96	2773.53
439.14	2920.99
439.33	2942.05
439.52	3059.08
439.70	2942.05
439.89	3038.02
440.08	3082.49
440.26	3002.91
440.45	3061.42
440.63	3096.53
440.82	3112.91
441.01	3068.44
441.19	3171.43
441.38	3248.66
441.57	3201.85
441.75	3283.77
441.94	3272.07
442.12	3323.56
442.31	3234.62
442.50	3201.85
442.68	3314.20
442.87	3288.45
443.05	3246.32
443.24	3410.16
443.43	3295.47
443.61	3316.54
443.80	3421.86
443.98	3323.56
444.17	3258.03
444.35	3346.97
444.54	3356.33
444.73	3431.23
444.91	3361.01
445.10	3508.46
445.28	3515.48
445.47	3382.07
445.65	3269.73
445.84	3473.36
446.02	3480.38
446.21	3449.95
446.39	3295.47
446.58	3648.90
446.77	3456.97
446.95	3475.70
447.14	3412.50
447.32	3489.74
447.51	3461.65
447.69	3574.00
447.88	3517.83
448.06	3609.11
448.25	3417.18
448.43	3571.66
448.62	3494.42
448.80	3478.04
448.99	3581.02
449.17	3487.40
449.36	3611.45
449.54	3564.64
449.73	3681.66
449.91	3634.85
450.10	3667.62
450.28	3782.31
450.46	3751.88
450.65	3702.73
450.83	3719.11
451.02	3709.75
451.20	3620.81
451.39	3751.88
451.57	3779.97
451.76	3719.11
451.94	3801.03
452.13	3932.10
452.31	3889.97
452.49	3723.79
452.68	3836.14
452.86	3843.16
453.05	3925.08
453.23	4009.34
453.42	4021.04
453.60	3871.25
453.78	3749.54
453.97	3754.22
454.15	3911.04
454.34	3957.85
454.52	3957.85
454.70	3889.97
454.89	3929.76
455.07	4037.42
455.26	3981.25
455.44	4107.64
455.62	4095.94
455.81	4154.45
455.99	4105.30
456.17	4250.41
456.36	4126.36
456.54	4004.66
456.73	4219.99
456.91	4278.50
457.09	4278.50
457.28	4346.37
457.46	4257.43
457.64	4430.63
457.83	4269.14
458.01	4229.35
458.19	4337.01
458.38	4461.06
458.56	4273.82
458.74	4449.36
458.93	4358.08
459.11	4383.82
459.29	4374.46
459.48	4423.61
459.66	4456.38
459.84	4468.08
460.03	4606.17
460.21	4376.80
460.39	4594.47
460.57	4652.98
460.76	4444.68
460.94	4580.43
461.12	4596.81
461.31	4374.46
461.49	4599.15
461.67	4507.87
461.85	4613.20
462.04	4688.09
462.22	4915.12
462.40	4755.97
462.59	4638.94
462.77	4856.61
462.95	4762.99
463.13	4926.83
463.32	4784.06
463.50	4856.61
463.68	4634.26
463.86	4755.97
464.05	4744.27
464.23	4903.42
464.41	4894.06
464.59	4762.99
464.78	5006.41
464.96	4924.49
465.14	4856.61
465.32	5029.81
465.50	4943.21
465.69	5050.88
465.87	4926.83
466.05	5081.30
466.23	5022.79
466.41	5083.64
466.60	5149.18
466.78	4919.81
466.96	5062.58
467.14	5022.79
467.32	4933.85
467.51	5184.29
467.69	5004.07
467.87	5090.67
468.05	5256.84
468.23	4987.68
468.41	5203.01
468.60	5104.71
468.78	5303.65
468.96	4945.55
469.14	5238.12
469.32	5221.74
469.50	5041.51
469.69	5210.03
469.87	5376.21
470.05	5434.72
470.23	5413.66
470.41	5284.93
470.59	5392.59
470.77	5500.26
470.95	5535.37
471.14	5352.81
471.32	5476.85
471.50	5671.12
471.68	5500.26
471.86	5626.65
472.04	5734.31
472.22	5818.57
472.40	5537.71
472.58	5666.44
472.77	5731.97
472.95	5671.12
473.13	5900.49
473.31	5694.52
473.49	5816.23
473.67	5778.78
473.85	5881.77
474.03	6087.73
474.21	5949.64
474.39	5888.79
474.57	6066.67
474.75	6167.31
474.93	6183.70
475.12	6113.48
475.30	6237.53
475.48	6036.24
475.66	6232.85
475.84	6242.21
476.02	6464.56
476.20	6296.04
476.38	6408.39
476.56	6527.75
476.74	6457.54
476.92	6317.11
477.10	6560.52
477.28	6647.12
477.46	6612.01
477.64	6567.54
477.82	6883.52
478.00	6892.88
478.18	6726.70
478.36	6972.46
478.54	7056.72
478.72	7073.10
478.90	6927.99
479.08	7030.97
479.26	7258.00
479.44	7122.25
479.62	7473.33
479.80	7365.67
479.98	7330.56
480.16	7410.14
480.34	7543.55
480.52	7564.61
480.70	7524.82
480.88	7449.93
481.06	7850.16
481.24	7609.08
481.41	7925.05
481.59	7974.21
481.77	7903.99
481.95	8116.98
482.13	8016.33
482.31	8006.97
482.49	8142.72
482.67	8124.00
482.85	8383.80
483.03	8503.17
483.21	8540.61
483.39	8449.33
483.57	8428.27
483.74	8580.40
483.92	8842.54
484.10	8578.06
484.28	8938.51
484.46	8896.38
484.64	9263.84
484.82	8933.82
485.00	9095.32
485.18	9179.58
485.35	9411.29
485.53	9437.04
485.71	9289.59
485.89	9561.09
486.07	9584.49
486.25	9547.05
486.43	9493.21
486.61	9816.21
486.78	9811.53
486.96	9926.21
487.14	10108.77
487.32	9963.66
487.50	9907.49
487.68	10197.71
487.85	10223.46
488.03	10361.55
488.21	10249.21
488.39	10801.57
488.57	10621.35
488.75	10602.63
488.92	10937.32
489.10	10902.22
489.28	10902.22
489.46	11101.16
489.64	11140.95
489.81	11162.01
489.99	11365.64
490.17	11215.85
490.35	11576.29
490.53	11396.07
490.70	11800.98
490.88	11695.66
491.06	11665.23
491.24	11740.13
491.41	11859.49
491.59	11854.81
491.77	12004.61
491.95	11922.69
492.13	12046.74
492.30	12411.86
492.48	12306.54
492.66	12524.21
492.84	12278.45
493.01	12470.37
493.19	12294.83
493.37	12807.41
493.54	12578.04
493.72	12500.80
493.90	12706.77
494.08	12954.87
494.25	12968.91
494.43	13004.02
494.61	13310.63
494.79	13156.15
494.96	13018.06
495.14	13357.44
495.32	13727.24
495.49	13549.36
495.67	13568.09
495.85	13495.53
496.02	13853.63
496.20	13839.59
496.38	13720.22
496.55	13771.71
496.73	14267.91
496.91	14040.87
497.09	14448.13
497.26	14204.71
497.44	14120.45
497.62	14057.26
497.79	14485.58
497.97	14555.79
498.14	14780.48
498.32	14719.63
498.50	15007.52
498.67	14941.98
498.85	14623.67
499.03	15096.46
499.20	14820.27
499.38	14934.96
499.56	14881.13
499.73	15400.72
499.91	15318.81
500.08	15583.29
500.26	15318.81
500.44	15421.79
500.61	15342.21
500.79	15353.91
500.97	15543.50
501.14	15822.02
501.32	15492.01
501.49	15637.12
501.67	15693.29
501.84	15875.85
502.02	15728.40
502.20	15807.98
502.37	16123.95
502.55	16278.43
502.72	16084.16
502.90	16184.80
503.07	15967.13
503.25	16432.90
503.43	16077.14
503.60	16489.07
503.78	16615.46
503.95	16809.73
504.13	16472.69
504.30	16753.55
504.48	16718.45
504.65	16786.32
504.83	16692.70
505.01	17008.67
505.18	16826.11
505.36	17062.51
505.53	16673.98
505.71	16945.48
505.88	16980.59
506.06	17069.53
506.23	17221.66
506.41	17509.55
506.58	17429.97
506.76	17521.25
506.93	17497.84
507.11	17584.44
507.28	17699.13
507.46	17530.61
507.63	17614.87
507.81	17699.13
507.98	17788.07
508.16	17685.09
508.33	17619.55
508.50	17813.82
508.68	17900.42
508.85	17930.84
509.03	17767.01
509.20	18249.16
509.38	18178.94
509.55	18307.67
509.73	18373.21
509.90	18359.16
510.08	17954.25
510.25	18108.72
510.42	18307.67
510.60	18466.83
510.77	18682.16
510.95	18497.25
511.12	18747.69
511.30	18747.69
511.47	18874.08
511.64	18881.10
511.82	19096.43
511.99	18923.23
512.17	19014.51
512.34	18764.07
512.51	19159.63
512.69	19255.59
512.86	19030.90
513.04	19644.12
513.21	19274.31
513.38	19363.25
513.56	19215.80
513.73	19349.21
513.90	19494.32
514.08	19419.42
514.25	19550.49
514.43	19740.08
514.60	19784.55
514.77	19735.40
514.95	19618.37
515.12	19639.44
515.29	19648.80
515.47	19946.05
515.64	20189.46
515.81	20128.61
515.99	20372.02
516.16	20240.95
516.33	20173.08
516.51	20009.24
516.68	20348.62
516.85	20126.27
517.03	20552.24
517.20	20325.21
517.37	20428.20
517.54	20407.13
517.72	20285.42
517.89	20259.68
518.06	20503.09
518.24	20786.30
518.41	20620.12
518.58	20709.06
518.75	20332.23
518.93	20987.58
519.10	20706.72
519.27	20985.24
519.45	20622.46
519.62	20854.17
519.79	21064.82
519.96	20926.73
520.14	20875.24
520.31	20940.77
520.48	20975.88
520.65	21013.33
520.83	21345.69
521.00	21579.74
521.17	21270.79
521.34	21336.32
521.52	21699.11
521.69	21404.20
521.86	21317.60
522.03	21743.58
522.20	21434.63
522.38	22185.94
522.55	21525.91
522.72	21390.16
522.89	21998.70
523.07	21820.81
523.24	21799.75
523.41	21795.07
523.58	21603.14
523.75	21958.91
523.92	21799.75
524.10	22279.56
524.27	22036.14
524.44	22089.98
524.61	22508.93
524.78	22396.59
524.96	22412.97
525.13	22572.13
525.30	22721.92
525.47	22555.74
525.64	22595.53
525.81	22607.23
525.98	22558.08
526.16	22635.32
526.33	22824.90
526.50	23061.30
526.67	22588.51
526.84	22614.26
527.01	22572.13
527.18	22824.90
527.36	22927.89
527.53	22979.38
527.70	23082.36
527.87	23152.58
528.04	22848.31
528.21	23410.04
528.38	23175.98
528.55	23084.70
528.72	23082.36
528.89	23405.36
529.07	23204.07
529.24	23379.61
529.41	23344.50
529.58	23295.35
529.75	23260.24
529.92	23342.16
530.09	23250.88
530.26	23260.24
530.43	23569.19
530.60	23424.08
530.77	23627.71
530.94	23810.27
531.11	23639.41
531.28	23632.39
531.46	23388.97
531.63	23728.35
531.80	23903.89
531.97	23796.23
532.14	23690.90
532.31	23885.17
532.48	23679.20
532.65	24343.91
532.82	23716.65
532.99	24079.43
533.16	23763.46
533.33	24620.10
533.50	24163.69
533.67	24238.59
533.84	23861.76
534.01	24130.92
534.18	24130.92
534.35	24100.50
534.52	24652.86
534.69	24456.26
534.86	24994.58
535.03	24535.84
535.20	24538.18
535.37	24631.80
535.54	24753.51
535.71	24606.05
535.88	24477.32
536.05	24915.00
536.22	24741.80
536.38	25319.92
536.55	24683.29
536.72	24996.92
536.89	24678.61
537.06	24673.93
537.23	24805.00
537.40	25132.67
537.57	25371.41
537.74	24851.81
537.91	25186.50
538.08	25158.42
538.25	25064.80
538.42	25193.53
538.59	25200.55
538.75	24835.42
538.92	25116.29
539.09	25399.49
539.26	25177.14
539.43	25401.83
539.60	25397.15
539.77	25193.53
539.94	25418.22
540.11	25137.35
540.28	25703.76
540.44	25642.91
540.61	25577.37
540.78	25216.93
540.95	25942.50
541.12	25415.88
541.29	25750.57
541.46	25830.15
541.62	25458.01
541.79	25572.69
541.96	25558.65
542.13	25584.40
542.30	25654.61
542.47	25923.77
542.63	26225.70
542.80	26103.99
542.97	26134.42
543.14	26312.30
543.31	25937.82
543.48	26162.51
543.64	26340.39
543.81	26302.94
543.98	26356.77
544.15	26307.62
544.32	26129.74
544.48	26824.88
544.65	26548.70
544.82	26302.94
544.99	26274.85
545.16	26597.85
545.32	26504.23
545.49	26565.08
545.66	26740.62
545.83	26820.20
546.00	26684.45
546.16	26553.38
546.33	26536.99
546.50	26377.84
546.67	26728.92
546.83	26043.14
547.00	26775.73
547.17	26581.46
547.34	26939.57
547.50	26967.65
547.67	27056.59
547.84	27005.10
548.00	26862.33
548.17	26740.62
548.34	26792.11
548.51	27035.53
548.67	27208.73
548.84	26906.80
549.01	26724.24
549.18	27098.72
549.34	27274.26
549.51	27211.07
549.68	26836.58
549.84	27065.96
550.01	27307.03
550.18	27470.87
550.34	27384.27
550.51	27332.78
550.68	27484.91
550.84	27276.60
551.01	27337.46
551.18	27611.30
551.34	27222.77
551.51	27122.13
551.68	27288.31
551.84	27800.88
552.01	27239.15
552.18	27520.02
552.34	27587.89
552.51	27653.43
552.68	27129.15
552.84	27543.42
553.01	27990.47
553.18	27522.36
553.34	27536.40
553.51	27763.43
553.67	27924.93
553.84	28224.52
554.01	27854.72
554.17	28313.46
554.34	27871.10
554.51	27871.10
554.67	27824.29
554.84	27812.59
555.00	27850.03
555.17	27740.03
555.33	28210.48
555.50	28271.33
555.67	27915.57
555.83	28128.56
556.00	28166.01
556.16	27999.83
556.33	28343.89
556.50	28119.20
556.66	28266.65
556.83	27924.93
556.99	27990.47
557.16	28308.78
557.32	28577.94
557.49	28444.53
557.65	28130.90
557.82	28161.33
557.98	28238.56
558.15	28549.85
558.32	28327.50
558.48	28177.71
558.65	28458.57
558.81	28563.90
558.98	28570.92
559.14	28023.23
559.31	28601.35
559.47	28102.81
559.64	28687.95
559.80	28292.40
559.97	28973.49
560.13	28039.62
560.30	28393.04
560.46	28821.36
560.63	28816.68
560.79	28694.97
560.96	29017.96
561.12	28357.93
561.29	28196.43
561.45	28666.88
561.61	28746.46
561.78	29081.16
561.94	28905.62
562.11	28746.46
562.27	28882.21
562.44	28788.59
562.60	28636.45
562.77	28587.30
562.93	28568.58
563.10	28865.83
563.26	28526.45
563.42	29221.59
563.59	28739.44
563.75	28898.59
563.92	29008.60
564.08	28226.86
564.24	28505.38
564.41	28858.81
564.57	28793.27
564.74	28802.63
564.90	29230.95
565.07	29291.80
565.23	29158.39
565.39	28987.53
565.56	29324.57
565.72	28940.72
565.88	29418.19
566.05	28868.17
566.21	29127.97
566.38	29074.13
566.54	29003.92
566.70	29277.76
566.87	29188.82
567.03	29303.51
567.19	29336.27
567.36	29261.38
567.52	29252.02
567.68	29078.82
567.85	29223.93
568.01	28950.09
568.17	29350.32
568.34	29163.08
568.50	29198.18
568.66	28950.09
568.83	29706.08
568.99	29596.07
569.15	29305.85
569.32	29252.02
569.48	28886.89
569.64	29462.66
569.81	29308.19
569.97	29123.29
570.13	28893.91
570.30	29034.35
570.46	29380.74
570.62	29097.54
570.78	29326.91
570.95	28999.24
571.11	29593.73
571.27	28861.15
571.43	29305.85
571.60	29495.43
571.76	29830.13
571.92	29329.25
572.09	29425.22
572.25	29586.71
572.41	29326.91
572.57	29488.41
572.74	29333.93
572.90	29263.72
573.06	29397.13
573.22	29315.21
573.38	29151.37
573.55	29252.02
573.71	30026.73
573.87	29551.60
574.03	29488.41
574.20	29825.45
574.36	29495.43
574.52	29450.96
574.68	29844.17
574.84	29406.49
575.01	29516.50
575.17	29675.65
575.33	29378.40
575.49	29436.92
575.65	29624.16
575.82	29780.98
575.98	29376.06
576.14	29558.63
576.30	29666.29
576.46	29029.66
576.62	29235.63
576.79	29460.32
576.95	29544.58
577.11	29926.09
577.27	29813.74
577.43	29701.40
577.59	29830.13
577.75	29493.09
577.92	29170.10
578.08	29242.65
578.24	29806.72
578.40	29420.53
578.56	29537.56
578.72	29755.23
578.88	29722.46
579.04	29685.01
579.21	29722.46
579.37	29603.10
579.53	29502.45
579.69	29443.94
579.85	29282.44
580.01	29390.11
580.17	29350.32
580.33	29280.10
580.49	29373.72
580.65	29661.61
580.82	29762.25
580.98	29811.40
581.14	29577.35
581.30	29467.34
581.46	29607.78
581.62	29633.52
581.78	29301.17
581.94	29621.82
582.10	29518.84
582.26	29261.38
582.42	29930.77
582.58	29586.71
582.74	29624.16
582.90	29434.58
583.06	29570.33
583.22	29663.95
583.38	29584.37
583.54	29741.19
583.70	29329.25
583.86	29687.36
584.02	29514.16
584.18	29846.51
584.34	30010.35
584.50	29989.28
584.66	29769.27
584.82	29638.20
584.98	29848.85
585.14	29589.05
585.30	29872.26
585.46	29809.06
585.62	29493.09
585.78	29661.61
585.94	29795.02
586.10	29413.51
586.26	29624.16
586.42	29865.24
586.58	30183.55
586.74	29977.58
586.90	29577.35
587.06	29785.66
587.22	29706.08
587.38	29448.62
587.54	30012.69
587.70	29928.43
587.86	30012.69
588.02	29888.64
588.18	30169.51
588.34	29795.02
588.49	29743.53
588.65	29692.04
588.81	29968.22
588.97	30000.99
589.13	29965.88
589.29	29825.45
589.45	29860.55
589.61	30218.66
589.77	30263.13
589.93	30127.38
590.08	30110.99
590.24	30005.67
590.40	30342.70
590.56	30319.30
590.72	29809.06
590.88	30216.32
591.04	29916.73
591.20	30192.91
591.35	30323.98
591.51	30321.64
591.67	30054.82
591.83	30396.54
591.99	29951.84
