SpectraSuite Data File
++++++++++++++++++++++++++++++++++++
Date: Fri Oct 18 13:58:10 GMT-05:00 2013
User: bianchi
Dark Spectrum Present: No
Reference Spectrum Present: No
Number of Sampled Component Spectra: 1
Spectrometers: USB2+H05261
Integration Time (usec): 50000 (USB2+H05261)
Spectra Averaged: 1 (USB2+H05261)
Boxcar Smoothing: 0 (USB2+H05261)
Correct for Electrical Dark: No (USB2+H05261)
Strobe/Lamp Enabled: No (USB2+H05261)
Correct for Detector Non-linearity: No (USB2+H05261)
Correct for Stray Light: No (USB2+H05261)
Number of Pixels in Processed Spectrum: 2048
>>>>>Begin Processed Spectral Data<<<<<
365.73	0.00
365.92	0.00
366.12	0.00
366.32	0.00
366.52	0.00
366.72	0.00
366.91	0.00
367.11	0.00
367.31	0.00
367.51	0.00
367.70	0.00
367.90	0.00
368.10	0.00
368.30	0.00
368.49	0.00
368.69	0.00
368.89	0.00
369.09	0.00
369.28	0.00
369.48	0.00
369.68	0.00
369.87	0.00
370.07	0.00
370.27	0.00
370.47	0.00
370.66	140.43
370.86	112.35
371.06	112.35
371.25	152.13
371.45	105.32
371.65	170.86
371.84	154.48
372.04	212.99
372.24	173.20
372.44	138.09
372.63	210.65
372.83	236.39
373.03	215.33
373.22	243.42
373.42	264.48
373.62	182.56
373.81	187.24
374.01	276.18
374.21	208.31
374.40	168.52
374.60	231.71
374.79	259.80
374.99	255.12
375.19	308.95
375.38	266.82
375.58	217.67
375.78	236.39
375.97	255.12
376.17	283.20
376.37	203.63
376.56	241.08
376.76	292.57
376.95	243.42
377.15	264.48
377.35	257.46
377.54	229.37
377.74	287.89
377.93	311.29
378.13	297.25
378.33	318.31
378.52	255.12
378.72	315.97
378.91	313.63
379.11	341.72
379.31	177.88
379.50	278.52
379.70	308.95
379.89	411.93
380.09	376.83
380.28	269.16
380.48	339.38
380.68	299.59
380.87	393.21
381.07	304.27
381.26	339.38
381.46	372.15
381.65	332.36
381.85	315.97
382.04	280.86
382.24	383.85
382.43	400.23
382.63	425.98
382.83	428.32
383.02	376.83
383.22	386.19
383.41	344.06
383.61	376.83
383.80	351.08
384.00	334.70
384.19	325.33
384.39	299.59
384.58	374.49
384.78	360.44
384.97	428.32
385.17	360.44
385.36	388.53
385.56	360.44
385.75	461.09
385.95	308.95
386.14	442.36
386.34	367.46
386.53	428.32
386.72	451.72
386.92	339.38
387.11	383.85
387.31	454.06
387.50	355.76
387.70	411.93
387.89	430.66
388.09	486.83
388.28	395.55
388.48	433.00
388.67	458.74
388.86	428.32
389.06	416.62
389.25	409.59
389.45	421.30
389.64	479.81
389.84	437.68
390.03	475.13
390.22	447.04
390.42	505.56
390.61	498.53
390.81	512.58
391.00	521.94
391.19	416.62
391.39	486.83
391.58	475.13
391.78	463.43
391.97	552.37
392.16	545.34
392.36	486.83
392.55	559.39
392.75	650.67
392.94	550.03
393.13	554.71
393.33	571.09
393.52	603.86
393.71	589.82
393.91	592.16
394.10	559.39
394.29	554.71
394.49	568.75
394.68	657.69
394.88	589.82
395.07	589.82
395.26	573.43
395.46	662.37
395.65	699.82
395.84	608.54
396.04	667.05
396.23	643.65
396.42	664.71
396.62	692.80
396.81	657.69
397.00	620.24
397.19	702.16
397.39	734.93
397.58	683.44
397.77	725.57
397.97	634.29
398.16	671.73
398.35	653.01
398.55	681.10
398.74	748.97
398.93	716.20
399.12	791.10
399.32	711.52
399.51	763.01
399.70	758.33
399.90	739.61
400.09	847.27
400.28	798.12
400.47	741.95
400.67	772.38
400.86	854.30
401.05	751.31
401.24	898.77
401.44	798.12
401.63	699.82
401.82	828.55
402.01	842.59
402.21	847.27
402.40	866.00
402.59	891.74
402.78	868.34
402.97	856.64
403.17	903.45
403.36	863.66
403.55	938.55
403.74	844.93
403.93	931.53
404.13	1022.81
404.32	931.53
404.51	980.68
404.70	999.41
404.89	1013.45
405.09	940.90
405.28	896.43
405.47	987.71
405.66	1029.84
405.85	1025.15
406.05	987.71
406.24	954.94
406.43	992.39
406.62	1090.69
406.81	1095.37
407.00	1064.94
407.20	990.05
407.39	992.39
407.58	1132.82
407.77	1064.94
407.96	1090.69
408.15	1074.31
408.34	1158.57
408.54	1158.57
408.73	1146.86
408.92	1114.10
409.11	1172.61
409.30	1146.86
409.49	1118.78
409.68	1224.10
409.87	1118.78
410.07	1097.71
410.26	1221.76
410.45	1151.54
410.64	1329.42
410.83	1205.38
411.02	1252.19
411.21	1317.72
411.40	1205.38
411.59	1284.95
411.78	1198.35
411.98	1261.55
412.17	1357.51
412.36	1350.49
412.55	1380.92
412.74	1406.66
412.93	1373.89
413.12	1397.30
413.31	1516.67
413.50	1441.77
413.69	1481.56
413.88	1394.96
414.07	1455.81
414.26	1577.52
414.45	1472.20
414.64	1430.07
414.83	1526.03
415.02	1479.22
415.22	1565.82
415.41	1568.16
415.60	1603.27
415.79	1537.73
415.98	1643.06
416.17	1650.08
416.36	1598.59
416.55	1610.29
416.74	1685.19
416.93	1699.23
417.12	1661.78
417.31	1652.42
417.50	1748.38
417.69	1802.21
417.88	1783.49
418.07	1629.01
418.26	1715.61
418.45	1825.62
418.64	1879.45
418.83	1818.60
419.02	1856.04
419.21	1860.73
419.39	1804.55
419.58	1842.00
419.77	1804.55
419.96	1823.28
420.15	1783.49
420.34	1952.01
420.53	1942.64
420.72	1867.75
420.91	1851.36
421.10	1942.64
421.29	1921.58
421.48	1928.60
421.67	2026.90
421.86	1919.24
422.05	2122.87
422.24	1973.07
422.43	1895.83
422.61	2022.22
422.80	2005.84
422.99	2094.78
423.18	2073.71
423.37	2052.65
423.56	1959.03
423.75	2038.61
423.94	2059.67
424.13	1879.45
424.32	1933.28
424.50	2113.50
424.69	1998.82
424.88	2118.18
425.07	2038.61
425.26	1984.77
425.45	2043.29
425.64	2017.54
425.83	1961.37
426.01	2120.53
426.20	2120.53
426.39	2148.61
426.58	2237.55
426.77	2209.47
426.96	2101.80
427.15	2031.58
427.33	2157.97
427.52	2174.36
427.71	2076.06
427.90	2078.40
428.09	2176.70
428.28	2139.25
428.46	2275.00
428.65	2312.45
428.84	2258.62
429.03	2340.54
429.22	2139.25
429.40	2359.26
429.59	2270.32
429.78	2275.00
429.97	2249.25
430.16	2235.21
430.34	2413.09
430.53	2335.85
430.72	2349.90
430.91	2448.20
431.10	2413.09
431.28	2438.84
431.47	2319.47
431.66	2434.16
431.85	2368.62
432.03	2429.48
432.22	2492.67
432.41	2483.31
432.60	2558.21
432.79	2537.14
432.97	2466.92
433.16	2457.56
433.35	2480.97
433.54	2509.05
433.72	2590.97
433.91	2527.78
434.10	2539.48
434.28	2555.86
434.47	2583.95
434.66	2525.44
434.85	2768.85
435.03	2595.65
435.22	2525.44
435.41	2590.97
435.59	2736.09
435.78	2715.02
435.97	2663.53
436.16	2754.81
436.34	2731.41
436.53	2829.71
436.72	2815.66
436.90	2700.98
437.09	2733.75
437.28	2801.62
437.46	2675.23
437.65	2780.56
437.84	2789.92
438.02	2897.58
438.21	2808.64
438.40	2825.03
438.58	2848.43
438.77	2897.58
438.96	2857.79
439.14	3066.10
439.33	2974.82
439.52	2937.37
439.70	3040.36
439.89	3042.70
440.08	3059.08
440.26	3225.26
440.45	3073.12
440.63	3171.43
440.82	3297.81
441.01	3255.69
441.19	3141.00
441.38	3227.60
441.57	3173.77
441.75	3243.98
441.94	3255.69
442.12	3262.71
442.31	3471.01
442.50	3302.50
442.68	3433.57
442.87	3346.97
443.05	3410.16
443.24	3353.99
443.43	3433.57
443.61	3489.74
443.80	3501.44
443.98	3375.05
444.17	3225.26
444.35	3435.91
444.54	3620.81
444.73	3419.52
444.91	3595.06
445.10	3480.38
445.28	3588.04
445.47	3513.14
445.65	3375.05
445.84	3625.49
446.02	3463.99
446.21	3529.53
446.39	3531.87
446.58	3515.48
446.77	3534.21
446.95	3503.78
447.14	3417.18
447.32	3538.89
447.51	3461.65
447.69	3454.63
447.88	3679.32
448.06	3634.85
448.25	3522.51
448.43	3658.26
448.62	3552.93
448.80	3557.61
448.99	3688.68
449.17	3660.60
449.36	3604.42
449.54	3719.11
449.73	3770.60
449.91	3744.86
450.10	3695.71
450.28	3789.33
450.46	3826.78
450.65	3845.50
450.83	3892.31
451.02	3843.16
451.20	3808.05
451.39	3772.94
451.57	3896.99
451.76	3763.58
451.94	3826.78
452.13	3791.67
452.31	3826.78
452.49	3904.01
452.68	3920.40
452.86	3784.65
453.05	3978.91
453.23	3964.87
453.42	3990.61
453.60	3894.65
453.78	3997.64
453.97	4119.34
454.15	3922.74
454.34	4011.68
454.52	4170.83
454.70	4086.58
454.89	4170.83
455.07	4102.96
455.26	4208.28
455.44	4241.05
455.62	4131.05
455.81	4128.70
455.99	4241.05
456.17	4044.45
456.36	4166.15
456.54	4292.54
456.73	4241.05
456.91	4250.41
457.09	4367.44
457.28	4437.66
457.46	4311.27
457.64	4344.03
457.83	4369.78
458.01	4280.84
458.19	4447.02
458.38	4477.44
458.56	4353.40
458.74	4416.59
458.93	4470.42
459.11	4531.28
459.29	4535.96
459.48	4425.95
459.66	4580.43
459.84	4634.26
460.03	4702.14
460.21	4718.52
460.39	4720.86
460.57	4615.54
460.76	4709.16
460.94	4807.46
461.12	4844.91
461.31	4767.67
461.49	4617.88
461.67	4709.16
461.85	4755.97
462.04	4887.04
462.22	4983.00
462.40	4760.65
462.59	4826.18
462.77	4922.15
462.95	4891.72
463.13	4770.01
463.32	4952.57
463.50	4765.33
463.68	4985.34
463.86	4854.27
464.05	4950.23
464.23	4812.14
464.41	5055.56
464.59	4854.27
464.78	4987.68
464.96	4847.25
465.14	5008.75
465.32	5090.67
465.50	5083.64
465.69	5121.09
465.87	5130.45
466.05	5158.54
466.23	5006.41
466.41	5238.12
466.60	5320.04
466.78	5158.54
466.96	5308.34
467.14	5165.56
467.32	5123.43
467.51	5301.31
467.69	5139.82
467.87	5313.02
468.05	5357.49
468.23	5221.74
468.41	5095.35
468.60	5362.17
468.78	5390.25
468.96	5249.82
469.14	5205.35
469.32	5434.72
469.50	5507.28
469.69	5486.22
469.87	5434.72
470.05	5612.60
470.23	5568.13
470.41	5504.94
470.59	5526.00
470.77	5547.07
470.95	5626.65
471.14	5551.75
471.32	5544.73
471.50	5813.89
471.68	5746.02
471.86	5671.12
472.04	5715.59
472.22	6038.58
472.40	5654.73
472.58	5914.53
472.77	5849.00
472.95	5954.32
473.13	6113.48
473.31	5788.14
473.49	5991.77
473.67	5858.36
473.85	5919.21
474.03	5956.66
474.21	5919.21
474.39	6188.38
474.57	6190.72
474.75	6326.47
474.93	6377.96
475.12	6333.49
475.30	6396.68
475.48	6277.32
475.66	6303.06
475.84	6445.84
476.02	6406.05
476.20	6593.29
476.38	6640.10
476.56	6621.38
476.74	6759.47
476.92	6633.08
477.10	6670.53
477.28	6869.47
477.46	6686.91
477.64	7033.31
477.82	6967.77
478.00	7124.59
478.18	7021.61
478.36	7108.21
478.54	6998.20
478.72	7101.19
478.90	7335.24
479.08	7370.35
479.26	7445.24
479.44	7358.64
479.62	7489.71
479.80	7573.97
479.98	7501.42
480.16	7653.55
480.34	7719.09
480.52	7719.09
480.70	7887.61
480.88	7728.45
481.06	7878.24
481.24	7974.21
481.41	7920.37
481.59	7960.16
481.77	8182.51
481.95	8327.63
482.13	8257.41
482.31	8404.86
482.49	8329.97
482.67	8362.73
482.85	8535.93
483.03	8798.07
483.21	8542.96
483.39	8711.47
483.57	8709.13
483.74	8894.04
483.92	8809.78
484.10	8856.59
484.28	9050.85
484.46	9050.85
484.64	9359.80
484.82	8994.68
485.00	9284.91
485.18	9460.45
485.35	9617.26
485.53	9362.14
485.71	9596.20
485.89	9717.90
486.07	9631.30
486.25	9767.06
486.43	9867.70
486.61	9954.30
486.78	9982.38
486.96	10040.90
487.14	10307.72
487.32	10328.78
487.50	10511.35
487.68	10455.17
487.85	10326.44
488.03	10867.11
488.21	10679.86
488.39	10764.12
488.57	10754.76
488.75	10871.79
488.92	11105.84
489.10	11129.25
489.28	11213.51
489.46	11503.73
489.64	11463.94
489.81	11599.70
489.99	11468.62
490.17	11641.82
490.35	11660.55
490.53	11744.81
490.70	12063.12
490.88	11796.30
491.06	11932.05
491.24	12123.98
491.41	12077.16
491.59	12002.27
491.77	12306.54
491.95	12269.09
492.13	12449.31
492.30	12283.13
492.48	12805.07
492.66	12517.18
492.84	12772.30
493.01	12526.55
493.19	12901.03
493.37	12959.55
493.54	12889.33
493.72	13125.72
493.90	13256.79
494.08	13142.11
494.25	13427.65
494.43	13827.88
494.61	13376.16
494.79	13603.19
494.96	13659.37
495.14	13741.29
495.32	13792.78
495.49	13818.52
495.67	13752.99
495.85	13841.93
496.02	13951.93
496.20	13961.30
496.38	14141.52
496.55	14286.63
496.73	14401.32
496.91	14647.07
497.09	14455.15
497.26	14560.47
497.44	14595.58
497.62	14721.97
497.79	14913.89
497.97	14635.37
498.14	15213.48
498.32	14970.07
498.50	15316.47
498.67	15307.10
498.85	14867.08
499.03	15243.91
499.20	15236.89
499.38	15321.15
499.56	15281.36
499.73	15548.18
499.91	15793.94
500.08	15662.86
500.26	15562.22
500.44	15609.03
500.61	16018.63
500.79	16006.92
500.97	16074.80
501.14	16283.11
501.32	16105.23
501.49	15934.37
501.67	16067.78
501.84	16358.00
502.02	16238.64
502.20	16287.79
502.37	16716.11
502.55	16720.79
502.72	16676.32
502.90	16465.67
503.07	16669.30
503.25	16650.57
503.43	16704.40
503.60	16772.28
503.78	16849.52
503.95	17015.69
504.13	16594.40
504.30	17034.42
504.48	17235.70
504.65	17376.14
504.83	17195.92
505.01	17186.55
505.18	17451.03
505.36	17345.71
505.53	17268.47
505.71	17238.05
505.88	17406.56
506.06	17462.74
506.23	17556.36
506.41	17678.07
506.58	17703.81
506.76	17944.89
506.93	17633.60
507.11	17710.83
507.28	17872.33
507.46	17841.90
507.63	18167.24
507.81	18235.11
507.98	17961.27
508.16	18230.43
508.33	18164.90
508.50	18328.74
508.68	18567.47
508.85	18361.50
509.03	18434.06
509.20	18518.32
509.38	18761.73
509.55	18616.62
509.73	18656.41
509.90	18735.99
510.08	18586.19
510.25	18850.67
510.42	18984.09
510.60	19122.18
510.77	19194.73
510.95	19110.47
511.12	19236.86
511.30	19140.90
511.47	19295.38
511.64	19271.97
511.82	19562.20
511.99	19491.98
512.17	19243.88
512.34	19534.11
512.51	19557.52
512.69	19461.55
512.86	19763.48
513.04	19861.79
513.21	19761.14
513.38	20030.30
513.56	20030.30
513.73	19679.22
513.90	19737.74
514.08	19807.95
514.25	20166.06
514.43	20044.35
514.60	20245.63
514.77	20250.32
514.95	20524.16
515.12	20259.68
515.29	20173.08
515.47	20446.92
515.64	20407.13
515.81	20465.64
515.99	20643.52
516.16	20725.44
516.33	20821.41
516.51	21064.82
516.68	20720.76
516.85	20556.93
517.03	20730.12
517.20	20524.16
517.37	20917.37
517.54	20968.86
517.72	20987.58
517.89	20713.74
518.06	21172.49
518.24	20985.24
518.41	20858.85
518.58	21062.48
518.75	21135.04
518.93	21425.26
519.10	21462.71
519.27	21687.40
519.45	21399.52
519.62	21488.46
519.79	21511.86
519.96	21341.00
520.14	21710.81
520.31	21481.44
520.48	21893.37
520.65	21942.52
520.83	21872.31
521.00	21977.63
521.17	21865.28
521.34	21766.98
521.52	22012.74
521.69	21916.78
521.86	22118.06
522.03	22059.55
522.20	22094.66
522.38	22333.39
522.55	22569.79
522.72	22265.52
522.89	22314.67
523.07	22253.81
523.24	22600.21
523.41	22764.05
523.58	22455.10
523.75	22560.42
523.92	22497.23
524.10	22394.25
524.27	22675.11
524.44	22906.82
524.61	22948.95
524.78	22941.93
524.96	22705.54
525.13	23033.21
525.30	23033.21
525.47	23070.66
525.64	22909.16
525.81	23276.63
525.98	23384.29
526.16	23550.47
526.33	23424.08
526.50	23583.24
526.67	23183.01
526.84	23585.58
527.01	23391.31
527.18	23669.84
527.36	23552.81
527.53	23618.35
527.70	24144.97
527.87	23950.70
528.04	23917.93
528.21	23768.14
528.38	23892.19
528.55	23608.98
528.72	23751.76
528.89	23843.04
529.07	23644.09
529.24	24070.07
529.41	24334.55
529.58	24245.61
529.75	24168.37
529.92	24013.90
530.09	24161.35
530.26	24119.22
530.43	24425.83
530.60	23803.25
530.77	24095.82
530.94	24224.54
531.11	24236.25
531.28	24229.23
531.46	24126.24
531.63	24418.81
531.80	24320.51
531.97	24758.19
532.14	24961.81
532.31	24503.07
532.48	24844.79
532.65	24926.71
532.82	24538.18
532.99	24741.80
533.16	24727.76
533.33	24739.46
533.50	25069.48
533.67	24861.17
533.84	24540.52
534.01	24973.52
534.18	24886.92
534.35	25282.47
534.52	25111.61
534.69	25261.40
534.86	25032.03
535.03	25006.28
535.20	25476.73
535.37	25553.97
535.54	25586.74
535.71	25221.61
535.88	25280.13
536.05	25385.45
536.22	25771.64
536.38	25621.84
536.55	25745.89
536.72	25490.77
536.89	25233.32
537.06	25736.53
537.23	25944.84
537.40	25511.84
537.57	25497.80
537.74	25771.64
537.91	26010.37
538.08	26005.69
538.25	25694.40
538.42	25797.38
538.59	26047.82
538.75	25942.50
538.92	26017.40
539.09	25743.55
539.26	25989.31
539.43	26218.68
539.60	26026.76
539.77	26382.52
539.94	26331.03
540.11	26169.53
540.28	26029.10
540.44	26054.84
540.61	26410.60
540.78	26260.81
540.95	26335.71
541.12	26354.43
541.29	26520.61
541.46	26410.60
541.62	26026.76
541.79	26204.64
541.96	26188.25
542.13	26438.69
542.30	26078.25
542.47	26806.16
542.63	26546.36
542.80	27072.98
542.97	26764.03
543.14	27005.10
543.31	26654.02
543.48	26977.01
543.64	27330.44
543.81	27103.40
543.98	27267.24
544.15	27246.18
544.32	27402.99
544.48	27583.21
544.65	26843.60
544.82	27248.52
544.99	27150.21
545.16	27178.30
545.32	26969.99
545.49	27438.10
545.66	27644.07
545.83	27215.75
546.00	27452.14
546.16	27693.22
546.33	27264.90
546.50	27105.74
546.67	27365.54
546.83	27159.58
547.00	27505.98
547.17	27695.56
547.34	27838.33
547.50	27407.67
547.67	27859.40
547.84	27709.60
548.00	27534.06
548.17	27880.46
548.34	27618.32
548.51	28542.83
548.67	27974.08
548.84	27990.47
549.01	27807.90
549.18	27859.40
549.34	27695.56
549.51	27864.08
549.68	27981.10
549.84	27852.38
550.01	27840.67
550.18	27679.18
550.34	28198.77
550.51	28257.29
550.68	28437.51
550.84	27768.12
551.01	27941.32
551.18	27978.76
551.34	28046.64
551.51	28163.67
551.68	28697.31
551.84	28217.50
552.01	28276.01
552.18	28474.96
552.34	28074.73
552.51	28774.55
552.68	28709.01
552.84	28339.21
553.01	28395.38
553.18	28402.40
553.34	28814.34
553.51	28938.38
553.67	28533.47
553.84	28774.55
554.01	28615.39
554.17	28795.61
554.34	28496.02
554.51	28442.19
554.67	28996.90
554.84	28793.27
555.00	29085.84
555.17	28620.07
555.33	28940.72
555.50	28994.56
555.67	28964.13
555.83	28994.56
556.00	29127.97
556.16	29247.33
556.33	28964.13
556.50	29146.69
556.66	29172.44
556.83	28910.30
556.99	29202.86
557.16	29404.15
557.32	29043.71
557.49	29193.50
557.65	29261.38
557.82	29142.01
557.98	29097.54
558.15	28709.01
558.32	29343.30
558.48	29144.35
558.65	29497.77
558.81	29579.69
558.98	29467.34
559.14	29626.50
559.31	29448.62
559.47	29289.46
559.64	29340.96
559.80	29385.43
559.97	29694.38
560.13	29067.11
560.30	28964.13
560.46	29153.71
560.63	29577.35
560.79	29706.08
560.96	29795.02
561.12	29422.87
561.29	29376.06
561.45	29378.40
561.61	29441.60
561.78	29989.28
561.94	29544.58
562.11	29635.86
562.27	29453.30
562.44	29355.00
562.60	29350.32
562.77	29338.62
562.93	29474.37
563.10	29743.53
563.26	29673.31
563.42	29820.77
563.59	29736.51
563.75	29888.64
563.92	29722.46
564.08	29369.04
564.24	29425.22
564.41	29745.87
564.57	29738.85
564.74	29949.50
564.90	30169.51
565.07	29734.17
565.23	30031.41
565.39	29745.87
565.56	29930.77
565.72	29640.54
565.88	29720.12
566.05	29921.41
566.21	29708.42
566.38	30029.07
566.54	29720.12
566.70	30499.52
566.87	30209.29
567.03	30209.29
567.19	30426.96
567.36	30162.48
567.52	30162.48
567.68	30174.19
567.85	30221.00
568.01	30443.35
568.17	30263.13
568.34	30190.57
568.50	30162.48
568.66	30127.38
568.83	30263.13
568.99	30178.87
569.15	30150.78
569.32	30366.11
569.48	29790.34
569.64	30192.91
569.81	30244.40
569.97	30155.46
570.13	30148.44
570.30	29886.30
570.46	30216.32
570.62	30497.18
570.78	30511.22
570.95	30223.34
571.11	30340.36
571.27	30160.14
571.43	30249.08
571.60	30345.05
571.76	30232.70
571.92	30211.64
572.09	30382.49
572.25	30345.05
572.41	30473.78
572.57	30415.26
572.74	30600.16
572.90	30064.18
573.06	30031.41
573.22	30256.11
573.38	30302.92
573.55	30558.03
573.71	30930.18
573.87	30295.89
574.03	30197.59
574.20	29954.18
574.36	30323.98
574.52	30082.91
574.68	30139.08
574.84	30490.16
575.01	29961.20
575.17	30396.54
575.33	30274.83
575.49	30342.70
575.65	30508.88
575.82	30609.53
575.98	30438.67
576.14	30789.75
576.30	30663.36
576.46	30132.06
576.62	30426.96
576.79	30656.34
576.95	30476.12
577.11	30441.01
577.27	30892.73
577.43	30492.50
577.59	30281.85
577.75	30293.55
577.92	30309.94
578.08	30188.23
578.24	30363.77
578.40	30476.12
578.56	30576.76
578.72	30221.00
578.88	31068.27
579.04	30852.94
579.21	30314.62
579.37	30515.90
579.53	30831.88
579.69	30572.08
579.85	30501.86
580.01	30328.66
580.17	30604.84
580.33	30232.70
580.49	30572.08
580.65	30595.48
580.82	30684.42
580.98	30885.71
581.14	30665.70
581.30	30864.64
581.46	30403.56
581.62	30773.36
581.78	30576.76
581.94	31040.18
582.10	30356.75
582.26	30450.37
582.42	30714.85
582.58	30408.24
582.74	30536.97
582.90	30590.80
583.06	30740.60
583.22	30525.27
583.38	30630.59
583.54	30529.95
583.70	30567.40
583.86	30974.65
584.02	30380.15
584.18	30869.33
584.34	30714.85
584.50	30878.69
584.66	30726.55
584.82	30277.17
584.98	30937.20
585.14	30881.03
585.30	31101.04
585.46	30754.64
585.62	30721.87
585.78	30766.34
585.94	30658.68
586.10	30576.76
586.26	31178.28
586.42	31058.91
586.58	30595.48
586.74	30764.00
586.90	30551.01
587.06	30508.88
587.22	30724.21
587.38	31035.50
587.54	31143.17
587.70	30808.47
587.86	30965.29
588.02	30892.73
588.18	31505.95
588.34	30850.60
588.49	30312.28
588.65	30373.13
588.81	30721.87
588.97	30815.49
589.13	31101.04
589.29	30824.86
589.45	31232.11
589.61	30836.56
589.77	30969.97
589.93	31047.21
590.08	31431.05
590.24	31388.92
590.40	31168.91
590.56	31339.77
590.72	31108.06
590.88	30789.75
591.04	31040.18
591.20	31316.37
591.35	31192.32
591.51	31098.70
591.67	31250.83
591.83	31807.88
