SpectraSuite Data File
++++++++++++++++++++++++++++++++++++
Date: Fri Oct 18 13:58:00 GMT-05:00 2013
User: bianchi
Dark Spectrum Present: No
Reference Spectrum Present: No
Number of Sampled Component Spectra: 1
Spectrometers: USB2+H05261
Integration Time (usec): 50000 (USB2+H05261)
Spectra Averaged: 1 (USB2+H05261)
Boxcar Smoothing: 0 (USB2+H05261)
Correct for Electrical Dark: No (USB2+H05261)
Strobe/Lamp Enabled: No (USB2+H05261)
Correct for Detector Non-linearity: No (USB2+H05261)
Correct for Stray Light: No (USB2+H05261)
Number of Pixels in Processed Spectrum: 2048
>>>>>Begin Processed Spectral Data<<<<<
365.73	0.00
365.92	0.00
366.12	0.00
366.32	0.00
366.52	0.00
366.72	0.00
366.91	0.00
367.11	0.00
367.31	0.00
367.51	0.00
367.70	0.00
367.90	0.00
368.10	0.00
368.30	0.00
368.49	0.00
368.69	0.00
368.89	0.00
369.09	0.00
369.28	0.00
369.48	0.00
369.68	0.00
369.87	0.00
370.07	0.00
370.27	0.00
370.47	0.00
370.66	74.90
370.86	140.43
371.06	74.90
371.25	105.32
371.45	98.30
371.65	107.66
371.84	163.84
372.04	161.50
372.24	135.75
372.44	131.07
372.63	196.60
372.83	224.69
373.03	187.24
373.22	140.43
373.42	194.26
373.62	220.01
373.81	250.44
374.01	243.42
374.21	245.76
374.40	257.46
374.60	386.19
374.79	238.73
374.99	217.67
375.19	191.92
375.38	198.95
375.58	259.80
375.78	257.46
375.97	280.86
376.17	271.50
376.37	271.50
376.56	266.82
376.76	280.86
376.95	189.58
377.15	280.86
377.35	227.03
377.54	318.31
377.74	187.24
377.93	278.52
378.13	224.69
378.33	248.10
378.52	245.76
378.72	269.16
378.91	201.29
379.11	229.37
379.31	315.97
379.50	287.89
379.70	304.27
379.89	250.44
380.09	301.93
380.28	276.18
380.48	320.65
380.68	313.63
380.87	332.36
381.07	252.78
381.26	334.70
381.46	344.06
381.65	250.44
381.85	269.16
382.04	322.99
382.24	313.63
382.43	430.66
382.63	337.04
382.83	330.02
383.02	414.27
383.22	362.78
383.41	262.14
383.61	376.83
383.80	353.42
384.00	341.72
384.19	367.46
384.39	353.42
384.58	372.15
384.78	362.78
384.97	468.11
385.17	348.74
385.36	421.30
385.56	395.55
385.75	383.85
385.95	444.70
386.14	449.38
386.34	360.44
386.53	362.78
386.72	416.62
386.92	311.29
387.11	428.32
387.31	358.10
387.50	348.74
387.70	381.51
387.89	397.89
388.09	468.11
388.28	418.96
388.48	561.73
388.67	444.70
388.86	470.45
389.06	451.72
389.25	528.96
389.45	400.23
389.64	433.00
389.84	496.19
390.03	484.49
390.22	475.13
390.42	507.90
390.61	388.53
390.81	479.81
391.00	498.53
391.19	526.62
391.39	540.66
391.58	505.56
391.78	514.92
391.97	503.22
392.16	528.96
392.36	489.17
392.55	580.45
392.75	533.64
392.94	557.05
393.13	547.69
393.33	512.58
393.52	514.92
393.71	557.05
393.91	564.07
394.10	550.03
394.29	615.56
394.49	571.09
394.68	603.86
394.88	622.58
395.07	578.11
395.26	564.07
395.46	596.84
395.65	629.60
395.84	599.18
396.04	688.12
396.23	685.78
396.42	641.31
396.62	606.20
396.81	669.39
397.00	767.70
397.19	643.65
397.39	683.44
397.58	688.12
397.77	683.44
397.97	603.86
398.16	636.63
398.35	622.58
398.55	674.07
398.74	744.29
398.93	690.46
399.12	648.33
399.32	671.73
399.51	732.59
399.70	772.38
399.90	688.12
400.09	739.61
400.28	779.40
400.47	805.14
400.67	786.42
400.86	718.54
401.05	840.25
401.24	856.64
401.44	798.12
401.63	800.46
401.82	725.57
402.01	795.78
402.21	816.85
402.40	868.34
402.59	887.06
402.78	814.51
402.97	833.23
403.17	882.38
403.36	898.77
403.55	894.08
403.74	922.17
403.93	940.90
404.13	880.04
404.32	814.51
404.51	908.13
404.70	945.58
404.89	882.38
405.09	833.23
405.28	971.32
405.47	945.58
405.66	922.17
405.85	987.71
406.05	889.40
406.24	1020.47
406.43	1029.84
406.62	1015.79
406.81	1025.15
407.00	1076.65
407.20	997.07
407.39	1060.26
407.58	1081.33
407.77	1102.39
407.96	1107.07
408.15	1095.37
408.34	1060.26
408.54	1069.62
408.73	1184.31
408.92	1078.99
409.11	1116.44
409.30	1055.58
409.49	1142.18
409.68	1132.82
409.87	1144.52
410.07	1156.22
410.26	1116.44
410.45	1139.84
410.64	1242.82
410.83	1245.16
411.02	1254.53
411.21	1310.70
411.40	1121.12
411.59	1247.51
411.78	1193.67
411.98	1181.97
412.17	1158.57
412.36	1200.69
412.55	1310.70
412.74	1301.34
412.93	1315.38
413.12	1327.08
413.31	1378.58
413.50	1390.28
413.69	1310.70
413.88	1439.43
414.07	1394.96
414.26	1507.30
414.45	1441.77
414.64	1364.53
414.83	1385.60
415.02	1544.75
415.22	1432.41
415.41	1626.67
415.60	1551.78
415.79	1542.41
415.98	1490.92
416.17	1540.07
416.36	1629.01
416.55	1516.67
416.74	1636.03
416.93	1668.80
417.12	1713.27
417.31	1743.70
417.50	1645.40
417.69	1736.68
417.88	1706.25
418.07	1680.50
418.26	1797.53
418.45	1732.00
418.64	1776.47
418.83	1788.17
419.02	1767.10
419.21	1675.82
419.39	1851.36
419.58	1753.06
419.77	1736.68
419.96	1781.15
420.15	1832.64
420.34	1898.17
420.53	1860.73
420.72	1895.83
420.91	2017.54
421.10	1909.88
421.29	1944.99
421.48	1923.92
421.67	1914.56
421.86	1907.54
422.05	2052.65
422.24	1930.94
422.43	1989.46
422.61	1947.33
422.80	1898.17
422.99	1982.43
423.18	1895.83
423.37	2054.99
423.56	2113.50
423.75	2036.27
423.94	1961.37
424.13	1884.13
424.32	1823.28
424.50	1970.73
424.69	2001.16
424.88	2092.44
425.07	2001.16
425.26	1933.28
425.45	2118.18
425.64	2022.22
425.83	1907.54
426.01	2108.82
426.20	2047.97
426.39	2031.58
426.58	1968.39
426.77	2062.01
426.96	2064.35
427.15	2087.76
427.33	2157.97
427.52	2120.53
427.71	2148.61
427.90	2022.22
428.09	2094.78
428.28	2087.76
428.46	2101.80
428.65	2062.01
428.84	2314.79
429.03	2214.15
429.22	2239.89
429.40	2232.87
429.59	2267.98
429.78	2223.51
429.97	2155.63
430.16	2183.72
430.34	2263.30
430.53	2321.81
430.72	2312.45
430.91	2375.64
431.10	2399.05
431.28	2380.32
431.47	2328.83
431.66	2349.90
431.85	2396.71
432.03	2387.35
432.22	2450.54
432.41	2429.48
432.60	2359.26
432.79	2401.39
432.97	2443.52
433.16	2574.59
433.35	2438.84
433.54	2424.80
433.72	2530.12
433.91	2403.73
434.10	2525.44
434.28	2616.72
434.47	2473.95
434.66	2579.27
434.85	2548.84
435.03	2502.03
435.22	2576.93
435.41	2658.85
435.59	2593.31
435.78	2607.36
435.97	2644.81
436.16	2614.38
436.34	2626.08
436.53	2733.75
436.72	2841.41
436.90	2572.25
437.09	2644.81
437.28	2722.04
437.46	2724.38
437.65	2808.64
437.84	2778.22
438.02	2757.15
438.21	2719.70
438.40	2698.64
438.58	2946.73
438.77	2860.13
438.96	2815.66
439.14	2974.82
439.33	2885.88
439.52	2937.37
439.70	2850.77
439.89	2995.89
440.08	2867.16
440.26	3047.38
440.45	2946.73
440.63	3075.46
440.82	3178.45
441.01	3068.44
441.19	2995.89
441.38	3026.31
441.57	3169.09
441.75	3234.62
441.94	3370.37
442.12	3201.85
442.31	3375.05
442.50	3262.71
442.68	3274.41
442.87	3358.67
443.05	3351.65
443.24	3445.27
443.43	3286.11
443.61	3417.18
443.80	3478.04
443.98	3363.35
444.17	3363.35
444.35	3375.05
444.54	3428.88
444.73	3417.18
444.91	3403.14
445.10	3407.82
445.28	3522.51
445.47	3339.94
445.65	3463.99
445.84	3337.60
446.02	3386.76
446.21	3428.88
446.39	3414.84
446.58	3538.89
446.77	3431.23
446.95	3353.99
447.14	3433.57
447.32	3473.36
447.51	3545.91
447.69	3452.29
447.88	3403.14
448.06	3442.93
448.25	3456.97
448.43	3648.90
448.62	3555.27
448.80	3499.10
448.99	3602.08
449.17	3389.10
449.36	3501.44
449.54	3606.77
449.73	3597.40
449.91	3674.64
450.10	3550.59
450.28	3763.58
450.46	3775.28
450.65	3658.26
450.83	3845.50
451.02	3791.67
451.20	3786.99
451.39	3660.60
451.57	3559.95
451.76	3819.75
451.94	3866.56
452.13	3815.07
452.31	3768.26
452.49	3714.43
452.68	3836.14
452.86	3737.84
453.05	3826.78
453.23	3971.89
453.42	3812.73
453.60	3908.69
453.78	3899.33
453.97	3822.09
454.15	3927.42
454.34	3997.64
454.52	4035.08
454.70	3955.51
454.89	4018.70
455.07	4056.15
455.26	4063.17
455.44	4049.13
455.62	4100.62
455.81	4051.47
455.99	4102.96
456.17	4156.79
456.36	4086.58
456.54	4236.37
456.73	4140.41
456.91	4280.84
457.09	4341.69
457.28	4308.93
457.46	4369.78
457.64	4229.35
457.83	4400.21
458.01	4257.43
458.19	4353.40
458.38	4241.05
458.56	4470.42
458.74	4414.25
458.93	4308.93
459.11	4322.97
459.29	4493.83
459.48	4601.49
459.66	4414.25
459.84	4624.90
460.03	4608.51
460.21	4528.94
460.39	4461.06
460.57	4411.91
460.76	4440.00
460.94	4652.98
461.12	4592.13
461.31	4599.15
461.49	4519.57
461.67	4535.96
461.85	4683.41
462.04	4592.13
462.22	5097.69
462.40	4720.86
462.59	4685.75
462.77	4828.53
462.95	4734.90
463.13	4723.20
463.32	4734.90
463.50	4821.50
463.68	4760.65
463.86	4699.80
464.05	4676.39
464.23	4692.77
464.41	4844.91
464.59	4798.10
464.78	4821.50
464.96	4793.42
465.14	4912.78
465.32	4884.70
465.50	4915.12
465.69	4873.00
465.87	5139.82
466.05	4954.91
466.23	4999.38
466.41	4894.06
466.60	5174.92
466.78	5015.77
466.96	5083.64
467.14	4994.70
467.32	4915.12
467.51	5198.33
467.69	5074.28
467.87	5022.79
468.05	5167.90
468.23	5146.84
468.41	5076.62
468.60	5034.49
468.78	5268.55
468.96	5123.43
469.14	5399.62
469.32	5310.68
469.50	5111.73
469.69	5210.03
469.87	5240.46
470.05	5427.70
470.23	5313.02
470.41	5469.83
470.59	5273.23
470.77	5219.39
470.95	5430.04
471.14	5591.54
471.32	5355.15
471.50	5593.88
471.68	5582.18
471.86	5523.66
472.04	5671.12
472.22	5640.69
472.40	5638.35
472.58	5710.91
472.77	5678.14
472.95	5825.59
473.13	5928.58
473.31	5741.33
473.49	5713.25
473.67	5879.43
473.85	5888.79
474.03	5975.39
474.21	5839.64
474.39	5994.11
474.57	6139.23
474.75	6448.18
474.93	6047.94
475.12	6064.33
475.30	6090.07
475.48	6085.39
475.66	6282.00
475.84	6164.97
476.02	6455.20
476.20	6232.85
476.38	6251.57
476.56	6600.31
476.74	6516.05
476.92	6431.79
477.10	6509.03
477.28	6604.99
477.46	6614.35
477.64	6693.93
477.82	6672.87
478.00	6918.62
478.18	6906.92
478.36	6834.36
478.54	6740.74
478.72	6965.43
478.90	6988.84
479.08	7098.84
479.26	7276.73
479.44	7351.62
479.62	7328.22
479.80	7428.86
479.98	7363.33
480.16	7405.46
480.34	7543.55
480.52	7665.25
480.70	7609.08
480.88	7585.68
481.06	7733.13
481.24	7749.51
481.41	7559.93
481.59	8049.10
481.77	7859.52
481.95	8105.28
482.13	7939.10
482.31	7932.08
482.49	8416.57
482.67	8259.75
482.85	8369.76
483.03	8383.80
483.21	8531.25
483.39	8444.65
483.57	8521.89
483.74	8746.58
483.92	8489.12
484.10	8671.68
484.28	8959.57
484.46	9144.47
484.64	9235.75
484.82	8835.52
485.00	8980.64
485.18	9102.34
485.35	9528.32
485.53	9549.39
485.71	9469.81
485.89	9703.86
486.07	9455.76
486.25	9727.27
486.43	9650.03
486.61	9820.89
486.78	9525.98
486.96	9650.03
487.14	10108.77
487.32	10052.60
487.50	9949.62
487.68	10237.50
487.85	10286.65
488.03	10434.11
488.21	10413.04
488.39	10569.86
488.57	10406.02
488.75	10476.24
488.92	10874.13
489.10	10913.92
489.28	10890.51
489.46	11185.42
489.64	10839.02
489.81	11154.99
489.99	11232.23
490.17	11283.72
490.35	11194.78
490.53	11290.74
490.70	11510.75
490.88	11520.12
491.06	11583.31
491.24	11695.66
491.41	11747.15
491.59	11808.00
491.77	11859.49
491.95	12039.72
492.13	12290.15
492.30	12123.98
492.48	12336.96
492.66	12194.19
492.84	12128.66
493.01	12479.74
493.19	12428.24
493.37	12594.42
493.54	12489.10
493.72	12655.28
493.90	12943.16
494.08	12737.20
494.25	12769.96
494.43	13139.77
494.61	13207.64
494.79	13181.90
494.96	13209.98
495.14	13209.98
495.32	13359.78
495.49	13565.74
495.67	13561.06
495.85	13855.97
496.02	13561.06
496.20	13757.67
496.38	13802.14
496.55	13891.08
496.73	14101.73
496.91	14368.55
497.09	14197.69
497.26	14333.44
497.44	14230.46
497.62	13886.40
497.79	14656.43
497.97	14530.05
498.14	14743.03
498.32	14689.20
498.50	14813.25
498.67	14850.70
498.85	14623.67
499.03	14888.15
499.20	14897.51
499.38	15187.74
499.56	15157.31
499.73	15070.71
499.91	15346.89
500.08	15227.53
500.26	15178.37
500.44	15227.53
500.61	15028.58
500.79	15089.43
500.97	15360.94
501.14	15927.35
501.32	15929.69
501.49	15962.45
501.67	15667.55
501.84	15573.92
502.02	16149.70
502.20	15946.07
502.37	16236.30
502.55	16095.86
502.72	15999.90
502.90	16266.72
503.07	16037.35
503.25	16271.40
503.43	16229.27
503.60	16437.58
503.78	16695.04
503.95	16510.14
504.13	16683.34
504.30	16521.84
504.48	16669.30
504.65	16622.48
504.83	16854.20
505.01	16898.67
505.18	16952.50
505.36	16926.75
505.53	16851.86
505.71	16870.58
505.88	17268.47
506.06	16994.63
506.23	17228.68
506.41	17312.94
506.58	17436.99
506.76	17422.95
506.93	17392.52
507.11	17635.94
507.28	17493.16
507.46	17312.94
507.63	17518.91
507.81	17755.30
507.98	17774.03
508.16	17799.77
508.33	17509.55
508.50	17834.88
508.68	17947.23
508.85	18317.03
509.03	18061.91
509.20	17954.25
509.38	18150.85
509.55	18057.23
509.73	18164.90
509.90	18359.16
510.08	18244.48
510.25	18469.17
510.42	18532.36
510.60	18597.90
510.77	18892.80
510.95	18635.35
511.12	18747.69
511.30	18396.61
511.47	18642.37
511.64	18712.58
511.82	18773.44
511.99	18743.01
512.17	19227.50
512.34	18944.30
512.51	18979.40
512.69	19225.16
512.86	19255.59
513.04	19241.54
513.21	19300.06
513.38	19442.83
513.56	19641.78
513.73	19108.13
513.90	19440.49
514.08	19536.45
514.25	19620.71
514.43	19410.06
514.60	19765.82
514.77	19531.77
514.95	19721.35
515.12	19648.80
515.29	19777.53
515.47	19943.70
515.64	19777.53
515.81	19946.05
515.99	20360.32
516.16	20156.69
516.33	20091.16
516.51	20615.44
516.68	19908.60
516.85	20198.82
517.03	20243.29
517.20	20208.19
517.37	20336.91
517.54	20486.71
517.72	20411.81
517.89	20446.92
518.06	20472.67
518.24	20458.62
518.41	20556.93
518.58	20762.89
518.75	20741.83
518.93	20889.28
519.10	20699.70
519.27	20856.51
519.45	20872.90
519.62	20947.79
519.79	21055.46
519.96	21118.65
520.14	21390.16
520.31	21053.12
520.48	21191.21
520.65	21303.56
520.83	21425.26
521.00	21516.54
521.17	21319.94
521.34	21373.77
521.52	21429.94
521.69	21404.20
521.86	21596.12
522.03	21549.31
522.20	21687.40
522.38	21764.64
522.55	21575.06
522.72	21762.30
522.89	21493.14
523.07	21954.22
523.24	21848.90
523.41	21816.13
523.58	22005.72
523.75	22204.66
523.92	21994.01
524.10	22075.93
524.27	22298.28
524.44	22380.20
524.61	22359.14
524.78	22450.42
524.96	22469.14
525.13	22422.33
525.30	22555.74
525.47	22515.95
525.64	22405.95
525.81	22508.93
525.98	22892.78
526.16	22806.18
526.33	22520.63
526.50	22883.42
526.67	22480.85
526.84	22478.50
527.01	22815.54
527.18	22820.22
527.36	22970.02
527.53	22979.38
527.70	22838.95
527.87	23175.98
528.04	22864.69
528.21	22717.24
528.38	23180.67
528.55	23388.97
528.72	23391.31
528.89	23040.23
529.07	23302.37
529.24	23239.18
529.41	23421.74
529.58	23470.89
529.75	23555.15
529.92	23349.18
530.09	23482.59
530.26	23538.77
530.43	23756.44
530.60	23580.90
530.77	23718.99
530.94	23763.46
531.11	23506.00
531.28	23838.36
531.46	23983.47
531.63	24102.84
531.80	23873.46
531.97	23819.63
532.14	23868.78
532.31	24009.22
532.48	23962.40
532.65	24198.80
532.82	24084.11
532.99	23946.02
533.16	23981.13
533.33	24189.44
533.50	24561.58
533.67	24201.14
533.84	23854.74
534.01	24306.46
534.18	24091.13
534.35	24336.89
534.52	24435.19
534.69	24545.20
534.86	24816.70
535.03	24484.34
535.20	24697.33
535.37	24774.57
535.54	24367.32
535.71	24559.24
535.88	24638.82
536.05	24608.39
536.22	24999.26
536.38	25057.78
536.55	24669.25
536.72	25055.43
536.89	24664.57
537.06	24739.46
537.23	24753.51
537.40	24491.37
537.57	25046.07
537.74	24790.95
537.91	24915.00
538.08	25434.60
538.25	24975.86
538.42	25326.94
538.59	25387.79
538.75	24971.18
538.92	25092.88
539.09	24975.86
539.26	25296.51
539.43	25102.25
539.60	25305.87
539.77	25593.76
539.94	25324.60
540.11	25418.22
540.28	25392.47
540.44	25497.80
540.61	25401.83
540.78	25575.03
540.95	25254.38
541.12	25556.31
541.29	25678.02
541.46	25392.47
541.62	25495.46
541.79	25844.20
541.96	25638.23
542.13	25638.23
542.30	25671.00
542.47	26120.38
542.63	25792.70
542.80	25832.49
542.97	26302.94
543.14	26368.48
543.31	26185.91
543.48	26181.23
543.64	26391.88
543.81	26546.36
543.98	26452.73
544.15	26551.04
544.32	26244.43
544.48	26436.35
544.65	26459.76
544.82	26164.85
544.99	26408.26
545.16	26663.38
545.32	26045.48
545.49	26698.49
545.66	26628.27
545.83	26253.79
546.00	27056.59
546.16	26665.72
546.33	26693.81
546.50	26639.98
546.67	26588.49
546.83	26113.36
547.00	26590.83
547.17	26628.27
547.34	26969.99
547.50	26923.18
547.67	27208.73
547.84	27014.46
548.00	26663.38
548.17	26944.25
548.34	26738.28
548.51	27307.03
548.67	27494.27
548.84	27335.12
549.01	27384.27
549.18	27035.53
549.34	26841.26
549.51	27187.66
549.68	27089.36
549.84	27171.28
550.01	27379.59
550.18	27204.05
550.34	27213.41
550.51	27264.90
550.68	27491.93
550.84	27136.17
551.01	27353.84
551.18	27316.39
551.34	27138.51
551.51	27234.47
551.68	27651.09
551.84	27756.41
552.01	27445.12
552.18	27592.58
552.34	27487.25
552.51	27695.56
552.68	27489.59
552.84	27484.91
553.01	27707.26
553.18	28102.81
553.34	27494.27
553.51	27674.49
553.67	27997.49
553.84	27716.62
554.01	28322.82
554.17	27922.59
554.34	27765.78
554.51	27887.48
554.67	27981.10
554.84	28154.30
555.00	27597.26
555.17	27868.76
555.33	28086.43
555.50	28231.54
555.67	27992.81
555.83	27903.87
556.00	28287.71
556.16	28655.18
556.33	28086.43
556.50	28353.25
556.66	27852.38
556.83	28063.02
556.99	28418.78
557.16	28570.92
557.32	28161.33
557.49	28470.28
557.65	28063.02
557.82	28121.54
557.98	28290.06
558.15	28318.14
558.32	28549.85
558.48	28400.06
558.65	28526.45
558.81	28353.25
558.98	28531.13
559.14	28210.48
559.31	28514.75
559.47	28243.24
559.64	28095.79
559.80	28650.50
559.97	28716.03
560.13	28514.75
560.30	28704.33
560.46	28694.97
560.63	28952.43
560.79	28826.04
560.96	28835.40
561.12	28622.41
561.29	28596.67
561.45	28608.37
561.61	28608.37
561.78	28737.10
561.94	28851.78
562.11	28922.00
562.27	28360.27
562.44	28903.28
562.60	28716.03
562.77	28828.38
562.93	29062.43
563.10	28861.15
563.26	28741.78
563.42	29340.96
563.59	28884.55
563.75	29001.58
563.92	29095.20
564.08	28683.27
564.24	28980.51
564.41	28767.52
564.57	28711.35
564.74	28615.39
564.90	29060.09
565.07	29221.59
565.23	29429.90
565.39	28713.69
565.56	28933.70
565.72	29020.30
565.88	28809.65
566.05	29081.16
566.21	28865.83
566.38	28879.87
566.54	28987.53
566.70	29095.20
566.87	29263.72
567.03	29469.69
567.19	29692.04
567.36	29385.43
567.52	29167.76
567.68	29392.45
567.85	29490.75
568.01	29081.16
568.17	29270.74
568.34	29450.96
568.50	28999.24
568.66	29380.74
568.83	29579.69
568.99	28952.43
569.15	29144.35
569.32	29336.27
569.48	29284.78
569.64	29247.33
569.81	29195.84
569.97	29111.58
570.13	29575.01
570.30	29446.28
570.46	29792.68
570.62	29509.47
570.78	29261.38
570.95	29549.26
571.11	29666.29
571.27	28982.85
571.43	28999.24
571.60	29310.53
571.76	29172.44
571.92	29259.04
572.09	29415.85
572.25	29579.69
572.41	29675.65
572.57	29408.83
572.74	29724.80
572.90	29507.13
573.06	29137.33
573.22	29326.91
573.38	29640.54
573.55	29788.00
573.71	30029.07
573.87	29841.83
574.03	29642.88
574.20	29366.70
574.36	29284.78
574.52	29486.07
574.68	29537.56
574.84	29266.06
575.01	29659.27
575.17	29359.68
575.33	29670.97
575.49	29427.56
575.65	29418.19
575.82	29806.72
575.98	29823.11
576.14	29448.62
576.30	29834.81
576.46	29282.44
576.62	29362.02
576.79	29408.83
576.95	29614.80
577.11	29633.52
577.27	29942.47
577.43	29614.80
577.59	29710.76
577.75	29738.85
577.92	29776.30
578.08	29586.71
578.24	29788.00
578.40	29345.64
578.56	29776.30
578.72	29858.21
578.88	29912.05
579.04	30026.73
579.21	29750.55
579.37	29701.40
579.53	29593.73
579.69	29525.86
579.85	29476.71
580.01	29640.54
580.17	29645.23
580.33	29722.46
580.49	29689.70
580.65	29780.98
580.82	29699.06
580.98	30038.44
581.14	29832.47
581.30	29860.55
581.46	29720.12
581.62	29710.76
581.78	29603.10
581.94	30015.03
582.10	29991.62
582.26	29390.11
582.42	29699.06
582.58	29717.78
582.74	29734.17
582.90	29914.39
583.06	29472.03
583.22	30022.05
583.38	29797.36
583.54	29797.36
583.70	29610.12
583.86	29472.03
584.02	29476.71
584.18	30059.50
584.34	29851.19
584.50	29914.39
584.66	29713.10
584.82	29577.35
584.98	29668.63
585.14	29848.85
585.30	29804.38
585.46	29905.02
585.62	29565.65
585.78	30066.52
585.94	30080.56
586.10	29738.85
586.26	29949.50
586.42	30251.42
586.58	30155.46
586.74	30038.44
586.90	29907.37
587.06	29647.57
587.22	30059.50
587.38	29706.08
587.54	29752.89
587.70	29848.85
587.86	30061.84
588.02	29930.77
588.18	30389.52
588.34	29984.60
588.49	29956.52
588.65	29977.58
588.81	29759.91
588.97	30134.40
589.13	30064.18
589.29	29851.19
589.45	29912.05
589.61	30061.84
589.77	30228.02
589.93	30366.11
590.08	30321.64
590.24	30127.38
590.40	30136.74
590.56	29998.65
590.72	29666.29
590.88	30043.12
591.04	29818.42
591.20	30139.08
591.35	30342.70
591.51	30597.82
591.67	30487.82
591.83	30316.96
591.99	30244.40
