SpectraSuite Data File
++++++++++++++++++++++++++++++++++++
Date: Fri Oct 18 13:58:33 GMT-05:00 2013
User: bianchi
Dark Spectrum Present: No
Reference Spectrum Present: No
Number of Sampled Component Spectra: 1
Spectrometers: USB2+H05261
Integration Time (usec): 50000 (USB2+H05261)
Spectra Averaged: 1 (USB2+H05261)
Boxcar Smoothing: 0 (USB2+H05261)
Correct for Electrical Dark: No (USB2+H05261)
Strobe/Lamp Enabled: No (USB2+H05261)
Correct for Detector Non-linearity: No (USB2+H05261)
Correct for Stray Light: No (USB2+H05261)
Number of Pixels in Processed Spectrum: 2048
>>>>>Begin Processed Spectral Data<<<<<
365.73	0.00
365.92	0.00
366.12	0.00
366.32	0.00
366.52	0.00
366.72	0.00
366.91	0.00
367.11	0.00
367.31	0.00
367.51	0.00
367.70	0.00
367.90	0.00
368.10	0.00
368.30	0.00
368.49	0.00
368.69	0.00
368.89	0.00
369.09	0.00
369.28	0.00
369.48	0.00
369.68	0.00
369.87	0.00
370.07	0.00
370.27	0.00
370.47	0.00
370.66	112.35
370.86	131.07
371.06	161.50
371.25	112.35
371.45	147.45
371.65	147.45
371.84	77.24
372.04	140.43
372.24	194.26
372.44	145.11
372.63	149.79
372.83	210.65
373.03	203.63
373.22	152.13
373.42	224.69
373.62	152.13
373.81	194.26
374.01	299.59
374.21	320.65
374.40	243.42
374.60	248.10
374.79	280.86
374.99	241.08
375.19	280.86
375.38	222.35
375.58	243.42
375.78	238.73
375.97	301.93
376.17	315.97
376.37	184.90
376.56	362.78
376.76	208.31
376.95	243.42
377.15	245.76
377.35	262.14
377.54	292.57
377.74	194.26
377.93	245.76
378.13	276.18
378.33	241.08
378.52	217.67
378.72	259.80
378.91	285.55
379.11	259.80
379.31	215.33
379.50	285.55
379.70	304.27
379.89	285.55
380.09	273.84
380.28	322.99
380.48	231.71
380.68	273.84
380.87	278.52
381.07	271.50
381.26	301.93
381.46	327.68
381.65	358.10
381.85	301.93
382.04	313.63
382.24	395.55
382.43	299.59
382.63	301.93
382.83	320.65
383.02	337.04
383.22	428.32
383.41	402.57
383.61	304.27
383.80	334.70
384.00	346.40
384.19	376.83
384.39	393.21
384.58	367.46
384.78	402.57
384.97	395.55
385.17	379.17
385.36	379.17
385.56	360.44
385.75	409.59
385.95	388.53
386.14	425.98
386.34	306.61
386.53	418.96
386.72	360.44
386.92	482.15
387.11	369.80
387.31	383.85
387.50	425.98
387.70	463.43
387.89	351.08
388.09	397.89
388.28	416.62
388.48	360.44
388.67	463.43
388.86	442.36
389.06	454.06
389.25	451.72
389.45	472.79
389.64	449.38
389.84	463.43
390.03	425.98
390.22	491.51
390.42	517.26
390.61	395.55
390.81	440.02
391.00	486.83
391.19	472.79
391.39	528.96
391.58	472.79
391.78	500.87
391.97	524.28
392.16	535.98
392.36	573.43
392.55	505.56
392.75	564.07
392.94	486.83
393.13	416.62
393.33	559.39
393.52	507.90
393.71	540.66
393.91	578.11
394.10	533.64
394.29	540.66
394.49	526.62
394.68	599.18
394.88	603.86
395.07	638.97
395.26	624.92
395.46	645.99
395.65	512.58
395.84	638.97
396.04	688.12
396.23	634.29
396.42	627.26
396.62	671.73
396.81	660.03
397.00	589.82
397.19	629.60
397.39	662.37
397.58	599.18
397.77	550.03
397.97	664.71
398.16	713.86
398.35	697.48
398.55	718.54
398.74	650.67
398.93	732.59
399.12	734.93
399.32	653.01
399.51	664.71
399.70	763.01
399.90	685.78
400.09	725.57
400.28	765.36
400.47	809.83
400.67	718.54
400.86	788.76
401.05	713.86
401.24	723.23
401.44	784.08
401.63	786.42
401.82	723.23
402.01	800.46
402.21	856.64
402.40	830.89
402.59	786.42
402.78	905.79
402.97	826.21
403.17	858.98
403.36	875.36
403.55	861.32
403.74	985.37
403.93	915.15
404.13	936.21
404.32	840.25
404.51	854.30
404.70	971.32
404.89	870.68
405.09	891.74
405.28	903.45
405.47	931.53
405.66	973.66
405.85	959.62
406.05	926.85
406.24	936.21
406.43	947.92
406.62	976.00
406.81	926.85
407.00	903.45
407.20	1046.22
407.39	1029.84
407.58	1006.43
407.77	1020.47
407.96	1135.16
408.15	1156.22
408.34	1139.84
408.54	1142.18
408.73	1081.33
408.92	1043.88
409.11	1111.75
409.30	1146.86
409.49	1109.41
409.68	1139.84
409.87	1151.54
410.07	1149.20
410.26	1226.44
410.45	1228.78
410.64	1203.04
410.83	1214.74
411.02	1188.99
411.21	1137.50
411.40	1174.95
411.59	1291.98
411.78	1219.42
411.98	1287.29
412.17	1359.85
412.36	1350.49
412.55	1439.43
412.74	1392.62
412.93	1383.26
413.12	1430.07
413.31	1481.56
413.50	1404.32
413.69	1327.08
413.88	1352.83
414.07	1401.98
414.26	1399.64
414.45	1399.64
414.64	1364.53
414.83	1448.79
415.02	1561.14
415.22	1500.28
415.41	1500.28
415.60	1427.73
415.79	1481.56
415.98	1507.30
416.17	1589.22
416.36	1621.99
416.55	1647.74
416.74	1629.01
416.93	1650.08
417.12	1612.63
417.31	1671.14
417.50	1666.46
417.69	1769.44
417.88	1713.27
418.07	1715.61
418.26	1753.06
418.45	1706.25
418.64	1813.92
418.83	1769.44
419.02	1750.72
419.21	1863.07
419.39	1923.92
419.58	1818.60
419.77	1867.75
419.96	1879.45
420.15	1874.77
420.34	1870.09
420.53	1952.01
420.72	1849.02
420.91	1949.67
421.10	1912.22
421.29	2008.18
421.48	1804.55
421.67	1870.09
421.86	1865.41
422.05	1902.86
422.24	2017.54
422.43	1930.94
422.61	2017.54
422.80	2101.80
422.99	2026.90
423.18	2019.88
423.37	2064.35
423.56	1982.43
423.75	1994.14
423.94	1842.00
424.13	1870.09
424.32	1874.77
424.50	1984.77
424.69	2069.03
424.88	2024.56
425.07	1952.01
425.26	1998.82
425.45	2071.37
425.64	1984.77
425.83	2097.12
426.01	2083.08
426.20	2071.37
426.39	2031.58
426.58	2005.84
426.77	2022.22
426.96	2157.97
427.15	2076.06
427.33	2099.46
427.52	2139.25
427.71	2125.21
427.90	2207.13
428.09	2200.10
428.28	2188.40
428.46	2181.38
428.65	2139.25
428.84	2190.74
429.03	2197.76
429.22	2136.91
429.40	2223.51
429.59	2150.95
429.78	2134.57
429.97	2139.25
430.16	2200.10
430.34	2244.57
430.53	2225.85
430.72	2242.23
430.91	2328.83
431.10	2354.58
431.28	2385.01
431.47	2373.30
431.66	2401.39
431.85	2296.07
432.03	2335.85
432.22	2373.30
432.41	2317.13
432.60	2354.58
432.79	2436.50
432.97	2424.80
433.16	2452.88
433.35	2427.14
433.54	2361.60
433.72	2410.75
433.91	2513.74
434.10	2509.05
434.28	2485.65
434.47	2516.08
434.66	2513.74
434.85	2593.31
435.03	2621.40
435.22	2576.93
435.41	2705.66
435.59	2689.28
435.78	2649.49
435.97	2640.12
436.16	2619.06
436.34	2562.89
436.53	2670.55
436.72	2820.35
436.90	2656.51
437.09	2708.00
437.28	2700.98
437.46	2761.83
437.65	2731.41
437.84	2705.66
438.02	2771.19
438.21	2612.04
438.40	2663.53
438.58	2832.05
438.77	2764.17
438.96	2710.34
439.14	2904.60
439.33	2916.31
439.52	2991.20
439.70	2949.08
439.89	3173.77
440.08	3042.70
440.26	3124.62
440.45	2998.23
440.63	3103.55
440.82	3073.12
441.01	3019.29
441.19	3183.13
441.38	3122.27
441.57	3143.34
441.75	3213.56
441.94	3222.92
442.12	3260.37
442.31	3311.86
442.50	3365.69
442.68	3407.82
442.87	3325.90
443.05	3206.53
443.24	3337.60
443.43	3365.69
443.61	3543.57
443.80	3456.97
443.98	3311.86
444.17	3363.35
444.35	3363.35
444.54	3473.36
444.73	3487.40
444.91	3520.17
445.10	3398.46
445.28	3508.46
445.47	3466.33
445.65	3466.33
445.84	3485.06
446.02	3419.52
446.21	3461.65
446.39	3431.23
446.58	3578.68
446.77	3531.87
446.95	3356.33
447.14	3515.48
447.32	3471.01
447.51	3405.48
447.69	3461.65
447.88	3583.36
448.06	3478.04
448.25	3527.19
448.43	3543.57
448.62	3585.70
448.80	3538.89
448.99	3557.61
449.17	3531.87
449.36	3489.74
449.54	3698.05
449.73	3548.25
449.91	3623.15
450.10	3751.88
450.28	3768.26
450.46	3822.09
450.65	3723.79
450.83	3742.52
451.02	3772.94
451.20	3749.54
451.39	3798.69
451.57	3721.45
451.76	3779.97
451.94	3737.84
452.13	3831.46
452.31	3798.69
452.49	3721.45
452.68	3892.31
452.86	3908.69
453.05	3861.88
453.23	3857.20
453.42	3892.31
453.60	3829.12
453.78	3808.05
453.97	3889.97
454.15	3847.84
454.34	3815.07
454.52	4067.85
454.70	3936.78
454.89	4095.94
455.07	4079.55
455.26	4121.68
455.44	4203.60
455.62	4030.40
455.81	3985.93
455.99	4025.72
456.17	4126.36
456.36	4070.19
456.54	4159.13
456.73	4257.43
456.91	4159.13
457.09	4107.64
457.28	4304.25
457.46	4074.87
457.64	4332.33
457.83	4262.12
458.01	4107.64
458.19	4292.54
458.38	4297.22
458.56	4451.70
458.74	4210.62
458.93	4393.19
459.11	4416.59
459.29	4435.32
459.48	4442.34
459.66	4414.25
459.84	4510.21
460.03	4641.28
460.21	4491.49
460.39	4402.55
460.57	4442.34
460.76	4643.62
460.94	4695.11
461.12	4519.57
461.31	4638.94
461.49	4636.60
461.67	4596.81
461.85	4648.30
462.04	4692.77
462.22	4770.01
462.40	4706.82
462.59	4889.38
462.77	4753.63
462.95	4744.27
463.13	4638.94
463.32	4702.14
463.50	4894.06
463.68	4781.71
463.86	4779.37
464.05	4788.74
464.23	4734.90
464.41	5041.51
464.59	4603.83
464.78	4926.83
464.96	5160.88
465.14	4770.01
465.32	5039.17
465.50	5057.90
465.69	4947.89
465.87	4917.47
466.05	4966.62
466.23	5102.37
466.41	5128.11
466.60	5205.35
466.78	4887.04
466.96	4966.62
467.14	5046.20
467.32	5039.17
467.51	5184.29
467.69	4987.68
467.87	5055.56
468.05	5130.45
468.23	5022.79
468.41	5074.28
468.60	5121.09
468.78	5217.05
468.96	5359.83
469.14	5203.01
469.32	5331.74
469.50	5203.01
469.69	5245.14
469.87	5298.97
470.05	5369.19
470.23	5291.95
470.41	5380.89
470.59	5453.45
470.77	5500.26
470.95	5165.56
471.14	5565.79
471.32	5467.49
471.50	5544.73
471.68	5528.35
471.86	5476.85
472.04	5575.16
472.22	5760.06
472.40	5619.63
472.58	5636.01
472.77	5689.84
472.95	5795.17
473.13	6038.58
473.31	5844.32
473.49	5830.27
473.67	5827.93
473.85	5781.12
474.03	6008.16
474.21	5947.30
474.39	6024.54
474.57	5933.26
474.75	6139.23
474.93	6258.59
475.12	6197.74
475.30	6108.80
475.48	6253.91
475.66	6214.12
475.84	6258.59
476.02	6230.51
476.20	6200.08
476.38	6342.85
476.56	6494.99
476.74	6546.48
476.92	6380.30
477.10	6513.71
477.28	6726.70
477.46	6483.28
477.64	6649.46
477.82	6780.53
478.00	6806.28
478.18	6700.95
478.36	6796.92
478.54	6918.62
478.72	7166.72
478.90	7321.20
479.08	7145.66
479.26	7227.57
479.44	7166.72
479.62	7370.35
479.80	7295.45
479.98	7407.80
480.16	7508.44
480.34	7403.11
480.52	7478.01
480.70	7641.85
480.88	7456.95
481.06	7698.02
481.24	7623.12
481.41	7812.71
481.59	8046.76
481.77	8056.12
481.95	8051.44
482.13	8030.38
482.31	7950.80
482.49	8194.22
482.67	8313.58
482.85	8273.79
483.03	8292.52
483.21	8442.31
483.39	8671.68
483.57	8475.08
483.74	8678.71
483.92	8601.47
484.10	8624.87
484.28	8915.10
484.46	8793.39
484.64	9348.10
484.82	8889.35
485.00	9083.62
485.18	9315.33
485.35	9156.18
485.53	9090.64
485.71	9355.12
485.89	9490.87
486.07	9472.15
486.25	9511.94
486.43	9572.79
486.61	9605.56
486.78	9825.57
486.96	9874.72
487.14	10059.62
487.32	10012.81
487.50	10111.11
487.68	10090.05
487.85	10331.12
488.03	10331.12
488.21	10576.88
488.39	10752.42
488.57	10532.41
488.75	10518.37
488.92	10717.31
489.10	10698.59
489.28	10885.83
489.46	11047.33
489.64	10883.49
489.81	11185.42
489.99	11311.81
490.17	11119.89
490.35	11520.12
490.53	11431.18
490.70	11281.38
490.88	11499.05
491.06	11700.34
491.24	11616.08
491.41	11824.39
491.59	11674.59
491.77	11988.22
491.95	11868.86
492.13	11953.12
492.30	12070.14
492.48	12224.62
492.66	12362.71
492.84	12114.61
493.01	12615.49
493.19	12446.97
493.37	12549.95
493.54	12812.09
493.72	12671.66
493.90	12718.47
494.08	12758.26
494.25	12884.65
494.43	12851.88
494.61	13027.42
494.79	13434.68
494.96	13280.20
495.14	13219.35
495.32	13542.34
495.49	13399.57
495.67	13460.42
495.85	13771.71
496.02	13755.33
496.20	13748.31
496.38	13958.96
496.55	13771.71
496.73	14295.99
496.91	14010.45
497.09	14106.41
497.26	14155.56
497.44	14649.41
497.62	14267.91
497.79	14420.04
497.97	14450.47
498.14	14672.82
498.32	14511.32
498.50	14764.10
498.67	14860.06
498.85	14946.66
499.03	14899.85
499.20	15274.34
499.38	15066.03
499.56	15028.58
499.73	15321.15
499.91	15492.01
500.08	15171.35
500.26	15213.48
500.44	15342.21
500.61	15403.07
500.79	15403.07
500.97	15426.47
501.14	15704.99
501.32	15606.69
501.49	15728.40
501.67	15852.45
501.84	15709.68
502.02	16016.29
502.20	16020.97
502.37	16016.29
502.55	16060.76
502.72	15817.34
502.90	16210.55
503.07	16016.29
503.25	16095.86
503.43	16116.93
503.60	16404.81
503.78	16276.09
503.95	16704.40
504.13	16222.25
504.30	16601.42
504.48	16376.73
504.65	16681.00
504.83	16891.65
505.01	16821.43
505.18	17296.56
505.36	16989.95
505.53	16886.97
505.71	17006.33
505.88	17233.36
506.06	16980.59
506.23	17029.74
506.41	17090.59
506.58	17174.85
506.76	17359.75
506.93	17259.11
507.11	17556.36
507.28	17774.03
507.46	17371.46
507.63	17427.63
507.81	17898.08
507.98	17832.54
508.16	17783.39
508.33	17926.16
508.50	17720.20
508.68	17839.56
508.85	18115.75
509.03	17975.31
509.20	17963.61
509.38	18497.25
509.55	18307.67
509.73	18347.46
509.90	18408.31
510.08	18197.67
510.25	18218.73
510.42	18537.04
510.60	18462.15
510.77	18555.77
510.95	18703.22
511.12	18785.14
511.30	18431.72
511.47	18427.04
511.64	18773.44
511.82	18920.89
511.99	18904.51
512.17	19164.31
512.34	18925.57
512.51	18956.00
512.69	18972.38
512.86	19161.97
513.04	19215.80
513.21	19311.76
513.38	19211.12
513.56	19335.17
513.73	19201.76
513.90	19094.09
514.08	19330.48
514.25	19506.02
514.43	19747.10
514.60	19733.06
514.77	19604.33
514.95	19711.99
515.12	19318.78
515.29	19683.91
515.47	19800.93
515.64	19892.21
515.81	19880.51
515.99	20037.33
516.16	19840.72
516.33	20170.74
516.51	20266.70
516.68	20065.41
516.85	20168.40
517.03	20453.94
517.20	20313.51
517.37	20542.88
517.54	20353.30
517.72	20692.68
517.89	20114.56
518.06	20547.56
518.24	20149.67
518.41	20601.40
518.58	20795.66
518.75	20372.02
518.93	20723.10
519.10	20718.42
519.27	20957.16
519.45	20776.94
519.62	21006.31
519.79	20973.54
519.96	20924.39
520.14	21102.27
520.31	21095.25
520.48	21027.37
520.65	20989.92
520.83	21069.50
521.00	21350.37
521.17	21249.72
521.34	21128.02
521.52	21275.47
521.69	21439.31
521.86	21703.79
522.03	21820.81
522.20	21507.18
522.38	21612.51
522.55	21647.61
522.72	21493.14
522.89	21778.68
523.07	22190.62
523.24	21647.61
523.41	22087.64
523.58	21942.52
523.75	21991.67
523.92	21827.84
524.10	21898.05
524.27	22085.30
524.44	22394.25
524.61	22324.03
524.78	22349.78
524.96	22389.56
525.13	22305.31
525.30	22178.92
525.47	22288.92
525.64	22611.92
525.81	22333.39
525.98	22918.53
526.16	22569.79
526.33	22691.49
526.50	22689.15
526.67	22370.84
526.84	22757.03
527.01	22455.10
527.18	22794.48
527.36	22675.11
527.53	23122.15
527.70	23042.57
527.87	23293.01
528.04	23051.94
528.21	23173.64
528.38	23082.36
528.55	23255.56
528.72	23449.83
528.89	23356.21
529.07	23161.94
529.24	23473.23
529.41	23166.62
529.58	23681.54
529.75	23307.05
529.92	23508.34
530.09	23285.99
530.26	23440.47
530.43	23662.82
530.60	23297.69
530.77	23461.53
530.94	23662.82
531.11	23740.05
531.28	23391.31
531.46	23454.51
531.63	23433.44
531.80	23889.85
531.97	23894.53
532.14	23784.52
532.31	24016.24
532.48	23929.64
532.65	24161.35
532.82	23955.38
532.99	24030.28
533.16	23756.44
533.33	24016.24
533.50	24137.94
533.67	24180.07
533.84	23929.64
534.01	24283.06
534.18	23817.29
534.35	24573.28
534.52	24287.74
534.69	24826.06
534.86	24666.91
535.03	24559.24
535.20	24489.03
535.37	24521.79
535.54	24479.66
535.71	24465.62
535.88	24444.56
536.05	24297.10
536.22	24744.14
536.38	24680.95
536.55	24788.61
536.72	24790.95
536.89	24620.10
537.06	24659.88
537.23	25273.10
537.40	24879.89
537.57	24882.24
537.74	24877.55
537.91	25378.43
538.08	25111.61
538.25	24910.32
538.42	25041.39
538.59	25336.30
538.75	25067.14
538.92	25252.04
539.09	25287.15
539.26	25458.01
539.43	25032.03
539.60	25579.71
539.77	25106.93
539.94	25577.37
540.11	25113.95
540.28	25310.55
540.44	25233.32
540.61	25188.85
540.78	25432.26
540.95	25607.80
541.12	25560.99
541.29	25790.36
541.46	25654.61
541.62	25291.83
541.79	25750.57
541.96	25399.49
542.13	25296.51
542.30	25809.09
542.47	25841.85
542.63	25748.23
542.80	25734.19
542.97	25841.85
543.14	26078.25
543.31	26078.25
543.48	26270.17
543.64	26204.64
543.81	26424.65
543.98	26288.90
544.15	26188.25
544.32	26689.13
544.48	26293.58
544.65	26565.08
544.82	26281.88
544.99	26263.15
545.16	26426.99
545.32	26244.43
545.49	26462.10
545.66	26597.85
545.83	26417.63
546.00	26855.31
546.16	26611.89
546.33	26630.62
546.50	26169.53
546.67	26834.24
546.83	26136.76
547.00	26881.05
547.17	26719.56
547.34	26485.50
547.50	26801.47
547.67	26993.40
547.84	27007.44
548.00	27026.17
548.17	27117.45
548.34	26967.65
548.51	27276.60
548.67	27075.32
548.84	27037.87
549.01	27166.60
549.18	26778.07
549.34	26855.31
549.51	27061.27
549.68	27122.13
549.84	27101.06
550.01	27339.80
550.18	26941.91
550.34	27292.99
550.51	27239.15
550.68	27363.20
550.84	27180.64
551.01	27550.45
551.18	27028.51
551.34	27281.28
551.51	27220.43
551.68	27433.42
551.84	27351.50
552.01	27391.29
552.18	27529.38
552.34	27566.83
552.51	27438.10
552.68	27424.06
552.84	27426.40
553.01	27449.80
553.18	27381.93
553.34	27882.80
553.51	27597.26
553.67	28056.00
553.84	27906.21
554.01	27742.37
554.17	27482.57
554.34	27723.65
554.51	27648.75
554.67	28168.35
554.84	27770.46
555.00	27777.48
555.17	27740.03
555.33	28266.65
555.50	27917.91
555.67	27580.87
555.83	27716.62
556.00	27971.74
556.16	28133.24
556.33	27887.48
556.50	27768.12
556.66	28184.73
556.83	27967.06
556.99	27857.06
557.16	28170.69
557.32	28290.06
557.49	28168.35
557.65	28360.27
557.82	27931.95
557.98	28229.20
558.15	28297.08
558.32	28662.20
558.48	28388.36
558.65	28451.55
558.81	28299.42
558.98	28252.61
559.14	28561.56
559.31	28180.05
559.47	28088.77
559.64	28334.53
559.80	28236.22
559.97	28725.39
560.13	28634.11
560.30	28088.77
560.46	28439.85
560.63	28194.09
560.79	28678.58
560.96	29060.09
561.12	28669.22
561.29	28594.32
561.45	28025.57
561.61	28872.85
561.78	28603.69
561.94	28680.92
562.11	28926.68
562.27	28662.20
562.44	28973.49
562.60	28414.10
562.77	28549.85
562.93	28320.48
563.10	28613.05
563.26	28526.45
563.42	28877.53
563.59	28814.34
563.75	28767.52
563.92	28591.98
564.08	28259.63
564.24	28652.84
564.41	28636.45
564.57	28594.32
564.74	28877.53
564.90	28922.00
565.07	29081.16
565.23	29055.41
565.39	29076.48
565.56	29027.32
565.72	28905.62
565.88	28830.72
566.05	28975.83
566.21	28856.46
566.38	28875.19
566.54	28973.49
566.70	29041.37
566.87	29088.18
567.03	29041.37
567.19	29184.14
567.36	29642.88
567.52	29209.89
567.68	29106.90
567.85	29369.04
568.01	29242.65
568.17	29125.63
568.34	29069.45
568.50	29081.16
568.66	29301.17
568.83	29081.16
568.99	29097.54
569.15	29055.41
569.32	29575.01
569.48	28975.83
569.64	29268.40
569.81	28833.06
569.97	29240.31
570.13	29097.54
570.30	28826.04
570.46	29369.04
570.62	29153.71
570.78	29219.25
570.95	29254.36
571.11	29050.73
571.27	29156.05
571.43	28922.00
571.60	29394.79
571.76	29415.85
571.92	29090.52
572.09	29151.37
572.25	29415.85
572.41	29263.72
572.57	29242.65
572.74	29766.93
572.90	29153.71
573.06	29472.03
573.22	28994.56
573.38	29099.88
573.55	29242.65
573.71	29659.27
573.87	29535.22
574.03	29413.51
574.20	29319.89
574.36	29195.84
574.52	29347.98
574.68	29338.62
574.84	29717.78
575.01	29123.29
575.17	29542.24
575.33	29366.70
575.49	29266.06
575.65	29827.79
575.82	29532.88
575.98	29350.32
576.14	29212.23
576.30	29432.24
576.46	29598.41
576.62	29001.58
576.79	29951.84
576.95	29233.29
577.11	29326.91
577.27	29642.88
577.43	29706.08
577.59	29298.83
577.75	29565.65
577.92	29472.03
578.08	29172.44
578.24	28950.09
578.40	29741.19
578.56	29612.46
578.72	29876.94
578.88	29764.59
579.04	29563.31
579.21	29567.99
579.37	29673.31
579.53	29612.46
579.69	29441.60
579.85	29453.30
580.01	29706.08
580.17	29582.03
580.33	29378.40
580.49	29467.34
580.65	29898.00
580.82	29074.13
580.98	29862.90
581.14	29345.64
581.30	29816.08
581.46	29898.00
581.62	29584.37
581.78	29287.12
581.94	29371.38
582.10	29734.17
582.26	29600.76
582.42	29497.77
582.58	29659.27
582.74	29778.64
582.90	29677.99
583.06	29296.49
583.22	29432.24
583.38	29729.48
583.54	29528.20
583.70	29553.94
583.86	29750.55
584.02	29329.25
584.18	29900.34
584.34	29979.92
584.50	29837.15
584.66	29773.95
584.82	29252.02
584.98	29619.48
585.14	29560.97
585.30	29780.98
585.46	29750.55
585.62	29514.16
585.78	29490.75
585.94	29647.57
586.10	29717.78
586.26	29685.01
586.42	29596.07
586.58	29598.41
586.74	29722.46
586.90	29486.07
587.06	29596.07
587.22	29486.07
587.38	29336.27
587.54	29853.53
587.70	29986.94
587.86	29738.85
588.02	30064.18
588.18	29905.02
588.34	29713.10
588.49	29635.86
588.65	29982.26
588.81	29930.77
588.97	29692.04
589.13	29813.74
589.29	29832.47
589.45	29563.31
589.61	29958.86
589.77	30183.55
589.93	30209.29
590.08	30293.55
590.24	30047.80
590.40	29982.26
590.56	30298.23
590.72	30094.61
590.88	30043.12
591.04	30071.20
591.20	30103.97
591.35	29696.72
591.51	30209.29
591.67	30478.46
591.83	29862.90
591.99	30260.79
