SpectraSuite Data File
++++++++++++++++++++++++++++++++++++
Date: Fri Oct 18 13:57:53 GMT-05:00 2013
User: bianchi
Dark Spectrum Present: No
Reference Spectrum Present: No
Number of Sampled Component Spectra: 1
Spectrometers: USB2+H05261
Integration Time (usec): 50000 (USB2+H05261)
Spectra Averaged: 1 (USB2+H05261)
Boxcar Smoothing: 0 (USB2+H05261)
Correct for Electrical Dark: No (USB2+H05261)
Strobe/Lamp Enabled: No (USB2+H05261)
Correct for Detector Non-linearity: No (USB2+H05261)
Correct for Stray Light: No (USB2+H05261)
Number of Pixels in Processed Spectrum: 2048
>>>>>Begin Processed Spectral Data<<<<<
365.73	0.00
365.92	0.00
366.12	0.00
366.32	0.00
366.52	0.00
366.72	0.00
366.91	0.00
367.11	0.00
367.31	0.00
367.51	0.00
367.70	0.00
367.90	0.00
368.10	0.00
368.30	0.00
368.49	0.00
368.69	0.00
368.89	0.00
369.09	0.00
369.28	0.00
369.48	0.00
369.68	0.00
369.87	0.00
370.07	0.00
370.27	0.00
370.47	0.00
370.66	81.92
370.86	117.03
371.06	168.52
371.25	166.18
371.45	79.58
371.65	152.13
371.84	163.84
372.04	114.69
372.24	149.79
372.44	194.26
372.63	140.43
372.83	234.05
373.03	245.76
373.22	156.82
373.42	245.76
373.62	175.54
373.81	191.92
374.01	168.52
374.21	241.08
374.40	250.44
374.60	311.29
374.79	212.99
374.99	210.65
375.19	250.44
375.38	322.99
375.58	236.39
375.78	229.37
375.97	184.90
376.17	238.73
376.37	220.01
376.56	346.40
376.76	285.55
376.95	308.95
377.15	227.03
377.35	234.05
377.54	327.68
377.74	290.23
377.93	344.06
378.13	304.27
378.33	182.56
378.52	297.25
378.72	269.16
378.91	297.25
379.11	215.33
379.31	271.50
379.50	252.78
379.70	297.25
379.89	322.99
380.09	311.29
380.28	365.12
380.48	313.63
380.68	301.93
380.87	252.78
381.07	297.25
381.26	315.97
381.46	264.48
381.65	315.97
381.85	311.29
382.04	269.16
382.24	353.42
382.43	351.08
382.63	308.95
382.83	339.38
383.02	353.42
383.22	362.78
383.41	313.63
383.61	327.68
383.80	390.87
384.00	365.12
384.19	407.25
384.39	346.40
384.58	353.42
384.78	407.25
384.97	402.57
385.17	379.17
385.36	423.64
385.56	337.04
385.75	372.15
385.95	444.70
386.14	461.09
386.34	482.15
386.53	425.98
386.72	402.57
386.92	463.43
387.11	397.89
387.31	351.08
387.50	388.53
387.70	447.04
387.89	461.09
388.09	433.00
388.28	369.80
388.48	465.77
388.67	449.38
388.86	435.34
389.06	519.60
389.25	477.47
389.45	402.57
389.64	458.74
389.84	505.56
390.03	402.57
390.22	472.79
390.42	402.57
390.61	524.28
390.81	566.41
391.00	545.34
391.19	491.51
391.39	491.51
391.58	418.96
391.78	449.38
391.97	505.56
392.16	531.30
392.36	503.22
392.55	479.81
392.75	606.20
392.94	517.26
393.13	667.05
393.33	477.47
393.52	543.00
393.71	617.90
393.91	589.82
394.10	528.96
394.29	599.18
394.49	631.94
394.68	601.52
394.88	568.75
395.07	538.32
395.26	582.79
395.46	580.45
395.65	727.91
395.84	655.35
396.04	692.80
396.23	575.77
396.42	617.90
396.62	688.12
396.81	662.37
397.00	631.94
397.19	575.77
397.39	645.99
397.58	641.31
397.77	636.63
397.97	711.52
398.16	657.69
398.35	702.16
398.55	770.04
398.74	692.80
398.93	795.78
399.12	753.65
399.32	741.95
399.51	711.52
399.70	788.76
399.90	788.76
400.09	739.61
400.28	741.95
400.47	723.23
400.67	819.19
400.86	753.65
401.05	786.42
401.24	809.83
401.44	858.98
401.63	781.74
401.82	774.72
402.01	760.67
402.21	884.72
402.40	896.43
402.59	858.98
402.78	866.00
402.97	873.02
403.17	870.68
403.36	814.51
403.55	880.04
403.74	854.30
403.93	964.30
404.13	936.21
404.32	880.04
404.51	880.04
404.70	950.26
404.89	980.68
405.09	999.41
405.28	987.71
405.47	997.07
405.66	938.55
405.85	987.71
406.05	947.92
406.24	987.71
406.43	945.58
406.62	971.32
406.81	1090.69
407.00	1102.39
407.20	992.39
407.39	1055.58
407.58	1086.01
407.77	1090.69
407.96	1088.35
408.15	1081.33
408.34	1039.20
408.54	1123.46
408.73	1149.20
408.92	1146.86
409.11	1139.84
409.30	1235.80
409.49	1196.01
409.68	1128.14
409.87	1181.97
410.07	1252.19
410.26	1111.75
410.45	1224.10
410.64	1170.27
410.83	1261.55
411.02	1221.76
411.21	1359.85
411.40	1249.85
411.59	1299.00
411.78	1277.93
411.98	1313.04
412.17	1287.29
412.36	1369.21
412.55	1268.57
412.74	1345.81
412.93	1294.32
413.12	1352.83
413.31	1521.35
413.50	1315.38
413.69	1409.00
413.88	1406.66
414.07	1488.58
414.26	1476.88
414.45	1451.13
414.64	1542.41
414.83	1460.49
415.02	1516.67
415.22	1420.71
415.41	1629.01
415.60	1523.69
415.79	1490.92
415.98	1621.99
416.17	1603.27
416.36	1551.78
416.55	1537.73
416.74	1610.29
416.93	1629.01
417.12	1640.72
417.31	1834.98
417.50	1617.31
417.69	1853.70
417.88	1706.25
418.07	1689.87
418.26	1818.60
418.45	1689.87
418.64	1746.04
418.83	1706.25
419.02	1813.92
419.21	1811.57
419.39	1907.54
419.58	1809.23
419.77	1767.10
419.96	1818.60
420.15	1884.13
420.34	1739.02
420.53	1788.17
420.72	1954.35
420.91	1884.13
421.10	2047.97
421.29	1893.49
421.48	1961.37
421.67	1930.94
421.86	2052.65
422.05	1893.49
422.24	1912.22
422.43	1879.45
422.61	2017.54
422.80	1952.01
422.99	1966.05
423.18	2064.35
423.37	2047.97
423.56	2010.52
423.75	2005.84
423.94	2008.18
424.13	1802.21
424.32	1886.47
424.50	2134.57
424.69	2108.82
424.88	2071.37
425.07	1905.20
425.26	1994.14
425.45	2059.67
425.64	2076.06
425.83	1966.05
426.01	2054.99
426.20	1984.77
426.39	2176.70
426.58	2047.97
426.77	2181.38
426.96	1996.48
427.15	2101.80
427.33	2160.31
427.52	2125.21
427.71	2221.17
427.90	2157.97
428.09	2305.43
428.28	2223.51
428.46	2127.55
428.65	2282.02
428.84	2167.34
429.03	2211.81
429.22	2237.55
429.40	2228.19
429.59	2328.83
429.78	2230.53
429.97	2223.51
430.16	2232.87
430.34	2298.41
430.53	2242.23
430.72	2356.92
430.91	2368.62
431.10	2272.66
431.28	2380.32
431.47	2342.88
431.66	2443.52
431.85	2326.49
432.03	2485.65
432.22	2511.39
432.41	2410.75
432.60	2410.75
432.79	2445.86
432.97	2436.50
433.16	2558.21
433.35	2431.82
433.54	2466.92
433.72	2581.61
433.91	2410.75
434.10	2614.38
434.28	2597.99
434.47	2478.63
434.66	2635.44
434.85	2635.44
435.03	2595.65
435.22	2532.46
435.41	2663.53
435.59	2675.23
435.78	2656.51
435.97	2738.43
436.16	2717.36
436.34	2630.76
436.53	2684.59
436.72	2792.26
436.90	2787.58
437.09	2764.17
437.28	2766.51
437.46	2633.10
437.65	2771.19
437.84	2815.66
438.02	2726.72
438.21	2862.48
438.40	2815.66
438.58	2839.07
438.77	2766.51
438.96	2883.54
439.14	2818.00
439.33	2913.97
439.52	2965.46
439.70	3000.57
439.89	3045.04
440.08	3028.65
440.26	2935.03
440.45	3066.10
440.63	2949.08
440.82	3098.87
441.01	3105.89
441.19	3033.33
441.38	3279.09
441.57	3164.40
441.75	3171.43
441.94	3309.52
442.12	3344.63
442.31	3337.60
442.50	3398.46
442.68	3206.53
442.87	3300.16
443.05	3337.60
443.24	3466.33
443.43	3316.54
443.61	3456.97
443.80	3566.98
443.98	3293.13
444.17	3258.03
444.35	3339.94
444.54	3456.97
444.73	3358.67
444.91	3438.25
445.10	3466.33
445.28	3536.55
445.47	3389.10
445.65	3515.48
445.84	3571.66
446.02	3590.38
446.21	3508.46
446.39	3466.33
446.58	3489.74
446.77	3555.27
446.95	3445.27
447.14	3658.26
447.32	3545.91
447.51	3562.30
447.69	3459.31
447.88	3501.44
448.06	3480.38
448.25	3517.83
448.43	3566.98
448.62	3588.04
448.80	3623.15
448.99	3524.85
449.17	3620.81
449.36	3674.64
449.54	3630.17
449.73	3756.56
449.91	3684.00
450.10	3737.84
450.28	3758.90
450.46	3644.21
450.65	3749.54
450.83	3845.50
451.02	3691.02
451.20	3894.65
451.39	3801.03
451.57	3829.12
451.76	3646.55
451.94	3843.16
452.13	3805.71
452.31	3740.18
452.49	3894.65
452.68	3740.18
452.86	3915.72
453.05	3847.84
453.23	4007.00
453.42	3999.98
453.60	3847.84
453.78	3871.25
453.97	3918.06
454.15	4032.74
454.34	3976.57
454.52	4070.19
454.70	3775.28
454.89	4100.62
455.07	3948.48
455.26	4102.96
455.44	4046.79
455.62	4086.58
455.81	4051.47
455.99	4105.30
456.17	4095.94
456.36	4177.86
456.54	4168.49
456.73	4182.54
456.91	4465.74
457.09	4418.93
457.28	4468.08
457.46	4294.88
457.64	4414.25
457.83	4271.48
458.01	4430.63
458.19	4365.10
458.38	4308.93
458.56	4503.19
458.74	4432.97
458.93	4423.61
459.11	4374.46
459.29	4407.23
459.48	4535.96
459.66	4493.83
459.84	4512.55
460.03	4545.32
460.21	4594.47
460.39	4524.26
460.57	4568.73
460.76	4718.52
460.94	4734.90
461.12	4636.60
461.31	4550.00
461.49	4634.26
461.67	4655.33
461.85	4802.78
462.04	4760.65
462.22	4978.32
462.40	4798.10
462.59	4770.01
462.77	4770.01
462.95	4903.42
463.13	4826.18
463.32	4777.03
463.50	4952.57
463.68	4870.65
463.86	5001.72
464.05	4910.44
464.23	4917.47
464.41	4826.18
464.59	4844.91
464.78	4926.83
464.96	5027.47
465.14	4816.82
465.32	5053.22
465.50	5029.81
465.69	4994.70
465.87	5050.88
466.05	5074.28
466.23	5121.09
466.41	5172.58
466.60	5221.74
466.78	5022.79
466.96	4861.29
467.14	5093.01
467.32	5137.48
467.51	5158.54
467.69	4968.96
467.87	5114.07
468.05	5085.98
468.23	5177.26
468.41	5214.71
468.60	5153.86
468.78	5282.59
468.96	5249.82
469.14	5313.02
469.32	5406.64
469.50	5123.43
469.69	5315.36
469.87	5516.64
470.05	5427.70
470.23	5432.38
470.41	5401.96
470.59	5483.88
470.77	5434.72
470.95	5416.00
471.14	5621.97
471.32	5528.35
471.50	5575.16
471.68	5650.05
471.86	5591.54
472.04	5692.18
472.22	5968.37
472.40	5593.88
472.58	5769.42
472.77	5830.27
472.95	5858.36
473.13	5909.85
473.31	5898.15
473.49	5806.87
473.67	5921.56
473.85	5858.36
474.03	6129.86
474.21	5987.09
474.39	6047.94
474.57	6136.88
474.75	6221.14
474.93	6235.19
475.12	6141.57
475.30	6148.59
475.48	6230.51
475.66	6246.89
475.84	6214.12
476.02	6441.15
476.20	6342.85
476.38	6485.62
476.56	6649.46
476.74	6541.80
476.92	6499.67
477.10	6590.95
477.28	6677.55
477.46	6513.71
477.64	6729.04
477.82	6745.42
478.00	6930.33
478.18	6946.71
478.36	6944.37
478.54	7112.89
478.72	7192.47
478.90	7138.63
479.08	7215.87
479.26	7272.04
479.44	7321.20
479.62	7391.41
479.80	7304.81
479.98	7279.07
480.16	7508.44
480.34	7588.02
480.52	7552.91
480.70	7691.00
480.88	7749.51
481.06	7737.81
481.24	7691.00
481.41	7772.92
481.59	8039.74
481.77	7962.50
481.95	7992.93
482.13	8297.20
482.31	8044.42
482.49	8542.96
482.67	8191.88
482.85	8421.25
483.03	8521.89
483.21	8887.01
483.39	8685.73
483.57	8739.56
483.74	8872.97
483.92	8603.81
484.10	8758.28
484.28	9097.66
484.46	9006.38
484.64	9018.08
484.82	9104.68
485.00	9043.83
485.18	9259.16
485.35	9631.30
485.53	9331.72
485.71	9373.85
485.89	9816.21
486.07	9708.54
486.25	9745.99
486.43	9797.48
486.61	9734.29
486.78	9879.40
486.96	10097.07
487.14	10036.22
487.32	10071.33
487.50	10061.96
487.68	10204.74
487.85	10499.64
488.03	10642.42
488.21	10595.61
488.39	10682.20
488.57	10752.42
488.75	10918.60
488.92	10981.79
489.10	10731.36
489.28	10864.77
489.46	11070.73
489.64	11005.20
489.81	11475.65
489.99	11407.77
490.17	11398.41
490.35	11447.56
490.53	11555.22
490.70	11679.27
490.88	11765.87
491.06	11875.88
491.24	11859.49
491.41	11824.39
491.59	11934.39
491.77	12058.44
491.95	12123.98
492.13	12271.43
492.30	12428.24
492.48	12203.55
492.66	12273.77
492.84	12428.24
493.01	12599.10
493.19	12592.08
493.37	12891.67
493.54	12947.84
493.72	13104.66
493.90	12905.71
494.08	13165.51
494.25	13172.54
494.43	13579.79
494.61	13415.95
494.79	13488.51
494.96	13217.01
495.14	13294.24
495.32	13610.22
495.49	13481.49
495.67	13727.24
495.85	13806.82
496.02	14078.32
496.20	13973.00
496.38	13745.97
496.55	14022.15
496.73	14410.68
496.91	14436.42
497.09	14401.32
497.26	14586.22
497.44	14368.55
497.62	14420.04
497.79	14759.42
497.97	14497.28
498.14	14721.97
498.32	14960.70
498.50	14974.75
498.67	14923.26
498.85	14867.08
499.03	15281.36
499.20	15126.88
499.38	15138.58
499.56	15117.52
499.73	15489.67
499.91	15602.01
500.08	15639.46
500.26	15339.87
500.44	15353.91
500.61	15398.38
500.79	15426.47
500.97	15754.15
501.14	16013.95
501.32	15901.60
501.49	15925.00
501.67	15927.35
501.84	15880.53
502.02	15925.00
502.20	16212.89
502.37	16231.62
502.55	15840.75
502.72	16226.93
502.90	16578.01
503.07	16355.66
503.25	16128.63
503.43	16348.64
503.60	16547.59
503.78	16795.68
503.95	16919.73
504.13	16624.83
504.30	16912.71
504.48	16760.58
504.65	16791.00
504.83	17041.44
505.01	17249.75
505.18	17305.92
505.36	17434.65
505.53	17064.85
505.71	17249.75
505.88	17469.76
506.06	17233.36
506.23	17362.09
506.41	17273.15
506.58	17565.72
506.76	17708.49
506.93	17455.72
507.11	17280.18
507.28	17743.60
507.46	17743.60
507.63	18050.21
507.81	18127.45
507.98	17537.63
508.16	17745.94
508.33	17802.11
508.50	18169.58
508.68	18232.77
508.85	18499.59
509.03	18246.82
509.20	18387.25
509.38	18464.49
509.55	18326.39
509.73	18497.25
509.90	18560.45
510.08	18513.64
510.25	18574.49
510.42	18640.03
510.60	18750.03
510.77	18878.76
510.95	18944.30
511.12	18824.93
511.30	18956.00
511.47	18963.02
511.64	19094.09
511.82	19091.75
511.99	19075.37
512.17	19051.96
512.34	19321.12
512.51	19501.34
512.69	19440.49
512.86	19594.96
513.04	19442.83
513.21	19571.56
513.38	19896.89
513.56	19609.01
513.73	19431.13
513.90	19733.06
514.08	19693.27
514.25	19908.60
514.43	19974.13
514.60	19873.49
514.77	19695.61
514.95	20149.67
515.12	19929.66
515.29	19606.67
515.47	20226.91
515.64	20489.05
515.81	19924.98
515.99	20489.05
516.16	20533.52
516.33	20439.90
516.51	20549.90
516.68	20280.74
516.85	20496.07
517.03	20608.42
517.20	20514.80
517.37	20723.10
517.54	20795.66
517.72	20692.68
517.89	20680.97
518.06	21053.12
518.24	20613.10
518.41	20858.85
518.58	20847.15
518.75	20999.29
518.93	21036.74
519.10	21226.32
519.27	21179.51
519.45	20964.18
519.62	21113.97
519.79	21067.16
519.96	21324.62
520.14	21654.64
520.31	21177.17
520.48	21518.89
520.65	21523.57
520.83	21465.05
521.00	21500.16
521.17	21745.92
521.34	21488.46
521.52	21823.16
521.69	21701.45
521.86	22246.79
522.03	21846.56
522.20	22043.17
522.38	22183.60
522.55	21851.24
522.72	21965.93
522.89	22045.51
523.07	22204.66
523.24	22434.03
523.41	22604.89
523.58	22113.38
523.75	22427.01
523.92	22075.93
524.10	22033.80
524.27	22349.78
524.44	22108.70
524.61	22654.05
524.78	22546.38
524.96	22471.48
525.13	22836.61
525.30	22562.76
525.47	22991.08
525.64	22876.40
525.81	22618.94
525.98	22937.25
526.16	22778.09
526.33	22953.63
526.50	23044.91
526.67	22623.62
526.84	23166.62
527.01	22883.42
527.18	23323.44
527.36	23400.68
527.53	23122.15
527.70	23154.92
527.87	23529.41
528.04	23304.71
528.21	23494.30
528.38	23618.35
528.55	23456.85
528.72	23468.55
528.89	23543.45
529.07	23365.57
529.24	23599.62
529.41	23651.11
529.58	23576.22
529.75	23695.58
529.92	23782.18
530.09	23487.28
530.26	24102.84
530.43	23665.16
530.60	23838.36
530.77	23777.50
530.94	23744.73
531.11	23740.05
531.28	23861.76
531.46	24212.84
531.63	24100.50
531.80	24517.11
531.97	24161.35
532.14	24290.08
532.31	24219.86
532.48	24570.94
532.65	24107.52
532.82	24357.96
532.99	24526.47
533.16	24187.10
533.33	24456.26
533.50	24821.38
533.67	24418.81
533.84	24521.79
534.01	24486.68
534.18	24720.74
534.35	24807.34
534.52	24589.67
534.69	24936.07
534.86	24809.68
535.03	24800.32
535.20	25188.85
535.37	24994.58
535.54	24828.40
535.71	24613.07
535.88	25010.96
536.05	25156.08
536.22	24992.24
536.38	25582.06
536.55	25092.88
536.72	24954.79
536.89	25076.50
537.06	25060.12
537.23	25500.14
537.40	25137.35
537.57	25380.77
537.74	25256.72
537.91	25668.66
538.08	25460.35
538.25	25165.44
538.42	25450.99
538.59	25572.69
538.75	25507.16
538.92	25626.53
539.09	25668.66
539.26	25907.39
539.43	25713.13
539.60	25809.09
539.77	25720.15
539.94	25816.11
540.11	25699.08
540.28	25823.13
540.44	25551.63
540.61	25750.57
540.78	25919.09
540.95	25907.39
541.12	26125.06
541.29	26001.01
541.46	26078.25
541.62	25729.51
541.79	26146.12
541.96	26029.10
542.13	25811.43
542.30	26384.86
542.47	26206.98
542.63	26223.36
542.80	26331.03
542.97	26431.67
543.14	26623.59
543.31	26597.85
543.48	26492.52
543.64	26773.39
543.81	26555.72
543.98	26246.77
544.15	26801.47
544.32	26775.73
544.48	27007.44
544.65	26834.24
544.82	26632.96
544.99	26546.36
545.16	26665.72
545.32	27150.21
545.49	26941.91
545.66	27377.25
545.83	26993.40
546.00	27058.93
546.16	27005.10
546.33	26810.84
546.50	26883.39
546.67	27300.01
546.83	26658.70
547.00	26984.04
547.17	27304.69
547.34	27292.99
547.50	27122.13
547.67	27229.79
547.84	27087.02
548.00	27356.18
548.17	27428.74
548.34	27433.42
548.51	27311.71
548.67	27267.24
548.84	27297.67
549.01	27323.41
549.18	27491.93
549.34	27250.86
549.51	27496.61
549.68	27721.30
549.84	27410.01
550.01	27426.40
550.18	27627.68
550.34	27597.26
550.51	27477.89
550.68	28201.11
550.84	27578.53
551.01	27672.15
551.18	27611.30
551.34	27618.32
551.51	27758.75
551.68	27910.89
551.84	27988.13
552.01	27859.40
552.18	27908.55
552.34	27515.34
552.51	28166.01
552.68	27941.32
552.84	27878.12
553.01	28102.81
553.18	28088.77
553.34	28402.40
553.51	28374.31
553.67	28151.96
553.84	28622.41
554.01	28079.41
554.17	28327.50
554.34	28208.14
554.51	28051.32
554.67	28666.88
554.84	28292.40
555.00	28430.49
555.17	28222.18
555.33	28683.27
555.50	28456.23
555.67	28538.15
555.83	28425.81
556.00	28332.18
556.16	28835.40
556.33	28276.01
556.50	28524.11
556.66	28959.45
556.83	28332.18
556.99	28624.75
557.16	28641.14
557.32	28952.43
557.49	28701.99
557.65	28650.50
557.82	28243.24
557.98	29039.03
558.15	28917.32
558.32	29146.69
558.48	28772.21
558.65	28652.84
558.81	28643.48
558.98	28886.89
559.14	28428.15
559.31	28779.23
559.47	28739.44
559.64	28938.38
559.80	29364.36
559.97	29296.49
560.13	28723.05
560.30	29132.65
560.46	29193.50
560.63	28819.02
560.79	29081.16
560.96	28879.87
561.12	28666.88
561.29	28952.43
561.45	29057.75
561.61	29181.80
561.78	29216.91
561.94	29350.32
562.11	29713.10
562.27	29209.89
562.44	29172.44
562.60	28996.90
562.77	28891.57
562.93	29078.82
563.10	29308.19
563.26	29195.84
563.42	29823.11
563.59	29408.83
563.75	29237.97
563.92	29598.41
564.08	29193.50
564.24	29095.20
564.41	29345.64
564.57	29296.49
564.74	29455.64
564.90	29420.53
565.07	29406.49
565.23	29443.94
565.39	29511.81
565.56	29865.24
565.72	29331.59
565.88	29455.64
566.05	29619.48
566.21	29399.47
566.38	29467.34
566.54	29570.33
566.70	29577.35
566.87	29448.62
567.03	29710.76
567.19	29937.79
567.36	29680.33
567.52	29486.07
567.68	29682.67
567.85	29544.58
568.01	29298.83
568.17	29720.12
568.34	29839.49
568.50	29589.05
568.66	29376.06
568.83	29993.97
568.99	29846.51
569.15	29549.26
569.32	29823.11
569.48	29455.64
569.64	29921.41
569.81	29673.31
569.97	29696.72
570.13	29752.89
570.30	29605.44
570.46	29420.53
570.62	29509.47
570.78	29633.52
570.95	29757.57
571.11	29708.42
571.27	29420.53
571.43	29649.91
571.60	29736.51
571.76	29631.18
571.92	29926.09
572.09	29914.39
572.25	30143.76
572.41	30047.80
572.57	30139.08
572.74	30354.41
572.90	30052.48
573.06	29310.53
573.22	29481.39
573.38	29919.07
573.55	29968.22
573.71	29926.09
573.87	29867.58
574.03	29738.85
574.20	29862.90
574.36	29797.36
574.52	30118.01
574.68	29535.22
574.84	30059.50
575.01	29970.56
575.17	30015.03
575.33	30059.50
575.49	30176.53
575.65	30122.69
575.82	29944.81
575.98	29661.61
576.14	30572.08
576.30	30019.71
576.46	29802.04
576.62	29764.59
576.79	29979.92
576.95	29795.02
577.11	30316.96
577.27	29855.87
577.43	30005.67
577.59	29916.73
577.75	30244.40
577.92	29851.19
578.08	29773.95
578.24	30096.95
578.40	30139.08
578.56	30363.77
578.72	30235.04
578.88	30075.88
579.04	30735.92
579.21	30169.51
579.37	30431.65
579.53	30518.25
579.69	29956.52
579.85	30096.95
580.01	30199.93
580.17	29937.79
580.33	30155.46
580.49	30082.91
580.65	29893.32
580.82	30426.96
580.98	30270.15
581.14	29972.90
581.30	30476.12
581.46	30286.53
581.62	30113.33
581.78	30057.16
581.94	30195.25
582.10	29780.98
582.26	29935.45
582.42	29755.23
582.58	30471.43
582.74	30478.46
582.90	30249.08
583.06	30483.14
583.22	29865.24
583.38	30089.93
583.54	30211.64
583.70	29991.62
583.86	30368.45
584.02	29972.90
584.18	30398.88
584.34	30331.00
584.50	29996.31
584.66	30235.04
584.82	30125.04
584.98	30450.37
585.14	30033.75
585.30	30174.19
585.46	30632.93
585.62	30258.45
585.78	30061.84
585.94	29876.94
586.10	30581.44
586.26	30604.84
586.42	30436.33
586.58	30649.32
586.74	30213.98
586.90	29909.71
587.06	29965.88
587.22	30221.00
587.38	30307.60
587.54	30412.92
587.70	30717.19
587.86	30326.32
588.02	30838.90
588.18	30787.41
588.34	30656.34
588.49	30799.11
588.65	30412.92
588.81	30211.64
588.97	30443.35
589.13	30436.33
589.29	30515.90
589.45	30829.54
589.61	30906.77
589.77	30635.27
589.93	30412.92
590.08	31131.47
590.24	30859.96
590.40	30705.49
590.56	30883.37
590.72	30682.08
590.88	30504.20
591.04	30553.35
591.20	30752.30
591.35	30979.33
591.51	30815.49
591.67	30946.56
591.83	30724.21
591.99	30902.09
