SpectraSuite Data File
++++++++++++++++++++++++++++++++++++
Date: Fri Oct 18 13:58:12 GMT-05:00 2013
User: bianchi
Dark Spectrum Present: No
Reference Spectrum Present: No
Number of Sampled Component Spectra: 1
Spectrometers: USB2+H05261
Integration Time (usec): 50000 (USB2+H05261)
Spectra Averaged: 1 (USB2+H05261)
Boxcar Smoothing: 0 (USB2+H05261)
Correct for Electrical Dark: No (USB2+H05261)
Strobe/Lamp Enabled: No (USB2+H05261)
Correct for Detector Non-linearity: No (USB2+H05261)
Correct for Stray Light: No (USB2+H05261)
Number of Pixels in Processed Spectrum: 2048
>>>>>Begin Processed Spectral Data<<<<<
365.73	0.00
365.92	0.00
366.12	0.00
366.32	0.00
366.52	0.00
366.72	0.00
366.91	0.00
367.11	0.00
367.31	0.00
367.51	0.00
367.70	0.00
367.90	0.00
368.10	0.00
368.30	0.00
368.49	0.00
368.69	0.00
368.89	0.00
369.09	0.00
369.28	0.00
369.48	0.00
369.68	0.00
369.87	0.00
370.07	0.00
370.27	0.00
370.47	0.00
370.66	84.26
370.86	119.37
371.06	156.82
371.25	173.20
371.45	121.71
371.65	44.47
371.84	163.84
372.04	149.79
372.24	117.03
372.44	112.35
372.63	149.79
372.83	182.56
373.03	224.69
373.22	212.99
373.42	222.35
373.62	255.12
373.81	203.63
374.01	294.91
374.21	259.80
374.40	224.69
374.60	250.44
374.79	224.69
374.99	177.88
375.19	231.71
375.38	203.63
375.58	224.69
375.78	238.73
375.97	252.78
376.17	285.55
376.37	194.26
376.56	224.69
376.76	255.12
376.95	241.08
377.15	168.52
377.35	283.20
377.54	220.01
377.74	301.93
377.93	292.57
378.13	315.97
378.33	322.99
378.52	248.10
378.72	273.84
378.91	337.04
379.11	241.08
379.31	248.10
379.50	285.55
379.70	255.12
379.89	280.86
380.09	304.27
380.28	290.23
380.48	301.93
380.68	374.49
380.87	273.84
381.07	259.80
381.26	327.68
381.46	292.57
381.65	311.29
381.85	362.78
382.04	332.36
382.24	269.16
382.43	337.04
382.63	379.17
382.83	376.83
383.02	393.21
383.22	318.31
383.41	390.87
383.61	341.72
383.80	397.89
384.00	421.30
384.19	381.51
384.39	369.80
384.58	365.12
384.78	409.59
384.97	468.11
385.17	374.49
385.36	379.17
385.56	388.53
385.75	447.04
385.95	358.10
386.14	416.62
386.34	386.19
386.53	418.96
386.72	418.96
386.92	395.55
387.11	440.02
387.31	435.34
387.50	458.74
387.70	397.89
387.89	484.49
388.09	470.45
388.28	430.66
388.48	425.98
388.67	428.32
388.86	376.83
389.06	486.83
389.25	496.19
389.45	479.81
389.64	423.64
389.84	524.28
390.03	491.51
390.22	538.32
390.42	517.26
390.61	472.79
390.81	484.49
391.00	533.64
391.19	552.37
391.39	489.17
391.58	479.81
391.78	524.28
391.97	554.71
392.16	533.64
392.36	589.82
392.55	496.19
392.75	624.92
392.94	493.85
393.13	524.28
393.33	493.85
393.52	517.26
393.71	557.05
393.91	587.47
394.10	552.37
394.29	489.17
394.49	580.45
394.68	655.35
394.88	594.50
395.07	629.60
395.26	634.29
395.46	606.20
395.65	690.46
395.84	669.39
396.04	690.46
396.23	557.05
396.42	606.20
396.62	723.23
396.81	711.52
397.00	688.12
397.19	648.33
397.39	709.18
397.58	662.37
397.77	573.43
397.97	631.94
398.16	636.63
398.35	699.82
398.55	709.18
398.74	746.63
398.93	702.16
399.12	690.46
399.32	690.46
399.51	758.33
399.70	774.72
399.90	788.76
400.09	798.12
400.28	772.38
400.47	718.54
400.67	877.70
400.86	802.80
401.05	873.02
401.24	763.01
401.44	798.12
401.63	814.51
401.82	830.89
402.01	767.70
402.21	849.61
402.40	915.15
402.59	828.55
402.78	814.51
402.97	844.93
403.17	842.59
403.36	833.23
403.55	826.21
403.74	980.68
403.93	908.13
404.13	861.32
404.32	917.49
404.51	823.87
404.70	924.51
404.89	903.45
405.09	931.53
405.28	901.11
405.47	1008.77
405.66	983.02
405.85	936.21
406.05	983.02
406.24	983.02
406.43	1004.09
406.62	983.02
406.81	1046.22
407.00	1008.77
407.20	1048.56
407.39	1057.92
407.58	1128.14
407.77	1034.52
407.96	1132.82
408.15	1116.44
408.34	1107.07
408.54	1086.01
408.73	1165.59
408.92	1128.14
409.11	1100.05
409.30	1158.57
409.49	1128.14
409.68	1104.73
409.87	1200.69
410.07	1160.91
410.26	1228.78
410.45	1210.06
410.64	1196.01
410.83	1191.33
411.02	1275.59
411.21	1263.89
411.40	1214.74
411.59	1359.85
411.78	1277.93
411.98	1303.68
412.17	1308.36
412.36	1273.25
412.55	1507.30
412.74	1357.51
412.93	1366.87
413.12	1320.06
413.31	1460.49
413.50	1448.79
413.69	1390.28
413.88	1504.96
414.07	1385.60
414.26	1516.67
414.45	1490.92
414.64	1483.90
414.83	1570.50
415.02	1519.01
415.22	1577.52
415.41	1533.05
415.60	1533.05
415.79	1598.59
415.98	1568.16
416.17	1647.74
416.36	1633.69
416.55	1551.78
416.74	1671.14
416.93	1633.69
417.12	1694.55
417.31	1710.93
417.50	1743.70
417.69	1729.66
417.88	1750.72
418.07	1774.13
418.26	1753.06
418.45	1795.19
418.64	1977.75
418.83	1863.07
419.02	1823.28
419.21	1820.94
419.39	1802.21
419.58	1879.45
419.77	1874.77
419.96	1781.15
420.15	1970.73
420.34	1832.64
420.53	1858.39
420.72	1968.39
420.91	1912.22
421.10	1844.34
421.29	2010.52
421.48	1902.86
421.67	1944.99
421.86	2024.56
422.05	1966.05
422.24	2008.18
422.43	1893.49
422.61	2001.16
422.80	2083.08
422.99	2015.20
423.18	1994.14
423.37	2101.80
423.56	2064.35
423.75	1975.41
423.94	2036.27
424.13	1907.54
424.32	1802.21
424.50	2069.03
424.69	2085.42
424.88	2155.63
425.07	2052.65
425.26	1977.75
425.45	2052.65
425.64	2083.08
425.83	2047.97
426.01	2097.12
426.20	2092.44
426.39	2162.66
426.58	2165.00
426.77	2062.01
426.96	2209.47
427.15	2001.16
427.33	2008.18
427.52	2155.63
427.71	2134.57
427.90	2169.68
428.09	2157.97
428.28	2181.38
428.46	2155.63
428.65	2188.40
428.84	2204.78
429.03	2223.51
429.22	2218.83
429.40	2204.78
429.59	2349.90
429.78	2115.84
429.97	2270.32
430.16	2228.19
430.34	2307.77
430.53	2387.35
430.72	2305.43
430.91	2345.22
431.10	2340.54
431.28	2387.35
431.47	2431.82
431.66	2403.73
431.85	2387.35
432.03	2401.39
432.22	2499.69
432.41	2431.82
432.60	2399.05
432.79	2459.90
432.97	2485.65
433.16	2422.45
433.35	2553.52
433.54	2532.46
433.72	2593.31
433.91	2605.02
434.10	2621.40
434.28	2436.50
434.47	2626.08
434.66	2539.48
434.85	2553.52
435.03	2597.99
435.22	2630.76
435.41	2761.83
435.59	2682.25
435.78	2752.47
435.97	2668.21
436.16	2677.57
436.34	2717.36
436.53	2890.56
436.72	2827.37
436.90	2672.89
437.09	2626.08
437.28	2689.28
437.46	2675.23
437.65	2745.45
437.84	2780.56
438.02	2944.39
438.21	2932.69
438.40	2857.79
438.58	2780.56
438.77	2960.78
438.96	2923.33
439.14	2977.16
439.33	2951.42
439.52	2986.52
439.70	3089.51
439.89	3122.27
440.08	3094.19
440.26	3185.47
440.45	3068.44
440.63	3133.98
440.82	3248.66
441.01	3115.25
441.19	3272.07
441.38	3293.13
441.57	3279.09
441.75	3218.24
441.94	3241.64
442.12	3243.98
442.31	3302.50
442.50	3351.65
442.68	3361.01
442.87	3346.97
443.05	3435.91
443.24	3353.99
443.43	3487.40
443.61	3426.54
443.80	3557.61
443.98	3405.48
444.17	3321.22
444.35	3557.61
444.54	3403.14
444.73	3662.94
444.91	3435.91
445.10	3414.84
445.28	3552.93
445.47	3517.83
445.65	3407.82
445.84	3517.83
446.02	3452.29
446.21	3557.61
446.39	3552.93
446.58	3473.36
446.77	3585.70
446.95	3417.18
447.14	3618.47
447.32	3599.74
447.51	3421.86
447.69	3695.71
447.88	3473.36
448.06	3618.47
448.25	3772.94
448.43	3609.11
448.62	3623.15
448.80	3646.55
448.99	3613.79
449.17	3648.90
449.36	3641.87
449.54	3721.45
449.73	3756.56
449.91	3702.73
450.10	3735.50
450.28	3840.82
450.46	3817.41
450.65	3894.65
450.83	3681.66
451.02	3929.76
451.20	3810.39
451.39	4035.08
451.57	3770.60
451.76	3730.81
451.94	3950.82
452.13	3819.75
452.31	3922.74
452.49	3803.37
452.68	3847.84
452.86	3824.44
453.05	3999.98
453.23	3880.61
453.42	3974.23
453.60	3911.04
453.78	3941.46
453.97	4025.72
454.15	3985.93
454.34	3960.19
454.52	3955.51
454.70	3927.42
454.89	3932.10
455.07	4212.96
455.26	4180.20
455.44	4156.79
455.62	4311.27
455.81	4152.11
455.99	4248.07
456.17	4236.37
456.36	4063.17
456.54	4367.44
456.73	4191.90
456.91	4290.20
457.09	4365.10
457.28	4404.89
457.46	4285.52
457.64	4496.17
457.83	4386.16
458.01	4173.18
458.19	4486.81
458.38	4486.81
458.56	4482.13
458.74	4362.76
458.93	4390.84
459.11	4395.53
459.29	4601.49
459.48	4458.72
459.66	4610.86
459.84	4564.04
460.03	4587.45
460.21	4589.79
460.39	4648.30
460.57	4645.96
460.76	4503.19
460.94	4528.94
461.12	4580.43
461.31	4613.20
461.49	4610.86
461.67	4676.39
461.85	4805.12
462.04	4627.24
462.22	5093.01
462.40	4919.81
462.59	4774.69
462.77	4812.14
462.95	4767.67
463.13	4978.32
463.32	4856.61
463.50	5069.60
463.68	4896.40
463.86	4870.65
464.05	4975.98
464.23	4781.71
464.41	5008.75
464.59	4943.21
464.78	5008.75
464.96	4919.81
465.14	5004.07
465.32	4968.96
465.50	5191.31
465.69	5043.85
465.87	5008.75
466.05	5114.07
466.23	5027.47
466.41	5032.15
466.60	5310.68
466.78	5060.24
466.96	5181.95
467.14	5102.37
467.32	5146.84
467.51	5249.82
467.69	5153.86
467.87	5142.16
468.05	4945.55
468.23	5247.48
468.41	5188.97
468.60	5172.58
468.78	5390.25
468.96	5144.50
469.14	5238.12
469.32	5345.78
469.50	5172.58
469.69	5577.50
469.87	5500.26
470.05	5322.38
470.23	5558.77
470.41	5394.93
470.59	5647.71
470.77	5472.17
470.95	5378.55
471.14	5654.73
471.32	5423.02
471.50	5617.29
471.68	5839.64
471.86	5703.89
472.04	5720.27
472.22	5804.53
472.40	5652.39
472.58	5907.51
472.77	5771.76
472.95	5954.32
473.13	6246.89
473.31	5914.53
473.49	5830.27
473.67	5966.03
473.85	5996.45
474.03	6033.90
474.21	6050.28
474.39	6143.91
474.57	6176.67
474.75	6071.35
474.93	6263.27
475.12	6246.89
475.30	6176.67
475.48	6284.34
475.66	6253.91
475.84	6377.96
476.02	6455.20
476.20	6415.41
476.38	6511.37
476.56	6520.73
476.74	6722.02
476.92	6637.76
477.10	6633.08
477.28	6717.34
477.46	6705.63
477.64	6834.36
477.82	6871.81
478.00	7091.82
478.18	7075.44
478.36	7178.42
478.54	7005.22
478.72	7236.94
478.90	7227.57
479.08	7456.95
479.26	7372.69
479.44	7379.71
479.62	7382.05
479.80	7403.11
479.98	7616.10
480.16	7550.57
480.34	7667.60
480.52	7803.35
480.70	7730.79
480.88	7758.88
481.06	7695.68
481.24	7784.62
481.41	8035.06
481.59	8142.72
481.77	8105.28
481.95	8168.47
482.13	8107.62
482.31	8161.45
482.49	8346.35
482.67	8498.49
482.85	8519.55
483.03	8519.55
483.21	8683.39
483.39	8802.75
483.57	8737.22
483.74	8915.10
483.92	8823.82
484.10	8882.33
484.28	9123.41
484.46	9270.86
484.64	9280.22
484.82	9092.98
485.00	9231.07
485.18	9343.42
485.35	9479.17
485.53	9497.89
485.71	9521.30
485.89	9668.75
486.07	9666.41
486.25	9811.53
486.43	9764.72
486.61	9851.31
486.78	9879.40
486.96	10169.63
487.14	10064.30
487.32	10237.50
487.50	10469.22
487.68	10469.22
487.85	10633.05
488.03	10558.16
488.21	10509.01
488.39	10733.70
488.57	11014.56
488.75	10923.28
488.92	11028.60
489.10	11239.25
489.28	11066.05
489.46	11431.18
489.64	11061.37
489.81	11356.28
489.99	11262.66
490.17	11410.11
490.35	11772.89
490.53	11676.93
490.70	11604.38
490.88	11641.82
491.06	11829.07
491.24	12009.29
491.41	12166.10
491.59	12091.21
491.77	12208.23
491.95	12255.04
492.13	12276.11
492.30	12498.46
492.48	12851.88
492.66	12697.41
492.84	12585.06
493.01	12533.57
493.19	12879.97
493.37	12922.10
493.54	12725.49
493.72	13048.49
493.90	13158.49
494.08	13219.35
494.25	13266.16
494.43	13352.76
494.61	13523.62
494.79	13514.25
494.96	13523.62
495.14	13554.04
495.32	13781.07
495.49	13832.57
495.67	13874.70
495.85	13792.78
496.02	14293.65
496.20	14024.49
496.38	14272.59
496.55	14319.40
496.73	14221.10
496.91	14457.49
497.09	14476.21
497.26	14366.21
497.44	14623.67
497.62	14370.89
497.79	14750.06
497.97	14883.47
498.14	15094.11
498.32	15084.75
498.50	15286.04
498.67	15129.22
498.85	15276.68
499.03	14951.34
499.20	15403.07
499.38	15283.70
499.56	15445.20
499.73	15555.20
499.91	15702.65
500.08	15714.36
500.26	15651.16
500.44	15807.98
500.61	15676.91
500.79	15925.00
500.97	16056.08
501.14	16205.87
501.32	16400.13
501.49	15948.41
501.67	15934.37
501.84	16449.28
502.02	16224.59
502.20	16460.99
502.37	16386.09
502.55	16343.96
502.72	16737.17
502.90	16627.17
503.07	16365.03
503.25	16435.24
503.43	16678.66
503.60	16531.20
503.78	16781.64
503.95	16868.24
504.13	17146.76
504.30	17252.09
504.48	16922.07
504.65	16973.56
504.83	17364.43
505.01	17287.20
505.18	17614.87
505.36	17600.83
505.53	17202.94
505.71	17441.67
505.88	17291.88
506.06	17385.50
506.23	17839.56
506.41	17614.87
506.58	17804.46
506.76	17888.71
506.93	17750.62
507.11	17788.07
507.28	17673.39
507.46	17944.89
507.63	18087.66
507.81	18171.92
507.98	18181.28
508.16	18031.49
508.33	18221.07
508.50	18174.26
508.68	18003.40
508.85	18586.19
509.03	18459.81
509.20	18537.04
509.38	18700.88
509.55	18445.76
509.73	18665.77
509.90	18560.45
510.08	18623.64
510.25	18946.64
510.42	19290.70
510.60	19014.51
510.77	19283.67
510.95	19131.54
511.12	18970.04
511.30	19117.50
511.47	19152.60
511.64	19108.13
511.82	19545.81
511.99	19140.90
512.17	19463.90
512.34	19548.15
512.51	19576.24
512.69	19609.01
512.86	19796.25
513.04	20093.50
513.21	19480.28
513.38	19807.95
513.56	19915.62
513.73	20020.94
513.90	19843.06
514.08	19917.96
514.25	19910.94
514.43	20196.48
514.60	19796.25
514.77	20189.46
514.95	20262.02
515.12	19887.53
515.29	20224.57
515.47	20187.12
515.64	20393.09
515.81	20339.26
515.99	20643.52
516.16	20734.81
516.33	20683.31
516.51	20500.75
516.68	20732.47
516.85	20723.10
517.03	20500.75
517.20	20657.57
517.37	20865.88
517.54	20868.22
517.72	20994.61
517.89	21135.04
518.06	20966.52
518.24	21132.70
518.41	20973.54
518.58	20959.50
518.75	21177.17
518.93	21348.03
519.10	21184.19
519.27	21277.81
519.45	21109.29
519.62	21472.07
519.79	21469.73
519.96	21097.59
520.14	21476.76
520.31	21406.54
520.48	21572.72
520.65	21605.49
520.83	21909.75
521.00	21371.43
521.17	21659.32
521.34	21823.16
521.52	22136.79
521.69	22197.64
521.86	21968.27
522.03	22160.19
522.20	22164.87
522.38	22230.41
522.55	22466.80
522.72	22089.98
522.89	22286.58
523.07	22455.10
523.24	22445.74
523.41	22405.95
523.58	22059.55
523.75	22752.35
523.92	22342.75
524.10	22679.79
524.27	22843.63
524.44	22913.84
524.61	22864.69
524.78	22874.06
524.96	22787.46
525.13	23183.01
525.30	23300.03
525.47	22941.93
525.64	22993.42
525.81	23304.71
525.98	23442.81
526.16	23524.72
526.33	23208.75
526.50	23157.26
526.67	23335.14
526.84	23435.78
527.01	23391.31
527.18	23047.26
527.36	23573.88
527.53	23377.27
527.70	23726.01
527.87	23370.25
528.04	23267.27
528.21	23419.40
528.38	24072.41
528.55	23587.92
528.72	23754.10
528.89	24107.52
529.07	23594.94
529.24	23943.68
529.41	24056.03
529.58	23660.48
529.75	24161.35
529.92	23793.89
530.09	23978.79
530.26	23910.91
530.43	24622.44
530.60	24030.28
530.77	24154.33
530.94	24182.42
531.11	24177.73
531.28	24264.33
531.46	24112.20
531.63	24276.04
531.80	24393.06
531.97	24505.41
532.14	24496.05
532.31	24751.17
532.48	24472.64
532.65	24505.41
532.82	24341.57
532.99	24437.53
533.16	24477.32
533.33	24730.10
533.50	24898.62
533.67	24849.47
533.84	24987.56
534.01	24577.97
534.18	24964.15
534.35	24996.92
534.52	25074.16
534.69	24922.02
534.86	25144.38
535.03	24975.86
535.20	25296.51
535.37	25263.74
535.54	25483.75
535.71	25132.67
535.88	25352.68
536.05	25113.95
536.22	25291.83
536.38	25252.04
536.55	25355.02
536.72	25556.31
536.89	25348.00
537.06	25378.43
537.23	25671.00
537.40	25647.59
537.57	25734.19
537.74	25813.77
537.91	26167.19
538.08	25558.65
538.25	25729.51
538.42	25624.18
538.59	25848.88
538.75	25624.18
538.92	25752.91
539.09	25727.17
539.26	26120.38
539.43	26108.68
539.60	25593.76
539.77	26008.03
539.94	26204.64
540.11	26096.97
540.28	26103.99
540.44	26101.65
540.61	26059.52
540.78	26214.00
540.95	26366.13
541.12	26445.71
541.29	26082.93
541.46	26492.52
541.62	26204.64
541.79	26127.40
541.96	25956.54
542.13	26401.24
542.30	26562.74
542.47	26441.03
542.63	26457.42
542.80	26333.37
542.97	26862.33
543.14	27047.23
543.31	26930.20
543.48	26529.97
543.64	26923.18
543.81	26817.86
543.98	27363.20
544.15	27021.48
544.32	27309.37
544.48	27323.41
544.65	27014.46
544.82	26974.67
544.99	27063.61
545.16	27161.92
545.32	27173.62
545.49	27117.45
545.66	27365.54
545.83	27445.12
546.00	27487.25
546.16	27328.10
546.33	26948.93
546.50	26834.24
546.67	27243.84
546.83	26974.67
547.00	27489.59
547.17	27630.02
547.34	27115.11
547.50	27756.41
547.67	27728.33
547.84	27559.81
548.00	27761.09
548.17	27908.55
548.34	27716.62
548.51	27800.88
548.67	27826.63
548.84	27922.59
549.01	27665.13
549.18	27868.76
549.34	27704.92
549.51	27814.93
549.68	27796.20
549.84	27620.66
550.01	27803.22
550.18	27435.76
550.34	27833.65
550.51	27943.66
550.68	28280.69
550.84	27716.62
551.01	28116.86
551.18	27969.40
551.34	27749.39
551.51	28051.32
551.68	28435.17
551.84	28467.94
552.01	28231.54
552.18	28306.44
552.34	28191.75
552.51	28591.98
552.68	28217.50
552.84	28451.55
553.01	28287.71
553.18	28364.95
553.34	28486.66
553.51	28470.28
553.67	28294.74
553.84	28673.90
554.01	28800.29
554.17	28362.61
554.34	28854.12
554.51	28512.41
554.67	28528.79
554.84	28657.52
555.00	28599.01
555.17	28879.87
555.33	28699.65
555.50	28966.47
555.67	29020.30
555.83	28975.83
556.00	28783.91
556.16	28851.78
556.33	28811.99
556.50	29116.26
556.66	29099.88
556.83	28999.24
556.99	29324.57
557.16	29237.97
557.32	29179.46
557.49	29137.33
557.65	28741.78
557.82	28776.89
557.98	28704.33
558.15	29088.18
558.32	29202.86
558.48	29333.93
558.65	29212.23
558.81	29170.10
558.98	29024.98
559.14	29116.26
559.31	29336.27
559.47	29095.20
559.64	29233.29
559.80	29729.48
559.97	29610.12
560.13	29001.58
560.30	29326.91
560.46	29537.56
560.63	29383.09
560.79	29748.21
560.96	29226.27
561.12	29593.73
561.29	29179.46
561.45	29120.95
561.61	29626.50
561.78	29785.66
561.94	29551.60
562.11	29677.99
562.27	29165.42
562.44	29663.95
562.60	29673.31
562.77	29509.47
562.93	29322.23
563.10	29968.22
563.26	29640.54
563.42	29603.10
563.59	29607.78
563.75	29888.64
563.92	29888.64
564.08	29284.78
564.24	30040.78
564.41	29322.23
564.57	29570.33
564.74	29134.99
564.90	29867.58
565.07	29563.31
565.23	29748.21
565.39	29816.08
565.56	30059.50
565.72	29916.73
565.88	29689.70
566.05	29553.94
566.21	29539.90
566.38	29858.21
566.54	29890.98
566.70	30073.54
566.87	30038.44
567.03	30045.46
567.19	30302.92
567.36	30162.48
567.52	29956.52
567.68	30354.41
567.85	29965.88
568.01	30071.20
568.17	29560.97
568.34	29916.73
568.50	30040.78
568.66	30183.55
568.83	29867.58
568.99	30244.40
569.15	30078.22
569.32	30148.44
569.48	29628.84
569.64	30206.95
569.81	30281.85
569.97	30017.37
570.13	30162.48
570.30	30242.06
570.46	30253.76
570.62	30415.26
570.78	30499.52
570.95	30160.14
571.11	30225.68
571.27	29715.44
571.43	30426.96
571.60	30169.51
571.76	30045.46
571.92	30401.22
572.09	30279.51
572.25	30000.99
572.41	30471.43
572.57	30305.26
572.74	30352.07
572.90	30548.67
573.06	30309.94
573.22	30040.78
573.38	30389.52
573.55	30012.69
573.71	30359.09
573.87	30368.45
574.03	30171.85
574.20	30595.48
574.36	29982.26
574.52	30279.51
574.68	30328.66
574.84	30331.00
575.01	30089.93
575.17	30354.41
575.33	30230.36
575.49	30305.26
575.65	30532.29
575.82	30394.20
575.98	30221.00
576.14	30410.58
576.30	30431.65
576.46	30249.08
576.62	30134.40
576.79	30382.49
576.95	30249.08
577.11	30459.73
577.27	30532.29
577.43	30548.67
577.59	30377.81
577.75	30459.73
577.92	30230.36
578.08	30382.49
578.24	30513.56
578.40	30213.98
578.56	30740.60
578.72	30356.75
578.88	30555.69
579.04	30967.63
579.21	30260.79
579.37	30457.39
579.53	30609.53
579.69	30387.18
579.85	30843.58
580.01	30398.88
580.17	30410.58
580.33	30478.46
580.49	30429.30
580.65	30515.90
580.82	30672.72
580.98	30237.38
581.14	30534.63
581.30	30728.89
581.46	30349.73
581.62	30181.21
581.78	30522.93
581.94	30522.93
582.10	30780.39
582.26	30452.71
582.42	30656.34
582.58	30862.30
582.74	30953.58
582.90	30637.61
583.06	30492.50
583.22	30764.00
583.38	30522.93
583.54	30536.97
583.70	30298.23
583.86	30417.60
584.02	30672.72
584.18	31035.50
584.34	30752.30
584.50	30649.32
584.66	30431.65
584.82	30719.53
584.98	30394.20
585.14	30541.65
585.30	30050.14
585.46	30228.02
585.62	30281.85
585.78	30469.09
585.94	30286.53
586.10	30515.90
586.26	30562.72
586.42	30773.36
586.58	30649.32
586.74	30302.92
586.90	30909.11
587.06	30403.56
587.22	30504.20
587.38	30359.09
587.54	31065.93
587.70	31077.63
587.86	30815.49
588.02	30897.41
588.18	31049.55
588.34	31178.28
588.49	30670.38
588.65	30719.53
588.81	30307.60
588.97	30756.98
589.13	30881.03
589.29	30742.94
589.45	31072.95
589.61	31030.82
589.77	31000.40
589.93	31000.40
590.08	31068.27
590.24	31009.76
590.40	30876.35
590.56	31147.85
590.72	31199.34
590.88	30497.18
591.04	30939.54
591.20	30981.67
591.35	31012.10
591.51	31199.34
591.67	31267.22
591.83	31669.79
591.99	31255.51
