SpectraSuite Data File
++++++++++++++++++++++++++++++++++++
Date: Fri Oct 18 13:58:11 GMT-05:00 2013
User: bianchi
Dark Spectrum Present: No
Reference Spectrum Present: No
Number of Sampled Component Spectra: 1
Spectrometers: USB2+H05261
Integration Time (usec): 50000 (USB2+H05261)
Spectra Averaged: 1 (USB2+H05261)
Boxcar Smoothing: 0 (USB2+H05261)
Correct for Electrical Dark: No (USB2+H05261)
Strobe/Lamp Enabled: No (USB2+H05261)
Correct for Detector Non-linearity: No (USB2+H05261)
Correct for Stray Light: No (USB2+H05261)
Number of Pixels in Processed Spectrum: 2048
>>>>>Begin Processed Spectral Data<<<<<
365.73	0.00
365.92	0.00
366.12	0.00
366.32	0.00
366.52	0.00
366.72	0.00
366.91	0.00
367.11	0.00
367.31	0.00
367.51	0.00
367.70	0.00
367.90	0.00
368.10	0.00
368.30	0.00
368.49	0.00
368.69	0.00
368.89	0.00
369.09	0.00
369.28	0.00
369.48	0.00
369.68	0.00
369.87	0.00
370.07	0.00
370.27	0.00
370.47	0.00
370.66	39.79
370.86	100.64
371.06	77.24
371.25	170.86
371.45	131.07
371.65	128.73
371.84	145.11
372.04	191.92
372.24	184.90
372.44	189.58
372.63	217.67
372.83	175.54
373.03	173.20
373.22	203.63
373.42	220.01
373.62	208.31
373.81	154.48
374.01	161.50
374.21	287.89
374.40	318.31
374.60	217.67
374.79	294.91
374.99	273.84
375.19	290.23
375.38	173.20
375.58	264.48
375.78	191.92
375.97	248.10
376.17	262.14
376.37	297.25
376.56	285.55
376.76	245.76
376.95	290.23
377.15	292.57
377.35	262.14
377.54	241.08
377.74	227.03
377.93	231.71
378.13	374.49
378.33	327.68
378.52	245.76
378.72	313.63
378.91	203.63
379.11	229.37
379.31	238.73
379.50	325.33
379.70	299.59
379.89	360.44
380.09	301.93
380.28	306.61
380.48	344.06
380.68	285.55
380.87	367.46
381.07	313.63
381.26	369.80
381.46	330.02
381.65	428.32
381.85	278.52
382.04	322.99
382.24	395.55
382.43	330.02
382.63	355.76
382.83	332.36
383.02	339.38
383.22	386.19
383.41	397.89
383.61	395.55
383.80	409.59
384.00	348.74
384.19	449.38
384.39	379.17
384.58	433.00
384.78	353.42
384.97	341.72
385.17	390.87
385.36	435.34
385.56	402.57
385.75	390.87
385.95	369.80
386.14	365.12
386.34	407.25
386.53	444.70
386.72	374.49
386.92	482.15
387.11	442.36
387.31	491.51
387.50	416.62
387.70	430.66
387.89	400.23
388.09	545.34
388.28	435.34
388.48	430.66
388.67	465.77
388.86	472.79
389.06	500.87
389.25	491.51
389.45	477.47
389.64	477.47
389.84	512.58
390.03	479.81
390.22	521.94
390.42	475.13
390.61	517.26
390.81	421.30
391.00	521.94
391.19	519.60
391.39	578.11
391.58	538.32
391.78	479.81
391.97	613.22
392.16	589.82
392.36	580.45
392.55	580.45
392.75	578.11
392.94	561.73
393.13	636.63
393.33	512.58
393.52	519.60
393.71	631.94
393.91	550.03
394.10	503.22
394.29	482.15
394.49	566.41
394.68	514.92
394.88	528.96
395.07	582.79
395.26	641.31
395.46	582.79
395.65	641.31
395.84	578.11
396.04	727.91
396.23	608.54
396.42	624.92
396.62	559.39
396.81	676.41
397.00	706.84
397.19	674.07
397.39	655.35
397.58	704.50
397.77	711.52
397.97	667.05
398.16	793.44
398.35	732.59
398.55	636.63
398.74	629.60
398.93	744.29
399.12	763.01
399.32	723.23
399.51	706.84
399.70	716.20
399.90	723.23
400.09	688.12
400.28	823.87
400.47	826.21
400.67	851.96
400.86	833.23
401.05	760.67
401.24	812.17
401.44	912.81
401.63	828.55
401.82	861.32
402.01	861.32
402.21	870.68
402.40	847.27
402.59	828.55
402.78	889.40
402.97	903.45
403.17	915.15
403.36	887.06
403.55	833.23
403.74	954.94
403.93	835.57
404.13	915.15
404.32	910.47
404.51	894.08
404.70	976.00
404.89	1027.50
405.09	983.02
405.28	990.05
405.47	1060.26
405.66	992.39
405.85	1025.15
406.05	997.07
406.24	952.60
406.43	1053.24
406.62	1025.15
406.81	992.39
407.00	1027.50
407.20	1057.92
407.39	1018.13
407.58	1043.88
407.77	1086.01
407.96	1083.67
408.15	1174.95
408.34	1090.69
408.54	1135.16
408.73	1139.84
408.92	1153.88
409.11	1198.35
409.30	1263.89
409.49	1198.35
409.68	1130.48
409.87	1163.25
410.07	1284.95
410.26	1174.95
410.45	1273.25
410.64	1203.04
410.83	1259.21
411.02	1210.06
411.21	1350.49
411.40	1238.14
411.59	1235.80
411.78	1327.08
411.98	1334.11
412.17	1315.38
412.36	1387.94
412.55	1392.62
412.74	1376.24
412.93	1385.60
413.12	1289.64
413.31	1444.11
413.50	1397.30
413.69	1481.56
413.88	1500.28
414.07	1448.79
414.26	1439.43
414.45	1472.20
414.64	1551.78
414.83	1540.07
415.02	1432.41
415.22	1563.48
415.41	1549.43
415.60	1631.35
415.79	1589.22
415.98	1596.25
416.17	1666.46
416.36	1504.96
416.55	1561.14
416.74	1596.25
416.93	1682.85
417.12	1724.97
417.31	1703.91
417.50	1710.93
417.69	1757.74
417.88	1757.74
418.07	1776.47
418.26	1713.27
418.45	1724.97
418.64	1834.98
418.83	1919.24
419.02	1781.15
419.21	1851.36
419.39	1853.70
419.58	1846.68
419.77	1778.81
419.96	1898.17
420.15	1919.24
420.34	1891.15
420.53	1860.73
420.72	1989.46
420.91	1870.09
421.10	1998.82
421.29	1977.75
421.48	1935.62
421.67	1888.81
421.86	2040.95
422.05	2090.10
422.24	1921.58
422.43	1961.37
422.61	1914.56
422.80	2029.24
422.99	2029.24
423.18	2139.25
423.37	2134.57
423.56	1947.33
423.75	2010.52
423.94	2015.20
424.13	1970.73
424.32	2010.52
424.50	2054.99
424.69	2134.57
424.88	2179.04
425.07	2033.93
425.26	2094.78
425.45	2076.06
425.64	2069.03
425.83	2141.59
426.01	2134.57
426.20	2099.46
426.39	2043.29
426.58	2101.80
426.77	2136.91
426.96	2239.89
427.15	2153.29
427.33	2094.78
427.52	2223.51
427.71	2165.00
427.90	2174.36
428.09	2263.30
428.28	2284.36
428.46	2136.91
428.65	2275.00
428.84	2293.72
429.03	2335.85
429.22	2251.60
429.40	2396.71
429.59	2293.72
429.78	2167.34
429.97	2083.08
430.16	2282.02
430.34	2361.60
430.53	2417.77
430.72	2420.11
430.91	2380.32
431.10	2389.69
431.28	2480.97
431.47	2413.09
431.66	2417.77
431.85	2335.85
432.03	2609.70
432.22	2509.05
432.41	2473.95
432.60	2562.89
432.79	2420.11
432.97	2562.89
433.16	2581.61
433.35	2417.77
433.54	2478.63
433.72	2630.76
433.91	2513.74
434.10	2567.57
434.28	2576.93
434.47	2541.82
434.66	2668.21
434.85	2602.68
435.03	2651.83
435.22	2602.68
435.41	2726.72
435.59	2754.81
435.78	2616.72
435.97	2558.21
436.16	2792.26
436.34	2731.41
436.53	2782.90
436.72	2832.05
436.90	2745.45
437.09	2869.50
437.28	2743.11
437.46	2764.17
437.65	2766.51
437.84	2846.09
438.02	2935.03
438.21	2930.35
438.40	2796.94
438.58	2995.89
438.77	2991.20
438.96	2923.33
439.14	2986.52
439.33	2923.33
439.52	3035.67
439.70	3110.57
439.89	3047.38
440.08	2998.23
440.26	3133.98
440.45	3038.02
440.63	3148.02
440.82	3152.70
441.01	3136.32
441.19	3300.16
441.38	3321.22
441.57	3384.41
441.75	3279.09
441.94	3335.26
442.12	3349.31
442.31	3405.48
442.50	3475.70
442.68	3304.84
442.87	3384.41
443.05	3485.06
443.24	3442.93
443.43	3428.88
443.61	3417.18
443.80	3564.64
443.98	3478.04
444.17	3368.03
444.35	3435.91
444.54	3459.31
444.73	3452.29
444.91	3508.46
445.10	3438.25
445.28	3382.07
445.47	3541.23
445.65	3501.44
445.84	3552.93
446.02	3627.83
446.21	3529.53
446.39	3569.32
446.58	3611.45
446.77	3674.64
446.95	3480.38
447.14	3569.32
447.32	3604.42
447.51	3482.72
447.69	3506.12
447.88	3545.91
448.06	3564.64
448.25	3590.38
448.43	3508.46
448.62	3644.21
448.80	3630.17
448.99	3691.02
449.17	3707.41
449.36	3555.27
449.54	3770.60
449.73	3777.62
449.91	3693.37
450.10	3817.41
450.28	3686.34
450.46	3810.39
450.65	3833.80
450.83	3815.07
451.02	3920.40
451.20	3824.44
451.39	3850.18
451.57	3892.31
451.76	3889.97
451.94	3885.29
452.13	3904.01
452.31	3960.19
452.49	3960.19
452.68	4004.66
452.86	3918.06
453.05	4018.70
453.23	4011.68
453.42	3988.27
453.60	3904.01
453.78	3967.21
453.97	3962.53
454.15	3941.46
454.34	3948.48
454.52	4117.00
454.70	4138.07
454.89	4184.88
455.07	4084.23
455.26	4121.68
455.44	4215.30
455.62	4234.03
455.81	4182.54
455.99	4234.03
456.17	4238.71
456.36	4245.73
456.54	4301.90
456.73	4430.63
456.91	4414.25
457.09	4365.10
457.28	4430.63
457.46	4276.16
457.64	4348.72
457.83	4442.34
458.01	4334.67
458.19	4432.97
458.38	4465.74
458.56	4601.49
458.74	4526.60
458.93	4498.51
459.11	4550.00
459.29	4524.26
459.48	4526.60
459.66	4449.36
459.84	4662.35
460.03	4741.93
460.21	4599.15
460.39	4667.03
460.57	4617.88
460.76	4734.90
460.94	4671.71
461.12	4770.01
461.31	4748.95
461.49	4727.88
461.67	4847.25
461.85	4875.34
462.04	4777.03
462.22	5121.09
462.40	4880.02
462.59	4788.74
462.77	4901.08
462.95	4870.65
463.13	4873.00
463.32	4968.96
463.50	4844.91
463.68	4856.61
463.86	4926.83
464.05	4861.29
464.23	5055.56
464.41	4917.47
464.59	4947.89
464.78	5130.45
464.96	5046.20
465.14	4985.34
465.32	5165.56
465.50	5130.45
465.69	5090.67
465.87	5071.94
466.05	5013.43
466.23	5191.31
466.41	4992.36
466.60	5345.78
466.78	5135.14
466.96	5104.71
467.14	5289.61
467.32	5221.74
467.51	5343.44
467.69	5132.79
467.87	5270.89
468.05	5383.23
468.23	5156.20
468.41	5327.06
468.60	5467.49
468.78	5446.43
468.96	5277.91
469.14	5572.82
469.32	5458.13
469.50	5404.30
469.69	5554.09
469.87	5497.92
470.05	5511.96
470.23	5399.62
470.41	5540.05
470.59	5593.88
470.77	5497.92
470.95	5483.88
471.14	5605.58
471.32	5657.07
471.50	5696.86
471.68	5879.43
471.86	5657.07
472.04	5678.14
472.22	5874.74
472.40	5898.15
472.58	5933.26
472.77	5797.51
472.95	5959.00
473.13	6047.94
473.31	5966.03
473.49	5973.05
473.67	5909.85
473.85	6090.07
474.03	6232.85
474.21	6169.65
474.39	6272.64
474.57	6106.46
474.75	6148.59
474.93	6368.60
475.12	6146.25
475.30	6544.14
475.48	6340.51
475.66	6539.46
475.84	6289.02
476.02	6462.22
476.20	6567.54
476.38	6731.38
476.56	6787.55
476.74	6672.87
476.92	6696.27
477.10	6803.94
477.28	6878.83
477.46	6719.68
477.64	6768.83
477.82	6993.52
478.00	7122.25
478.18	7201.83
478.36	7056.72
478.54	7239.28
478.72	7253.32
478.90	7281.41
479.08	7272.04
479.26	7470.99
479.44	7426.52
479.62	7634.83
479.80	7424.18
479.98	7499.08
480.16	7716.75
480.34	7906.33
480.52	7730.79
480.70	7768.24
480.88	7775.26
481.06	7906.33
481.24	7810.37
481.41	7992.93
481.59	8203.58
481.77	8229.32
481.95	8334.65
482.13	8446.99
482.31	8217.62
482.49	8334.65
482.67	8416.57
482.85	8514.87
483.03	8837.86
483.21	8713.81
483.39	8650.62
483.57	8641.26
483.74	8732.54
483.92	8882.33
484.10	8805.10
484.28	9107.02
484.46	9214.69
484.64	9439.38
484.82	9184.26
485.00	9341.08
485.18	9635.99
485.35	9635.99
485.53	9540.02
485.71	9628.96
485.89	9970.68
486.07	9558.75
486.25	9902.81
486.43	9851.31
486.61	10111.11
486.78	10127.50
486.96	10050.26
487.14	10303.04
487.32	10401.34
487.50	10588.58
487.68	10537.09
487.85	10450.49
488.03	10764.12
488.21	10731.36
488.39	10981.79
488.57	10937.32
488.75	11009.88
488.92	11185.42
489.10	11218.19
489.28	11463.94
489.46	11335.21
489.64	11433.52
489.81	11791.62
489.99	11616.08
490.17	11681.61
490.35	11859.49
490.53	11630.12
490.70	11868.86
490.88	11948.43
491.06	12084.19
491.24	12205.89
491.41	12154.40
491.59	12264.41
491.77	12243.34
491.95	12425.90
492.13	12465.69
492.30	12589.74
492.48	12465.69
492.66	12582.72
492.84	12582.72
493.01	12638.89
493.19	12765.28
493.37	12994.65
493.54	13142.11
493.72	13083.59
493.90	13331.69
494.08	13362.12
494.25	13404.25
494.43	13338.71
494.61	13806.82
494.79	13785.76
494.96	13518.93
495.14	13612.56
495.32	13982.36
495.49	13905.12
495.67	14291.31
495.85	14176.62
496.02	14260.88
496.20	14221.10
496.38	14127.47
496.55	14228.12
496.73	14483.24
496.91	14588.56
497.09	14862.40
497.26	14670.48
497.44	14843.68
497.62	14766.44
497.79	14745.38
497.97	15112.84
498.14	15026.24
498.32	15229.87
498.50	15112.84
498.67	15316.47
498.85	15147.95
499.03	15377.32
499.20	15391.36
499.38	15405.41
499.56	15714.36
499.73	15424.13
499.91	15857.13
500.08	16027.99
500.26	15564.56
500.44	15777.55
500.61	15674.57
500.79	16004.58
500.97	16030.33
501.14	16460.99
501.32	16269.06
501.49	16484.39
501.67	16304.17
501.84	16264.38
502.02	16243.32
502.20	16428.22
502.37	16659.93
502.55	16638.87
502.72	16496.10
502.90	16681.00
503.07	16711.42
503.25	16798.02
503.43	16608.44
503.60	16727.81
503.78	16978.25
503.95	17062.51
504.13	17088.25
504.30	16802.71
504.48	17050.80
504.65	16950.16
504.83	17448.69
505.01	17502.53
505.18	17448.69
505.36	17642.96
505.53	17490.82
505.71	17530.61
505.88	17701.47
506.06	17568.06
506.23	17640.62
506.41	17699.13
506.58	18036.17
506.76	18024.47
506.93	18090.00
507.11	17834.88
507.28	18073.62
507.46	17980.00
507.63	18298.31
507.81	18204.69
507.98	18314.69
508.16	18298.31
508.33	18312.35
508.50	18560.45
508.68	18225.75
508.85	18515.98
509.03	18633.00
509.20	18714.92
509.38	18773.44
509.55	19185.37
509.73	18815.57
509.90	18586.19
510.08	18726.63
510.25	18831.95
510.42	19019.19
510.60	19243.88
510.77	19108.13
510.95	19307.08
511.12	19222.82
511.30	19435.81
511.47	19477.94
511.64	19470.92
511.82	19651.14
511.99	19407.72
512.17	19796.25
512.34	19679.22
512.51	19749.44
512.69	19754.12
512.86	19646.46
513.04	20374.36
513.21	19819.66
513.38	19913.28
513.56	19903.92
513.73	20175.42
513.90	20360.32
514.08	19669.86
514.25	19964.77
514.43	20152.01
514.60	20053.71
514.77	20648.21
514.95	20332.23
515.12	20568.63
515.29	20430.54
515.47	20477.35
515.64	20629.48
515.81	20823.75
515.99	20636.50
516.16	21212.28
516.33	20566.29
516.51	20910.35
516.68	21071.84
516.85	20975.88
517.03	20861.19
517.20	21039.08
517.37	21039.08
517.54	21212.28
517.72	21177.17
517.89	20980.56
518.06	21060.14
518.24	21214.62
518.41	21333.98
518.58	21319.94
518.75	21247.38
518.93	21715.49
519.10	21500.16
519.27	21460.37
519.45	21553.99
519.62	21785.71
519.79	21532.93
519.96	21692.08
520.14	21865.28
520.31	21710.81
520.48	21715.49
520.65	21905.07
520.83	22036.14
521.00	22214.02
521.17	22108.70
521.34	22146.15
521.52	22375.52
521.69	22075.93
521.86	22143.81
522.03	22546.38
522.20	22551.06
522.38	22375.52
522.55	22745.33
522.72	22780.43
522.89	22492.55
523.07	22698.52
523.24	22658.73
523.41	22930.23
523.58	22836.61
523.75	22831.93
523.92	22632.98
524.10	22958.31
524.27	22934.91
524.44	23171.30
524.61	23133.86
524.78	23215.77
524.96	23173.64
525.13	23065.98
525.30	23550.47
525.47	23573.88
525.64	23433.44
525.81	23208.75
525.98	23466.21
526.16	23330.46
526.33	23571.54
526.50	23627.71
526.67	23407.70
526.84	23498.98
527.01	23477.91
527.18	23367.91
527.36	23831.33
527.53	23702.61
527.70	23948.36
527.87	23894.53
528.04	23751.76
528.21	23871.12
528.38	23793.89
528.55	24243.27
528.72	24540.52
528.89	24112.20
529.07	24058.37
529.24	24254.97
529.41	24524.13
529.58	24348.59
529.75	24449.24
529.92	24339.23
530.09	24128.58
530.26	24243.27
530.43	24395.40
530.60	24432.85
530.77	24613.07
530.94	24697.33
531.11	24233.91
531.28	24697.33
531.46	24313.48
531.63	24826.06
531.80	24662.22
531.97	24577.97
532.14	24659.88
532.31	24489.03
532.48	24655.20
532.65	24676.27
532.82	24891.60
532.99	24755.85
533.16	24797.98
533.33	24943.09
533.50	25298.85
533.67	25289.49
533.84	25036.71
534.01	25104.59
534.18	24889.26
534.35	25261.40
534.52	24931.39
534.69	25504.82
534.86	25336.30
535.03	25366.73
535.20	25668.66
535.37	25656.95
535.54	25202.89
535.71	25127.99
535.88	25710.78
536.05	25348.00
536.22	25565.67
536.38	25926.11
536.55	25958.88
536.72	25799.73
536.89	25722.49
537.06	25500.14
537.23	25942.50
537.40	25638.23
537.57	25961.22
537.74	26249.11
537.91	26387.20
538.08	25811.43
538.25	26029.10
538.42	26286.56
538.59	25930.80
538.75	25755.26
538.92	25862.92
539.09	26045.48
539.26	26265.49
539.43	26111.02
539.60	26801.47
539.77	26373.16
539.94	26106.34
540.11	26492.52
540.28	26113.36
540.44	26113.36
540.61	26167.19
540.78	26394.22
540.95	26590.83
541.12	26551.04
541.29	26448.05
541.46	26192.94
541.62	26628.27
541.79	26286.56
541.96	26501.89
542.13	26532.31
542.30	26579.12
542.47	27068.30
542.63	26859.99
542.80	26794.45
542.97	27171.28
543.14	26859.99
543.31	26888.07
543.48	26820.20
543.64	27367.88
543.81	27269.58
543.98	27463.85
544.15	27508.32
544.32	27594.92
544.48	27768.12
544.65	27353.84
544.82	27480.23
544.99	27206.39
545.16	27566.83
545.32	27496.61
545.49	27419.38
545.66	27721.30
545.83	27611.30
546.00	27938.97
546.16	27740.03
546.33	27283.62
546.50	27349.16
546.67	27468.53
546.83	27232.13
547.00	27821.95
547.17	27494.27
547.34	27585.55
547.50	27674.49
547.67	28222.18
547.84	27957.70
548.00	27931.95
548.17	28109.83
548.34	27711.94
548.51	28191.75
548.67	28081.75
548.84	28386.02
549.01	28142.60
549.18	28238.56
549.34	27941.32
549.51	28297.08
549.68	28243.24
549.84	28163.67
550.01	28191.75
550.18	28304.10
550.34	28444.53
550.51	28926.68
550.68	28311.12
550.84	28109.83
551.01	28395.38
551.18	28149.62
551.34	28163.67
551.51	28388.36
551.68	28608.37
551.84	28304.10
552.01	28336.87
552.18	28844.76
552.34	28390.70
552.51	28559.22
552.68	28828.38
552.84	28580.28
553.01	28615.39
553.18	29120.95
553.34	28769.86
553.51	28463.25
553.67	28531.13
553.84	29165.42
554.01	29261.38
554.17	28804.97
554.34	28821.36
554.51	28322.82
554.67	29083.50
554.84	28842.42
555.00	29102.22
555.17	29097.54
555.33	28641.14
555.50	28800.29
555.67	29167.76
555.83	29076.48
556.00	28830.72
556.16	29305.85
556.33	29130.31
556.50	29071.79
556.66	29233.29
556.83	29692.04
556.99	29446.28
557.16	29448.62
557.32	29352.66
557.49	29301.17
557.65	29347.98
557.82	29200.52
557.98	29277.76
558.15	29486.07
558.32	29308.19
558.48	29385.43
558.65	29614.80
558.81	28954.77
558.98	29450.96
559.14	29223.93
559.31	29460.32
559.47	29652.25
559.64	29642.88
559.80	29558.63
559.97	29865.24
560.13	29450.96
560.30	29710.76
560.46	29853.53
560.63	29839.49
560.79	29741.19
560.96	29647.57
561.12	29465.00
561.29	29486.07
561.45	29804.38
561.61	29729.48
561.78	30052.48
561.94	29710.76
562.11	30391.86
562.27	30059.50
562.44	30000.99
562.60	29701.40
562.77	29759.91
562.93	30026.73
563.10	30298.23
563.26	29977.58
563.42	29909.71
563.59	29942.47
563.75	29888.64
563.92	29972.90
564.08	30085.25
564.24	30127.38
564.41	29975.24
564.57	29984.60
564.74	29982.26
564.90	30225.68
565.07	30373.13
565.23	30118.01
565.39	29928.43
565.56	29944.81
565.72	30232.70
565.88	30223.34
566.05	30326.32
566.21	30003.33
566.38	30199.93
566.54	30136.74
566.70	30295.89
566.87	29895.66
567.03	30033.75
567.19	30862.30
567.36	30646.97
567.52	30375.47
567.68	30522.93
567.85	30134.40
568.01	30347.39
568.17	30192.91
568.34	30574.42
568.50	30771.02
568.66	29937.79
568.83	30497.18
568.99	30387.18
569.15	30302.92
569.32	30403.56
569.48	30195.25
569.64	30565.06
569.81	30654.00
569.97	30235.04
570.13	30441.01
570.30	30377.81
570.46	30635.27
570.62	30387.18
570.78	30628.25
570.95	30359.09
571.11	30314.62
571.27	30714.85
571.43	30291.21
571.60	30696.13
571.76	30761.66
571.92	30775.70
572.09	30639.95
572.25	30625.91
572.41	30728.89
572.57	30522.93
572.74	30855.28
572.90	30621.23
573.06	30843.58
573.22	30436.33
573.38	30796.77
573.55	30576.76
573.71	30862.30
573.87	30946.56
574.03	30593.14
574.20	30536.97
574.36	30513.56
574.52	30742.94
574.68	30801.45
574.84	30668.04
575.01	30448.03
575.17	31147.85
575.33	30600.16
575.49	30529.95
575.65	30672.72
575.82	30976.99
575.98	30445.69
576.14	30618.89
576.30	30780.39
576.46	30455.05
576.62	30668.04
576.79	30724.21
576.95	30665.70
577.11	30569.74
577.27	30871.67
577.43	30859.96
577.59	30782.73
577.75	31040.18
577.92	30672.72
578.08	30335.68
578.24	30642.29
578.40	30958.27
578.56	30944.22
578.72	30930.18
578.88	30874.01
579.04	31189.98
579.21	30883.37
579.37	30752.30
579.53	30930.18
579.69	30733.57
579.85	30658.68
580.01	30764.00
580.17	30529.95
580.33	30782.73
580.49	30749.96
580.65	30878.69
580.82	31288.28
580.98	30946.56
581.14	30733.57
581.30	30899.75
581.46	31103.38
581.62	30888.05
581.78	30785.07
581.94	30958.27
582.10	30499.52
582.26	30532.29
582.42	30721.87
582.58	31005.08
582.74	30948.90
582.90	31030.82
583.06	31309.35
583.22	30649.32
583.38	30771.02
583.54	30927.84
583.70	31124.44
583.86	30946.56
584.02	30595.48
584.18	31150.19
584.34	31110.40
584.50	30953.58
584.66	31185.30
584.82	30820.17
584.98	31061.25
585.14	30600.16
585.30	30705.49
585.46	30534.63
585.62	30651.66
585.78	30951.24
585.94	30834.22
586.10	31138.49
586.26	31288.28
586.42	31269.56
586.58	31175.94
586.74	31248.49
586.90	30740.60
587.06	30766.34
587.22	30780.39
587.38	30972.31
587.54	31021.46
587.70	31084.65
587.86	31241.47
588.02	31363.18
588.18	31346.79
588.34	31409.99
588.49	30960.61
588.65	30745.28
588.81	31302.32
588.97	30869.33
589.13	30829.54
589.29	31089.34
589.45	31295.30
589.61	31524.68
589.77	31641.70
589.93	31285.94
590.08	31578.51
590.24	31515.31
590.40	31512.97
590.56	31496.59
590.72	31351.48
590.88	31105.72
591.04	31136.15
591.20	31566.81
591.35	31632.34
591.51	31906.18
591.67	31370.20
591.83	31414.67
