SpectraSuite Data File
++++++++++++++++++++++++++++++++++++
Date: Fri Oct 18 13:58:23 GMT-05:00 2013
User: bianchi
Dark Spectrum Present: No
Reference Spectrum Present: No
Number of Sampled Component Spectra: 1
Spectrometers: USB2+H05261
Integration Time (usec): 50000 (USB2+H05261)
Spectra Averaged: 1 (USB2+H05261)
Boxcar Smoothing: 0 (USB2+H05261)
Correct for Electrical Dark: No (USB2+H05261)
Strobe/Lamp Enabled: No (USB2+H05261)
Correct for Detector Non-linearity: No (USB2+H05261)
Correct for Stray Light: No (USB2+H05261)
Number of Pixels in Processed Spectrum: 2048
>>>>>Begin Processed Spectral Data<<<<<
365.73	0.00
365.92	0.00
366.12	0.00
366.32	0.00
366.52	0.00
366.72	0.00
366.91	0.00
367.11	0.00
367.31	0.00
367.51	0.00
367.70	0.00
367.90	0.00
368.10	0.00
368.30	0.00
368.49	0.00
368.69	0.00
368.89	0.00
369.09	0.00
369.28	0.00
369.48	0.00
369.68	0.00
369.87	0.00
370.07	0.00
370.27	0.00
370.47	0.00
370.66	79.58
370.86	177.88
371.06	58.51
371.25	114.69
371.45	161.50
371.65	205.97
371.84	131.07
372.04	177.88
372.24	156.82
372.44	147.45
372.63	222.35
372.83	215.33
373.03	196.60
373.22	259.80
373.42	142.77
373.62	187.24
373.81	198.95
374.01	220.01
374.21	269.16
374.40	205.97
374.60	194.26
374.79	241.08
374.99	187.24
375.19	203.63
375.38	318.31
375.58	259.80
375.78	299.59
375.97	215.33
376.17	283.20
376.37	283.20
376.56	262.14
376.76	306.61
376.95	229.37
377.15	266.82
377.35	236.39
377.54	266.82
377.74	285.55
377.93	222.35
378.13	227.03
378.33	365.12
378.52	250.44
378.72	290.23
378.91	304.27
379.11	318.31
379.31	313.63
379.50	276.18
379.70	241.08
379.89	297.25
380.09	290.23
380.28	255.12
380.48	313.63
380.68	308.95
380.87	231.71
381.07	308.95
381.26	311.29
381.46	325.33
381.65	334.70
381.85	248.10
382.04	348.74
382.24	346.40
382.43	306.61
382.63	299.59
382.83	285.55
383.02	339.38
383.22	369.80
383.41	332.36
383.61	334.70
383.80	383.85
384.00	383.85
384.19	404.91
384.39	402.57
384.58	430.66
384.78	379.17
384.97	344.06
385.17	395.55
385.36	435.34
385.56	440.02
385.75	395.55
385.95	400.23
386.14	379.17
386.34	341.72
386.53	442.36
386.72	348.74
386.92	395.55
387.11	339.38
387.31	425.98
387.50	468.11
387.70	367.46
387.89	421.30
388.09	414.27
388.28	332.36
388.48	402.57
388.67	475.13
388.86	475.13
389.06	486.83
389.25	458.74
389.45	358.10
389.64	491.51
389.84	500.87
390.03	580.45
390.22	461.09
390.42	472.79
390.61	437.68
390.81	451.72
391.00	498.53
391.19	554.71
391.39	463.43
391.58	592.16
391.78	486.83
391.97	528.96
392.16	503.22
392.36	557.05
392.55	475.13
392.75	465.77
392.94	557.05
393.13	622.58
393.33	540.66
393.52	613.22
393.71	503.22
393.91	475.13
394.10	575.77
394.29	594.50
394.49	557.05
394.68	500.87
394.88	552.37
395.07	503.22
395.26	610.88
395.46	484.49
395.65	655.35
395.84	610.88
396.04	585.13
396.23	683.44
396.42	631.94
396.62	594.50
396.81	706.84
397.00	655.35
397.19	709.18
397.39	671.73
397.58	674.07
397.77	697.48
397.97	720.88
398.16	622.58
398.35	725.57
398.55	720.88
398.74	648.33
398.93	695.14
399.12	681.10
399.32	730.25
399.51	760.67
399.70	704.50
399.90	732.59
400.09	767.70
400.28	702.16
400.47	791.10
400.67	765.36
400.86	830.89
401.05	734.93
401.24	746.63
401.44	765.36
401.63	770.04
401.82	774.72
402.01	763.01
402.21	807.48
402.40	849.61
402.59	891.74
402.78	889.40
402.97	770.04
403.17	917.49
403.36	877.70
403.55	908.13
403.74	931.53
403.93	854.30
404.13	954.94
404.32	884.72
404.51	912.81
404.70	901.11
404.89	926.85
405.09	1004.09
405.28	1055.58
405.47	915.15
405.66	959.62
405.85	973.66
406.05	978.34
406.24	936.21
406.43	992.39
406.62	999.41
406.81	964.30
407.00	1050.90
407.20	1036.86
407.39	1011.11
407.58	929.19
407.77	990.05
407.96	1102.39
408.15	1149.20
408.34	1074.31
408.54	1050.90
408.73	966.64
408.92	1076.65
409.11	1093.03
409.30	1174.95
409.49	1233.46
409.68	1137.50
409.87	1165.59
410.07	1144.52
410.26	1130.48
410.45	1226.44
410.64	1146.86
410.83	1249.85
411.02	1196.01
411.21	1245.16
411.40	1151.54
411.59	1191.33
411.78	1261.55
411.98	1310.70
412.17	1324.74
412.36	1224.10
412.55	1383.26
412.74	1296.66
412.93	1397.30
413.12	1334.11
413.31	1373.89
413.50	1380.92
413.69	1399.64
413.88	1448.79
414.07	1406.66
414.26	1516.67
414.45	1469.86
414.64	1430.07
414.83	1502.62
415.02	1533.05
415.22	1507.30
415.41	1540.07
415.60	1582.20
415.79	1636.03
415.98	1528.37
416.17	1610.29
416.36	1490.92
416.55	1624.33
416.74	1600.93
416.93	1645.40
417.12	1650.08
417.31	1621.99
417.50	1762.42
417.69	1755.40
417.88	1743.70
418.07	1734.34
418.26	1746.04
418.45	1872.43
418.64	1825.62
418.83	1830.30
419.02	1797.53
419.21	1849.02
419.39	1870.09
419.58	1816.26
419.77	1785.83
419.96	1781.15
420.15	1952.01
420.34	1834.98
420.53	1923.92
420.72	1858.39
420.91	1923.92
421.10	1863.07
421.29	1996.48
421.48	1881.79
421.67	2050.31
421.86	1994.14
422.05	2029.24
422.24	2012.86
422.43	1902.86
422.61	1954.35
422.80	2057.33
422.99	1991.80
423.18	2017.54
423.37	1877.11
423.56	2148.61
423.75	2043.29
423.94	1935.62
424.13	1865.41
424.32	1961.37
424.50	2026.90
424.69	2111.16
424.88	2090.10
425.07	1930.94
425.26	1923.92
425.45	1994.14
425.64	2036.27
425.83	1996.48
426.01	2115.84
426.20	2090.10
426.39	2062.01
426.58	2073.71
426.77	2122.87
426.96	2162.66
427.15	2059.67
427.33	2054.99
427.52	2076.06
427.71	2024.56
427.90	2097.12
428.09	2169.68
428.28	2218.83
428.46	2239.89
428.65	2303.09
428.84	2284.36
429.03	2296.07
429.22	2167.34
429.40	2300.75
429.59	2284.36
429.78	2195.42
429.97	2125.21
430.16	2207.13
430.34	2291.38
430.53	2307.77
430.72	2202.44
430.91	2263.30
431.10	2356.92
431.28	2296.07
431.47	2312.45
431.66	2401.39
431.85	2401.39
432.03	2436.50
432.22	2487.99
432.41	2450.54
432.60	2455.22
432.79	2457.56
432.97	2527.78
433.16	2455.22
433.35	2452.88
433.54	2605.02
433.72	2567.57
433.91	2518.42
434.10	2649.49
434.28	2445.86
434.47	2569.91
434.66	2504.37
434.85	2590.97
435.03	2574.59
435.22	2539.48
435.41	2698.64
435.59	2647.15
435.78	2785.24
435.97	2691.62
436.16	2600.34
436.34	2614.38
436.53	2670.55
436.72	2743.11
436.90	2574.59
437.09	2665.87
437.28	2703.32
437.46	2773.53
437.65	2745.45
437.84	2761.83
438.02	2792.26
438.21	2825.03
438.40	2822.69
438.58	2951.42
438.77	2857.79
438.96	2902.26
439.14	2981.84
439.33	2930.35
439.52	3021.63
439.70	2998.23
439.89	2998.23
440.08	3073.12
440.26	3122.27
440.45	3038.02
440.63	3171.43
440.82	3091.85
441.01	3038.02
441.19	3206.53
441.38	3143.34
441.57	3253.34
441.75	3190.15
441.94	3253.34
442.12	3361.01
442.31	3309.52
442.50	3325.90
442.68	3281.43
442.87	3377.39
443.05	3288.45
443.24	3576.34
443.43	3246.32
443.61	3454.63
443.80	3574.00
443.98	3372.71
444.17	3187.81
444.35	3417.18
444.54	3590.38
444.73	3379.73
444.91	3428.88
445.10	3424.20
445.28	3396.12
445.47	3452.29
445.65	3578.68
445.84	3396.12
446.02	3405.48
446.21	3571.66
446.39	3550.59
446.58	3368.03
446.77	3641.87
446.95	3456.97
447.14	3452.29
447.32	3517.83
447.51	3534.21
447.69	3501.44
447.88	3433.57
448.06	3435.91
448.25	3595.06
448.43	3613.79
448.62	3571.66
448.80	3545.91
448.99	3653.58
449.17	3623.15
449.36	3681.66
449.54	3672.30
449.73	3693.37
449.91	3735.50
450.10	3700.39
450.28	3730.81
450.46	3669.96
450.65	3634.85
450.83	3826.78
451.02	3808.05
451.20	3754.22
451.39	3875.93
451.57	3791.67
451.76	3786.99
451.94	3894.65
452.13	3992.95
452.31	3808.05
452.49	3882.95
452.68	3880.61
452.86	3915.72
453.05	3960.19
453.23	4044.45
453.42	3836.14
453.60	3747.20
453.78	3974.23
453.97	3904.01
454.15	3955.51
454.34	3882.95
454.52	4109.98
454.70	3992.95
454.89	4088.92
455.07	4053.81
455.26	3948.48
455.44	4067.85
455.62	4025.72
455.81	4107.64
455.99	4095.94
456.17	4219.99
456.36	4140.41
456.54	4168.49
456.73	4388.50
456.91	4465.74
457.09	4351.06
457.28	4346.37
457.46	4264.46
457.64	4339.35
457.83	4238.71
458.01	4369.78
458.19	4348.72
458.38	4271.48
458.56	4329.99
458.74	4430.63
458.93	4393.19
459.11	4456.38
459.29	4393.19
459.48	4470.42
459.66	4650.64
459.84	4671.71
460.03	4582.77
460.21	4571.07
460.39	4615.54
460.57	4496.17
460.76	4566.39
460.94	4645.96
461.12	4655.33
461.31	4617.88
461.49	4528.94
461.67	4699.80
461.85	4748.95
462.04	4758.31
462.22	4880.02
462.40	4683.41
462.59	4624.90
462.77	4840.23
462.95	4795.76
463.13	4901.08
463.32	4924.49
463.50	4802.78
463.68	4945.55
463.86	4863.63
464.05	4645.96
464.23	4880.02
464.41	5029.81
464.59	4748.95
464.78	5121.09
464.96	4978.32
465.14	4896.40
465.32	4917.47
465.50	5144.50
465.69	4936.19
465.87	4901.08
466.05	5109.39
466.23	5046.20
466.41	5135.14
466.60	5114.07
466.78	5041.51
466.96	4943.21
467.14	5039.17
467.32	5046.20
467.51	5081.30
467.69	5102.37
467.87	4983.00
468.05	5186.63
468.23	5214.71
468.41	5146.84
468.60	5221.74
468.78	5224.08
468.96	5385.57
469.14	5245.14
469.32	5305.99
469.50	5329.40
469.69	5224.08
469.87	5458.13
470.05	5458.13
470.23	5378.55
470.41	5385.57
470.59	5586.86
470.77	5488.56
470.95	5528.35
471.14	5474.51
471.32	5362.17
471.50	5837.30
471.68	5586.86
471.86	5551.75
472.04	5741.33
472.22	5776.44
472.40	5481.53
472.58	5741.33
472.77	5713.25
472.95	5916.87
473.13	6087.73
473.31	5956.66
473.49	5879.43
473.67	5743.67
473.85	5692.18
474.03	6073.69
474.21	6045.60
474.39	6071.35
474.57	6076.03
474.75	6244.55
474.93	6153.27
475.12	6087.73
475.30	6136.88
475.48	6249.23
475.66	6146.25
475.84	6403.71
476.02	6310.08
476.20	6384.98
476.38	6499.67
476.56	6525.41
476.74	6642.44
476.92	6473.92
477.10	6558.18
477.28	6457.54
477.46	6848.41
477.64	6719.68
477.82	6796.92
478.00	6946.71
478.18	6864.79
478.36	7016.93
478.54	7101.19
478.72	7157.36
478.90	7227.57
479.08	7075.44
479.26	7201.83
479.44	7232.26
479.62	7276.73
479.80	7372.69
479.98	7424.18
480.16	7651.21
480.34	7475.67
480.52	7625.47
480.70	7585.68
480.88	7632.49
481.06	7688.66
481.24	7733.13
481.41	7836.11
481.59	7908.67
481.77	8006.97
481.95	8107.62
482.13	8124.00
482.31	8152.09
482.49	8484.44
482.67	8234.00
482.85	8290.18
483.03	8475.08
483.21	8486.78
483.39	8716.16
483.57	8585.08
483.74	8561.68
483.92	8755.94
484.10	8798.07
484.28	9011.06
484.46	9142.13
484.64	9153.84
484.82	9006.38
485.00	9186.60
485.18	9191.28
485.35	9362.14
485.53	9373.85
485.71	9390.23
485.89	9804.50
486.07	9406.61
486.25	9706.20
486.43	9635.99
486.61	9703.86
486.78	9914.51
486.96	10036.22
487.14	9973.02
487.32	10101.75
487.50	10136.86
487.68	10253.89
487.85	10434.11
488.03	10506.66
488.21	10445.81
488.39	10691.57
488.57	10743.06
488.75	10766.46
488.92	10801.57
489.10	11162.01
489.28	10864.77
489.46	11007.54
489.64	11164.36
489.81	11384.37
489.99	11243.93
490.17	11391.39
490.35	11372.66
490.53	11494.37
490.70	11749.49
490.88	11709.70
491.06	11651.19
491.24	11735.45
491.41	12273.77
491.59	12016.31
491.77	11962.48
491.95	12149.72
492.13	12362.71
492.30	12013.97
492.48	12304.20
492.66	12486.76
492.84	12245.68
493.01	12379.09
493.19	12683.36
493.37	12954.87
493.54	12793.37
493.72	12601.44
493.90	12812.09
494.08	12982.95
494.25	13284.88
494.43	13135.09
494.61	13420.63
494.79	13336.37
494.96	13525.96
495.14	13238.07
495.32	13425.31
495.49	13673.41
495.67	13661.71
495.85	13958.96
496.02	13895.76
496.20	13881.72
496.38	13855.97
496.55	14001.08
496.73	14195.35
496.91	14260.88
497.09	14298.33
497.26	14267.91
497.44	14324.08
497.62	14424.72
497.79	14656.43
497.97	14728.99
498.14	14824.95
498.32	14843.68
498.50	14888.15
498.67	14836.66
498.85	15066.03
499.03	15082.41
499.20	14923.26
499.38	15007.52
499.56	15391.36
499.73	15147.95
499.91	15365.62
500.08	15599.67
500.26	15173.69
500.44	15433.49
500.61	15515.41
500.79	15466.26
500.97	15775.21
501.14	15864.15
501.32	15838.41
501.49	15868.83
501.67	15822.02
501.84	15978.84
502.02	16011.60
502.20	15880.53
502.37	16203.53
502.55	16217.57
502.72	16276.09
502.90	16243.32
503.07	16322.90
503.25	16233.96
503.43	16257.36
503.60	16416.52
503.78	16554.61
503.95	16634.19
504.13	16690.36
504.30	16893.99
504.48	16751.21
504.65	16760.58
504.83	17043.78
505.01	17001.65
505.18	17048.46
505.36	17228.68
505.53	17256.77
505.71	17245.07
505.88	17097.61
506.06	17212.30
506.23	17406.56
506.41	17371.46
506.58	17488.48
506.76	17565.72
506.93	17268.47
507.11	17334.01
507.28	17621.89
507.46	17539.97
507.63	18031.49
507.81	18026.81
507.98	17598.49
508.16	17921.48
508.33	17809.14
508.50	17914.46
508.68	18118.09
508.85	18258.52
509.03	18485.55
509.20	18501.93
509.38	18197.67
509.55	18295.97
509.73	18263.20
509.90	18312.35
510.08	18427.04
510.25	18340.44
510.42	18738.33
510.60	18714.92
510.77	18822.59
510.95	19101.11
511.12	18520.66
511.30	18764.07
511.47	18946.64
511.64	18906.85
511.82	19138.56
511.99	18948.98
512.17	19227.50
512.34	19063.66
512.51	19264.95
512.69	19346.87
512.86	19431.13
513.04	19257.93
513.21	19220.48
513.38	19730.72
513.56	19297.72
513.73	19569.22
513.90	19742.42
514.08	19470.92
514.25	19711.99
514.43	20156.69
514.60	19967.11
514.77	19688.59
514.95	19655.82
515.12	20112.22
515.29	19761.14
515.47	20039.67
515.64	20056.05
515.81	20027.96
515.99	20070.09
516.16	20437.56
516.33	20119.24
516.51	20407.13
516.68	20229.25
516.85	20196.48
517.03	20400.11
517.20	20528.84
517.37	20428.20
517.54	20531.18
517.72	20547.56
517.89	20451.60
518.06	20882.26
518.24	20416.49
518.41	20599.05
518.58	20798.00
518.75	21099.93
518.93	21048.44
519.10	20915.03
519.27	20638.84
519.45	20748.85
519.62	21069.50
519.79	21263.77
519.96	21413.56
520.14	21226.32
520.31	21371.43
520.48	21664.00
520.65	21120.99
520.83	21788.05
521.00	21462.71
521.17	21392.50
521.34	21523.57
521.52	21664.00
521.69	21898.05
521.86	21867.63
522.03	22202.32
522.20	21685.06
522.38	21717.83
522.55	21818.47
522.72	21937.84
522.89	22171.89
523.07	22412.97
523.24	21900.39
523.41	22352.12
523.58	21970.61
523.75	22279.56
523.92	22209.34
524.10	22209.34
524.27	22295.94
524.44	22501.91
524.61	22569.79
524.78	22373.18
524.96	22059.55
525.13	22307.65
525.30	22459.78
525.47	22380.20
525.64	22843.63
525.81	22803.84
525.98	22799.16
526.16	22522.98
526.33	22911.50
526.50	23040.23
526.67	23033.21
526.84	22885.76
527.01	22642.34
527.18	23061.30
527.36	23255.56
527.53	23307.05
527.70	23484.94
527.87	23508.34
528.04	23126.83
528.21	22998.10
528.38	23117.47
528.55	23606.64
528.72	23597.28
528.89	23351.52
529.07	23419.40
529.24	23571.54
529.41	23374.93
529.58	23690.90
529.75	23667.50
529.92	23435.78
530.09	23662.82
530.26	23756.44
530.43	23728.35
530.60	23695.58
530.77	23704.95
530.94	24112.20
531.11	23803.25
531.28	23587.92
531.46	23871.12
531.63	24170.71
531.80	24091.13
531.97	24095.82
532.14	23754.10
532.31	24542.86
532.48	24437.53
532.65	24269.01
532.82	24168.37
532.99	24435.19
533.16	24173.05
533.33	24098.16
533.50	24542.86
533.67	24208.16
533.84	24182.42
534.01	24372.00
534.18	24151.99
534.35	24505.41
534.52	24362.64
534.69	24872.87
534.86	24507.75
535.03	24484.34
535.20	24608.39
535.37	24999.26
535.54	25043.73
535.71	24535.84
535.88	24697.33
536.05	25034.37
536.22	24680.95
536.38	25364.39
536.55	24673.93
536.72	24947.77
536.89	24840.11
537.06	24748.82
537.23	24982.88
537.40	24954.79
537.57	25249.70
537.74	24929.05
537.91	25420.56
538.08	25392.47
538.25	25542.27
538.42	25366.73
538.59	25619.50
538.75	25364.39
538.92	25706.10
539.09	25411.20
539.26	25310.55
539.43	25458.01
539.60	25666.31
539.77	25362.04
539.94	25858.24
540.11	25914.41
540.28	25881.64
540.44	25958.88
540.61	25788.02
540.78	25715.47
540.95	25752.91
541.12	25694.40
541.29	25855.90
541.46	25570.35
541.62	25418.22
541.79	25666.31
541.96	25888.67
542.13	26015.05
542.30	25830.15
542.47	26192.94
542.63	26567.42
542.80	26326.35
542.97	26408.26
543.14	26834.24
543.31	26249.11
543.48	26338.05
543.64	26544.02
543.81	26361.45
543.98	26525.29
544.15	26728.92
544.32	26696.15
544.48	26768.71
544.65	26918.50
544.82	26607.21
544.99	26316.98
545.16	26609.55
545.32	26747.64
545.49	26785.09
545.66	27225.11
545.83	27056.59
546.00	27253.20
546.16	26909.14
546.33	26693.81
546.50	26724.24
546.67	26597.85
546.83	26693.81
547.00	26754.66
547.17	26967.65
547.34	27241.50
547.50	26911.48
547.67	27131.49
547.84	27236.81
548.00	27026.17
548.17	27243.84
548.34	27101.06
548.51	27503.64
548.67	27597.26
548.84	27384.27
549.01	27323.41
549.18	27367.88
549.34	27215.75
549.51	27297.67
549.68	27524.70
549.84	27278.94
550.01	27683.86
550.18	27058.93
550.34	27707.26
550.51	27449.80
550.68	27665.13
550.84	27641.73
551.01	27555.13
551.18	27281.28
551.34	27363.20
551.51	27569.17
551.68	27723.65
551.84	27463.85
552.01	27564.49
552.18	28091.11
552.34	27693.22
552.51	28210.48
552.68	28025.57
552.84	27756.41
553.01	28004.51
553.18	27538.74
553.34	27917.91
553.51	28147.28
553.67	27922.59
553.84	28596.67
554.01	27810.25
554.17	28112.17
554.34	28039.62
554.51	28210.48
554.67	28226.86
554.84	28180.05
555.00	27843.01
555.17	28472.62
555.33	28400.06
555.50	28013.87
555.67	28369.63
555.83	28191.75
556.00	27997.49
556.16	28620.07
556.33	27981.10
556.50	28313.46
556.66	28704.33
556.83	28409.42
556.99	28126.22
557.16	28517.09
557.32	28512.41
557.49	28407.08
557.65	28151.96
557.82	28697.31
557.98	28261.97
558.15	28716.03
558.32	28704.33
558.48	28496.02
558.65	28631.77
558.81	28730.08
558.98	28802.63
559.14	28989.88
559.31	28903.28
559.47	28781.57
559.64	28697.31
559.80	28692.63
559.97	28872.85
560.13	28552.20
560.30	28669.22
560.46	28591.98
560.63	28872.85
560.79	29165.42
560.96	29057.75
561.12	28542.83
561.29	28821.36
561.45	29287.12
561.61	28978.17
561.78	29095.20
561.94	28734.76
562.11	28978.17
562.27	29322.23
562.44	29383.09
562.60	29055.41
562.77	28758.16
562.93	28959.45
563.10	29308.19
563.26	28893.91
563.42	29249.67
563.59	29174.78
563.75	29235.63
563.92	29039.03
564.08	29090.52
564.24	28931.36
564.41	29139.67
564.57	29022.64
564.74	29111.58
564.90	29252.02
565.07	29551.60
565.23	29376.06
565.39	29212.23
565.56	29593.73
565.72	29156.05
565.88	29401.81
566.05	29212.23
566.21	28875.19
566.38	29071.79
566.54	29411.17
566.70	29701.40
566.87	29542.24
567.03	29345.64
567.19	29586.71
567.36	29532.88
567.52	29317.55
567.68	29881.62
567.85	29387.77
568.01	29731.83
568.17	29324.57
568.34	29795.02
568.50	29378.40
568.66	29488.41
568.83	29692.04
568.99	29570.33
569.15	29483.73
569.32	29565.65
569.48	29284.78
569.64	29806.72
569.81	29535.22
569.97	29722.46
570.13	29493.09
570.30	29373.72
570.46	29631.18
570.62	29563.31
570.78	29575.01
570.95	29366.70
571.11	29411.17
571.27	29418.19
571.43	29406.49
571.60	29905.02
571.76	29717.78
571.92	29809.06
572.09	29713.10
572.25	29937.79
572.41	30089.93
572.57	29921.41
572.74	29757.57
572.90	29890.98
573.06	29621.82
573.22	29905.02
573.38	29701.40
573.55	29308.19
573.71	29846.51
573.87	30036.09
574.03	29867.58
574.20	29762.25
574.36	29699.06
574.52	29783.32
574.68	29626.50
574.84	29682.67
575.01	29722.46
575.17	29539.90
575.33	29682.67
575.49	29813.74
575.65	30143.76
575.82	29834.81
575.98	29837.15
576.14	30136.74
576.30	29895.66
576.46	29654.59
576.62	29675.65
576.79	29816.08
576.95	29898.00
577.11	29692.04
577.27	30071.20
577.43	29916.73
577.59	29830.13
577.75	29738.85
577.92	29390.11
578.08	29752.89
578.24	29806.72
578.40	29958.86
578.56	29827.79
578.72	29860.55
578.88	29902.68
579.04	29951.84
579.21	29846.51
579.37	29619.48
579.53	29926.09
579.69	29366.70
579.85	29715.44
580.01	29902.68
580.17	29355.00
580.33	29713.10
580.49	30026.73
580.65	30122.69
580.82	30157.80
580.98	29979.92
581.14	30239.72
581.30	29982.26
581.46	30171.85
581.62	29909.71
581.78	29640.54
581.94	29827.79
582.10	30045.46
582.26	30043.12
582.42	30075.88
582.58	30230.36
582.74	30019.71
582.90	29778.64
583.06	30008.01
583.22	29928.43
583.38	30026.73
583.54	30132.06
583.70	29809.06
583.86	29895.66
584.02	29668.63
584.18	30253.76
584.34	30436.33
584.50	30258.45
584.66	30099.29
584.82	30096.95
584.98	30307.60
585.14	30342.70
585.30	30068.86
585.46	29874.60
585.62	29708.42
585.78	29670.97
585.94	29825.45
586.10	30363.77
586.26	30029.07
586.42	30518.25
586.58	30295.89
586.74	30005.67
586.90	30244.40
587.06	29853.53
587.22	30087.59
587.38	30157.80
587.54	30295.89
587.70	30522.93
587.86	30218.66
588.02	30410.58
588.18	30302.92
588.34	30270.15
588.49	30260.79
588.65	30136.74
588.81	30064.18
588.97	30033.75
589.13	30171.85
589.29	30010.35
589.45	30424.62
589.61	30508.88
589.77	30307.60
589.93	30525.27
590.08	30431.65
590.24	30232.70
590.40	30274.83
590.56	30373.13
590.72	30281.85
590.88	30029.07
591.04	30384.83
591.20	30548.67
591.35	30539.31
591.51	30876.35
591.67	30689.10
591.83	30558.03
591.99	30532.29
