SpectraSuite Data File
++++++++++++++++++++++++++++++++++++
Date: Fri Oct 18 13:58:17 GMT-05:00 2013
User: bianchi
Dark Spectrum Present: No
Reference Spectrum Present: No
Number of Sampled Component Spectra: 1
Spectrometers: USB2+H05261
Integration Time (usec): 50000 (USB2+H05261)
Spectra Averaged: 1 (USB2+H05261)
Boxcar Smoothing: 0 (USB2+H05261)
Correct for Electrical Dark: No (USB2+H05261)
Strobe/Lamp Enabled: No (USB2+H05261)
Correct for Detector Non-linearity: No (USB2+H05261)
Correct for Stray Light: No (USB2+H05261)
Number of Pixels in Processed Spectrum: 2048
>>>>>Begin Processed Spectral Data<<<<<
365.73	0.00
365.92	0.00
366.12	0.00
366.32	0.00
366.52	0.00
366.72	0.00
366.91	0.00
367.11	0.00
367.31	0.00
367.51	0.00
367.70	0.00
367.90	0.00
368.10	0.00
368.30	0.00
368.49	0.00
368.69	0.00
368.89	0.00
369.09	0.00
369.28	0.00
369.48	0.00
369.68	0.00
369.87	0.00
370.07	0.00
370.27	0.00
370.47	0.00
370.66	25.75
370.86	131.07
371.06	156.82
371.25	98.30
371.45	84.26
371.65	102.98
371.84	117.03
372.04	156.82
372.24	154.48
372.44	145.11
372.63	152.13
372.83	166.18
373.03	159.16
373.22	131.07
373.42	189.58
373.62	220.01
373.81	126.39
374.01	217.67
374.21	180.22
374.40	222.35
374.60	222.35
374.79	264.48
374.99	217.67
375.19	205.97
375.38	201.29
375.58	252.78
375.78	269.16
375.97	308.95
376.17	287.89
376.37	224.69
376.56	189.58
376.76	287.89
376.95	313.63
377.15	245.76
377.35	271.50
377.54	238.73
377.74	322.99
377.93	318.31
378.13	234.05
378.33	339.38
378.52	339.38
378.72	269.16
378.91	292.57
379.11	334.70
379.31	322.99
379.50	341.72
379.70	306.61
379.89	308.95
380.09	337.04
380.28	308.95
380.48	259.80
380.68	306.61
380.87	236.39
381.07	344.06
381.26	320.65
381.46	266.82
381.65	404.91
381.85	285.55
382.04	325.33
382.24	278.52
382.43	334.70
382.63	276.18
382.83	355.76
383.02	266.82
383.22	393.21
383.41	287.89
383.61	308.95
383.80	367.46
384.00	367.46
384.19	320.65
384.39	315.97
384.58	411.93
384.78	337.04
384.97	372.15
385.17	428.32
385.36	400.23
385.56	367.46
385.75	348.74
385.95	402.57
386.14	482.15
386.34	308.95
386.53	355.76
386.72	393.21
386.92	435.34
387.11	416.62
387.31	456.40
387.50	447.04
387.70	440.02
387.89	383.85
388.09	435.34
388.28	365.12
388.48	475.13
388.67	416.62
388.86	507.90
389.06	374.49
389.25	491.51
389.45	409.59
389.64	528.96
389.84	514.92
390.03	447.04
390.22	463.43
390.42	482.15
390.61	496.19
390.81	486.83
391.00	454.06
391.19	454.06
391.39	554.71
391.58	444.70
391.78	477.47
391.97	475.13
392.16	538.32
392.36	526.62
392.55	650.67
392.75	463.43
392.94	575.77
393.13	475.13
393.33	573.43
393.52	578.11
393.71	573.43
393.91	545.34
394.10	531.30
394.29	547.69
394.49	507.90
394.68	554.71
394.88	596.84
395.07	702.16
395.26	594.50
395.46	514.92
395.65	631.94
395.84	601.52
396.04	681.10
396.23	578.11
396.42	664.71
396.62	650.67
396.81	711.52
397.00	601.52
397.19	667.05
397.39	678.76
397.58	702.16
397.77	706.84
397.97	627.26
398.16	660.03
398.35	634.29
398.55	709.18
398.74	744.29
398.93	723.23
399.12	671.73
399.32	702.16
399.51	732.59
399.70	807.48
399.90	716.20
400.09	760.67
400.28	706.84
400.47	727.91
400.67	725.57
400.86	917.49
401.05	653.01
401.24	741.95
401.44	809.83
401.63	791.10
401.82	711.52
402.01	814.51
402.21	763.01
402.40	880.04
402.59	849.61
402.78	877.70
402.97	880.04
403.17	840.25
403.36	877.70
403.55	851.96
403.74	837.91
403.93	835.57
404.13	912.81
404.32	894.08
404.51	917.49
404.70	994.73
404.89	877.70
405.09	992.39
405.28	971.32
405.47	983.02
405.66	992.39
405.85	908.13
406.05	1015.79
406.24	964.30
406.43	973.66
406.62	919.83
406.81	1062.60
407.00	1006.43
407.20	961.96
407.39	1041.54
407.58	1029.84
407.77	999.41
407.96	1048.56
408.15	1048.56
408.34	1064.94
408.54	1125.80
408.73	1074.31
408.92	1184.31
409.11	1132.82
409.30	1069.62
409.49	1151.54
409.68	1062.60
409.87	1177.29
410.07	1128.14
410.26	1100.05
410.45	1177.29
410.64	1193.67
410.83	1128.14
411.02	1144.52
411.21	1228.78
411.40	1174.95
411.59	1205.38
411.78	1308.36
411.98	1184.31
412.17	1263.89
412.36	1313.04
412.55	1348.15
412.74	1376.24
412.93	1301.34
413.12	1247.51
413.31	1526.03
413.50	1352.83
413.69	1355.17
413.88	1411.34
414.07	1467.52
414.26	1427.73
414.45	1481.56
414.64	1547.09
414.83	1577.52
415.02	1397.30
415.22	1549.43
415.41	1551.78
415.60	1586.88
415.79	1561.14
415.98	1586.88
416.17	1554.12
416.36	1521.35
416.55	1607.95
416.74	1673.48
416.93	1558.80
417.12	1607.95
417.31	1603.27
417.50	1661.78
417.69	1785.83
417.88	1682.85
418.07	1720.29
418.26	1764.76
418.45	1729.66
418.64	1746.04
418.83	1771.79
419.02	1783.49
419.21	1858.39
419.39	1682.85
419.58	1739.02
419.77	1804.55
419.96	1846.68
420.15	1799.87
420.34	1825.62
420.53	1874.77
420.72	1980.09
420.91	1888.81
421.10	1858.39
421.29	2087.76
421.48	1851.36
421.67	1933.28
421.86	1907.54
422.05	1863.07
422.24	2026.90
422.43	1874.77
422.61	1825.62
422.80	2001.16
422.99	1933.28
423.18	2045.63
423.37	1980.09
423.56	2001.16
423.75	1975.41
423.94	1919.24
424.13	1851.36
424.32	1870.09
424.50	1975.41
424.69	2064.35
424.88	2069.03
425.07	1989.46
425.26	2026.90
425.45	2003.50
425.64	1949.67
425.83	1998.82
426.01	2010.52
426.20	1921.58
426.39	2040.95
426.58	2031.58
426.77	2097.12
426.96	2073.71
427.15	2094.78
427.33	2029.24
427.52	2076.06
427.71	2169.68
427.90	2181.38
428.09	2174.36
428.28	2188.40
428.46	2155.63
428.65	2204.78
428.84	2260.96
429.03	2312.45
429.22	2012.86
429.40	2303.09
429.59	2197.76
429.78	2097.12
429.97	2160.31
430.16	2118.18
430.34	2279.68
430.53	2438.84
430.72	2331.17
430.91	2193.08
431.10	2356.92
431.28	2373.30
431.47	2312.45
431.66	2392.03
431.85	2370.96
432.03	2471.61
432.22	2480.97
432.41	2438.84
432.60	2455.22
432.79	2403.73
432.97	2509.05
433.16	2513.74
433.35	2368.62
433.54	2441.18
433.72	2548.84
433.91	2464.58
434.10	2527.78
434.28	2513.74
434.47	2562.89
434.66	2602.68
434.85	2586.29
435.03	2612.04
435.22	2621.40
435.41	2670.55
435.59	2546.50
435.78	2703.32
435.97	2572.25
436.16	2656.51
436.34	2637.78
436.53	2684.59
436.72	2775.88
436.90	2595.65
437.09	2670.55
437.28	2628.42
437.46	2614.38
437.65	2731.41
437.84	2836.73
438.02	2729.06
438.21	2888.22
438.40	2644.81
438.58	2874.18
438.77	2906.95
438.96	2691.62
439.14	2878.86
439.33	2853.11
439.52	3056.74
439.70	3023.97
439.89	2986.52
440.08	2883.54
440.26	3038.02
440.45	3131.64
440.63	3145.68
440.82	3173.77
441.01	3178.45
441.19	3101.21
441.38	3166.74
441.57	3068.44
441.75	3096.53
441.94	3370.37
442.12	3274.41
442.31	3372.71
442.50	3262.71
442.68	3323.56
442.87	3222.92
443.05	3339.94
443.24	3412.50
443.43	3368.03
443.61	3361.01
443.80	3557.61
443.98	3428.88
444.17	3141.00
444.35	3417.18
444.54	3396.12
444.73	3353.99
444.91	3314.20
445.10	3396.12
445.28	3426.54
445.47	3431.23
445.65	3356.33
445.84	3417.18
446.02	3468.67
446.21	3435.91
446.39	3405.48
446.58	3513.14
446.77	3562.30
446.95	3454.63
447.14	3456.97
447.32	3393.78
447.51	3492.08
447.69	3454.63
447.88	3515.48
448.06	3475.70
448.25	3325.90
448.43	3583.36
448.62	3515.48
448.80	3447.61
448.99	3576.34
449.17	3487.40
449.36	3494.42
449.54	3651.24
449.73	3742.52
449.91	3658.26
450.10	3672.30
450.28	3742.52
450.46	3770.60
450.65	3698.05
450.83	3714.43
451.02	3693.37
451.20	3925.08
451.39	3686.34
451.57	3686.34
451.76	3733.15
451.94	3698.05
452.13	3822.09
452.31	3770.60
452.49	3761.24
452.68	3901.67
452.86	3777.62
453.05	3918.06
453.23	3906.35
453.42	3779.97
453.60	3822.09
453.78	3850.18
453.97	3866.56
454.15	3948.48
454.34	3810.39
454.52	3913.38
454.70	4070.19
454.89	3939.12
455.07	4007.00
455.26	3992.95
455.44	4119.34
455.62	4070.19
455.81	4128.70
455.99	4023.38
456.17	4156.79
456.36	4231.69
456.54	4128.70
456.73	4170.83
456.91	4395.53
457.09	4304.25
457.28	4369.78
457.46	4217.65
457.64	4360.42
457.83	4276.16
458.01	4224.67
458.19	4224.67
458.38	4219.99
458.56	4407.23
458.74	4341.69
458.93	4421.27
459.11	4304.25
459.29	4430.63
459.48	4395.53
459.66	4428.29
459.84	4381.48
460.03	4610.86
460.21	4660.01
460.39	4498.51
460.57	4414.25
460.76	4559.36
460.94	4690.43
461.12	4568.73
461.31	4503.19
461.49	4617.88
461.67	4594.47
461.85	4755.97
462.04	4657.67
462.22	4877.68
462.40	4734.90
462.59	4634.26
462.77	4723.20
462.95	4788.74
463.13	4863.63
463.32	4711.50
463.50	4683.41
463.68	4905.76
463.86	4730.22
464.05	4854.27
464.23	4746.61
464.41	4880.02
464.59	4931.51
464.78	5062.58
464.96	4964.28
465.14	4880.02
465.32	4877.68
465.50	5071.94
465.69	4915.12
465.87	4975.98
466.05	5057.90
466.23	4898.74
466.41	5034.49
466.60	5231.10
466.78	4985.34
466.96	5053.22
467.14	4910.44
467.32	4929.17
467.51	5226.42
467.69	5177.26
467.87	5170.24
468.05	5149.18
468.23	5121.09
468.41	5109.39
468.60	5083.64
468.78	5296.63
468.96	5270.89
469.14	5132.79
469.32	5376.21
469.50	5085.98
469.69	5205.35
469.87	5448.77
470.05	5305.99
470.23	5303.65
470.41	5483.88
470.59	5565.79
470.77	5535.37
470.95	5416.00
471.14	5516.64
471.32	5439.40
471.50	5607.92
471.68	5493.24
471.86	5533.03
472.04	5575.16
472.22	5736.65
472.40	5650.05
472.58	5703.89
472.77	5701.54
472.95	5823.25
473.13	5956.66
473.31	5753.04
473.49	5746.02
473.67	5860.70
473.85	5781.12
474.03	5802.19
474.21	5991.77
474.39	6169.65
474.57	5987.09
474.75	6083.05
474.93	6179.01
475.12	6218.80
475.30	6071.35
475.48	6139.23
475.66	6333.49
475.84	6251.57
476.02	6171.99
476.20	6438.81
476.38	6345.19
476.56	6485.62
476.74	6539.46
476.92	6539.46
477.10	6284.34
477.28	6682.23
477.46	6616.69
477.64	6647.12
477.82	6825.00
478.00	6794.58
478.18	6953.73
478.36	7087.14
478.54	7119.91
478.72	6981.82
478.90	7005.22
479.08	7208.85
479.26	7363.33
479.44	7187.79
479.62	7433.54
479.80	7281.41
479.98	7454.61
480.16	7431.20
480.34	7517.80
480.52	7721.43
480.70	7396.09
480.88	7681.64
481.06	7566.95
481.24	7798.66
481.41	8011.65
481.59	7978.89
481.77	7971.86
481.95	7948.46
482.13	8074.85
482.31	8058.46
482.49	8145.06
482.67	8369.76
482.85	8271.45
483.03	8547.64
483.21	8599.13
483.39	8468.06
483.57	8418.91
483.74	8514.87
483.92	8793.39
484.10	8510.19
484.28	8727.86
484.46	8908.08
484.64	9217.03
484.82	8961.91
485.00	8908.08
485.18	9085.96
485.35	9423.00
485.53	9249.80
485.71	9334.06
485.89	9797.48
486.07	9460.45
486.25	9771.74
486.43	9603.22
486.61	9713.22
486.78	9820.89
486.96	10111.11
487.14	10108.77
487.32	9966.00
487.50	10097.07
487.68	10298.36
487.85	10272.61
488.03	10455.17
488.21	10684.55
488.39	10551.14
488.57	10635.39
488.75	10698.59
488.92	10853.06
489.10	10836.68
489.28	10939.66
489.46	10972.43
489.64	11112.86
489.81	11197.12
489.99	11197.12
490.17	11201.80
490.35	11358.62
490.53	11555.22
490.70	11477.99
490.88	11543.52
491.06	11445.22
491.24	11782.26
491.41	11698.00
491.59	12077.16
491.77	11822.05
491.95	12208.23
492.13	12011.63
492.30	12304.20
492.48	12304.20
492.66	12109.93
492.84	12149.72
493.01	12444.63
493.19	12411.86
493.37	12725.49
493.54	12713.79
493.72	12725.49
493.90	12634.21
494.08	13226.37
494.25	12971.25
494.43	12901.03
494.61	13399.57
494.79	13406.59
494.96	13298.92
495.14	13177.22
495.32	13628.94
495.49	13305.95
495.67	13760.01
495.85	13530.64
496.02	13898.10
496.20	13853.63
496.38	13778.73
496.55	13706.18
496.73	14113.43
496.91	14031.51
497.09	14281.95
497.26	14445.79
497.44	14331.10
497.62	14188.33
497.79	14546.43
497.97	14469.19
498.14	14576.86
498.32	14993.47
498.50	14871.76
498.67	15016.88
498.85	15037.94
499.03	15037.94
499.20	15089.43
499.38	15166.67
499.56	15002.83
499.73	15384.34
499.91	15279.02
500.08	15484.98
500.26	15302.42
500.44	15503.71
500.61	15510.73
500.79	15550.52
500.97	15571.58
501.14	15920.32
501.32	15798.62
501.49	15906.28
501.67	15793.94
501.84	15714.36
502.02	15899.26
502.20	15871.17
502.37	16130.97
502.55	15983.52
502.72	16299.49
502.90	16091.18
503.07	16079.48
503.25	16313.53
503.43	16191.83
503.60	16561.63
503.78	16556.95
503.95	16482.05
504.13	16648.23
504.30	16643.55
504.48	16517.16
504.65	16697.38
504.83	16664.61
505.01	16938.46
505.18	17348.05
505.36	17226.34
505.53	16924.41
505.71	16994.63
505.88	17270.81
506.06	16938.46
506.23	17282.52
506.41	17078.89
506.58	17603.17
506.76	17261.45
506.93	17530.61
507.11	17390.18
507.28	17493.16
507.46	17797.43
507.63	17816.16
507.81	17717.86
507.98	17848.93
508.16	17837.22
508.33	17816.16
508.50	17769.35
508.68	17600.83
508.85	18052.55
509.03	18050.21
509.20	18239.79
509.38	18143.83
509.55	18291.29
509.73	18125.11
509.90	18010.42
510.08	18366.18
510.25	18214.05
510.42	18649.39
510.60	18668.11
510.77	18752.37
510.95	18572.15
511.12	18733.65
511.30	18618.96
511.47	18974.72
511.64	18920.89
511.82	18850.67
511.99	18841.31
512.17	18977.06
512.34	19075.37
512.51	19066.00
512.69	19318.78
512.86	19197.07
513.04	19136.22
513.21	19337.51
513.38	19325.80
513.56	19421.77
513.73	19346.87
513.90	19447.51
514.08	19454.53
514.25	19660.50
514.43	19669.86
514.60	19836.04
514.77	19653.48
514.95	20168.40
515.12	19854.76
515.29	19737.74
515.47	19789.23
515.64	20226.91
515.81	20006.90
515.99	19985.83
516.16	20299.47
516.33	20549.90
516.51	20425.86
516.68	20276.06
516.85	20177.76
517.03	20421.17
517.20	20467.98
517.37	20383.73
517.54	20697.36
517.72	20617.78
517.89	20779.28
518.06	20407.13
518.24	20624.80
518.41	20629.48
518.58	20599.05
518.75	20856.51
518.93	21120.99
519.10	20891.62
519.27	21069.50
519.45	20842.47
519.62	20870.56
519.79	20870.56
519.96	20905.66
520.14	21455.69
520.31	21202.91
520.48	21202.91
520.65	21404.20
520.83	21160.78
521.00	21233.34
521.17	21128.02
521.34	21453.35
521.52	21642.93
521.69	21418.24
521.86	21687.40
522.03	21769.32
522.20	21731.87
522.38	21909.75
522.55	21448.67
522.72	21727.19
522.89	22143.81
523.07	22567.45
523.24	22153.17
523.41	22092.32
523.58	21724.85
523.75	22242.11
523.92	21994.01
524.10	22115.72
524.27	21876.99
524.44	22249.13
524.61	22541.70
524.78	22506.59
524.96	22508.93
525.13	22480.85
525.30	22412.97
525.47	22419.99
525.64	22377.86
525.81	22829.59
525.98	22771.07
526.16	22567.45
526.33	22459.78
526.50	22733.62
526.67	22527.66
526.84	22778.09
527.01	22553.40
527.18	22773.41
527.36	22909.16
527.53	23075.34
527.70	23115.13
527.87	22841.29
528.04	23133.86
528.21	23438.12
528.38	23372.59
528.55	23143.22
528.72	23190.03
528.89	23330.46
529.07	23243.86
529.24	23379.61
529.41	23580.90
529.58	23623.03
529.75	23414.72
529.92	23634.73
530.09	23573.88
530.26	23927.30
530.43	23833.68
530.60	23559.83
530.77	23461.53
530.94	24123.90
531.11	23630.05
531.28	23541.11
531.46	24018.58
531.63	23866.44
531.80	23878.15
531.97	23922.62
532.14	23960.06
532.31	23768.14
532.48	24156.67
532.65	23960.06
532.82	24049.00
532.99	24168.37
533.16	24065.39
533.33	24280.72
533.50	24634.14
533.67	24472.64
533.84	24070.07
534.01	24512.43
534.18	23948.36
534.35	24472.64
534.52	24362.64
534.69	24334.55
534.86	25085.86
535.03	24367.32
535.20	24467.96
535.37	24379.02
535.54	24418.81
535.71	24432.85
535.88	24772.23
536.05	24589.67
536.22	24994.58
536.38	24933.73
536.55	24940.75
536.72	25064.80
536.89	25020.33
537.06	25055.43
537.23	24926.71
537.40	24999.26
537.57	25043.73
537.74	25200.55
537.91	25303.53
538.08	25319.92
538.25	25153.74
538.42	25130.33
538.59	24938.41
538.75	24915.00
538.92	25120.97
539.09	25366.73
539.26	25483.75
539.43	25317.57
539.60	25390.13
539.77	25642.91
539.94	25624.18
540.11	25645.25
540.28	25422.90
540.44	26008.03
540.61	25837.17
540.78	25773.98
540.95	25816.11
541.12	25472.05
541.29	25806.75
541.46	25600.78
541.62	25607.80
541.79	25551.63
541.96	25586.74
542.13	25715.47
542.30	25872.28
542.47	25898.03
542.63	26237.41
542.80	26171.87
542.97	26647.00
543.14	26375.50
543.31	26284.22
543.48	26043.14
543.64	26555.72
543.81	26665.72
543.98	26462.10
544.15	26588.49
544.32	26656.36
544.48	26890.41
544.65	26595.51
544.82	26183.57
544.99	26031.44
545.16	26536.99
545.32	26279.54
545.49	26925.52
545.66	26899.78
545.83	26494.86
546.00	27136.17
546.16	26572.10
546.33	26565.08
546.50	26583.80
546.67	26958.29
546.83	26518.27
547.00	26548.70
547.17	26740.62
547.34	26796.79
547.50	27091.70
547.67	27218.09
547.84	27098.72
548.00	26806.16
548.17	26822.54
548.34	27164.26
548.51	26925.52
548.67	26911.48
548.84	27119.79
549.01	26862.33
549.18	27082.34
549.34	26995.74
549.51	27587.89
549.68	27009.78
549.84	27211.07
550.01	27215.75
550.18	27150.21
550.34	27379.59
550.51	27644.07
550.68	27695.56
550.84	27353.84
551.01	27770.46
551.18	27030.85
551.34	27367.88
551.51	27274.26
551.68	27946.00
551.84	27665.13
552.01	27517.68
552.18	27796.20
552.34	27388.95
552.51	27906.21
552.68	27513.00
552.84	27903.87
553.01	27723.65
553.18	27725.99
553.34	27737.69
553.51	27875.78
553.67	27838.33
553.84	27749.39
554.01	27833.65
554.17	27843.01
554.34	27866.42
554.51	27875.78
554.67	28067.70
554.84	28027.92
555.00	28168.35
555.17	28264.31
555.33	28116.86
555.50	27976.42
555.67	28276.01
555.83	28039.62
556.00	28615.39
556.16	28479.64
556.33	28044.30
556.50	28283.03
556.66	28685.61
556.83	28205.80
556.99	28219.84
557.16	28489.00
557.32	28893.91
557.49	28765.18
557.65	28023.23
557.82	28254.95
557.98	28479.64
558.15	28273.67
558.32	28683.27
558.48	28613.05
558.65	28800.29
558.81	28545.17
558.98	28512.41
559.14	28250.27
559.31	28587.30
559.47	28503.04
559.64	28842.42
559.80	29013.28
559.97	28697.31
560.13	28390.70
560.30	28952.43
560.46	28680.92
560.63	29076.48
560.79	28912.64
560.96	28638.80
561.12	28582.62
561.29	28718.37
561.45	28657.52
561.61	28957.11
561.78	28765.18
561.94	28821.36
562.11	28999.24
562.27	28795.61
562.44	28957.11
562.60	28680.92
562.77	28678.58
562.93	28594.32
563.10	29127.97
563.26	28613.05
563.42	29207.55
563.59	29528.20
563.75	28980.51
563.92	29252.02
564.08	28758.16
564.24	29188.82
564.41	28879.87
564.57	28793.27
564.74	28599.01
564.90	29343.30
565.07	29247.33
565.23	29544.58
565.39	29142.01
565.56	29092.86
565.72	29125.63
565.88	28889.23
566.05	29008.60
566.21	29317.55
566.38	29240.31
566.54	29284.78
566.70	29198.18
566.87	29619.48
567.03	29214.57
567.19	29390.11
567.36	29275.42
567.52	29249.67
567.68	29551.60
567.85	29039.03
568.01	29200.52
568.17	29778.64
568.34	29352.66
568.50	29518.84
568.66	29670.97
568.83	29722.46
568.99	29579.69
569.15	29497.77
569.32	29244.99
569.48	29539.90
569.64	29179.46
569.81	29331.59
569.97	29369.04
570.13	29441.60
570.30	29448.62
570.46	29518.84
570.62	29598.41
570.78	29813.74
570.95	29619.48
571.11	29806.72
571.27	29249.67
571.43	29324.57
571.60	29888.64
571.76	29432.24
571.92	29413.51
572.09	29867.58
572.25	29380.74
572.41	29422.87
572.57	29722.46
572.74	29542.24
572.90	29212.23
573.06	29427.56
573.22	29380.74
573.38	29670.97
573.55	29397.13
573.71	29378.40
573.87	29472.03
574.03	29898.00
574.20	29600.76
574.36	29336.27
574.52	29848.85
574.68	29490.75
574.84	30005.67
575.01	29713.10
575.17	29738.85
575.33	29647.57
575.49	29596.07
575.65	29724.80
575.82	29476.71
575.98	29387.77
576.14	30005.67
576.30	30064.18
576.46	29565.65
576.62	29706.08
576.79	30052.48
576.95	29752.89
577.11	29790.34
577.27	29738.85
577.43	29902.68
577.59	29818.42
577.75	30089.93
577.92	29378.40
578.08	29422.87
578.24	29383.09
578.40	30019.71
578.56	29722.46
578.72	30075.88
578.88	29949.50
579.04	30050.14
579.21	29462.66
579.37	29617.14
579.53	29888.64
579.69	29465.00
579.85	29495.43
580.01	29703.74
580.17	29717.78
580.33	29689.70
580.49	29752.89
580.65	29963.54
580.82	29823.11
580.98	29752.89
581.14	29949.50
581.30	29631.18
581.46	29965.88
581.62	29755.23
581.78	29441.60
581.94	29670.97
582.10	29563.31
582.26	29596.07
582.42	29996.31
582.58	30054.82
582.74	29797.36
582.90	29979.92
583.06	29696.72
583.22	29549.26
583.38	29710.76
583.54	30129.72
583.70	29596.07
583.86	30026.73
584.02	29436.92
584.18	30026.73
584.34	30312.28
584.50	29905.02
584.66	29706.08
584.82	29523.52
584.98	29898.00
585.14	29949.50
585.30	29654.59
585.46	30108.65
585.62	30190.57
585.78	30270.15
585.94	29441.60
586.10	29909.71
586.26	30157.80
586.42	30281.85
586.58	30178.87
586.74	29813.74
586.90	30132.06
587.06	29549.26
587.22	29893.32
587.38	30066.52
587.54	29790.34
587.70	30178.87
587.86	30284.19
588.02	30338.02
588.18	30452.71
588.34	30003.33
588.49	30110.99
588.65	30045.46
588.81	29783.32
588.97	30160.14
589.13	30103.97
589.29	30017.37
589.45	29895.66
589.61	30101.63
589.77	30356.75
589.93	30106.31
590.08	30316.96
590.24	30672.72
590.40	30532.29
590.56	30497.18
590.72	30160.14
590.88	29614.80
591.04	30450.37
591.20	30218.66
591.35	30646.97
591.51	30370.79
591.67	30614.21
591.83	30675.06
591.99	30422.28
