SpectraSuite Data File
++++++++++++++++++++++++++++++++++++
Date: Fri Oct 18 13:58:07 GMT-05:00 2013
User: bianchi
Dark Spectrum Present: No
Reference Spectrum Present: No
Number of Sampled Component Spectra: 1
Spectrometers: USB2+H05261
Integration Time (usec): 50000 (USB2+H05261)
Spectra Averaged: 1 (USB2+H05261)
Boxcar Smoothing: 0 (USB2+H05261)
Correct for Electrical Dark: No (USB2+H05261)
Strobe/Lamp Enabled: No (USB2+H05261)
Correct for Detector Non-linearity: No (USB2+H05261)
Correct for Stray Light: No (USB2+H05261)
Number of Pixels in Processed Spectrum: 2048
>>>>>Begin Processed Spectral Data<<<<<
365.73	0.00
365.92	0.00
366.12	0.00
366.32	0.00
366.52	0.00
366.72	0.00
366.91	0.00
367.11	0.00
367.31	0.00
367.51	0.00
367.70	0.00
367.90	0.00
368.10	0.00
368.30	0.00
368.49	0.00
368.69	0.00
368.89	0.00
369.09	0.00
369.28	0.00
369.48	0.00
369.68	0.00
369.87	0.00
370.07	0.00
370.27	0.00
370.47	0.00
370.66	39.79
370.86	110.01
371.06	147.45
371.25	84.26
371.45	131.07
371.65	133.41
371.84	175.54
372.04	189.58
372.24	100.64
372.44	175.54
372.63	220.01
372.83	273.84
373.03	198.95
373.22	180.22
373.42	215.33
373.62	184.90
373.81	276.18
374.01	210.65
374.21	208.31
374.40	170.86
374.60	170.86
374.79	243.42
374.99	266.82
375.19	297.25
375.38	330.02
375.58	259.80
375.78	271.50
375.97	332.36
376.17	234.05
376.37	252.78
376.56	266.82
376.76	187.24
376.95	252.78
377.15	248.10
377.35	229.37
377.54	287.89
377.74	238.73
377.93	278.52
378.13	330.02
378.33	294.91
378.52	280.86
378.72	250.44
378.91	241.08
379.11	273.84
379.31	264.48
379.50	248.10
379.70	287.89
379.89	348.74
380.09	327.68
380.28	250.44
380.48	322.99
380.68	325.33
380.87	234.05
381.07	325.33
381.26	341.72
381.46	334.70
381.65	313.63
381.85	320.65
382.04	294.91
382.24	292.57
382.43	346.40
382.63	301.93
382.83	360.44
383.02	348.74
383.22	374.49
383.41	362.78
383.61	372.15
383.80	308.95
384.00	346.40
384.19	383.85
384.39	376.83
384.58	339.38
384.78	407.25
384.97	414.27
385.17	346.40
385.36	348.74
385.56	341.72
385.75	322.99
385.95	313.63
386.14	386.19
386.34	308.95
386.53	430.66
386.72	447.04
386.92	395.55
387.11	517.26
387.31	393.21
387.50	379.17
387.70	346.40
387.89	449.38
388.09	423.64
388.28	379.17
388.48	470.45
388.67	475.13
388.86	505.56
389.06	461.09
389.25	444.70
389.45	498.53
389.64	463.43
389.84	491.51
390.03	482.15
390.22	456.40
390.42	484.49
390.61	400.23
390.81	440.02
391.00	416.62
391.19	526.62
391.39	540.66
391.58	498.53
391.78	512.58
391.97	587.47
392.16	477.47
392.36	587.47
392.55	484.49
392.75	559.39
392.94	557.05
393.13	575.77
393.33	638.97
393.52	575.77
393.71	613.22
393.91	564.07
394.10	624.92
394.29	535.98
394.49	566.41
394.68	575.77
394.88	599.18
395.07	620.24
395.26	641.31
395.46	580.45
395.65	592.16
395.84	634.29
396.04	620.24
396.23	617.90
396.42	683.44
396.62	587.47
396.81	674.07
397.00	622.58
397.19	678.76
397.39	662.37
397.58	683.44
397.77	695.14
397.97	681.10
398.16	732.59
398.35	786.42
398.55	746.63
398.74	636.63
398.93	777.06
399.12	744.29
399.32	734.93
399.51	695.14
399.70	786.42
399.90	737.27
400.09	800.46
400.28	704.50
400.47	840.25
400.67	791.10
400.86	788.76
401.05	746.63
401.24	800.46
401.44	774.72
401.63	793.44
401.82	786.42
402.01	802.80
402.21	791.10
402.40	873.02
402.59	926.85
402.78	854.30
402.97	858.98
403.17	894.08
403.36	847.27
403.55	875.36
403.74	877.70
403.93	894.08
404.13	947.92
404.32	854.30
404.51	905.79
404.70	961.96
404.89	952.60
405.09	889.40
405.28	959.62
405.47	980.68
405.66	983.02
405.85	950.26
406.05	1001.75
406.24	938.55
406.43	959.62
406.62	983.02
406.81	1074.31
407.00	1011.11
407.20	994.73
407.39	992.39
407.58	1048.56
407.77	1027.50
407.96	976.00
408.15	1062.60
408.34	1022.81
408.54	1114.10
408.73	1053.24
408.92	1186.65
409.11	1128.14
409.30	1125.80
409.49	1142.18
409.68	1191.33
409.87	1128.14
410.07	1121.12
410.26	1172.61
410.45	1263.89
410.64	1238.14
410.83	1151.54
411.02	1240.48
411.21	1273.25
411.40	1249.85
411.59	1268.57
411.78	1331.76
411.98	1259.21
412.17	1231.12
412.36	1296.66
412.55	1296.66
412.74	1399.64
412.93	1359.85
413.12	1327.08
413.31	1427.73
413.50	1397.30
413.69	1448.79
413.88	1380.92
414.07	1481.56
414.26	1561.14
414.45	1516.67
414.64	1528.37
414.83	1500.28
415.02	1516.67
415.22	1661.78
415.41	1519.01
415.60	1551.78
415.79	1504.96
415.98	1638.38
416.17	1600.93
416.36	1605.61
416.55	1654.76
416.74	1652.42
416.93	1636.03
417.12	1678.16
417.31	1806.89
417.50	1750.72
417.69	1732.00
417.88	1748.38
418.07	1699.23
418.26	1851.36
418.45	1790.51
418.64	1680.50
418.83	1867.75
419.02	1834.98
419.21	1849.02
419.39	1802.21
419.58	1853.70
419.77	1809.23
419.96	1764.76
420.15	1935.62
420.34	1872.43
420.53	1839.66
420.72	1916.90
420.91	1900.52
421.10	1944.99
421.29	1923.92
421.48	2005.84
421.67	1891.15
421.86	1872.43
422.05	1980.09
422.24	2064.35
422.43	1933.28
422.61	2054.99
422.80	2073.71
422.99	2143.93
423.18	2085.42
423.37	1933.28
423.56	2115.84
423.75	2069.03
423.94	2113.50
424.13	2031.58
424.32	1961.37
424.50	2057.33
424.69	1998.82
424.88	2190.74
425.07	2052.65
425.26	1879.45
425.45	2050.31
425.64	1952.01
425.83	1996.48
426.01	2054.99
426.20	2090.10
426.39	2043.29
426.58	2101.80
426.77	2129.89
426.96	2043.29
427.15	2001.16
427.33	2071.37
427.52	2122.87
427.71	2167.34
427.90	2221.17
428.09	2223.51
428.28	2167.34
428.46	2211.81
428.65	2289.04
428.84	2279.68
429.03	2253.94
429.22	2244.57
429.40	2340.54
429.59	2293.72
429.78	2157.97
429.97	2193.08
430.16	2380.32
430.34	2335.85
430.53	2385.01
430.72	2300.75
430.91	2242.23
431.10	2246.91
431.28	2361.60
431.47	2483.31
431.66	2420.11
431.85	2394.37
432.03	2476.29
432.22	2511.39
432.41	2445.86
432.60	2445.86
432.79	2284.36
432.97	2478.63
433.16	2431.82
433.35	2478.63
433.54	2534.80
433.72	2572.25
433.91	2473.95
434.10	2427.14
434.28	2466.92
434.47	2614.38
434.66	2511.39
434.85	2530.12
435.03	2600.34
435.22	2605.02
435.41	2661.19
435.59	2766.51
435.78	2663.53
435.97	2626.08
436.16	2696.30
436.34	2705.66
436.53	2661.19
436.72	2766.51
436.90	2686.94
437.09	2708.00
437.28	2654.17
437.46	2780.56
437.65	2775.88
437.84	2864.82
438.02	2761.83
438.21	2827.37
438.40	2808.64
438.58	2785.24
438.77	3070.78
438.96	2787.58
439.14	3030.99
439.33	2970.14
439.52	2970.14
439.70	3035.67
439.89	2946.73
440.08	3066.10
440.26	3084.83
440.45	3087.17
440.63	3162.06
440.82	3094.19
441.01	3061.42
441.19	3192.49
441.38	3248.66
441.57	3288.45
441.75	3293.13
441.94	3286.11
442.12	3314.20
442.31	3377.39
442.50	3328.24
442.68	3248.66
442.87	3321.22
443.05	3286.11
443.24	3349.31
443.43	3325.90
443.61	3466.33
443.80	3424.20
443.98	3379.73
444.17	3300.16
444.35	3471.01
444.54	3485.06
444.73	3557.61
444.91	3372.71
445.10	3456.97
445.28	3543.57
445.47	3487.40
445.65	3456.97
445.84	3562.30
446.02	3368.03
446.21	3569.32
446.39	3414.84
446.58	3515.48
446.77	3463.99
446.95	3321.22
447.14	3646.55
447.32	3578.68
447.51	3606.77
447.69	3585.70
447.88	3534.21
448.06	3501.44
448.25	3454.63
448.43	3566.98
448.62	3466.33
448.80	3599.74
448.99	3665.28
449.17	3676.98
449.36	3524.85
449.54	3691.02
449.73	3693.37
449.91	3850.18
450.10	3588.04
450.28	3772.94
450.46	3730.81
450.65	3810.39
450.83	3686.34
451.02	3779.97
451.20	3962.53
451.39	3878.27
451.57	3857.20
451.76	3782.31
451.94	3904.01
452.13	3744.86
452.31	3796.35
452.49	3826.78
452.68	3882.95
452.86	3899.33
453.05	3990.61
453.23	3906.35
453.42	3901.67
453.60	3882.95
453.78	3976.57
453.97	3943.80
454.15	3927.42
454.34	3967.21
454.52	4011.68
454.70	3997.64
454.89	4135.73
455.07	4039.76
455.26	4074.87
455.44	4128.70
455.62	4074.87
455.81	4194.24
455.99	4126.36
456.17	4170.83
456.36	4224.67
456.54	4166.15
456.73	4269.14
456.91	4517.23
457.09	4402.55
457.28	4444.68
457.46	4507.87
457.64	4557.02
457.83	4407.23
458.01	4168.49
458.19	4358.08
458.38	4461.06
458.56	4418.93
458.74	4491.49
458.93	4428.29
459.11	4365.10
459.29	4351.06
459.48	4505.53
459.66	4496.17
459.84	4589.79
460.03	4760.65
460.21	4545.32
460.39	4528.94
460.57	4557.02
460.76	4657.67
460.94	4835.55
461.12	4739.58
461.31	4617.88
461.49	4608.51
461.67	4568.73
461.85	4751.29
462.04	4826.18
462.22	4992.36
462.40	4648.30
462.59	4762.99
462.77	4791.08
462.95	4711.50
463.13	4784.06
463.32	4884.70
463.50	4772.35
463.68	4945.55
463.86	4865.97
464.05	4987.68
464.23	4849.59
464.41	4929.17
464.59	4858.95
464.78	4961.94
464.96	4929.17
465.14	4777.03
465.32	5043.85
465.50	5195.99
465.69	5165.56
465.87	4997.04
466.05	5034.49
466.23	4961.94
466.41	5195.99
466.60	5149.18
466.78	5085.98
466.96	4980.66
467.14	5100.03
467.32	5174.92
467.51	5179.61
467.69	5078.96
467.87	5205.35
468.05	5109.39
468.23	5254.50
468.41	5181.95
468.60	5254.50
468.78	5329.40
468.96	5268.55
469.14	5259.18
469.32	5406.64
469.50	5221.74
469.69	5481.53
469.87	5416.00
470.05	5518.98
470.23	5556.43
470.41	5544.73
470.59	5504.94
470.77	5305.99
470.95	5554.09
471.14	5591.54
471.32	5518.98
471.50	5813.89
471.68	5687.50
471.86	5701.54
472.04	5797.51
472.22	5841.98
472.40	5703.89
472.58	5610.26
472.77	5738.99
472.95	5846.66
473.13	6078.37
473.31	5853.68
473.49	5877.09
473.67	5870.06
473.85	5905.17
474.03	6256.25
474.21	6050.28
474.39	6040.92
474.57	6148.59
474.75	6167.31
474.93	6132.20
475.12	6242.21
475.30	6331.15
475.48	6202.42
475.66	6352.21
475.84	6338.17
476.02	6457.54
476.20	6392.00
476.38	6260.93
476.56	6654.14
476.74	6502.01
476.92	6511.37
477.10	6593.29
477.28	6848.41
477.46	6480.94
477.64	6747.76
477.82	6733.72
478.00	7009.90
478.18	6965.43
478.36	6885.86
478.54	7040.33
478.72	7166.72
478.90	7169.06
479.08	7452.27
479.26	7316.51
479.44	7281.41
479.62	7300.13
479.80	7445.24
479.98	7426.52
480.16	7501.42
480.34	7606.74
480.52	7609.08
480.70	7815.05
480.88	7627.81
481.06	7712.07
481.24	7559.93
481.41	7779.94
481.59	7854.84
481.77	8058.46
481.95	8224.64
482.13	8032.72
482.31	8180.17
482.49	8203.58
482.67	8369.76
482.85	8510.19
483.03	8720.84
483.21	8671.68
483.39	8454.02
483.57	8751.26
483.74	8812.12
483.92	8884.67
484.10	8823.82
484.28	8945.53
484.46	9156.18
484.64	9121.07
484.82	9118.73
485.00	9100.00
485.18	9359.80
485.35	9418.32
485.53	9472.15
485.71	9612.58
485.89	9671.09
486.07	9596.20
486.25	9827.91
486.43	9720.24
486.61	9785.78
486.78	9998.77
486.96	10026.86
487.14	10188.35
487.32	10197.71
487.50	10272.61
487.68	10406.02
487.85	10473.90
488.03	10539.43
488.21	10705.61
488.39	10626.03
488.57	10801.57
488.75	10803.91
488.92	11033.29
489.10	11117.54
489.28	11066.05
489.46	11136.27
489.64	11255.64
489.81	11358.62
489.99	11389.05
490.17	11323.51
490.35	11492.03
490.53	11761.19
490.70	11747.15
490.88	11655.87
491.06	11838.43
491.24	11836.09
491.41	11971.84
491.59	11988.22
491.77	11918.01
491.95	12086.53
492.13	12161.42
492.30	12336.96
492.48	12367.39
492.66	12484.42
492.84	12641.23
493.01	12376.75
493.19	12688.04
493.37	12954.87
493.54	12741.88
493.72	13048.49
493.90	12912.74
494.08	13179.56
494.25	13252.11
494.43	13217.01
494.61	13418.29
494.79	13617.24
494.96	13542.34
495.14	13500.21
495.32	13593.83
495.49	13865.33
495.67	13748.31
495.85	13832.57
496.02	14195.35
496.20	13900.44
496.38	14071.30
496.55	14097.05
496.73	14200.03
496.91	14265.57
497.09	14314.72
497.26	14476.21
497.44	14478.55
497.62	14527.71
497.79	14888.15
497.97	14740.69
498.14	14829.63
498.32	15232.21
498.50	15201.78
498.67	15300.08
498.85	14827.29
499.03	15173.69
499.20	15281.36
499.38	14885.81
499.56	15407.75
499.73	15321.15
499.91	15414.77
500.08	15456.90
500.26	15538.82
500.44	15599.67
500.61	15779.89
500.79	15606.69
500.97	15817.34
501.14	15999.90
501.32	16046.71
501.49	15927.35
501.67	15836.06
501.84	16409.50
502.02	16077.14
502.20	16196.51
502.37	16262.04
502.55	16379.07
502.72	16217.57
502.90	16149.70
503.07	16243.32
503.25	16823.77
503.43	16217.57
503.60	16596.74
503.78	16992.29
503.95	16755.90
504.13	16704.40
504.30	16889.31
504.48	16985.27
504.65	16971.22
504.83	17247.41
505.01	17207.62
505.18	17245.07
505.36	17249.75
505.53	17114.00
505.71	16936.12
505.88	17301.24
506.06	17233.36
506.23	17645.30
506.41	17408.90
506.58	17385.50
506.76	17472.10
506.93	17640.62
507.11	17561.04
507.28	17706.15
507.46	17750.62
507.63	17907.44
507.81	18092.34
507.98	17869.99
508.16	17734.24
508.33	18125.11
508.50	18185.96
508.68	17921.48
508.85	18197.67
509.03	18284.26
509.20	18354.48
509.38	18490.23
509.55	18600.24
509.73	18513.64
509.90	18291.29
510.08	18319.37
510.25	18679.82
510.42	18735.99
510.60	18733.65
510.77	18925.57
510.95	18735.99
511.12	19105.79
511.30	18796.84
511.47	19070.68
511.64	19105.79
511.82	19185.37
511.99	19227.50
512.17	19328.14
512.34	19475.60
512.51	19180.69
512.69	19601.99
512.86	19307.08
513.04	19779.87
513.21	19494.32
513.38	19981.15
513.56	19693.27
513.73	19475.60
513.90	19601.99
514.08	19819.66
514.25	19913.28
514.43	19950.73
514.60	20189.46
514.77	20013.92
514.95	20210.53
515.12	20009.24
515.29	19800.93
515.47	20243.29
515.64	20325.21
515.81	20346.28
515.99	20269.04
516.16	20776.94
516.33	20517.14
516.51	20400.11
516.68	20400.11
516.85	20301.81
517.03	20896.30
517.20	20737.15
517.37	20699.70
517.54	20896.30
517.72	20585.01
517.89	20929.07
518.06	20938.43
518.24	20751.19
518.41	20795.66
518.58	21195.89
518.75	21032.05
518.93	21223.98
519.10	21207.59
519.27	21184.19
519.45	21137.38
519.62	20931.41
519.79	21228.66
519.96	21591.44
520.14	21165.46
520.31	21095.25
520.48	21624.21
520.65	21675.70
520.83	21682.72
521.00	21509.52
521.17	21439.31
521.34	21909.75
521.52	21867.63
521.69	21921.46
521.86	22129.77
522.03	21799.75
522.20	22003.38
522.38	22045.51
522.55	21933.16
522.72	21991.67
522.89	22054.87
523.07	22541.70
523.24	22026.78
523.41	22640.00
523.58	22094.66
523.75	22452.76
523.92	22043.17
524.10	22335.73
524.27	22742.99
524.44	22717.24
524.61	22810.86
524.78	22742.99
524.96	22412.97
525.13	22476.16
525.30	22831.93
525.47	22958.31
525.64	22796.82
525.81	22958.31
525.98	23019.17
526.16	22995.76
526.33	23058.96
526.50	23372.59
526.67	22970.02
526.84	22995.76
527.01	22913.84
527.18	23040.23
527.36	23105.77
527.53	23194.71
527.70	23821.97
527.87	23676.86
528.04	23424.08
528.21	23323.44
528.38	23737.71
528.55	23442.81
528.72	23424.08
528.89	23826.65
529.07	23744.73
529.24	23784.52
529.41	23531.75
529.58	23737.71
529.75	23948.36
529.92	23611.32
530.09	23924.96
530.26	24011.56
530.43	24041.98
530.60	24002.19
530.77	23894.53
530.94	24058.37
531.11	23981.13
531.28	24112.20
531.46	23953.04
531.63	24039.64
531.80	24219.86
531.97	24203.48
532.14	24489.03
532.31	24245.61
532.48	24182.42
532.65	24273.70
532.82	24439.87
532.99	24563.92
533.16	24416.47
533.33	25029.69
533.50	24812.02
533.67	24580.31
533.84	24528.81
534.01	24826.06
534.18	24900.96
534.35	24650.52
534.52	24699.67
534.69	24973.52
534.86	24966.49
535.03	24657.54
535.20	25088.20
535.37	24795.64
535.54	25036.71
535.71	24386.04
535.88	25001.60
536.05	24903.30
536.22	25055.43
536.38	25345.66
536.55	25247.36
536.72	25495.46
536.89	25238.00
537.06	25156.08
537.23	25289.49
537.40	25352.68
537.57	25371.41
537.74	25322.26
537.91	25675.68
538.08	25642.91
538.25	25617.16
538.42	25394.81
538.59	25944.84
538.75	25469.71
538.92	25596.10
539.09	25876.96
539.26	25565.67
539.43	25766.96
539.60	25553.97
539.77	25900.37
539.94	26319.32
540.11	25937.82
540.28	25851.22
540.44	25659.29
540.61	25891.01
540.78	25991.65
540.95	25907.39
541.12	25867.60
541.29	26274.85
541.46	25851.22
541.62	26129.74
541.79	26335.71
541.96	25916.75
542.13	25874.62
542.30	26160.17
542.47	26483.16
542.63	26394.22
542.80	26574.44
542.97	26663.38
543.14	26960.63
543.31	26429.33
543.48	26551.04
543.64	26735.94
543.81	26682.11
543.98	27147.87
544.15	26855.31
544.32	26691.47
544.48	26984.04
544.65	26651.68
544.82	26855.31
544.99	26595.51
545.16	26780.41
545.32	26773.39
545.49	27077.66
545.66	27002.76
545.83	27395.97
546.00	27049.57
546.16	26892.76
546.33	27009.78
546.50	26707.85
546.67	26937.23
546.83	27068.30
547.00	26813.18
547.17	27555.13
547.34	27475.55
547.50	27475.55
547.67	28018.55
547.84	27484.91
548.00	27597.26
548.17	27810.25
548.34	27239.15
548.51	27775.14
548.67	28004.51
548.84	27264.90
549.01	27372.57
549.18	27653.43
549.34	27637.05
549.51	27779.82
549.68	27548.11
549.84	27695.56
550.01	27513.00
550.18	27695.56
550.34	27693.22
550.51	28142.60
550.68	27765.78
550.84	27566.83
551.01	27770.46
551.18	27775.14
551.34	27885.14
551.51	28016.21
551.68	28166.01
551.84	27826.63
552.01	27857.06
552.18	27960.04
552.34	27971.74
552.51	28144.94
552.68	28259.63
552.84	28002.17
553.01	28261.97
553.18	28032.60
553.34	28357.93
553.51	28549.85
553.67	28175.37
553.84	28882.21
554.01	28589.64
554.17	28425.81
554.34	28371.97
554.51	28584.96
554.67	28353.25
554.84	28489.00
555.00	28381.34
555.17	28458.57
555.33	28568.58
555.50	28313.46
555.67	28533.47
555.83	28507.72
556.00	28664.54
556.16	28765.18
556.33	28657.52
556.50	28725.39
556.66	28833.06
556.83	28772.21
556.99	28816.68
557.16	28765.18
557.32	28898.59
557.49	28821.36
557.65	28673.90
557.82	28870.51
557.98	28694.97
558.15	28699.65
558.32	28484.32
558.48	28662.20
558.65	29528.20
558.81	29235.63
558.98	28849.44
559.14	28870.51
559.31	28973.49
559.47	29041.37
559.64	29193.50
559.80	29165.42
559.97	29319.89
560.13	28973.49
560.30	29179.46
560.46	29495.43
560.63	28971.15
560.79	28926.68
560.96	29383.09
561.12	28833.06
561.29	29092.86
561.45	29020.30
561.61	29359.68
561.78	29490.75
561.94	29324.57
562.11	29345.64
562.27	29247.33
562.44	29057.75
562.60	29027.32
562.77	29144.35
562.93	28879.87
563.10	29392.45
563.26	29209.89
563.42	29907.37
563.59	29422.87
563.75	29345.64
563.92	29493.09
564.08	29315.21
564.24	29724.80
564.41	29034.35
564.57	29450.96
564.74	29289.46
564.90	29289.46
565.07	29455.64
565.23	29912.05
565.39	29577.35
565.56	29567.99
565.72	29415.85
565.88	29619.48
566.05	29673.31
566.21	29539.90
566.38	29668.63
566.54	29376.06
566.70	29551.60
566.87	29961.20
567.03	30078.22
567.19	30057.16
567.36	29823.11
567.52	29813.74
567.68	29745.87
567.85	29839.49
568.01	29862.90
568.17	29315.21
568.34	30129.72
568.50	29809.06
568.66	29738.85
568.83	30178.87
568.99	29572.67
569.15	29537.56
569.32	29834.81
569.48	29727.14
569.64	30010.35
569.81	29851.19
569.97	29900.34
570.13	29827.79
570.30	29862.90
570.46	30068.86
570.62	29834.81
570.78	29539.90
570.95	29876.94
571.11	29991.62
571.27	29783.32
571.43	29846.51
571.60	29993.97
571.76	29446.28
571.92	30122.69
572.09	29963.54
572.25	29933.11
572.41	30125.04
572.57	29921.41
572.74	29830.13
572.90	29965.88
573.06	29701.40
573.22	29862.90
573.38	30036.09
573.55	29879.28
573.71	30455.05
573.87	30237.38
574.03	30099.29
574.20	30038.44
574.36	29874.60
574.52	30185.89
574.68	30120.35
574.84	30244.40
575.01	30017.37
575.17	30497.18
575.33	29745.87
575.49	29954.18
575.65	30492.50
575.82	30225.68
575.98	30101.63
576.14	30480.80
576.30	30195.25
576.46	29947.15
576.62	30103.97
576.79	30380.15
576.95	30302.92
577.11	30129.72
577.27	30354.41
577.43	30244.40
577.59	30539.31
577.75	30459.73
577.92	29734.17
578.08	30471.43
578.24	30295.89
578.40	30005.67
578.56	30518.25
578.72	30024.39
578.88	30504.20
579.04	30309.94
579.21	30405.90
579.37	30291.21
579.53	30548.67
579.69	30143.76
579.85	30118.01
580.01	30408.24
580.17	29776.30
580.33	30333.34
580.49	30099.29
580.65	30433.99
580.82	30333.34
580.98	30375.47
581.14	30532.29
581.30	30106.31
581.46	30279.51
581.62	30064.18
581.78	30164.82
581.94	30422.28
582.10	29823.11
582.26	30295.89
582.42	30586.12
582.58	30796.77
582.74	30415.26
582.90	30394.20
583.06	30457.39
583.22	30419.94
583.38	30410.58
583.54	30553.35
583.70	30169.51
583.86	30611.87
584.02	30143.76
584.18	30183.55
584.34	30553.35
584.50	30698.47
584.66	30361.43
584.82	29837.15
584.98	30340.36
585.14	30593.14
585.30	30314.62
585.46	30520.59
585.62	30553.35
585.78	30244.40
585.94	29888.64
586.10	30382.49
586.26	30281.85
586.42	30274.83
586.58	30534.63
586.74	30073.54
586.90	30717.19
587.06	30258.45
587.22	30342.70
587.38	30373.13
587.54	30635.27
587.70	30766.34
587.86	30525.27
588.02	30979.33
588.18	30567.40
588.34	30661.02
588.49	30576.76
588.65	30389.52
588.81	30345.05
588.97	30457.39
589.13	30630.59
589.29	30679.74
589.45	30813.15
589.61	30927.84
589.77	30696.13
589.93	30696.13
590.08	30628.25
590.24	30644.63
590.40	31061.25
590.56	30934.86
590.72	30513.56
590.88	30478.46
591.04	30946.56
591.20	30981.67
591.35	30857.62
591.51	30871.67
591.67	31117.42
591.83	31117.42
591.99	31014.44
