SpectraSuite Data File
++++++++++++++++++++++++++++++++++++
Date: Fri Oct 18 13:58:20 GMT-05:00 2013
User: bianchi
Dark Spectrum Present: No
Reference Spectrum Present: No
Number of Sampled Component Spectra: 1
Spectrometers: USB2+H05261
Integration Time (usec): 50000 (USB2+H05261)
Spectra Averaged: 1 (USB2+H05261)
Boxcar Smoothing: 0 (USB2+H05261)
Correct for Electrical Dark: No (USB2+H05261)
Strobe/Lamp Enabled: No (USB2+H05261)
Correct for Detector Non-linearity: No (USB2+H05261)
Correct for Stray Light: No (USB2+H05261)
Number of Pixels in Processed Spectrum: 2048
>>>>>Begin Processed Spectral Data<<<<<
365.73	14.04
365.92	14.04
366.12	14.04
366.32	0.00
366.52	0.00
366.72	0.00
366.91	0.00
367.11	0.00
367.31	0.00
367.51	0.00
367.70	0.00
367.90	0.00
368.10	0.00
368.30	0.00
368.49	0.00
368.69	0.00
368.89	0.00
369.09	0.00
369.28	0.00
369.48	0.00
369.68	0.00
369.87	0.00
370.07	0.00
370.27	0.00
370.47	0.00
370.66	63.19
370.86	105.32
371.06	114.69
371.25	163.84
371.45	114.69
371.65	180.22
371.84	175.54
372.04	112.35
372.24	140.43
372.44	255.12
372.63	238.73
372.83	222.35
373.03	234.05
373.22	198.95
373.42	215.33
373.62	212.99
373.81	217.67
374.01	308.95
374.21	149.79
374.40	241.08
374.60	170.86
374.79	236.39
374.99	222.35
375.19	238.73
375.38	238.73
375.58	285.55
375.78	259.80
375.97	283.20
376.17	271.50
376.37	318.31
376.56	276.18
376.76	257.46
376.95	238.73
377.15	245.76
377.35	252.78
377.54	229.37
377.74	266.82
377.93	313.63
378.13	315.97
378.33	290.23
378.52	372.15
378.72	229.37
378.91	346.40
379.11	252.78
379.31	278.52
379.50	297.25
379.70	351.08
379.89	252.78
380.09	344.06
380.28	276.18
380.48	325.33
380.68	229.37
380.87	348.74
381.07	346.40
381.26	311.29
381.46	320.65
381.65	287.89
381.85	339.38
382.04	332.36
382.24	313.63
382.43	428.32
382.63	376.83
382.83	374.49
383.02	313.63
383.22	404.91
383.41	315.97
383.61	442.36
383.80	407.25
384.00	400.23
384.19	355.76
384.39	339.38
384.58	383.85
384.78	440.02
384.97	367.46
385.17	461.09
385.36	365.12
385.56	374.49
385.75	386.19
385.95	423.64
386.14	418.96
386.34	409.59
386.53	276.18
386.72	437.68
386.92	381.51
387.11	442.36
387.31	437.68
387.50	433.00
387.70	404.91
387.89	393.21
388.09	458.74
388.28	482.15
388.48	430.66
388.67	425.98
388.86	447.04
389.06	461.09
389.25	519.60
389.45	444.70
389.64	500.87
389.84	465.77
390.03	475.13
390.22	482.15
390.42	475.13
390.61	500.87
390.81	543.00
391.00	489.17
391.19	512.58
391.39	470.45
391.58	578.11
391.78	496.19
391.97	465.77
392.16	491.51
392.36	629.60
392.55	599.18
392.75	517.26
392.94	582.79
393.13	613.22
393.33	566.41
393.52	561.73
393.71	561.73
393.91	657.69
394.10	566.41
394.29	571.09
394.49	566.41
394.68	596.84
394.88	500.87
395.07	615.56
395.26	557.05
395.46	587.47
395.65	550.03
395.84	645.99
396.04	606.20
396.23	664.71
396.42	706.84
396.62	587.47
396.81	657.69
397.00	674.07
397.19	643.65
397.39	699.82
397.58	657.69
397.77	613.22
397.97	692.80
398.16	671.73
398.35	697.48
398.55	765.36
398.74	655.35
398.93	695.14
399.12	713.86
399.32	725.57
399.51	723.23
399.70	777.06
399.90	755.99
400.09	681.10
400.28	730.25
400.47	746.63
400.67	748.97
400.86	807.48
401.05	725.57
401.24	795.78
401.44	746.63
401.63	828.55
401.82	856.64
402.01	748.97
402.21	844.93
402.40	856.64
402.59	961.96
402.78	884.72
402.97	828.55
403.17	889.40
403.36	823.87
403.55	877.70
403.74	877.70
403.93	884.72
404.13	983.02
404.32	954.94
404.51	880.04
404.70	858.98
404.89	945.58
405.09	943.24
405.28	912.81
405.47	936.21
405.66	997.07
405.85	1013.45
406.05	1034.52
406.24	1050.90
406.43	1027.50
406.62	1034.52
406.81	964.30
407.00	1067.28
407.20	1008.77
407.39	1062.60
407.58	1018.13
407.77	1046.22
407.96	1184.31
408.15	1039.20
408.34	985.37
408.54	1050.90
408.73	961.96
408.92	1078.99
409.11	1064.94
409.30	1060.26
409.49	1174.95
409.68	1118.78
409.87	1219.42
410.07	1132.82
410.26	1102.39
410.45	1231.12
410.64	1153.88
410.83	1184.31
411.02	1259.21
411.21	1221.76
411.40	1186.65
411.59	1287.29
411.78	1235.80
411.98	1284.95
412.17	1322.40
412.36	1203.04
412.55	1383.26
412.74	1320.06
412.93	1322.40
413.12	1364.53
413.31	1448.79
413.50	1490.92
413.69	1439.43
413.88	1528.37
414.07	1448.79
414.26	1427.73
414.45	1507.30
414.64	1516.67
414.83	1397.30
415.02	1514.33
415.22	1565.82
415.41	1563.48
415.60	1490.92
415.79	1568.16
415.98	1528.37
416.17	1561.14
416.36	1572.84
416.55	1666.46
416.74	1624.33
416.93	1514.33
417.12	1668.80
417.31	1657.10
417.50	1603.27
417.69	1652.42
417.88	1724.97
418.07	1724.97
418.26	1783.49
418.45	1755.40
418.64	1708.59
418.83	1706.25
419.02	1809.23
419.21	1785.83
419.39	1813.92
419.58	1741.36
419.77	1799.87
419.96	1867.75
420.15	1912.22
420.34	1865.41
420.53	1935.62
420.72	1881.79
420.91	1947.33
421.10	1987.11
421.29	1888.81
421.48	1954.35
421.67	2085.42
421.86	2015.20
422.05	1898.17
422.24	1963.71
422.43	1980.09
422.61	2045.63
422.80	1966.05
422.99	2019.88
423.18	1949.67
423.37	2150.95
423.56	2099.46
423.75	2052.65
423.94	1954.35
424.13	2038.61
424.32	1926.26
424.50	2050.31
424.69	2015.20
424.88	2106.48
425.07	1973.07
425.26	2017.54
425.45	1966.05
425.64	2005.84
425.83	2012.86
426.01	2045.63
426.20	2036.27
426.39	2015.20
426.58	2010.52
426.77	2005.84
426.96	1923.92
427.15	2104.14
427.33	2036.27
427.52	2125.21
427.71	2155.63
427.90	2038.61
428.09	2193.08
428.28	2251.60
428.46	2209.47
428.65	2087.76
428.84	2202.44
429.03	2204.78
429.22	2143.93
429.40	2277.34
429.59	2174.36
429.78	2064.35
429.97	2172.02
430.16	2223.51
430.34	2396.71
430.53	2300.75
430.72	2235.21
430.91	2165.00
431.10	2319.47
431.28	2335.85
431.47	2328.83
431.66	2553.52
431.85	2385.01
432.03	2326.49
432.22	2495.01
432.41	2335.85
432.60	2476.29
432.79	2480.97
432.97	2473.95
433.16	2509.05
433.35	2415.43
433.54	2532.46
433.72	2530.12
433.91	2520.76
434.10	2495.01
434.28	2583.95
434.47	2455.22
434.66	2497.35
434.85	2569.91
435.03	2551.18
435.22	2576.93
435.41	2576.93
435.59	2520.76
435.78	2569.91
435.97	2726.72
436.16	2677.57
436.34	2597.99
436.53	2689.28
436.72	2717.36
436.90	2665.87
437.09	2682.25
437.28	2689.28
437.46	2696.30
437.65	2686.94
437.84	2738.43
438.02	2738.43
438.21	2738.43
438.40	2672.89
438.58	2892.90
438.77	2782.90
438.96	2825.03
439.14	3063.76
439.33	2970.14
439.52	2818.00
439.70	2890.56
439.89	2995.89
440.08	3040.36
440.26	3059.08
440.45	2956.10
440.63	3063.76
440.82	3047.38
441.01	3049.72
441.19	3084.83
441.38	3098.87
441.57	3211.22
441.75	3148.02
441.94	3199.51
442.12	3110.57
442.31	3262.71
442.50	3208.87
442.68	3442.93
442.87	3272.07
443.05	3227.60
443.24	3449.95
443.43	3321.22
443.61	3403.14
443.80	3468.67
443.98	3335.26
444.17	3190.15
444.35	3424.20
444.54	3424.20
444.73	3344.63
444.91	3489.74
445.10	3468.67
445.28	3307.18
445.47	3307.18
445.65	3403.14
445.84	3386.76
446.02	3494.42
446.21	3372.71
446.39	3433.57
446.58	3520.17
446.77	3494.42
446.95	3309.52
447.14	3468.67
447.32	3566.98
447.51	3644.21
447.69	3489.74
447.88	3508.46
448.06	3475.70
448.25	3538.89
448.43	3520.17
448.62	3449.95
448.80	3559.95
448.99	3648.90
449.17	3581.02
449.36	3538.89
449.54	3737.84
449.73	3623.15
449.91	3616.13
450.10	3667.62
450.28	3681.66
450.46	3585.70
450.65	3721.45
450.83	3665.28
451.02	3805.71
451.20	3707.41
451.39	3700.39
451.57	3899.33
451.76	3674.64
451.94	3754.22
452.13	3969.55
452.31	3728.47
452.49	3882.95
452.68	3847.84
452.86	3875.93
453.05	3824.44
453.23	3868.91
453.42	3756.56
453.60	3871.25
453.78	3953.16
453.97	3978.91
454.15	3847.84
454.34	3833.80
454.52	4088.92
454.70	4032.74
454.89	4065.51
455.07	3997.64
455.26	3932.10
455.44	4093.60
455.62	4002.32
455.81	3985.93
455.99	4095.94
456.17	4067.85
456.36	4067.85
456.54	4238.71
456.73	4194.24
456.91	4327.65
457.09	4229.35
457.28	4294.88
457.46	4273.82
457.64	4243.39
457.83	4402.55
458.01	4285.52
458.19	4372.12
458.38	4285.52
458.56	4444.68
458.74	4472.76
458.93	4432.97
459.11	4365.10
459.29	4327.65
459.48	4425.95
459.66	4449.36
459.84	4655.33
460.03	4648.30
460.21	4442.34
460.39	4542.98
460.57	4533.62
460.76	4510.21
460.94	4634.26
461.12	4528.94
461.31	4568.73
461.49	4664.69
461.67	4671.71
461.85	4737.24
462.04	4730.22
462.22	4961.94
462.40	4685.75
462.59	4765.33
462.77	4667.03
462.95	4805.12
463.13	4786.40
463.32	4688.09
463.50	4772.35
463.68	4706.82
463.86	4905.76
464.05	4779.37
464.23	4856.61
464.41	4880.02
464.59	4786.40
464.78	4931.51
464.96	4950.23
465.14	4847.25
465.32	5013.43
465.50	5015.77
465.69	4929.17
465.87	4917.47
466.05	5046.20
466.23	4873.00
466.41	4849.59
466.60	5252.16
466.78	4889.38
466.96	4978.32
467.14	5036.83
467.32	5153.86
467.51	5011.09
467.69	4851.93
467.87	5053.22
468.05	5163.22
468.23	5181.95
468.41	5085.98
468.60	5212.37
468.78	5172.58
468.96	5273.23
469.14	5181.95
469.32	5238.12
469.50	5163.22
469.69	5479.19
469.87	5334.08
470.05	5472.17
470.23	5423.02
470.41	5380.89
470.59	5479.19
470.77	5329.40
470.95	5549.41
471.14	5610.26
471.32	5502.60
471.50	5638.35
471.68	5518.98
471.86	5696.86
472.04	5582.18
472.22	5820.91
472.40	5636.01
472.58	5750.70
472.77	5863.04
472.95	5813.89
473.13	5809.21
473.31	5703.89
473.49	5921.56
473.67	5753.04
473.85	5830.27
474.03	6150.93
474.21	6043.26
474.39	6106.46
474.57	6106.46
474.75	6036.24
474.93	6080.71
475.12	6003.47
475.30	6141.57
475.48	6155.61
475.66	6143.91
475.84	6396.68
476.02	6389.66
476.20	6422.43
476.38	6373.28
476.56	6471.58
476.74	6651.80
476.92	6340.51
477.10	6410.73
477.28	6640.10
477.46	6682.23
477.64	6719.68
477.82	6796.92
478.00	6829.68
478.18	7009.90
478.36	7023.95
478.54	7040.33
478.72	6932.67
478.90	7122.25
479.08	7185.44
479.26	7358.64
479.44	7290.77
479.62	7398.43
479.80	7417.16
479.98	7515.46
480.16	7368.01
480.34	7379.71
480.52	7681.64
480.70	7550.57
480.88	7798.66
481.06	7686.32
481.24	7655.89
481.41	7861.86
481.59	7953.14
481.77	7941.44
481.95	7999.95
482.13	7988.25
482.31	8051.44
482.49	8044.42
482.67	8152.09
482.85	8339.33
483.03	8475.08
483.21	8329.97
483.39	8533.59
483.57	8393.16
483.74	8566.36
483.92	8718.50
484.10	8603.81
484.28	8709.13
484.46	9057.87
484.64	9249.80
484.82	8858.93
485.00	9090.64
485.18	9151.49
485.35	9322.35
485.53	9348.10
485.71	9408.95
485.89	9612.58
486.07	9413.63
486.25	9621.94
486.43	9827.91
486.61	9694.50
486.78	9710.88
486.96	10120.48
487.14	10157.92
487.32	10146.22
487.50	10052.60
487.68	10380.28
487.85	10422.41
488.03	10324.10
488.21	10644.76
488.39	10511.35
488.57	10656.46
488.75	10733.70
488.92	10771.15
489.10	10904.56
489.28	10883.49
489.46	11173.72
489.64	10759.44
489.81	11171.38
489.99	11433.52
490.17	11309.47
490.35	11693.32
490.53	11541.18
490.70	11529.48
490.88	11648.85
491.06	11580.97
491.24	11482.67
491.41	11910.99
491.59	12163.76
491.77	11819.71
491.95	12056.10
492.13	12011.63
492.30	12147.38
492.48	12100.57
492.66	12355.69
492.84	12367.39
493.01	12423.56
493.19	12463.35
493.37	12484.42
493.54	12704.43
493.72	12849.54
493.90	12760.60
494.08	12805.07
494.25	12681.02
494.43	13399.57
494.61	13291.90
494.79	13263.82
494.96	13041.46
495.14	13287.22
495.32	13507.23
495.49	13315.31
495.67	13575.11
495.85	13898.10
496.02	13881.72
496.20	14085.34
496.38	13802.14
496.55	14071.30
496.73	14174.28
496.91	14113.43
497.09	14253.86
497.26	14408.34
497.44	14015.13
497.62	14139.18
497.79	14635.37
497.97	14492.60
498.14	14806.23
498.32	14789.85
498.50	14668.14
498.67	14963.04
498.85	15007.52
499.03	15030.92
499.20	14958.36
499.38	14991.13
499.56	15087.09
499.73	15028.58
499.91	15328.17
500.08	15421.79
500.26	15080.07
500.44	15396.04
500.61	15644.14
500.79	15693.29
500.97	15506.05
501.14	15948.41
501.32	15866.49
501.49	15803.30
501.67	15742.44
501.84	15943.73
502.02	15737.76
502.20	16002.24
502.37	16039.69
502.55	15932.03
502.72	16042.03
502.90	16273.74
503.07	16348.64
503.25	16360.34
503.43	16222.25
503.60	16430.56
503.78	16570.99
503.95	16365.03
504.13	16847.18
504.30	16524.18
504.48	16657.59
504.65	16610.78
504.83	17125.70
505.01	16636.53
505.18	16837.81
505.36	17062.51
505.53	17144.42
505.71	16971.22
505.88	17053.14
506.06	17067.19
506.23	17348.05
506.41	17149.11
506.58	17216.98
506.76	17628.92
506.93	17638.28
507.11	17371.46
507.28	17539.97
507.46	17607.85
507.63	17640.62
507.81	17795.09
507.98	17476.78
508.16	17715.51
508.33	17570.40
508.50	17668.70
508.68	17750.62
508.85	18286.61
509.03	18136.81
509.20	18459.81
509.38	18267.88
509.55	18380.23
509.73	18143.83
509.90	18181.28
510.08	18436.40
510.25	18370.86
510.42	18647.05
510.60	18686.84
510.77	18520.66
510.95	18836.63
511.12	18714.92
511.30	18724.29
511.47	18684.50
511.64	18759.39
511.82	18845.99
511.99	19063.66
512.17	19096.43
512.34	19248.57
512.51	19129.20
512.69	18967.70
512.86	19365.59
513.04	19358.57
513.21	19351.55
513.38	19290.70
513.56	19630.07
513.73	19386.66
513.90	19386.66
514.08	19583.26
514.25	19728.38
514.43	19702.63
514.60	19695.61
514.77	19707.31
514.95	19974.13
515.12	19630.07
515.29	19775.19
515.47	19576.24
515.64	20114.56
515.81	19913.28
515.99	20355.64
516.16	20098.18
516.33	20259.68
516.51	20236.27
516.68	20334.57
516.85	20322.87
517.03	20205.84
517.20	20482.03
517.37	20587.35
517.54	20615.44
517.72	20643.52
517.89	20610.76
518.06	20746.51
518.24	20723.10
518.41	20575.65
518.58	20676.29
518.75	20575.65
518.93	21228.66
519.10	20856.51
519.27	21039.08
519.45	21001.63
519.62	20762.89
519.79	20882.26
519.96	21001.63
520.14	21158.44
520.31	21186.53
520.48	21146.74
520.65	20863.54
520.83	21270.79
521.00	21256.75
521.17	21268.45
521.34	21598.46
521.52	21465.05
521.69	21654.64
521.86	21535.27
522.03	21766.98
522.20	21572.72
522.38	21841.88
522.55	21979.97
522.72	21813.79
522.89	21855.92
523.07	22373.18
523.24	22211.68
523.41	22153.17
523.58	21888.69
523.75	22410.63
523.92	22075.93
524.10	22347.44
524.27	22284.24
524.44	22469.14
524.61	22408.29
524.78	22368.50
524.96	22207.00
525.13	22162.53
525.30	22499.57
525.47	22576.81
525.64	22513.61
525.81	22579.15
525.98	22593.19
526.16	22728.94
526.33	22473.82
526.50	22761.71
526.67	22412.97
526.84	22745.33
527.01	22586.17
527.18	22792.14
527.36	23136.20
527.53	23192.37
527.70	23494.30
527.87	23337.48
528.04	23166.62
528.21	22792.14
528.38	23131.51
528.55	23087.04
528.72	23267.27
528.89	23370.25
529.07	23440.47
529.24	23271.95
529.41	23192.37
529.58	23414.72
529.75	23276.63
529.92	23630.05
530.09	23737.71
530.26	23573.88
530.43	23690.90
530.60	23396.00
530.77	23833.68
530.94	23674.52
531.11	23594.94
531.28	23791.55
531.46	23878.15
531.63	23896.87
531.80	23943.68
531.97	23733.03
532.14	23978.79
532.31	23939.00
532.48	23702.61
532.65	24353.27
532.82	24084.11
532.99	23931.98
533.16	24056.03
533.33	24702.01
533.50	24273.70
533.67	24575.62
533.84	24081.77
534.01	24482.00
534.18	24044.32
534.35	24247.95
534.52	24343.91
534.69	24393.06
534.86	24643.50
535.03	24952.45
535.20	24879.89
535.37	24676.27
535.54	24919.68
535.71	24430.51
535.88	24907.98
536.05	24697.33
536.22	24751.17
536.38	25048.41
536.55	25223.95
536.72	25001.60
536.89	24666.91
537.06	24816.70
537.23	24772.23
537.40	25095.22
537.57	24992.24
537.74	25003.94
537.91	25397.15
538.08	25369.07
538.25	25149.06
538.42	25116.29
538.59	25312.89
538.75	25048.41
538.92	25345.66
539.09	25221.61
539.26	25628.87
539.43	25535.24
539.60	25507.16
539.77	25415.88
539.94	25415.88
540.11	25357.36
540.28	25223.95
540.44	25450.99
540.61	25565.67
540.78	25766.96
540.95	25483.75
541.12	25628.87
541.29	25900.37
541.46	25701.42
541.62	25458.01
541.79	25888.67
541.96	25378.43
542.13	25834.83
542.30	25783.34
542.47	25977.61
542.63	26272.51
542.80	26164.85
542.97	25912.07
543.14	26171.87
543.31	26239.75
543.48	26162.51
543.64	26579.12
543.81	26443.37
543.98	26340.39
544.15	26874.03
544.32	26590.83
544.48	26700.83
544.65	26279.54
544.82	26536.99
544.99	26309.96
545.16	26218.68
545.32	26511.25
545.49	26525.29
545.66	26890.41
545.83	26703.17
546.00	26955.95
546.16	26583.80
546.33	26897.44
546.50	26321.66
546.67	26799.13
546.83	26256.13
547.00	26548.70
547.17	26656.36
547.34	26944.25
547.50	27164.26
547.67	26927.86
547.84	27122.13
548.00	27009.78
548.17	27054.25
548.34	26827.22
548.51	27620.66
548.67	27213.41
548.84	27204.05
549.01	27314.05
549.18	26728.92
549.34	27550.45
549.51	26972.33
549.68	27307.03
549.84	26948.93
550.01	27627.68
550.18	27065.96
550.34	27388.95
550.51	27470.87
550.68	27615.98
550.84	27152.55
551.01	27674.49
551.18	27402.99
551.34	27402.99
551.51	27520.02
551.68	27239.15
551.84	27578.53
552.01	27611.30
552.18	27941.32
552.34	27391.29
552.51	27791.52
552.68	27274.26
552.84	27857.06
553.01	27915.57
553.18	27592.58
553.34	28002.17
553.51	27910.89
553.67	28283.03
553.84	28135.58
554.01	27543.42
554.17	27967.06
554.34	27693.22
554.51	27426.40
554.67	27875.78
554.84	28009.19
555.00	28095.79
555.17	28100.47
555.33	28439.85
555.50	27887.48
555.67	28107.49
555.83	27791.52
556.00	28142.60
556.16	28587.30
556.33	28112.17
556.50	28048.98
556.66	28254.95
556.83	28254.95
556.99	28369.63
557.16	28486.66
557.32	28301.76
557.49	28524.11
557.65	27873.44
557.82	28081.75
557.98	28341.55
558.15	28357.93
558.32	28779.23
558.48	28343.89
558.65	28669.22
558.81	28573.26
558.98	28393.04
559.14	28723.05
559.31	28386.02
559.47	28161.33
559.64	28243.24
559.80	28779.23
559.97	28584.96
560.13	28430.49
560.30	28594.32
560.46	28896.25
560.63	28914.98
560.79	28826.04
560.96	28610.71
561.12	28467.94
561.29	28381.34
561.45	28390.70
561.61	28718.37
561.78	28762.84
561.94	28844.76
562.11	28870.51
562.27	28723.05
562.44	28709.01
562.60	28795.61
562.77	28762.84
562.93	28816.68
563.10	29326.91
563.26	29233.29
563.42	29247.33
563.59	28830.72
563.75	29022.64
563.92	28868.17
564.08	28458.57
564.24	28931.36
564.41	28837.74
564.57	28739.44
564.74	28734.76
564.90	28776.89
565.07	28776.89
565.23	29184.14
565.39	29163.08
565.56	29259.04
565.72	29050.73
565.88	28980.51
566.05	29125.63
566.21	29254.36
566.38	29399.47
566.54	28957.11
566.70	29305.85
566.87	29570.33
567.03	29202.86
567.19	29343.30
567.36	29252.02
567.52	28849.44
567.68	29359.68
567.85	28945.41
568.01	28910.30
568.17	29296.49
568.34	28985.19
568.50	29008.60
568.66	29113.92
568.83	29542.24
568.99	29418.19
569.15	29465.00
569.32	29331.59
569.48	29184.14
569.64	29364.36
569.81	29521.18
569.97	29149.03
570.13	29570.33
570.30	29184.14
570.46	29612.46
570.62	29324.57
570.78	29289.46
570.95	28926.68
571.11	29289.46
571.27	29483.73
571.43	29165.42
571.60	29551.60
571.76	29539.90
571.92	28975.83
572.09	29914.39
572.25	29411.17
572.41	29259.04
572.57	29184.14
572.74	29355.00
572.90	29324.57
573.06	29340.96
573.22	29296.49
573.38	29523.52
573.55	29350.32
573.71	29476.71
573.87	29633.52
574.03	29436.92
574.20	29640.54
574.36	29434.58
574.52	29532.88
574.68	29563.31
574.84	29575.01
575.01	29532.88
575.17	29675.65
575.33	29586.71
575.49	29743.53
575.65	29900.34
575.82	29546.92
575.98	29582.03
576.14	29792.68
576.30	29806.72
576.46	29001.58
576.62	29282.44
576.79	29645.23
576.95	29434.58
577.11	29734.17
577.27	29427.56
577.43	29890.98
577.59	29942.47
577.75	29797.36
577.92	29401.81
578.08	29670.97
578.24	29516.50
578.40	29546.92
578.56	29750.55
578.72	30101.63
578.88	29961.20
579.04	30099.29
579.21	29738.85
579.37	29848.85
579.53	29750.55
579.69	29315.21
579.85	29736.51
580.01	29804.38
580.17	29207.55
580.33	29439.26
580.49	29078.82
580.65	30015.03
580.82	29998.65
580.98	29633.52
581.14	29621.82
581.30	29802.04
581.46	29986.94
581.62	29682.67
581.78	29408.83
581.94	29724.80
582.10	29394.79
582.26	29816.08
582.42	29930.77
582.58	30010.35
582.74	30075.88
582.90	30019.71
583.06	29905.02
583.22	29928.43
583.38	29790.34
583.54	29556.28
583.70	29773.95
583.86	29439.26
584.02	29607.78
584.18	29790.34
584.34	29790.34
584.50	29874.60
584.66	29610.12
584.82	29724.80
584.98	30047.80
585.14	29905.02
585.30	29310.53
585.46	29820.77
585.62	29881.62
585.78	30075.88
585.94	29680.33
586.10	29944.81
586.26	29956.52
586.42	30017.37
586.58	30230.36
586.74	29874.60
586.90	30015.03
587.06	29441.60
587.22	29916.73
587.38	29804.38
587.54	29963.54
587.70	29998.65
587.86	30195.25
588.02	29792.68
588.18	30139.08
588.34	29780.98
588.49	29706.08
588.65	29710.76
588.81	29888.64
588.97	29825.45
589.13	29954.18
589.29	30031.41
589.45	29951.84
589.61	30125.04
589.77	30539.31
589.93	30232.70
590.08	29881.62
590.24	30167.16
590.40	30073.54
590.56	29902.68
590.72	30326.32
590.88	30106.31
591.04	30443.35
591.20	30473.78
591.35	30326.32
591.51	30483.14
591.67	30590.80
591.83	30588.46
