SpectraSuite Data File
++++++++++++++++++++++++++++++++++++
Date: Fri Oct 18 13:58:31 GMT-05:00 2013
User: bianchi
Dark Spectrum Present: No
Reference Spectrum Present: No
Number of Sampled Component Spectra: 1
Spectrometers: USB2+H05261
Integration Time (usec): 50000 (USB2+H05261)
Spectra Averaged: 1 (USB2+H05261)
Boxcar Smoothing: 0 (USB2+H05261)
Correct for Electrical Dark: No (USB2+H05261)
Strobe/Lamp Enabled: No (USB2+H05261)
Correct for Detector Non-linearity: No (USB2+H05261)
Correct for Stray Light: No (USB2+H05261)
Number of Pixels in Processed Spectrum: 2048
>>>>>Begin Processed Spectral Data<<<<<
365.73	0.00
365.92	0.00
366.12	0.00
366.32	0.00
366.52	0.00
366.72	0.00
366.91	0.00
367.11	0.00
367.31	0.00
367.51	0.00
367.70	0.00
367.90	0.00
368.10	0.00
368.30	0.00
368.49	0.00
368.69	0.00
368.89	0.00
369.09	0.00
369.28	0.00
369.48	0.00
369.68	0.00
369.87	0.00
370.07	0.00
370.27	0.00
370.47	0.00
370.66	11.70
370.86	184.90
371.06	222.35
371.25	173.20
371.45	100.64
371.65	117.03
371.84	126.39
372.04	121.71
372.24	245.76
372.44	180.22
372.63	182.56
372.83	175.54
373.03	93.62
373.22	191.92
373.42	227.03
373.62	189.58
373.81	222.35
374.01	201.29
374.21	205.97
374.40	224.69
374.60	238.73
374.79	238.73
374.99	203.63
375.19	252.78
375.38	217.67
375.58	276.18
375.78	311.29
375.97	259.80
376.17	205.97
376.37	259.80
376.56	269.16
376.76	266.82
376.95	224.69
377.15	236.39
377.35	259.80
377.54	332.36
377.74	299.59
377.93	259.80
378.13	217.67
378.33	287.89
378.52	257.46
378.72	276.18
378.91	285.55
379.11	294.91
379.31	280.86
379.50	271.50
379.70	322.99
379.89	266.82
380.09	344.06
380.28	278.52
380.48	271.50
380.68	318.31
380.87	283.20
381.07	255.12
381.26	292.57
381.46	341.72
381.65	381.51
381.85	344.06
382.04	358.10
382.24	346.40
382.43	332.36
382.63	280.86
382.83	348.74
383.02	285.55
383.22	400.23
383.41	320.65
383.61	404.91
383.80	292.57
384.00	381.51
384.19	414.27
384.39	358.10
384.58	369.80
384.78	320.65
384.97	322.99
385.17	379.17
385.36	360.44
385.56	395.55
385.75	325.33
385.95	320.65
386.14	381.51
386.34	430.66
386.53	433.00
386.72	320.65
386.92	383.85
387.11	486.83
387.31	472.79
387.50	451.72
387.70	458.74
387.89	435.34
388.09	414.27
388.28	409.59
388.48	346.40
388.67	447.04
388.86	383.85
389.06	400.23
389.25	444.70
389.45	486.83
389.64	411.93
389.84	388.53
390.03	475.13
390.22	533.64
390.42	416.62
390.61	404.91
390.81	500.87
391.00	456.40
391.19	526.62
391.39	437.68
391.58	507.90
391.78	353.42
391.97	582.79
392.16	472.79
392.36	507.90
392.55	521.94
392.75	582.79
392.94	503.22
393.13	528.96
393.33	559.39
393.52	559.39
393.71	526.62
393.91	571.09
394.10	552.37
394.29	484.49
394.49	547.69
394.68	489.17
394.88	512.58
395.07	585.13
395.26	617.90
395.46	603.86
395.65	674.07
395.84	599.18
396.04	655.35
396.23	631.94
396.42	627.26
396.62	582.79
396.81	653.01
397.00	624.92
397.19	655.35
397.39	676.41
397.58	634.29
397.77	643.65
397.97	674.07
398.16	695.14
398.35	643.65
398.55	636.63
398.74	704.50
398.93	793.44
399.12	718.54
399.32	692.80
399.51	678.76
399.70	692.80
399.90	779.40
400.09	765.36
400.28	706.84
400.47	741.95
400.67	706.84
400.86	791.10
401.05	826.21
401.24	772.38
401.44	755.99
401.63	847.27
401.82	798.12
402.01	772.38
402.21	833.23
402.40	821.53
402.59	791.10
402.78	821.53
402.97	896.43
403.17	875.36
403.36	856.64
403.55	861.32
403.74	791.10
403.93	891.74
404.13	938.55
404.32	905.79
404.51	870.68
404.70	873.02
404.89	898.77
405.09	896.43
405.28	954.94
405.47	954.94
405.66	1004.09
405.85	866.00
406.05	905.79
406.24	971.32
406.43	901.11
406.62	978.34
406.81	1036.86
407.00	1013.45
407.20	954.94
407.39	961.96
407.58	1053.24
407.77	1046.22
407.96	1146.86
408.15	1184.31
408.34	1100.05
408.54	1067.28
408.73	1088.35
408.92	1100.05
409.11	1076.65
409.30	1132.82
409.49	1097.71
409.68	1118.78
409.87	1170.27
410.07	1123.46
410.26	1130.48
410.45	1104.73
410.64	1205.38
410.83	1071.97
411.02	1219.42
411.21	1254.53
411.40	1205.38
411.59	1172.61
411.78	1217.08
411.98	1308.36
412.17	1263.89
412.36	1224.10
412.55	1338.79
412.74	1336.45
412.93	1369.21
413.12	1315.38
413.31	1327.08
413.50	1320.06
413.69	1331.76
413.88	1387.94
414.07	1380.92
414.26	1341.13
414.45	1371.55
414.64	1425.39
414.83	1460.49
415.02	1458.15
415.22	1540.07
415.41	1509.65
415.60	1509.65
415.79	1533.05
415.98	1617.31
416.17	1570.50
416.36	1530.71
416.55	1586.88
416.74	1696.89
416.93	1647.74
417.12	1593.90
417.31	1708.59
417.50	1657.10
417.69	1746.04
417.88	1832.64
418.07	1675.82
418.26	1694.55
418.45	1675.82
418.64	1720.29
418.83	1783.49
419.02	1647.74
419.21	1757.74
419.39	1825.62
419.58	1732.00
419.77	1736.68
419.96	1778.81
420.15	1921.58
420.34	1710.93
420.53	1732.00
420.72	1853.70
420.91	1933.28
421.10	1895.83
421.29	1987.11
421.48	1795.19
421.67	1968.39
421.86	1928.60
422.05	1944.99
422.24	1989.46
422.43	1891.15
422.61	1909.88
422.80	1914.56
422.99	2003.50
423.18	2111.16
423.37	2113.50
423.56	1942.64
423.75	2069.03
423.94	1898.17
424.13	1823.28
424.32	1954.35
424.50	2099.46
424.69	2104.14
424.88	2033.93
425.07	2015.20
425.26	1982.43
425.45	1937.96
425.64	1973.07
425.83	2038.61
426.01	2136.91
426.20	2054.99
426.39	2083.08
426.58	1947.33
426.77	1968.39
426.96	2106.48
427.15	2040.95
427.33	2083.08
427.52	2136.91
427.71	2073.71
427.90	2083.08
428.09	2094.78
428.28	2101.80
428.46	2090.10
428.65	2204.78
428.84	2188.40
429.03	2258.62
429.22	2122.87
429.40	2146.27
429.59	2296.07
429.78	2193.08
429.97	2108.82
430.16	2314.79
430.34	2239.89
430.53	2246.91
430.72	2197.76
430.91	2218.83
431.10	2249.25
431.28	2352.24
431.47	2438.84
431.66	2326.49
431.85	2380.32
432.03	2473.95
432.22	2546.50
432.41	2321.81
432.60	2385.01
432.79	2464.58
432.97	2363.94
433.16	2354.58
433.35	2342.88
433.54	2457.56
433.72	2471.61
433.91	2448.20
434.10	2392.03
434.28	2499.69
434.47	2476.29
434.66	2572.25
434.85	2537.14
435.03	2551.18
435.22	2527.78
435.41	2691.62
435.59	2499.69
435.78	2616.72
435.97	2656.51
436.16	2621.40
436.34	2654.17
436.53	2710.34
436.72	2736.09
436.90	2551.18
437.09	2761.83
437.28	2661.19
437.46	2600.34
437.65	2700.98
437.84	2628.42
438.02	2670.55
438.21	2820.35
438.40	2710.34
438.58	2792.26
438.77	2869.50
438.96	2785.24
439.14	2813.32
439.33	2864.82
439.52	3035.67
439.70	2906.95
439.89	2904.60
440.08	3087.17
440.26	2972.48
440.45	3066.10
440.63	3042.70
440.82	3012.27
441.01	3012.27
441.19	3115.25
441.38	3119.93
441.57	3183.13
441.75	3192.49
441.94	3316.54
442.12	3234.62
442.31	3241.64
442.50	3220.58
442.68	3222.92
442.87	3386.76
443.05	3356.33
443.24	3361.01
443.43	3363.35
443.61	3199.51
443.80	3304.84
443.98	3297.81
444.17	3169.09
444.35	3363.35
444.54	3365.69
444.73	3316.54
444.91	3363.35
445.10	3323.56
445.28	3272.07
445.47	3466.33
445.65	3302.50
445.84	3361.01
446.02	3449.95
446.21	3372.71
446.39	3440.59
446.58	3515.48
446.77	3489.74
446.95	3276.75
447.14	3356.33
447.32	3543.57
447.51	3363.35
447.69	3361.01
447.88	3471.01
448.06	3478.04
448.25	3508.46
448.43	3527.19
448.62	3407.82
448.80	3433.57
448.99	3492.08
449.17	3480.38
449.36	3541.23
449.54	3681.66
449.73	3569.32
449.91	3772.94
450.10	3646.55
450.28	3700.39
450.46	3691.02
450.65	3726.13
450.83	3660.60
451.02	3852.52
451.20	3726.13
451.39	3665.28
451.57	3735.50
451.76	3555.27
451.94	3740.18
452.13	3789.33
452.31	3880.61
452.49	3803.37
452.68	3754.22
452.86	3826.78
453.05	3962.53
453.23	3896.99
453.42	3988.27
453.60	3808.05
453.78	3850.18
453.97	3831.46
454.15	3812.73
454.34	3864.22
454.52	3850.18
454.70	3962.53
454.89	3988.27
455.07	3960.19
455.26	4060.83
455.44	3983.59
455.62	3967.21
455.81	3957.85
455.99	4126.36
456.17	4109.98
456.36	4203.60
456.54	4205.94
456.73	4147.43
456.91	4229.35
457.09	4180.20
457.28	4294.88
457.46	4212.96
457.64	4287.86
457.83	4329.99
458.01	4299.56
458.19	4311.27
458.38	4147.43
458.56	4278.50
458.74	4381.48
458.93	4447.02
459.11	4346.37
459.29	4168.49
459.48	4428.29
459.66	4358.08
459.84	4423.61
460.03	4423.61
460.21	4416.59
460.39	4484.47
460.57	4470.42
460.76	4526.60
460.94	4526.60
461.12	4514.89
461.31	4744.27
461.49	4542.98
461.67	4379.14
461.85	4795.76
462.04	4692.77
462.22	4650.64
462.40	4613.20
462.59	4648.30
462.77	4685.75
462.95	4669.37
463.13	4631.92
463.32	4795.76
463.50	4748.95
463.68	4896.40
463.86	4861.29
464.05	4674.05
464.23	4748.95
464.41	4741.93
464.59	4760.65
464.78	4964.28
464.96	4943.21
465.14	4805.12
465.32	4786.40
465.50	4819.16
465.69	4868.31
465.87	4868.31
466.05	4933.85
466.23	4767.67
466.41	5055.56
466.60	5074.28
466.78	5071.94
466.96	4922.15
467.14	4973.64
467.32	4957.25
467.51	5198.33
467.69	5153.86
467.87	5046.20
468.05	5074.28
468.23	5057.90
468.41	5067.26
468.60	4999.38
468.78	5284.93
468.96	5107.05
469.14	5146.84
469.32	5259.18
469.50	5034.49
469.69	5313.02
469.87	5310.68
470.05	5387.91
470.23	5364.51
470.41	5376.21
470.59	5387.91
470.77	5364.51
470.95	5359.83
471.14	5476.85
471.32	5224.08
471.50	5584.52
471.68	5446.43
471.86	5652.39
472.04	5586.86
472.22	5633.67
472.40	5563.45
472.58	5708.57
472.77	5703.89
472.95	5731.97
473.13	5947.30
473.31	5692.18
473.49	5476.85
473.67	5675.80
473.85	5804.53
474.03	5813.89
474.21	5914.53
474.39	5956.66
474.57	5942.62
474.75	5919.21
474.93	6071.35
475.12	6038.58
475.30	6214.12
475.48	6071.35
475.66	6057.31
475.84	6265.61
476.02	6296.04
476.20	6054.97
476.38	6272.64
476.56	6471.58
476.74	6382.64
476.92	6509.03
477.10	6399.02
477.28	6567.54
477.46	6534.78
477.64	6520.73
477.82	6782.87
478.00	6918.62
478.18	6944.37
478.36	6726.70
478.54	7007.56
478.72	6918.62
478.90	6986.50
479.08	7016.93
479.26	7108.21
479.44	6986.50
479.62	7424.18
479.80	7307.15
479.98	7030.97
480.16	7410.14
480.34	7426.52
480.52	7543.55
480.70	7478.01
480.88	7396.09
481.06	7712.07
481.24	7557.59
481.41	7728.45
481.59	7955.48
481.77	7810.37
481.95	8037.40
482.13	7868.88
482.31	7789.30
482.49	7936.76
482.67	8095.91
482.85	8203.58
483.03	8262.09
483.21	8205.92
483.39	8381.46
483.57	8496.14
483.74	8339.33
483.92	8526.57
484.10	8578.06
484.28	8674.03
484.46	8912.76
484.64	8968.93
484.82	8798.07
485.00	8781.69
485.18	9191.28
485.35	9228.73
485.53	9188.94
485.71	9320.01
485.89	9479.17
486.07	9408.95
486.25	9280.22
486.43	9341.08
486.61	9467.47
486.78	9476.83
486.96	9708.54
487.14	9937.91
487.32	9898.13
487.50	10005.79
487.68	9994.09
487.85	10085.37
488.03	10434.11
488.21	10640.08
488.39	10424.75
488.57	10455.17
488.75	10565.18
488.92	10530.07
489.10	10619.01
489.28	10764.12
489.46	10871.79
489.64	10949.03
489.81	11009.88
489.99	11080.10
490.17	11255.64
490.35	11215.85
490.53	11309.47
490.70	11508.41
490.88	11365.64
491.06	11595.01
491.24	11531.82
491.41	11735.45
491.59	11756.51
491.77	11655.87
491.95	11964.82
492.13	12058.44
492.30	12039.72
492.48	12135.68
492.66	12023.33
492.84	11796.30
493.01	12325.26
493.19	12236.32
493.37	12453.99
493.54	12517.18
493.72	12666.98
493.90	12575.70
494.08	12676.34
494.25	13029.76
494.43	13146.79
494.61	13092.96
494.79	13224.03
494.96	13015.72
495.14	12929.12
495.32	13425.31
495.49	13273.18
495.67	13226.37
495.85	13490.85
496.02	13614.90
496.20	13811.50
496.38	13701.50
496.55	13556.38
496.73	13989.38
496.91	13874.70
497.09	14068.96
497.26	13961.30
497.44	13923.85
497.62	14139.18
497.79	14237.48
497.97	14274.93
498.14	14441.11
498.32	14501.96
498.50	14415.36
498.67	14696.22
498.85	14663.46
499.03	14700.90
499.20	14759.42
499.38	14595.58
499.56	14862.40
499.73	15021.56
499.91	14867.08
500.08	15281.36
500.26	14920.92
500.44	14904.53
500.61	15346.89
500.79	15300.08
500.97	15309.44
501.14	15733.08
501.32	15632.44
501.49	15515.41
501.67	15484.98
501.84	15864.15
502.02	15445.20
502.20	15548.18
502.37	15833.72
502.55	15824.36
502.72	16049.05
502.90	15976.50
503.07	15782.23
503.25	15903.94
503.43	15847.77
503.60	16077.14
503.78	16367.37
503.95	16283.11
504.13	16439.92
504.30	16266.72
504.48	16245.66
504.65	16233.96
504.83	16767.60
505.01	16491.41
505.18	16552.27
505.36	16776.96
505.53	16643.55
505.71	16741.85
505.88	16643.55
506.06	16823.77
506.23	16879.94
506.41	17018.04
506.58	17074.21
506.76	17233.36
506.93	17322.30
507.11	16901.01
507.28	17249.75
507.46	16982.93
507.63	16989.95
507.81	17731.90
507.98	17453.37
508.16	17689.77
508.33	17348.05
508.50	17427.63
508.68	17912.12
508.85	17610.19
509.03	17792.75
509.20	17757.64
509.38	18106.38
509.55	18164.90
509.73	18080.64
509.90	18190.64
510.08	18162.56
510.25	18134.47
510.42	18188.30
510.60	18321.71
510.77	18043.19
510.95	18527.68
511.12	18492.57
511.30	18061.91
511.47	18380.23
511.64	18546.40
511.82	18850.67
511.99	18682.16
512.17	18750.03
512.34	18771.10
512.51	18618.96
512.69	18785.14
512.86	18745.35
513.04	18892.80
513.21	19119.84
513.38	19094.09
513.56	19278.99
513.73	18806.20
513.90	19033.24
514.08	19183.03
514.25	19276.65
514.43	19449.85
514.60	19475.60
514.77	19276.65
514.95	19733.06
515.12	19278.99
515.29	19257.93
515.47	19719.01
515.64	19751.78
515.81	19669.86
515.99	19903.92
516.16	20107.54
516.33	19906.26
516.51	20058.39
516.68	19583.26
516.85	19875.83
517.03	20039.67
517.20	20255.00
517.37	20086.48
517.54	20168.40
517.72	20144.99
517.89	20374.36
518.06	20292.44
518.24	20615.44
518.41	20336.91
518.58	20032.65
518.75	20449.26
518.93	20781.62
519.10	20435.22
519.27	20552.24
519.45	20549.90
519.62	20570.97
519.79	20353.30
519.96	20514.80
520.14	21104.61
520.31	20594.37
520.48	20910.35
520.65	20697.36
520.83	20891.62
521.00	21146.74
521.17	20987.58
521.34	21081.21
521.52	21207.59
521.69	21390.16
521.86	21135.04
522.03	21436.97
522.20	21333.98
522.38	21525.91
522.55	21387.82
522.72	21018.01
522.89	21635.91
523.07	21755.28
523.24	21565.70
523.41	21928.48
523.58	21514.20
523.75	21640.59
523.92	21539.95
524.10	21539.95
524.27	21862.94
524.44	21752.94
524.61	21919.12
524.78	21869.97
524.96	22085.30
525.13	21619.53
525.30	21937.84
525.47	22232.75
525.64	22188.28
525.81	22150.83
525.98	22125.08
526.16	22232.75
526.33	22569.79
526.50	22380.20
526.67	22424.67
526.84	22216.36
527.01	22345.09
527.18	22309.99
527.36	22869.37
527.53	22656.39
527.70	22831.93
527.87	22890.44
528.04	22700.86
528.21	23019.17
528.38	22965.34
528.55	23082.36
528.72	23047.26
528.89	23098.75
529.07	23000.44
529.24	22785.12
529.41	23384.29
529.58	23112.79
529.75	23328.12
529.92	23063.64
530.09	22897.46
530.26	23377.27
530.43	23407.70
530.60	23119.81
530.77	23108.11
530.94	23267.27
531.11	23166.62
531.28	23445.15
531.46	23309.40
531.63	23183.01
531.80	23637.07
531.97	23761.12
532.14	23566.85
532.31	23218.11
532.48	23466.21
532.65	24128.58
532.82	23604.30
532.99	24084.11
533.16	23421.74
533.33	23730.69
533.50	23929.64
533.67	23962.40
533.84	23569.19
534.01	24070.07
534.18	23545.79
534.35	24060.71
534.52	23789.20
534.69	24311.14
534.86	24236.25
535.03	23957.72
535.20	24224.54
535.37	24205.82
535.54	24315.83
535.71	24318.17
535.88	24135.60
536.05	24332.21
536.22	24606.05
536.38	24451.58
536.55	24601.37
536.72	24451.58
536.89	24259.65
537.06	24086.45
537.23	24788.61
537.40	24489.03
537.57	24725.42
537.74	24629.46
537.91	24652.86
538.08	24556.90
538.25	24184.76
538.42	24945.43
538.59	24807.34
538.75	24474.98
538.92	24126.24
539.09	24575.62
539.26	24821.38
539.43	24893.94
539.60	25184.16
539.77	24617.75
539.94	25359.70
540.11	24891.60
540.28	25001.60
540.44	25277.79
540.61	24748.82
540.78	24746.48
540.95	25015.65
541.12	25167.78
541.29	25085.86
541.46	25331.62
541.62	25238.00
541.79	25666.31
541.96	24945.43
542.13	25219.27
542.30	25338.64
542.47	25259.06
542.63	25820.79
542.80	25640.57
542.97	26029.10
543.14	25460.35
543.31	25551.63
543.48	25476.73
543.64	25795.04
543.81	25961.22
543.98	26012.71
544.15	25881.64
544.32	26106.34
544.48	26120.38
544.65	26057.18
544.82	26050.16
544.99	25511.84
545.16	25722.49
545.32	26256.13
545.49	26476.14
545.66	26558.06
545.83	26387.20
546.00	26490.18
546.16	26279.54
546.33	26391.88
546.50	25986.97
546.67	26396.56
546.83	25954.20
547.00	26010.37
547.17	26448.05
547.34	26771.05
547.50	26445.71
547.67	26600.19
547.84	26544.02
548.00	26419.97
548.17	26487.84
548.34	26363.79
548.51	26876.37
548.67	26672.74
548.84	26515.93
549.01	26635.30
549.18	26462.10
549.34	26668.06
549.51	26469.12
549.68	26888.07
549.84	26806.16
550.01	26794.45
550.18	26766.37
550.34	26962.97
550.51	27049.57
550.68	27087.02
550.84	26616.57
551.01	27105.74
551.18	26536.99
551.34	26745.30
551.51	27204.05
551.68	27101.06
551.84	27030.85
552.01	27098.72
552.18	27250.86
552.34	26871.69
552.51	27295.33
552.68	27674.49
552.84	27372.57
553.01	27037.87
553.18	27419.38
553.34	27630.02
553.51	27182.98
553.67	27421.72
553.84	27426.40
554.01	27627.68
554.17	27452.14
554.34	27737.69
554.51	27513.00
554.67	27428.74
554.84	27611.30
555.00	27615.98
555.17	27454.48
555.33	27508.32
555.50	27447.46
555.67	27632.36
555.83	27714.28
556.00	27721.30
556.16	27428.74
556.33	27718.96
556.50	27625.34
556.66	27473.21
556.83	27548.11
556.99	28149.62
557.16	28203.46
557.32	27960.04
557.49	28063.02
557.65	27571.51
557.82	27786.84
557.98	27627.68
558.15	27843.01
558.32	27868.76
558.48	28077.07
558.65	27910.89
558.81	27985.79
558.98	27796.20
559.14	28215.16
559.31	27828.97
559.47	28091.11
559.64	27646.41
559.80	27805.56
559.97	28362.61
560.13	28105.15
560.30	28238.56
560.46	28156.64
560.63	28229.20
560.79	28189.41
560.96	28561.56
561.12	28063.02
561.29	28102.81
561.45	27953.02
561.61	28535.81
561.78	28210.48
561.94	28627.09
562.11	28606.03
562.27	28505.38
562.44	28297.08
562.60	28166.01
562.77	28056.00
562.93	28191.75
563.10	28320.48
563.26	28322.82
563.42	28591.98
563.59	28500.70
563.75	28435.17
563.92	28514.75
564.08	28168.35
564.24	28243.24
564.41	28341.55
564.57	28308.78
564.74	28697.31
564.90	28496.02
565.07	28477.30
565.23	28421.13
565.39	28701.99
565.56	29233.29
565.72	28535.81
565.88	28451.55
566.05	28456.23
566.21	28709.01
566.38	28685.61
566.54	28325.16
566.70	28910.30
566.87	28945.41
567.03	28538.15
567.19	29144.35
567.36	28723.05
567.52	28374.31
567.68	28772.21
567.85	28362.61
568.01	28828.38
568.17	28568.58
568.34	28950.09
568.50	28725.39
568.66	28886.89
568.83	28734.76
568.99	28922.00
569.15	28964.13
569.32	28580.28
569.48	28329.84
569.64	29032.00
569.81	28694.97
569.97	28989.88
570.13	28931.36
570.30	28697.31
570.46	28959.45
570.62	28737.10
570.78	28521.77
570.95	28549.85
571.11	28662.20
571.27	28531.13
571.43	28774.55
571.60	28823.70
571.76	28849.44
571.92	28804.97
572.09	29165.42
572.25	28957.11
572.41	28669.22
572.57	29233.29
572.74	29252.02
572.90	28809.65
573.06	29053.07
573.22	28936.04
573.38	28886.89
573.55	28638.80
573.71	29074.13
573.87	29317.55
574.03	29024.98
574.20	28769.86
574.36	28978.17
574.52	28783.91
574.68	29022.64
574.84	28570.92
575.01	28849.44
575.17	29191.16
575.33	28978.17
575.49	28994.56
575.65	28996.90
575.82	29549.26
575.98	29081.16
576.14	29371.38
576.30	29078.82
576.46	28725.39
576.62	28807.31
576.79	29090.52
576.95	29109.24
577.11	29186.48
577.27	29497.77
577.43	29270.74
577.59	29516.50
577.75	28931.36
577.92	28641.14
578.08	28886.89
578.24	28734.76
578.40	29076.48
578.56	29331.59
578.72	29216.91
578.88	29291.80
579.04	29188.82
579.21	28971.15
579.37	28891.57
579.53	29226.27
579.69	28959.45
579.85	29060.09
580.01	29200.52
580.17	28973.49
580.33	28875.19
580.49	29397.13
580.65	29331.59
580.82	29394.79
580.98	29385.43
581.14	29455.64
581.30	29528.20
581.46	28840.08
581.62	29064.77
581.78	29233.29
581.94	29214.57
582.10	28779.23
582.26	29008.60
582.42	29076.48
582.58	29303.51
582.74	29436.92
582.90	29418.19
583.06	29142.01
583.22	28760.50
583.38	29350.32
583.54	29125.63
583.70	29064.77
583.86	29013.28
584.02	29315.21
584.18	29233.29
584.34	29689.70
584.50	29518.84
584.66	29195.84
584.82	28577.94
584.98	29294.14
585.14	29488.41
585.30	29322.23
585.46	29158.39
585.62	28989.88
585.78	29046.05
585.94	29013.28
586.10	29237.97
586.26	29659.27
586.42	29507.13
586.58	29446.28
586.74	29165.42
586.90	29097.54
587.06	28966.47
587.22	29570.33
587.38	28996.90
587.54	29596.07
587.70	29546.92
587.86	29326.91
588.02	29631.18
588.18	29427.56
588.34	29497.77
588.49	29333.93
588.65	28973.49
588.81	29347.98
588.97	29685.01
589.13	29383.09
589.29	29039.03
589.45	29034.35
589.61	29769.27
589.77	29727.14
589.93	29780.98
590.08	29717.78
590.24	29493.09
590.40	29944.81
590.56	29542.24
590.72	29383.09
590.88	29336.27
591.04	29511.81
591.20	29617.14
591.35	29624.16
591.51	29848.85
591.67	29783.32
591.83	30052.48
591.99	29855.87
