SpectraSuite Data File
++++++++++++++++++++++++++++++++++++
Date: Fri Oct 18 13:58:36 GMT-05:00 2013
User: bianchi
Dark Spectrum Present: No
Reference Spectrum Present: No
Number of Sampled Component Spectra: 1
Spectrometers: USB2+H05261
Integration Time (usec): 50000 (USB2+H05261)
Spectra Averaged: 1 (USB2+H05261)
Boxcar Smoothing: 0 (USB2+H05261)
Correct for Electrical Dark: No (USB2+H05261)
Strobe/Lamp Enabled: No (USB2+H05261)
Correct for Detector Non-linearity: No (USB2+H05261)
Correct for Stray Light: No (USB2+H05261)
Number of Pixels in Processed Spectrum: 2048
>>>>>Begin Processed Spectral Data<<<<<
365.73	0.00
365.92	0.00
366.12	0.00
366.32	0.00
366.52	0.00
366.72	0.00
366.91	0.00
367.11	0.00
367.31	0.00
367.51	0.00
367.70	0.00
367.90	0.00
368.10	0.00
368.30	0.00
368.49	0.00
368.69	0.00
368.89	0.00
369.09	0.00
369.28	0.00
369.48	0.00
369.68	0.00
369.87	0.00
370.07	0.00
370.27	0.00
370.47	0.00
370.66	14.04
370.86	159.16
371.06	194.26
371.25	138.09
371.45	161.50
371.65	166.18
371.84	175.54
372.04	187.24
372.24	107.66
372.44	191.92
372.63	196.60
372.83	196.60
373.03	198.95
373.22	173.20
373.42	208.31
373.62	224.69
373.81	248.10
374.01	292.57
374.21	262.14
374.40	210.65
374.60	262.14
374.79	297.25
374.99	306.61
375.19	154.48
375.38	241.08
375.58	271.50
375.78	252.78
375.97	264.48
376.17	330.02
376.37	334.70
376.56	313.63
376.76	269.16
376.95	346.40
377.15	264.48
377.35	278.52
377.54	238.73
377.74	299.59
377.93	257.46
378.13	292.57
378.33	259.80
378.52	276.18
378.72	358.10
378.91	306.61
379.11	248.10
379.31	304.27
379.50	262.14
379.70	222.35
379.89	362.78
380.09	220.01
380.28	304.27
380.48	294.91
380.68	227.03
380.87	248.10
381.07	344.06
381.26	367.46
381.46	306.61
381.65	320.65
381.85	358.10
382.04	379.17
382.24	299.59
382.43	287.89
382.63	458.74
382.83	344.06
383.02	339.38
383.22	341.72
383.41	390.87
383.61	332.36
383.80	318.31
384.00	348.74
384.19	320.65
384.39	341.72
384.58	374.49
384.78	407.25
384.97	355.76
385.17	369.80
385.36	337.04
385.56	440.02
385.75	425.98
385.95	337.04
386.14	374.49
386.34	381.51
386.53	339.38
386.72	418.96
386.92	320.65
387.11	386.19
387.31	372.15
387.50	435.34
387.70	395.55
387.89	369.80
388.09	440.02
388.28	442.36
388.48	451.72
388.67	482.15
388.86	411.93
389.06	463.43
389.25	521.94
389.45	390.87
389.64	458.74
389.84	489.17
390.03	461.09
390.22	456.40
390.42	442.36
390.61	433.00
390.81	496.19
391.00	491.51
391.19	479.81
391.39	521.94
391.58	524.28
391.78	437.68
391.97	545.34
392.16	500.87
392.36	575.77
392.55	533.64
392.75	573.43
392.94	531.30
393.13	493.85
393.33	528.96
393.52	622.58
393.71	531.30
393.91	582.79
394.10	629.60
394.29	587.47
394.49	538.32
394.68	472.79
394.88	585.13
395.07	636.63
395.26	491.51
395.46	622.58
395.65	645.99
395.84	561.73
396.04	671.73
396.23	580.45
396.42	573.43
396.62	683.44
396.81	678.76
397.00	730.25
397.19	662.37
397.39	669.39
397.58	704.50
397.77	662.37
397.97	725.57
398.16	627.26
398.35	772.38
398.55	753.65
398.74	788.76
398.93	746.63
399.12	699.82
399.32	734.93
399.51	727.91
399.70	772.38
399.90	758.33
400.09	720.88
400.28	774.72
400.47	713.86
400.67	760.67
400.86	746.63
401.05	770.04
401.24	723.23
401.44	844.93
401.63	725.57
401.82	772.38
402.01	835.57
402.21	800.46
402.40	793.44
402.59	866.00
402.78	798.12
402.97	901.11
403.17	866.00
403.36	882.38
403.55	800.46
403.74	809.83
403.93	880.04
404.13	985.37
404.32	997.07
404.51	915.15
404.70	973.66
404.89	999.41
405.09	957.28
405.28	891.74
405.47	968.98
405.66	952.60
405.85	1036.86
406.05	983.02
406.24	994.73
406.43	1020.47
406.62	1011.11
406.81	1074.31
407.00	952.60
407.20	1001.75
407.39	1043.88
407.58	987.71
407.77	1039.20
407.96	1090.69
408.15	1053.24
408.34	1083.67
408.54	1093.03
408.73	1090.69
408.92	1146.86
409.11	1083.67
409.30	1062.60
409.49	1060.26
409.68	1160.91
409.87	1125.80
410.07	1130.48
410.26	1181.97
410.45	1158.57
410.64	1165.59
410.83	1231.12
411.02	1156.22
411.21	1217.08
411.40	1245.16
411.59	1310.70
411.78	1191.33
411.98	1233.46
412.17	1327.08
412.36	1331.76
412.55	1329.42
412.74	1338.79
412.93	1397.30
413.12	1383.26
413.31	1409.00
413.50	1266.23
413.69	1373.89
413.88	1537.73
414.07	1387.94
414.26	1432.41
414.45	1397.30
414.64	1434.75
414.83	1530.71
415.02	1495.60
415.22	1504.96
415.41	1486.24
415.60	1523.69
415.79	1486.24
415.98	1509.65
416.17	1633.69
416.36	1577.52
416.55	1619.65
416.74	1614.97
416.93	1668.80
417.12	1547.09
417.31	1792.85
417.50	1643.06
417.69	1666.46
417.88	1781.15
418.07	1696.89
418.26	1753.06
418.45	1722.63
418.64	1832.64
418.83	1811.57
419.02	1884.13
419.21	1858.39
419.39	1827.96
419.58	1893.49
419.77	1827.96
419.96	1741.36
420.15	1849.02
420.34	1902.86
420.53	1891.15
420.72	1895.83
420.91	1982.43
421.10	2001.16
421.29	1982.43
421.48	1856.04
421.67	1844.34
421.86	1863.07
422.05	2003.50
422.24	1966.05
422.43	2015.20
422.61	1907.54
422.80	2022.22
422.99	1926.26
423.18	1982.43
423.37	2076.06
423.56	2115.84
423.75	2045.63
423.94	1895.83
424.13	1750.72
424.32	1907.54
424.50	2001.16
424.69	2031.58
424.88	2083.08
425.07	2008.18
425.26	1907.54
425.45	2078.40
425.64	2057.33
425.83	2062.01
426.01	2076.06
426.20	2050.31
426.39	2078.40
426.58	2148.61
426.77	2115.84
426.96	2115.84
427.15	2059.67
427.33	2214.15
427.52	2071.37
427.71	2008.18
427.90	2146.27
428.09	2155.63
428.28	2214.15
428.46	2286.70
428.65	2286.70
428.84	2319.47
429.03	2228.19
429.22	2200.10
429.40	2202.44
429.59	2160.31
429.78	2165.00
429.97	2165.00
430.16	2260.96
430.34	2244.57
430.53	2356.92
430.72	2256.28
430.91	2307.77
431.10	2253.94
431.28	2363.94
431.47	2340.54
431.66	2380.32
431.85	2438.84
432.03	2373.30
432.22	2441.18
432.41	2459.90
432.60	2436.50
432.79	2333.51
432.97	2473.95
433.16	2480.97
433.35	2438.84
433.54	2509.05
433.72	2485.65
433.91	2560.55
434.10	2473.95
434.28	2502.03
434.47	2485.65
434.66	2616.72
434.85	2532.46
435.03	2693.96
435.22	2649.49
435.41	2633.10
435.59	2614.38
435.78	2644.81
435.97	2700.98
436.16	2708.00
436.34	2579.27
436.53	2626.08
436.72	2801.62
436.90	2651.83
437.09	2801.62
437.28	2710.34
437.46	2595.65
437.65	2750.13
437.84	2832.05
438.02	2857.79
438.21	2895.24
438.40	2832.05
438.58	2897.58
438.77	2967.80
438.96	2899.92
439.14	2986.52
439.33	2981.84
439.52	2937.37
439.70	2988.86
439.89	3002.91
440.08	2979.50
440.26	2923.33
440.45	3082.49
440.63	3070.78
440.82	3096.53
441.01	3082.49
441.19	3145.68
441.38	3136.32
441.57	3211.22
441.75	3300.16
441.94	3272.07
442.12	3243.98
442.31	3316.54
442.50	3215.90
442.68	3232.28
442.87	3192.49
443.05	3194.83
443.24	3400.80
443.43	3389.10
443.61	3361.01
443.80	3466.33
443.98	3428.88
444.17	3211.22
444.35	3438.25
444.54	3466.33
444.73	3375.05
444.91	3309.52
445.10	3482.72
445.28	3485.06
445.47	3412.50
445.65	3407.82
445.84	3452.29
446.02	3571.66
446.21	3459.31
446.39	3368.03
446.58	3585.70
446.77	3447.61
446.95	3435.91
447.14	3459.31
447.32	3566.98
447.51	3527.19
447.69	3485.06
447.88	3487.40
448.06	3463.99
448.25	3569.32
448.43	3559.95
448.62	3529.53
448.80	3506.12
448.99	3536.55
449.17	3524.85
449.36	3555.27
449.54	3702.73
449.73	3709.75
449.91	3854.86
450.10	3665.28
450.28	3702.73
450.46	3838.48
450.65	3665.28
450.83	3623.15
451.02	3684.00
451.20	3777.62
451.39	3719.11
451.57	3805.71
451.76	3672.30
451.94	3922.74
452.13	3953.16
452.31	3847.84
452.49	3873.59
452.68	3847.84
452.86	3840.82
453.05	3983.59
453.23	3733.15
453.42	3770.60
453.60	3749.54
453.78	3974.23
453.97	3779.97
454.15	3882.95
454.34	3911.04
454.52	4060.83
454.70	3971.89
454.89	3878.27
455.07	3964.87
455.26	4154.45
455.44	4142.75
455.62	4100.62
455.81	4037.42
455.99	4046.79
456.17	4117.00
456.36	4201.26
456.54	4187.22
456.73	4219.99
456.91	4369.78
457.09	4477.44
457.28	4306.59
457.46	4194.24
457.64	4383.82
457.83	4351.06
458.01	4273.82
458.19	4337.01
458.38	4425.95
458.56	4498.51
458.74	4346.37
458.93	4402.55
459.11	4388.50
459.29	4447.02
459.48	4407.23
459.66	4456.38
459.84	4479.79
460.03	4557.02
460.21	4468.08
460.39	4479.79
460.57	4636.60
460.76	4699.80
460.94	4624.90
461.12	4561.70
461.31	4606.17
461.49	4568.73
461.67	4601.49
461.85	4681.07
462.04	4781.71
462.22	4631.92
462.40	4748.95
462.59	4678.73
462.77	4674.05
462.95	4858.95
463.13	4821.50
463.32	4851.93
463.50	4905.76
463.68	4772.35
463.86	4739.58
464.05	4887.04
464.23	4748.95
464.41	4823.84
464.59	4945.55
464.78	4887.04
464.96	4882.36
465.14	4915.12
465.32	5097.69
465.50	4997.04
465.69	4973.64
465.87	4931.51
466.05	4975.98
466.23	4983.00
466.41	4863.63
466.60	5259.18
466.78	4997.04
466.96	5076.62
467.14	5008.75
467.32	5090.67
467.51	4849.59
467.69	4961.94
467.87	5165.56
468.05	5125.77
468.23	4938.53
468.41	5046.20
468.60	5142.16
468.78	5324.72
468.96	5121.09
469.14	5151.52
469.32	5156.20
469.50	5149.18
469.69	5303.65
469.87	5308.34
470.05	5500.26
470.23	5355.15
470.41	5458.13
470.59	5343.44
470.77	5455.79
470.95	5341.10
471.14	5696.86
471.32	5500.26
471.50	5654.73
471.68	5593.88
471.86	5577.50
472.04	5554.09
472.22	5893.47
472.40	5596.22
472.58	5877.09
472.77	5715.59
472.95	5710.91
473.13	5935.60
473.31	5687.50
473.49	5612.60
473.67	5916.87
473.85	5977.73
474.03	6064.33
474.21	5923.90
474.39	6080.71
474.57	6139.23
474.75	6125.18
474.93	6349.87
475.12	6120.50
475.30	6218.80
475.48	6202.42
475.66	6314.77
475.84	6249.23
476.02	6424.77
476.20	6448.18
476.38	6520.73
476.56	6516.05
476.74	6623.72
476.92	6633.08
477.10	6590.95
477.28	6628.40
477.46	6707.98
477.64	6619.04
477.82	6909.26
478.00	7014.59
478.18	6927.99
478.36	6993.52
478.54	7084.80
478.72	7103.53
478.90	7269.70
479.08	7267.36
479.26	7342.26
479.44	7325.88
479.62	7248.64
479.80	7356.30
479.98	7428.86
480.16	7667.60
480.34	7412.48
480.52	7616.10
480.70	7878.24
480.88	7470.99
481.06	7669.94
481.24	7672.28
481.41	7810.37
481.59	7936.76
481.77	8053.78
481.95	8093.57
482.13	8175.49
482.31	8135.70
482.49	8287.84
482.67	8016.33
482.85	8348.69
483.03	8514.87
483.21	8674.03
483.39	8489.12
483.57	8329.97
483.74	8629.56
483.92	8695.09
484.10	8645.94
484.28	8919.78
484.46	9142.13
484.64	9013.40
484.82	8933.82
485.00	9137.45
485.18	9518.96
485.35	9439.38
485.53	9378.53
485.71	9296.61
485.89	9671.09
486.07	9654.71
486.25	9537.68
486.43	9745.99
486.61	9631.30
486.78	9837.27
486.96	9844.29
487.14	10157.92
487.32	10090.05
487.50	10043.24
487.68	10216.44
487.85	10406.02
488.03	10452.83
488.21	10494.96
488.39	10619.01
488.57	10555.82
488.75	10602.63
488.92	10642.42
489.10	10775.83
489.28	11000.52
489.46	11204.14
489.64	11070.73
489.81	11398.41
489.99	11183.08
490.17	11225.21
490.35	11463.94
490.53	11566.93
490.70	11489.69
490.88	11501.39
491.06	11859.49
491.24	11894.60
491.41	11845.45
491.59	12072.48
491.77	11978.86
491.95	12175.47
492.13	12353.35
492.30	12311.22
492.48	12353.35
492.66	12226.96
492.84	12456.33
493.01	12498.46
493.19	12690.38
493.37	12734.85
493.54	12767.62
493.72	12821.45
493.90	12769.96
494.08	12814.43
494.25	13015.72
494.43	13144.45
494.61	13181.90
494.79	13233.39
494.96	13209.98
495.14	13418.29
495.32	13413.61
495.49	13659.37
495.67	13507.23
495.85	13839.59
496.02	13851.29
496.20	13855.97
496.38	13832.57
496.55	14073.64
496.73	14359.19
496.91	14321.74
497.09	14352.16
497.26	14778.14
497.44	14424.72
497.62	14174.28
497.79	14310.04
497.97	14494.94
498.14	14782.82
498.32	14705.59
498.50	14759.42
498.67	14831.97
498.85	14949.00
499.03	14991.13
499.20	14860.06
499.38	15080.07
499.56	15417.11
499.73	15234.55
499.91	15669.89
500.08	15421.79
500.26	15332.85
500.44	15396.04
500.61	15431.15
500.79	15545.84
500.97	15606.69
501.14	15885.22
501.32	15564.56
501.49	16025.65
501.67	15695.63
501.84	15866.49
502.02	15786.91
502.20	15999.90
502.37	16016.29
502.55	16318.22
502.72	16252.68
502.90	16184.80
503.07	16430.56
503.25	16470.35
503.43	16264.38
503.60	16428.22
503.78	16872.92
503.95	16535.88
504.13	16631.85
504.30	16549.93
504.48	16533.54
504.65	16737.17
504.83	16755.90
505.01	17027.40
505.18	17326.99
505.36	17275.49
505.53	16964.20
505.71	17067.19
505.88	17326.99
506.06	17130.38
506.23	17256.77
506.41	17561.04
506.58	17504.87
506.76	17369.12
506.93	17268.47
507.11	16985.27
507.28	17441.67
507.46	17366.78
507.63	17968.29
507.81	17851.27
507.98	17467.42
508.16	17745.94
508.33	18136.81
508.50	17961.27
508.68	18031.49
508.85	17921.48
509.03	17914.46
509.20	18106.38
509.38	18375.55
509.55	18405.97
509.73	18515.98
509.90	18139.15
510.08	18420.02
510.25	18066.60
510.42	18586.19
510.60	18696.20
510.77	18752.37
510.95	18806.20
511.12	18792.16
511.30	18658.75
511.47	18759.39
511.64	18951.32
511.82	18855.36
511.99	18932.59
512.17	19112.81
512.34	19105.79
512.51	19037.92
512.69	19190.05
512.86	19351.55
513.04	19325.80
513.21	19433.47
513.38	19517.73
513.56	19489.64
513.73	19257.93
513.90	19513.05
514.08	19330.48
514.25	19772.85
514.43	20051.37
514.60	19658.16
514.77	20137.97
514.95	20053.71
515.12	19744.76
515.29	19733.06
515.47	19943.70
515.64	19964.77
515.81	20205.84
515.99	20056.05
516.16	20510.11
516.33	20212.87
516.51	20444.58
516.68	20180.10
516.85	20271.38
517.03	20381.38
517.20	20451.60
517.37	20507.77
517.54	20849.49
517.72	20475.01
517.89	20446.92
518.06	20868.22
518.24	20568.63
518.41	20556.93
518.58	20570.97
518.75	20793.32
518.93	21130.36
519.10	20683.31
519.27	20741.83
519.45	21025.03
519.62	20819.07
519.79	20947.79
519.96	21088.23
520.14	21439.31
520.31	21139.72
520.48	21380.79
520.65	21003.97
520.83	21490.80
521.00	21245.04
521.17	21373.77
521.34	21546.97
521.52	21745.92
521.69	21635.91
521.86	21804.43
522.03	22043.17
522.20	22148.49
522.38	21994.01
522.55	21855.92
522.72	21788.05
522.89	21956.57
523.07	21996.35
523.24	22218.71
523.41	21972.95
523.58	21621.87
523.75	22508.93
523.92	22125.08
524.10	22302.96
524.27	22225.73
524.44	22204.66
524.61	22473.82
524.78	22677.45
524.96	22438.72
525.13	22300.62
525.30	22705.54
525.47	22558.08
525.64	22518.29
525.81	22558.08
525.98	22738.30
526.16	23054.28
526.33	22623.62
526.50	23220.45
526.67	22810.86
526.84	22948.95
527.01	22768.73
527.18	22895.12
527.36	23075.34
527.53	23267.27
527.70	23321.10
527.87	23309.40
528.04	22984.06
528.21	23168.96
528.38	22897.46
528.55	23049.60
528.72	23180.67
528.89	23180.67
529.07	23367.91
529.24	23410.04
529.41	23700.26
529.58	23318.76
529.75	23599.62
529.92	23527.06
530.09	23662.82
530.26	23889.85
530.43	23679.20
530.60	23623.03
530.77	23520.04
530.94	24095.82
531.11	23721.33
531.28	23740.05
531.46	23592.60
531.63	24112.20
531.80	24119.22
531.97	24264.33
532.14	23824.31
532.31	24292.42
532.48	24404.77
532.65	24051.34
532.82	24041.98
532.99	24346.25
533.16	24240.93
533.33	24425.83
533.50	24510.09
533.67	24463.28
533.84	24189.44
534.01	24201.14
534.18	24074.75
534.35	24690.31
534.52	24432.85
534.69	24837.76
534.86	24744.14
535.03	24629.46
535.20	24793.29
535.37	24905.64
535.54	24950.11
535.71	24835.42
535.88	24617.75
536.05	25076.50
536.22	24842.45
536.38	25460.35
536.55	24840.11
536.72	25193.53
536.89	24957.13
537.06	24940.75
537.23	25017.99
537.40	25137.35
537.57	24889.26
537.74	25432.26
537.91	25453.33
538.08	25586.74
538.25	24947.77
538.42	25003.94
538.59	25312.89
538.75	25202.89
538.92	25441.62
539.09	25614.82
539.26	25535.24
539.43	25364.39
539.60	25408.86
539.77	25699.08
539.94	25458.01
540.11	25406.52
540.28	25816.11
540.44	25511.84
540.61	25689.72
540.78	25462.69
540.95	25727.17
541.12	25596.10
541.29	25663.97
541.46	25682.70
541.62	25525.88
541.79	25741.21
541.96	25401.83
542.13	25619.50
542.30	26211.66
542.47	25972.92
542.63	26169.53
542.80	26403.58
542.97	26352.09
543.14	26724.24
543.31	26459.76
543.48	26352.09
543.64	26293.58
543.81	26501.89
543.98	26576.78
544.15	26450.39
544.32	26410.60
544.48	26733.60
544.65	26628.27
544.82	26356.77
544.99	26457.42
545.16	26565.08
545.32	26462.10
545.49	26728.92
545.66	26916.16
545.83	26789.77
546.00	27122.13
546.16	26490.18
546.33	26368.48
546.50	26192.94
546.67	27000.42
546.83	26799.13
547.00	26466.78
547.17	26859.99
547.34	27267.24
547.50	27175.96
547.67	27164.26
547.84	26820.20
548.00	26831.90
548.17	27414.69
548.34	27119.79
548.51	27168.94
548.67	27255.54
548.84	27454.48
549.01	27173.62
549.18	27906.21
549.34	27208.73
549.51	27063.61
549.68	27524.70
549.84	27241.50
550.01	27707.26
550.18	27611.30
550.34	27550.45
550.51	27417.04
550.68	27941.32
550.84	27515.34
551.01	27938.97
551.18	27400.65
551.34	27470.87
551.51	27604.28
551.68	27847.69
551.84	27835.99
552.01	27388.95
552.18	27536.40
552.34	27777.48
552.51	27826.63
552.68	27718.96
552.84	27618.32
553.01	27880.46
553.18	27936.63
553.34	28077.07
553.51	27892.16
553.67	28070.04
553.84	28376.66
554.01	28341.55
554.17	28034.94
554.34	28245.58
554.51	28070.04
554.67	28140.26
554.84	28320.48
555.00	27976.42
555.17	28027.92
555.33	28072.39
555.50	28222.18
555.67	28158.99
555.83	28212.82
556.00	28048.98
556.16	28514.75
556.33	28126.22
556.50	28453.89
556.66	28606.03
556.83	28304.10
556.99	28346.23
557.16	28973.49
557.32	28664.54
557.49	28889.23
557.65	28201.11
557.82	28470.28
557.98	28332.18
558.15	28481.98
558.32	28264.31
558.48	28240.90
558.65	28767.52
558.81	28964.13
558.98	28727.74
559.14	28601.35
559.31	28353.25
559.47	28414.10
559.64	28938.38
559.80	28835.40
559.97	28854.12
560.13	28765.18
560.30	28706.67
560.46	29027.32
560.63	28907.96
560.79	28797.95
560.96	29116.26
561.12	28765.18
561.29	28737.10
561.45	28940.72
561.61	28414.10
561.78	29097.54
561.94	28961.79
562.11	28819.02
562.27	28804.97
562.44	29106.90
562.60	28669.22
562.77	29116.26
562.93	28804.97
563.10	29048.39
563.26	28961.79
563.42	29343.30
563.59	28821.36
563.75	28856.46
563.92	29441.60
564.08	28957.11
564.24	29083.50
564.41	28723.05
564.57	29144.35
564.74	29106.90
564.90	29446.28
565.07	29146.69
565.23	29443.94
565.39	29041.37
565.56	29486.07
565.72	28933.70
565.88	29230.95
566.05	29017.96
566.21	29120.95
566.38	29195.84
566.54	29156.05
566.70	29062.43
566.87	29497.77
567.03	29153.71
567.19	29862.90
567.36	29085.84
567.52	29366.70
567.68	29549.26
567.85	29172.44
568.01	29436.92
568.17	29237.97
568.34	29228.61
568.50	29373.72
568.66	29780.98
568.83	29670.97
568.99	29460.32
569.15	29139.67
569.32	29062.43
569.48	29240.31
569.64	29575.01
569.81	29750.55
569.97	29369.04
570.13	29483.73
570.30	29748.21
570.46	29757.57
570.62	29511.81
570.78	29507.13
570.95	29298.83
571.11	29322.23
571.27	29336.27
571.43	29090.52
571.60	29682.67
571.76	29244.99
571.92	29495.43
572.09	29488.41
572.25	30129.72
572.41	29614.80
572.57	29734.17
572.74	29642.88
572.90	29315.21
573.06	29380.74
573.22	29186.48
573.38	29745.87
573.55	29663.95
573.71	29460.32
573.87	29923.75
574.03	29523.52
574.20	29497.77
574.36	29448.62
574.52	29294.14
574.68	29600.76
574.84	29703.74
575.01	29633.52
575.17	29921.41
575.33	29481.39
575.49	29591.39
575.65	29888.64
575.82	29591.39
575.98	29909.71
576.14	30103.97
576.30	29661.61
576.46	29745.87
576.62	29635.86
576.79	29881.62
576.95	29706.08
577.11	29673.31
577.27	30038.44
577.43	29951.84
577.59	29825.45
577.75	29851.19
577.92	29567.99
578.08	29858.21
578.24	29567.99
578.40	30267.81
578.56	30005.67
578.72	29881.62
578.88	29823.11
579.04	30110.99
579.21	29654.59
579.37	29816.08
579.53	29954.18
579.69	29755.23
579.85	29795.02
580.01	29804.38
580.17	29301.17
580.33	29752.89
580.49	29961.20
580.65	29799.70
580.82	30183.55
580.98	29902.68
581.14	30052.48
581.30	29930.77
581.46	29926.09
581.62	30008.01
581.78	29656.93
581.94	29806.72
582.10	29722.46
582.26	30134.40
582.42	29621.82
582.58	29965.88
582.74	29624.16
582.90	29951.84
583.06	30033.75
583.22	30057.16
583.38	29518.84
583.54	29659.27
583.70	29958.86
583.86	29734.17
584.02	30057.16
584.18	30260.79
584.34	30338.02
584.50	30366.11
584.66	30143.76
584.82	29612.46
584.98	30433.99
585.14	29844.17
585.30	29640.54
585.46	30066.52
585.62	29876.94
585.78	29935.45
585.94	29708.42
586.10	30239.72
586.26	30225.68
586.42	30256.11
586.58	30174.19
586.74	29916.73
586.90	29668.63
587.06	29848.85
587.22	29944.81
587.38	29745.87
587.54	30125.04
587.70	30293.55
587.86	30436.33
588.02	30256.11
588.18	30586.12
588.34	30082.91
588.49	29984.60
588.65	30106.31
588.81	29886.30
588.97	29879.28
589.13	29919.07
589.29	30185.89
589.45	29993.97
589.61	30473.78
589.77	30178.87
589.93	30574.42
590.08	30031.41
590.24	30150.78
590.40	30197.59
590.56	30363.77
590.72	29865.24
590.88	30375.47
591.04	30061.84
591.20	30249.08
591.35	30810.81
591.51	30382.49
591.67	30433.99
591.83	30553.35
591.99	30637.61
