SpectraSuite Data File
++++++++++++++++++++++++++++++++++++
Date: Fri Oct 18 13:58:15 GMT-05:00 2013
User: bianchi
Dark Spectrum Present: No
Reference Spectrum Present: No
Number of Sampled Component Spectra: 1
Spectrometers: USB2+H05261
Integration Time (usec): 50000 (USB2+H05261)
Spectra Averaged: 1 (USB2+H05261)
Boxcar Smoothing: 0 (USB2+H05261)
Correct for Electrical Dark: No (USB2+H05261)
Strobe/Lamp Enabled: No (USB2+H05261)
Correct for Detector Non-linearity: No (USB2+H05261)
Correct for Stray Light: No (USB2+H05261)
Number of Pixels in Processed Spectrum: 2048
>>>>>Begin Processed Spectral Data<<<<<
365.73	0.00
365.92	0.00
366.12	0.00
366.32	0.00
366.52	0.00
366.72	0.00
366.91	0.00
367.11	0.00
367.31	0.00
367.51	0.00
367.70	0.00
367.90	0.00
368.10	0.00
368.30	0.00
368.49	0.00
368.69	0.00
368.89	0.00
369.09	0.00
369.28	0.00
369.48	0.00
369.68	0.00
369.87	0.00
370.07	0.00
370.27	0.00
370.47	0.00
370.66	32.77
370.86	56.17
371.06	60.85
371.25	208.31
371.45	177.88
371.65	161.50
371.84	161.50
372.04	102.98
372.24	182.56
372.44	163.84
372.63	159.16
372.83	194.26
373.03	234.05
373.22	262.14
373.42	203.63
373.62	170.86
373.81	177.88
374.01	231.71
374.21	276.18
374.40	234.05
374.60	292.57
374.79	250.44
374.99	252.78
375.19	252.78
375.38	311.29
375.58	243.42
375.78	294.91
375.97	255.12
376.17	278.52
376.37	203.63
376.56	203.63
376.76	257.46
376.95	269.16
377.15	271.50
377.35	280.86
377.54	271.50
377.74	341.72
377.93	278.52
378.13	283.20
378.33	280.86
378.52	234.05
378.72	299.59
378.91	344.06
379.11	348.74
379.31	227.03
379.50	201.29
379.70	271.50
379.89	269.16
380.09	241.08
380.28	243.42
380.48	294.91
380.68	325.33
380.87	304.27
381.07	330.02
381.26	337.04
381.46	290.23
381.65	362.78
381.85	283.20
382.04	327.68
382.24	386.19
382.43	346.40
382.63	351.08
382.83	348.74
383.02	425.98
383.22	428.32
383.41	327.68
383.61	273.84
383.80	358.10
384.00	327.68
384.19	332.36
384.39	381.51
384.58	339.38
384.78	344.06
384.97	360.44
385.17	404.91
385.36	388.53
385.56	341.72
385.75	388.53
385.95	395.55
386.14	404.91
386.34	374.49
386.53	400.23
386.72	486.83
386.92	400.23
387.11	423.64
387.31	463.43
387.50	374.49
387.70	461.09
387.89	425.98
388.09	388.53
388.28	369.80
388.48	381.51
388.67	454.06
388.86	463.43
389.06	472.79
389.25	465.77
389.45	386.19
389.64	437.68
389.84	447.04
390.03	486.83
390.22	456.40
390.42	444.70
390.61	388.53
390.81	482.15
391.00	524.28
391.19	500.87
391.39	496.19
391.58	486.83
391.78	489.17
391.97	559.39
392.16	454.06
392.36	526.62
392.55	575.77
392.75	463.43
392.94	423.64
393.13	554.71
393.33	580.45
393.52	512.58
393.71	596.84
393.91	566.41
394.10	573.43
394.29	550.03
394.49	524.28
394.68	550.03
394.88	634.29
395.07	601.52
395.26	606.20
395.46	582.79
395.65	723.23
395.84	627.26
396.04	648.33
396.23	683.44
396.42	592.16
396.62	671.73
396.81	575.77
397.00	571.09
397.19	575.77
397.39	685.78
397.58	627.26
397.77	613.22
397.97	702.16
398.16	589.82
398.35	631.94
398.55	674.07
398.74	638.97
398.93	751.31
399.12	737.27
399.32	718.54
399.51	753.65
399.70	802.80
399.90	720.88
400.09	788.76
400.28	772.38
400.47	732.59
400.67	887.06
400.86	786.42
401.05	788.76
401.24	779.40
401.44	779.40
401.63	840.25
401.82	854.30
402.01	882.38
402.21	830.89
402.40	807.48
402.59	837.91
402.78	819.19
402.97	837.91
403.17	858.98
403.36	809.83
403.55	873.02
403.74	870.68
403.93	882.38
404.13	849.61
404.32	802.80
404.51	854.30
404.70	926.85
404.89	938.55
405.09	952.60
405.28	936.21
405.47	973.66
405.66	896.43
405.85	994.73
406.05	957.28
406.24	1008.77
406.43	1032.18
406.62	983.02
406.81	985.37
407.00	990.05
407.20	976.00
407.39	966.64
407.58	1064.94
407.77	959.62
407.96	1048.56
408.15	1142.18
408.34	1032.18
408.54	1013.45
408.73	1050.90
408.92	1149.20
409.11	1165.59
409.30	1177.29
409.49	1153.88
409.68	1177.29
409.87	1132.82
410.07	1163.25
410.26	1284.95
410.45	1249.85
410.64	1116.44
410.83	1203.04
411.02	1163.25
411.21	1270.91
411.40	1167.93
411.59	1301.34
411.78	1341.13
411.98	1128.14
412.17	1256.87
412.36	1366.87
412.55	1277.93
412.74	1364.53
412.93	1273.25
413.12	1331.76
413.31	1427.73
413.50	1371.55
413.69	1357.51
413.88	1380.92
414.07	1371.55
414.26	1425.39
414.45	1453.47
414.64	1425.39
414.83	1540.07
415.02	1479.22
415.22	1519.01
415.41	1547.09
415.60	1533.05
415.79	1544.75
415.98	1586.88
416.17	1526.03
416.36	1610.29
416.55	1600.93
416.74	1652.42
416.93	1675.82
417.12	1771.79
417.31	1577.52
417.50	1626.67
417.69	1732.00
417.88	1678.16
418.07	1783.49
418.26	1624.33
418.45	1715.61
418.64	1818.60
418.83	1825.62
419.02	1818.60
419.21	1865.41
419.39	1809.23
419.58	1785.83
419.77	1769.44
419.96	1849.02
420.15	1844.34
420.34	1870.09
420.53	1764.76
420.72	1952.01
420.91	1952.01
421.10	1966.05
421.29	1973.07
421.48	1844.34
421.67	1956.69
421.86	1916.90
422.05	2017.54
422.24	2029.24
422.43	1975.41
422.61	1884.13
422.80	2047.97
422.99	1984.77
423.18	1853.70
423.37	2054.99
423.56	2099.46
423.75	1994.14
423.94	2040.95
424.13	1696.89
424.32	1966.05
424.50	2022.22
424.69	2057.33
424.88	2029.24
425.07	1991.80
425.26	2038.61
425.45	2003.50
425.64	2113.50
425.83	1942.64
426.01	1987.11
426.20	2038.61
426.39	2134.57
426.58	2108.82
426.77	2038.61
426.96	2050.31
427.15	2106.48
427.33	2071.37
427.52	2122.87
427.71	2179.04
427.90	2165.00
428.09	2200.10
428.28	2202.44
428.46	2162.66
428.65	2305.43
428.84	2270.32
429.03	2237.55
429.22	2143.93
429.40	2218.83
429.59	2349.90
429.78	2078.40
429.97	2155.63
430.16	2132.23
430.34	2160.31
430.53	2237.55
430.72	2328.83
430.91	2349.90
431.10	2317.13
431.28	2420.11
431.47	2399.05
431.66	2436.50
431.85	2314.79
432.03	2452.88
432.22	2399.05
432.41	2464.58
432.60	2473.95
432.79	2452.88
432.97	2443.52
433.16	2438.84
433.35	2513.74
433.54	2480.97
433.72	2530.12
433.91	2487.99
434.10	2609.70
434.28	2450.54
434.47	2509.05
434.66	2628.42
434.85	2605.02
435.03	2516.08
435.22	2635.44
435.41	2616.72
435.59	2506.71
435.78	2708.00
435.97	2738.43
436.16	2640.12
436.34	2574.59
436.53	2544.16
436.72	2672.89
436.90	2705.66
437.09	2705.66
437.28	2640.12
437.46	2672.89
437.65	2729.06
437.84	2855.45
438.02	2651.83
438.21	2920.99
438.40	2740.77
438.58	2782.90
438.77	2829.71
438.96	2810.98
439.14	2897.58
439.33	2892.90
439.52	2944.39
439.70	2928.01
439.89	2981.84
440.08	2930.35
440.26	2937.37
440.45	2991.20
440.63	2993.55
440.82	3007.59
441.01	3068.44
441.19	3126.96
441.38	3243.98
441.57	3227.60
441.75	3199.51
441.94	3272.07
442.12	3241.64
442.31	3375.05
442.50	3318.88
442.68	3267.39
442.87	3344.63
443.05	3190.15
443.24	3398.46
443.43	3382.07
443.61	3332.92
443.80	3438.25
443.98	3276.75
444.17	3269.73
444.35	3251.00
444.54	3473.36
444.73	3424.20
444.91	3400.80
445.10	3503.78
445.28	3267.39
445.47	3295.47
445.65	3508.46
445.84	3384.41
446.02	3426.54
446.21	3410.16
446.39	3478.04
446.58	3435.91
446.77	3468.67
446.95	3538.89
447.14	3389.10
447.32	3456.97
447.51	3466.33
447.69	3658.26
447.88	3494.42
448.06	3559.95
448.25	3459.31
448.43	3609.11
448.62	3461.65
448.80	3557.61
448.99	3585.70
449.17	3515.48
449.36	3562.30
449.54	3496.76
449.73	3693.37
449.91	3754.22
450.10	3719.11
450.28	3826.78
450.46	3791.67
450.65	3679.32
450.83	3705.07
451.02	3616.13
451.20	3777.62
451.39	3662.94
451.57	3763.58
451.76	3695.71
451.94	3859.54
452.13	3693.37
452.31	3866.56
452.49	3665.28
452.68	3801.03
452.86	3770.60
453.05	3740.18
453.23	3819.75
453.42	3744.86
453.60	3829.12
453.78	3969.55
453.97	3857.20
454.15	3967.21
454.34	3894.65
454.52	3957.85
454.70	3957.85
454.89	3929.76
455.07	4004.66
455.26	3969.55
455.44	4018.70
455.62	3936.78
455.81	4100.62
455.99	4131.05
456.17	4058.49
456.36	4126.36
456.54	4154.45
456.73	4100.62
456.91	4194.24
457.09	4322.97
457.28	4262.12
457.46	4344.03
457.64	4353.40
457.83	4264.46
458.01	4386.16
458.19	4404.89
458.38	4250.41
458.56	4409.57
458.74	4245.73
458.93	4290.20
459.11	4440.00
459.29	4365.10
459.48	4416.59
459.66	4550.00
459.84	4470.42
460.03	4430.63
460.21	4454.04
460.39	4528.94
460.57	4423.61
460.76	4564.04
460.94	4606.17
461.12	4538.30
461.31	4540.64
461.49	4498.51
461.67	4500.85
461.85	4727.88
462.04	4552.34
462.22	4968.96
462.40	4840.23
462.59	4718.52
462.77	4720.86
462.95	4739.58
463.13	4718.52
463.32	4774.69
463.50	4844.91
463.68	4725.54
463.86	4784.06
464.05	4645.96
464.23	4706.82
464.41	4770.01
464.59	4950.23
464.78	4980.66
464.96	4919.81
465.14	4863.63
465.32	4873.00
465.50	4809.80
465.69	5102.37
465.87	4910.44
466.05	4978.32
466.23	5158.54
466.41	4954.91
466.60	5212.37
466.78	5011.09
466.96	5085.98
467.14	5039.17
467.32	5039.17
467.51	5118.75
467.69	4983.00
467.87	5060.24
468.05	5097.69
468.23	5039.17
468.41	5032.15
468.60	5214.71
468.78	5135.14
468.96	5097.69
469.14	5217.05
469.32	5270.89
469.50	5116.41
469.69	5198.33
469.87	5509.62
470.05	5383.23
470.23	5446.43
470.41	5425.36
470.59	5329.40
470.77	5327.06
470.95	5341.10
471.14	5493.24
471.32	5584.52
471.50	5561.11
471.68	5462.81
471.86	5540.05
472.04	5617.29
472.22	5722.61
472.40	5397.28
472.58	5619.63
472.77	5710.91
472.95	5738.99
473.13	5863.04
473.31	5734.31
473.49	5769.42
473.67	5628.99
473.85	5895.81
474.03	5832.62
474.21	5907.51
474.39	5961.34
474.57	6003.47
474.75	6066.67
474.93	6195.40
475.12	6071.35
475.30	6193.06
475.48	6216.46
475.66	6204.76
475.84	5994.11
476.02	6141.57
476.20	6373.28
476.38	6380.30
476.56	6459.88
476.74	6532.44
476.92	6499.67
477.10	6445.84
477.28	6499.67
477.46	6637.76
477.64	6583.93
477.82	6766.49
478.00	6956.07
478.18	6813.30
478.36	7016.93
478.54	7049.69
478.72	6956.07
478.90	7068.42
479.08	7140.97
479.26	7129.27
479.44	7417.16
479.62	7391.41
479.80	7449.93
479.98	7426.52
480.16	7248.64
480.34	7463.97
480.52	7784.62
480.70	7559.93
480.88	7662.91
481.06	7740.15
481.24	7634.83
481.41	7789.30
481.59	7920.37
481.77	7992.93
481.95	7829.09
482.13	8191.88
482.31	7960.16
482.49	8182.51
482.67	8077.19
482.85	8245.71
483.03	8234.00
483.21	8578.06
483.39	8531.25
483.57	8678.71
483.74	8652.96
483.92	8603.81
484.10	8716.16
484.28	8732.54
484.46	9102.34
484.64	8997.02
484.82	9025.11
485.00	9036.81
485.18	9111.71
485.35	9291.93
485.53	9207.67
485.71	9472.15
485.89	9673.43
486.07	9444.06
486.25	9490.87
486.43	9591.52
486.61	9600.88
486.78	9970.68
486.96	9996.43
487.14	10059.62
487.32	9846.63
487.50	10139.20
487.68	10141.54
487.85	10174.31
488.03	10394.32
488.21	10387.30
488.39	10417.72
488.57	10541.77
488.75	10506.66
488.92	10822.64
489.10	10775.83
489.28	10684.55
489.46	10850.72
489.64	10848.38
489.81	11145.63
489.99	11180.74
490.17	11190.10
490.35	11290.74
490.53	11325.85
490.70	11602.04
490.88	11398.41
491.06	11672.25
491.24	11665.23
491.41	11543.52
491.59	11999.93
491.77	11918.01
491.95	12088.87
492.13	12035.03
492.30	12219.94
492.48	12259.73
492.66	12444.63
492.84	12360.37
493.01	12547.61
493.19	12327.60
493.37	12662.30
493.54	12903.37
493.72	12697.41
493.90	12758.26
494.08	12889.33
494.25	12908.05
494.43	13217.01
494.61	13032.10
494.79	13172.54
494.96	13160.83
495.14	13275.52
495.32	13584.47
495.49	13500.21
495.67	13544.68
495.85	13762.35
496.02	13799.80
496.20	13947.25
496.38	13795.12
496.55	13965.98
496.73	14155.56
496.91	14237.48
497.09	14487.92
497.26	14277.27
497.44	14005.77
497.62	14291.31
497.79	14204.71
497.97	14312.38
498.14	14513.66
498.32	14745.38
498.50	14871.76
498.67	15033.26
498.85	14743.03
499.03	14848.36
499.20	15012.20
499.38	14939.64
499.56	15066.03
499.73	14963.04
499.91	15236.89
500.08	15438.17
500.26	15105.82
500.44	15459.24
500.61	15538.82
500.79	15384.34
500.97	15538.82
501.14	15805.64
501.32	15538.82
501.49	15590.31
501.67	15700.31
501.84	15665.21
502.02	15625.42
502.20	16051.39
502.37	16383.75
502.55	15899.26
502.72	15932.03
502.90	16367.37
503.07	16149.70
503.25	16133.31
503.43	16093.52
503.60	16152.04
503.78	16278.43
503.95	16280.77
504.13	16556.95
504.30	16652.91
504.48	16489.07
504.65	16638.87
504.83	16772.28
505.01	16847.18
505.18	16741.85
505.36	17142.08
505.53	16725.47
505.71	17092.93
505.88	17226.34
506.06	16896.33
506.23	16816.75
506.41	17039.10
506.58	17436.99
506.76	17123.36
506.93	17231.02
507.11	17334.01
507.28	17441.67
507.46	17699.13
507.63	17687.43
507.81	17556.36
507.98	17816.16
508.16	17528.27
508.33	18272.56
508.50	17521.25
508.68	17699.13
508.85	18082.98
509.03	17841.90
509.20	18040.85
509.38	18094.68
509.55	18040.85
509.73	18221.07
509.90	18246.82
510.08	18104.04
510.25	18192.98
510.42	18623.64
510.60	18600.24
510.77	18644.71
510.95	18445.76
511.12	18609.60
511.30	18492.57
511.47	18649.39
511.64	18778.12
511.82	18670.45
511.99	18682.16
512.17	18757.05
512.34	18951.32
512.51	19126.86
512.69	19005.15
512.86	19145.58
513.04	19269.63
513.21	19187.71
513.38	19508.37
513.56	19445.17
513.73	19351.55
513.90	19290.70
514.08	19201.76
514.25	19683.91
514.43	19246.23
514.60	19655.82
514.77	19573.90
514.95	20037.33
515.12	19798.59
515.29	19758.80
515.47	19587.94
515.64	19700.29
515.81	19735.40
515.99	19782.21
516.16	20135.63
516.33	20039.67
516.51	20133.29
516.68	20098.18
516.85	20086.48
517.03	20177.76
517.20	20224.57
517.37	20442.24
517.54	20301.81
517.72	20673.95
517.89	20283.08
518.06	20350.96
518.24	20683.31
518.41	20615.44
518.58	20552.24
518.75	20702.04
518.93	20854.17
519.10	20629.48
519.27	21102.27
519.45	20823.75
519.62	20980.56
519.79	20800.34
519.96	21242.70
520.14	20975.88
520.31	21268.45
520.48	21039.08
520.65	21132.70
520.83	21415.90
521.00	21270.79
521.17	21273.13
521.34	21315.26
521.52	21458.03
521.69	21326.96
521.86	21675.70
522.03	21647.61
522.20	21493.14
522.38	21722.51
522.55	21500.16
522.72	21930.82
522.89	21500.16
523.07	21951.88
523.24	21984.65
523.41	22050.19
523.58	21785.71
523.75	22068.91
523.92	21942.52
524.10	21968.27
524.27	22277.22
524.44	22361.48
524.61	22590.85
524.78	22319.35
524.96	22094.66
525.13	22429.35
525.30	22544.04
525.47	22415.31
525.64	22305.31
525.81	22789.80
525.98	22576.81
526.16	22843.63
526.33	22602.55
526.50	22768.73
526.67	22567.45
526.84	22789.80
527.01	22862.35
527.18	23145.56
527.36	22740.64
527.53	22895.12
527.70	23225.14
527.87	23414.72
528.04	22904.48
528.21	23300.03
528.38	22937.25
528.55	23220.45
528.72	22864.69
528.89	23201.73
529.07	23304.71
529.24	23208.75
529.41	23150.24
529.58	23222.80
529.75	23262.58
529.92	23496.64
530.09	23491.96
530.26	23548.13
530.43	23461.53
530.60	23328.12
530.77	23672.18
530.94	23601.96
531.11	23510.68
531.28	23204.07
531.46	23501.32
531.63	23775.16
531.80	23681.54
531.97	23887.51
532.14	23843.04
532.31	23908.57
532.48	23864.10
532.65	24219.86
532.82	24027.94
532.99	24093.47
533.16	23826.65
533.33	24114.54
533.50	24222.20
533.67	24236.25
533.84	24212.84
534.01	24086.45
534.18	24051.34
534.35	24367.32
534.52	24175.39
534.69	24723.08
534.86	24746.48
535.03	24617.75
535.20	24435.19
535.37	24390.72
535.54	24575.62
535.71	24549.88
535.88	24582.65
536.05	24472.64
536.22	24870.53
536.38	24924.36
536.55	24634.14
536.72	25106.93
536.89	24706.70
537.06	24807.34
537.23	24725.42
537.40	24699.67
537.57	24884.58
537.74	24938.41
537.91	25060.12
538.08	25413.54
538.25	25085.86
538.42	24947.77
538.59	25163.10
538.75	25099.90
538.92	25099.90
539.09	25469.71
539.26	24959.47
539.43	25259.06
539.60	25312.89
539.77	25254.38
539.94	25689.72
540.11	25139.69
540.28	25275.45
540.44	25029.69
540.61	25495.46
540.78	25254.38
540.95	25516.52
541.12	25802.07
541.29	25865.26
541.46	25783.34
541.62	25446.30
541.79	25624.18
541.96	25675.68
542.13	25551.63
542.30	25495.46
542.47	26099.31
542.63	26127.40
542.80	25895.69
542.97	26314.64
543.14	26277.19
543.31	26040.80
543.48	26368.48
543.64	26157.83
543.81	26300.60
543.98	26417.63
544.15	26214.00
544.32	26321.66
544.48	26609.55
544.65	26148.46
544.82	26382.52
544.99	26209.32
545.16	26260.81
545.32	26361.45
545.49	26717.22
545.66	26661.04
545.83	26548.70
546.00	26696.15
546.16	26513.59
546.33	26218.68
546.50	26052.50
546.67	26635.30
546.83	26602.53
547.00	26864.67
547.17	26635.30
547.34	26551.04
547.50	26815.52
547.67	27407.67
547.84	26813.18
548.00	26962.97
548.17	27023.83
548.34	26806.16
548.51	27012.12
548.67	26885.73
548.84	27236.81
549.01	27168.94
549.18	26862.33
549.34	26855.31
549.51	27190.00
549.68	27047.23
549.84	27075.32
550.01	27058.93
550.18	26761.69
550.34	27349.16
550.51	27204.05
550.68	27740.03
550.84	27274.26
551.01	27297.67
551.18	27087.02
551.34	27463.85
551.51	27456.82
551.68	27421.72
551.84	27756.41
552.01	27309.37
552.18	27772.80
552.34	27421.72
552.51	27515.34
552.68	27449.80
552.84	27433.42
553.01	27924.93
553.18	27365.54
553.34	27438.10
553.51	27639.39
553.67	27969.40
553.84	28016.21
554.01	27992.81
554.17	27711.94
554.34	27864.08
554.51	28070.04
554.67	28060.68
554.84	27882.80
555.00	27957.70
555.17	27859.40
555.33	28016.21
555.50	28168.35
555.67	27892.16
555.83	27887.48
556.00	27871.10
556.16	28074.73
556.33	28009.19
556.50	28273.67
556.66	28371.97
556.83	28086.43
556.99	28666.88
557.16	28496.02
557.32	28840.08
557.49	28081.75
557.65	28023.23
557.82	28072.39
557.98	28196.43
558.15	28149.62
558.32	28320.48
558.48	28332.18
558.65	28528.79
558.81	28189.41
558.98	28048.98
559.14	28264.31
559.31	28701.99
559.47	28533.47
559.64	28514.75
559.80	28603.69
559.97	28664.54
560.13	28465.60
560.30	28678.58
560.46	28449.21
560.63	28383.68
560.79	28701.99
560.96	28975.83
561.12	28409.42
561.29	28959.45
561.45	28245.58
561.61	28767.52
561.78	28484.32
561.94	28692.63
562.11	28594.32
562.27	28826.04
562.44	28666.88
562.60	28697.31
562.77	28379.00
562.93	29006.26
563.10	28947.75
563.26	28599.01
563.42	29036.69
563.59	28535.81
563.75	28662.20
563.92	28987.53
564.08	28882.21
564.24	28772.21
564.41	28678.58
564.57	28847.10
564.74	28802.63
564.90	29064.77
565.07	28858.81
565.23	28772.21
565.39	29123.29
565.56	29181.80
565.72	28627.09
565.88	29104.56
566.05	28725.39
566.21	29174.78
566.38	28833.06
566.54	29078.82
566.70	29029.66
566.87	29207.55
567.03	29109.24
567.19	29668.63
567.36	28919.66
567.52	29406.49
567.68	29226.27
567.85	28809.65
568.01	28851.78
568.17	28837.74
568.34	29130.31
568.50	29156.05
568.66	29130.31
568.83	29301.17
568.99	29053.07
569.15	29392.45
569.32	29027.32
569.48	29160.73
569.64	29156.05
569.81	29404.15
569.97	29156.05
570.13	29282.44
570.30	29167.76
570.46	29228.61
570.62	29275.42
570.78	29518.84
570.95	28952.43
571.11	29113.92
571.27	29092.86
571.43	29195.84
571.60	29284.78
571.76	29567.99
571.92	29345.64
572.09	29502.45
572.25	29387.77
572.41	29507.13
572.57	29186.48
572.74	29443.94
572.90	29111.58
573.06	29427.56
573.22	29586.71
573.38	29399.47
573.55	29132.65
573.71	29689.70
573.87	29659.27
574.03	29666.29
574.20	29556.28
574.36	29308.19
574.52	29134.99
574.68	29511.81
574.84	29582.03
575.01	29387.77
575.17	29869.92
575.33	29109.24
575.49	29275.42
575.65	29717.78
575.82	29792.68
575.98	29076.48
576.14	29750.55
576.30	29783.32
576.46	29591.39
576.62	29509.47
576.79	29521.18
576.95	29455.64
577.11	29776.30
577.27	30078.22
577.43	29296.49
577.59	29837.15
577.75	29656.93
577.92	29495.43
578.08	29493.09
578.24	29621.82
578.40	29460.32
578.56	29446.28
578.72	29558.63
578.88	29544.58
579.04	30057.16
579.21	29696.72
579.37	29649.91
579.53	29724.80
579.69	29446.28
579.85	29235.63
580.01	29855.87
580.17	29352.66
580.33	29591.39
580.49	30050.14
580.65	29673.31
580.82	29457.98
580.98	29748.21
581.14	29532.88
581.30	29301.17
581.46	29741.19
581.62	29359.68
581.78	29481.39
581.94	29474.37
582.10	29567.99
582.26	29731.83
582.42	29717.78
582.58	29729.48
582.74	29898.00
582.90	29886.30
583.06	29865.24
583.22	29507.13
583.38	29635.86
583.54	29469.69
583.70	29649.91
583.86	29570.33
584.02	29614.80
584.18	30085.25
584.34	30047.80
584.50	29666.29
584.66	29624.16
584.82	29291.80
584.98	29675.65
585.14	30064.18
585.30	29312.87
585.46	29743.53
585.62	29703.74
585.78	29687.36
585.94	29677.99
586.10	29680.33
586.26	29900.34
586.42	30356.75
586.58	29977.58
586.74	30045.46
586.90	29720.12
587.06	29612.46
587.22	29956.52
587.38	29729.48
587.54	29567.99
587.70	29605.44
587.86	29898.00
588.02	30183.55
588.18	29858.21
588.34	29951.84
588.49	30302.92
588.65	29928.43
588.81	30000.99
588.97	29872.26
589.13	29724.80
589.29	29806.72
589.45	29614.80
589.61	30073.54
589.77	30181.21
589.93	30033.75
590.08	30125.04
590.24	29895.66
590.40	29935.45
590.56	30338.02
590.72	30101.63
590.88	29790.34
591.04	30169.51
591.20	30162.48
591.35	30178.87
591.51	30305.26
591.67	30431.65
591.83	30485.48
591.99	30071.20
