SpectraSuite Data File
++++++++++++++++++++++++++++++++++++
Date: Fri Oct 18 13:58:10 GMT-05:00 2013
User: bianchi
Dark Spectrum Present: No
Reference Spectrum Present: No
Number of Sampled Component Spectra: 1
Spectrometers: USB2+H05261
Integration Time (usec): 50000 (USB2+H05261)
Spectra Averaged: 1 (USB2+H05261)
Boxcar Smoothing: 0 (USB2+H05261)
Correct for Electrical Dark: No (USB2+H05261)
Strobe/Lamp Enabled: No (USB2+H05261)
Correct for Detector Non-linearity: No (USB2+H05261)
Correct for Stray Light: No (USB2+H05261)
Number of Pixels in Processed Spectrum: 2048
>>>>>Begin Processed Spectral Data<<<<<
365.73	0.00
365.92	0.00
366.12	0.00
366.32	0.00
366.52	0.00
366.72	0.00
366.91	0.00
367.11	0.00
367.31	0.00
367.51	0.00
367.70	0.00
367.90	0.00
368.10	0.00
368.30	0.00
368.49	0.00
368.69	0.00
368.89	0.00
369.09	0.00
369.28	0.00
369.48	0.00
369.68	0.00
369.87	0.00
370.07	0.00
370.27	0.00
370.47	0.00
370.66	79.58
370.86	124.05
371.06	142.77
371.25	133.41
371.45	138.09
371.65	182.56
371.84	149.79
372.04	126.39
372.24	248.10
372.44	191.92
372.63	182.56
372.83	234.05
373.03	245.76
373.22	210.65
373.42	238.73
373.62	173.20
373.81	266.82
374.01	205.97
374.21	234.05
374.40	203.63
374.60	280.86
374.79	220.01
374.99	273.84
375.19	210.65
375.38	243.42
375.58	189.58
375.78	217.67
375.97	255.12
376.17	283.20
376.37	248.10
376.56	236.39
376.76	205.97
376.95	283.20
377.15	252.78
377.35	257.46
377.54	339.38
377.74	243.42
377.93	266.82
378.13	339.38
378.33	301.93
378.52	299.59
378.72	308.95
378.91	285.55
379.11	271.50
379.31	330.02
379.50	271.50
379.70	330.02
379.89	290.23
380.09	351.08
380.28	301.93
380.48	337.04
380.68	287.89
380.87	252.78
381.07	322.99
381.26	402.57
381.46	346.40
381.65	334.70
381.85	374.49
382.04	290.23
382.24	346.40
382.43	318.31
382.63	325.33
382.83	285.55
383.02	376.83
383.22	346.40
383.41	374.49
383.61	332.36
383.80	341.72
384.00	311.29
384.19	339.38
384.39	369.80
384.58	402.57
384.78	461.09
384.97	423.64
385.17	454.06
385.36	337.04
385.56	337.04
385.75	348.74
385.95	376.83
386.14	456.40
386.34	327.68
386.53	407.25
386.72	519.60
386.92	500.87
387.11	374.49
387.31	437.68
387.50	381.51
387.70	524.28
387.89	430.66
388.09	486.83
388.28	388.53
388.48	400.23
388.67	543.00
388.86	526.62
389.06	456.40
389.25	517.26
389.45	404.91
389.64	472.79
389.84	491.51
390.03	444.70
390.22	552.37
390.42	491.51
390.61	423.64
390.81	447.04
391.00	421.30
391.19	561.73
391.39	521.94
391.58	596.84
391.78	517.26
391.97	486.83
392.16	510.24
392.36	617.90
392.55	638.97
392.75	575.77
392.94	524.28
393.13	613.22
393.33	521.94
393.52	594.50
393.71	667.05
393.91	528.96
394.10	573.43
394.29	573.43
394.49	578.11
394.68	566.41
394.88	643.65
395.07	737.27
395.26	631.94
395.46	683.44
395.65	617.90
395.84	650.67
396.04	669.39
396.23	645.99
396.42	631.94
396.62	702.16
396.81	645.99
397.00	676.41
397.19	657.69
397.39	788.76
397.58	657.69
397.77	631.94
397.97	678.76
398.16	760.67
398.35	760.67
398.55	774.72
398.74	709.18
398.93	819.19
399.12	704.50
399.32	690.46
399.51	744.29
399.70	777.06
399.90	744.29
400.09	755.99
400.28	854.30
400.47	725.57
400.67	723.23
400.86	788.76
401.05	791.10
401.24	840.25
401.44	828.55
401.63	765.36
401.82	835.57
402.01	781.74
402.21	826.21
402.40	851.96
402.59	821.53
402.78	868.34
402.97	950.26
403.17	873.02
403.36	849.61
403.55	884.72
403.74	945.58
403.93	917.49
404.13	847.27
404.32	931.53
404.51	940.90
404.70	952.60
404.89	961.96
405.09	1001.75
405.28	933.87
405.47	1008.77
405.66	926.85
405.85	959.62
406.05	1067.28
406.24	1022.81
406.43	997.07
406.62	1043.88
406.81	1163.25
407.00	1041.54
407.20	987.71
407.39	1100.05
407.58	1015.79
407.77	1107.07
407.96	1144.52
408.15	1207.72
408.34	1034.52
408.54	1069.62
408.73	1128.14
408.92	1034.52
409.11	1132.82
409.30	1111.75
409.49	1067.28
409.68	1090.69
409.87	1205.38
410.07	1242.82
410.26	1226.44
410.45	1111.75
410.64	1343.47
410.83	1226.44
411.02	1259.21
411.21	1247.51
411.40	1172.61
411.59	1210.06
411.78	1219.42
411.98	1306.02
412.17	1303.68
412.36	1322.40
412.55	1270.91
412.74	1392.62
412.93	1392.62
413.12	1315.38
413.31	1565.82
413.50	1467.52
413.69	1481.56
413.88	1565.82
414.07	1476.88
414.26	1500.28
414.45	1458.15
414.64	1544.75
414.83	1502.62
415.02	1554.12
415.22	1519.01
415.41	1575.18
415.60	1643.06
415.79	1558.80
415.98	1659.44
416.17	1675.82
416.36	1607.95
416.55	1703.91
416.74	1699.23
416.93	1732.00
417.12	1724.97
417.31	1692.21
417.50	1755.40
417.69	1764.76
417.88	1666.46
418.07	1668.80
418.26	1680.50
418.45	1797.53
418.64	1865.41
418.83	1933.28
419.02	1830.30
419.21	1783.49
419.39	1895.83
419.58	1774.13
419.77	1849.02
419.96	1837.32
420.15	1909.88
420.34	1858.39
420.53	1879.45
420.72	1996.48
420.91	1975.41
421.10	2031.58
421.29	1947.33
421.48	1865.41
421.67	1994.14
421.86	2022.22
422.05	2050.31
422.24	2026.90
422.43	2008.18
422.61	1935.62
422.80	2008.18
422.99	2047.97
423.18	2120.53
423.37	2118.18
423.56	1952.01
423.75	1954.35
423.94	1926.26
424.13	1872.43
424.32	2026.90
424.50	2054.99
424.69	2129.89
424.88	2165.00
425.07	1923.92
425.26	2062.01
425.45	2122.87
425.64	2125.21
425.83	2012.86
426.01	2232.87
426.20	2172.02
426.39	2141.59
426.58	2153.29
426.77	2155.63
426.96	2225.85
427.15	2085.42
427.33	2134.57
427.52	2162.66
427.71	2064.35
427.90	2214.15
428.09	2157.97
428.28	2101.80
428.46	2207.13
428.65	2143.93
428.84	2277.34
429.03	2382.67
429.22	2169.68
429.40	2293.72
429.59	2286.70
429.78	2122.87
429.97	2069.03
430.16	2326.49
430.34	2506.71
430.53	2396.71
430.72	2380.32
430.91	2399.05
431.10	2385.01
431.28	2431.82
431.47	2429.48
431.66	2345.22
431.85	2485.65
432.03	2429.48
432.22	2546.50
432.41	2553.52
432.60	2530.12
432.79	2457.56
432.97	2539.48
433.16	2532.46
433.35	2562.89
433.54	2600.34
433.72	2600.34
433.91	2389.69
434.10	2555.86
434.28	2525.44
434.47	2605.02
434.66	2539.48
434.85	2551.18
435.03	2590.97
435.22	2724.38
435.41	2642.46
435.59	2642.46
435.78	2565.23
435.97	2768.85
436.16	2710.34
436.34	2738.43
436.53	2750.13
436.72	2750.13
436.90	2612.04
437.09	2689.28
437.28	2654.17
437.46	2743.11
437.65	2822.69
437.84	2825.03
438.02	2841.41
438.21	2902.26
438.40	2855.45
438.58	2897.58
438.77	2951.42
438.96	2944.39
439.14	2972.48
439.33	2906.95
439.52	3129.30
439.70	2967.80
439.89	2991.20
440.08	3126.96
440.26	3082.49
440.45	3124.62
440.63	3061.42
440.82	3164.40
441.01	3098.87
441.19	3091.85
441.38	3103.55
441.57	3379.73
441.75	3344.63
441.94	3459.31
442.12	3314.20
442.31	3426.54
442.50	3440.59
442.68	3405.48
442.87	3255.69
443.05	3356.33
443.24	3459.31
443.43	3421.86
443.61	3442.93
443.80	3559.95
443.98	3435.91
444.17	3302.50
444.35	3447.61
444.54	3372.71
444.73	3349.31
444.91	3379.73
445.10	3454.63
445.28	3346.97
445.47	3515.48
445.65	3585.70
445.84	3543.57
446.02	3517.83
446.21	3438.25
446.39	3489.74
446.58	3625.49
446.77	3625.49
446.95	3653.58
447.14	3515.48
447.32	3630.17
447.51	3564.64
447.69	3503.78
447.88	3562.30
448.06	3684.00
448.25	3585.70
448.43	3548.25
448.62	3557.61
448.80	3522.51
448.99	3620.81
449.17	3702.73
449.36	3524.85
449.54	3604.42
449.73	3831.46
449.91	3763.58
450.10	3658.26
450.28	3756.56
450.46	3824.44
450.65	3815.07
450.83	3817.41
451.02	3723.79
451.20	3889.97
451.39	3913.38
451.57	3932.10
451.76	3826.78
451.94	3857.20
452.13	4063.17
452.31	3908.69
452.49	3941.46
452.68	3990.61
452.86	3899.33
453.05	3927.42
453.23	4056.15
453.42	4023.38
453.60	3983.59
453.78	3974.23
453.97	3899.33
454.15	4124.02
454.34	4058.49
454.52	4147.43
454.70	4161.47
454.89	4138.07
455.07	4070.19
455.26	4126.36
455.44	4074.87
455.62	4119.34
455.81	4028.06
455.99	4173.18
456.17	4187.22
456.36	4257.43
456.54	4390.84
456.73	4248.07
456.91	4521.92
457.09	4409.57
457.28	4514.89
457.46	4306.59
457.64	4332.33
457.83	4306.59
458.01	4266.80
458.19	4407.23
458.38	4409.57
458.56	4561.70
458.74	4388.50
458.93	4454.04
459.11	4444.68
459.29	4648.30
459.48	4519.57
459.66	4545.32
459.84	4629.58
460.03	4629.58
460.21	4697.46
460.39	4615.54
460.57	4599.15
460.76	4578.09
460.94	4774.69
461.12	4606.17
461.31	4751.29
461.49	4795.76
461.67	4739.58
461.85	4791.08
462.04	4847.25
462.22	5083.64
462.40	4716.18
462.59	4730.22
462.77	4947.89
462.95	4882.36
463.13	4933.85
463.32	4800.44
463.50	4863.63
463.68	5069.60
463.86	4919.81
464.05	4975.98
464.23	4889.38
464.41	5083.64
464.59	5013.43
464.78	5144.50
464.96	4952.57
465.14	4957.25
465.32	5039.17
465.50	5181.95
465.69	4957.25
465.87	4957.25
466.05	5167.90
466.23	5102.37
466.41	5060.24
466.60	5357.49
466.78	5029.81
466.96	5083.64
467.14	5228.76
467.32	5158.54
467.51	5334.08
467.69	5095.35
467.87	5256.84
468.05	5256.84
468.23	5160.88
468.41	5200.67
468.60	5334.08
468.78	5404.30
468.96	5317.70
469.14	5495.58
469.32	5462.81
469.50	5252.16
469.69	5369.19
469.87	5591.54
470.05	5551.75
470.23	5383.23
470.41	5526.00
470.59	5584.52
470.77	5668.78
470.95	5406.64
471.14	5533.03
471.32	5533.03
471.50	5818.57
471.68	5657.07
471.86	5710.91
472.04	5764.74
472.22	6031.56
472.40	5832.62
472.58	5760.06
472.77	5954.32
472.95	5975.39
473.13	6078.37
473.31	5879.43
473.49	5849.00
473.67	6050.28
473.85	6008.16
474.03	6174.33
474.21	6174.33
474.39	6106.46
474.57	6143.91
474.75	6230.51
474.93	6193.06
475.12	6352.21
475.30	6382.64
475.48	6197.74
475.66	6396.68
475.84	6516.05
476.02	6590.95
476.20	6356.90
476.38	6597.97
476.56	6710.32
476.74	6745.42
476.92	6537.12
477.10	6656.48
477.28	6743.08
477.46	6649.46
477.64	6902.24
477.82	6836.70
478.00	7218.21
478.18	7185.44
478.36	7108.21
478.54	7131.61
478.72	7208.85
478.90	7281.41
479.08	7389.07
479.26	7452.27
479.44	7344.60
479.62	7353.96
479.80	7585.68
479.98	7592.70
480.16	7742.49
480.34	7784.62
480.52	7695.68
480.70	7861.86
480.88	7843.14
481.06	7948.46
481.24	7969.52
481.41	7985.91
481.59	7925.05
481.77	8067.83
481.95	8098.25
482.13	8299.54
482.31	8351.03
482.49	8390.82
482.67	8482.10
482.85	8585.08
483.03	8615.51
483.21	8901.06
483.39	8725.52
483.57	8795.73
483.74	8842.54
483.92	8746.58
484.10	8987.66
484.28	8929.14
484.46	9153.84
484.64	9434.70
484.82	9252.14
485.00	9287.25
485.18	9500.23
485.35	9444.06
485.53	9760.03
485.71	9626.62
485.89	9914.51
486.07	9621.94
486.25	9827.91
486.43	9762.37
486.61	9994.09
486.78	9970.68
486.96	10188.35
487.14	10200.05
487.32	10303.04
487.50	10382.62
487.68	10384.96
487.85	10424.75
488.03	10431.77
488.21	10705.61
488.39	10977.11
488.57	10855.40
488.75	10932.64
488.92	11089.46
489.10	11178.40
489.28	11035.63
489.46	11009.88
489.64	11328.19
489.81	11363.30
489.99	11672.25
490.17	11475.65
490.35	11768.21
490.53	11768.21
490.70	11616.08
490.88	11805.66
491.06	11985.88
491.24	12067.80
491.41	11882.90
491.59	12383.77
491.77	12264.41
491.95	12439.95
492.13	12299.52
492.30	12615.49
492.48	12388.46
492.66	12580.38
492.84	12681.02
493.01	12912.74
493.19	12769.96
493.37	12840.18
493.54	12999.34
493.72	13378.50
493.90	13095.30
494.08	13198.28
494.25	13214.66
494.43	13350.42
494.61	13657.03
494.79	13628.94
494.96	13544.68
495.14	13479.15
495.32	13795.12
495.49	13832.57
495.67	13797.46
495.85	13893.42
496.02	14106.41
496.20	14420.04
496.38	14508.98
496.55	14356.85
496.73	14466.85
496.91	14391.95
497.09	14710.27
497.26	14691.54
497.44	14483.24
497.62	14600.26
497.79	14878.79
497.97	14778.14
498.14	15063.69
498.32	15183.06
498.50	15082.41
498.67	15501.37
498.85	15012.20
499.03	15208.80
499.20	15197.10
499.38	15414.77
499.56	15377.32
499.73	15627.76
499.91	15653.50
500.08	15887.56
500.26	15283.70
500.44	15922.66
500.61	15768.19
500.79	15817.34
500.97	16088.84
501.14	16269.06
501.32	16123.95
501.49	16056.08
501.67	16287.79
501.84	16313.53
502.02	16130.97
502.20	16482.05
502.37	16505.46
502.55	16306.51
502.72	16568.65
502.90	16297.15
503.07	16336.94
503.25	16634.19
503.43	16444.60
503.60	16622.48
503.78	16828.45
503.95	16606.10
504.13	16741.85
504.30	16840.15
504.48	17224.00
504.65	17268.47
504.83	17216.98
505.01	17317.62
505.18	17247.41
505.36	17537.63
505.53	17160.81
505.71	17011.01
505.88	17338.69
506.06	17371.46
506.23	17530.61
506.41	17645.30
506.58	17659.34
506.76	17881.69
506.93	17799.77
507.11	17869.99
507.28	17895.74
507.46	18139.15
507.63	18122.77
507.81	18183.62
507.98	17961.27
508.16	18038.51
508.33	18190.64
508.50	18434.06
508.68	18073.62
508.85	18398.95
509.03	18806.20
509.20	18471.51
509.38	18668.11
509.55	18738.33
509.73	18803.86
509.90	18789.82
510.08	18710.24
510.25	18693.86
510.42	18764.07
510.60	18916.21
510.77	18677.48
510.95	19108.13
511.12	19063.66
511.30	19002.81
511.47	19154.94
511.64	19173.67
511.82	19330.48
511.99	19601.99
512.17	19428.79
512.34	19269.63
512.51	19477.94
512.69	19805.61
512.86	19632.41
513.04	19831.36
513.21	19967.11
513.38	20191.80
513.56	19887.53
513.73	19810.29
513.90	19709.65
514.08	19775.19
514.25	20065.41
514.43	20437.56
514.60	20222.23
514.77	20297.13
514.95	20369.68
515.12	20299.47
515.29	20056.05
515.47	20746.51
515.64	20620.12
515.81	20393.09
515.99	20706.72
516.16	20706.72
516.33	20748.85
516.51	20556.93
516.68	20783.96
516.85	20360.32
517.03	20790.98
517.20	20753.53
517.37	21156.10
517.54	21106.95
517.72	21025.03
517.89	20938.43
518.06	20978.22
518.24	20685.65
518.41	21146.74
518.58	21268.45
518.75	21284.83
518.93	21465.05
519.10	21097.59
519.27	21472.07
519.45	21624.21
519.62	21406.54
519.79	21298.88
519.96	21675.70
520.14	21935.50
520.31	21727.19
520.48	21546.97
520.65	21752.94
520.83	21963.59
521.00	21689.74
521.17	21614.85
521.34	22122.74
521.52	21884.01
521.69	22338.07
521.86	22228.07
522.03	22588.51
522.20	22134.45
522.38	22309.99
522.55	22162.53
522.72	21895.71
522.89	22167.21
523.07	22632.98
523.24	22686.81
523.41	23070.66
523.58	22860.01
523.75	22726.60
523.92	22494.89
524.10	22754.69
524.27	23012.15
524.44	22874.06
524.61	23063.64
524.78	23061.30
524.96	23323.44
525.13	22845.97
525.30	22885.76
525.47	23087.04
525.64	23187.69
525.81	23108.11
525.98	23356.21
526.16	23157.26
526.33	23276.63
526.50	23501.32
526.67	23372.59
526.84	23131.51
527.01	23131.51
527.18	23552.81
527.36	23356.21
527.53	23534.09
527.70	24049.00
527.87	24074.75
528.04	23482.59
528.21	23625.37
528.38	23672.18
528.55	24006.87
528.72	24140.29
528.89	23852.40
529.07	24243.27
529.24	23857.08
529.41	23999.85
529.58	24030.28
529.75	23955.38
529.92	24247.95
530.09	24032.62
530.26	24044.32
530.43	24418.81
530.60	23957.72
530.77	24470.30
530.94	24156.67
531.11	24194.12
531.28	24339.23
531.46	24329.87
531.63	24554.56
531.80	24608.39
531.97	24561.58
532.14	24905.64
532.31	24996.92
532.48	24287.74
532.65	24702.01
532.82	24474.98
532.99	24713.72
533.16	24666.91
533.33	24723.08
533.50	25221.61
533.67	24950.11
533.84	24999.26
534.01	25057.78
534.18	24484.34
534.35	25170.12
534.52	25139.69
534.69	25046.07
534.86	25624.18
535.03	24620.10
535.20	25392.47
535.37	25146.72
535.54	25591.42
535.71	25181.82
535.88	25205.23
536.05	25319.92
536.22	25617.16
536.38	25240.34
536.55	25617.16
536.72	25762.28
536.89	25385.45
537.06	25298.85
537.23	25315.23
537.40	25392.47
537.57	25673.34
537.74	25514.18
537.91	26387.20
538.08	25755.26
538.25	25558.65
538.42	25406.52
538.59	26206.98
538.75	25549.29
538.92	26033.78
539.09	25898.03
539.26	26157.83
539.43	25832.49
539.60	26192.94
539.77	25900.37
539.94	26314.64
540.11	26029.10
540.28	26249.11
540.44	26286.56
540.61	25888.67
540.78	26251.45
540.95	26459.76
541.12	26429.33
541.29	26614.23
541.46	26314.64
541.62	26253.79
541.79	26354.43
541.96	25898.03
542.13	26600.19
542.30	26663.38
542.47	26455.08
542.63	26904.46
542.80	26864.67
542.97	26658.70
543.14	27068.30
543.31	26796.79
543.48	26946.59
543.64	27250.86
543.81	27000.42
543.98	27227.45
544.15	26988.72
544.32	27269.58
544.48	27489.59
544.65	27072.98
544.82	26981.70
544.99	27171.28
545.16	27012.12
545.32	27302.35
545.49	27243.84
545.66	27302.35
545.83	27674.49
546.00	27665.13
546.16	27278.94
546.33	27407.67
546.50	27332.78
546.67	27807.90
546.83	27058.93
547.00	27513.00
547.17	27658.11
547.34	27648.75
547.50	27585.55
547.67	27992.81
547.84	27690.88
548.00	27800.88
548.17	28060.68
548.34	28044.30
548.51	27805.56
548.67	28187.07
548.84	28140.26
549.01	27765.78
549.18	27887.48
549.34	28095.79
549.51	27803.22
549.68	27936.63
549.84	27995.15
550.01	28058.34
550.18	27763.43
550.34	27988.13
550.51	27704.92
550.68	28437.51
550.84	28266.65
551.01	28804.97
551.18	28147.28
551.34	28243.24
551.51	27964.72
551.68	28196.43
551.84	28304.10
552.01	28261.97
552.18	28547.51
552.34	28608.37
552.51	28783.91
552.68	28217.50
552.84	28481.98
553.01	28369.63
553.18	28332.18
553.34	28624.75
553.51	28184.73
553.67	28891.57
553.84	28610.71
554.01	28734.76
554.17	28713.69
554.34	28620.07
554.51	28631.77
554.67	28570.92
554.84	28819.02
555.00	28788.59
555.17	28741.78
555.33	28694.97
555.50	28954.77
555.67	28690.29
555.83	29008.60
556.00	29055.41
556.16	29071.79
556.33	28706.67
556.50	29195.84
556.66	28819.02
556.83	29153.71
556.99	29280.10
557.16	29631.18
557.32	29214.57
557.49	29134.99
557.65	29057.75
557.82	29247.33
557.98	29069.45
558.15	29233.29
558.32	29479.05
558.48	28582.62
558.65	29509.47
558.81	29441.60
558.98	29123.29
559.14	29530.54
559.31	29392.45
559.47	29060.09
559.64	29514.16
559.80	29207.55
559.97	29909.71
560.13	29663.95
560.30	29504.79
560.46	29560.97
560.63	29420.53
560.79	29577.35
560.96	29556.28
561.12	29205.20
561.29	29198.18
561.45	29724.80
561.61	29539.90
561.78	29614.80
561.94	29942.47
562.11	29755.23
562.27	29633.52
562.44	29886.30
562.60	29212.23
562.77	29591.39
562.93	29556.28
563.10	29689.70
563.26	29940.13
563.42	30108.65
563.59	29727.14
563.75	29837.15
563.92	30108.65
564.08	29516.50
564.24	29701.40
564.41	29635.86
564.57	30033.75
564.74	29605.44
564.90	29893.32
565.07	30295.89
565.23	30190.57
565.39	29703.74
565.56	30246.74
565.72	29692.04
565.88	29694.38
566.05	29600.76
566.21	30120.35
566.38	30181.21
566.54	30040.78
566.70	30249.08
566.87	30239.72
567.03	30171.85
567.19	30120.35
567.36	30412.92
567.52	29968.22
567.68	29984.60
567.85	30190.57
568.01	29944.81
568.17	30118.01
568.34	30441.01
568.50	30293.55
568.66	30302.92
568.83	30511.22
568.99	30036.09
569.15	30008.01
569.32	29949.50
569.48	30551.01
569.64	30096.95
569.81	29912.05
569.97	30260.79
570.13	30639.95
570.30	30391.86
570.46	30160.14
570.62	30445.69
570.78	30054.82
570.95	30380.15
571.11	30293.55
571.27	29907.37
571.43	30197.59
571.60	30433.99
571.76	30323.98
571.92	30405.90
572.09	30408.24
572.25	30302.92
572.41	30366.11
572.57	30490.16
572.74	30515.90
572.90	29935.45
573.06	30129.72
573.22	30443.35
573.38	30204.61
573.55	30129.72
573.71	30663.36
573.87	30597.82
574.03	30122.69
574.20	30441.01
574.36	30323.98
574.52	30312.28
574.68	31030.82
574.84	30661.02
575.01	30536.97
575.17	30689.10
575.33	30663.36
575.49	30728.89
575.65	30347.39
575.82	30726.55
575.98	30426.96
576.14	30754.64
576.30	30391.86
576.46	30195.25
576.62	30272.49
576.79	30600.16
576.95	30036.09
577.11	30782.73
577.27	30536.97
577.43	30408.24
577.59	30581.44
577.75	30532.29
577.92	30209.29
578.08	30515.90
578.24	30452.71
578.40	30110.99
578.56	30710.17
578.72	30785.07
578.88	30848.26
579.04	30979.33
579.21	30834.22
579.37	30813.15
579.53	30717.19
579.69	30096.95
579.85	30581.44
580.01	30700.81
580.17	30473.78
580.33	30237.38
580.49	30663.36
580.65	30518.25
580.82	30869.33
580.98	30817.83
581.14	30654.00
581.30	30663.36
581.46	30614.21
581.62	30501.86
581.78	30630.59
581.94	30754.64
582.10	30562.72
582.26	30658.68
582.42	30799.11
582.58	30972.31
582.74	30473.78
582.90	30810.81
583.06	30831.88
583.22	30728.89
583.38	30644.63
583.54	30752.30
583.70	30953.58
583.86	30899.75
584.02	31049.55
584.18	30986.35
584.34	31040.18
584.50	30995.71
584.66	31035.50
584.82	30614.21
584.98	30813.15
585.14	30438.67
585.30	30356.75
585.46	30670.38
585.62	30600.16
585.78	30574.42
585.94	30808.47
586.10	30710.17
586.26	31061.25
586.42	30941.88
586.58	30775.70
586.74	30644.63
586.90	30270.15
587.06	30752.30
587.22	30607.19
587.38	30686.76
587.54	30604.84
587.70	30745.28
587.86	30593.14
588.02	30773.36
588.18	31173.60
588.34	30965.29
588.49	30838.90
588.65	30588.46
588.81	30794.43
588.97	30527.61
589.13	30932.52
589.29	30958.27
589.45	30756.98
589.61	31070.61
589.77	31309.35
589.93	31112.74
590.08	31445.10
590.24	31007.42
590.40	31035.50
590.56	31087.00
590.72	31133.81
590.88	31005.08
591.04	30859.96
591.20	31501.27
591.35	31257.85
591.51	31632.34
591.67	31400.63
591.83	31529.36
