SpectraSuite Data File
++++++++++++++++++++++++++++++++++++
Date: Fri Oct 18 13:58:00 GMT-05:00 2013
User: bianchi
Dark Spectrum Present: No
Reference Spectrum Present: No
Number of Sampled Component Spectra: 1
Spectrometers: USB2+H05261
Integration Time (usec): 50000 (USB2+H05261)
Spectra Averaged: 1 (USB2+H05261)
Boxcar Smoothing: 0 (USB2+H05261)
Correct for Electrical Dark: No (USB2+H05261)
Strobe/Lamp Enabled: No (USB2+H05261)
Correct for Detector Non-linearity: No (USB2+H05261)
Correct for Stray Light: No (USB2+H05261)
Number of Pixels in Processed Spectrum: 2048
>>>>>Begin Processed Spectral Data<<<<<
365.73	0.00
365.92	0.00
366.12	0.00
366.32	0.00
366.52	0.00
366.72	0.00
366.91	0.00
367.11	0.00
367.31	0.00
367.51	0.00
367.70	0.00
367.90	0.00
368.10	0.00
368.30	0.00
368.49	0.00
368.69	0.00
368.89	0.00
369.09	0.00
369.28	0.00
369.48	0.00
369.68	0.00
369.87	0.00
370.07	0.00
370.27	0.00
370.47	0.00
370.66	117.03
370.86	138.09
371.06	131.07
371.25	126.39
371.45	72.56
371.65	154.48
371.84	105.32
372.04	159.16
372.24	149.79
372.44	138.09
372.63	184.90
372.83	159.16
373.03	196.60
373.22	257.46
373.42	205.97
373.62	166.18
373.81	168.52
374.01	205.97
374.21	210.65
374.40	234.05
374.60	196.60
374.79	234.05
374.99	297.25
375.19	227.03
375.38	198.95
375.58	262.14
375.78	255.12
375.97	259.80
376.17	259.80
376.37	234.05
376.56	269.16
376.76	231.71
376.95	259.80
377.15	215.33
377.35	210.65
377.54	255.12
377.74	236.39
377.93	315.97
378.13	290.23
378.33	299.59
378.52	304.27
378.72	287.89
378.91	325.33
379.11	290.23
379.31	224.69
379.50	327.68
379.70	299.59
379.89	278.52
380.09	304.27
380.28	262.14
380.48	299.59
380.68	248.10
380.87	304.27
381.07	278.52
381.26	383.85
381.46	360.44
381.65	332.36
381.85	283.20
382.04	353.42
382.24	358.10
382.43	437.68
382.63	400.23
382.83	308.95
383.02	393.21
383.22	355.76
383.41	372.15
383.61	355.76
383.80	454.06
384.00	346.40
384.19	304.27
384.39	402.57
384.58	313.63
384.78	372.15
384.97	367.46
385.17	416.62
385.36	369.80
385.56	376.83
385.75	334.70
385.95	414.27
386.14	428.32
386.34	428.32
386.53	379.17
386.72	360.44
386.92	468.11
387.11	454.06
387.31	386.19
387.50	430.66
387.70	395.55
387.89	367.46
388.09	400.23
388.28	470.45
388.48	510.24
388.67	418.96
388.86	447.04
389.06	388.53
389.25	538.32
389.45	409.59
389.64	512.58
389.84	477.47
390.03	458.74
390.22	524.28
390.42	519.60
390.61	470.45
390.81	421.30
391.00	514.92
391.19	456.40
391.39	437.68
391.58	528.96
391.78	496.19
391.97	589.82
392.16	535.98
392.36	514.92
392.55	557.05
392.75	468.11
392.94	564.07
393.13	479.81
393.33	554.71
393.52	547.69
393.71	578.11
393.91	524.28
394.10	585.13
394.29	538.32
394.49	608.54
394.68	552.37
394.88	606.20
395.07	608.54
395.26	674.07
395.46	587.47
395.65	622.58
395.84	674.07
396.04	615.56
396.23	624.92
396.42	685.78
396.62	713.86
396.81	660.03
397.00	559.39
397.19	657.69
397.39	657.69
397.58	755.99
397.77	578.11
397.97	737.27
398.16	718.54
398.35	788.76
398.55	676.41
398.74	690.46
398.93	734.93
399.12	660.03
399.32	739.61
399.51	727.91
399.70	732.59
399.90	648.33
400.09	777.06
400.28	812.17
400.47	744.29
400.67	870.68
400.86	812.17
401.05	816.85
401.24	765.36
401.44	781.74
401.63	805.14
401.82	763.01
402.01	812.17
402.21	896.43
402.40	847.27
402.59	805.14
402.78	844.93
402.97	931.53
403.17	880.04
403.36	837.91
403.55	938.55
403.74	971.32
403.93	875.36
404.13	931.53
404.32	931.53
404.51	910.47
404.70	898.77
404.89	908.13
405.09	973.66
405.28	999.41
405.47	1015.79
405.66	987.71
405.85	915.15
406.05	938.55
406.24	994.73
406.43	994.73
406.62	959.62
406.81	917.49
407.00	1011.11
407.20	922.17
407.39	994.73
407.58	1109.41
407.77	1039.20
407.96	1104.73
408.15	1022.81
408.34	1064.94
408.54	1048.56
408.73	1057.92
408.92	1081.33
409.11	1156.22
409.30	1083.67
409.49	1146.86
409.68	1071.97
409.87	1156.22
410.07	1111.75
410.26	1130.48
410.45	1217.08
410.64	1228.78
410.83	1139.84
411.02	1266.23
411.21	1177.29
411.40	1228.78
411.59	1331.76
411.78	1172.61
411.98	1221.76
412.17	1352.83
412.36	1350.49
412.55	1467.52
412.74	1378.58
412.93	1341.13
413.12	1287.29
413.31	1350.49
413.50	1378.58
413.69	1371.55
413.88	1385.60
414.07	1413.68
414.26	1467.52
414.45	1504.96
414.64	1401.98
414.83	1507.30
415.02	1533.05
415.22	1565.82
415.41	1666.46
415.60	1582.20
415.79	1537.73
415.98	1502.62
416.17	1540.07
416.36	1544.75
416.55	1685.19
416.74	1652.42
416.93	1586.88
417.12	1746.04
417.31	1715.61
417.50	1673.48
417.69	1792.85
417.88	1732.00
418.07	1717.95
418.26	1797.53
418.45	1710.93
418.64	1832.64
418.83	1853.70
419.02	1781.15
419.21	1860.73
419.39	1998.82
419.58	1844.34
419.77	1764.76
419.96	1781.15
420.15	1820.94
420.34	1858.39
420.53	1797.53
420.72	1900.52
420.91	1912.22
421.10	1895.83
421.29	1895.83
421.48	1827.96
421.67	1961.37
421.86	1966.05
422.05	2085.42
422.24	1982.43
422.43	2047.97
422.61	1933.28
422.80	2031.58
422.99	2043.29
423.18	2043.29
423.37	2024.56
423.56	1961.37
423.75	2057.33
423.94	1926.26
424.13	1853.70
424.32	1844.34
424.50	1933.28
424.69	2097.12
424.88	2106.48
425.07	2003.50
425.26	2010.52
425.45	2015.20
425.64	2108.82
425.83	1994.14
426.01	2097.12
426.20	2050.31
426.39	2022.22
426.58	2071.37
426.77	2085.42
426.96	1952.01
427.15	2132.23
427.33	2148.61
427.52	2216.49
427.71	2118.18
427.90	2120.53
428.09	2146.27
428.28	2167.34
428.46	2104.14
428.65	2139.25
428.84	2197.76
429.03	2258.62
429.22	2284.36
429.40	2342.88
429.59	2303.09
429.78	2141.59
429.97	2125.21
430.16	2361.60
430.34	2289.04
430.53	2298.41
430.72	2214.15
430.91	2310.11
431.10	2319.47
431.28	2408.41
431.47	2338.20
431.66	2373.30
431.85	2303.09
432.03	2401.39
432.22	2450.54
432.41	2314.79
432.60	2441.18
432.79	2415.43
432.97	2396.71
433.16	2455.22
433.35	2413.09
433.54	2527.78
433.72	2593.31
433.91	2429.48
434.10	2473.95
434.28	2483.31
434.47	2534.80
434.66	2668.21
434.85	2595.65
435.03	2565.23
435.22	2600.34
435.41	2806.30
435.59	2743.11
435.78	2569.91
435.97	2509.05
436.16	2677.57
436.34	2698.64
436.53	2565.23
436.72	2773.53
436.90	2581.61
437.09	2663.53
437.28	2661.19
437.46	2679.91
437.65	2647.15
437.84	2726.72
438.02	2843.75
438.21	2850.77
438.40	2785.24
438.58	2843.75
438.77	2885.88
438.96	2848.43
439.14	2967.80
439.33	3042.70
439.52	2974.82
439.70	2979.50
439.89	2860.13
440.08	3105.89
440.26	2993.55
440.45	3075.46
440.63	3178.45
440.82	3066.10
441.01	3143.34
441.19	3190.15
441.38	3190.15
441.57	3183.13
441.75	3246.32
441.94	3178.45
442.12	3307.18
442.31	3342.28
442.50	3283.77
442.68	3309.52
442.87	3417.18
443.05	3379.73
443.24	3358.67
443.43	3414.84
443.61	3412.50
443.80	3506.12
443.98	3323.56
444.17	3211.22
444.35	3454.63
444.54	3414.84
444.73	3382.07
444.91	3487.40
445.10	3342.28
445.28	3356.33
445.47	3375.05
445.65	3478.04
445.84	3496.76
446.02	3433.57
446.21	3389.10
446.39	3396.12
446.58	3517.83
446.77	3548.25
446.95	3445.27
447.14	3595.06
447.32	3616.13
447.51	3569.32
447.69	3517.83
447.88	3571.66
448.06	3625.49
448.25	3515.48
448.43	3543.57
448.62	3452.29
448.80	3499.10
448.99	3590.38
449.17	3604.42
449.36	3618.47
449.54	3751.88
449.73	3653.58
449.91	3721.45
450.10	3864.22
450.28	3723.79
450.46	3843.16
450.65	3749.54
450.83	3803.37
451.02	3744.86
451.20	3866.56
451.39	3878.27
451.57	3768.26
451.76	3667.62
451.94	3721.45
452.13	3920.40
452.31	3796.35
452.49	3850.18
452.68	3894.65
452.86	3772.94
453.05	4011.68
453.23	3974.23
453.42	3786.99
453.60	3866.56
453.78	4074.87
453.97	3852.52
454.15	3934.44
454.34	3838.48
454.52	3925.08
454.70	4021.04
454.89	4058.49
455.07	4107.64
455.26	4070.19
455.44	4177.86
455.62	3971.89
455.81	4053.81
455.99	4163.81
456.17	4119.34
456.36	4166.15
456.54	4257.43
456.73	4290.20
456.91	4304.25
457.09	4339.35
457.28	4507.87
457.46	4196.58
457.64	4301.90
457.83	4243.39
458.01	4252.75
458.19	4376.80
458.38	4383.82
458.56	4461.06
458.74	4428.29
458.93	4344.03
459.11	4341.69
459.29	4554.68
459.48	4475.10
459.66	4493.83
459.84	4599.15
460.03	4454.04
460.21	4465.74
460.39	4521.92
460.57	4414.25
460.76	4634.26
460.94	4559.36
461.12	4613.20
461.31	4568.73
461.49	4533.62
461.67	4746.61
461.85	4802.78
462.04	4699.80
462.22	5022.79
462.40	4727.88
462.59	4814.48
462.77	4631.92
462.95	4760.65
463.13	4954.91
463.32	4734.90
463.50	4730.22
463.68	4695.11
463.86	4786.40
464.05	4641.28
464.23	4791.08
464.41	4938.53
464.59	4746.61
464.78	4943.21
464.96	4887.04
465.14	4762.99
465.32	4992.36
465.50	5022.79
465.69	5020.45
465.87	4997.04
466.05	5186.63
466.23	5015.77
466.41	5088.32
466.60	5128.11
466.78	4992.36
466.96	4954.91
467.14	5083.64
467.32	4975.98
467.51	5268.55
467.69	5100.03
467.87	5151.52
468.05	5139.82
468.23	5088.32
468.41	5308.34
468.60	5261.52
468.78	5275.57
468.96	5378.55
469.14	5259.18
469.32	5315.36
469.50	5270.89
469.69	5308.34
469.87	5397.28
470.05	5406.64
470.23	5313.02
470.41	5371.53
470.59	5486.22
470.77	5425.36
470.95	5425.36
471.14	5696.86
471.32	5320.04
471.50	5710.91
471.68	5420.68
471.86	5469.83
472.04	5713.25
472.22	5720.27
472.40	5430.04
472.58	5692.18
472.77	5706.23
472.95	5734.31
473.13	5975.39
473.31	5891.13
473.49	5820.91
473.67	5834.96
473.85	5872.40
474.03	5919.21
474.21	6097.10
474.39	6031.56
474.57	6050.28
474.75	6087.73
474.93	6251.57
475.12	6118.16
475.30	6286.68
475.48	6155.61
475.66	6303.06
475.84	6146.25
476.02	6476.26
476.20	6277.32
476.38	6518.39
476.56	6604.99
476.74	6544.14
476.92	6473.92
477.10	6506.69
477.28	6738.40
477.46	6635.42
477.64	6768.83
477.82	6841.39
478.00	7054.37
478.18	6988.84
478.36	6946.71
478.54	7082.46
478.72	6981.82
478.90	7000.54
479.08	7307.15
479.26	7356.30
479.44	7368.01
479.62	7232.26
479.80	7595.04
479.98	7541.21
480.16	7630.15
480.34	7468.65
480.52	7440.56
480.70	7730.79
480.88	7517.80
481.06	7871.22
481.24	7714.41
481.41	7934.42
481.59	7969.52
481.77	8002.29
481.95	8187.19
482.13	8124.00
482.31	8175.49
482.49	8187.19
482.67	8287.84
482.85	8280.82
483.03	8578.06
483.21	8709.13
483.39	8767.65
483.57	8669.34
483.74	8437.63
483.92	8997.02
484.10	8769.99
484.28	8889.35
484.46	9100.00
484.64	9092.98
484.82	9247.46
485.00	9153.84
485.18	9488.53
485.35	9465.13
485.53	9303.63
485.71	9533.00
485.89	9701.52
486.07	9645.35
486.25	9645.35
486.43	9584.49
486.61	9799.82
486.78	9860.68
486.96	10108.77
487.14	10118.14
487.32	10118.14
487.50	10068.98
487.68	10251.55
487.85	10317.08
488.03	10455.17
488.21	10651.78
488.39	10775.83
488.57	10778.17
488.75	10651.78
488.92	10991.16
489.10	10836.68
489.28	11075.42
489.46	11087.12
489.64	11253.30
489.81	11288.40
489.99	11328.19
490.17	11440.54
490.35	11515.44
490.53	11735.45
490.70	11627.78
490.88	11449.90
491.06	11761.19
491.24	11674.59
491.41	12009.29
491.59	11698.00
491.77	11899.28
491.95	12533.57
492.13	12264.41
492.30	12397.82
492.48	12299.52
492.66	12308.88
492.84	12348.67
493.01	12678.68
493.19	12465.69
493.37	12947.84
493.54	12807.41
493.72	12844.86
493.90	13006.36
494.08	12978.27
494.25	12922.10
494.43	12989.97
494.61	13301.26
494.79	13418.29
494.96	13467.44
495.14	13500.21
495.32	13549.36
495.49	13532.98
495.67	13642.98
495.85	14064.28
496.02	13977.68
496.20	14164.92
496.38	13799.80
496.55	14183.65
496.73	14139.18
496.91	13837.25
497.09	14312.38
497.26	14176.62
497.44	14370.89
497.62	14162.58
497.79	14785.16
497.97	14485.58
498.14	14930.28
498.32	14927.94
498.50	14958.36
498.67	15019.22
498.85	14979.43
499.03	14911.55
499.20	14925.60
499.38	15267.31
499.56	15140.93
499.73	15328.17
499.91	15344.55
500.08	15534.14
500.26	15183.06
500.44	15704.99
500.61	15634.78
500.79	15805.64
500.97	15817.34
501.14	16063.10
501.32	15875.85
501.49	15826.70
501.67	15592.65
501.84	16161.40
502.02	15978.84
502.20	16112.25
502.37	16301.83
502.55	16322.90
502.72	16320.56
502.90	16095.86
503.07	16301.83
503.25	16271.40
503.43	16409.50
503.60	16898.67
503.78	16762.92
503.95	16587.38
504.13	16791.00
504.30	16517.16
504.48	16465.67
504.65	16938.46
504.83	16943.14
505.01	17104.64
505.18	16783.98
505.36	17242.73
505.53	17170.17
505.71	17128.04
505.88	17298.90
506.06	17067.19
506.23	17397.20
506.41	17228.68
506.58	17462.74
506.76	17406.56
506.93	17446.35
507.11	17542.32
507.28	17699.13
507.46	17612.53
507.63	17795.09
507.81	17872.33
507.98	17862.97
508.16	17830.20
508.33	17778.71
508.50	18029.15
508.68	18090.00
508.85	18134.47
509.03	18094.68
509.20	18176.60
509.38	18504.28
509.55	18607.26
509.73	18696.20
509.90	18530.02
510.08	18576.83
510.25	18422.36
510.42	18436.40
510.60	18691.52
510.77	18714.92
510.95	18789.82
511.12	18616.62
511.30	18752.37
511.47	18815.57
511.64	18862.38
511.82	18977.06
511.99	19122.18
512.17	19150.26
512.34	19201.76
512.51	19508.37
512.69	19302.40
512.86	19365.59
513.04	19569.22
513.21	19491.98
513.38	19515.39
513.56	19515.39
513.73	19571.56
513.90	19789.23
514.08	19419.42
514.25	19840.72
514.43	20147.33
514.60	19782.21
514.77	19885.19
514.95	19906.26
515.12	20063.07
515.29	19594.96
515.47	19875.83
515.64	19941.36
515.81	20074.77
515.99	20243.29
516.16	20470.33
516.33	20400.11
516.51	20460.96
516.68	20432.88
516.85	20374.36
517.03	20425.86
517.20	20613.10
517.37	20669.27
517.54	20746.51
517.72	20971.20
517.89	20772.25
518.06	20580.33
518.24	20748.85
518.41	20409.47
518.58	21090.57
518.75	20582.67
518.93	21235.68
519.10	20996.95
519.27	21097.59
519.45	20926.73
519.62	21165.46
519.79	21174.83
519.96	21071.84
520.14	21319.94
520.31	21186.53
520.48	21493.14
520.65	21591.44
520.83	21474.42
521.00	21720.17
521.17	21535.27
521.34	21507.18
521.52	21542.29
521.69	21647.61
521.86	21947.20
522.03	21678.04
522.20	21837.20
522.38	22127.42
522.55	22024.44
522.72	21935.50
522.89	22015.08
523.07	21994.01
523.24	22246.79
523.41	22040.82
523.58	22188.28
523.75	22558.08
523.92	22157.85
524.10	22274.88
524.27	22616.60
524.44	22398.93
524.61	22691.49
524.78	22838.95
524.96	22735.96
525.13	22469.14
525.30	22398.93
525.47	23103.43
525.64	22436.38
525.81	23058.96
525.98	22944.27
526.16	23016.83
526.33	22888.10
526.50	22918.53
526.67	22679.79
526.84	22773.41
527.01	22682.13
527.18	23091.73
527.36	23208.75
527.53	23194.71
527.70	23410.04
527.87	23297.69
528.04	23377.27
528.21	23318.76
528.38	23166.62
528.55	23524.72
528.72	23456.85
528.89	23683.88
529.07	23716.65
529.24	23431.10
529.41	23669.84
529.58	23419.40
529.75	23667.50
529.92	23637.07
530.09	23672.18
530.26	24020.92
530.43	24016.24
530.60	23592.60
530.77	23812.61
530.94	23873.46
531.11	23513.02
531.28	23555.15
531.46	23761.12
531.63	24170.71
531.80	24278.38
531.97	24280.72
532.14	24130.92
532.31	24182.42
532.48	24290.08
532.65	24077.09
532.82	24201.14
532.99	23981.13
533.16	24369.66
533.33	24592.01
533.50	24266.67
533.67	24650.52
533.84	24252.63
534.01	24315.83
534.18	24144.97
534.35	24627.12
534.52	24453.92
534.69	24561.58
534.86	25015.65
535.03	24603.71
535.20	24748.82
535.37	24943.09
535.54	24858.83
535.71	24641.16
535.88	24898.62
536.05	24790.95
536.22	25198.21
536.38	25149.06
536.55	24652.86
536.72	25305.87
536.89	24968.84
537.06	25181.82
537.23	25483.75
537.40	24844.79
537.57	24896.28
537.74	24868.19
537.91	25575.03
538.08	25598.44
538.25	25326.94
538.42	25429.92
538.59	25556.31
538.75	25535.24
538.92	25408.86
539.09	25401.83
539.26	25392.47
539.43	25490.77
539.60	25572.69
539.77	25523.54
539.94	26066.55
540.11	25605.46
540.28	25652.27
540.44	25759.94
540.61	25647.59
540.78	25619.50
540.95	26316.98
541.12	25923.77
541.29	25893.35
541.46	25785.68
541.62	25839.51
541.79	26115.70
541.96	25539.93
542.13	25912.07
542.30	26162.51
542.47	26274.85
542.63	26139.10
542.80	26078.25
542.97	26300.60
543.14	26576.78
543.31	26265.49
543.48	26455.08
543.64	26452.73
543.81	26565.08
543.98	26754.66
544.15	26555.72
544.32	27115.11
544.48	26951.27
544.65	26593.17
544.82	26946.59
544.99	26235.06
545.16	26679.77
545.32	26792.11
545.49	27096.38
545.66	26670.40
545.83	26979.36
546.00	26742.96
546.16	26581.46
546.33	26522.95
546.50	26710.19
546.67	26925.52
546.83	27072.98
547.00	27044.89
547.17	27026.17
547.34	26951.27
547.50	27253.20
547.67	27761.09
547.84	27243.84
548.00	27133.83
548.17	27009.78
548.34	27339.80
548.51	27571.51
548.67	27524.70
548.84	27571.51
549.01	27300.01
549.18	27321.07
549.34	27276.60
549.51	27810.25
549.68	27637.05
549.84	27372.57
550.01	27620.66
550.18	27292.99
550.34	27529.38
550.51	27924.93
550.68	28044.30
550.84	27365.54
551.01	27697.90
551.18	27651.09
551.34	27639.39
551.51	27812.59
551.68	27693.22
551.84	27985.79
552.01	27798.54
552.18	27901.53
552.34	27473.21
552.51	27929.61
552.68	28140.26
552.84	27604.28
553.01	27812.59
553.18	28027.92
553.34	28306.44
553.51	27798.54
553.67	28025.57
553.84	28065.36
554.01	28198.77
554.17	27763.43
554.34	28027.92
554.51	28004.51
554.67	27835.99
554.84	28334.53
555.00	28243.24
555.17	28545.17
555.33	28416.44
555.50	28287.71
555.67	28292.40
555.83	28423.47
556.00	28465.60
556.16	28336.87
556.33	28442.19
556.50	28507.72
556.66	28479.64
556.83	28636.45
556.99	28432.83
557.16	29039.03
557.32	28414.10
557.49	28971.15
557.65	29053.07
557.82	28407.08
557.98	28161.33
558.15	28837.74
558.32	28634.11
558.48	28559.22
558.65	28638.80
558.81	28847.10
558.98	28751.14
559.14	28748.80
559.31	28634.11
559.47	28570.92
559.64	28804.97
559.80	29212.23
559.97	29242.65
560.13	28898.59
560.30	28889.23
560.46	29378.40
560.63	29560.97
560.79	29326.91
560.96	28793.27
561.12	29006.26
561.29	28821.36
561.45	28671.56
561.61	29130.31
561.78	29057.75
561.94	28971.15
562.11	28819.02
562.27	28945.41
562.44	29244.99
562.60	29120.95
562.77	29099.88
562.93	29230.95
563.10	29022.64
563.26	29113.92
563.42	29514.16
563.59	29305.85
563.75	29317.55
563.92	29448.62
564.08	29064.77
564.24	29469.69
564.41	29296.49
564.57	28865.83
564.74	29383.09
564.90	29055.41
565.07	29429.90
565.23	29441.60
565.39	29450.96
565.56	29614.80
565.72	29280.10
565.88	29502.45
566.05	29153.71
566.21	29392.45
566.38	29575.01
566.54	29130.31
566.70	29507.13
566.87	29404.15
567.03	29270.74
567.19	29713.10
567.36	29780.98
567.52	29663.95
567.68	29778.64
567.85	29902.68
568.01	29785.66
568.17	29502.45
568.34	29406.49
568.50	29792.68
568.66	29429.90
568.83	29972.90
568.99	29745.87
569.15	29780.98
569.32	29298.83
569.48	29621.82
569.64	29930.77
569.81	29720.12
569.97	29261.38
570.13	29656.93
570.30	29626.50
570.46	29916.73
570.62	29727.14
570.78	29572.67
570.95	29528.20
571.11	29802.04
571.27	29867.58
571.43	29170.10
571.60	29659.27
571.76	29827.79
571.92	29378.40
572.09	29708.42
572.25	29479.05
572.41	29661.61
572.57	30005.67
572.74	29666.29
572.90	29626.50
573.06	29191.16
573.22	29455.64
573.38	30270.15
573.55	29500.11
573.71	29862.90
573.87	29993.97
574.03	29392.45
574.20	29738.85
574.36	29663.95
574.52	29790.34
574.68	29881.62
574.84	30082.91
575.01	30064.18
575.17	29986.94
575.33	29511.81
575.49	29912.05
575.65	29881.62
575.82	29858.21
575.98	29586.71
576.14	30078.22
576.30	29844.17
576.46	29586.71
576.62	29942.47
576.79	29663.95
576.95	29589.05
577.11	29635.86
577.27	29790.34
577.43	30080.56
577.59	29888.64
577.75	29954.18
577.92	30087.59
578.08	29738.85
578.24	30167.16
578.40	29528.20
578.56	30181.21
578.72	29895.66
578.88	30424.62
579.04	30338.02
579.21	30012.69
579.37	30216.32
579.53	29825.45
579.69	30106.31
579.85	30033.75
580.01	29867.58
580.17	29462.66
580.33	30110.99
580.49	30136.74
580.65	30164.82
580.82	29954.18
580.98	29921.41
581.14	30532.29
581.30	29907.37
581.46	29912.05
581.62	29954.18
581.78	30183.55
581.94	29872.26
582.10	29881.62
582.26	30216.32
582.42	30015.03
582.58	30204.61
582.74	30345.05
582.90	30546.33
583.06	30328.66
583.22	29933.11
583.38	30162.48
583.54	29780.98
583.70	29773.95
583.86	29895.66
584.02	29649.91
584.18	30110.99
584.34	30258.45
584.50	30162.48
584.66	30230.36
584.82	30089.93
584.98	30026.73
585.14	30012.69
585.30	30146.10
585.46	30052.48
585.62	29958.86
585.78	30075.88
585.94	30436.33
586.10	30359.09
586.26	30059.50
586.42	30492.50
586.58	30396.54
586.74	30148.44
586.90	29926.09
587.06	29827.79
587.22	30141.42
587.38	29839.49
587.54	30651.66
587.70	30466.75
587.86	30607.19
588.02	30019.71
588.18	30424.62
588.34	30195.25
588.49	30323.98
588.65	30181.21
588.81	30157.80
588.97	30209.29
589.13	30176.53
589.29	30113.33
589.45	30199.93
589.61	30363.77
589.77	30815.49
589.93	30712.51
590.08	30721.87
590.24	30532.29
590.40	30700.81
590.56	30218.66
590.72	30274.83
590.88	30646.97
591.04	30368.45
591.20	30508.88
591.35	30555.69
591.51	30890.39
591.67	30426.96
591.83	30712.51
591.99	30927.84
