SpectraSuite Data File
++++++++++++++++++++++++++++++++++++
Date: Fri Oct 18 13:58:14 GMT-05:00 2013
User: bianchi
Dark Spectrum Present: No
Reference Spectrum Present: No
Number of Sampled Component Spectra: 1
Spectrometers: USB2+H05261
Integration Time (usec): 50000 (USB2+H05261)
Spectra Averaged: 1 (USB2+H05261)
Boxcar Smoothing: 0 (USB2+H05261)
Correct for Electrical Dark: No (USB2+H05261)
Strobe/Lamp Enabled: No (USB2+H05261)
Correct for Detector Non-linearity: No (USB2+H05261)
Correct for Stray Light: No (USB2+H05261)
Number of Pixels in Processed Spectrum: 2048
>>>>>Begin Processed Spectral Data<<<<<
365.73	0.00
365.92	0.00
366.12	0.00
366.32	0.00
366.52	0.00
366.72	0.00
366.91	0.00
367.11	0.00
367.31	0.00
367.51	0.00
367.70	0.00
367.90	0.00
368.10	0.00
368.30	0.00
368.49	0.00
368.69	0.00
368.89	0.00
369.09	0.00
369.28	0.00
369.48	0.00
369.68	0.00
369.87	0.00
370.07	0.00
370.27	0.00
370.47	0.00
370.66	9.36
370.86	65.54
371.06	126.39
371.25	170.86
371.45	112.35
371.65	53.83
371.84	79.58
372.04	152.13
372.24	203.63
372.44	168.52
372.63	201.29
372.83	212.99
373.03	114.69
373.22	184.90
373.42	196.60
373.62	215.33
373.81	231.71
374.01	212.99
374.21	243.42
374.40	184.90
374.60	318.31
374.79	191.92
374.99	248.10
375.19	189.58
375.38	276.18
375.58	245.76
375.78	313.63
375.97	271.50
376.17	290.23
376.37	269.16
376.56	273.84
376.76	180.22
376.95	159.16
377.15	285.55
377.35	259.80
377.54	238.73
377.74	285.55
377.93	196.60
378.13	215.33
378.33	278.52
378.52	318.31
378.72	322.99
378.91	294.91
379.11	313.63
379.31	390.87
379.50	280.86
379.70	325.33
379.89	301.93
380.09	339.38
380.28	266.82
380.48	269.16
380.68	306.61
380.87	210.65
381.07	348.74
381.26	330.02
381.46	262.14
381.65	264.48
381.85	297.25
382.04	330.02
382.24	374.49
382.43	322.99
382.63	280.86
382.83	351.08
383.02	348.74
383.22	332.36
383.41	294.91
383.61	315.97
383.80	348.74
384.00	332.36
384.19	409.59
384.39	430.66
384.58	344.06
384.78	367.46
384.97	393.21
385.17	287.89
385.36	332.36
385.56	308.95
385.75	322.99
385.95	435.34
386.14	379.17
386.34	351.08
386.53	395.55
386.72	369.80
386.92	402.57
387.11	332.36
387.31	430.66
387.50	362.78
387.70	386.19
387.89	374.49
388.09	376.83
388.28	491.51
388.48	400.23
388.67	491.51
388.86	402.57
389.06	561.73
389.25	505.56
389.45	482.15
389.64	475.13
389.84	449.38
390.03	444.70
390.22	444.70
390.42	423.64
390.61	468.11
390.81	500.87
391.00	486.83
391.19	531.30
391.39	575.77
391.58	571.09
391.78	503.22
391.97	489.17
392.16	402.57
392.36	582.79
392.55	566.41
392.75	582.79
392.94	592.16
393.13	554.71
393.33	533.64
393.52	568.75
393.71	500.87
393.91	547.69
394.10	585.13
394.29	610.88
394.49	606.20
394.68	578.11
394.88	617.90
395.07	624.92
395.26	533.64
395.46	617.90
395.65	643.65
395.84	589.82
396.04	596.84
396.23	683.44
396.42	734.93
396.62	636.63
396.81	589.82
397.00	697.48
397.19	725.57
397.39	709.18
397.58	636.63
397.77	631.94
397.97	657.69
398.16	685.78
398.35	676.41
398.55	704.50
398.74	730.25
398.93	713.86
399.12	727.91
399.32	688.12
399.51	711.52
399.70	772.38
399.90	751.31
400.09	716.20
400.28	716.20
400.47	802.80
400.67	835.57
400.86	842.59
401.05	800.46
401.24	814.51
401.44	779.40
401.63	741.95
401.82	805.14
402.01	837.91
402.21	807.48
402.40	791.10
402.59	873.02
402.78	882.38
402.97	961.96
403.17	929.19
403.36	933.87
403.55	896.43
403.74	1013.45
403.93	940.90
404.13	1020.47
404.32	976.00
404.51	882.38
404.70	938.55
404.89	947.92
405.09	931.53
405.28	826.21
405.47	931.53
405.66	1048.56
405.85	978.34
406.05	924.51
406.24	957.28
406.43	999.41
406.62	1036.86
406.81	1069.62
407.00	1102.39
407.20	1034.52
407.39	1128.14
407.58	1067.28
407.77	1032.18
407.96	1062.60
408.15	1018.13
408.34	1081.33
408.54	1015.79
408.73	1090.69
408.92	1071.97
409.11	1142.18
409.30	1114.10
409.49	1104.73
409.68	1170.27
409.87	1137.50
410.07	1132.82
410.26	1086.01
410.45	1142.18
410.64	1219.42
410.83	1109.41
411.02	1188.99
411.21	1315.38
411.40	1221.76
411.59	1324.74
411.78	1294.32
411.98	1266.23
412.17	1238.14
412.36	1235.80
412.55	1404.32
412.74	1380.92
412.93	1364.53
413.12	1280.27
413.31	1390.28
413.50	1336.45
413.69	1434.75
413.88	1427.73
414.07	1411.34
414.26	1444.11
414.45	1451.13
414.64	1376.24
414.83	1432.41
415.02	1469.86
415.22	1544.75
415.41	1589.22
415.60	1605.61
415.79	1544.75
415.98	1570.50
416.17	1610.29
416.36	1607.95
416.55	1586.88
416.74	1617.31
416.93	1607.95
417.12	1614.97
417.31	1652.42
417.50	1753.06
417.69	1788.17
417.88	1746.04
418.07	1694.55
418.26	1579.86
418.45	1809.23
418.64	1788.17
418.83	1769.44
419.02	1764.76
419.21	1741.36
419.39	1806.89
419.58	1785.83
419.77	1732.00
419.96	1830.30
420.15	1879.45
420.34	1959.03
420.53	1956.69
420.72	1949.67
420.91	1902.86
421.10	1898.17
421.29	1928.60
421.48	1888.81
421.67	2054.99
421.86	1860.73
422.05	2043.29
422.24	1930.94
422.43	1872.43
422.61	2003.50
422.80	2040.95
422.99	2167.34
423.18	2036.27
423.37	2019.88
423.56	1987.11
423.75	1996.48
423.94	1966.05
424.13	1884.13
424.32	1949.67
424.50	2118.18
424.69	2064.35
424.88	2155.63
425.07	1982.43
425.26	2031.58
425.45	2022.22
425.64	2033.93
425.83	2022.22
426.01	2031.58
426.20	2087.76
426.39	2043.29
426.58	2094.78
426.77	2092.44
426.96	2125.21
427.15	2085.42
427.33	2038.61
427.52	2197.76
427.71	2069.03
427.90	2076.06
428.09	2190.74
428.28	2207.13
428.46	2235.21
428.65	2167.34
428.84	2165.00
429.03	2230.53
429.22	2172.02
429.40	2256.28
429.59	2242.23
429.78	2232.87
429.97	2022.22
430.16	2155.63
430.34	2443.52
430.53	2253.94
430.72	2291.38
430.91	2251.60
431.10	2352.24
431.28	2361.60
431.47	2415.43
431.66	2403.73
431.85	2396.71
432.03	2459.90
432.22	2476.29
432.41	2387.35
432.60	2457.56
432.79	2333.51
432.97	2537.14
433.16	2417.77
433.35	2452.88
433.54	2469.27
433.72	2487.99
433.91	2541.82
434.10	2588.63
434.28	2497.35
434.47	2431.82
434.66	2656.51
434.85	2647.15
435.03	2682.25
435.22	2593.31
435.41	2703.32
435.59	2686.94
435.78	2686.94
435.97	2647.15
436.16	2663.53
436.34	2647.15
436.53	2745.45
436.72	2782.90
436.90	2715.02
437.09	2789.92
437.28	2754.81
437.46	2658.85
437.65	2670.55
437.84	2871.84
438.02	2848.43
438.21	2829.71
438.40	2703.32
438.58	2935.03
438.77	2799.28
438.96	2810.98
439.14	2918.65
439.33	2862.48
439.52	2904.60
439.70	2888.22
439.89	3045.04
440.08	3035.67
440.26	3194.83
440.45	3098.87
440.63	2977.16
440.82	3066.10
441.01	3061.42
441.19	3148.02
441.38	3138.66
441.57	3131.64
441.75	3234.62
441.94	3258.03
442.12	3124.62
442.31	3375.05
442.50	3258.03
442.68	3302.50
442.87	3281.43
443.05	3295.47
443.24	3389.10
443.43	3370.37
443.61	3396.12
443.80	3431.23
443.98	3286.11
444.17	3272.07
444.35	3267.39
444.54	3445.27
444.73	3421.86
444.91	3459.31
445.10	3445.27
445.28	3272.07
445.47	3356.33
445.65	3435.91
445.84	3428.88
446.02	3543.57
446.21	3478.04
446.39	3372.71
446.58	3578.68
446.77	3473.36
446.95	3456.97
447.14	3538.89
447.32	3581.02
447.51	3473.36
447.69	3473.36
447.88	3536.55
448.06	3545.91
448.25	3543.57
448.43	3620.81
448.62	3541.23
448.80	3531.87
448.99	3487.40
449.17	3492.08
449.36	3557.61
449.54	3611.45
449.73	3714.43
449.91	3627.83
450.10	3641.87
450.28	3639.53
450.46	3667.62
450.65	3866.56
450.83	3808.05
451.02	3723.79
451.20	3707.41
451.39	3693.37
451.57	3845.50
451.76	3819.75
451.94	3716.77
452.13	3803.37
452.31	3871.25
452.49	3824.44
452.68	3763.58
452.86	3918.06
453.05	3850.18
453.23	3918.06
453.42	3915.72
453.60	3803.37
453.78	3761.24
453.97	3817.41
454.15	3866.56
454.34	3981.25
454.52	4058.49
454.70	4032.74
454.89	3950.82
455.07	4044.45
455.26	4056.15
455.44	4229.35
455.62	4201.26
455.81	4203.60
455.99	4184.88
456.17	4222.33
456.36	4294.88
456.54	4292.54
456.73	4126.36
456.91	4374.46
457.09	4355.74
457.28	4367.44
457.46	4105.30
457.64	4353.40
457.83	4482.13
458.01	4334.67
458.19	4322.97
458.38	4322.97
458.56	4447.02
458.74	4397.87
458.93	4360.42
459.11	4397.87
459.29	4388.50
459.48	4484.47
459.66	4526.60
459.84	4472.76
460.03	4578.09
460.21	4685.75
460.39	4402.55
460.57	4505.53
460.76	4671.71
460.94	4741.93
461.12	4624.90
461.31	4528.94
461.49	4493.83
461.67	4554.68
461.85	4671.71
462.04	4823.84
462.22	4983.00
462.40	4755.97
462.59	4821.50
462.77	4737.24
462.95	4767.67
463.13	4746.61
463.32	4723.20
463.50	4884.70
463.68	4760.65
463.86	4851.93
464.05	4741.93
464.23	4898.74
464.41	5032.15
464.59	4844.91
464.78	4898.74
464.96	4861.29
465.14	4954.91
465.32	4807.46
465.50	5025.13
465.69	4978.32
465.87	5029.81
466.05	5071.94
466.23	4894.06
466.41	5015.77
466.60	5071.94
466.78	5158.54
466.96	4917.47
467.14	5121.09
467.32	5137.48
467.51	5266.21
467.69	5022.79
467.87	5142.16
468.05	5053.22
468.23	5289.61
468.41	5238.12
468.60	5083.64
468.78	5158.54
468.96	5109.39
469.14	5364.51
469.32	5406.64
469.50	5041.51
469.69	5397.28
469.87	5355.15
470.05	5572.82
470.23	5275.57
470.41	5355.15
470.59	5432.38
470.77	5607.92
470.95	5575.16
471.14	5713.25
471.32	5397.28
471.50	5675.80
471.68	5556.43
471.86	5598.56
472.04	5577.50
472.22	5785.80
472.40	5563.45
472.58	5900.49
472.77	5799.85
472.95	5804.53
473.13	5954.32
473.31	5738.99
473.49	5781.12
473.67	5680.48
473.85	5830.27
474.03	6148.59
474.21	5874.74
474.39	6038.58
474.57	5954.32
474.75	6094.76
474.93	6139.23
475.12	6136.88
475.30	6293.70
475.48	6235.19
475.66	6300.72
475.84	6258.59
476.02	6214.12
476.20	6349.87
476.38	6504.35
476.56	6616.69
476.74	6506.69
476.92	6560.52
477.10	6523.07
477.28	6637.76
477.46	6551.16
477.64	6787.55
477.82	6588.61
478.00	6939.69
478.18	6801.60
478.36	7112.89
478.54	7019.27
478.72	7068.42
478.90	6998.20
479.08	7148.00
479.26	7087.14
479.44	7281.41
479.62	7265.02
479.80	7426.52
479.98	7489.71
480.16	7344.60
480.34	7407.80
480.52	7733.13
480.70	7613.76
480.88	7475.67
481.06	7599.72
481.24	7592.70
481.41	8023.36
481.59	7896.97
481.77	8037.40
481.95	8112.30
482.13	8095.91
482.31	8210.60
482.49	8149.75
482.67	8336.99
482.85	8446.99
483.03	8386.14
483.21	8758.28
483.39	8720.84
483.57	8587.43
483.74	8692.75
483.92	8765.31
484.10	8578.06
484.28	8678.71
484.46	8933.82
484.64	9327.03
484.82	9011.06
485.00	9221.71
485.18	9390.23
485.35	9404.27
485.53	9561.09
485.71	9415.98
485.89	9397.25
486.07	9722.59
486.25	9591.52
486.43	9668.75
486.61	9673.43
486.78	9947.28
486.96	9764.72
487.14	10038.56
487.32	10237.50
487.50	10061.96
487.68	10036.22
487.85	10188.35
488.03	10312.40
488.21	10504.32
488.39	10600.29
488.57	10677.52
488.75	10588.58
488.92	10754.76
489.10	10881.15
489.28	10775.83
489.46	11351.60
489.64	10977.11
489.81	11419.47
489.99	11080.10
490.17	11267.34
490.35	11503.73
490.53	11389.05
490.70	11571.61
490.88	11604.38
491.06	11700.34
491.24	11859.49
491.41	11620.76
491.59	12088.87
491.77	12065.46
491.95	12060.78
492.13	12255.04
492.30	12358.03
492.48	12365.05
492.66	12266.75
492.84	12386.12
493.01	12381.43
493.19	12655.28
493.37	12800.39
493.54	12865.92
493.72	12692.73
493.90	12631.87
494.08	12926.78
494.25	13027.42
494.43	13200.62
494.61	13172.54
494.79	13507.23
494.96	13413.61
495.14	13511.91
495.32	13434.68
495.49	13514.25
495.67	13752.99
495.85	13589.15
496.02	13862.99
496.20	14038.53
496.38	13703.84
496.55	13736.60
496.73	14200.03
496.91	14160.24
497.09	14054.92
497.26	14148.54
497.44	14321.74
497.62	14286.63
497.79	14567.49
497.97	14520.68
498.14	14572.18
498.32	15021.56
498.50	14689.20
498.67	14824.95
498.85	15044.96
499.03	14824.95
499.20	14892.83
499.38	15281.36
499.56	15257.95
499.73	15487.32
499.91	15286.04
500.08	15459.24
500.26	15030.92
500.44	15192.42
500.61	15728.40
500.79	15597.33
500.97	15566.90
501.14	15697.97
501.32	15754.15
501.49	15754.15
501.67	15690.95
501.84	15807.98
502.02	16002.24
502.20	16042.03
502.37	16137.99
502.55	16114.59
502.72	16231.62
502.90	16189.49
503.07	16215.23
503.25	16273.74
503.43	16301.83
503.60	16273.74
503.78	16514.82
503.95	16491.41
504.13	16524.18
504.30	16524.18
504.48	16704.40
504.65	17027.40
504.83	16922.07
505.01	17200.60
505.18	17025.06
505.36	17099.95
505.53	16793.34
505.71	17041.44
505.88	17135.06
506.06	16910.37
506.23	17568.06
506.41	16936.12
506.58	17310.60
506.76	17514.23
506.93	17207.62
507.11	17231.02
507.28	17486.14
507.46	17446.35
507.63	17809.14
507.81	17970.63
507.98	17514.23
508.16	17811.48
508.33	17750.62
508.50	17862.97
508.68	17869.99
508.85	18078.30
509.03	17909.78
509.20	18436.40
509.38	18277.24
509.55	18443.42
509.73	18441.08
509.90	18363.84
510.08	18335.76
510.25	18380.23
510.42	18553.43
510.60	18630.66
510.77	18735.99
510.95	18853.02
511.12	19089.41
511.30	18691.52
511.47	18689.18
511.64	18899.83
511.82	19267.29
511.99	19232.18
512.17	18977.06
512.34	18759.39
512.51	19274.31
512.69	19389.00
512.86	19276.65
513.04	19454.53
513.21	19346.87
513.38	19681.56
513.56	19571.56
513.73	19283.67
513.90	19674.54
514.08	19459.21
514.25	19789.23
514.43	19634.75
514.60	20030.30
514.77	19852.42
514.95	19744.76
515.12	19704.97
515.29	19903.92
515.47	19793.91
515.64	19957.75
515.81	20084.14
515.99	20011.58
516.16	20404.79
516.33	20287.76
516.51	20362.66
516.68	19985.83
516.85	20107.54
517.03	20369.68
517.20	20512.46
517.37	20449.26
517.54	20610.76
517.72	20702.04
517.89	20308.83
518.06	20482.03
518.24	20360.32
518.41	20535.86
518.58	20238.61
518.75	20828.43
518.93	21343.35
519.10	20711.40
519.27	20996.95
519.45	21060.14
519.62	21006.31
519.79	21029.71
519.96	21191.21
520.14	21163.12
520.31	21249.72
520.48	21523.57
520.65	21275.47
520.83	21448.67
521.00	21476.76
521.17	21329.30
521.34	21120.99
521.52	21472.07
521.69	21916.78
521.86	21420.58
522.03	21848.90
522.20	21853.58
522.38	21556.33
522.55	21783.37
522.72	21895.71
522.89	21898.05
523.07	22216.36
523.24	21989.33
523.41	22111.04
523.58	21942.52
523.75	22307.65
523.92	21968.27
524.10	22331.05
524.27	22113.38
524.44	22307.65
524.61	22558.08
524.78	22380.20
524.96	22670.43
525.13	22115.72
525.30	22450.42
525.47	22380.20
525.64	22359.14
525.81	22693.83
525.98	22831.93
526.16	22876.40
526.33	22712.56
526.50	23026.19
526.67	22581.49
526.84	22438.72
527.01	22881.08
527.18	22782.77
527.36	23178.33
527.53	23047.26
527.70	23538.77
527.87	23477.91
528.04	23250.88
528.21	23480.25
528.38	22871.72
528.55	23269.61
528.72	23005.13
528.89	23597.28
529.07	23480.25
529.24	23080.02
529.41	23330.46
529.58	23632.39
529.75	23271.95
529.92	23494.30
530.09	23342.16
530.26	23529.41
530.43	23800.91
530.60	23431.10
530.77	23896.87
530.94	23597.28
531.11	23906.23
531.28	23866.44
531.46	23693.24
531.63	24137.94
531.80	23873.46
531.97	24238.59
532.14	24266.67
532.31	23901.55
532.48	24376.68
532.65	24137.94
532.82	24474.98
532.99	24369.66
533.16	24379.02
533.33	24350.93
533.50	24086.45
533.67	24395.40
533.84	24297.10
534.01	24240.93
534.18	24386.04
534.35	24491.37
534.52	24460.94
534.69	24830.74
534.86	24767.55
535.03	24758.19
535.20	24467.96
535.37	24362.64
535.54	24875.21
535.71	24327.53
535.88	24552.22
536.05	24498.39
536.22	24961.81
536.38	25013.31
536.55	24650.52
536.72	24886.92
536.89	24535.84
537.06	24905.64
537.23	25230.98
537.40	25036.71
537.57	24980.54
537.74	24959.47
537.91	24865.85
538.08	25369.07
538.25	25212.25
538.42	25462.69
538.59	25219.27
538.75	25116.29
538.92	25067.14
539.09	25450.99
539.26	25727.17
539.43	25532.90
539.60	25659.29
539.77	25495.46
539.94	25376.09
540.11	25247.36
540.28	25392.47
540.44	25668.66
540.61	25638.23
540.78	25291.83
540.95	25488.43
541.12	25556.31
541.29	25750.57
541.46	25907.39
541.62	25694.40
541.79	25818.45
541.96	25481.41
542.13	25813.77
542.30	26094.63
542.47	26003.35
542.63	26181.23
542.80	26396.56
542.97	26335.71
543.14	26441.03
543.31	26478.48
543.48	26373.16
543.64	26340.39
543.81	26370.82
543.98	26529.97
544.15	26239.75
544.32	26623.59
544.48	27012.12
544.65	26642.32
544.82	26401.24
544.99	25989.31
545.16	26270.17
545.32	26363.79
545.49	26977.01
545.66	27035.53
545.83	27077.66
546.00	26864.67
546.16	26335.71
546.33	26604.87
546.50	26642.32
546.67	27075.32
546.83	26782.75
547.00	26829.56
547.17	26775.73
547.34	26897.44
547.50	27096.38
547.67	27147.87
547.84	27271.92
548.00	27070.64
548.17	27164.26
548.34	26881.05
548.51	27145.53
548.67	27386.61
548.84	27028.51
549.01	27042.55
549.18	27119.79
549.34	27178.30
549.51	27194.68
549.68	27175.96
549.84	27133.83
550.01	27536.40
550.18	27068.30
550.34	27449.80
550.51	27339.80
550.68	27641.73
550.84	27115.11
551.01	27742.37
551.18	27711.94
551.34	27150.21
551.51	27126.81
551.68	27782.16
551.84	27407.67
552.01	27402.99
552.18	27948.34
552.34	27658.11
552.51	27786.84
552.68	27559.81
552.84	28046.64
553.01	27585.55
553.18	28065.36
553.34	27971.74
553.51	27667.47
553.67	27882.80
553.84	28128.56
554.01	27782.16
554.17	28280.69
554.34	27969.40
554.51	28027.92
554.67	28191.75
554.84	28060.68
555.00	28041.96
555.17	27625.34
555.33	27978.76
555.50	28044.30
555.67	28311.12
555.83	28364.95
556.00	27819.61
556.16	28397.72
556.33	28313.46
556.50	28322.82
556.66	28304.10
556.83	28301.76
556.99	28496.02
557.16	28851.78
557.32	28395.38
557.49	28374.31
557.65	28320.48
557.82	28472.62
557.98	28142.60
558.15	28158.99
558.32	28353.25
558.48	28409.42
558.65	28629.43
558.81	28744.12
558.98	28631.77
559.14	28641.14
559.31	28606.03
559.47	28748.80
559.64	28545.17
559.80	28854.12
559.97	28662.20
560.13	28460.91
560.30	28554.54
560.46	28575.60
560.63	29113.92
560.79	29097.54
560.96	29006.26
561.12	28596.67
561.29	28814.34
561.45	28704.33
561.61	28961.79
561.78	28821.36
561.94	29067.11
562.11	29127.97
562.27	28985.19
562.44	28620.07
562.60	28966.47
562.77	28641.14
562.93	28641.14
563.10	29024.98
563.26	28613.05
563.42	29237.97
563.59	28765.18
563.75	29008.60
563.92	28868.17
564.08	28987.53
564.24	28872.85
564.41	28734.76
564.57	28507.72
564.74	29015.62
564.90	29507.13
565.07	29212.23
565.23	29163.08
565.39	29310.53
565.56	29312.87
565.72	29067.11
565.88	29326.91
566.05	29097.54
566.21	29319.89
566.38	29036.69
566.54	29032.00
566.70	29043.71
566.87	29635.86
567.03	29151.37
567.19	29558.63
567.36	29446.28
567.52	29195.84
567.68	29518.84
567.85	29298.83
568.01	28898.59
568.17	29095.20
568.34	29483.73
568.50	29490.75
568.66	29401.81
568.83	29589.05
568.99	29242.65
569.15	29317.55
569.32	29502.45
569.48	28989.88
569.64	29518.84
569.81	29415.85
569.97	29315.21
570.13	29610.12
570.30	29567.99
570.46	29352.66
570.62	29355.00
570.78	29511.81
570.95	29408.83
571.11	29453.30
571.27	29369.04
571.43	29521.18
571.60	29460.32
571.76	29312.87
571.92	29446.28
572.09	29532.88
572.25	29582.03
572.41	29738.85
572.57	29535.22
572.74	29523.52
572.90	29373.72
573.06	29486.07
573.22	29467.34
573.38	29722.46
573.55	29706.08
573.71	29968.22
573.87	29699.06
574.03	29340.96
574.20	29591.39
574.36	29397.13
574.52	29652.25
574.68	29799.70
574.84	29521.18
575.01	29673.31
575.17	29748.21
575.33	29610.12
575.49	29755.23
575.65	29408.83
575.82	29371.38
575.98	29397.13
576.14	29628.84
576.30	29876.94
576.46	29795.02
576.62	29713.10
576.79	29610.12
576.95	29465.00
577.11	29926.09
577.27	30052.48
577.43	30228.02
577.59	29750.55
577.75	29635.86
577.92	29692.04
578.08	29488.41
578.24	29493.09
578.40	29766.93
578.56	29689.70
578.72	29905.02
578.88	30192.91
579.04	30008.01
579.21	29902.68
579.37	29886.30
579.53	30010.35
579.69	29556.28
579.85	29523.52
580.01	29881.62
580.17	29734.17
580.33	29841.83
580.49	29841.83
580.65	30382.49
580.82	30026.73
580.98	29961.20
581.14	29900.34
581.30	29649.91
581.46	29656.93
581.62	29551.60
581.78	29841.83
581.94	29436.92
582.10	29823.11
582.26	29748.21
582.42	29937.79
582.58	30026.73
582.74	30036.09
582.90	30003.33
583.06	29898.00
583.22	30096.95
583.38	29757.57
583.54	29713.10
583.70	30029.07
583.86	29823.11
584.02	29975.24
584.18	30148.44
584.34	30338.02
584.50	29682.67
584.66	29832.47
584.82	29776.30
584.98	30174.19
585.14	29865.24
585.30	29876.94
585.46	30022.05
585.62	29675.65
585.78	29972.90
585.94	30015.03
586.10	29750.55
586.26	29996.31
586.42	30401.22
586.58	30103.97
586.74	29989.28
586.90	29970.56
587.06	29689.70
587.22	30043.12
587.38	29869.92
587.54	30066.52
587.70	30192.91
587.86	29984.60
588.02	30323.98
588.18	30075.88
588.34	30061.84
588.49	30029.07
588.65	29841.83
588.81	29757.57
588.97	30356.75
589.13	30174.19
589.29	30295.89
589.45	29933.11
589.61	30433.99
589.77	30445.69
589.93	30511.22
590.08	30309.94
590.24	30082.91
590.40	30230.36
590.56	30370.79
590.72	29921.41
590.88	29862.90
591.04	29703.74
591.20	30595.48
591.35	30621.23
591.51	30682.08
591.67	30492.50
591.83	30820.17
591.99	30429.30
