SpectraSuite Data File
++++++++++++++++++++++++++++++++++++
Date: Fri Oct 18 13:57:57 GMT-05:00 2013
User: bianchi
Dark Spectrum Present: No
Reference Spectrum Present: No
Number of Sampled Component Spectra: 1
Spectrometers: USB2+H05261
Integration Time (usec): 50000 (USB2+H05261)
Spectra Averaged: 1 (USB2+H05261)
Boxcar Smoothing: 0 (USB2+H05261)
Correct for Electrical Dark: No (USB2+H05261)
Strobe/Lamp Enabled: No (USB2+H05261)
Correct for Detector Non-linearity: No (USB2+H05261)
Correct for Stray Light: No (USB2+H05261)
Number of Pixels in Processed Spectrum: 2048
>>>>>Begin Processed Spectral Data<<<<<
365.73	0.00
365.92	0.00
366.12	0.00
366.32	0.00
366.52	0.00
366.72	0.00
366.91	0.00
367.11	0.00
367.31	0.00
367.51	0.00
367.70	0.00
367.90	0.00
368.10	0.00
368.30	0.00
368.49	0.00
368.69	0.00
368.89	0.00
369.09	0.00
369.28	0.00
369.48	0.00
369.68	0.00
369.87	0.00
370.07	0.00
370.27	0.00
370.47	0.00
370.66	117.03
370.86	74.90
371.06	147.45
371.25	114.69
371.45	212.99
371.65	114.69
371.84	131.07
372.04	177.88
372.24	241.08
372.44	163.84
372.63	184.90
372.83	278.52
373.03	180.22
373.22	243.42
373.42	182.56
373.62	252.78
373.81	208.31
374.01	142.77
374.21	238.73
374.40	248.10
374.60	236.39
374.79	243.42
374.99	257.46
375.19	325.33
375.38	344.06
375.58	315.97
375.78	266.82
375.97	227.03
376.17	294.91
376.37	269.16
376.56	299.59
376.76	201.29
376.95	285.55
377.15	318.31
377.35	276.18
377.54	287.89
377.74	269.16
377.93	250.44
378.13	257.46
378.33	273.84
378.52	285.55
378.72	311.29
378.91	287.89
379.11	285.55
379.31	306.61
379.50	283.20
379.70	299.59
379.89	318.31
380.09	234.05
380.28	362.78
380.48	294.91
380.68	266.82
380.87	287.89
381.07	308.95
381.26	301.93
381.46	299.59
381.65	250.44
381.85	290.23
382.04	315.97
382.24	332.36
382.43	322.99
382.63	395.55
382.83	355.76
383.02	315.97
383.22	355.76
383.41	369.80
383.61	395.55
383.80	454.06
384.00	339.38
384.19	388.53
384.39	332.36
384.58	393.21
384.78	390.87
384.97	358.10
385.17	395.55
385.36	304.27
385.56	447.04
385.75	421.30
385.95	381.51
386.14	388.53
386.34	400.23
386.53	400.23
386.72	386.19
386.92	435.34
387.11	334.70
387.31	393.21
387.50	379.17
387.70	418.96
387.89	470.45
388.09	379.17
388.28	440.02
388.48	461.09
388.67	468.11
388.86	491.51
389.06	533.64
389.25	414.27
389.45	416.62
389.64	456.40
389.84	425.98
390.03	475.13
390.22	484.49
390.42	423.64
390.61	496.19
390.81	470.45
391.00	526.62
391.19	528.96
391.39	510.24
391.58	503.22
391.78	601.52
391.97	521.94
392.16	526.62
392.36	594.50
392.55	517.26
392.75	620.24
392.94	514.92
393.13	554.71
393.33	547.69
393.52	545.34
393.71	589.82
393.91	550.03
394.10	674.07
394.29	636.63
394.49	514.92
394.68	620.24
394.88	589.82
395.07	678.76
395.26	613.22
395.46	678.76
395.65	603.86
395.84	653.01
396.04	657.69
396.23	697.48
396.42	599.18
396.62	676.41
396.81	671.73
397.00	730.25
397.19	660.03
397.39	718.54
397.58	755.99
397.77	685.78
397.97	697.48
398.16	734.93
398.35	800.46
398.55	695.14
398.74	718.54
398.93	685.78
399.12	734.93
399.32	814.51
399.51	739.61
399.70	823.87
399.90	727.91
400.09	770.04
400.28	765.36
400.47	755.99
400.67	755.99
400.86	800.46
401.05	770.04
401.24	713.86
401.44	807.48
401.63	837.91
401.82	833.23
402.01	781.74
402.21	770.04
402.40	884.72
402.59	833.23
402.78	959.62
402.97	777.06
403.17	854.30
403.36	840.25
403.55	873.02
403.74	896.43
403.93	851.96
404.13	901.11
404.32	908.13
404.51	882.38
404.70	1029.84
404.89	884.72
405.09	959.62
405.28	990.05
405.47	894.08
405.66	952.60
405.85	903.45
406.05	1011.11
406.24	980.68
406.43	994.73
406.62	1027.50
406.81	1184.31
407.00	983.02
407.20	1036.86
407.39	1032.18
407.58	1128.14
407.77	1036.86
407.96	1081.33
408.15	1083.67
408.34	1114.10
408.54	1088.35
408.73	1109.41
408.92	1118.78
409.11	1174.95
409.30	1111.75
409.49	1191.33
409.68	1205.38
409.87	1221.76
410.07	1273.25
410.26	1139.84
410.45	1170.27
410.64	1170.27
410.83	1345.81
411.02	1198.35
411.21	1313.04
411.40	1345.81
411.59	1310.70
411.78	1240.48
411.98	1233.46
412.17	1322.40
412.36	1303.68
412.55	1390.28
412.74	1373.89
412.93	1376.24
413.12	1352.83
413.31	1383.26
413.50	1315.38
413.69	1380.92
413.88	1399.64
414.07	1490.92
414.26	1467.52
414.45	1479.22
414.64	1446.45
414.83	1544.75
415.02	1572.84
415.22	1554.12
415.41	1516.67
415.60	1547.09
415.79	1563.48
415.98	1610.29
416.17	1551.78
416.36	1631.35
416.55	1504.96
416.74	1631.35
416.93	1727.32
417.12	1612.63
417.31	1645.40
417.50	1741.36
417.69	1774.13
417.88	1842.00
418.07	1699.23
418.26	1760.08
418.45	1797.53
418.64	1851.36
418.83	1886.47
419.02	1778.81
419.21	1788.17
419.39	1886.47
419.58	1851.36
419.77	1865.41
419.96	1832.64
420.15	1907.54
420.34	1839.66
420.53	1881.79
420.72	1980.09
420.91	1865.41
421.10	1940.30
421.29	2029.24
421.48	1956.69
421.67	1991.80
421.86	1933.28
422.05	2012.86
422.24	2005.84
422.43	1963.71
422.61	2064.35
422.80	2143.93
422.99	2071.37
423.18	2031.58
423.37	2200.10
423.56	2057.33
423.75	1966.05
423.94	1984.77
424.13	1926.26
424.32	1905.20
424.50	2160.31
424.69	2073.71
424.88	2066.69
425.07	2031.58
425.26	1996.48
425.45	2024.56
425.64	2073.71
425.83	2047.97
426.01	2071.37
426.20	2106.48
426.39	1996.48
426.58	2085.42
426.77	1959.03
426.96	2047.97
427.15	2214.15
427.33	2162.66
427.52	2106.48
427.71	2094.78
427.90	2204.78
428.09	2190.74
428.28	2223.51
428.46	2228.19
428.65	2160.31
428.84	2270.32
429.03	2230.53
429.22	2272.66
429.40	2300.75
429.59	2389.69
429.78	2223.51
429.97	2167.34
430.16	2328.83
430.34	2275.00
430.53	2305.43
430.72	2445.86
430.91	2349.90
431.10	2260.96
431.28	2370.96
431.47	2504.37
431.66	2539.48
431.85	2333.51
432.03	2532.46
432.22	2464.58
432.41	2431.82
432.60	2492.67
432.79	2516.08
432.97	2518.42
433.16	2530.12
433.35	2495.01
433.54	2511.39
433.72	2541.82
433.91	2555.86
434.10	2539.48
434.28	2621.40
434.47	2565.23
434.66	2658.85
434.85	2647.15
435.03	2649.49
435.22	2693.96
435.41	2628.42
435.59	2665.87
435.78	2679.91
435.97	2775.88
436.16	2761.83
436.34	2647.15
436.53	2675.23
436.72	2806.30
436.90	2698.64
437.09	2743.11
437.28	2715.02
437.46	2794.60
437.65	2867.16
437.84	2794.60
438.02	2747.79
438.21	2864.82
438.40	2895.24
438.58	2942.05
438.77	2885.88
438.96	3009.93
439.14	2986.52
439.33	2991.20
439.52	2991.20
439.70	3117.59
439.89	3084.83
440.08	3082.49
440.26	2963.12
440.45	2942.05
440.63	3080.14
440.82	3129.30
441.01	3145.68
441.19	3258.03
441.38	3192.49
441.57	3290.79
441.75	3316.54
441.94	3454.63
442.12	3286.11
442.31	3358.67
442.50	3295.47
442.68	3370.37
442.87	3379.73
443.05	3325.90
443.24	3499.10
443.43	3302.50
443.61	3368.03
443.80	3669.96
443.98	3356.33
444.17	3225.26
444.35	3330.58
444.54	3506.12
444.73	3550.59
444.91	3428.88
445.10	3548.25
445.28	3569.32
445.47	3442.93
445.65	3471.01
445.84	3522.51
446.02	3557.61
446.21	3365.69
446.39	3588.04
446.58	3524.85
446.77	3471.01
446.95	3471.01
447.14	3597.40
447.32	3550.59
447.51	3684.00
447.69	3515.48
447.88	3501.44
448.06	3574.00
448.25	3562.30
448.43	3707.41
448.62	3585.70
448.80	3559.95
448.99	3599.74
449.17	3620.81
449.36	3609.11
449.54	3791.67
449.73	3679.32
449.91	3616.13
450.10	3723.79
450.28	3737.84
450.46	3779.97
450.65	3836.14
450.83	3747.20
451.02	3775.28
451.20	3866.56
451.39	3796.35
451.57	3854.86
451.76	3826.78
451.94	3754.22
452.13	3950.82
452.31	3854.86
452.49	3843.16
452.68	3950.82
452.86	3943.80
453.05	3976.57
453.23	3854.86
453.42	4037.42
453.60	4056.15
453.78	3911.04
453.97	3896.99
454.15	4182.54
454.34	4004.66
454.52	4016.36
454.70	4208.28
454.89	3969.55
455.07	4021.04
455.26	4128.70
455.44	4273.82
455.62	4140.41
455.81	3896.99
455.99	4360.42
456.17	4217.65
456.36	4297.22
456.54	4259.78
456.73	4173.18
456.91	4255.09
457.09	4449.36
457.28	4528.94
457.46	4489.15
457.64	4425.95
457.83	4531.28
458.01	4416.59
458.19	4475.10
458.38	4409.57
458.56	4526.60
458.74	4573.41
458.93	4468.08
459.11	4554.68
459.29	4514.89
459.48	4507.87
459.66	4456.38
459.84	4835.55
460.03	4620.22
460.21	4650.64
460.39	4554.68
460.57	4603.83
460.76	4777.03
460.94	4711.50
461.12	4601.49
461.31	4638.94
461.49	4599.15
461.67	4709.16
461.85	4704.48
462.04	4753.63
462.22	4945.55
462.40	4765.33
462.59	4894.06
462.77	4933.85
462.95	4826.18
463.13	4915.12
463.32	4760.65
463.50	4779.37
463.68	5053.22
463.86	4964.28
464.05	4760.65
464.23	4823.84
464.41	5107.05
464.59	4861.29
464.78	5041.51
464.96	5013.43
465.14	4933.85
465.32	5001.72
465.50	5032.15
465.69	5032.15
465.87	5060.24
466.05	5081.30
466.23	5039.17
466.41	5015.77
466.60	5132.79
466.78	5137.48
466.96	5207.69
467.14	5013.43
467.32	5156.20
467.51	5163.22
467.69	5167.90
467.87	5228.76
468.05	5125.77
468.23	5118.75
468.41	5184.29
468.60	5205.35
468.78	5362.17
468.96	5315.36
469.14	5343.44
469.32	5327.06
469.50	5315.36
469.69	5535.37
469.87	5570.48
470.05	5472.17
470.23	5437.06
470.41	5476.85
470.59	5533.03
470.77	5540.05
470.95	5467.49
471.14	5788.14
471.32	5619.63
471.50	5708.57
471.68	5624.31
471.86	5689.84
472.04	5734.31
472.22	5853.68
472.40	5767.08
472.58	5973.05
472.77	5900.49
472.95	6101.78
473.13	6099.44
473.31	5856.02
473.49	5884.11
473.67	5919.21
473.85	6085.39
474.03	6139.23
474.21	6029.22
474.39	6195.40
474.57	6143.91
474.75	6174.33
474.93	6300.72
475.12	6228.17
475.30	6406.05
475.48	6361.58
475.66	6406.05
475.84	6242.21
476.02	6408.39
476.20	6429.45
476.38	6644.78
476.56	6686.91
476.74	6658.82
476.92	6834.36
477.10	6794.58
477.28	6899.90
477.46	6729.04
477.64	6684.57
477.82	7082.46
478.00	7045.01
478.18	7000.54
478.36	7037.99
478.54	7250.98
478.72	6897.56
478.90	7414.82
479.08	7391.41
479.26	7428.86
479.44	7386.73
479.62	7300.13
479.80	7485.03
479.98	7522.48
480.16	7674.62
480.34	7658.23
480.52	7829.09
480.70	7836.11
480.88	7779.94
481.06	7770.58
481.24	7784.62
481.41	7784.62
481.59	8098.25
481.77	8095.91
481.95	8294.86
482.13	8086.55
482.31	8152.09
482.49	8552.32
482.67	8400.18
482.85	8503.17
483.03	8517.21
483.21	8781.69
483.39	9011.06
483.57	8727.86
483.74	8929.14
483.92	8968.93
484.10	8978.30
484.28	9025.11
484.46	9228.73
484.64	9399.59
484.82	9071.92
485.00	9174.90
485.18	9547.05
485.35	9514.28
485.53	9404.27
485.71	9762.37
485.89	10031.54
486.07	9750.67
486.25	9891.10
486.43	9853.66
486.61	9998.77
486.78	9970.68
486.96	10043.24
487.14	10345.17
487.32	10186.01
487.50	10319.42
487.68	10368.57
487.85	10595.61
488.03	10644.76
488.21	10670.50
488.39	10792.21
488.57	10862.43
488.75	10860.09
488.92	11206.48
489.10	11234.57
489.28	11265.00
489.46	11403.09
489.64	11126.91
489.81	11419.47
489.99	11400.75
490.17	11365.64
490.35	11815.02
490.53	11885.24
490.70	11880.56
490.88	11969.50
491.06	11964.82
491.24	11667.57
491.41	12035.03
491.59	12432.93
491.77	12023.33
491.95	12245.68
492.13	12458.67
492.30	12599.10
492.48	12554.63
492.66	12587.40
492.84	12760.60
493.01	12762.94
493.19	12713.79
493.37	12812.09
493.54	13015.72
493.72	13128.06
493.90	13245.09
494.08	13011.04
494.25	13233.39
494.43	13451.06
494.61	13624.26
494.79	13568.09
494.96	13657.03
495.14	13769.37
495.32	13596.17
495.49	13830.23
495.67	13745.97
495.85	14155.56
496.02	14106.41
496.20	14342.80
496.38	14160.24
496.55	14342.80
496.73	14436.42
496.91	14530.05
497.09	14342.80
497.26	14651.75
497.44	14642.39
497.62	14520.68
497.79	14876.44
497.97	14923.26
498.14	14977.09
498.32	15272.00
498.50	15122.20
498.67	15124.54
498.85	15241.57
499.03	15147.95
499.20	15344.55
499.38	15185.40
499.56	15194.76
499.73	15599.67
499.91	15896.92
500.08	15721.38
500.26	15396.04
500.44	15700.31
500.61	15786.91
500.79	15920.32
500.97	16126.29
501.14	16147.36
501.32	16217.57
501.49	16027.99
501.67	16184.80
501.84	15974.16
502.02	16149.70
502.20	16393.11
502.37	16603.76
502.55	16304.17
502.72	16379.07
502.90	16561.63
503.07	16570.99
503.25	16821.43
503.43	16601.42
503.60	16805.05
503.78	16828.45
503.95	16645.89
504.13	17020.38
504.30	16882.28
504.48	16959.52
504.65	17041.44
504.83	17097.61
505.01	17436.99
505.18	17315.28
505.36	17322.30
505.53	17371.46
505.71	17315.28
505.88	17577.42
506.06	17467.42
506.23	17558.70
506.41	17640.62
506.58	17989.36
506.76	17745.94
506.93	17816.16
507.11	17729.56
507.28	17640.62
507.46	18148.51
507.63	17970.63
507.81	18298.31
507.98	18101.70
508.16	17963.61
508.33	18272.56
508.50	18377.89
508.68	17963.61
508.85	18546.40
509.03	18480.87
509.20	18759.39
509.38	18796.84
509.55	18574.49
509.73	18607.26
509.90	18824.93
510.08	18579.17
510.25	18670.45
510.42	18906.85
510.60	18855.36
510.77	19105.79
510.95	19269.63
511.12	19260.27
511.30	19204.10
511.47	19466.24
511.64	18930.25
511.82	19360.91
511.99	19379.64
512.17	19491.98
512.34	19555.18
512.51	19307.08
512.69	19489.64
512.86	19527.09
513.04	19672.20
513.21	19782.21
513.38	20081.80
513.56	19929.66
513.73	19910.94
513.90	19660.50
514.08	19805.61
514.25	19985.83
514.43	19978.81
514.60	20119.24
514.77	19960.09
514.95	20301.81
515.12	20039.67
515.29	20442.24
515.47	20170.74
515.64	20484.37
515.81	20503.09
515.99	20737.15
516.16	20559.27
516.33	20395.43
516.51	20732.47
516.68	20816.72
516.85	20751.19
517.03	20985.24
517.20	20608.42
517.37	20973.54
517.54	21139.72
517.72	20971.20
517.89	20985.24
518.06	21050.78
518.24	20929.07
518.41	20945.45
518.58	21291.85
518.75	21163.12
518.93	21509.52
519.10	21228.66
519.27	21329.30
519.45	21104.61
519.62	21296.53
519.79	21177.17
519.96	21563.36
520.14	21556.33
520.31	21509.52
520.48	22026.78
520.65	21848.90
520.83	21766.98
521.00	22256.15
521.17	21851.24
521.34	21893.37
521.52	21806.77
521.69	22192.96
521.86	22286.58
522.03	22513.61
522.20	22279.56
522.38	22410.63
522.55	22190.62
522.72	21963.59
522.89	22300.62
523.07	22923.21
523.24	22183.60
523.41	22567.45
523.58	22317.01
523.75	22911.50
523.92	22955.97
524.10	22583.83
524.27	22560.42
524.44	22780.43
524.61	22817.88
524.78	22946.61
524.96	22991.08
525.13	23077.68
525.30	23145.56
525.47	22916.19
525.64	23126.83
525.81	23278.97
525.98	23220.45
526.16	23559.83
526.33	23190.03
526.50	23143.22
526.67	23005.13
526.84	23295.35
527.01	23274.29
527.18	23211.09
527.36	23463.87
527.53	23639.41
527.70	23784.52
527.87	24065.39
528.04	23426.42
528.21	23648.77
528.38	23524.72
528.55	24051.34
528.72	24027.94
528.89	23922.62
529.07	23819.63
529.24	23962.40
529.41	24009.22
529.58	24098.16
529.75	23906.23
529.92	24107.52
530.09	23946.02
530.26	24051.34
530.43	24496.05
530.60	23814.95
530.77	24383.70
530.94	24252.63
531.11	24067.73
531.28	23960.06
531.46	24322.85
531.63	24407.11
531.80	24503.07
531.97	24978.20
532.14	24496.05
532.31	24702.01
532.48	24938.41
532.65	25008.62
532.82	24580.31
532.99	24943.09
533.16	24706.70
533.33	25179.48
533.50	24978.20
533.67	25326.94
533.84	25001.60
534.01	24496.05
534.18	24655.20
534.35	25092.88
534.52	25001.60
534.69	25202.89
534.86	24919.68
535.03	24833.08
535.20	25289.49
535.37	25514.18
535.54	25525.88
535.71	25280.13
535.88	25083.52
536.05	24945.43
536.22	25336.30
536.38	25525.88
536.55	25495.46
536.72	25621.84
536.89	25820.79
537.06	25308.21
537.23	25802.07
537.40	25556.31
537.57	25570.35
537.74	25631.21
537.91	25652.27
538.08	25883.98
538.25	26017.40
538.42	25706.10
538.59	26068.89
538.75	25832.49
538.92	26157.83
539.09	25820.79
539.26	25841.85
539.43	26134.42
539.60	26143.78
539.77	26101.65
539.94	26340.39
540.11	26403.58
540.28	25893.35
540.44	26019.74
540.61	26164.85
540.78	26288.90
540.95	26604.87
541.12	26001.01
541.29	26178.89
541.46	26581.46
541.62	26401.24
541.79	26169.53
541.96	26122.72
542.13	26022.08
542.30	26272.51
542.47	26621.25
542.63	26405.92
542.80	26710.19
542.97	26902.12
543.14	27197.02
543.31	27143.19
543.48	26717.22
543.64	27136.17
543.81	27051.91
543.98	27332.78
544.15	27115.11
544.32	27054.25
544.48	27623.00
544.65	26836.58
544.82	26984.04
544.99	26719.56
545.16	27054.25
545.32	27091.70
545.49	27407.67
545.66	27250.86
545.83	27353.84
546.00	27835.99
546.16	27281.28
546.33	27358.52
546.50	26937.23
546.67	27482.57
546.83	27442.78
547.00	27667.47
547.17	27573.85
547.34	27543.42
547.50	27852.38
547.67	27974.08
547.84	27552.79
548.00	27503.64
548.17	28020.89
548.34	27454.48
548.51	28135.58
548.67	27812.59
548.84	27962.38
549.01	27688.54
549.18	27899.19
549.34	27484.91
549.51	28194.09
549.68	27857.06
549.84	27929.61
550.01	27833.65
550.18	27534.06
550.34	28151.96
550.51	28301.76
550.68	28318.14
550.84	27843.01
551.01	28362.61
551.18	27728.33
551.34	27889.82
551.51	28086.43
551.68	27819.61
551.84	28063.02
552.01	28339.21
552.18	28442.19
552.34	28116.86
552.51	28545.17
552.68	28299.42
552.84	28428.15
553.01	28594.32
553.18	28175.37
553.34	28266.65
553.51	28659.86
553.67	28283.03
553.84	28898.59
554.01	28676.24
554.17	28465.60
554.34	28587.30
554.51	28325.16
554.67	28694.97
554.84	28657.52
555.00	28828.38
555.17	28432.83
555.33	28849.44
555.50	28830.72
555.67	28650.50
555.83	28517.09
556.00	29347.98
556.16	29092.86
556.33	28760.50
556.50	28741.78
556.66	29184.14
556.83	29113.92
556.99	29071.79
557.16	29476.71
557.32	28978.17
557.49	29364.36
557.65	29186.48
557.82	28580.28
557.98	29092.86
558.15	28931.36
558.32	28996.90
558.48	28992.22
558.65	29247.33
558.81	29212.23
558.98	29429.90
559.14	29223.93
559.31	29303.51
559.47	29371.38
559.64	29439.26
559.80	29469.69
559.97	29642.88
560.13	29090.52
560.30	29083.50
560.46	29874.60
560.63	29064.77
560.79	29439.26
560.96	29582.03
561.12	29638.20
561.29	29802.04
561.45	29607.78
561.61	29804.38
561.78	29839.49
561.94	29558.63
562.11	29874.60
562.27	29376.06
562.44	29525.86
562.60	29462.66
562.77	29593.73
562.93	29539.90
563.10	29572.67
563.26	29460.32
563.42	29687.36
563.59	30036.09
563.75	29883.96
563.92	30134.40
564.08	29855.87
564.24	29319.89
564.41	29694.38
564.57	29687.36
564.74	29605.44
564.90	30059.50
565.07	29802.04
565.23	29593.73
565.39	29935.45
565.56	30103.97
565.72	29858.21
565.88	29860.55
566.05	29481.39
566.21	29839.49
566.38	29879.28
566.54	29905.02
566.70	29748.21
566.87	30132.06
567.03	29853.53
567.19	30026.73
567.36	29937.79
567.52	30169.51
567.68	30228.02
567.85	29696.72
568.01	30426.96
568.17	29720.12
568.34	30082.91
568.50	30026.73
568.66	30532.29
568.83	30075.88
568.99	29963.54
569.15	30436.33
569.32	29975.24
569.48	29816.08
569.64	30181.21
569.81	30230.36
569.97	30698.47
570.13	30426.96
570.30	30167.16
570.46	30157.80
570.62	30185.89
570.78	30307.60
570.95	30230.36
571.11	30197.59
571.27	29764.59
571.43	30256.11
571.60	30394.20
571.76	29977.58
571.92	30265.47
572.09	30373.13
572.25	30543.99
572.41	30232.70
572.57	30352.07
572.74	30483.14
572.90	30246.74
573.06	30260.79
573.22	29862.90
573.38	30274.83
573.55	30080.56
573.71	30448.03
573.87	30543.99
574.03	30127.38
574.20	30656.34
574.36	30258.45
574.52	30017.37
574.68	29963.54
574.84	30242.06
575.01	30532.29
575.17	30216.32
575.33	30618.89
575.49	30663.36
575.65	30345.05
575.82	30520.59
575.98	30450.37
576.14	30536.97
576.30	30410.58
576.46	30340.36
576.62	30272.49
576.79	30087.59
576.95	30092.27
577.11	30529.95
577.27	30223.34
577.43	30443.35
577.59	30452.71
577.75	30132.06
577.92	30443.35
578.08	30611.87
578.24	30433.99
578.40	30242.06
578.56	30689.10
578.72	30525.27
578.88	30803.79
579.04	30513.56
579.21	30719.53
579.37	30520.59
579.53	30455.05
579.69	30349.73
579.85	30347.39
580.01	30387.18
580.17	30639.95
580.33	30424.62
580.49	30754.64
580.65	30806.13
580.82	30759.32
580.98	30433.99
581.14	30841.24
581.30	30848.26
581.46	30836.56
581.62	30951.24
581.78	30286.53
581.94	30504.20
582.10	30408.24
582.26	30768.68
582.42	30408.24
582.58	30644.63
582.74	30632.93
582.90	30764.00
583.06	30572.08
583.22	30675.06
583.38	30960.61
583.54	30759.32
583.70	30548.67
583.86	30373.13
584.02	30574.42
584.18	30775.70
584.34	30815.49
584.50	30976.99
584.66	30710.17
584.82	30501.86
584.98	30504.20
585.14	30841.24
585.30	30892.73
585.46	30621.23
585.62	30738.26
585.78	30504.20
585.94	30738.26
586.10	30642.29
586.26	31005.08
586.42	30988.69
586.58	31005.08
586.74	30459.73
586.90	30476.12
587.06	30562.72
587.22	30890.39
587.38	31002.74
587.54	30654.00
587.70	31213.38
587.86	30569.74
588.02	31299.98
588.18	31164.23
588.34	30916.14
588.49	30871.67
588.65	30672.72
588.81	30754.64
588.97	30855.28
589.13	30948.90
589.29	30801.45
589.45	30937.20
589.61	31014.44
589.77	31138.49
589.93	31136.15
590.08	30995.71
590.24	31026.14
590.40	31199.34
590.56	31140.83
590.72	31063.59
590.88	30665.70
591.04	30951.24
591.20	31363.18
591.35	30946.56
591.51	31213.38
591.67	31091.68
591.83	31213.38
591.99	30895.07
