SpectraSuite Data File
++++++++++++++++++++++++++++++++++++
Date: Fri Oct 18 13:58:30 GMT-05:00 2013
User: bianchi
Dark Spectrum Present: No
Reference Spectrum Present: No
Number of Sampled Component Spectra: 1
Spectrometers: USB2+H05261
Integration Time (usec): 50000 (USB2+H05261)
Spectra Averaged: 1 (USB2+H05261)
Boxcar Smoothing: 0 (USB2+H05261)
Correct for Electrical Dark: No (USB2+H05261)
Strobe/Lamp Enabled: No (USB2+H05261)
Correct for Detector Non-linearity: No (USB2+H05261)
Correct for Stray Light: No (USB2+H05261)
Number of Pixels in Processed Spectrum: 2048
>>>>>Begin Processed Spectral Data<<<<<
365.73	0.00
365.92	0.00
366.12	0.00
366.32	0.00
366.52	0.00
366.72	0.00
366.91	0.00
367.11	0.00
367.31	0.00
367.51	0.00
367.70	0.00
367.90	0.00
368.10	0.00
368.30	0.00
368.49	0.00
368.69	0.00
368.89	0.00
369.09	0.00
369.28	0.00
369.48	0.00
369.68	0.00
369.87	0.00
370.07	0.00
370.27	0.00
370.47	0.00
370.66	117.03
370.86	86.60
371.06	93.62
371.25	152.13
371.45	39.79
371.65	163.84
371.84	163.84
372.04	117.03
372.24	126.39
372.44	196.60
372.63	220.01
372.83	149.79
373.03	149.79
373.22	210.65
373.42	177.88
373.62	196.60
373.81	131.07
374.01	196.60
374.21	257.46
374.40	203.63
374.60	264.48
374.79	250.44
374.99	252.78
375.19	257.46
375.38	245.76
375.58	220.01
375.78	245.76
375.97	252.78
376.17	276.18
376.37	231.71
376.56	327.68
376.76	250.44
376.95	280.86
377.15	250.44
377.35	287.89
377.54	227.03
377.74	264.48
377.93	245.76
378.13	318.31
378.33	294.91
378.52	304.27
378.72	238.73
378.91	320.65
379.11	292.57
379.31	241.08
379.50	341.72
379.70	278.52
379.89	287.89
380.09	248.10
380.28	315.97
380.48	306.61
380.68	248.10
380.87	330.02
381.07	327.68
381.26	285.55
381.46	330.02
381.65	304.27
381.85	276.18
382.04	365.12
382.24	327.68
382.43	299.59
382.63	299.59
382.83	346.40
383.02	409.59
383.22	346.40
383.41	346.40
383.61	325.33
383.80	348.74
384.00	341.72
384.19	313.63
384.39	386.19
384.58	301.93
384.78	346.40
384.97	423.64
385.17	397.89
385.36	379.17
385.56	421.30
385.75	322.99
385.95	433.00
386.14	449.38
386.34	327.68
386.53	451.72
386.72	386.19
386.92	355.76
387.11	355.76
387.31	369.80
387.50	409.59
387.70	374.49
387.89	383.85
388.09	472.79
388.28	454.06
388.48	521.94
388.67	463.43
388.86	425.98
389.06	486.83
389.25	458.74
389.45	463.43
389.64	409.59
389.84	472.79
390.03	540.66
390.22	491.51
390.42	454.06
390.61	475.13
390.81	505.56
391.00	510.24
391.19	477.47
391.39	571.09
391.58	486.83
391.78	475.13
391.97	479.81
392.16	489.17
392.36	489.17
392.55	514.92
392.75	519.60
392.94	552.37
393.13	479.81
393.33	547.69
393.52	489.17
393.71	566.41
393.91	543.00
394.10	491.51
394.29	531.30
394.49	526.62
394.68	631.94
394.88	575.77
395.07	608.54
395.26	573.43
395.46	538.32
395.65	617.90
395.84	650.67
396.04	648.33
396.23	627.26
396.42	638.97
396.62	568.75
396.81	650.67
397.00	552.37
397.19	582.79
397.39	657.69
397.58	594.50
397.77	620.24
397.97	634.29
398.16	709.18
398.35	671.73
398.55	667.05
398.74	643.65
398.93	664.71
399.12	624.92
399.32	667.05
399.51	655.35
399.70	589.82
399.90	767.70
400.09	800.46
400.28	786.42
400.47	758.33
400.67	732.59
400.86	798.12
401.05	781.74
401.24	788.76
401.44	791.10
401.63	767.70
401.82	802.80
402.01	699.82
402.21	840.25
402.40	786.42
402.59	784.08
402.78	882.38
402.97	856.64
403.17	903.45
403.36	821.53
403.55	866.00
403.74	880.04
403.93	966.64
404.13	875.36
404.32	919.83
404.51	788.76
404.70	898.77
404.89	926.85
405.09	915.15
405.28	908.13
405.47	898.77
405.66	901.11
405.85	856.64
406.05	936.21
406.24	943.24
406.43	985.37
406.62	1027.50
406.81	999.41
407.00	929.19
407.20	997.07
407.39	983.02
407.58	1036.86
407.77	1053.24
407.96	1114.10
408.15	1043.88
408.34	1008.77
408.54	1050.90
408.73	1081.33
408.92	1132.82
409.11	1029.84
409.30	1107.07
409.49	1128.14
409.68	1174.95
409.87	1050.90
410.07	1144.52
410.26	1090.69
410.45	1116.44
410.64	1167.93
410.83	1078.99
411.02	1245.16
411.21	1203.04
411.40	1165.59
411.59	1174.95
411.78	1165.59
411.98	1214.74
412.17	1282.61
412.36	1256.87
412.55	1268.57
412.74	1308.36
412.93	1266.23
413.12	1240.48
413.31	1352.83
413.50	1268.57
413.69	1385.60
413.88	1458.15
414.07	1313.04
414.26	1394.96
414.45	1521.35
414.64	1324.74
414.83	1479.22
415.02	1535.39
415.22	1558.80
415.41	1495.60
415.60	1490.92
415.79	1542.41
415.98	1465.18
416.17	1645.40
416.36	1610.29
416.55	1598.59
416.74	1549.43
416.93	1605.61
417.12	1657.10
417.31	1610.29
417.50	1605.61
417.69	1664.12
417.88	1729.66
418.07	1699.23
418.26	1640.72
418.45	1764.76
418.64	1818.60
418.83	1774.13
419.02	1781.15
419.21	1774.13
419.39	1834.98
419.58	1722.63
419.77	1706.25
419.96	1769.44
420.15	1842.00
420.34	1867.75
420.53	1846.68
420.72	1863.07
420.91	1902.86
421.10	1898.17
421.29	1921.58
421.48	1863.07
421.67	1863.07
421.86	1907.54
422.05	1923.92
422.24	1919.24
422.43	1898.17
422.61	1949.67
422.80	1966.05
422.99	1926.26
423.18	1989.46
423.37	1963.71
423.56	2024.56
423.75	1987.11
423.94	2010.52
424.13	1818.60
424.32	1856.04
424.50	1959.03
424.69	2017.54
424.88	2097.12
425.07	1928.60
425.26	1952.01
425.45	1998.82
425.64	2012.86
425.83	1926.26
426.01	2157.97
426.20	1973.07
426.39	2008.18
426.58	2012.86
426.77	1982.43
426.96	2043.29
427.15	2054.99
427.33	1996.48
427.52	2076.06
427.71	2113.50
427.90	2167.34
428.09	2223.51
428.28	2181.38
428.46	2106.48
428.65	2207.13
428.84	2181.38
429.03	2256.28
429.22	2160.31
429.40	2221.17
429.59	2258.62
429.78	2113.50
429.97	2087.76
430.16	2225.85
430.34	2172.02
430.53	2270.32
430.72	2270.32
430.91	2277.34
431.10	2296.07
431.28	2282.02
431.47	2253.94
431.66	2399.05
431.85	2340.54
432.03	2347.56
432.22	2417.77
432.41	2321.81
432.60	2445.86
432.79	2340.54
432.97	2408.41
433.16	2422.45
433.35	2359.26
433.54	2427.14
433.72	2424.80
433.91	2399.05
434.10	2389.69
434.28	2434.16
434.47	2478.63
434.66	2656.51
434.85	2473.95
435.03	2511.39
435.22	2516.08
435.41	2607.36
435.59	2565.23
435.78	2614.38
435.97	2583.95
436.16	2661.19
436.34	2576.93
436.53	2551.18
436.72	2747.79
436.90	2581.61
437.09	2689.28
437.28	2691.62
437.46	2724.38
437.65	2614.38
437.84	2703.32
438.02	2729.06
438.21	2747.79
438.40	2609.70
438.58	2787.58
438.77	2799.28
438.96	2860.13
439.14	2822.69
439.33	2864.82
439.52	2878.86
439.70	3007.59
439.89	2979.50
440.08	2956.10
440.26	2946.73
440.45	3014.61
440.63	3021.63
440.82	3061.42
441.01	3038.02
441.19	3063.76
441.38	3028.65
441.57	3159.72
441.75	3124.62
441.94	3155.04
442.12	3143.34
442.31	3311.86
442.50	3253.34
442.68	3246.32
442.87	3169.09
443.05	3262.71
443.24	3290.79
443.43	3349.31
443.61	3368.03
443.80	3414.84
443.98	3267.39
444.17	3253.34
444.35	3246.32
444.54	3384.41
444.73	3421.86
444.91	3454.63
445.10	3438.25
445.28	3339.94
445.47	3393.78
445.65	3281.43
445.84	3389.10
446.02	3482.72
446.21	3377.39
446.39	3365.69
446.58	3318.88
446.77	3382.07
446.95	3389.10
447.14	3379.73
447.32	3473.36
447.51	3344.63
447.69	3389.10
447.88	3529.53
448.06	3492.08
448.25	3510.80
448.43	3351.65
448.62	3496.76
448.80	3407.82
448.99	3597.40
449.17	3492.08
449.36	3379.73
449.54	3754.22
449.73	3531.87
449.91	3726.13
450.10	3634.85
450.28	3819.75
450.46	3679.32
450.65	3777.62
450.83	3693.37
451.02	3733.15
451.20	3768.26
451.39	3765.92
451.57	3641.87
451.76	3730.81
451.94	3639.53
452.13	3899.33
452.31	3824.44
452.49	3801.03
452.68	3693.37
452.86	3709.75
453.05	3733.15
453.23	3889.97
453.42	3740.18
453.60	3885.29
453.78	3777.62
453.97	3873.59
454.15	3786.99
454.34	3922.74
454.52	3990.61
454.70	3868.91
454.89	3953.16
455.07	3967.21
455.26	3953.16
455.44	3927.42
455.62	3983.59
455.81	3981.25
455.99	3990.61
456.17	4107.64
456.36	4011.68
456.54	3999.98
456.73	4182.54
456.91	4184.88
457.09	4217.65
457.28	4262.12
457.46	4140.41
457.64	4285.52
457.83	4447.02
458.01	4156.79
458.19	4248.07
458.38	4224.67
458.56	4346.37
458.74	4372.12
458.93	4301.90
459.11	4365.10
459.29	4161.47
459.48	4262.12
459.66	4376.80
459.84	4514.89
460.03	4425.95
460.21	4423.61
460.39	4444.68
460.57	4411.91
460.76	4435.32
460.94	4557.02
461.12	4409.57
461.31	4557.02
461.49	4622.56
461.67	4643.62
461.85	4554.68
462.04	4589.79
462.22	4699.80
462.40	4688.09
462.59	4622.56
462.77	4772.35
462.95	4863.63
463.13	4744.27
463.32	4765.33
463.50	4777.03
463.68	4737.24
463.86	4657.67
464.05	4730.22
464.23	4596.81
464.41	4896.40
464.59	4667.03
464.78	5043.85
464.96	4915.12
465.14	4770.01
465.32	4884.70
465.50	4779.37
465.69	4837.89
465.87	4849.59
466.05	4873.00
466.23	5011.09
466.41	4966.62
466.60	4985.34
466.78	4863.63
466.96	4905.76
467.14	5064.92
467.32	5036.83
467.51	5181.95
467.69	4938.53
467.87	4882.36
468.05	4992.36
468.23	5050.88
468.41	4973.64
468.60	4964.28
468.78	5107.05
468.96	4987.68
469.14	5210.03
469.32	5242.80
469.50	5090.67
469.69	5221.74
469.87	5373.87
470.05	5284.93
470.23	5301.31
470.41	5280.25
470.59	5268.55
470.77	5203.01
470.95	5268.55
471.14	5369.19
471.32	5362.17
471.50	5411.32
471.68	5399.62
471.86	5497.92
472.04	5476.85
472.22	5652.39
472.40	5542.39
472.58	5446.43
472.77	5582.18
472.95	5638.35
473.13	5776.44
473.31	5640.69
473.49	5495.58
473.67	5841.98
473.85	5778.78
474.03	5895.81
474.21	5783.46
474.39	5930.92
474.57	6033.90
474.75	5968.37
474.93	5956.66
475.12	6038.58
475.30	5977.73
475.48	6017.52
475.66	6176.67
475.84	5994.11
476.02	6333.49
476.20	6242.21
476.38	6260.93
476.56	6429.45
476.74	6530.09
476.92	6373.28
477.10	6279.66
477.28	6422.43
477.46	6532.44
477.64	6520.73
477.82	6597.97
478.00	6750.10
478.18	6796.92
478.36	6647.12
478.54	6839.05
478.72	6946.71
478.90	7002.88
479.08	7126.93
479.26	6942.03
479.44	7143.32
479.62	7206.51
479.80	7241.62
479.98	7124.59
480.16	7442.90
480.34	7370.35
480.52	7323.54
480.70	7506.10
480.88	7428.86
481.06	7398.43
481.24	7569.29
481.41	7763.56
481.59	7871.22
481.77	7747.17
481.95	7747.17
482.13	7873.56
482.31	7978.89
482.49	8170.81
482.67	7950.80
482.85	8297.20
483.03	8283.16
483.21	8479.76
483.39	8484.44
483.57	8374.44
483.74	8386.14
483.92	8510.19
484.10	8505.51
484.28	8659.98
484.46	8812.12
484.64	8950.21
484.82	8861.27
485.00	8842.54
485.18	9184.26
485.35	9390.23
485.53	9277.88
485.71	9067.24
485.89	9198.31
486.07	9210.01
486.25	9284.91
486.43	9479.17
486.61	9612.58
486.78	9493.21
486.96	9664.07
487.14	9996.43
487.32	9928.55
487.50	10099.41
487.68	9947.28
487.85	10476.24
488.03	10417.72
488.21	10368.57
488.39	10296.02
488.57	10501.98
488.75	10478.58
488.92	10745.40
489.10	10733.70
489.28	10527.73
489.46	10785.19
489.64	10736.04
489.81	10927.96
489.99	10974.77
490.17	11246.27
490.35	11206.48
490.53	11208.83
490.70	11248.61
490.88	11372.66
491.06	11332.87
491.24	11438.20
491.41	11552.88
491.59	11543.52
491.77	11789.28
491.95	11913.33
492.13	12051.42
492.30	11955.46
492.48	12184.83
492.66	12194.19
492.84	12292.49
493.01	12123.98
493.19	12222.28
493.37	12414.20
493.54	12393.14
493.72	12571.02
493.90	12353.35
494.08	12475.06
494.25	12835.50
494.43	12760.60
494.61	12978.27
494.79	12929.12
494.96	13088.28
495.14	13259.13
495.32	13268.50
495.49	13303.60
495.67	13289.56
495.85	13525.96
496.02	13549.36
496.20	13472.12
496.38	13734.26
496.55	13607.87
496.73	13547.02
496.91	13783.41
497.09	13961.30
497.26	14101.73
497.44	13961.30
497.62	14111.09
497.79	14347.48
497.97	14092.37
498.14	14497.28
498.32	14555.79
498.50	14616.65
498.67	14668.14
498.85	14679.84
499.03	14579.20
499.20	14705.59
499.38	14740.69
499.56	14689.20
499.73	15077.73
499.91	15040.28
500.08	14869.42
500.26	15087.09
500.44	14848.36
500.61	15173.69
500.79	15227.53
500.97	15545.84
501.14	15400.72
501.32	15431.15
501.49	15648.82
501.67	15272.00
501.84	15367.96
502.02	15882.88
502.20	15756.49
502.37	15850.11
502.55	15822.02
502.72	15983.52
502.90	15981.18
503.07	15674.57
503.25	15922.66
503.43	15971.82
503.60	16184.80
503.78	16142.67
503.95	16152.04
504.13	16133.31
504.30	15962.45
504.48	16414.18
504.65	16463.33
504.83	16533.54
505.01	16704.40
505.18	16475.03
505.36	16662.27
505.53	16685.68
505.71	16484.39
505.88	16631.85
506.06	16774.62
506.23	16893.99
506.41	16688.02
506.58	16898.67
506.76	16879.94
506.93	16601.42
507.11	17273.15
507.28	17130.38
507.46	17144.42
507.63	17128.04
507.81	16978.25
507.98	17343.37
508.16	17561.04
508.33	17530.61
508.50	17219.32
508.68	17504.87
508.85	17752.96
509.03	17483.80
509.20	17752.96
509.38	17743.60
509.55	18047.87
509.73	18085.32
509.90	17984.68
510.08	17900.42
510.25	17963.61
510.42	18417.68
510.60	18270.22
510.77	18293.63
510.95	18352.14
511.12	18176.60
511.30	18265.54
511.47	18394.27
511.64	18405.97
511.82	18391.93
511.99	18560.45
512.17	18544.06
512.34	18534.70
512.51	18525.34
512.69	18523.00
512.86	18513.64
513.04	19115.16
513.21	18958.34
513.38	18717.26
513.56	18995.79
513.73	19012.17
513.90	19164.31
514.08	18862.38
514.25	19028.56
514.43	19061.32
514.60	19440.49
514.77	19232.18
514.95	19325.80
515.12	19466.24
515.29	18963.02
515.47	19503.68
515.64	19484.96
515.81	19653.48
515.99	19887.53
516.16	20034.99
516.33	19667.52
516.51	19915.62
516.68	19473.26
516.85	19421.77
517.03	19651.14
517.20	20072.43
517.37	19953.07
517.54	19793.91
517.72	20009.24
517.89	20032.65
518.06	20140.31
518.24	20093.50
518.41	20112.22
518.58	20573.31
518.75	20238.61
518.93	20634.16
519.10	20652.89
519.27	20311.17
519.45	20229.25
519.62	20552.24
519.79	20238.61
519.96	20505.43
520.14	20680.97
520.31	20762.89
520.48	20655.23
520.65	20786.30
520.83	20896.30
521.00	20996.95
521.17	20919.71
521.34	21128.02
521.52	21027.37
521.69	21198.23
521.86	21338.66
522.03	21556.33
522.20	21221.64
522.38	21390.16
522.55	21153.76
522.72	20931.41
522.89	21357.39
523.07	21544.63
523.24	21575.06
523.41	21572.72
523.58	21469.73
523.75	21722.51
523.92	21291.85
524.10	21652.30
524.27	21680.38
524.44	21947.20
524.61	21937.84
524.78	21991.67
524.96	21846.56
525.13	21790.39
525.30	21715.49
525.47	21827.84
525.64	21858.26
525.81	21972.95
525.98	21916.78
526.16	22511.27
526.33	22256.15
526.50	22127.42
526.67	22417.65
526.84	22249.13
527.01	22338.07
527.18	22431.69
527.36	22373.18
527.53	22441.06
527.70	22490.21
527.87	22642.34
528.04	22637.66
528.21	22602.55
528.38	22754.69
528.55	22768.73
528.72	22466.80
528.89	22892.78
529.07	22829.59
529.24	22757.03
529.41	22799.16
529.58	22806.18
529.75	22773.41
529.92	23257.90
530.09	23180.67
530.26	23152.58
530.43	22860.01
530.60	23091.73
530.77	23360.89
530.94	23105.77
531.11	23000.44
531.28	23080.02
531.46	23442.81
531.63	23274.29
531.80	23063.64
531.97	23482.59
532.14	23372.59
532.31	23332.80
532.48	23410.04
532.65	23653.45
532.82	23765.80
532.99	23377.27
533.16	23730.69
533.33	23604.30
533.50	23515.36
533.67	23716.65
533.84	23723.67
534.01	23676.86
534.18	23707.29
534.35	24098.16
534.52	23929.64
534.69	23908.57
534.86	24187.10
535.03	23985.81
535.20	23896.87
535.37	24060.71
535.54	24109.86
535.71	24215.18
535.88	24109.86
536.05	24301.78
536.22	24205.82
536.38	24404.77
536.55	24521.79
536.72	24109.86
536.89	24170.71
537.06	24135.60
537.23	24577.97
537.40	24112.20
537.57	24201.14
537.74	24376.68
537.91	24620.10
538.08	24325.19
538.25	24383.70
538.42	24570.94
538.59	24917.34
538.75	24636.48
538.92	24716.06
539.09	24952.45
539.26	24746.48
539.43	24842.45
539.60	24936.07
539.77	25015.65
539.94	24954.79
540.11	25198.21
540.28	24725.42
540.44	25043.73
540.61	25200.55
540.78	25048.41
540.95	24922.02
541.12	25013.31
541.29	25081.18
541.46	24957.13
541.62	25191.19
541.79	25266.08
541.96	24540.52
542.13	25006.28
542.30	25441.62
542.47	25247.36
542.63	25741.21
542.80	25429.92
542.97	25961.22
543.14	25979.95
543.31	26010.37
543.48	25795.04
543.64	25848.88
543.81	26141.44
543.98	25766.96
544.15	26075.91
544.32	25986.97
544.48	25865.26
544.65	25570.35
544.82	25825.47
544.99	25436.94
545.16	25926.11
545.32	25905.05
545.49	26132.08
545.66	26352.09
545.83	26457.42
546.00	26270.17
546.16	25933.14
546.33	25781.00
546.50	25315.23
546.67	26265.49
546.83	25912.07
547.00	26195.28
547.17	25923.77
547.34	26567.42
547.50	26508.91
547.67	26485.50
547.84	26422.31
548.00	26810.84
548.17	26548.70
548.34	26452.73
548.51	26501.89
548.67	26803.82
548.84	26356.77
549.01	26700.83
549.18	26635.30
549.34	26328.69
549.51	26595.51
549.68	26553.38
549.84	26412.95
550.01	26656.36
550.18	26625.93
550.34	26700.83
550.51	26480.82
550.68	26857.65
550.84	26511.25
551.01	27110.43
551.18	26876.37
551.34	26602.53
551.51	26768.71
551.68	26960.63
551.84	27152.55
552.01	27077.66
552.18	26852.97
552.34	26726.58
552.51	26986.38
552.68	27089.36
552.84	27232.13
553.01	27000.42
553.18	27285.97
553.34	27541.08
553.51	27239.15
553.67	27442.78
553.84	27447.46
554.01	27335.12
554.17	27449.80
554.34	26867.01
554.51	27325.75
554.67	27040.21
554.84	27276.60
555.00	27112.77
555.17	27292.99
555.33	27491.93
555.50	27737.69
555.67	27297.67
555.83	27433.42
556.00	27508.32
556.16	27819.61
556.33	27281.28
556.50	27410.01
556.66	27896.85
556.83	27524.70
556.99	28166.01
557.16	27974.08
557.32	27592.58
557.49	27838.33
557.65	27232.13
557.82	27992.81
557.98	27297.67
558.15	27985.79
558.32	27786.84
558.48	28081.75
558.65	27756.41
558.81	27906.21
558.98	27564.49
559.14	27594.92
559.31	27608.96
559.47	27747.05
559.64	27962.38
559.80	27812.59
559.97	28140.26
560.13	27852.38
560.30	27695.56
560.46	27962.38
560.63	28184.73
560.79	27894.50
560.96	28130.90
561.12	27889.82
561.29	27648.75
561.45	27686.20
561.61	27903.87
561.78	28304.10
561.94	28203.46
562.11	28187.07
562.27	28060.68
562.44	28486.66
562.60	28247.93
562.77	27796.20
562.93	27922.59
563.10	28348.57
563.26	28058.34
563.42	28437.51
563.59	28301.76
563.75	28329.84
563.92	28519.43
564.08	28107.49
564.24	28276.01
564.41	28112.17
564.57	27828.97
564.74	28053.66
564.90	28273.67
565.07	28416.44
565.23	28692.63
565.39	28334.53
565.56	28463.25
565.72	28402.40
565.88	28489.00
566.05	28348.57
566.21	28379.00
566.38	28465.60
566.54	28512.41
566.70	28744.12
566.87	28622.41
567.03	28669.22
567.19	28978.17
567.36	28734.76
567.52	28563.90
567.68	28322.82
567.85	28449.21
568.01	28594.32
568.17	28531.13
568.34	28837.74
568.50	28615.39
568.66	28430.49
568.83	28989.88
568.99	28624.75
569.15	28407.08
569.32	28680.92
569.48	28531.13
569.64	28709.01
569.81	28421.13
569.97	28737.10
570.13	28856.46
570.30	28788.59
570.46	28690.29
570.62	28737.10
570.78	28577.94
570.95	28629.43
571.11	28566.24
571.27	28748.80
571.43	28379.00
571.60	28910.30
571.76	28540.49
571.92	28914.98
572.09	28606.03
572.25	29235.63
572.41	28737.10
572.57	28741.78
572.74	29160.73
572.90	28957.11
573.06	28659.86
573.22	28914.98
573.38	28655.18
573.55	28353.25
573.71	29233.29
573.87	29048.39
574.03	28802.63
574.20	28830.72
574.36	28819.02
574.52	28690.29
574.68	28896.25
574.84	28685.61
575.01	28636.45
575.17	29036.69
575.33	28875.19
575.49	29113.92
575.65	28811.99
575.82	29099.88
575.98	28718.37
576.14	28833.06
576.30	28968.81
576.46	28772.21
576.62	28643.48
576.79	28858.81
576.95	28959.45
577.11	29172.44
577.27	28882.21
577.43	28999.24
577.59	29092.86
577.75	28741.78
577.92	28772.21
578.08	28793.27
578.24	28919.66
578.40	29071.79
578.56	28929.02
578.72	28982.85
578.88	28978.17
579.04	29043.71
579.21	29289.46
579.37	28982.85
579.53	29118.60
579.69	29071.79
579.85	28697.31
580.01	29039.03
580.17	28856.46
580.33	28662.20
580.49	29228.61
580.65	29680.33
580.82	29074.13
580.98	28961.79
581.14	29102.22
581.30	29228.61
581.46	28856.46
581.62	29184.14
581.78	28929.02
581.94	29048.39
582.10	28692.63
582.26	29369.04
582.42	28931.36
582.58	29170.10
582.74	28795.61
582.90	29266.06
583.06	28879.87
583.22	28730.08
583.38	28945.41
583.54	29017.96
583.70	29188.82
583.86	29188.82
584.02	29060.09
584.18	29305.85
584.34	29226.27
584.50	29565.65
584.66	29259.04
584.82	28694.97
584.98	29118.60
585.14	29106.90
585.30	28748.80
585.46	29053.07
585.62	28807.31
585.78	28547.51
585.94	29078.82
586.10	29441.60
586.26	29537.56
586.42	29235.63
586.58	29207.55
586.74	29165.42
586.90	28912.64
587.06	28858.81
587.22	29282.44
587.38	29572.67
587.54	29172.44
587.70	29252.02
587.86	29095.20
588.02	29027.32
588.18	29537.56
588.34	29057.75
588.49	29607.78
588.65	29181.80
588.81	28929.02
588.97	29301.17
589.13	29116.26
589.29	29013.28
589.45	29357.34
589.61	29443.94
589.77	29663.95
589.93	29280.10
590.08	29516.50
590.24	29563.31
590.40	29514.16
590.56	29415.85
590.72	29387.77
590.88	29685.01
591.04	29345.64
591.20	29853.53
591.35	29570.33
591.51	29706.08
591.67	29542.24
591.83	29795.02
591.99	29663.95
