SpectraSuite Data File
++++++++++++++++++++++++++++++++++++
Date: Fri Oct 18 13:57:56 GMT-05:00 2013
User: bianchi
Dark Spectrum Present: No
Reference Spectrum Present: No
Number of Sampled Component Spectra: 1
Spectrometers: USB2+H05261
Integration Time (usec): 50000 (USB2+H05261)
Spectra Averaged: 1 (USB2+H05261)
Boxcar Smoothing: 0 (USB2+H05261)
Correct for Electrical Dark: No (USB2+H05261)
Strobe/Lamp Enabled: No (USB2+H05261)
Correct for Detector Non-linearity: No (USB2+H05261)
Correct for Stray Light: No (USB2+H05261)
Number of Pixels in Processed Spectrum: 2048
>>>>>Begin Processed Spectral Data<<<<<
365.73	0.00
365.92	0.00
366.12	0.00
366.32	0.00
366.52	0.00
366.72	0.00
366.91	0.00
367.11	0.00
367.31	0.00
367.51	0.00
367.70	0.00
367.90	0.00
368.10	0.00
368.30	0.00
368.49	0.00
368.69	0.00
368.89	0.00
369.09	0.00
369.28	0.00
369.48	0.00
369.68	0.00
369.87	0.00
370.07	0.00
370.27	0.00
370.47	0.00
370.66	25.75
370.86	98.30
371.06	187.24
371.25	175.54
371.45	168.52
371.65	184.90
371.84	133.41
372.04	173.20
372.24	128.73
372.44	105.32
372.63	269.16
372.83	142.77
373.03	161.50
373.22	198.95
373.42	189.58
373.62	241.08
373.81	252.78
374.01	170.86
374.21	241.08
374.40	257.46
374.60	227.03
374.79	205.97
374.99	266.82
375.19	238.73
375.38	194.26
375.58	273.84
375.78	290.23
375.97	255.12
376.17	205.97
376.37	222.35
376.56	287.89
376.76	297.25
376.95	257.46
377.15	276.18
377.35	245.76
377.54	280.86
377.74	325.33
377.93	264.48
378.13	334.70
378.33	285.55
378.52	301.93
378.72	262.14
378.91	236.39
379.11	332.36
379.31	250.44
379.50	259.80
379.70	334.70
379.89	339.38
380.09	339.38
380.28	320.65
380.48	311.29
380.68	325.33
380.87	318.31
381.07	374.49
381.26	294.91
381.46	390.87
381.65	236.39
381.85	337.04
382.04	425.98
382.24	390.87
382.43	353.42
382.63	283.20
382.83	421.30
383.02	388.53
383.22	334.70
383.41	283.20
383.61	390.87
383.80	330.02
384.00	407.25
384.19	386.19
384.39	358.10
384.58	322.99
384.78	360.44
384.97	400.23
385.17	327.68
385.36	390.87
385.56	360.44
385.75	383.85
385.95	367.46
386.14	367.46
386.34	411.93
386.53	332.36
386.72	421.30
386.92	475.13
387.11	411.93
387.31	428.32
387.50	425.98
387.70	388.53
387.89	393.21
388.09	421.30
388.28	383.85
388.48	482.15
388.67	489.17
388.86	477.47
389.06	535.98
389.25	411.93
389.45	447.04
389.64	514.92
389.84	486.83
390.03	503.22
390.22	479.81
390.42	468.11
390.61	484.49
390.81	418.96
391.00	578.11
391.19	550.03
391.39	449.38
391.58	498.53
391.78	547.69
391.97	559.39
392.16	603.86
392.36	557.05
392.55	566.41
392.75	566.41
392.94	573.43
393.13	575.77
393.33	575.77
393.52	500.87
393.71	596.84
393.91	589.82
394.10	552.37
394.29	587.47
394.49	552.37
394.68	615.56
394.88	531.30
395.07	578.11
395.26	575.77
395.46	695.14
395.65	645.99
395.84	594.50
396.04	638.97
396.23	585.13
396.42	622.58
396.62	606.20
396.81	676.41
397.00	613.22
397.19	676.41
397.39	720.88
397.58	802.80
397.77	681.10
397.97	702.16
398.16	713.86
398.35	711.52
398.55	720.88
398.74	688.12
398.93	748.97
399.12	711.52
399.32	667.05
399.51	741.95
399.70	734.93
399.90	713.86
400.09	791.10
400.28	746.63
400.47	730.25
400.67	734.93
400.86	777.06
401.05	802.80
401.24	823.87
401.44	772.38
401.63	856.64
401.82	814.51
402.01	786.42
402.21	870.68
402.40	858.98
402.59	880.04
402.78	884.72
402.97	866.00
403.17	901.11
403.36	945.58
403.55	837.91
403.74	870.68
403.93	863.66
404.13	917.49
404.32	947.92
404.51	910.47
404.70	992.39
404.89	959.62
405.09	926.85
405.28	936.21
405.47	922.17
405.66	1015.79
405.85	954.94
406.05	1067.28
406.24	987.71
406.43	1025.15
406.62	1001.75
406.81	966.64
407.00	1062.60
407.20	1132.82
407.39	1100.05
407.58	1053.24
407.77	1104.73
407.96	1071.97
408.15	1160.91
408.34	1109.41
408.54	1060.26
408.73	1144.52
408.92	1125.80
409.11	1137.50
409.30	1226.44
409.49	1050.90
409.68	1160.91
409.87	1179.63
410.07	1289.64
410.26	1219.42
410.45	1214.74
410.64	1261.55
410.83	1207.72
411.02	1196.01
411.21	1299.00
411.40	1217.08
411.59	1315.38
411.78	1249.85
411.98	1294.32
412.17	1221.76
412.36	1282.61
412.55	1355.17
412.74	1376.24
412.93	1317.72
413.12	1352.83
413.31	1399.64
413.50	1441.77
413.69	1563.48
413.88	1502.62
414.07	1352.83
414.26	1490.92
414.45	1504.96
414.64	1596.25
414.83	1509.65
415.02	1472.20
415.22	1540.07
415.41	1596.25
415.60	1652.42
415.79	1547.09
415.98	1605.61
416.17	1596.25
416.36	1614.97
416.55	1659.44
416.74	1673.48
416.93	1685.19
417.12	1746.04
417.31	1750.72
417.50	1687.53
417.69	1701.57
417.88	1771.79
418.07	1858.39
418.26	1795.19
418.45	1806.89
418.64	1900.52
418.83	1818.60
419.02	1764.76
419.21	1781.15
419.39	1837.32
419.58	1825.62
419.77	1863.07
419.96	1947.33
420.15	1940.30
420.34	1825.62
420.53	1902.86
420.72	2064.35
420.91	1916.90
421.10	1902.86
421.29	2043.29
421.48	1935.62
421.67	2052.65
421.86	1944.99
422.05	2038.61
422.24	1975.41
422.43	2062.01
422.61	2066.69
422.80	2076.06
422.99	2064.35
423.18	2127.55
423.37	2115.84
423.56	2062.01
423.75	2062.01
423.94	2010.52
424.13	1863.07
424.32	2127.55
424.50	2026.90
424.69	2092.44
424.88	2118.18
425.07	2036.27
425.26	2169.68
425.45	2040.95
425.64	2099.46
425.83	2057.33
426.01	2139.25
426.20	2078.40
426.39	2087.76
426.58	2029.24
426.77	2094.78
426.96	2148.61
427.15	2169.68
427.33	2129.89
427.52	2183.72
427.71	2186.06
427.90	2115.84
428.09	2265.64
428.28	2190.74
428.46	2214.15
428.65	2289.04
428.84	2356.92
429.03	2256.28
429.22	2176.70
429.40	2333.51
429.59	2326.49
429.78	2221.17
429.97	2188.40
430.16	2244.57
430.34	2284.36
430.53	2361.60
430.72	2335.85
430.91	2354.58
431.10	2377.98
431.28	2459.90
431.47	2403.73
431.66	2347.56
431.85	2286.70
432.03	2541.82
432.22	2473.95
432.41	2619.06
432.60	2583.95
432.79	2504.37
432.97	2513.74
433.16	2560.55
433.35	2586.29
433.54	2532.46
433.72	2572.25
433.91	2516.08
434.10	2434.16
434.28	2504.37
434.47	2593.31
434.66	2562.89
434.85	2768.85
435.03	2672.89
435.22	2686.94
435.41	2731.41
435.59	2712.68
435.78	2640.12
435.97	2658.85
436.16	2658.85
436.34	2757.15
436.53	2637.78
436.72	2799.28
436.90	2796.94
437.09	2829.71
437.28	2736.09
437.46	2799.28
437.65	2803.96
437.84	2759.49
438.02	2630.76
438.21	2885.88
438.40	2829.71
438.58	2913.97
438.77	2888.22
438.96	3038.02
439.14	3042.70
439.33	3002.91
439.52	3007.59
439.70	2953.76
439.89	2932.69
440.08	2977.16
440.26	3042.70
440.45	3098.87
440.63	3192.49
440.82	3302.50
441.01	3164.40
441.19	3133.98
441.38	3281.43
441.57	3276.75
441.75	3323.56
441.94	3332.92
442.12	3342.28
442.31	3353.99
442.50	3309.52
442.68	3307.18
442.87	3377.39
443.05	3485.06
443.24	3414.84
443.43	3400.80
443.61	3382.07
443.80	3613.79
443.98	3548.25
444.17	3379.73
444.35	3442.93
444.54	3482.72
444.73	3604.42
444.91	3435.91
445.10	3454.63
445.28	3454.63
445.47	3496.76
445.65	3471.01
445.84	3499.10
446.02	3463.99
446.21	3494.42
446.39	3592.72
446.58	3669.96
446.77	3557.61
446.95	3431.23
447.14	3564.64
447.32	3574.00
447.51	3550.59
447.69	3534.21
447.88	3604.42
448.06	3693.37
448.25	3531.87
448.43	3613.79
448.62	3627.83
448.80	3679.32
448.99	3503.78
449.17	3665.28
449.36	3714.43
449.54	3651.24
449.73	3801.03
449.91	3803.37
450.10	3772.94
450.28	3810.39
450.46	3756.56
450.65	3662.94
450.83	3733.15
451.02	3763.58
451.20	3754.22
451.39	3932.10
451.57	3819.75
451.76	3747.20
451.94	3978.91
452.13	3988.27
452.31	3962.53
452.49	3904.01
452.68	4049.13
452.86	3831.46
453.05	3950.82
453.23	4044.45
453.42	4002.32
453.60	3861.88
453.78	4049.13
453.97	3964.87
454.15	4004.66
454.34	3969.55
454.52	4142.75
454.70	4109.98
454.89	3964.87
455.07	3990.61
455.26	4084.23
455.44	4299.56
455.62	4131.05
455.81	4142.75
455.99	4105.30
456.17	4245.73
456.36	4311.27
456.54	4325.31
456.73	4196.58
456.91	4376.80
457.09	4386.16
457.28	4521.92
457.46	4170.83
457.64	4402.55
457.83	4482.13
458.01	4311.27
458.19	4376.80
458.38	4386.16
458.56	4416.59
458.74	4662.35
458.93	4517.23
459.11	4559.36
459.29	4358.08
459.48	4571.07
459.66	4662.35
459.84	4655.33
460.03	4645.96
460.21	4652.98
460.39	4601.49
460.57	4685.75
460.76	4840.23
460.94	4739.58
461.12	4631.92
461.31	4681.07
461.49	4589.79
461.67	4718.52
461.85	4875.34
462.04	4805.12
462.22	5217.05
462.40	4823.84
462.59	4737.24
462.77	4880.02
462.95	4823.84
463.13	4915.12
463.32	4908.10
463.50	4947.89
463.68	5064.92
463.86	4865.97
464.05	4873.00
464.23	4936.19
464.41	5050.88
464.59	4746.61
464.78	4945.55
464.96	4959.60
465.14	5020.45
465.32	4997.04
465.50	4950.23
465.69	5067.26
465.87	5104.71
466.05	5095.35
466.23	5088.32
466.41	5123.43
466.60	5249.82
466.78	5224.08
466.96	5156.20
467.14	5125.77
467.32	5268.55
467.51	5298.97
467.69	5111.73
467.87	5137.48
468.05	5366.85
468.23	5284.93
468.41	5228.76
468.60	5249.82
468.78	5296.63
468.96	5359.83
469.14	5437.06
469.32	5472.17
469.50	5308.34
469.69	5418.34
469.87	5614.95
470.05	5472.17
470.23	5497.92
470.41	5427.70
470.59	5500.26
470.77	5439.40
470.95	5504.94
471.14	5547.07
471.32	5708.57
471.50	5832.62
471.68	5755.38
471.86	5755.38
472.04	5823.25
472.22	5792.83
472.40	5664.10
472.58	5788.14
472.77	6045.60
472.95	5949.64
473.13	6150.93
473.31	6076.03
473.49	5872.40
473.67	6080.71
473.85	5966.03
474.03	6209.44
474.21	6118.16
474.39	6188.38
474.57	6057.31
474.75	6286.68
474.93	6328.81
475.12	6207.10
475.30	6246.89
475.48	6387.32
475.66	6392.00
475.84	6235.19
476.02	6289.02
476.20	6361.58
476.38	6567.54
476.56	6644.78
476.74	6689.25
476.92	6593.29
477.10	6696.27
477.28	6766.49
477.46	6949.05
477.64	6817.98
477.82	7199.49
478.00	7155.02
478.18	7126.93
478.36	7124.59
478.54	6993.52
478.72	7185.44
478.90	7171.40
479.08	7262.68
479.26	7229.91
479.44	7468.65
479.62	7445.24
479.80	7695.68
479.98	7545.89
480.16	7627.81
480.34	7625.47
480.52	7915.69
480.70	7885.26
480.88	7784.62
481.06	7733.13
481.24	7763.56
481.41	7906.33
481.59	8224.64
481.77	8241.03
481.95	8351.03
482.13	8327.63
482.31	8353.37
482.49	8234.00
482.67	8482.10
482.85	8631.90
483.03	8606.15
483.21	8704.45
483.39	8744.24
483.57	8842.54
483.74	9029.79
483.92	9032.13
484.10	8821.48
484.28	8896.38
484.46	9210.01
484.64	9301.29
484.82	9015.74
485.00	9240.44
485.18	9240.44
485.35	9767.06
485.53	9547.05
485.71	9582.15
485.89	10015.15
486.07	10036.22
486.25	9942.60
486.43	9921.53
486.61	9961.32
486.78	9998.77
486.96	10356.87
487.14	10399.00
487.32	10314.74
487.50	10375.59
487.68	10672.84
487.85	10452.83
488.03	10906.90
488.21	10621.35
488.39	10696.25
488.57	10932.64
488.75	10939.66
488.92	11147.97
489.10	11344.58
489.28	11169.04
489.46	11215.85
489.64	11091.80
489.81	11492.03
489.99	11667.57
490.17	11440.54
490.35	11520.12
490.53	11693.32
490.70	11964.82
490.88	11740.13
491.06	12018.65
491.24	11978.86
491.41	12189.51
491.59	12243.34
491.77	12353.35
491.95	12332.28
492.13	12496.12
492.30	12311.22
492.48	12767.62
492.66	12760.60
492.84	12648.26
493.01	12835.50
493.19	12833.16
493.37	12917.42
493.54	13076.57
493.72	12994.65
493.90	13116.36
494.08	13181.90
494.25	13249.77
494.43	13586.81
494.61	13399.57
494.79	13687.45
494.96	13607.87
495.14	13755.33
495.32	13804.48
495.49	14132.15
495.67	13858.31
495.85	14235.14
496.02	14281.95
496.20	14441.11
496.38	14188.33
496.55	14029.17
496.73	14501.96
496.91	14539.41
497.09	14604.94
497.26	14647.07
497.44	14658.78
497.62	14860.06
497.79	14895.17
497.97	14668.14
498.14	15091.77
498.32	15161.99
498.50	15295.40
498.67	15309.44
498.85	15157.31
499.03	15211.14
499.20	15218.16
499.38	15534.14
499.56	15396.04
499.73	15679.25
499.91	15627.76
500.08	15815.00
500.26	15733.08
500.44	15969.48
500.61	15693.29
500.79	15686.27
500.97	15822.02
501.14	16325.24
501.32	16175.44
501.49	16137.99
501.67	16149.70
501.84	16341.62
502.02	16168.42
502.20	16629.51
502.37	16596.74
502.55	16418.86
502.72	16664.61
502.90	16514.82
503.07	16556.95
503.25	16629.51
503.43	16709.08
503.60	16896.33
503.78	17011.01
503.95	16947.82
504.13	17193.58
504.30	17008.67
504.48	17013.35
504.65	17121.02
504.83	17198.26
505.01	17280.18
505.18	17057.82
505.36	17696.79
505.53	17397.20
505.71	17706.15
505.88	17516.57
506.06	17338.69
506.23	17834.88
506.41	17589.13
506.58	17900.42
506.76	17961.27
506.93	17987.02
507.11	17827.86
507.28	17898.08
507.46	18073.62
507.63	18038.51
507.81	18335.76
507.98	18185.96
508.16	18054.89
508.33	18363.84
508.50	18270.22
508.68	18356.82
508.85	18497.25
509.03	18310.01
509.20	18518.32
509.38	18766.42
509.55	18963.02
509.73	18628.32
509.90	18700.88
510.08	18944.30
510.25	18621.30
510.42	18984.09
510.60	18867.06
510.77	18806.20
510.95	18960.68
511.12	18885.78
511.30	19005.15
511.47	19133.88
511.64	19374.95
511.82	19604.33
511.99	19655.82
512.17	19679.22
512.34	19337.51
512.51	19449.85
512.69	19681.56
512.86	19480.28
513.04	20133.29
513.21	19599.65
513.38	20168.40
513.56	20016.26
513.73	19538.79
513.90	20163.72
514.08	19875.83
514.25	20287.76
514.43	19969.45
514.60	20315.85
514.77	20231.59
514.95	20774.60
515.12	20081.80
515.29	20009.24
515.47	20184.78
515.64	20725.44
515.81	20386.07
515.99	20680.97
516.16	20692.68
516.33	20884.60
516.51	20926.73
516.68	20910.35
516.85	20664.59
517.03	20886.94
517.20	21055.46
517.37	20936.09
517.54	21399.52
517.72	20882.26
517.89	21167.80
518.06	20936.09
518.24	21420.58
518.41	21076.52
518.58	21125.68
518.75	21352.71
518.93	21516.54
519.10	21713.15
519.27	21490.80
519.45	21458.03
519.62	21556.33
519.79	21270.79
519.96	21640.59
520.14	21811.45
520.31	21724.85
520.48	21722.51
520.65	21774.00
520.83	21806.77
521.00	22139.13
521.17	22001.04
521.34	21788.05
521.52	22410.63
521.69	21708.47
521.86	22024.44
522.03	22286.58
522.20	22607.23
522.38	22621.28
522.55	22546.38
522.72	22616.60
522.89	22274.88
523.07	22785.12
523.24	22576.81
523.41	22345.09
523.58	22628.30
523.75	22714.90
523.92	22625.96
524.10	22806.18
524.27	22799.16
524.44	22951.29
524.61	23138.54
524.78	22843.63
524.96	22991.08
525.13	23185.35
525.30	23133.86
525.47	22883.42
525.64	23234.50
525.81	23019.17
525.98	23047.26
526.16	23513.02
526.33	23218.11
526.50	23669.84
526.67	23501.32
526.84	23206.41
527.01	23410.04
527.18	23583.24
527.36	23424.08
527.53	23810.27
527.70	24058.37
527.87	23718.99
528.04	23676.86
528.21	23768.14
528.38	23810.27
528.55	23681.54
528.72	23840.70
528.89	24006.87
529.07	23941.34
529.24	23908.57
529.41	24334.55
529.58	24112.20
529.75	23985.81
529.92	24376.68
530.09	24280.72
530.26	24292.42
530.43	24484.34
530.60	24257.31
530.77	24074.75
530.94	24395.40
531.11	24252.63
531.28	23953.04
531.46	24563.92
531.63	24474.98
531.80	24709.04
531.97	24610.73
532.14	24568.60
532.31	24971.18
532.48	24507.75
532.65	24671.59
532.82	24812.02
532.99	24922.02
533.16	25046.07
533.33	24563.92
533.50	24973.52
533.67	24957.13
533.84	24737.12
534.01	24861.17
534.18	24643.50
534.35	25184.16
534.52	24957.13
534.69	25750.57
534.86	25350.34
535.03	24961.81
535.20	25240.34
535.37	25434.60
535.54	25343.32
535.71	25156.08
535.88	25518.86
536.05	25523.54
536.22	25525.88
536.38	25565.67
536.55	25207.57
536.72	25486.09
536.89	25507.16
537.06	25270.76
537.23	25706.10
537.40	25750.57
537.57	25462.69
537.74	25888.67
537.91	25982.29
538.08	25898.03
538.25	26096.97
538.42	26368.48
538.59	26012.71
538.75	25720.15
538.92	26441.03
539.09	25848.88
539.26	25769.30
539.43	26059.52
539.60	26319.32
539.77	26199.96
539.94	26199.96
540.11	26096.97
540.28	26080.59
540.44	25930.80
540.61	25975.27
540.78	26242.09
540.95	26228.04
541.12	26448.05
541.29	26284.22
541.46	26349.75
541.62	26359.11
541.79	26382.52
541.96	26284.22
542.13	26291.24
542.30	26333.37
542.47	26473.80
542.63	26869.35
542.80	26635.30
542.97	27002.76
543.14	27023.83
543.31	26874.03
543.48	26642.32
543.64	27115.11
543.81	27321.07
543.98	27005.10
544.15	27157.24
544.32	27524.70
544.48	27358.52
544.65	27166.60
544.82	27126.81
544.99	27173.62
545.16	27019.14
545.32	27094.04
545.49	27700.24
545.66	27346.82
545.83	27515.34
546.00	27695.56
546.16	27281.28
546.33	26876.37
546.50	27002.76
546.67	27489.59
546.83	27122.13
547.00	27414.69
547.17	27709.60
547.34	27796.20
547.50	27623.00
547.67	28297.08
547.84	27335.12
548.00	27637.05
548.17	27740.03
548.34	27583.21
548.51	27821.95
548.67	28060.68
548.84	28205.80
549.01	28086.43
549.18	27620.66
549.34	28280.69
549.51	28273.67
549.68	27974.08
549.84	28194.09
550.01	28046.64
550.18	27910.89
550.34	28140.26
550.51	28411.76
550.68	28212.82
550.84	28056.00
551.01	28332.18
551.18	28428.15
551.34	28039.62
551.51	28350.91
551.68	28205.80
551.84	28521.77
552.01	28362.61
552.18	28535.81
552.34	28613.05
552.51	28322.82
552.68	28596.67
552.84	28699.65
553.01	28865.83
553.18	28170.69
553.34	28758.16
553.51	28676.24
553.67	28575.60
553.84	28933.70
554.01	28804.97
554.17	28601.35
554.34	28524.11
554.51	28341.55
554.67	28346.23
554.84	28800.29
555.00	28556.88
555.17	28481.98
555.33	29170.10
555.50	28760.50
555.67	28699.65
555.83	28875.19
556.00	29298.83
556.16	29092.86
556.33	29020.30
556.50	29127.97
556.66	28879.87
556.83	29029.66
556.99	29336.27
557.16	29469.69
557.32	28945.41
557.49	29584.37
557.65	29053.07
557.82	29191.16
557.98	29200.52
558.15	29144.35
558.32	29642.88
558.48	28788.59
558.65	29783.32
558.81	29160.73
558.98	29024.98
559.14	29301.17
559.31	29560.97
559.47	29046.05
559.64	29230.95
559.80	29523.52
559.97	29380.74
560.13	29261.38
560.30	29706.08
560.46	29177.12
560.63	29539.90
560.79	29493.09
560.96	29748.21
561.12	29362.02
561.29	29301.17
561.45	29507.13
561.61	29680.33
561.78	29818.42
561.94	29752.89
562.11	29912.05
562.27	29830.13
562.44	29979.92
562.60	29619.48
562.77	29549.26
562.93	29163.08
563.10	29806.72
563.26	29757.57
563.42	29989.28
563.59	29795.02
563.75	29773.95
563.92	29947.15
564.08	29670.97
564.24	29776.30
564.41	29802.04
564.57	29488.41
564.74	29788.00
564.90	29883.96
565.07	30043.12
565.23	29912.05
565.39	29979.92
565.56	30136.74
565.72	29715.44
565.88	30295.89
566.05	29738.85
566.21	30052.48
566.38	29958.86
566.54	29441.60
566.70	30213.98
566.87	30099.29
567.03	29888.64
567.19	30691.44
567.36	29942.47
567.52	29846.51
567.68	30347.39
567.85	30171.85
568.01	30188.23
568.17	30118.01
568.34	30122.69
568.50	30099.29
568.66	30129.72
568.83	30412.92
568.99	29975.24
569.15	30352.07
569.32	29921.41
569.48	29914.39
569.64	30272.49
569.81	30122.69
569.97	30188.23
570.13	30373.13
570.30	29848.85
570.46	30244.40
570.62	30174.19
570.78	30335.68
570.95	29809.06
571.11	30183.55
571.27	30010.35
571.43	30099.29
571.60	30410.58
571.76	30148.44
571.92	30347.39
572.09	30567.40
572.25	29844.17
572.41	30127.38
572.57	30213.98
572.74	30771.02
572.90	30457.39
573.06	30036.09
573.22	30033.75
573.38	30576.76
573.55	30522.93
573.71	30572.08
573.87	30291.21
574.03	30445.69
574.20	30696.13
574.36	30501.86
574.52	30249.08
574.68	30852.94
574.84	30424.62
575.01	30672.72
575.17	30618.89
575.33	30300.58
575.49	30820.17
575.65	30403.56
575.82	31267.22
575.98	30499.52
576.14	30272.49
576.30	30597.82
576.46	30204.61
576.62	30682.08
576.79	30363.77
576.95	30511.22
577.11	30756.98
577.27	30515.90
577.43	30429.30
577.59	30347.39
577.75	30906.77
577.92	29937.79
578.08	30335.68
578.24	30614.21
578.40	30600.16
578.56	30813.15
578.72	30558.03
578.88	31152.53
579.04	30820.17
579.21	30466.75
579.37	30497.18
579.53	30745.28
579.69	30562.72
579.85	30756.98
580.01	30426.96
580.17	30115.67
580.33	30827.20
580.49	30721.87
580.65	30944.22
580.82	30689.10
580.98	30579.10
581.14	30558.03
581.30	30756.98
581.46	30473.78
581.62	30747.62
581.78	30394.20
581.94	30787.41
582.10	30284.19
582.26	31122.10
582.42	30644.63
582.58	30852.94
582.74	30412.92
582.90	30838.90
583.06	31021.46
583.22	30771.02
583.38	30405.90
583.54	30504.20
583.70	30946.56
583.86	30752.30
584.02	30668.04
584.18	31047.21
584.34	30391.86
584.50	31138.49
584.66	31211.04
584.82	31009.76
584.98	30892.73
585.14	30946.56
585.30	30532.29
585.46	30796.77
585.62	30728.89
585.78	30953.58
585.94	30756.98
586.10	30920.82
586.26	30749.96
586.42	31131.47
586.58	30775.70
586.74	30960.61
586.90	30705.49
587.06	30459.73
587.22	30735.92
587.38	30883.37
587.54	30738.26
587.70	31154.87
587.86	30939.54
588.02	30899.75
588.18	31019.12
588.34	30670.38
588.49	30778.04
588.65	30991.03
588.81	30719.53
588.97	30822.51
589.13	30768.68
589.29	30934.86
589.45	31264.88
589.61	31377.22
589.77	31428.71
589.93	31620.64
590.08	31206.36
590.24	31178.28
590.40	31269.56
590.56	30747.62
590.72	31098.70
590.88	30773.36
591.04	30944.22
591.20	31501.27
591.35	31356.16
591.51	31438.08
591.67	31332.75
591.83	31182.96
