SpectraSuite Data File
++++++++++++++++++++++++++++++++++++
Date: Fri Oct 18 13:58:36 GMT-05:00 2013
User: bianchi
Dark Spectrum Present: No
Reference Spectrum Present: No
Number of Sampled Component Spectra: 1
Spectrometers: USB2+H05261
Integration Time (usec): 50000 (USB2+H05261)
Spectra Averaged: 1 (USB2+H05261)
Boxcar Smoothing: 0 (USB2+H05261)
Correct for Electrical Dark: No (USB2+H05261)
Strobe/Lamp Enabled: No (USB2+H05261)
Correct for Detector Non-linearity: No (USB2+H05261)
Correct for Stray Light: No (USB2+H05261)
Number of Pixels in Processed Spectrum: 2048
>>>>>Begin Processed Spectral Data<<<<<
365.73	0.00
365.92	0.00
366.12	0.00
366.32	0.00
366.52	0.00
366.72	0.00
366.91	0.00
367.11	0.00
367.31	0.00
367.51	0.00
367.70	0.00
367.90	0.00
368.10	0.00
368.30	0.00
368.49	0.00
368.69	0.00
368.89	0.00
369.09	0.00
369.28	0.00
369.48	0.00
369.68	0.00
369.87	0.00
370.07	0.00
370.27	0.00
370.47	0.00
370.66	93.62
370.86	102.98
371.06	175.54
371.25	168.52
371.45	93.62
371.65	161.50
371.84	201.29
372.04	194.26
372.24	187.24
372.44	156.82
372.63	147.45
372.83	227.03
373.03	203.63
373.22	227.03
373.42	198.95
373.62	283.20
373.81	205.97
374.01	170.86
374.21	287.89
374.40	229.37
374.60	236.39
374.79	262.14
374.99	262.14
375.19	290.23
375.38	292.57
375.58	266.82
375.78	243.42
375.97	313.63
376.17	322.99
376.37	252.78
376.56	224.69
376.76	189.58
376.95	252.78
377.15	250.44
377.35	203.63
377.54	297.25
377.74	341.72
377.93	339.38
378.13	315.97
378.33	280.86
378.52	407.25
378.72	388.53
378.91	330.02
379.11	327.68
379.31	236.39
379.50	276.18
379.70	353.42
379.89	351.08
380.09	294.91
380.28	266.82
380.48	334.70
380.68	248.10
380.87	285.55
381.07	283.20
381.26	397.89
381.46	369.80
381.65	330.02
381.85	395.55
382.04	330.02
382.24	353.42
382.43	322.99
382.63	367.46
382.83	313.63
383.02	388.53
383.22	451.72
383.41	313.63
383.61	503.22
383.80	365.12
384.00	433.00
384.19	365.12
384.39	348.74
384.58	374.49
384.78	404.91
384.97	318.31
385.17	320.65
385.36	390.87
385.56	362.78
385.75	372.15
385.95	418.96
386.14	425.98
386.34	477.47
386.53	397.89
386.72	372.15
386.92	416.62
387.11	428.32
387.31	421.30
387.50	372.15
387.70	379.17
387.89	428.32
388.09	365.12
388.28	461.09
388.48	475.13
388.67	440.02
388.86	484.49
389.06	472.79
389.25	444.70
389.45	491.51
389.64	472.79
389.84	428.32
390.03	463.43
390.22	470.45
390.42	482.15
390.61	465.77
390.81	416.62
391.00	423.64
391.19	437.68
391.39	463.43
391.58	559.39
391.78	517.26
391.97	528.96
392.16	482.15
392.36	545.34
392.55	491.51
392.75	507.90
392.94	538.32
393.13	531.30
393.33	573.43
393.52	620.24
393.71	547.69
393.91	554.71
394.10	535.98
394.29	575.77
394.49	624.92
394.68	582.79
394.88	601.52
395.07	601.52
395.26	601.52
395.46	636.63
395.65	643.65
395.84	653.01
396.04	685.78
396.23	678.76
396.42	582.79
396.62	606.20
396.81	683.44
397.00	674.07
397.19	573.43
397.39	662.37
397.58	751.31
397.77	622.58
397.97	667.05
398.16	720.88
398.35	763.01
398.55	781.74
398.74	751.31
398.93	641.31
399.12	751.31
399.32	763.01
399.51	753.65
399.70	770.04
399.90	793.44
400.09	751.31
400.28	805.14
400.47	882.38
400.67	795.78
400.86	692.80
401.05	791.10
401.24	816.85
401.44	734.93
401.63	788.76
401.82	814.51
402.01	753.65
402.21	774.72
402.40	823.87
402.59	830.89
402.78	819.19
402.97	760.67
403.17	816.85
403.36	819.19
403.55	868.34
403.74	959.62
403.93	877.70
404.13	898.77
404.32	903.45
404.51	870.68
404.70	957.28
404.89	875.36
405.09	908.13
405.28	905.79
405.47	922.17
405.66	954.94
405.85	1025.15
406.05	952.60
406.24	964.30
406.43	1025.15
406.62	1020.47
406.81	1069.62
407.00	1039.20
407.20	1041.54
407.39	1036.86
407.58	1046.22
407.77	1043.88
407.96	1078.99
408.15	1057.92
408.34	1095.37
408.54	1071.97
408.73	1081.33
408.92	1067.28
409.11	1135.16
409.30	1179.63
409.49	1060.26
409.68	1198.35
409.87	1097.71
410.07	1174.95
410.26	1203.04
410.45	1273.25
410.64	1221.76
410.83	1200.69
411.02	1263.89
411.21	1263.89
411.40	1341.13
411.59	1291.98
411.78	1327.08
411.98	1242.82
412.17	1310.70
412.36	1280.27
412.55	1320.06
412.74	1394.96
412.93	1263.89
413.12	1313.04
413.31	1329.42
413.50	1416.02
413.69	1437.09
413.88	1406.66
414.07	1385.60
414.26	1432.41
414.45	1416.02
414.64	1455.81
414.83	1472.20
415.02	1565.82
415.22	1575.18
415.41	1507.30
415.60	1607.95
415.79	1593.90
415.98	1542.41
416.17	1633.69
416.36	1664.12
416.55	1586.88
416.74	1689.87
416.93	1598.59
417.12	1610.29
417.31	1750.72
417.50	1708.59
417.69	1717.95
417.88	1694.55
418.07	1762.42
418.26	1764.76
418.45	1771.79
418.64	1799.87
418.83	1785.83
419.02	1769.44
419.21	1926.26
419.39	1809.23
419.58	1706.25
419.77	1825.62
419.96	1830.30
420.15	1846.68
420.34	1898.17
420.53	1935.62
420.72	1872.43
420.91	1907.54
421.10	2017.54
421.29	1977.75
421.48	1788.17
421.67	1919.24
421.86	1940.30
422.05	2038.61
422.24	2010.52
422.43	1905.20
422.61	1947.33
422.80	1961.37
422.99	1998.82
423.18	2083.08
423.37	1937.96
423.56	2043.29
423.75	2167.34
423.94	2076.06
424.13	1872.43
424.32	1893.49
424.50	1989.46
424.69	2022.22
424.88	1940.30
425.07	1959.03
425.26	2071.37
425.45	2001.16
425.64	2092.44
425.83	2094.78
426.01	2019.88
426.20	2010.52
426.39	1989.46
426.58	1973.07
426.77	2162.66
426.96	2113.50
427.15	2181.38
427.33	2169.68
427.52	2155.63
427.71	2190.74
427.90	2104.14
428.09	2101.80
428.28	2169.68
428.46	2282.02
428.65	2085.42
428.84	2200.10
429.03	2251.60
429.22	2153.29
429.40	2319.47
429.59	2296.07
429.78	2183.72
429.97	2157.97
430.16	2228.19
430.34	2438.84
430.53	2382.67
430.72	2296.07
430.91	2319.47
431.10	2183.72
431.28	2300.75
431.47	2354.58
431.66	2394.37
431.85	2197.76
432.03	2462.24
432.22	2504.37
432.41	2466.92
432.60	2476.29
432.79	2459.90
432.97	2438.84
433.16	2569.91
433.35	2476.29
433.54	2480.97
433.72	2497.35
433.91	2583.95
434.10	2413.09
434.28	2429.48
434.47	2555.86
434.66	2555.86
434.85	2686.94
435.03	2513.74
435.22	2572.25
435.41	2635.44
435.59	2661.19
435.78	2705.66
435.97	2635.44
436.16	2729.06
436.34	2703.32
436.53	2665.87
436.72	2768.85
436.90	2644.81
437.09	2773.53
437.28	2778.22
437.46	2729.06
437.65	2665.87
437.84	2792.26
438.02	2789.92
438.21	2754.81
438.40	2850.77
438.58	2890.56
438.77	2829.71
438.96	2853.11
439.14	2949.08
439.33	2981.84
439.52	3073.12
439.70	3101.21
439.89	3026.31
440.08	3026.31
440.26	3040.36
440.45	2993.55
440.63	3131.64
440.82	3260.37
441.01	3169.09
441.19	3040.36
441.38	3211.22
441.57	3300.16
441.75	3246.32
441.94	3286.11
442.12	3185.47
442.31	3330.58
442.50	3400.80
442.68	3342.28
442.87	3503.78
443.05	3281.43
443.24	3428.88
443.43	3391.44
443.61	3426.54
443.80	3545.91
443.98	3314.20
444.17	3227.60
444.35	3435.91
444.54	3618.47
444.73	3325.90
444.91	3342.28
445.10	3330.58
445.28	3391.44
445.47	3501.44
445.65	3552.93
445.84	3379.73
446.02	3552.93
446.21	3576.34
446.39	3447.61
446.58	3595.06
446.77	3524.85
446.95	3566.98
447.14	3478.04
447.32	3501.44
447.51	3452.29
447.69	3545.91
447.88	3536.55
448.06	3618.47
448.25	3480.38
448.43	3623.15
448.62	3438.25
448.80	3531.87
448.99	3534.21
449.17	3520.17
449.36	3667.62
449.54	3698.05
449.73	3735.50
449.91	3845.50
450.10	3735.50
450.28	3597.40
450.46	3751.88
450.65	3676.98
450.83	3794.01
451.02	3714.43
451.20	3829.12
451.39	3829.12
451.57	3726.13
451.76	3669.96
451.94	3840.82
452.13	3850.18
452.31	3850.18
452.49	3948.48
452.68	3878.27
452.86	3904.01
453.05	3943.80
453.23	3932.10
453.42	3887.63
453.60	3985.93
453.78	3878.27
453.97	3889.97
454.15	3948.48
454.34	3934.44
454.52	4018.70
454.70	4011.68
454.89	3896.99
455.07	3978.91
455.26	4093.60
455.44	4149.77
455.62	4140.41
455.81	4203.60
455.99	4182.54
456.17	4081.89
456.36	4315.95
456.54	4135.73
456.73	4053.81
456.91	4353.40
457.09	4327.65
457.28	4248.07
457.46	4215.30
457.64	4397.87
457.83	4322.97
458.01	4217.65
458.19	4381.48
458.38	4390.84
458.56	4393.19
458.74	4425.95
458.93	4505.53
459.11	4355.74
459.29	4367.44
459.48	4479.79
459.66	4531.28
459.84	4629.58
460.03	4706.82
460.21	4568.73
460.39	4493.83
460.57	4489.15
460.76	4744.27
460.94	4615.54
461.12	4517.23
461.31	4531.28
461.49	4568.73
461.67	4648.30
461.85	4823.84
462.04	4746.61
462.22	4627.24
462.40	4858.95
462.59	4755.97
462.77	4772.35
462.95	4716.18
463.13	4760.65
463.32	4830.87
463.50	4887.04
463.68	4821.50
463.86	4922.15
464.05	4784.06
464.23	4688.09
464.41	4992.36
464.59	4784.06
464.78	4994.70
464.96	4851.93
465.14	4819.16
465.32	5008.75
465.50	5013.43
465.69	5060.24
465.87	4971.30
466.05	5083.64
466.23	5036.83
466.41	5081.30
466.60	5184.29
466.78	5046.20
466.96	5020.45
467.14	5090.67
467.32	5123.43
467.51	5151.52
467.69	5179.61
467.87	5355.15
468.05	5212.37
468.23	5097.69
468.41	5210.03
468.60	5142.16
468.78	5313.02
468.96	5104.71
469.14	5174.92
469.32	5458.13
469.50	5191.31
469.69	5420.68
469.87	5549.41
470.05	5579.84
470.23	5518.98
470.41	5432.38
470.59	5614.95
470.77	5537.71
470.95	5507.28
471.14	5540.05
471.32	5434.72
471.50	5563.45
471.68	5701.54
471.86	5563.45
472.04	5593.88
472.22	5827.93
472.40	5607.92
472.58	5785.80
472.77	5734.31
472.95	5795.17
473.13	6129.86
473.31	5790.49
473.49	5858.36
473.67	5893.47
473.85	5919.21
474.03	6085.39
474.21	6026.88
474.39	5975.39
474.57	6143.91
474.75	6057.31
474.93	6277.32
475.12	6094.76
475.30	6342.85
475.48	6277.32
475.66	6270.30
475.84	6368.60
476.02	6249.23
476.20	6321.79
476.38	6466.90
476.56	6532.44
476.74	6717.34
476.92	6656.48
477.10	6445.84
477.28	6651.80
477.46	6541.80
477.64	6820.32
477.82	6684.57
478.00	6920.96
478.18	7026.29
478.36	6967.77
478.54	7028.63
478.72	7119.91
478.90	7183.10
479.08	7211.19
479.26	7211.19
479.44	7297.79
479.62	7592.70
479.80	7339.92
479.98	7365.67
480.16	7595.04
480.34	7442.90
480.52	7555.25
480.70	7735.47
480.88	7667.60
481.06	7822.07
481.24	7761.22
481.41	7880.58
481.59	8035.06
481.77	8142.72
481.95	8081.87
482.13	8222.30
482.31	8091.23
482.49	8131.02
482.67	8226.98
482.85	8472.74
483.03	8571.04
483.21	8542.96
483.39	8606.15
483.57	8737.22
483.74	8718.50
483.92	8676.37
484.10	8596.79
484.28	8823.82
484.46	8952.55
484.64	9158.52
484.82	9039.15
485.00	9004.04
485.18	9441.72
485.35	9315.33
485.53	9418.32
485.71	9455.76
485.89	9621.94
486.07	9603.22
486.25	9427.68
486.43	9720.24
486.61	9760.03
486.78	10043.24
486.96	9783.44
487.14	9991.75
487.32	10087.71
487.50	10167.29
487.68	10427.09
487.85	10244.52
488.03	10509.01
488.21	10544.11
488.39	10649.44
488.57	10588.58
488.75	10869.45
488.92	10813.28
489.10	10998.18
489.28	11061.37
489.46	11033.29
489.64	11019.24
489.81	11344.58
489.99	11194.78
490.17	11407.77
490.35	11412.45
490.53	11627.78
490.70	11618.42
490.88	11611.40
491.06	11845.45
491.24	11723.74
491.41	12035.03
491.59	11969.50
491.77	12102.91
491.95	12084.19
492.13	12325.26
492.30	12512.50
492.48	12343.99
492.66	12297.17
492.84	12095.89
493.01	12549.95
493.19	12734.85
493.37	12709.11
493.54	12936.14
493.72	13184.24
493.90	13067.21
494.08	12847.20
494.25	13191.26
494.43	13046.15
494.61	13153.81
494.79	13530.64
494.96	13217.01
495.14	13144.45
495.32	13544.68
495.49	13671.07
495.67	13783.41
495.85	13755.33
496.02	13958.96
496.20	14005.77
496.38	14047.90
496.55	13888.74
496.73	14361.53
496.91	14202.37
497.09	14272.59
497.26	14487.92
497.44	14279.61
497.62	14450.47
497.79	14656.43
497.97	14747.72
498.14	14747.72
498.32	14604.94
498.50	14712.61
498.67	14979.43
498.85	14883.47
499.03	14850.70
499.20	14909.21
499.38	15171.35
499.56	15363.28
499.73	15246.25
499.91	15447.54
500.08	15674.57
500.26	15241.57
500.44	15578.61
500.61	15499.03
500.79	15536.48
500.97	15838.41
501.14	16130.97
501.32	15925.00
501.49	15910.96
501.67	15824.36
501.84	16056.08
502.02	16098.20
502.20	16498.44
502.37	16044.37
502.55	16126.29
502.72	16229.27
502.90	16093.52
503.07	16308.85
503.25	16423.54
503.43	16519.50
503.60	16716.11
503.78	16559.29
503.95	16631.85
504.13	16776.96
504.30	16648.23
504.48	16898.67
504.65	16706.74
504.83	16950.16
505.01	17006.33
505.18	17231.02
505.36	17163.15
505.53	17289.54
505.71	17163.15
505.88	17095.27
506.06	17188.89
506.23	17441.67
506.41	17465.08
506.58	17359.75
506.76	17326.99
506.93	17619.55
507.11	17380.82
507.28	17535.29
507.46	17841.90
507.63	17752.96
507.81	18033.83
507.98	17977.65
508.16	17926.16
508.33	17994.04
508.50	17888.71
508.68	17916.80
508.85	17928.50
509.03	18118.09
509.20	18272.56
509.38	18298.31
509.55	18389.59
509.73	18293.63
509.90	18284.26
510.08	18279.58
510.25	18583.85
510.42	18445.76
510.60	18679.82
510.77	18878.76
510.95	18967.70
511.12	18792.16
511.30	18684.50
511.47	18881.10
511.64	18607.26
511.82	19021.53
511.99	19054.30
512.17	19166.65
512.34	18972.38
512.51	19468.58
512.69	19381.98
512.86	19288.35
513.04	19407.72
513.21	19545.81
513.38	19304.74
513.56	19573.90
513.73	19220.48
513.90	19405.38
514.08	19583.26
514.25	19967.11
514.43	19960.09
514.60	19913.28
514.77	19763.48
514.95	20093.50
515.12	19609.01
515.29	19672.20
515.47	19943.70
515.64	20196.48
515.81	20079.46
515.99	20343.94
516.16	20301.81
516.33	20034.99
516.51	20425.86
516.68	20645.87
516.85	20262.02
517.03	20388.41
517.20	20589.69
517.37	20500.75
517.54	20491.39
517.72	20737.15
517.89	20844.81
518.06	20643.52
518.24	20489.05
518.41	20908.01
518.58	20905.66
518.75	20917.37
518.93	20800.34
519.10	21139.72
519.27	21221.64
519.45	21010.99
519.62	21069.50
519.79	20680.97
519.96	21193.55
520.14	21600.80
520.31	21205.25
520.48	21558.67
520.65	20982.90
520.83	21745.92
521.00	21504.84
521.17	21546.97
521.34	21579.74
521.52	21961.25
521.69	21762.30
521.86	21898.05
522.03	21582.08
522.20	21902.73
522.38	22026.78
522.55	21940.18
522.72	22026.78
522.89	21921.46
523.07	22120.40
523.24	22153.17
523.41	22228.07
523.58	21769.32
523.75	22499.57
523.92	22349.78
524.10	22132.11
524.27	22380.20
524.44	22555.74
524.61	22370.84
524.78	22597.87
524.96	22628.30
525.13	22691.49
525.30	22427.01
525.47	22773.41
525.64	22497.23
525.81	22874.06
525.98	23070.66
526.16	22752.35
526.33	22586.17
526.50	23138.54
526.67	22864.69
526.84	22787.46
527.01	22747.67
527.18	22899.80
527.36	23115.13
527.53	23403.02
527.70	23592.60
527.87	23311.74
528.04	22918.53
528.21	23576.22
528.38	23262.58
528.55	23220.45
528.72	23379.61
528.89	23367.91
529.07	23400.68
529.24	23332.80
529.41	23695.58
529.58	23309.40
529.75	23606.64
529.92	23599.62
530.09	23410.04
530.26	23557.49
530.43	23971.77
530.60	23967.09
530.77	23929.64
530.94	24128.58
531.11	24041.98
531.28	24006.87
531.46	23953.04
531.63	24006.87
531.80	24203.48
531.97	24379.02
532.14	24334.55
532.31	24053.69
532.48	24243.27
532.65	24308.80
532.82	24074.75
532.99	24013.90
533.16	23997.51
533.33	24463.28
533.50	24341.57
533.67	24465.62
533.84	24224.54
534.01	24484.34
534.18	24224.54
534.35	24687.97
534.52	24659.88
534.69	24374.34
534.86	24559.24
535.03	24364.98
535.20	24584.99
535.37	24704.35
535.54	24655.20
535.71	24767.55
535.88	24968.84
536.05	24599.03
536.22	25085.86
536.38	25319.92
536.55	25212.25
536.72	24929.05
536.89	24678.61
537.06	25088.20
537.23	25228.63
537.40	25200.55
537.57	25048.41
537.74	25380.77
537.91	25577.37
538.08	25275.45
538.25	25352.68
538.42	25476.73
538.59	24959.47
538.75	25294.17
538.92	25383.11
539.09	25373.75
539.26	25846.54
539.43	25579.71
539.60	25453.33
539.77	25692.06
539.94	25713.13
540.11	25694.40
540.28	25598.44
540.44	25453.33
540.61	25685.04
540.78	25652.27
540.95	25865.26
541.12	25729.51
541.29	25652.27
541.46	25914.41
541.62	25675.68
541.79	25944.84
541.96	25661.63
542.13	26052.50
542.30	25937.82
542.47	25956.54
542.63	26251.45
542.80	26082.93
542.97	26476.14
543.14	26349.75
543.31	26181.23
543.48	26541.68
543.64	26581.46
543.81	26670.40
543.98	26588.49
544.15	26497.20
544.32	26618.91
544.48	26586.15
544.65	26806.16
544.82	26464.44
544.99	26541.68
545.16	26604.87
545.32	26464.44
545.49	26618.91
545.66	27044.89
545.83	27147.87
546.00	26749.98
546.16	26934.88
546.33	26962.97
546.50	26429.33
546.67	26965.31
546.83	26696.15
547.00	26689.13
547.17	26857.65
547.34	27054.25
547.50	26845.94
547.67	27782.16
547.84	27372.57
548.00	27353.84
548.17	27517.68
548.34	27391.29
548.51	27552.79
548.67	27255.54
548.84	27782.16
549.01	27138.51
549.18	27164.26
549.34	26904.46
549.51	27292.99
549.68	27651.09
549.84	27269.58
550.01	27475.55
550.18	27260.22
550.34	27789.18
550.51	27599.60
550.68	27840.67
550.84	27599.60
551.01	27377.25
551.18	27463.85
551.34	27742.37
551.51	28105.15
551.68	27573.85
551.84	27667.47
552.01	27992.81
552.18	27892.16
552.34	27953.02
552.51	27838.33
552.68	27843.01
552.84	28027.92
553.01	27981.10
553.18	27934.29
553.34	28173.03
553.51	28184.73
553.67	27964.72
553.84	28519.43
554.01	28112.17
554.17	28093.45
554.34	28142.60
554.51	27833.65
554.67	28081.75
554.84	28046.64
555.00	28154.30
555.17	27866.42
555.33	28264.31
555.50	28109.83
555.67	28102.81
555.83	27936.63
556.00	28147.28
556.16	28411.76
556.33	28156.64
556.50	28196.43
556.66	28458.57
556.83	28772.21
556.99	28437.51
557.16	28458.57
557.32	28554.54
557.49	28409.42
557.65	28533.47
557.82	28587.30
557.98	28893.91
558.15	28737.10
558.32	28706.67
558.48	28123.88
558.65	28542.83
558.81	28856.46
558.98	28765.18
559.14	28505.38
559.31	28528.79
559.47	28381.34
559.64	29048.39
559.80	28519.43
559.97	28772.21
560.13	28432.83
560.30	29216.91
560.46	28603.69
560.63	28875.19
560.79	28842.42
560.96	28599.01
561.12	29181.80
561.29	28816.68
561.45	28678.58
561.61	29195.84
561.78	29067.11
561.94	29008.60
562.11	28835.40
562.27	29134.99
562.44	29027.32
562.60	29102.22
562.77	28954.77
562.93	28975.83
563.10	29455.64
563.26	28638.80
563.42	29125.63
563.59	29041.37
563.75	29357.34
563.92	29088.18
564.08	29340.96
564.24	29170.10
564.41	29303.51
564.57	28975.83
564.74	29179.46
564.90	29083.50
565.07	29326.91
565.23	29359.68
565.39	29209.89
565.56	29497.77
565.72	29287.12
565.88	29390.11
566.05	29528.20
566.21	29113.92
566.38	28875.19
566.54	29202.86
566.70	29642.88
566.87	29582.03
567.03	29039.03
567.19	29628.84
567.36	29364.36
567.52	29392.45
567.68	29355.00
567.85	29427.56
568.01	29455.64
568.17	29312.87
568.34	29614.80
568.50	29385.43
568.66	29567.99
568.83	29514.16
568.99	29560.97
569.15	29450.96
569.32	29336.27
569.48	29170.10
569.64	29773.95
569.81	29450.96
569.97	29450.96
570.13	29645.23
570.30	29443.94
570.46	29406.49
570.62	29397.13
570.78	29497.77
570.95	29284.78
571.11	29333.93
571.27	29319.89
571.43	29490.75
571.60	29514.16
571.76	29795.02
571.92	29727.14
572.09	29598.41
572.25	30017.37
572.41	29582.03
572.57	29795.02
572.74	29888.64
572.90	29668.63
573.06	29699.06
573.22	29488.41
573.38	29668.63
573.55	29694.38
573.71	29919.07
573.87	30211.64
574.03	29661.61
574.20	29635.86
574.36	29600.76
574.52	29558.63
574.68	29577.35
574.84	29809.06
575.01	29680.33
575.17	29673.31
575.33	29240.31
575.49	29652.25
575.65	29783.32
575.82	29825.45
575.98	30139.08
576.14	30164.82
576.30	29949.50
576.46	29642.88
576.62	29467.34
576.79	30031.41
576.95	29418.19
577.11	29694.38
577.27	29944.81
577.43	30129.72
577.59	30396.54
577.75	29834.81
577.92	29811.40
578.08	29734.17
578.24	29626.50
578.40	30015.03
578.56	29869.92
578.72	29741.19
578.88	30284.19
579.04	30237.38
579.21	29977.58
579.37	29610.12
579.53	30071.20
579.69	29689.70
579.85	30197.59
580.01	29993.97
580.17	29397.13
580.33	29490.75
580.49	29490.75
580.65	29947.15
580.82	30384.83
580.98	29923.75
581.14	29869.92
581.30	30206.95
581.46	29905.02
581.62	29820.77
581.78	29549.26
581.94	29986.94
582.10	30246.74
582.26	29778.64
582.42	30167.16
582.58	30342.70
582.74	30043.12
582.90	30281.85
583.06	30178.87
583.22	29954.18
583.38	30024.39
583.54	29687.36
583.70	30237.38
583.86	29888.64
584.02	29610.12
584.18	30094.61
584.34	30202.27
584.50	30286.53
584.66	30047.80
584.82	29687.36
584.98	30239.72
585.14	30073.54
585.30	30237.38
585.46	30024.39
585.62	29621.82
585.78	30019.71
585.94	30015.03
586.10	30134.40
586.26	30237.38
586.42	30258.45
586.58	30326.32
586.74	29837.15
586.90	29790.34
587.06	29748.21
587.22	29926.09
587.38	30146.10
587.54	29935.45
587.70	30932.52
587.86	30366.11
588.02	30284.19
588.18	30586.12
588.34	30331.00
588.49	30433.99
588.65	29610.12
588.81	30171.85
588.97	30333.34
589.13	30068.86
589.29	29972.90
589.45	29979.92
589.61	30375.47
589.77	30508.88
589.93	30115.67
590.08	30476.12
590.24	30529.95
590.40	30096.95
590.56	30644.63
590.72	30085.25
590.88	30185.89
591.04	30532.29
591.20	30611.87
591.35	30583.78
591.51	30775.70
591.67	30565.06
591.83	30756.98
591.99	30616.55
