SpectraSuite Data File
++++++++++++++++++++++++++++++++++++
Date: Fri Oct 18 13:58:19 GMT-05:00 2013
User: bianchi
Dark Spectrum Present: No
Reference Spectrum Present: No
Number of Sampled Component Spectra: 1
Spectrometers: USB2+H05261
Integration Time (usec): 50000 (USB2+H05261)
Spectra Averaged: 1 (USB2+H05261)
Boxcar Smoothing: 0 (USB2+H05261)
Correct for Electrical Dark: No (USB2+H05261)
Strobe/Lamp Enabled: No (USB2+H05261)
Correct for Detector Non-linearity: No (USB2+H05261)
Correct for Stray Light: No (USB2+H05261)
Number of Pixels in Processed Spectrum: 2048
>>>>>Begin Processed Spectral Data<<<<<
365.73	0.00
365.92	0.00
366.12	0.00
366.32	0.00
366.52	0.00
366.72	0.00
366.91	0.00
367.11	0.00
367.31	0.00
367.51	0.00
367.70	0.00
367.90	0.00
368.10	0.00
368.30	0.00
368.49	0.00
368.69	0.00
368.89	0.00
369.09	0.00
369.28	0.00
369.48	0.00
369.68	0.00
369.87	0.00
370.07	0.00
370.27	0.00
370.47	0.00
370.66	107.66
370.86	49.15
371.06	138.09
371.25	152.13
371.45	175.54
371.65	175.54
371.84	175.54
372.04	227.03
372.24	189.58
372.44	107.66
372.63	112.35
372.83	238.73
373.03	257.46
373.22	273.84
373.42	266.82
373.62	210.65
373.81	308.95
374.01	198.95
374.21	231.71
374.40	276.18
374.60	280.86
374.79	203.63
374.99	250.44
375.19	159.16
375.38	210.65
375.58	271.50
375.78	276.18
375.97	257.46
376.17	294.91
376.37	344.06
376.56	264.48
376.76	318.31
376.95	266.82
377.15	273.84
377.35	250.44
377.54	203.63
377.74	252.78
377.93	304.27
378.13	248.10
378.33	252.78
378.52	220.01
378.72	238.73
378.91	304.27
379.11	257.46
379.31	248.10
379.50	320.65
379.70	381.51
379.89	308.95
380.09	287.89
380.28	292.57
380.48	304.27
380.68	362.78
380.87	234.05
381.07	297.25
381.26	313.63
381.46	325.33
381.65	252.78
381.85	315.97
382.04	297.25
382.24	351.08
382.43	327.68
382.63	433.00
382.83	362.78
383.02	311.29
383.22	393.21
383.41	367.46
383.61	294.91
383.80	456.40
384.00	327.68
384.19	353.42
384.39	404.91
384.58	308.95
384.78	393.21
384.97	351.08
385.17	404.91
385.36	374.49
385.56	414.27
385.75	381.51
385.95	461.09
386.14	437.68
386.34	505.56
386.53	468.11
386.72	402.57
386.92	407.25
387.11	442.36
387.31	395.55
387.50	393.21
387.70	367.46
387.89	365.12
388.09	353.42
388.28	379.17
388.48	414.27
388.67	433.00
388.86	430.66
389.06	484.49
389.25	496.19
389.45	461.09
389.64	468.11
389.84	547.69
390.03	458.74
390.22	531.30
390.42	390.87
390.61	587.47
390.81	564.07
391.00	489.17
391.19	463.43
391.39	521.94
391.58	472.79
391.78	451.72
391.97	566.41
392.16	477.47
392.36	505.56
392.55	514.92
392.75	592.16
392.94	592.16
393.13	491.51
393.33	568.75
393.52	479.81
393.71	507.90
393.91	599.18
394.10	547.69
394.29	498.53
394.49	521.94
394.68	566.41
394.88	587.47
395.07	580.45
395.26	610.88
395.46	510.24
395.65	512.58
395.84	624.92
396.04	655.35
396.23	634.29
396.42	634.29
396.62	685.78
396.81	685.78
397.00	683.44
397.19	615.56
397.39	716.20
397.58	645.99
397.77	643.65
397.97	676.41
398.16	690.46
398.35	798.12
398.55	702.16
398.74	653.01
398.93	786.42
399.12	664.71
399.32	760.67
399.51	823.87
399.70	741.95
399.90	662.37
400.09	725.57
400.28	774.72
400.47	688.12
400.67	781.74
400.86	807.48
401.05	751.31
401.24	802.80
401.44	821.53
401.63	807.48
401.82	887.06
402.01	723.23
402.21	858.98
402.40	840.25
402.59	844.93
402.78	828.55
402.97	873.02
403.17	950.26
403.36	901.11
403.55	896.43
403.74	805.14
403.93	828.55
404.13	901.11
404.32	861.32
404.51	952.60
404.70	945.58
404.89	884.72
405.09	976.00
405.28	882.38
405.47	870.68
405.66	1032.18
405.85	966.64
406.05	961.96
406.24	940.90
406.43	1006.43
406.62	1090.69
406.81	1022.81
407.00	992.39
407.20	1102.39
407.39	1104.73
407.58	1100.05
407.77	978.34
407.96	1067.28
408.15	1135.16
408.34	1100.05
408.54	1100.05
408.73	1069.62
408.92	1142.18
409.11	1210.06
409.30	1116.44
409.49	1111.75
409.68	1083.67
409.87	1160.91
410.07	1128.14
410.26	1146.86
410.45	1231.12
410.64	1083.67
410.83	1151.54
411.02	1179.63
411.21	1261.55
411.40	1186.65
411.59	1200.69
411.78	1240.48
411.98	1275.59
412.17	1301.34
412.36	1259.21
412.55	1310.70
412.74	1371.55
412.93	1364.53
413.12	1263.89
413.31	1455.81
413.50	1331.76
413.69	1369.21
413.88	1511.99
414.07	1544.75
414.26	1411.34
414.45	1497.94
414.64	1469.86
414.83	1462.83
415.02	1481.56
415.22	1509.65
415.41	1605.61
415.60	1556.46
415.79	1626.67
415.98	1612.63
416.17	1696.89
416.36	1673.48
416.55	1650.08
416.74	1689.87
416.93	1598.59
417.12	1647.74
417.31	1699.23
417.50	1643.06
417.69	1830.30
417.88	1582.20
418.07	1757.74
418.26	1720.29
418.45	1757.74
418.64	1778.81
418.83	1813.92
419.02	1802.21
419.21	1811.57
419.39	1830.30
419.58	1753.06
419.77	1795.19
419.96	1827.96
420.15	1877.11
420.34	1830.30
420.53	1905.20
420.72	1905.20
420.91	1994.14
421.10	1902.86
421.29	1984.77
421.48	1919.24
421.67	1994.14
421.86	2010.52
422.05	1940.30
422.24	1991.80
422.43	1956.69
422.61	1860.73
422.80	1942.64
422.99	2038.61
423.18	2024.56
423.37	2064.35
423.56	2047.97
423.75	2019.88
423.94	1987.11
424.13	1900.52
424.32	1874.77
424.50	2043.29
424.69	2146.27
424.88	2087.76
425.07	2085.42
425.26	2008.18
425.45	1966.05
425.64	2111.16
425.83	2031.58
426.01	2087.76
426.20	2003.50
426.39	2026.90
426.58	2134.57
426.77	2047.97
426.96	2099.46
427.15	2094.78
427.33	2094.78
427.52	2092.44
427.71	2143.93
427.90	2195.42
428.09	2165.00
428.28	2179.04
428.46	2134.57
428.65	2176.70
428.84	2298.41
429.03	2260.96
429.22	2225.85
429.40	2141.59
429.59	2265.64
429.78	2101.80
429.97	2167.34
430.16	2258.62
430.34	2310.11
430.53	2293.72
430.72	2333.51
430.91	2363.94
431.10	2200.10
431.28	2253.94
431.47	2464.58
431.66	2373.30
431.85	2429.48
432.03	2483.31
432.22	2452.88
432.41	2506.71
432.60	2497.35
432.79	2387.35
432.97	2427.14
433.16	2422.45
433.35	2499.69
433.54	2626.08
433.72	2562.89
433.91	2576.93
434.10	2518.42
434.28	2448.20
434.47	2665.87
434.66	2656.51
434.85	2490.33
435.03	2495.01
435.22	2513.74
435.41	2738.43
435.59	2651.83
435.78	2597.99
435.97	2487.99
436.16	2700.98
436.34	2626.08
436.53	2626.08
436.72	2820.35
436.90	2675.23
437.09	2778.22
437.28	2729.06
437.46	2731.41
437.65	2773.53
437.84	2855.45
438.02	2759.49
438.21	2815.66
438.40	2778.22
438.58	2953.76
438.77	2951.42
438.96	2998.23
439.14	3023.97
439.33	2965.46
439.52	3012.27
439.70	2932.69
439.89	3009.93
440.08	3023.97
440.26	3159.72
440.45	3054.40
440.63	3063.76
440.82	3082.49
441.01	3070.78
441.19	3241.64
441.38	3178.45
441.57	3105.89
441.75	3328.24
441.94	3262.71
442.12	3274.41
442.31	3358.67
442.50	3199.51
442.68	3379.73
442.87	3375.05
443.05	3386.76
443.24	3445.27
443.43	3368.03
443.61	3461.65
443.80	3503.78
443.98	3307.18
444.17	3155.04
444.35	3487.40
444.54	3522.51
444.73	3499.10
444.91	3503.78
445.10	3520.17
445.28	3438.25
445.47	3478.04
445.65	3478.04
445.84	3482.72
446.02	3508.46
446.21	3459.31
446.39	3417.18
446.58	3541.23
446.77	3517.83
446.95	3445.27
447.14	3531.87
447.32	3501.44
447.51	3562.30
447.69	3478.04
447.88	3595.06
448.06	3517.83
448.25	3496.76
448.43	3630.17
448.62	3492.08
448.80	3461.65
448.99	3534.21
449.17	3698.05
449.36	3543.57
449.54	3574.00
449.73	3712.09
449.91	3695.71
450.10	3831.46
450.28	3749.54
450.46	3810.39
450.65	3709.75
450.83	3801.03
451.02	3784.65
451.20	3758.90
451.39	3894.65
451.57	3758.90
451.76	3737.84
451.94	3913.38
452.13	3861.88
452.31	3925.08
452.49	3950.82
452.68	3901.67
452.86	3908.69
453.05	3997.64
453.23	4014.02
453.42	3831.46
453.60	3859.54
453.78	3992.95
453.97	3779.97
454.15	3913.38
454.34	4065.51
454.52	4163.81
454.70	3983.59
454.89	4112.32
455.07	4004.66
455.26	3915.72
455.44	4060.83
455.62	4079.55
455.81	4114.66
455.99	4077.21
456.17	4049.13
456.36	4182.54
456.54	4404.89
456.73	4386.16
456.91	4418.93
457.09	4379.14
457.28	4318.29
457.46	4313.61
457.64	4374.46
457.83	4428.29
458.01	4351.06
458.19	4358.08
458.38	4397.87
458.56	4542.98
458.74	4465.74
458.93	4624.90
459.11	4479.79
459.29	4358.08
459.48	4500.85
459.66	4362.76
459.84	4414.25
460.03	4704.48
460.21	4720.86
460.39	4578.09
460.57	4592.13
460.76	4681.07
460.94	4730.22
461.12	4610.86
461.31	4564.04
461.49	4557.02
461.67	4765.33
461.85	4746.61
462.04	4634.26
462.22	4931.51
462.40	4709.16
462.59	4882.36
462.77	4692.77
462.95	4816.82
463.13	4833.21
463.32	4912.78
463.50	4826.18
463.68	4875.34
463.86	4891.72
464.05	4905.76
464.23	4861.29
464.41	4966.62
464.59	4606.17
464.78	5130.45
464.96	5015.77
465.14	5064.92
465.32	4931.51
465.50	5032.15
465.69	5057.90
465.87	4894.06
466.05	4980.66
466.23	4983.00
466.41	5069.60
466.60	5261.52
466.78	5217.05
466.96	4983.00
467.14	5050.88
467.32	5114.07
467.51	5298.97
467.69	4936.19
467.87	5144.50
468.05	5397.28
468.23	5167.90
468.41	5191.31
468.60	5219.39
468.78	5228.76
468.96	5100.03
469.14	5376.21
469.32	5277.91
469.50	5205.35
469.69	5390.25
469.87	5444.09
470.05	5483.88
470.23	5350.46
470.41	5439.40
470.59	5406.64
470.77	5434.72
470.95	5502.60
471.14	5533.03
471.32	5518.98
471.50	5570.48
471.68	5589.20
471.86	5518.98
472.04	5795.17
472.22	5827.93
472.40	5727.29
472.58	5832.62
472.77	5757.72
472.95	5851.34
473.13	6001.13
473.31	5891.13
473.49	5907.51
473.67	5832.62
473.85	6003.47
474.03	5982.41
474.21	6120.50
474.39	6052.63
474.57	6064.33
474.75	6265.61
474.93	6183.70
475.12	6162.63
475.30	6214.12
475.48	6160.29
475.66	6319.45
475.84	6083.05
476.02	6370.94
476.20	6296.04
476.38	6445.84
476.56	6672.87
476.74	6455.20
476.92	6635.42
477.10	6604.99
477.28	6647.12
477.46	6773.51
477.64	6803.94
477.82	6799.26
478.00	7014.59
478.18	7028.63
478.36	7030.97
478.54	7028.63
478.72	7155.02
478.90	7152.68
479.08	7265.02
479.26	7297.79
479.44	7297.79
479.62	7375.03
479.80	7442.90
479.98	7454.61
480.16	7564.61
480.34	7527.16
480.52	7637.17
480.70	7662.91
480.88	7824.41
481.06	7609.08
481.24	7758.88
481.41	7683.98
481.59	7896.97
481.77	7934.42
481.95	8191.88
482.13	8355.71
482.31	8135.70
482.49	8161.45
482.67	8346.35
482.85	8397.84
483.03	8484.44
483.21	8468.06
483.39	8580.40
483.57	8477.42
483.74	8727.86
483.92	8872.97
484.10	8683.39
484.28	9067.24
484.46	8966.59
484.64	9317.67
484.82	9130.43
485.00	9137.45
485.18	9228.73
485.35	9289.59
485.53	9401.93
485.71	9476.83
485.89	9579.81
486.07	9614.92
486.25	9877.06
486.43	9657.05
486.61	9638.33
486.78	10050.26
486.96	9970.68
487.14	10068.98
487.32	9823.23
487.50	10310.06
487.68	10076.01
487.85	10307.72
488.03	10490.28
488.21	10609.65
488.39	10539.43
488.57	10745.40
488.75	10417.72
488.92	11126.91
489.10	10958.39
489.28	10965.41
489.46	11115.20
489.64	11166.70
489.81	11440.54
489.99	11199.46
490.17	11398.41
490.35	11274.36
490.53	11630.12
490.70	11449.90
490.88	11599.70
491.06	12042.06
491.24	11770.55
491.41	11955.46
491.59	11985.88
491.77	12145.04
491.95	12189.51
492.13	12236.32
492.30	12283.13
492.48	12400.16
492.66	12187.17
492.84	12432.93
493.01	12786.35
493.19	12645.91
493.37	12779.32
493.54	12769.96
493.72	12624.85
493.90	12915.08
494.08	13076.57
494.25	13137.43
494.43	13144.45
494.61	13547.02
494.79	13554.04
494.96	13296.58
495.14	13551.70
495.32	13472.12
495.49	13619.58
495.67	13881.72
495.85	13823.20
496.02	13666.39
496.20	13870.01
496.38	13933.21
496.55	14108.75
496.73	14111.09
496.91	14143.86
497.09	14052.58
497.26	14558.13
497.44	14572.18
497.62	14588.56
497.79	14534.73
497.97	14466.85
498.14	14857.72
498.32	14932.62
498.50	14862.40
498.67	14941.98
498.85	15002.83
499.03	15112.84
499.20	15229.87
499.38	15225.18
499.56	15428.81
499.73	15393.70
499.91	15379.66
500.08	15716.70
500.26	15527.11
500.44	15616.05
500.61	15653.50
500.79	15309.44
500.97	15634.78
501.14	15833.72
501.32	15784.57
501.49	16002.24
501.67	15803.30
501.84	16079.48
502.02	15782.23
502.20	16145.02
502.37	16308.85
502.55	16201.19
502.72	16374.39
502.90	16229.27
503.07	16582.70
503.25	16578.01
503.43	16224.59
503.60	16791.00
503.78	16477.37
503.95	16587.38
504.13	16814.41
504.30	16479.71
504.48	16798.02
504.65	16905.69
504.83	16961.86
505.01	17231.02
505.18	16961.86
505.36	17420.61
505.53	16954.84
505.71	17502.53
505.88	17090.59
506.06	17011.01
506.23	17507.21
506.41	17439.33
506.58	17294.22
506.76	17149.11
506.93	17563.38
507.11	17708.49
507.28	17750.62
507.46	17673.39
507.63	17841.90
507.81	17956.59
507.98	17717.86
508.16	18080.64
508.33	18033.83
508.50	17832.54
508.68	17951.91
508.85	18129.79
509.03	18038.51
509.20	18094.68
509.38	18375.55
509.55	18125.11
509.73	18473.85
509.90	18335.76
510.08	18644.71
510.25	18288.95
510.42	18368.52
510.60	18712.58
510.77	18310.01
510.95	18902.17
511.12	18693.86
511.30	18523.00
511.47	18892.80
511.64	19056.64
511.82	19016.85
511.99	19040.26
512.17	19096.43
512.34	19028.56
512.51	19278.99
512.69	19311.76
512.86	18974.72
513.04	19779.87
513.21	19599.65
513.38	19562.20
513.56	19618.37
513.73	19536.45
513.90	19559.86
514.08	19700.29
514.25	19744.76
514.43	19779.87
514.60	19901.58
514.77	19573.90
514.95	20262.02
515.12	19653.48
515.29	19817.32
515.47	20170.74
515.64	20119.24
515.81	20339.26
515.99	20332.23
516.16	20596.71
516.33	20327.55
516.51	20496.07
516.68	20594.37
516.85	20348.62
517.03	20596.71
517.20	20737.15
517.37	20779.28
517.54	20521.82
517.72	20746.51
517.89	20673.95
518.06	20659.91
518.24	20919.71
518.41	20521.82
518.58	21214.62
518.75	20702.04
518.93	21083.55
519.10	21022.69
519.27	21532.93
519.45	20999.29
519.62	21420.58
519.79	21043.76
519.96	21050.78
520.14	21261.43
520.31	21291.85
520.48	21771.66
520.65	21453.35
520.83	21642.93
521.00	21451.01
521.17	21558.67
521.34	21500.16
521.52	21607.83
521.69	21720.17
521.86	21724.85
522.03	22171.89
522.20	22008.06
522.38	22061.89
522.55	21933.16
522.72	22040.82
522.89	21830.18
523.07	22335.73
523.24	22150.83
523.41	22473.82
523.58	21972.95
523.75	22199.98
523.92	22277.22
524.10	22260.84
524.27	22338.07
524.44	22462.12
524.61	22682.13
524.78	22717.24
524.96	22628.30
525.13	22499.57
525.30	22562.76
525.47	22808.52
525.64	22780.43
525.81	22998.10
525.98	22916.19
526.16	22848.31
526.33	22871.72
526.50	23253.22
526.67	22462.12
526.84	22937.25
527.01	23063.64
527.18	23005.13
527.36	23115.13
527.53	23103.43
527.70	23220.45
527.87	23475.57
528.04	23243.86
528.21	23449.83
528.38	23410.04
528.55	23571.54
528.72	23487.28
528.89	23585.58
529.07	23494.30
529.24	23398.34
529.41	23728.35
529.58	23646.43
529.75	23641.75
529.92	23613.66
530.09	23726.01
530.26	23810.27
530.43	23817.29
530.60	24053.69
530.77	23927.30
530.94	23983.47
531.11	23864.10
531.28	23667.50
531.46	24065.39
531.63	24222.20
531.80	23976.45
531.97	24493.71
532.14	24357.96
532.31	24294.76
532.48	24077.09
532.65	24020.92
532.82	24053.69
532.99	24250.29
533.16	24606.05
533.33	24304.12
533.50	24718.40
533.67	24442.21
533.84	24254.97
534.01	24592.01
534.18	24343.91
534.35	24482.00
534.52	24720.74
534.69	24872.87
534.86	24922.02
535.03	24842.45
535.20	24943.09
535.37	24833.08
535.54	24687.97
535.71	24840.11
535.88	24980.54
536.05	24945.43
536.22	24769.89
536.38	25270.76
536.55	25392.47
536.72	25443.96
536.89	24830.74
537.06	24987.56
537.23	24943.09
537.40	25064.80
537.57	24994.58
537.74	25195.87
537.91	25607.80
538.08	25558.65
538.25	25130.33
538.42	25551.63
538.59	25537.59
538.75	25411.20
538.92	25481.41
539.09	25647.59
539.26	25673.34
539.43	25736.53
539.60	25979.95
539.77	26036.12
539.94	25862.92
540.11	25795.04
540.28	25954.20
540.44	25963.56
540.61	25773.98
540.78	25734.19
540.95	25680.36
541.12	25874.62
541.29	25923.77
541.46	25893.35
541.62	25823.13
541.79	26162.51
541.96	25474.39
542.13	25996.33
542.30	26132.08
542.47	26658.70
542.63	26232.72
542.80	26274.85
542.97	26410.60
543.14	26375.50
543.31	26284.22
543.48	26354.43
543.64	26670.40
543.81	26548.70
543.98	26579.12
544.15	26445.71
544.32	27021.48
544.48	26852.97
544.65	26885.73
544.82	26691.47
544.99	26359.11
545.16	26881.05
545.32	26647.00
545.49	27211.07
545.66	27192.34
545.83	26892.76
546.00	27487.25
546.16	26979.36
546.33	26836.58
546.50	26960.63
546.67	27105.74
546.83	26766.37
547.00	27103.40
547.17	27337.46
547.34	27363.20
547.50	27246.18
547.67	27255.54
547.84	27255.54
548.00	27283.62
548.17	27098.72
548.34	27297.67
548.51	27435.76
548.67	27344.48
548.84	27346.82
549.01	27402.99
549.18	27304.69
549.34	27438.10
549.51	27527.04
549.68	27168.94
549.84	27543.42
550.01	27330.44
550.18	27536.40
550.34	27999.83
550.51	27838.33
550.68	27871.10
550.84	27484.91
551.01	27604.28
551.18	27498.95
551.34	28147.28
551.51	27704.92
551.68	27988.13
551.84	27569.17
552.01	27646.41
552.18	28018.55
552.34	28079.41
552.51	28130.90
552.68	27934.29
552.84	27824.29
553.01	28191.75
553.18	28044.30
553.34	27805.56
553.51	27838.33
553.67	28224.52
553.84	28517.09
554.01	28493.68
554.17	27978.76
554.34	27950.68
554.51	28102.81
554.67	28360.27
554.84	27814.93
555.00	28329.84
555.17	28252.61
555.33	28154.30
555.50	28095.79
555.67	28297.08
555.83	28149.62
556.00	28652.84
556.16	28240.90
556.33	28493.68
556.50	28397.72
556.66	28797.95
556.83	28442.19
556.99	28584.96
557.16	28863.49
557.32	28540.49
557.49	28774.55
557.65	28397.72
557.82	28657.52
557.98	28456.23
558.15	28854.12
558.32	28563.90
558.48	28528.79
558.65	28786.25
558.81	28603.69
558.98	28737.10
559.14	28727.74
559.31	28657.52
559.47	28463.25
559.64	28584.96
559.80	28804.97
559.97	28884.55
560.13	28947.75
560.30	29298.83
560.46	28961.79
560.63	28811.99
560.79	29191.16
560.96	29280.10
561.12	29170.10
561.29	28713.69
561.45	29081.16
561.61	29083.50
561.78	29200.52
561.94	28800.29
562.11	29270.74
562.27	28919.66
562.44	28781.57
562.60	28840.08
562.77	28943.06
562.93	28774.55
563.10	29439.26
563.26	28919.66
563.42	29205.20
563.59	29078.82
563.75	28989.88
563.92	28968.81
564.08	28914.98
564.24	28926.68
564.41	29088.18
564.57	29371.38
564.74	29212.23
564.90	29722.46
565.07	29296.49
565.23	29434.58
565.39	29490.75
565.56	29586.71
565.72	29088.18
565.88	29193.50
566.05	29064.77
566.21	29338.62
566.38	29448.62
566.54	29350.32
566.70	29345.64
566.87	29689.70
567.03	29610.12
567.19	29509.47
567.36	29991.62
567.52	29511.81
567.68	29296.49
567.85	29340.96
568.01	29287.12
568.17	29378.40
568.34	29694.38
568.50	29191.16
568.66	29486.07
568.83	30036.09
568.99	29743.53
569.15	29575.01
569.32	29284.78
569.48	29649.91
569.64	29612.46
569.81	29263.72
569.97	29563.31
570.13	29795.02
570.30	29741.19
570.46	30108.65
570.62	29376.06
570.78	29376.06
570.95	29802.04
571.11	29474.37
571.27	29301.17
571.43	29310.53
571.60	29851.19
571.76	29570.33
571.92	29750.55
572.09	29432.24
572.25	29935.45
572.41	29993.97
572.57	29738.85
572.74	29874.60
572.90	29659.27
573.06	29748.21
573.22	29567.99
573.38	29558.63
573.55	29670.97
573.71	30092.27
573.87	30478.46
574.03	29820.77
574.20	29556.28
574.36	30064.18
574.52	29867.58
574.68	29661.61
574.84	29865.24
575.01	29933.11
575.17	29972.90
575.33	29745.87
575.49	29715.44
575.65	29905.02
575.82	29954.18
575.98	29909.71
576.14	29933.11
576.30	29610.12
576.46	30047.80
576.62	29773.95
576.79	30101.63
576.95	29757.57
577.11	29916.73
577.27	30162.48
577.43	30125.04
577.59	30089.93
577.75	29970.56
577.92	29785.66
578.08	29989.28
578.24	29493.09
578.40	29647.57
578.56	30010.35
578.72	30263.13
578.88	30309.94
579.04	30246.74
579.21	29876.94
579.37	29809.06
579.53	30155.46
579.69	29776.30
579.85	30178.87
580.01	29696.72
580.17	30113.33
580.33	29722.46
580.49	29799.70
580.65	29865.24
580.82	29940.13
580.98	30136.74
581.14	29710.76
581.30	30323.98
581.46	30047.80
581.62	30057.16
581.78	30024.39
581.94	30080.56
582.10	29893.32
582.26	30005.67
582.42	30162.48
582.58	30422.28
582.74	29790.34
582.90	30239.72
583.06	30244.40
583.22	29930.77
583.38	29841.83
583.54	29958.86
583.70	30178.87
583.86	30033.75
584.02	29984.60
584.18	30150.78
584.34	30225.68
584.50	30249.08
584.66	29944.81
584.82	30122.69
584.98	29886.30
585.14	29886.30
585.30	29809.06
585.46	30150.78
585.62	30101.63
585.78	30192.91
585.94	29858.21
586.10	30312.28
586.26	30080.56
586.42	30441.01
586.58	30628.25
586.74	30232.70
586.90	29701.40
587.06	30153.12
587.22	30415.26
587.38	29874.60
587.54	30513.56
587.70	30494.84
587.86	30176.53
588.02	30464.41
588.18	30356.75
588.34	30642.29
588.49	30239.72
588.65	30335.68
588.81	30033.75
588.97	30232.70
589.13	29965.88
589.29	29972.90
589.45	30293.55
589.61	30352.07
589.77	30960.61
589.93	30632.93
590.08	30862.30
590.24	30284.19
590.40	30543.99
590.56	30419.94
590.72	30167.16
590.88	29806.72
591.04	30494.84
591.20	30382.49
591.35	30415.26
591.51	30969.97
591.67	30764.00
591.83	30670.38
591.99	30817.83
