SpectraSuite Data File
++++++++++++++++++++++++++++++++++++
Date: Fri Oct 18 13:58:12 GMT-05:00 2013
User: bianchi
Dark Spectrum Present: No
Reference Spectrum Present: No
Number of Sampled Component Spectra: 1
Spectrometers: USB2+H05261
Integration Time (usec): 50000 (USB2+H05261)
Spectra Averaged: 1 (USB2+H05261)
Boxcar Smoothing: 0 (USB2+H05261)
Correct for Electrical Dark: No (USB2+H05261)
Strobe/Lamp Enabled: No (USB2+H05261)
Correct for Detector Non-linearity: No (USB2+H05261)
Correct for Stray Light: No (USB2+H05261)
Number of Pixels in Processed Spectrum: 2048
>>>>>Begin Processed Spectral Data<<<<<
365.73	0.00
365.92	0.00
366.12	0.00
366.32	0.00
366.52	0.00
366.72	0.00
366.91	0.00
367.11	0.00
367.31	0.00
367.51	0.00
367.70	0.00
367.90	0.00
368.10	0.00
368.30	0.00
368.49	0.00
368.69	0.00
368.89	0.00
369.09	0.00
369.28	0.00
369.48	0.00
369.68	0.00
369.87	0.00
370.07	0.00
370.27	0.00
370.47	0.00
370.66	84.26
370.86	215.33
371.06	198.95
371.25	91.28
371.45	117.03
371.65	215.33
371.84	154.48
372.04	128.73
372.24	152.13
372.44	166.18
372.63	121.71
372.83	187.24
373.03	182.56
373.22	205.97
373.42	177.88
373.62	168.52
373.81	205.97
374.01	304.27
374.21	285.55
374.40	236.39
374.60	220.01
374.79	252.78
374.99	159.16
375.19	255.12
375.38	224.69
375.58	297.25
375.78	250.44
375.97	250.44
376.17	290.23
376.37	252.78
376.56	280.86
376.76	252.78
376.95	273.84
377.15	308.95
377.35	301.93
377.54	315.97
377.74	262.14
377.93	187.24
378.13	285.55
378.33	241.08
378.52	290.23
378.72	311.29
378.91	318.31
379.11	264.48
379.31	341.72
379.50	290.23
379.70	301.93
379.89	299.59
380.09	353.42
380.28	360.44
380.48	332.36
380.68	355.76
380.87	301.93
381.07	222.35
381.26	365.12
381.46	297.25
381.65	332.36
381.85	367.46
382.04	306.61
382.24	395.55
382.43	355.76
382.63	358.10
382.83	313.63
383.02	325.33
383.22	339.38
383.41	379.17
383.61	308.95
383.80	414.27
384.00	402.57
384.19	468.11
384.39	407.25
384.58	358.10
384.78	388.53
384.97	414.27
385.17	320.65
385.36	344.06
385.56	379.17
385.75	423.64
385.95	437.68
386.14	447.04
386.34	390.87
386.53	362.78
386.72	395.55
386.92	470.45
387.11	390.87
387.31	416.62
387.50	475.13
387.70	416.62
387.89	470.45
388.09	517.26
388.28	418.96
388.48	383.85
388.67	517.26
388.86	603.86
389.06	440.02
389.25	437.68
389.45	486.83
389.64	346.40
389.84	475.13
390.03	521.94
390.22	442.36
390.42	521.94
390.61	472.79
390.81	500.87
391.00	496.19
391.19	596.84
391.39	543.00
391.58	486.83
391.78	498.53
391.97	493.85
392.16	610.88
392.36	559.39
392.55	561.73
392.75	503.22
392.94	517.26
393.13	594.50
393.33	517.26
393.52	617.90
393.71	578.11
393.91	547.69
394.10	606.20
394.29	526.62
394.49	599.18
394.68	627.26
394.88	606.20
395.07	627.26
395.26	587.47
395.46	585.13
395.65	650.67
395.84	622.58
396.04	685.78
396.23	653.01
396.42	662.37
396.62	674.07
396.81	683.44
397.00	648.33
397.19	744.29
397.39	671.73
397.58	725.57
397.77	660.03
397.97	662.37
398.16	676.41
398.35	732.59
398.55	702.16
398.74	657.69
398.93	671.73
399.12	734.93
399.32	657.69
399.51	767.70
399.70	788.76
399.90	753.65
400.09	809.83
400.28	816.85
400.47	894.08
400.67	814.51
400.86	786.42
401.05	835.57
401.24	741.95
401.44	809.83
401.63	837.91
401.82	868.34
402.01	765.36
402.21	826.21
402.40	887.06
402.59	940.90
402.78	926.85
402.97	880.04
403.17	861.32
403.36	805.14
403.55	884.72
403.74	919.83
403.93	973.66
404.13	978.34
404.32	957.28
404.51	908.13
404.70	1015.79
404.89	943.24
405.09	976.00
405.28	987.71
405.47	1027.50
405.66	973.66
405.85	994.73
406.05	999.41
406.24	926.85
406.43	1067.28
406.62	1095.37
406.81	1057.92
407.00	1104.73
407.20	1090.69
407.39	1004.09
407.58	1102.39
407.77	1170.27
407.96	1172.61
408.15	1050.90
408.34	1078.99
408.54	1109.41
408.73	1055.58
408.92	1088.35
409.11	1076.65
409.30	1193.67
409.49	1095.37
409.68	1238.14
409.87	1121.12
410.07	1196.01
410.26	1284.95
410.45	1261.55
410.64	1188.99
410.83	1226.44
411.02	1167.93
411.21	1275.59
411.40	1324.74
411.59	1254.53
411.78	1266.23
411.98	1210.06
412.17	1409.00
412.36	1296.66
412.55	1275.59
412.74	1352.83
412.93	1366.87
413.12	1418.36
413.31	1500.28
413.50	1385.60
413.69	1444.11
413.88	1406.66
414.07	1476.88
414.26	1453.47
414.45	1502.62
414.64	1474.54
414.83	1521.35
415.02	1563.48
415.22	1528.37
415.41	1593.90
415.60	1593.90
415.79	1556.46
415.98	1636.03
416.17	1640.72
416.36	1640.72
416.55	1680.50
416.74	1673.48
416.93	1645.40
417.12	1614.97
417.31	1755.40
417.50	1678.16
417.69	1736.68
417.88	1689.87
418.07	1771.79
418.26	1802.21
418.45	1856.04
418.64	1811.57
418.83	1797.53
419.02	1825.62
419.21	1797.53
419.39	1811.57
419.58	1879.45
419.77	1870.09
419.96	1872.43
420.15	1846.68
420.34	1954.35
420.53	2003.50
420.72	1994.14
420.91	1886.47
421.10	2050.31
421.29	2001.16
421.48	1905.20
421.67	2045.63
421.86	1977.75
422.05	2050.31
422.24	1872.43
422.43	2019.88
422.61	1987.11
422.80	2024.56
422.99	2040.95
423.18	2010.52
423.37	2043.29
423.56	2066.69
423.75	1961.37
423.94	1930.94
424.13	1987.11
424.32	2026.90
424.50	2120.53
424.69	2069.03
424.88	2193.08
425.07	2059.67
425.26	2045.63
425.45	2111.16
425.64	2031.58
425.83	2200.10
426.01	2153.29
426.20	2085.42
426.39	2118.18
426.58	2017.54
426.77	2059.67
426.96	2062.01
427.15	2162.66
427.33	2279.68
427.52	2136.91
427.71	2169.68
427.90	2225.85
428.09	2225.85
428.28	2265.64
428.46	2228.19
428.65	2214.15
428.84	2359.26
429.03	2347.56
429.22	2246.91
429.40	2246.91
429.59	2237.55
429.78	2235.21
429.97	2232.87
430.16	2296.07
430.34	2267.98
430.53	2340.54
430.72	2406.07
430.91	2328.83
431.10	2445.86
431.28	2436.50
431.47	2345.22
431.66	2356.92
431.85	2438.84
432.03	2429.48
432.22	2450.54
432.41	2602.68
432.60	2492.67
432.79	2462.24
432.97	2520.76
433.16	2572.25
433.35	2583.95
433.54	2651.83
433.72	2633.10
433.91	2607.36
434.10	2605.02
434.28	2492.67
434.47	2541.82
434.66	2511.39
434.85	2750.13
435.03	2656.51
435.22	2633.10
435.41	2717.36
435.59	2665.87
435.78	2628.42
435.97	2668.21
436.16	2740.77
436.34	2693.96
436.53	2693.96
436.72	2785.24
436.90	2827.37
437.09	2841.41
437.28	2710.34
437.46	2738.43
437.65	2834.39
437.84	2796.94
438.02	2925.67
438.21	2850.77
438.40	2829.71
438.58	2974.82
438.77	3007.59
438.96	2946.73
439.14	3012.27
439.33	2958.44
439.52	2979.50
439.70	3063.76
439.89	3122.27
440.08	3138.66
440.26	3239.30
440.45	3098.87
440.63	3124.62
440.82	3150.36
441.01	3080.14
441.19	3269.73
441.38	3246.32
441.57	3265.05
441.75	3339.94
441.94	3318.88
442.12	3276.75
442.31	3351.65
442.50	3428.88
442.68	3424.20
442.87	3475.70
443.05	3405.48
443.24	3433.57
443.43	3358.67
443.61	3529.53
443.80	3632.51
443.98	3332.92
444.17	3276.75
444.35	3471.01
444.54	3536.55
444.73	3564.64
444.91	3412.50
445.10	3620.81
445.28	3459.31
445.47	3440.59
445.65	3361.01
445.84	3454.63
446.02	3574.00
446.21	3606.77
446.39	3510.80
446.58	3449.95
446.77	3485.06
446.95	3463.99
447.14	3499.10
447.32	3613.79
447.51	3599.74
447.69	3613.79
447.88	3602.08
448.06	3730.81
448.25	3630.17
448.43	3620.81
448.62	3676.98
448.80	3634.85
448.99	3590.38
449.17	3637.19
449.36	3602.08
449.54	3775.28
449.73	3669.96
449.91	3716.77
450.10	3777.62
450.28	3829.12
450.46	3864.22
450.65	3700.39
450.83	3737.84
451.02	3810.39
451.20	3894.65
451.39	3843.16
451.57	3808.05
451.76	3779.97
451.94	3763.58
452.13	3946.14
452.31	3955.51
452.49	3861.88
452.68	3969.55
452.86	4002.32
453.05	3798.69
453.23	4184.88
453.42	3967.21
453.60	3943.80
453.78	4007.00
453.97	3976.57
454.15	4025.72
454.34	4072.53
454.52	4039.76
454.70	4002.32
454.89	3946.14
455.07	4077.21
455.26	4210.62
455.44	4262.12
455.62	4248.07
455.81	4201.26
455.99	4217.65
456.17	4259.78
456.36	4168.49
456.54	4322.97
456.73	4334.67
456.91	4337.01
457.09	4442.34
457.28	4482.13
457.46	4381.48
457.64	4447.02
457.83	4493.83
458.01	4374.46
458.19	4344.03
458.38	4269.14
458.56	4554.68
458.74	4547.66
458.93	4472.76
459.11	4524.26
459.29	4564.04
459.48	4585.11
459.66	4573.41
459.84	4589.79
460.03	4652.98
460.21	4704.48
460.39	4725.54
460.57	4566.39
460.76	4774.69
460.94	4692.77
461.12	4760.65
461.31	4770.01
461.49	4624.90
461.67	4690.43
461.85	4709.16
462.04	4830.87
462.22	5064.92
462.40	4947.89
462.59	4912.78
462.77	4882.36
462.95	4898.74
463.13	4709.16
463.32	4727.88
463.50	5036.83
463.68	4954.91
463.86	4933.85
464.05	5069.60
464.23	4873.00
464.41	5107.05
464.59	4980.66
464.78	5165.56
464.96	5039.17
465.14	5034.49
465.32	4964.28
465.50	5048.54
465.69	5263.86
465.87	5156.20
466.05	5097.69
466.23	5191.31
466.41	4997.04
466.60	5331.74
466.78	5160.88
466.96	5247.48
467.14	5270.89
467.32	5317.70
467.51	5355.15
467.69	5163.22
467.87	5294.29
468.05	5252.16
468.23	5219.39
468.41	5289.61
468.60	5235.78
468.78	5345.78
468.96	5390.25
469.14	5413.66
469.32	5467.49
469.50	5474.51
469.69	5486.22
469.87	5483.88
470.05	5605.58
470.23	5460.47
470.41	5598.56
470.59	5544.73
470.77	5509.62
470.95	5619.63
471.14	5621.97
471.32	5593.88
471.50	5701.54
471.68	5715.59
471.86	5767.08
472.04	5741.33
472.22	6094.76
472.40	5778.78
472.58	5886.45
472.77	6022.20
472.95	6101.78
473.13	6204.76
473.31	6078.37
473.49	5806.87
473.67	6150.93
473.85	6132.20
474.03	6139.23
474.21	6150.93
474.39	6113.48
474.57	6270.30
474.75	6160.29
474.93	6244.55
475.12	6314.77
475.30	6349.87
475.48	6363.92
475.66	6392.00
475.84	6445.84
476.02	6478.60
476.20	6349.87
476.38	6499.67
476.56	6759.47
476.74	6700.95
476.92	6640.10
477.10	6593.29
477.28	6754.79
477.46	6792.23
477.64	6944.37
477.82	6923.30
478.00	7225.23
478.18	7295.45
478.36	7176.08
478.54	7045.01
478.72	7236.94
478.90	7283.75
479.08	7351.62
479.26	7260.34
479.44	7279.07
479.62	7461.63
479.80	7515.46
479.98	7562.27
480.16	7700.36
480.34	7618.44
480.52	7836.11
480.70	8013.99
480.88	7817.39
481.06	7995.27
481.24	7850.16
481.41	7892.29
481.59	8236.35
481.77	8215.28
481.95	8266.77
482.13	8266.77
482.31	8287.84
482.49	8248.05
482.67	8554.66
482.85	8552.32
483.03	8753.60
483.21	8805.10
483.39	8741.90
483.57	8664.66
483.74	9008.72
483.92	9076.60
484.10	8809.78
484.28	9076.60
484.46	9291.93
484.64	9184.26
484.82	9240.44
485.00	9305.97
485.18	9528.32
485.35	9738.97
485.53	9572.79
485.71	9823.23
485.89	9834.93
486.07	9797.48
486.25	9968.34
486.43	10108.77
486.61	10073.67
486.78	10085.37
486.96	10267.93
487.14	10289.00
487.32	10272.61
487.50	10506.66
487.68	10607.31
487.85	10780.51
488.03	10562.84
488.21	10960.73
488.39	10867.11
488.57	10904.56
488.75	11080.10
488.92	11091.80
489.10	11192.44
489.28	11328.19
489.46	11302.45
489.64	11435.86
489.81	11517.78
489.99	11779.92
490.17	11854.81
490.35	11651.19
490.53	11751.83
490.70	11854.81
490.88	11899.28
491.06	12067.80
491.24	12175.47
491.41	12217.60
491.59	12119.29
491.77	12238.66
491.95	12517.18
492.13	12517.18
492.30	12400.16
492.48	12615.49
492.66	12549.95
492.84	12636.55
493.01	12624.85
493.19	13083.59
493.37	12924.44
493.54	13240.41
493.72	13018.06
493.90	13074.23
494.08	13329.35
494.25	13408.93
494.43	13514.25
494.61	13664.05
494.79	13500.21
494.96	13600.85
495.14	13638.30
495.32	14024.49
495.49	13954.27
495.67	13741.29
495.85	13949.59
496.02	14190.67
496.20	14326.42
496.38	14415.36
496.55	14169.60
496.73	14684.52
496.91	14471.53
497.09	14551.11
497.26	14462.17
497.44	14817.93
497.62	14885.81
497.79	14883.47
497.97	14787.50
498.14	15197.10
498.32	15136.24
498.50	15262.63
498.67	15609.03
498.85	15314.13
499.03	15447.54
499.20	15363.28
499.38	15208.80
499.56	15536.48
499.73	15754.15
499.91	15880.53
500.08	15974.16
500.26	15723.72
500.44	15616.05
500.61	15646.48
500.79	16049.05
500.97	16145.02
501.14	16264.38
501.32	16453.97
501.49	16285.45
501.67	16416.52
501.84	16332.26
502.02	16236.30
502.20	16437.58
502.37	16650.57
502.55	16842.50
502.72	16739.51
502.90	16585.04
503.07	16671.64
503.25	16641.21
503.43	16856.54
503.60	16814.41
503.78	17165.49
503.95	17081.23
504.13	17097.61
504.30	16982.93
504.48	16912.71
504.65	16936.12
504.83	17291.88
505.01	17282.52
505.18	17476.78
505.36	17668.70
505.53	17303.58
505.71	17521.25
505.88	17635.94
506.06	17495.50
506.23	17949.57
506.41	17977.65
506.58	17685.09
506.76	17968.29
506.93	17907.44
507.11	18071.28
507.28	18211.71
507.46	17797.43
507.63	18415.34
507.81	18218.73
507.98	17851.27
508.16	18157.88
508.33	18221.07
508.50	18518.32
508.68	18457.46
508.85	18492.57
509.03	18597.90
509.20	18892.80
509.38	18719.60
509.55	18958.34
509.73	18766.42
509.90	18916.21
510.08	18757.05
510.25	18764.07
510.42	19126.86
510.60	19344.53
510.77	19321.12
510.95	19482.62
511.12	19047.28
511.30	19225.16
511.47	19307.08
511.64	19491.98
511.82	19555.18
511.99	19318.78
512.17	19257.93
512.34	19735.40
512.51	19576.24
512.69	19503.68
512.86	19477.94
513.04	19946.05
513.21	19901.58
513.38	19889.87
513.56	20154.35
513.73	19922.64
513.90	20121.59
514.08	20049.03
514.25	19960.09
514.43	20245.63
514.60	20386.07
514.77	20383.73
514.95	20402.45
515.12	20388.41
515.29	20362.66
515.47	20379.04
515.64	20774.60
515.81	20533.52
515.99	20802.68
516.16	21191.21
516.33	20917.37
516.51	21113.97
516.68	20823.75
516.85	20622.46
517.03	20830.77
517.20	21308.24
517.37	20959.50
517.54	21109.29
517.72	21261.43
517.89	21284.83
518.06	21062.48
518.24	21268.45
518.41	21245.04
518.58	21177.17
518.75	21429.94
518.93	21575.06
519.10	21635.91
519.27	21893.37
519.45	21738.90
519.62	21420.58
519.79	21563.36
519.96	21572.72
520.14	22120.40
520.31	21553.99
520.48	22078.27
520.65	22019.76
520.83	22010.40
521.00	22218.71
521.17	21970.61
521.34	22169.55
521.52	22298.28
521.69	22188.28
521.86	22204.66
522.03	22284.24
522.20	22272.54
522.38	22349.78
522.55	22419.99
522.72	22331.05
522.89	22405.95
523.07	22874.06
523.24	22546.38
523.41	22862.35
523.58	22979.38
523.75	22932.57
523.92	22593.19
524.10	22829.59
524.27	22726.60
524.44	23073.00
524.61	23080.02
524.78	23314.08
524.96	23110.45
525.13	23145.56
525.30	23199.39
525.47	23391.31
525.64	22979.38
525.81	23328.12
525.98	23543.45
526.16	23578.56
526.33	23358.55
526.50	23681.54
526.67	23396.00
526.84	23660.48
527.01	23576.22
527.18	23520.04
527.36	23763.46
527.53	23758.78
527.70	23613.66
527.87	23648.77
528.04	23613.66
528.21	23957.72
528.38	23789.20
528.55	23845.38
528.72	23967.09
528.89	24280.72
529.07	24011.56
529.24	23812.61
529.41	24219.86
529.58	23931.98
529.75	24163.69
529.92	24088.79
530.09	24203.48
530.26	24409.45
530.43	24254.97
530.60	24276.04
530.77	24465.62
530.94	24484.34
531.11	24460.94
531.28	24411.79
531.46	24397.74
531.63	24767.55
531.80	24556.90
531.97	24699.67
532.14	24964.15
532.31	24950.11
532.48	24844.79
532.65	24905.64
532.82	24709.04
532.99	25350.34
533.16	24648.18
533.33	25067.14
533.50	25008.62
533.67	25132.67
533.84	24961.81
534.01	24802.66
534.18	24779.25
534.35	25481.41
534.52	25078.84
534.69	25329.28
534.86	25383.11
535.03	25043.73
535.20	25844.20
535.37	25308.21
535.54	25635.89
535.71	25401.83
535.88	25443.96
536.05	25186.50
536.22	25694.40
536.38	25685.04
536.55	25696.74
536.72	25724.83
536.89	25434.60
537.06	25598.44
537.23	26139.10
537.40	25757.60
537.57	25797.38
537.74	25933.14
537.91	26012.71
538.08	25991.65
538.25	25944.84
538.42	25935.48
538.59	26478.48
538.75	25731.85
538.92	25872.28
539.09	26164.85
539.26	26211.66
539.43	26363.79
539.60	26419.97
539.77	26281.88
539.94	26555.72
540.11	26380.18
540.28	26490.18
540.44	26541.68
540.61	25921.43
540.78	26178.89
540.95	26398.90
541.12	26855.31
541.29	26803.82
541.46	26394.22
541.62	26630.62
541.79	26579.12
541.96	26253.79
542.13	26745.30
542.30	26647.00
542.47	26939.57
542.63	27140.85
542.80	27054.25
542.97	27150.21
543.14	26993.40
543.31	27377.25
543.48	27161.92
543.64	27454.48
543.81	27091.70
543.98	27632.36
544.15	27030.85
544.32	27639.39
544.48	27468.53
544.65	27204.05
544.82	27459.16
544.99	26993.40
545.16	27527.04
545.32	27461.51
545.49	27311.71
545.66	27688.54
545.83	27395.97
546.00	27552.79
546.16	27702.58
546.33	27466.19
546.50	27255.54
546.67	27438.10
546.83	27550.45
547.00	27864.08
547.17	27983.44
547.34	27653.43
547.50	27850.03
547.67	27955.36
547.84	27922.59
548.00	27835.99
548.17	28105.15
548.34	27887.48
548.51	28264.31
548.67	27854.72
548.84	27920.25
549.01	28285.37
549.18	27950.68
549.34	28348.57
549.51	27946.00
549.68	28231.54
549.84	28128.56
550.01	28063.02
550.18	27885.14
550.34	28285.37
550.51	28542.83
550.68	28428.15
550.84	28109.83
551.01	28439.85
551.18	28060.68
551.34	27824.29
551.51	28238.56
551.68	28608.37
551.84	28386.02
552.01	28711.35
552.18	28526.45
552.34	28285.37
552.51	28442.19
552.68	28589.64
552.84	28690.29
553.01	28847.10
553.18	28418.78
553.34	28797.95
553.51	28596.67
553.67	28985.19
553.84	28889.23
554.01	28840.08
554.17	28980.51
554.34	28678.58
554.51	28505.38
554.67	28830.72
554.84	28833.06
555.00	28854.12
555.17	29085.84
555.33	29010.94
555.50	28917.32
555.67	28830.72
555.83	28954.77
556.00	28898.59
556.16	29125.63
556.33	28863.49
556.50	28989.88
556.66	29331.59
556.83	29221.59
556.99	29509.47
557.16	29394.79
557.32	29315.21
557.49	29469.69
557.65	29139.67
557.82	28917.32
557.98	29104.56
558.15	29090.52
558.32	29626.50
558.48	29577.35
558.65	29261.38
558.81	29237.97
558.98	29673.31
559.14	29364.36
559.31	29268.40
559.47	29280.10
559.64	29237.97
559.80	29743.53
559.97	29357.34
560.13	29799.70
560.30	29811.40
560.46	29544.58
560.63	29589.05
560.79	29773.95
560.96	29584.37
561.12	29640.54
561.29	29647.57
561.45	29692.04
561.61	30005.67
561.78	29584.37
561.94	29635.86
562.11	30017.37
562.27	29853.53
562.44	29804.38
562.60	29715.44
562.77	29886.30
562.93	30015.03
563.10	29921.41
563.26	29605.44
563.42	30424.62
563.59	30136.74
563.75	30078.22
563.92	30160.14
564.08	29670.97
564.24	29706.08
564.41	29729.48
564.57	29673.31
564.74	29905.02
564.90	30103.97
565.07	30162.48
565.23	30293.55
565.39	30073.54
565.56	30106.31
565.72	30331.00
565.88	30473.78
566.05	30029.07
566.21	30270.15
566.38	30230.36
566.54	29949.50
566.70	30286.53
566.87	30555.69
567.03	30211.64
567.19	30417.60
567.36	30522.93
567.52	30251.42
567.68	30419.94
567.85	29979.92
568.01	30237.38
568.17	30370.79
568.34	30078.22
568.50	30445.69
568.66	30354.41
568.83	30417.60
568.99	30342.70
569.15	30143.76
569.32	29813.74
569.48	30228.02
569.64	30518.25
569.81	30157.80
569.97	30258.45
570.13	30637.61
570.30	30412.92
570.46	30487.82
570.62	30375.47
570.78	30298.23
570.95	30122.69
571.11	30202.27
571.27	30363.77
571.43	30359.09
571.60	30590.80
571.76	30543.99
571.92	30597.82
572.09	30302.92
572.25	30340.36
572.41	30572.08
572.57	30689.10
572.74	30621.23
572.90	30485.48
573.06	30541.65
573.22	30693.79
573.38	30888.05
573.55	30656.34
573.71	30714.85
573.87	31187.64
574.03	30628.25
574.20	30590.80
574.36	30518.25
574.52	30677.40
574.68	30497.18
574.84	30532.29
575.01	30761.66
575.17	30417.60
575.33	30712.51
575.49	30586.12
575.65	30899.75
575.82	30623.57
575.98	30675.06
576.14	30778.04
576.30	31002.74
576.46	30639.95
576.62	30728.89
576.79	30951.24
576.95	30604.84
577.11	30646.97
577.27	30958.27
577.43	30845.92
577.59	30663.36
577.75	30932.52
577.92	30831.88
578.08	30043.12
578.24	30389.52
578.40	30651.66
578.56	30604.84
578.72	30848.26
578.88	30874.01
579.04	30930.18
579.21	30881.03
579.37	30993.37
579.53	30822.51
579.69	30551.01
579.85	30740.60
580.01	30801.45
580.17	30478.46
580.33	30618.89
580.49	31061.25
580.65	30658.68
580.82	30698.47
580.98	30850.60
581.14	30817.83
581.30	31075.29
581.46	30712.51
581.62	30984.01
581.78	30834.22
581.94	31026.14
582.10	30431.65
582.26	30864.64
582.42	31040.18
582.58	30543.99
582.74	31082.31
582.90	30972.31
583.06	31096.36
583.22	30955.93
583.38	30953.58
583.54	31087.00
583.70	30558.03
583.86	30948.90
584.02	30675.06
584.18	31049.55
584.34	30731.23
584.50	31417.01
584.66	31035.50
584.82	30644.63
584.98	30803.79
585.14	31110.40
585.30	30946.56
585.46	30885.71
585.62	30789.75
585.78	30705.49
585.94	30965.29
586.10	31246.15
586.26	31112.74
586.42	31594.89
586.58	31058.91
586.74	30682.08
586.90	30904.43
587.06	30551.01
587.22	30864.64
587.38	30745.28
587.54	31012.10
587.70	31470.84
587.86	31316.37
588.02	31063.59
588.18	31321.05
588.34	31096.36
588.49	30972.31
588.65	30623.57
588.81	31075.29
588.97	31070.61
589.13	31150.19
589.29	30782.73
589.45	31321.05
589.61	31248.49
589.77	31381.90
589.93	31452.12
590.08	31386.58
590.24	31117.42
590.40	31271.90
590.56	31587.87
590.72	31206.36
590.88	30752.30
591.04	31019.12
591.20	31606.59
591.35	31484.89
591.51	31707.24
591.67	31435.74
591.83	31578.51
