SpectraSuite Data File
++++++++++++++++++++++++++++++++++++
Date: Fri Oct 18 13:58:08 GMT-05:00 2013
User: bianchi
Dark Spectrum Present: No
Reference Spectrum Present: No
Number of Sampled Component Spectra: 1
Spectrometers: USB2+H05261
Integration Time (usec): 50000 (USB2+H05261)
Spectra Averaged: 1 (USB2+H05261)
Boxcar Smoothing: 0 (USB2+H05261)
Correct for Electrical Dark: No (USB2+H05261)
Strobe/Lamp Enabled: No (USB2+H05261)
Correct for Detector Non-linearity: No (USB2+H05261)
Correct for Stray Light: No (USB2+H05261)
Number of Pixels in Processed Spectrum: 2048
>>>>>Begin Processed Spectral Data<<<<<
365.73	0.00
365.92	0.00
366.12	0.00
366.32	0.00
366.52	0.00
366.72	0.00
366.91	0.00
367.11	0.00
367.31	0.00
367.51	0.00
367.70	0.00
367.90	0.00
368.10	0.00
368.30	0.00
368.49	0.00
368.69	0.00
368.89	0.00
369.09	0.00
369.28	0.00
369.48	0.00
369.68	0.00
369.87	0.00
370.07	0.00
370.27	0.00
370.47	0.00
370.66	56.17
370.86	138.09
371.06	198.95
371.25	93.62
371.45	147.45
371.65	166.18
371.84	128.73
372.04	217.67
372.24	180.22
372.44	229.37
372.63	159.16
372.83	191.92
373.03	210.65
373.22	170.86
373.42	182.56
373.62	220.01
373.81	234.05
374.01	266.82
374.21	273.84
374.40	292.57
374.60	266.82
374.79	236.39
374.99	257.46
375.19	187.24
375.38	215.33
375.58	259.80
375.78	215.33
375.97	250.44
376.17	196.60
376.37	245.76
376.56	334.70
376.76	231.71
376.95	217.67
377.15	280.86
377.35	266.82
377.54	257.46
377.74	236.39
377.93	245.76
378.13	285.55
378.33	236.39
378.52	280.86
378.72	271.50
378.91	313.63
379.11	227.03
379.31	276.18
379.50	259.80
379.70	353.42
379.89	257.46
380.09	334.70
380.28	344.06
380.48	372.15
380.68	215.33
380.87	330.02
381.07	358.10
381.26	283.20
381.46	311.29
381.65	351.08
381.85	362.78
382.04	308.95
382.24	290.23
382.43	332.36
382.63	402.57
382.83	330.02
383.02	322.99
383.22	348.74
383.41	330.02
383.61	447.04
383.80	386.19
384.00	327.68
384.19	353.42
384.39	369.80
384.58	362.78
384.78	386.19
384.97	355.76
385.17	428.32
385.36	409.59
385.56	351.08
385.75	374.49
385.95	390.87
386.14	369.80
386.34	388.53
386.53	425.98
386.72	351.08
386.92	514.92
387.11	442.36
387.31	430.66
387.50	421.30
387.70	383.85
387.89	519.60
388.09	435.34
388.28	414.27
388.48	423.64
388.67	444.70
388.86	484.49
389.06	477.47
389.25	510.24
389.45	531.30
389.64	461.09
389.84	477.47
390.03	587.47
390.22	521.94
390.42	470.45
390.61	517.26
390.81	505.56
391.00	514.92
391.19	566.41
391.39	589.82
391.58	566.41
391.78	477.47
391.97	524.28
392.16	589.82
392.36	545.34
392.55	580.45
392.75	512.58
392.94	550.03
393.13	603.86
393.33	507.90
393.52	538.32
393.71	571.09
393.91	540.66
394.10	538.32
394.29	636.63
394.49	671.73
394.68	692.80
394.88	566.41
395.07	603.86
395.26	660.03
395.46	578.11
395.65	653.01
395.84	634.29
396.04	615.56
396.23	585.13
396.42	620.24
396.62	713.86
396.81	662.37
397.00	653.01
397.19	559.39
397.39	739.61
397.58	730.25
397.77	685.78
397.97	678.76
398.16	697.48
398.35	706.84
398.55	697.48
398.74	711.52
398.93	709.18
399.12	723.23
399.32	681.10
399.51	709.18
399.70	732.59
399.90	723.23
400.09	746.63
400.28	781.74
400.47	774.72
400.67	823.87
400.86	880.04
401.05	770.04
401.24	851.96
401.44	828.55
401.63	959.62
401.82	837.91
402.01	826.21
402.21	910.47
402.40	847.27
402.59	786.42
402.78	854.30
402.97	851.96
403.17	870.68
403.36	833.23
403.55	1020.47
403.74	898.77
403.93	882.38
404.13	957.28
404.32	798.12
404.51	917.49
404.70	940.90
404.89	835.57
405.09	997.07
405.28	952.60
405.47	882.38
405.66	947.92
405.85	983.02
406.05	947.92
406.24	1006.43
406.43	973.66
406.62	1060.26
406.81	1102.39
407.00	1032.18
407.20	990.05
407.39	1104.73
407.58	1001.75
407.77	1050.90
407.96	1078.99
408.15	1029.84
408.34	1074.31
408.54	1071.97
408.73	1062.60
408.92	1083.67
409.11	1086.01
409.30	1135.16
409.49	1146.86
409.68	1100.05
409.87	1128.14
410.07	1191.33
410.26	1228.78
410.45	1221.76
410.64	1205.38
410.83	1291.98
411.02	1249.85
411.21	1336.45
411.40	1165.59
411.59	1371.55
411.78	1355.17
411.98	1306.02
412.17	1294.32
412.36	1392.62
412.55	1472.20
412.74	1425.39
412.93	1329.42
413.12	1336.45
413.31	1460.49
413.50	1362.19
413.69	1387.94
413.88	1423.05
414.07	1451.13
414.26	1533.05
414.45	1446.45
414.64	1479.22
414.83	1472.20
415.02	1624.33
415.22	1542.41
415.41	1584.54
415.60	1483.90
415.79	1554.12
415.98	1586.88
416.17	1593.90
416.36	1619.65
416.55	1673.48
416.74	1685.19
416.93	1584.54
417.12	1710.93
417.31	1668.80
417.50	1743.70
417.69	1795.19
417.88	1689.87
418.07	1764.76
418.26	1696.89
418.45	1696.89
418.64	1729.66
418.83	1905.20
419.02	1818.60
419.21	1799.87
419.39	1827.96
419.58	1813.92
419.77	1785.83
419.96	1884.13
420.15	1982.43
420.34	1872.43
420.53	1816.26
420.72	1886.47
420.91	1905.20
421.10	1930.94
421.29	1947.33
421.48	1872.43
421.67	2040.95
421.86	2008.18
422.05	1975.41
422.24	2033.93
422.43	2015.20
422.61	2083.08
422.80	2050.31
422.99	2024.56
423.18	1989.46
423.37	2015.20
423.56	1975.41
423.75	2097.12
423.94	2120.53
424.13	1893.49
424.32	2040.95
424.50	1996.48
424.69	2085.42
424.88	2209.47
425.07	2080.74
425.26	2150.95
425.45	2113.50
425.64	2033.93
425.83	2064.35
426.01	1977.75
426.20	1994.14
426.39	2085.42
426.58	2092.44
426.77	2108.82
426.96	2120.53
427.15	2036.27
427.33	2099.46
427.52	2005.84
427.71	2160.31
427.90	2157.97
428.09	2284.36
428.28	2200.10
428.46	2115.84
428.65	2303.09
428.84	2157.97
429.03	2251.60
429.22	2284.36
429.40	2181.38
429.59	2249.25
429.78	2113.50
429.97	2204.78
430.16	2230.53
430.34	2368.62
430.53	2326.49
430.72	2471.61
430.91	2424.80
431.10	2319.47
431.28	2370.96
431.47	2352.24
431.66	2527.78
431.85	2480.97
432.03	2340.54
432.22	2450.54
432.41	2466.92
432.60	2338.20
432.79	2490.33
432.97	2413.09
433.16	2548.84
433.35	2527.78
433.54	2504.37
433.72	2492.67
433.91	2518.42
434.10	2609.70
434.28	2480.97
434.47	2511.39
434.66	2605.02
434.85	2558.21
435.03	2637.78
435.22	2576.93
435.41	2848.43
435.59	2621.40
435.78	2712.68
435.97	2647.15
436.16	2640.12
436.34	2665.87
436.53	2698.64
436.72	2780.56
436.90	2640.12
437.09	2806.30
437.28	2607.36
437.46	2794.60
437.65	2752.47
437.84	2841.41
438.02	2761.83
438.21	2787.58
438.40	2864.82
438.58	2918.65
438.77	3009.93
438.96	2825.03
439.14	3005.25
439.33	2864.82
439.52	2981.84
439.70	2883.54
439.89	3016.95
440.08	3068.44
440.26	2979.50
440.45	3066.10
440.63	3166.74
440.82	3166.74
441.01	3133.98
441.19	3375.05
441.38	3262.71
441.57	3229.94
441.75	3248.66
441.94	3328.24
442.12	3300.16
442.31	3325.90
442.50	3356.33
442.68	3316.54
442.87	3353.99
443.05	3370.37
443.24	3445.27
443.43	3337.60
443.61	3478.04
443.80	3494.42
443.98	3351.65
444.17	3141.00
444.35	3499.10
444.54	3522.51
444.73	3482.72
444.91	3545.91
445.10	3452.29
445.28	3349.31
445.47	3478.04
445.65	3503.78
445.84	3552.93
446.02	3534.21
446.21	3548.25
446.39	3461.65
446.58	3419.52
446.77	3548.25
446.95	3400.80
447.14	3522.51
447.32	3485.06
447.51	3599.74
447.69	3506.12
447.88	3609.11
448.06	3524.85
448.25	3501.44
448.43	3599.74
448.62	3531.87
448.80	3604.42
448.99	3721.45
449.17	3625.49
449.36	3630.17
449.54	3646.55
449.73	3637.19
449.91	3808.05
450.10	3866.56
450.28	3861.88
450.46	3786.99
450.65	3623.15
450.83	3889.97
451.02	3875.93
451.20	3861.88
451.39	3878.27
451.57	3826.78
451.76	3679.32
451.94	3960.19
452.13	3847.84
452.31	3934.44
452.49	3871.25
452.68	4011.68
452.86	3934.44
453.05	3899.33
453.23	3934.44
453.42	3904.01
453.60	3843.16
453.78	3971.89
453.97	3990.61
454.15	3978.91
454.34	4007.00
454.52	4102.96
454.70	4039.76
454.89	4121.68
455.07	4070.19
455.26	4002.32
455.44	4128.70
455.62	4234.03
455.81	4189.56
455.99	4128.70
456.17	4184.88
456.36	4135.73
456.54	4229.35
456.73	4290.20
456.91	4341.69
457.09	4409.57
457.28	4418.93
457.46	4395.53
457.64	4491.49
457.83	4498.51
458.01	4285.52
458.19	4411.91
458.38	4397.87
458.56	4400.21
458.74	4461.06
458.93	4477.44
459.11	4447.02
459.29	4505.53
459.48	4449.36
459.66	4477.44
459.84	4505.53
460.03	4519.57
460.21	4624.90
460.39	4601.49
460.57	4800.44
460.76	4739.58
460.94	4730.22
461.12	4606.17
461.31	4732.56
461.49	4624.90
461.67	4660.01
461.85	4816.82
462.04	4744.27
462.22	5128.11
462.40	4730.22
462.59	4863.63
462.77	4674.05
462.95	4823.84
463.13	4861.29
463.32	4894.06
463.50	4882.36
463.68	4896.40
463.86	4854.27
464.05	4758.31
464.23	4901.08
464.41	5011.09
464.59	4905.76
464.78	5074.28
464.96	5048.54
465.14	4847.25
465.32	5123.43
465.50	5165.56
465.69	5116.41
465.87	5093.01
466.05	5069.60
466.23	5055.56
466.41	5188.97
466.60	5219.39
466.78	5067.26
466.96	5046.20
467.14	5111.73
467.32	5167.90
467.51	5359.83
467.69	5097.69
467.87	5177.26
468.05	5315.36
468.23	5158.54
468.41	5088.32
468.60	5308.34
468.78	5228.76
468.96	5118.75
469.14	5486.22
469.32	5341.10
469.50	5268.55
469.69	5406.64
469.87	5596.22
470.05	5619.63
470.23	5591.54
470.41	5408.98
470.59	5727.29
470.77	5572.82
470.95	5722.61
471.14	5720.27
471.32	5423.02
471.50	5802.19
471.68	5664.10
471.86	5708.57
472.04	5612.60
472.22	5820.91
472.40	5717.93
472.58	5823.25
472.77	5783.46
472.95	6036.24
473.13	6071.35
473.31	5926.24
473.49	6183.70
473.67	5921.56
473.85	6083.05
474.03	6019.86
474.21	5940.28
474.39	6024.54
474.57	6008.16
474.75	6293.70
474.93	6207.10
475.12	6106.46
475.30	6310.08
475.48	6457.54
475.66	6354.55
475.84	6202.42
476.02	6483.28
476.20	6377.96
476.38	6487.96
476.56	6527.75
476.74	6656.48
476.92	6647.12
477.10	6628.40
477.28	6691.59
477.46	6752.45
477.64	6867.13
477.82	6806.28
478.00	6981.82
478.18	6939.69
478.36	7000.54
478.54	7066.08
478.72	7206.51
478.90	7183.10
479.08	7295.45
479.26	7276.73
479.44	7412.48
479.62	7412.48
479.80	7573.97
479.98	7573.97
480.16	7538.87
480.34	7705.04
480.52	7728.45
480.70	7702.70
480.88	7627.81
481.06	7676.96
481.24	7744.83
481.41	7908.67
481.59	8107.62
481.77	8262.09
481.95	8161.45
482.13	8102.93
482.31	8297.20
482.49	8407.20
482.67	8238.69
482.85	8475.08
483.03	8751.26
483.21	8826.16
483.39	8725.52
483.57	8716.16
483.74	8795.73
483.92	8975.95
484.10	8872.97
484.28	9055.53
484.46	9198.31
484.64	9514.28
484.82	9116.39
485.00	9224.05
485.18	9439.38
485.35	9493.21
485.53	9441.72
485.71	9451.08
485.89	9748.33
486.07	9668.75
486.25	9682.80
486.43	9809.19
486.61	9977.70
486.78	9947.28
486.96	10211.76
487.14	10289.00
487.32	10235.16
487.50	10363.89
487.68	10494.96
487.85	10560.50
488.03	10436.45
488.21	10651.78
488.39	10775.83
488.57	10895.19
488.75	10932.64
488.92	11133.93
489.10	11037.97
489.28	11178.40
489.46	11552.88
489.64	11056.69
489.81	11398.41
489.99	11499.05
490.17	11480.33
490.35	11800.98
490.53	11737.79
490.70	11777.58
490.88	11714.38
491.06	12060.78
491.24	11875.88
491.41	12030.35
491.59	12241.00
491.77	11988.22
491.95	12538.25
492.13	12088.87
492.30	12351.01
492.48	12320.58
492.66	12566.34
492.84	12645.91
493.01	12744.22
493.19	12617.83
493.37	12856.56
493.54	13090.62
493.72	12959.55
493.90	13184.24
494.08	13078.91
494.25	13380.84
494.43	13532.98
494.61	13259.13
494.79	13547.02
494.96	13432.33
495.14	13554.04
495.32	13547.02
495.49	13813.84
495.67	13785.76
495.85	14310.04
496.02	14001.08
496.20	14001.08
496.38	14204.71
496.55	14068.96
496.73	14387.27
496.91	14682.18
497.09	14406.00
497.26	14867.08
497.44	14544.09
497.62	14782.82
497.79	14906.87
497.97	14834.32
498.14	15033.26
498.32	14984.11
498.50	14965.39
498.67	15199.44
498.85	15447.54
499.03	15234.55
499.20	15239.23
499.38	15297.74
499.56	15335.19
499.73	15569.24
499.91	15332.85
500.08	15873.51
500.26	15494.35
500.44	15850.11
500.61	15609.03
500.79	15910.96
500.97	16086.50
501.14	16079.48
501.32	16006.92
501.49	16154.38
501.67	16215.23
501.84	16056.08
502.02	16175.44
502.20	16348.64
502.37	16374.39
502.55	16365.03
502.72	16496.10
502.90	16395.45
503.07	16285.45
503.25	16657.59
503.43	16517.16
503.60	16936.12
503.78	16994.63
503.95	16819.09
504.13	16798.02
504.30	16957.18
504.48	16952.50
504.65	16982.93
504.83	17247.41
505.01	17315.28
505.18	17294.22
505.36	17312.94
505.53	17083.57
505.71	17310.60
505.88	17469.76
506.06	17535.29
506.23	17465.08
506.41	17563.38
506.58	17638.28
506.76	17806.80
506.93	17888.71
507.11	17851.27
507.28	17680.41
507.46	17804.46
507.63	18078.30
507.81	18005.74
507.98	17928.50
508.16	18064.25
508.33	18380.23
508.50	18445.76
508.68	18359.16
508.85	18310.01
509.03	18387.25
509.20	18586.19
509.38	18916.21
509.55	18728.97
509.73	18394.27
509.90	18735.99
510.08	18644.71
510.25	18523.00
510.42	18881.10
510.60	19140.90
510.77	18785.14
510.95	19035.58
511.12	19023.87
511.30	18810.89
511.47	19190.05
511.64	19157.28
511.82	19414.74
511.99	19653.48
512.17	19297.72
512.34	19431.13
512.51	19480.28
512.69	19424.11
512.86	19590.28
513.04	19800.93
513.21	19871.15
513.38	20002.22
513.56	19789.23
513.73	19913.28
513.90	19964.77
514.08	19627.73
514.25	20063.07
514.43	20046.69
514.60	19873.49
514.77	20212.87
514.95	20189.46
515.12	20093.50
515.29	20049.03
515.47	20156.69
515.64	20430.54
515.81	20456.28
515.99	20688.00
516.16	20835.45
516.33	20713.74
516.51	20666.93
516.68	20512.46
516.85	20559.27
517.03	20697.36
517.20	20601.40
517.37	21132.70
517.54	20891.62
517.72	20954.82
517.89	20872.90
518.06	20865.88
518.24	20915.03
518.41	21226.32
518.58	20823.75
518.75	21128.02
518.93	21305.90
519.10	21333.98
519.27	21687.40
519.45	21411.22
519.62	21231.00
519.79	21539.95
519.96	21514.20
520.14	21638.25
520.31	21528.25
520.48	21764.64
520.65	21507.18
520.83	21607.83
521.00	21895.71
521.17	21799.75
521.34	21752.94
521.52	21930.82
521.69	21956.57
521.86	22195.30
522.03	22192.96
522.20	22412.97
522.38	21972.95
522.55	22609.58
522.72	22494.89
522.89	22274.88
523.07	22340.41
523.24	22574.47
523.41	22630.64
523.58	22328.71
523.75	22714.90
523.92	22686.81
524.10	22319.35
524.27	22541.70
524.44	22445.74
524.61	22581.49
524.78	23012.15
524.96	22876.40
525.13	22939.59
525.30	22618.94
525.47	22988.74
525.64	23190.03
525.81	23171.30
525.98	23021.51
526.16	23346.84
526.33	22988.74
526.50	23491.96
526.67	23145.56
526.84	23566.85
527.01	22927.89
527.18	23501.32
527.36	23260.24
527.53	23669.84
527.70	23733.03
527.87	23353.87
528.04	23550.47
528.21	23459.19
528.38	23646.43
528.55	23899.21
528.72	23538.77
528.89	23697.92
529.07	23482.59
529.24	23484.94
529.41	23620.69
529.58	23999.85
529.75	24051.34
529.92	23800.91
530.09	23824.31
530.26	24004.53
530.43	24233.91
530.60	24208.16
530.77	24360.30
530.94	24278.38
531.11	24229.23
531.28	24023.26
531.46	24229.23
531.63	24308.80
531.80	24215.18
531.97	24175.39
532.14	24474.98
532.31	24601.37
532.48	24360.30
532.65	24638.82
532.82	24350.93
532.99	24730.10
533.16	24776.91
533.33	24741.80
533.50	24699.67
533.67	25326.94
533.84	24425.83
534.01	24802.66
534.18	24779.25
534.35	24966.49
534.52	24903.30
534.69	25221.61
534.86	25411.20
535.03	24964.15
535.20	25160.76
535.37	25006.28
535.54	25474.39
535.71	25022.67
535.88	24863.51
536.05	25263.74
536.22	25570.35
536.38	25507.16
536.55	25106.93
536.72	25495.46
536.89	25111.61
537.06	25413.54
537.23	25500.14
537.40	25539.93
537.57	25177.14
537.74	25235.66
537.91	25586.74
538.08	25773.98
538.25	25310.55
538.42	25614.82
538.59	25933.14
538.75	25837.17
538.92	25949.52
539.09	25851.22
539.26	25656.95
539.43	25914.41
539.60	26092.29
539.77	25919.09
539.94	26176.55
540.11	25764.62
540.28	25797.38
540.44	25736.53
540.61	25947.18
540.78	25998.67
540.95	26024.42
541.12	26115.70
541.29	26122.72
541.46	26338.05
541.62	26160.17
541.79	26223.36
541.96	25830.15
542.13	26270.17
542.30	26281.88
542.47	26581.46
542.63	26387.20
542.80	26850.63
542.97	26974.67
543.14	26735.94
543.31	26579.12
543.48	26705.51
543.64	27477.89
543.81	26995.74
543.98	27220.43
544.15	26937.23
544.32	26848.29
544.48	27187.66
544.65	27070.64
544.82	27353.84
544.99	26618.91
545.16	26827.22
545.32	26780.41
545.49	27033.19
545.66	27632.36
545.83	27138.51
546.00	27843.01
546.16	27227.45
546.33	26761.69
546.50	27307.03
546.67	27351.50
546.83	27133.83
547.00	27154.90
547.17	27438.10
547.34	27641.73
547.50	27262.56
547.67	27267.24
547.84	27426.40
548.00	27505.98
548.17	27398.31
548.34	27960.04
548.51	27541.08
548.67	27796.20
548.84	27854.72
549.01	27903.87
549.18	27328.10
549.34	27470.87
549.51	27789.18
549.68	27784.50
549.84	27559.81
550.01	27775.14
550.18	27740.03
550.34	27641.73
550.51	28393.04
550.68	27957.70
550.84	27903.87
551.01	27929.61
551.18	27960.04
551.34	27889.82
551.51	28119.20
551.68	28060.68
551.84	28149.62
552.01	28311.12
552.18	28079.41
552.34	28252.61
552.51	28458.57
552.68	28091.11
552.84	28067.70
553.01	28432.83
553.18	28093.45
553.34	28158.99
553.51	28423.47
553.67	28636.45
553.84	28584.96
554.01	28540.49
554.17	28531.13
554.34	28687.95
554.51	28678.58
554.67	28467.94
554.84	28694.97
555.00	28486.66
555.17	28774.55
555.33	28367.29
555.50	28638.80
555.67	28594.32
555.83	28606.03
556.00	28423.47
556.16	28650.50
556.33	28479.64
556.50	28397.72
556.66	28748.80
556.83	28350.91
556.99	29095.20
557.16	29233.29
557.32	28996.90
557.49	28964.13
557.65	28732.42
557.82	28769.86
557.98	28758.16
558.15	29120.95
558.32	28718.37
558.48	29116.26
558.65	28945.41
558.81	29469.69
558.98	29223.93
559.14	29071.79
559.31	29127.97
559.47	29465.00
559.64	29137.33
559.80	29200.52
559.97	29144.35
560.13	29123.29
560.30	29371.38
560.46	29345.64
560.63	29378.40
560.79	29603.10
560.96	29303.51
561.12	29252.02
561.29	29303.51
561.45	29209.89
561.61	29525.86
561.78	29563.31
561.94	29338.62
562.11	29369.04
562.27	29324.57
562.44	29593.73
562.60	29521.18
562.77	29432.24
562.93	29380.74
563.10	29834.81
563.26	29661.61
563.42	29876.94
563.59	29677.99
563.75	29617.14
563.92	29930.77
564.08	29603.10
564.24	29425.22
564.41	29249.67
564.57	29530.54
564.74	29317.55
564.90	29867.58
565.07	29687.36
565.23	29502.45
565.39	29593.73
565.56	29837.15
565.72	29549.26
565.88	29696.72
566.05	29556.28
566.21	29963.54
566.38	29692.04
566.54	30068.86
566.70	30043.12
566.87	30291.21
567.03	29757.57
567.19	30036.09
567.36	29869.92
567.52	29872.26
567.68	29832.47
567.85	29439.26
568.01	29404.15
568.17	29745.87
568.34	30146.10
568.50	30000.99
568.66	30213.98
568.83	30209.29
568.99	29837.15
569.15	29865.24
569.32	29986.94
569.48	29858.21
569.64	29977.58
569.81	29788.00
569.97	29724.80
570.13	30155.46
570.30	29916.73
570.46	30263.13
570.62	29876.94
570.78	30031.41
570.95	30108.65
571.11	29996.31
571.27	30106.31
571.43	29813.74
571.60	29724.80
571.76	29933.11
571.92	30223.34
572.09	30335.68
572.25	30031.41
572.41	30190.57
572.57	30345.05
572.74	30312.28
572.90	29898.00
573.06	30115.67
573.22	30143.76
573.38	30059.50
573.55	30129.72
573.71	30572.08
573.87	30469.09
574.03	30265.47
574.20	30148.44
574.36	30038.44
574.52	30075.88
574.68	30047.80
574.84	30478.46
575.01	30450.37
575.17	30221.00
575.33	30120.35
575.49	30017.37
575.65	30539.31
575.82	30441.01
575.98	30209.29
576.14	30588.46
576.30	30237.38
576.46	30256.11
576.62	30345.05
576.79	30359.09
576.95	30099.29
577.11	30539.31
577.27	29876.94
577.43	30536.97
577.59	30258.45
577.75	30129.72
577.92	30529.95
578.08	30141.42
578.24	30038.44
578.40	30305.26
578.56	30469.09
578.72	30204.61
578.88	30623.57
579.04	30939.54
579.21	30052.48
579.37	30373.13
579.53	30658.68
579.69	30380.15
579.85	30206.95
580.01	30239.72
580.17	30099.29
580.33	30363.77
580.49	30319.30
580.65	30422.28
580.82	30359.09
580.98	30277.17
581.14	30473.78
581.30	30410.58
581.46	30356.75
581.62	30820.17
581.78	30249.08
581.94	30745.28
582.10	30263.13
582.26	30419.94
582.42	30274.83
582.58	30703.15
582.74	30230.36
582.90	30661.02
583.06	30728.89
583.22	30382.49
583.38	30359.09
583.54	30656.34
583.70	30684.42
583.86	30611.87
584.02	30197.59
584.18	30555.69
584.34	30726.55
584.50	30352.07
584.66	30635.27
584.82	30298.23
584.98	30764.00
585.14	30616.55
585.30	30562.72
585.46	30441.01
585.62	30597.82
585.78	30728.89
585.94	30345.05
586.10	30539.31
586.26	30436.33
586.42	30752.30
586.58	30789.75
586.74	30237.38
586.90	30572.08
587.06	30450.37
587.22	30279.51
587.38	30518.25
587.54	30815.49
587.70	30888.05
587.86	30918.48
588.02	30836.56
588.18	30953.58
588.34	30480.80
588.49	31152.53
588.65	30335.68
588.81	30363.77
588.97	30810.81
589.13	30677.40
589.29	30174.19
589.45	30621.23
589.61	31007.42
589.77	30948.90
589.93	31033.16
590.08	30909.11
590.24	31119.76
590.40	30916.14
590.56	30773.36
590.72	30733.57
590.88	30611.87
591.04	30834.22
591.20	30979.33
591.35	31161.89
591.51	31344.45
591.67	30904.43
591.83	30883.37
591.99	30993.37
