SpectraSuite Data File
++++++++++++++++++++++++++++++++++++
Date: Fri Oct 18 13:57:58 GMT-05:00 2013
User: bianchi
Dark Spectrum Present: No
Reference Spectrum Present: No
Number of Sampled Component Spectra: 1
Spectrometers: USB2+H05261
Integration Time (usec): 50000 (USB2+H05261)
Spectra Averaged: 1 (USB2+H05261)
Boxcar Smoothing: 0 (USB2+H05261)
Correct for Electrical Dark: No (USB2+H05261)
Strobe/Lamp Enabled: No (USB2+H05261)
Correct for Detector Non-linearity: No (USB2+H05261)
Correct for Stray Light: No (USB2+H05261)
Number of Pixels in Processed Spectrum: 2048
>>>>>Begin Processed Spectral Data<<<<<
365.73	0.00
365.92	0.00
366.12	0.00
366.32	0.00
366.52	0.00
366.72	0.00
366.91	0.00
367.11	0.00
367.31	0.00
367.51	0.00
367.70	0.00
367.90	0.00
368.10	0.00
368.30	0.00
368.49	0.00
368.69	0.00
368.89	0.00
369.09	0.00
369.28	0.00
369.48	0.00
369.68	0.00
369.87	0.00
370.07	0.00
370.27	0.00
370.47	0.00
370.66	163.84
370.86	201.29
371.06	110.01
371.25	149.79
371.45	182.56
371.65	131.07
371.84	170.86
372.04	152.13
372.24	194.26
372.44	163.84
372.63	170.86
372.83	287.89
373.03	234.05
373.22	177.88
373.42	243.42
373.62	250.44
373.81	170.86
374.01	196.60
374.21	250.44
374.40	173.20
374.60	210.65
374.79	304.27
374.99	264.48
375.19	266.82
375.38	175.54
375.58	250.44
375.78	238.73
375.97	229.37
376.17	266.82
376.37	327.68
376.56	215.33
376.76	227.03
376.95	273.84
377.15	374.49
377.35	269.16
377.54	287.89
377.74	201.29
377.93	292.57
378.13	238.73
378.33	351.08
378.52	278.52
378.72	269.16
378.91	346.40
379.11	315.97
379.31	278.52
379.50	224.69
379.70	266.82
379.89	386.19
380.09	318.31
380.28	318.31
380.48	229.37
380.68	210.65
380.87	266.82
381.07	433.00
381.26	325.33
381.46	341.72
381.65	379.17
381.85	320.65
382.04	236.39
382.24	430.66
382.43	334.70
382.63	299.59
382.83	407.25
383.02	430.66
383.22	421.30
383.41	423.64
383.61	390.87
383.80	395.55
384.00	390.87
384.19	313.63
384.39	322.99
384.58	360.44
384.78	313.63
384.97	414.27
385.17	411.93
385.36	407.25
385.56	475.13
385.75	395.55
385.95	402.57
386.14	390.87
386.34	423.64
386.53	344.06
386.72	428.32
386.92	433.00
387.11	449.38
387.31	486.83
387.50	407.25
387.70	470.45
387.89	468.11
388.09	433.00
388.28	397.89
388.48	528.96
388.67	470.45
388.86	465.77
389.06	479.81
389.25	465.77
389.45	418.96
389.64	561.73
389.84	566.41
390.03	496.19
390.22	484.49
390.42	599.18
390.61	514.92
390.81	470.45
391.00	489.17
391.19	512.58
391.39	526.62
391.58	557.05
391.78	468.11
391.97	533.64
392.16	559.39
392.36	507.90
392.55	617.90
392.75	594.50
392.94	524.28
393.13	561.73
393.33	617.90
393.52	589.82
393.71	507.90
393.91	566.41
394.10	526.62
394.29	550.03
394.49	517.26
394.68	580.45
394.88	641.31
395.07	645.99
395.26	725.57
395.46	648.33
395.65	662.37
395.84	627.26
396.04	650.67
396.23	561.73
396.42	692.80
396.62	662.37
396.81	645.99
397.00	751.31
397.19	603.86
397.39	685.78
397.58	643.65
397.77	636.63
397.97	709.18
398.16	805.14
398.35	692.80
398.55	711.52
398.74	781.74
398.93	739.61
399.12	786.42
399.32	781.74
399.51	748.97
399.70	835.57
399.90	774.72
400.09	793.44
400.28	788.76
400.47	814.51
400.67	767.70
400.86	758.33
401.05	875.36
401.24	791.10
401.44	849.61
401.63	844.93
401.82	940.90
402.01	903.45
402.21	788.76
402.40	826.21
402.59	880.04
402.78	938.55
402.97	840.25
403.17	849.61
403.36	854.30
403.55	840.25
403.74	798.12
403.93	926.85
404.13	997.07
404.32	1018.13
404.51	1025.15
404.70	990.05
404.89	999.41
405.09	978.34
405.28	964.30
405.47	1001.75
405.66	1006.43
405.85	1004.09
406.05	952.60
406.24	997.07
406.43	1036.86
406.62	1032.18
406.81	1107.07
407.00	987.71
407.20	1027.50
407.39	976.00
407.58	1048.56
407.77	1036.86
407.96	1053.24
408.15	1055.58
408.34	1076.65
408.54	1130.48
408.73	1167.93
408.92	1128.14
409.11	1196.01
409.30	1151.54
409.49	1301.34
409.68	1186.65
409.87	1088.35
410.07	1179.63
410.26	1191.33
410.45	1191.33
410.64	1313.04
410.83	1144.52
411.02	1273.25
411.21	1303.68
411.40	1212.40
411.59	1380.92
411.78	1364.53
411.98	1275.59
412.17	1252.19
412.36	1324.74
412.55	1413.68
412.74	1320.06
412.93	1418.36
413.12	1409.00
413.31	1425.39
413.50	1348.15
413.69	1383.26
413.88	1439.43
414.07	1437.09
414.26	1507.30
414.45	1488.58
414.64	1411.34
414.83	1474.54
415.02	1612.63
415.22	1638.38
415.41	1638.38
415.60	1621.99
415.79	1692.21
415.98	1582.20
416.17	1495.60
416.36	1614.97
416.55	1659.44
416.74	1713.27
416.93	1696.89
417.12	1671.14
417.31	1687.53
417.50	1717.95
417.69	1792.85
417.88	1713.27
418.07	1792.85
418.26	1703.91
418.45	1860.73
418.64	1795.19
418.83	1865.41
419.02	1825.62
419.21	1825.62
419.39	1832.64
419.58	1881.79
419.77	1851.36
419.96	1912.22
420.15	1820.94
420.34	1879.45
420.53	1982.43
420.72	1966.05
420.91	1909.88
421.10	2017.54
421.29	2069.03
421.48	2022.22
421.67	1935.62
421.86	1959.03
422.05	1980.09
422.24	2106.48
422.43	2022.22
422.61	2120.53
422.80	2038.61
422.99	2066.69
423.18	1984.77
423.37	1975.41
423.56	2012.86
423.75	2003.50
423.94	1961.37
424.13	1902.86
424.32	1977.75
424.50	2181.38
424.69	2120.53
424.88	2136.91
425.07	1940.30
425.26	2080.74
425.45	2111.16
425.64	1961.37
425.83	2090.10
426.01	2162.66
426.20	2059.67
426.39	2129.89
426.58	2165.00
426.77	2190.74
426.96	2157.97
427.15	2172.02
427.33	2193.08
427.52	2069.03
427.71	2087.76
427.90	2141.59
428.09	2246.91
428.28	2244.57
428.46	2277.34
428.65	2230.53
428.84	2146.27
429.03	2333.51
429.22	2211.81
429.40	2312.45
429.59	2232.87
429.78	2202.44
429.97	2265.64
430.16	2328.83
430.34	2349.90
430.53	2562.89
430.72	2373.30
430.91	2370.96
431.10	2305.43
431.28	2443.52
431.47	2527.78
431.66	2539.48
431.85	2457.56
432.03	2581.61
432.22	2612.04
432.41	2509.05
432.60	2574.59
432.79	2455.22
432.97	2476.29
433.16	2612.04
433.35	2619.06
433.54	2558.21
433.72	2616.72
433.91	2565.23
434.10	2497.35
434.28	2682.25
434.47	2696.30
434.66	2588.63
434.85	2539.48
435.03	2729.06
435.22	2626.08
435.41	2754.81
435.59	2590.97
435.78	2672.89
435.97	2876.52
436.16	2787.58
436.34	2696.30
436.53	2764.17
436.72	2778.22
436.90	2810.98
437.09	2752.47
437.28	2785.24
437.46	2729.06
437.65	2904.60
437.84	2839.07
438.02	2787.58
438.21	2925.67
438.40	2857.79
438.58	2909.29
438.77	2899.92
438.96	2869.50
439.14	3066.10
439.33	2942.05
439.52	3035.67
439.70	3082.49
439.89	3157.38
440.08	3073.12
440.26	3126.96
440.45	3145.68
440.63	3232.28
440.82	3150.36
441.01	3094.19
441.19	3201.85
441.38	3239.30
441.57	3314.20
441.75	3328.24
441.94	3428.88
442.12	3295.47
442.31	3449.95
442.50	3506.12
442.68	3503.78
442.87	3426.54
443.05	3487.40
443.24	3492.08
443.43	3332.92
443.61	3407.82
443.80	3386.76
443.98	3410.16
444.17	3302.50
444.35	3482.72
444.54	3506.12
444.73	3602.08
444.91	3536.55
445.10	3513.14
445.28	3552.93
445.47	3517.83
445.65	3569.32
445.84	3644.21
446.02	3599.74
446.21	3506.12
446.39	3545.91
446.58	3522.51
446.77	3651.24
446.95	3473.36
447.14	3597.40
447.32	3702.73
447.51	3524.85
447.69	3625.49
447.88	3590.38
448.06	3562.30
448.25	3566.98
448.43	3564.64
448.62	3637.19
448.80	3555.27
448.99	3611.45
449.17	3667.62
449.36	3623.15
449.54	3719.11
449.73	3698.05
449.91	3775.28
450.10	3686.34
450.28	3847.84
450.46	3960.19
450.65	3878.27
450.83	3791.67
451.02	3953.16
451.20	3922.74
451.39	3908.69
451.57	3889.97
451.76	3995.29
451.94	3882.95
452.13	3932.10
452.31	4007.00
452.49	3810.39
452.68	3983.59
452.86	3999.98
453.05	3997.64
453.23	3918.06
453.42	3904.01
453.60	3810.39
453.78	3974.23
453.97	3911.04
454.15	4051.47
454.34	3904.01
454.52	4173.18
454.70	4065.51
454.89	4149.77
455.07	4119.34
455.26	4053.81
455.44	4325.31
455.62	4175.52
455.81	4196.58
455.99	4257.43
456.17	4271.48
456.36	4112.32
456.54	4348.72
456.73	4423.61
456.91	4383.82
457.09	4386.16
457.28	4587.45
457.46	4318.29
457.64	4477.44
457.83	4372.12
458.01	4507.87
458.19	4610.86
458.38	4404.89
458.56	4606.17
458.74	4531.28
458.93	4491.49
459.11	4575.75
459.29	4566.39
459.48	4655.33
459.66	4812.14
459.84	4599.15
460.03	4737.24
460.21	4638.94
460.39	4596.81
460.57	4634.26
460.76	4823.84
460.94	4772.35
461.12	4777.03
461.31	4657.67
461.49	4681.07
461.67	4791.08
461.85	4952.57
462.04	4816.82
462.22	5116.41
462.40	4795.76
462.59	4882.36
462.77	4950.23
462.95	4931.51
463.13	4959.60
463.32	4964.28
463.50	4938.53
463.68	4901.08
463.86	5085.98
464.05	4994.70
464.23	4805.12
464.41	5252.16
464.59	4994.70
464.78	5146.84
464.96	5013.43
465.14	4863.63
465.32	4999.38
465.50	5186.63
465.69	5121.09
465.87	5128.11
466.05	5130.45
466.23	5060.24
466.41	5203.01
466.60	5322.38
466.78	5233.44
466.96	5252.16
467.14	5238.12
467.32	5210.03
467.51	5303.65
467.69	5067.26
467.87	5425.36
468.05	5359.83
468.23	5217.05
468.41	5385.57
468.60	5446.43
468.78	5406.64
468.96	5364.51
469.14	5444.09
469.32	5423.02
469.50	5266.21
469.69	5535.37
469.87	5619.63
470.05	5479.19
470.23	5551.75
470.41	5547.07
470.59	5600.90
470.77	5596.22
470.95	5619.63
471.14	5666.44
471.32	5619.63
471.50	5797.51
471.68	5776.44
471.86	5837.30
472.04	5891.13
472.22	6001.13
472.40	5717.93
472.58	5900.49
472.77	5923.90
472.95	5891.13
473.13	6176.67
473.31	5912.19
473.49	5933.26
473.67	6010.50
473.85	6087.73
474.03	6167.31
474.21	6162.63
474.39	6284.34
474.57	6370.94
474.75	6263.27
474.93	6293.70
475.12	6328.81
475.30	6413.07
475.48	6354.55
475.66	6413.07
475.84	6492.65
476.02	6700.95
476.20	6504.35
476.38	6637.76
476.56	6754.79
476.74	6761.81
476.92	6712.66
477.10	6937.35
477.28	6874.15
477.46	6780.53
477.64	6881.18
477.82	7026.29
478.00	7040.33
478.18	7007.56
478.36	7227.57
478.54	7091.82
478.72	7302.47
478.90	7276.73
479.08	7433.54
479.26	7342.26
479.44	7461.63
479.62	7602.06
479.80	7531.84
479.98	7529.50
480.16	7625.47
480.34	7536.52
480.52	7866.54
480.70	7887.61
480.88	7925.05
481.06	7892.29
481.24	7936.76
481.41	7964.84
481.59	8269.11
481.77	8224.64
481.95	8336.99
482.13	8393.16
482.31	8411.89
482.49	8585.08
482.67	8510.19
482.85	8631.90
483.03	8737.22
483.21	9057.87
483.39	8922.12
483.57	8812.12
483.74	8798.07
483.92	8994.68
484.10	8781.69
484.28	8952.55
484.46	9268.52
484.64	9516.62
484.82	9184.26
485.00	9401.93
485.18	9549.39
485.35	9643.01
485.53	9584.49
485.71	9755.35
485.89	9853.66
486.07	9867.70
486.25	9858.34
486.43	9731.95
486.61	9851.31
486.78	9909.83
486.96	10501.98
487.14	10457.51
487.32	10298.36
487.50	10373.25
487.68	10628.37
487.85	10684.55
488.03	10832.00
488.21	10848.38
488.39	10958.39
488.57	10958.39
488.75	10874.13
488.92	11000.52
489.10	11101.16
489.28	11204.14
489.46	11297.77
489.64	11304.79
489.81	11527.14
489.99	11850.13
490.17	11695.66
490.35	11751.83
490.53	11960.14
490.70	11899.28
490.88	11920.35
491.06	12009.29
491.24	11887.58
491.41	12432.93
491.59	12299.52
491.77	12287.81
491.95	12685.70
492.13	12795.71
492.30	12622.51
492.48	12692.73
492.66	12746.56
492.84	12769.96
493.01	13104.66
493.19	12760.60
493.37	13137.43
493.54	12870.61
493.72	13282.54
493.90	13104.66
494.08	13160.83
494.25	13441.70
494.43	13444.04
494.61	13795.12
494.79	13771.71
494.96	13738.94
495.14	13853.63
495.32	13891.08
495.49	13870.01
495.67	14286.63
495.85	14319.40
496.02	14476.21
496.20	14391.95
496.38	14256.20
496.55	14345.14
496.73	14593.24
496.91	14616.65
497.09	14623.67
497.26	14850.70
497.44	14714.95
497.62	14941.98
497.79	14953.68
497.97	15049.64
498.14	15161.99
498.32	15279.02
498.50	15356.25
498.67	15674.57
498.85	15288.38
499.03	15304.76
499.20	15513.07
499.38	15669.89
499.56	15363.28
499.73	15721.38
499.91	16051.39
500.08	16248.00
500.26	15594.99
500.44	15803.30
500.61	16016.29
500.79	16196.51
500.97	16255.02
501.14	16065.44
501.32	16599.08
501.49	16451.63
501.67	16004.58
501.84	16374.39
502.02	16430.56
502.20	16322.90
502.37	16835.47
502.55	16554.61
502.72	16833.13
502.90	16692.70
503.07	16641.21
503.25	17055.48
503.43	16996.97
503.60	17013.35
503.78	17224.00
503.95	17057.82
504.13	16961.86
504.30	17247.41
504.48	17083.57
504.65	17378.48
504.83	17649.98
505.01	17617.21
505.18	17680.41
505.36	17600.83
505.53	17413.59
505.71	17479.12
505.88	17350.39
506.06	17488.48
506.23	17769.35
506.41	17846.58
506.58	17954.25
506.76	18024.47
506.93	18036.17
507.11	18068.94
507.28	18281.92
507.46	18178.94
507.63	18258.52
507.81	18375.55
507.98	18317.03
508.16	18127.45
508.33	18331.08
508.50	18417.68
508.68	18473.85
508.85	18937.27
509.03	18307.67
509.20	18885.78
509.38	18796.84
509.55	18834.29
509.73	18881.10
509.90	18930.25
510.08	18820.25
510.25	18860.04
510.42	19040.26
510.60	19225.16
510.77	19599.65
510.95	19470.92
511.12	19082.39
511.30	19168.99
511.47	19370.27
511.64	19386.66
511.82	19641.78
511.99	19599.65
512.17	19599.65
512.34	19559.86
512.51	19562.20
512.69	20140.31
512.86	19829.02
513.04	20238.61
513.21	20180.10
513.38	20016.26
513.56	20306.49
513.73	20039.67
513.90	20189.46
514.08	20198.82
514.25	20137.97
514.43	20353.30
514.60	20348.62
514.77	20528.84
514.95	20430.54
515.12	20074.77
515.29	20369.68
515.47	20638.84
515.64	20702.04
515.81	20449.26
515.99	20905.66
516.16	21010.99
516.33	20765.23
516.51	20982.90
516.68	21120.99
516.85	20821.41
517.03	21050.78
517.20	20924.39
517.37	21303.56
517.54	21385.47
517.72	21252.06
517.89	21092.91
518.06	21216.96
518.24	21277.81
518.41	21216.96
518.58	21387.82
518.75	21214.62
518.93	21865.28
519.10	21200.57
519.27	21862.94
519.45	21785.71
519.62	21610.17
519.79	21708.47
519.96	21544.63
520.14	22258.49
520.31	21891.03
520.48	21947.20
520.65	21778.68
520.83	22057.21
521.00	22244.45
521.17	21893.37
521.34	22398.93
521.52	22499.57
521.69	22295.94
521.86	22522.98
522.03	22452.76
522.20	22429.35
522.38	22640.00
522.55	22396.59
522.72	22307.65
522.89	22808.52
523.07	23002.78
523.24	22785.12
523.41	23236.84
523.58	22703.20
523.75	23119.81
523.92	22965.34
524.10	22899.80
524.27	22988.74
524.44	23175.98
524.61	23206.41
524.78	23410.04
524.96	23054.28
525.13	23192.37
525.30	23445.15
525.47	23665.16
525.64	22958.31
525.81	23452.17
525.98	23885.17
526.16	23541.11
526.33	23632.39
526.50	23674.52
526.67	23264.92
526.84	23314.08
527.01	23208.75
527.18	23903.89
527.36	23908.57
527.53	23503.66
527.70	24086.45
527.87	23889.85
528.04	23960.06
528.21	24184.76
528.38	24039.64
528.55	23983.47
528.72	24002.19
528.89	24091.13
529.07	24011.56
529.24	24170.71
529.41	24245.61
529.58	24226.89
529.75	24173.05
529.92	24100.50
530.09	24077.09
530.26	24456.26
530.43	24535.84
530.60	23985.81
530.77	24264.33
530.94	24535.84
531.11	24643.50
531.28	24264.33
531.46	24655.20
531.63	24360.30
531.80	24877.55
531.97	25057.78
532.14	25027.35
532.31	24882.24
532.48	25116.29
532.65	24924.36
532.82	24542.86
532.99	24863.51
533.16	24669.25
533.33	24973.52
533.50	24884.58
533.67	25343.32
533.84	24819.04
534.01	24975.86
534.18	25032.03
534.35	25240.34
534.52	25373.75
534.69	25607.80
534.86	25827.81
535.03	25392.47
535.20	25422.90
535.37	25308.21
535.54	25486.09
535.71	25268.42
535.88	25603.12
536.05	25598.44
536.22	25773.98
536.38	25762.28
536.55	25907.39
536.72	25951.86
536.89	25993.99
537.06	25825.47
537.23	25851.22
537.40	25666.31
537.57	25905.05
537.74	26204.64
537.91	26209.32
538.08	26281.88
538.25	25888.67
538.42	25694.40
538.59	26316.98
538.75	25830.15
538.92	26464.44
539.09	26326.35
539.26	26338.05
539.43	26312.30
539.60	26324.01
539.77	26293.58
539.94	26419.97
540.11	26483.16
540.28	26590.83
540.44	26412.95
540.61	26616.57
540.78	26628.27
540.95	26740.62
541.12	26693.81
541.29	26438.69
541.46	26764.03
541.62	26075.91
541.79	26593.17
541.96	26258.47
542.13	26733.60
542.30	26850.63
542.47	26429.33
542.63	26972.33
542.80	27105.74
542.97	27482.57
543.14	27105.74
543.31	27419.38
543.48	27194.68
543.64	27150.21
543.81	27494.27
543.98	27229.79
544.15	27412.35
544.32	27618.32
544.48	27548.11
544.65	27206.39
544.82	27417.04
544.99	26991.06
545.16	27473.21
545.32	27190.00
545.49	27992.81
545.66	28142.60
545.83	27779.82
546.00	27735.35
546.16	27639.39
546.33	27449.80
546.50	27330.44
546.67	27697.90
546.83	27660.45
547.00	27576.19
547.17	27896.85
547.34	28058.34
547.50	27906.21
547.67	28250.27
547.84	27978.76
548.00	28030.26
548.17	27838.33
548.34	28133.24
548.51	28161.33
548.67	28158.99
548.84	28493.68
549.01	27957.70
549.18	28353.25
549.34	28243.24
549.51	27985.79
549.68	28622.41
549.84	28191.75
550.01	28264.31
550.18	28215.16
550.34	28821.36
550.51	28594.32
550.68	28395.38
550.84	28119.20
551.01	28278.35
551.18	28479.64
551.34	28613.05
551.51	28425.81
551.68	28465.60
551.84	28826.04
552.01	28776.89
552.18	28662.20
552.34	28732.42
552.51	28416.44
552.68	28542.83
552.84	28865.83
553.01	28680.92
553.18	28786.25
553.34	28512.41
553.51	29022.64
553.67	29130.31
553.84	29181.80
554.01	28837.74
554.17	28891.57
554.34	29069.45
554.51	29219.25
554.67	28912.64
554.84	28725.39
555.00	28875.19
555.17	29099.88
555.33	29074.13
555.50	28786.25
555.67	28985.19
555.83	29120.95
556.00	29064.77
556.16	29277.76
556.33	29149.03
556.50	29612.46
556.66	29090.52
556.83	29340.96
556.99	29373.72
557.16	29656.93
557.32	29287.12
557.49	30043.12
557.65	29207.55
557.82	29064.77
557.98	29284.78
558.15	29362.02
558.32	29720.12
558.48	29631.18
558.65	29355.00
558.81	30050.14
558.98	29661.61
559.14	29434.58
559.31	29619.48
559.47	29591.39
559.64	29898.00
559.80	29748.21
559.97	29628.84
560.13	29820.77
560.30	30087.59
560.46	29467.34
560.63	29762.25
560.79	29839.49
560.96	30043.12
561.12	29881.62
561.29	29631.18
561.45	29818.42
561.61	29717.78
561.78	29825.45
561.94	29963.54
562.11	30157.80
562.27	29965.88
562.44	29818.42
562.60	29797.36
562.77	29598.41
562.93	29989.28
563.10	30209.29
563.26	30087.59
563.42	30377.81
563.59	29895.66
563.75	29734.17
563.92	29755.23
564.08	29914.39
564.24	30157.80
564.41	30010.35
564.57	30029.07
564.74	30335.68
564.90	30139.08
565.07	30328.66
565.23	30031.41
565.39	30335.68
565.56	30150.78
565.72	30476.12
565.88	30703.15
566.05	30110.99
566.21	30242.06
566.38	30153.12
566.54	30426.96
566.70	30415.26
566.87	30614.21
567.03	30286.53
567.19	30602.50
567.36	30218.66
567.52	30342.70
567.68	30197.59
567.85	30249.08
568.01	30471.43
568.17	30043.12
568.34	30228.02
568.50	30450.37
568.66	30567.40
568.83	30806.13
568.99	30218.66
569.15	30593.14
569.32	30569.74
569.48	30125.04
569.64	30710.17
569.81	30536.97
569.97	30349.73
570.13	30850.60
570.30	30480.80
570.46	30384.83
570.62	30122.69
570.78	30216.32
570.95	30518.25
571.11	30693.79
571.27	30071.20
571.43	30319.30
571.60	30754.64
571.76	30759.32
571.92	30817.83
572.09	30817.83
572.25	30464.41
572.41	30590.80
572.57	31037.84
572.74	30862.30
572.90	30534.63
573.06	30658.68
573.22	30668.04
573.38	30600.16
573.55	30572.08
573.71	30906.77
573.87	30855.28
574.03	30843.58
574.20	30586.12
574.36	30663.36
574.52	30719.53
574.68	30366.11
574.84	30993.37
575.01	30593.14
575.17	30752.30
575.33	30485.48
575.49	30541.65
575.65	30747.62
575.82	30665.70
575.98	30696.13
576.14	30642.29
576.30	30806.13
576.46	30745.28
576.62	30291.21
576.79	30581.44
576.95	30646.97
577.11	31101.04
577.27	31007.42
577.43	30965.29
577.59	30555.69
577.75	30775.70
577.92	30735.92
578.08	30307.60
578.24	30541.65
578.40	30782.73
578.56	30981.67
578.72	31068.27
578.88	31033.16
579.04	30932.52
579.21	30761.66
579.37	31026.14
579.53	31344.45
579.69	30663.36
579.85	30719.53
580.01	30756.98
580.17	30852.94
580.33	30689.10
580.49	31028.48
580.65	31035.50
580.82	31075.29
580.98	31098.70
581.14	30918.48
581.30	30976.99
581.46	30726.55
581.62	30635.27
581.78	30536.97
581.94	30661.02
582.10	30679.74
582.26	30967.63
582.42	30745.28
582.58	30888.05
582.74	31344.45
582.90	30991.03
583.06	30820.17
583.22	30831.88
583.38	30717.19
583.54	31037.84
583.70	30764.00
583.86	31129.12
584.02	30843.58
584.18	31248.49
584.34	31105.72
584.50	30768.68
584.66	30925.50
584.82	30785.07
584.98	31115.08
585.14	31094.02
585.30	31023.80
585.46	31201.68
585.62	31005.08
585.78	31470.84
585.94	30789.75
586.10	31096.36
586.26	31150.19
586.42	31185.30
586.58	31138.49
586.74	31220.41
586.90	30927.84
587.06	30960.61
587.22	31077.63
587.38	30902.09
587.54	31243.81
587.70	30796.77
587.86	31398.29
588.02	31143.17
588.18	31318.71
588.34	31171.25
588.49	31531.70
588.65	30441.01
588.81	31068.27
588.97	31199.34
589.13	31014.44
589.29	31307.01
589.45	31353.82
589.61	31686.17
589.77	31475.52
589.93	31330.41
590.08	31770.43
590.24	31702.56
590.40	31524.68
590.56	31515.31
590.72	31356.16
590.88	30946.56
591.04	31152.53
591.20	31529.36
591.35	31826.60
591.51	31817.24
591.67	31487.23
591.83	31604.25
