SpectraSuite Data File
++++++++++++++++++++++++++++++++++++
Date: Fri Oct 18 13:58:06 GMT-05:00 2013
User: bianchi
Dark Spectrum Present: No
Reference Spectrum Present: No
Number of Sampled Component Spectra: 1
Spectrometers: USB2+H05261
Integration Time (usec): 50000 (USB2+H05261)
Spectra Averaged: 1 (USB2+H05261)
Boxcar Smoothing: 0 (USB2+H05261)
Correct for Electrical Dark: No (USB2+H05261)
Strobe/Lamp Enabled: No (USB2+H05261)
Correct for Detector Non-linearity: No (USB2+H05261)
Correct for Stray Light: No (USB2+H05261)
Number of Pixels in Processed Spectrum: 2048
>>>>>Begin Processed Spectral Data<<<<<
365.73	0.00
365.92	0.00
366.12	0.00
366.32	0.00
366.52	0.00
366.72	0.00
366.91	0.00
367.11	0.00
367.31	0.00
367.51	0.00
367.70	0.00
367.90	0.00
368.10	0.00
368.30	0.00
368.49	0.00
368.69	0.00
368.89	0.00
369.09	0.00
369.28	0.00
369.48	0.00
369.68	0.00
369.87	0.00
370.07	0.00
370.27	0.00
370.47	0.00
370.66	16.38
370.86	95.96
371.06	131.07
371.25	189.58
371.45	147.45
371.65	126.39
371.84	177.88
372.04	159.16
372.24	220.01
372.44	166.18
372.63	180.22
372.83	243.42
373.03	241.08
373.22	241.08
373.42	145.11
373.62	236.39
373.81	180.22
374.01	252.78
374.21	327.68
374.40	255.12
374.60	278.52
374.79	196.60
374.99	175.54
375.19	203.63
375.38	224.69
375.58	227.03
375.78	262.14
375.97	245.76
376.17	294.91
376.37	325.33
376.56	322.99
376.76	290.23
376.95	320.65
377.15	315.97
377.35	301.93
377.54	374.49
377.74	217.67
377.93	227.03
378.13	287.89
378.33	231.71
378.52	376.83
378.72	306.61
378.91	353.42
379.11	198.95
379.31	285.55
379.50	264.48
379.70	388.53
379.89	311.29
380.09	332.36
380.28	365.12
380.48	318.31
380.68	386.19
380.87	294.91
381.07	262.14
381.26	280.86
381.46	376.83
381.65	369.80
381.85	308.95
382.04	313.63
382.24	346.40
382.43	271.50
382.63	428.32
382.83	344.06
383.02	416.62
383.22	337.04
383.41	409.59
383.61	369.80
383.80	449.38
384.00	400.23
384.19	397.89
384.39	337.04
384.58	440.02
384.78	454.06
384.97	393.21
385.17	376.83
385.36	451.72
385.56	435.34
385.75	409.59
385.95	348.74
386.14	390.87
386.34	358.10
386.53	449.38
386.72	376.83
386.92	472.79
387.11	330.02
387.31	479.81
387.50	491.51
387.70	531.30
387.89	463.43
388.09	461.09
388.28	435.34
388.48	353.42
388.67	411.93
388.86	416.62
389.06	458.74
389.25	458.74
389.45	575.77
389.64	440.02
389.84	484.49
390.03	442.36
390.22	510.24
390.42	486.83
390.61	510.24
390.81	517.26
391.00	437.68
391.19	578.11
391.39	524.28
391.58	535.98
391.78	538.32
391.97	550.03
392.16	575.77
392.36	517.26
392.55	580.45
392.75	601.52
392.94	561.73
393.13	568.75
393.33	526.62
393.52	557.05
393.71	676.41
393.91	624.92
394.10	531.30
394.29	594.50
394.49	636.63
394.68	657.69
394.88	470.45
395.07	557.05
395.26	589.82
395.46	587.47
395.65	650.67
395.84	643.65
396.04	657.69
396.23	620.24
396.42	650.67
396.62	585.13
396.81	765.36
397.00	671.73
397.19	688.12
397.39	657.69
397.58	636.63
397.77	592.16
397.97	723.23
398.16	650.67
398.35	713.86
398.55	678.76
398.74	781.74
398.93	770.04
399.12	741.95
399.32	739.61
399.51	767.70
399.70	781.74
399.90	711.52
400.09	814.51
400.28	664.71
400.47	784.08
400.67	798.12
400.86	828.55
401.05	755.99
401.24	711.52
401.44	847.27
401.63	863.66
401.82	793.44
402.01	809.83
402.21	786.42
402.40	884.72
402.59	812.17
402.78	837.91
402.97	800.46
403.17	833.23
403.36	821.53
403.55	915.15
403.74	922.17
403.93	844.93
404.13	952.60
404.32	870.68
404.51	919.83
404.70	908.13
404.89	889.40
405.09	1008.77
405.28	966.64
405.47	959.62
405.66	1015.79
405.85	945.58
406.05	968.98
406.24	1013.45
406.43	1034.52
406.62	1046.22
406.81	1076.65
407.00	980.68
407.20	976.00
407.39	1029.84
407.58	1104.73
407.77	1043.88
407.96	1057.92
408.15	1100.05
408.34	1083.67
408.54	1205.38
408.73	1128.14
408.92	1132.82
409.11	1186.65
409.30	1252.19
409.49	1118.78
409.68	1128.14
409.87	1114.10
410.07	1135.16
410.26	1191.33
410.45	1224.10
410.64	1231.12
410.83	1093.03
411.02	1228.78
411.21	1261.55
411.40	1231.12
411.59	1273.25
411.78	1359.85
411.98	1270.91
412.17	1327.08
412.36	1315.38
412.55	1352.83
412.74	1322.40
412.93	1404.32
413.12	1306.02
413.31	1530.71
413.50	1409.00
413.69	1401.98
413.88	1490.92
414.07	1357.51
414.26	1521.35
414.45	1441.77
414.64	1479.22
414.83	1401.98
415.02	1458.15
415.22	1479.22
415.41	1612.63
415.60	1537.73
415.79	1598.59
415.98	1511.99
416.17	1612.63
416.36	1647.74
416.55	1652.42
416.74	1605.61
416.93	1713.27
417.12	1713.27
417.31	1530.71
417.50	1659.44
417.69	1818.60
417.88	1753.06
418.07	1811.57
418.26	1802.21
418.45	1760.08
418.64	1816.26
418.83	1816.26
419.02	1750.72
419.21	1874.77
419.39	1860.73
419.58	1837.32
419.77	1865.41
419.96	1937.96
420.15	1895.83
420.34	1856.04
420.53	1830.30
420.72	1914.56
420.91	2036.27
421.10	1984.77
421.29	2057.33
421.48	1907.54
421.67	2029.24
421.86	2024.56
422.05	1944.99
422.24	1984.77
422.43	2019.88
422.61	1998.82
422.80	2022.22
422.99	2022.22
423.18	1933.28
423.37	2062.01
423.56	1944.99
423.75	2008.18
423.94	2054.99
424.13	1888.81
424.32	2057.33
424.50	2022.22
424.69	2111.16
424.88	2176.70
425.07	2038.61
425.26	1937.96
425.45	2019.88
425.64	2057.33
425.83	2085.42
426.01	2022.22
426.20	2069.03
426.39	2064.35
426.58	2118.18
426.77	2186.06
426.96	2101.80
427.15	2120.53
427.33	2097.12
427.52	2118.18
427.71	2165.00
427.90	2157.97
428.09	2183.72
428.28	2139.25
428.46	2249.25
428.65	2207.13
428.84	2282.02
429.03	2239.89
429.22	2113.50
429.40	2284.36
429.59	2300.75
429.78	2190.74
429.97	2179.04
430.16	2169.68
430.34	2326.49
430.53	2293.72
430.72	2473.95
430.91	2293.72
431.10	2321.81
431.28	2410.75
431.47	2429.48
431.66	2349.90
431.85	2485.65
432.03	2511.39
432.22	2487.99
432.41	2300.75
432.60	2478.63
432.79	2380.32
432.97	2476.29
433.16	2647.15
433.35	2417.77
433.54	2509.05
433.72	2572.25
433.91	2544.16
434.10	2509.05
434.28	2506.71
434.47	2527.78
434.66	2555.86
434.85	2635.44
435.03	2698.64
435.22	2642.46
435.41	2710.34
435.59	2684.59
435.78	2658.85
435.97	2672.89
436.16	2719.70
436.34	2668.21
436.53	2649.49
436.72	2752.47
436.90	2644.81
437.09	2801.62
437.28	2700.98
437.46	2785.24
437.65	2895.24
437.84	2822.69
438.02	2810.98
438.21	2977.16
438.40	2689.28
438.58	2848.43
438.77	2916.31
438.96	2897.58
439.14	2895.24
439.33	3030.99
439.52	3023.97
439.70	3152.70
439.89	3070.78
440.08	3019.29
440.26	3075.46
440.45	3082.49
440.63	3112.91
440.82	3138.66
441.01	3211.22
441.19	3243.98
441.38	3365.69
441.57	3133.98
441.75	3293.13
441.94	3421.86
442.12	3269.73
442.31	3379.73
442.50	3368.03
442.68	3414.84
442.87	3351.65
443.05	3407.82
443.24	3382.07
443.43	3449.95
443.61	3435.91
443.80	3536.55
443.98	3372.71
444.17	3178.45
444.35	3227.60
444.54	3517.83
444.73	3454.63
444.91	3463.99
445.10	3581.02
445.28	3461.65
445.47	3368.03
445.65	3454.63
445.84	3639.53
446.02	3506.12
446.21	3424.20
446.39	3506.12
446.58	3569.32
446.77	3489.74
446.95	3421.86
447.14	3466.33
447.32	3698.05
447.51	3574.00
447.69	3515.48
447.88	3576.34
448.06	3435.91
448.25	3564.64
448.43	3658.26
448.62	3599.74
448.80	3489.74
448.99	3604.42
449.17	3581.02
449.36	3761.24
449.54	3728.47
449.73	3667.62
449.91	3688.68
450.10	3684.00
450.28	3691.02
450.46	3829.12
450.65	3822.09
450.83	3768.26
451.02	3674.64
451.20	3899.33
451.39	3822.09
451.57	3908.69
451.76	3702.73
451.94	3826.78
452.13	3995.29
452.31	4044.45
452.49	3775.28
452.68	3995.29
452.86	3932.10
453.05	3894.65
453.23	3955.51
453.42	3915.72
453.60	3908.69
453.78	4023.38
453.97	3826.78
454.15	3946.14
454.34	3922.74
454.52	4072.53
454.70	4044.45
454.89	4058.49
455.07	4119.34
455.26	4063.17
455.44	4203.60
455.62	4124.02
455.81	4140.41
455.99	4189.56
456.17	4131.05
456.36	4224.67
456.54	4271.48
456.73	4222.33
456.91	4372.12
457.09	4362.76
457.28	4484.47
457.46	4329.99
457.64	4552.34
457.83	4514.89
458.01	4325.31
458.19	4615.54
458.38	4493.83
458.56	4451.70
458.74	4479.79
458.93	4447.02
459.11	4472.76
459.29	4540.64
459.48	4547.66
459.66	4582.77
459.84	4547.66
460.03	4737.24
460.21	4638.94
460.39	4388.50
460.57	4638.94
460.76	4608.51
460.94	4669.37
461.12	4580.43
461.31	4596.81
461.49	4767.67
461.67	4678.73
461.85	4901.08
462.04	4868.31
462.22	5149.18
462.40	4873.00
462.59	4894.06
462.77	4971.30
462.95	4821.50
463.13	4840.23
463.32	4901.08
463.50	4919.81
463.68	4990.02
463.86	4973.64
464.05	4873.00
464.23	4746.61
464.41	5039.17
464.59	4894.06
464.78	5181.95
464.96	4964.28
465.14	4884.70
465.32	5046.20
465.50	5006.41
465.69	5102.37
465.87	5078.96
466.05	5064.92
466.23	4968.96
466.41	5109.39
466.60	5275.57
466.78	5088.32
466.96	5186.63
467.14	5191.31
467.32	5160.88
467.51	5275.57
467.69	4985.34
467.87	5289.61
468.05	5357.49
468.23	5107.05
468.41	5277.91
468.60	5266.21
468.78	5280.25
468.96	5301.31
469.14	5352.81
469.32	5401.96
469.50	5324.72
469.69	5394.93
469.87	5397.28
470.05	5385.57
470.23	5502.60
470.41	5434.72
470.59	5526.00
470.77	5528.35
470.95	5516.64
471.14	5626.65
471.32	5549.41
471.50	5703.89
471.68	5659.42
471.86	5666.44
472.04	5703.89
472.22	5891.13
472.40	5757.72
472.58	5916.87
472.77	5799.85
472.95	5942.62
473.13	6113.48
473.31	5820.91
473.49	5865.38
473.67	5947.30
473.85	5853.68
474.03	6094.76
474.21	6045.60
474.39	6293.70
474.57	6143.91
474.75	6188.38
474.93	6200.08
475.12	5987.09
475.30	6305.40
475.48	6249.23
475.66	6274.98
475.84	6450.52
476.02	6438.81
476.20	6303.06
476.38	6679.89
476.56	6703.29
476.74	6609.67
476.92	6731.38
477.10	6775.85
477.28	6691.59
477.46	6581.59
477.64	6731.38
477.82	6855.43
478.00	7103.53
478.18	6904.58
478.36	6892.88
478.54	7199.49
478.72	7187.79
478.90	7194.81
479.08	7283.75
479.26	7372.69
479.44	7363.33
479.62	7356.30
479.80	7424.18
479.98	7566.95
480.16	7751.85
480.34	7559.93
480.52	7611.42
480.70	7777.60
480.88	7833.77
481.06	7929.74
481.24	7772.92
481.41	7901.65
481.59	7978.89
481.77	8112.30
481.95	8250.39
482.13	8262.09
482.31	8145.06
482.49	8341.67
482.67	8334.65
482.85	8418.91
483.03	8519.55
483.21	8755.94
483.39	8533.59
483.57	8704.45
483.74	8545.30
483.92	8926.80
484.10	8973.61
484.28	8795.73
484.46	9357.46
484.64	9219.37
484.82	9233.41
485.00	9205.33
485.18	9434.70
485.35	9460.45
485.53	9331.72
485.71	9483.85
485.89	9673.43
486.07	9554.07
486.25	9886.42
486.43	9905.15
486.61	9947.28
486.78	9984.73
486.96	10174.31
487.14	10242.18
487.32	10148.56
487.50	10092.39
487.68	10347.51
487.85	10431.77
488.03	10677.52
488.21	10829.66
488.39	11005.20
488.57	10984.13
488.75	10768.80
488.92	10960.73
489.10	11030.94
489.28	11056.69
489.46	11180.74
489.64	11253.30
489.81	11302.45
489.99	11520.12
490.17	11295.43
490.35	11662.89
490.53	11758.85
490.70	11999.93
490.88	11625.44
491.06	12142.70
491.24	11810.34
491.41	12037.38
491.59	12306.54
491.77	12210.57
491.95	12102.91
492.13	12304.20
492.30	12629.53
492.48	12355.69
492.66	12444.63
492.84	12613.15
493.01	12688.04
493.19	12791.03
493.37	12769.96
493.54	13062.53
493.72	13034.44
493.90	12908.05
494.08	13483.83
494.25	13439.36
494.43	13067.21
494.61	13565.74
494.79	13378.50
494.96	13579.79
495.14	13420.63
495.32	13851.29
495.49	13788.10
495.67	14108.75
495.85	14104.07
496.02	14064.28
496.20	14132.15
496.38	14129.81
496.55	14033.85
496.73	14497.28
496.91	14455.15
497.09	14504.30
497.26	14560.47
497.44	14574.52
497.62	14944.32
497.79	15028.58
497.97	14803.89
498.14	15154.97
498.32	15154.97
498.50	15073.05
498.67	14930.28
498.85	15337.53
499.03	15335.19
499.20	15073.05
499.38	15295.40
499.56	15573.92
499.73	15838.41
499.91	15456.90
500.08	15716.70
500.26	15290.72
500.44	15536.48
500.61	15857.13
500.79	15857.13
500.97	15892.24
501.14	16304.17
501.32	16084.16
501.49	16023.31
501.67	16177.78
501.84	16269.06
502.02	16137.99
502.20	16243.32
502.37	16676.32
502.55	16198.85
502.72	16500.78
502.90	16393.11
503.07	16439.92
503.25	16599.08
503.43	16439.92
503.60	16734.83
503.78	16716.11
503.95	16760.58
504.13	16840.15
504.30	16748.87
504.48	17015.69
504.65	17025.06
504.83	17200.60
505.01	17366.78
505.18	17509.55
505.36	17322.30
505.53	17270.81
505.71	17490.82
505.88	17193.58
506.06	17530.61
506.23	17549.34
506.41	17537.63
506.58	17736.58
506.76	17633.60
506.93	17951.91
507.11	17729.56
507.28	17958.93
507.46	17907.44
507.63	17666.36
507.81	17982.34
507.98	17855.95
508.16	18207.03
508.33	18195.32
508.50	18068.94
508.68	18279.58
508.85	18333.42
509.03	18415.34
509.20	18438.74
509.38	18740.67
509.55	18562.79
509.73	18452.78
509.90	18600.24
510.08	18541.72
510.25	18878.76
510.42	18883.44
510.60	18904.51
510.77	18838.97
510.95	19337.51
511.12	18972.38
511.30	18913.87
511.47	19096.43
511.64	19112.81
511.82	19332.82
511.99	19122.18
512.17	19379.64
512.34	19304.74
512.51	19665.18
512.69	19573.90
512.86	19204.10
513.04	19566.88
513.21	19786.89
513.38	19562.20
513.56	19555.18
513.73	19838.38
513.90	19899.23
514.08	19976.47
514.25	20313.51
514.43	20287.76
514.60	20074.77
514.77	20018.60
514.95	20088.82
515.12	20067.75
515.29	20357.98
515.47	20332.23
515.64	20421.17
515.81	20168.40
515.99	20362.66
516.16	20645.87
516.33	20634.16
516.51	20931.41
516.68	20596.71
516.85	20582.67
517.03	20563.95
517.20	20847.15
517.37	20695.02
517.54	21067.16
517.72	20844.81
517.89	21116.31
518.06	21111.63
518.24	21013.33
518.41	20912.69
518.58	21439.31
518.75	21221.64
518.93	21429.94
519.10	21511.86
519.27	21500.16
519.45	21083.55
519.62	21221.64
519.79	21436.97
519.96	21350.37
520.14	21558.67
520.31	21521.23
520.48	21666.34
520.65	21458.03
520.83	21949.54
521.00	22092.32
521.17	21656.98
521.34	21914.44
521.52	21994.01
521.69	21986.99
521.86	21977.63
522.03	22235.09
522.20	22345.09
522.38	22059.55
522.55	22148.49
522.72	22176.58
522.89	22143.81
523.07	22567.45
523.24	22487.87
523.41	22682.13
523.58	22265.52
523.75	22389.56
523.92	22071.25
524.10	22621.28
524.27	22569.79
524.44	22937.25
524.61	22647.02
524.78	22890.44
524.96	22513.61
525.13	22789.80
525.30	22993.42
525.47	22920.87
525.64	22920.87
525.81	23185.35
525.98	23227.48
526.16	23136.20
526.33	23208.75
526.50	23377.27
526.67	23225.14
526.84	23194.71
527.01	23623.03
527.18	23414.72
527.36	23351.52
527.53	23662.82
527.70	23721.33
527.87	23901.55
528.04	23826.65
528.21	23344.50
528.38	23805.59
528.55	23648.77
528.72	23728.35
528.89	24151.99
529.07	23749.42
529.24	23737.71
529.41	23974.11
529.58	23686.22
529.75	24212.84
529.92	24233.91
530.09	24020.92
530.26	24285.40
530.43	24182.42
530.60	24013.90
530.77	24339.23
530.94	24259.65
531.11	24278.38
531.28	24079.43
531.46	24250.29
531.63	24247.95
531.80	24460.94
531.97	24739.46
532.14	24666.91
532.31	24533.50
532.48	24575.62
532.65	24737.12
532.82	24491.37
532.99	24814.36
533.16	24554.56
533.33	24954.79
533.50	24912.66
533.67	24891.60
533.84	24592.01
534.01	25111.61
534.18	24699.67
534.35	24823.72
534.52	24762.87
534.69	25106.93
534.86	25104.59
535.03	25287.15
535.20	25226.29
535.37	25085.86
535.54	25153.74
535.71	25013.31
535.88	25195.87
536.05	25261.40
536.22	25167.78
536.38	25495.46
536.55	25275.45
536.72	25612.48
536.89	25385.45
537.06	25930.80
537.23	25383.11
537.40	25558.65
537.57	25645.25
537.74	25926.11
537.91	25488.43
538.08	25954.20
538.25	25425.24
538.42	25317.57
538.59	25692.06
538.75	25724.83
538.92	26111.02
539.09	25757.60
539.26	25666.31
539.43	26101.65
539.60	26115.70
539.77	25975.27
539.94	26078.25
540.11	26235.06
540.28	26080.59
540.44	26277.19
540.61	26047.82
540.78	26211.66
540.95	26251.45
541.12	26001.01
541.29	26059.52
541.46	26249.11
541.62	26471.46
541.79	26141.44
541.96	25823.13
542.13	26174.21
542.30	26698.49
542.47	26614.23
542.63	26682.11
542.80	26487.84
542.97	26775.73
543.14	27101.06
543.31	26679.77
543.48	26574.44
543.64	26932.54
543.81	27058.93
543.98	26806.16
544.15	27154.90
544.32	27262.56
544.48	27480.23
544.65	26981.70
544.82	26984.04
544.99	26658.70
545.16	26960.63
545.32	26773.39
545.49	27070.64
545.66	27353.84
545.83	27644.07
546.00	27601.94
546.16	27349.16
546.33	27154.90
546.50	26808.50
546.67	26960.63
546.83	27344.48
547.00	27501.29
547.17	27447.46
547.34	27379.59
547.50	27524.70
547.67	27531.72
547.84	27639.39
548.00	27611.30
548.17	27672.15
548.34	27496.61
548.51	28009.19
548.67	27985.79
548.84	27688.54
549.01	27852.38
549.18	27639.39
549.34	27697.90
549.51	27693.22
549.68	27580.87
549.84	27953.02
550.01	27662.79
550.18	27590.24
550.34	28048.98
550.51	28051.32
550.68	28114.52
550.84	27913.23
551.01	27850.03
551.18	27700.24
551.34	27868.76
551.51	27889.82
551.68	28322.82
551.84	27971.74
552.01	28493.68
552.18	28224.52
552.34	28084.09
552.51	28692.63
552.68	28278.35
552.84	28170.69
553.01	28451.55
553.18	27978.76
553.34	28793.27
553.51	28393.04
553.67	28081.75
553.84	28783.91
554.01	28765.18
554.17	28371.97
554.34	28793.27
554.51	28575.60
554.67	28872.85
554.84	28362.61
555.00	28877.53
555.17	28545.17
555.33	28627.09
555.50	28851.78
555.67	28893.91
555.83	28882.21
556.00	28819.02
556.16	28643.48
556.33	28556.88
556.50	28786.25
556.66	28783.91
556.83	28804.97
556.99	29144.35
557.16	29254.36
557.32	29092.86
557.49	29134.99
557.65	28486.66
557.82	29266.06
557.98	28952.43
558.15	28978.17
558.32	28903.28
558.48	29359.68
558.65	29235.63
558.81	29542.24
558.98	29120.95
559.14	29184.14
559.31	29158.39
559.47	29198.18
559.64	29125.63
559.80	29347.98
559.97	29703.74
560.13	29275.42
560.30	28926.68
560.46	29539.90
560.63	29724.80
560.79	29319.89
560.96	29406.49
561.12	29338.62
561.29	29439.26
561.45	29432.24
561.61	29429.90
561.78	29755.23
561.94	29848.85
562.11	29741.19
562.27	29413.51
562.44	29497.77
562.60	29486.07
562.77	29223.93
562.93	29406.49
563.10	29415.85
563.26	29441.60
563.42	29780.98
563.59	29780.98
563.75	29605.44
563.92	29383.09
564.08	29535.22
564.24	29315.21
564.41	29469.69
564.57	29312.87
564.74	29783.32
564.90	29944.81
565.07	29745.87
565.23	29977.58
565.39	29970.56
565.56	29816.08
565.72	29869.92
565.88	29434.58
566.05	29736.51
566.21	29542.24
566.38	29872.26
566.54	29729.48
566.70	29937.79
566.87	30239.72
567.03	30096.95
567.19	30103.97
567.36	30225.68
567.52	29811.40
567.68	30115.67
567.85	29909.71
568.01	29834.81
568.17	29968.22
568.34	30270.15
568.50	29940.13
568.66	29895.66
568.83	29816.08
568.99	30171.85
569.15	30029.07
569.32	30174.19
569.48	30045.46
569.64	30237.38
569.81	30000.99
569.97	29839.49
570.13	30529.95
570.30	30052.48
570.46	30267.81
570.62	29907.37
570.78	29963.54
570.95	29921.41
571.11	30443.35
571.27	29947.15
571.43	30064.18
571.60	30188.23
571.76	29923.75
571.92	30120.35
572.09	30235.04
572.25	30459.73
572.41	30391.86
572.57	30120.35
572.74	30492.50
572.90	30443.35
573.06	30052.48
573.22	29949.50
573.38	30148.44
573.55	30331.00
573.71	30675.06
573.87	30520.59
574.03	30103.97
574.20	30504.20
574.36	30221.00
574.52	30106.31
574.68	30476.12
574.84	30118.01
575.01	30455.05
575.17	30370.79
575.33	30340.36
575.49	30590.80
575.65	30590.80
575.82	30309.94
575.98	30197.59
576.14	30239.72
576.30	30532.29
576.46	30288.87
576.62	30323.98
576.79	30232.70
576.95	30366.11
577.11	30459.73
577.27	30419.94
577.43	30689.10
577.59	30345.05
577.75	30113.33
577.92	30008.01
578.08	29827.79
578.24	30169.51
578.40	30232.70
578.56	30181.21
578.72	30448.03
578.88	30635.27
579.04	30916.14
579.21	30560.37
579.37	30717.19
579.53	30700.81
579.69	30352.07
579.85	30071.20
580.01	30651.66
580.17	30110.99
580.33	30197.59
580.49	30366.11
580.65	30316.96
580.82	30527.61
580.98	30728.89
581.14	30611.87
581.30	30588.46
581.46	30293.55
581.62	30756.98
581.78	29940.13
581.94	30223.34
582.10	30323.98
582.26	30455.05
582.42	30370.79
582.58	30848.26
582.74	30553.35
582.90	30675.06
583.06	30646.97
583.22	30654.00
583.38	30895.07
583.54	30457.39
583.70	30417.60
583.86	30380.15
584.02	30597.82
584.18	31363.18
584.34	30747.62
584.50	30780.39
584.66	30520.59
584.82	30408.24
584.98	30218.66
585.14	30639.95
585.30	30359.09
585.46	30579.10
585.62	30719.53
585.78	30745.28
585.94	30401.22
586.10	30756.98
586.26	30581.44
586.42	30677.40
586.58	30803.79
586.74	30621.23
586.90	30401.22
587.06	30520.59
587.22	30338.02
587.38	30288.87
587.54	30609.53
587.70	31309.35
587.86	30803.79
588.02	30766.34
588.18	31065.93
588.34	30976.99
588.49	31026.14
588.65	30602.50
588.81	30443.35
588.97	30459.73
589.13	30651.66
589.29	30408.24
589.45	30749.96
589.61	30663.36
589.77	30897.41
589.93	31119.76
590.08	31023.80
590.24	31051.89
590.40	30878.69
590.56	31098.70
590.72	30527.61
590.88	30794.43
591.04	30946.56
591.20	31227.43
591.35	31197.00
591.51	31608.93
591.67	30911.46
591.83	31255.51
591.99	30902.09
