SpectraSuite Data File
++++++++++++++++++++++++++++++++++++
Date: Fri Oct 18 13:57:57 GMT-05:00 2013
User: bianchi
Dark Spectrum Present: No
Reference Spectrum Present: No
Number of Sampled Component Spectra: 1
Spectrometers: USB2+H05261
Integration Time (usec): 50000 (USB2+H05261)
Spectra Averaged: 1 (USB2+H05261)
Boxcar Smoothing: 0 (USB2+H05261)
Correct for Electrical Dark: No (USB2+H05261)
Strobe/Lamp Enabled: No (USB2+H05261)
Correct for Detector Non-linearity: No (USB2+H05261)
Correct for Stray Light: No (USB2+H05261)
Number of Pixels in Processed Spectrum: 2048
>>>>>Begin Processed Spectral Data<<<<<
365.73	0.00
365.92	0.00
366.12	0.00
366.32	0.00
366.52	0.00
366.72	0.00
366.91	0.00
367.11	0.00
367.31	0.00
367.51	0.00
367.70	0.00
367.90	0.00
368.10	0.00
368.30	0.00
368.49	0.00
368.69	0.00
368.89	0.00
369.09	0.00
369.28	0.00
369.48	0.00
369.68	0.00
369.87	0.00
370.07	0.00
370.27	0.00
370.47	0.00
370.66	67.88
370.86	124.05
371.06	128.73
371.25	105.32
371.45	105.32
371.65	222.35
371.84	184.90
372.04	166.18
372.24	156.82
372.44	114.69
372.63	224.69
372.83	224.69
373.03	210.65
373.22	166.18
373.42	205.97
373.62	208.31
373.81	217.67
374.01	229.37
374.21	238.73
374.40	231.71
374.60	173.20
374.79	203.63
374.99	220.01
375.19	175.54
375.38	315.97
375.58	297.25
375.78	257.46
375.97	212.99
376.17	283.20
376.37	308.95
376.56	315.97
376.76	276.18
376.95	297.25
377.15	252.78
377.35	330.02
377.54	224.69
377.74	297.25
377.93	264.48
378.13	163.84
378.33	334.70
378.52	245.76
378.72	315.97
378.91	245.76
379.11	222.35
379.31	292.57
379.50	217.67
379.70	341.72
379.89	290.23
380.09	285.55
380.28	241.08
380.48	301.93
380.68	276.18
380.87	278.52
381.07	365.12
381.26	264.48
381.46	330.02
381.65	313.63
381.85	337.04
382.04	271.50
382.24	360.44
382.43	320.65
382.63	388.53
382.83	315.97
383.02	402.57
383.22	355.76
383.41	386.19
383.61	315.97
383.80	358.10
384.00	339.38
384.19	344.06
384.39	353.42
384.58	334.70
384.78	358.10
384.97	421.30
385.17	365.12
385.36	374.49
385.56	348.74
385.75	409.59
385.95	376.83
386.14	397.89
386.34	369.80
386.53	358.10
386.72	393.21
386.92	428.32
387.11	489.17
387.31	498.53
387.50	435.34
387.70	440.02
387.89	440.02
388.09	456.40
388.28	411.93
388.48	444.70
388.67	521.94
388.86	454.06
389.06	456.40
389.25	503.22
389.45	512.58
389.64	503.22
389.84	447.04
390.03	578.11
390.22	458.74
390.42	533.64
390.61	538.32
390.81	421.30
391.00	540.66
391.19	568.75
391.39	613.22
391.58	582.79
391.78	512.58
391.97	573.43
392.16	512.58
392.36	500.87
392.55	463.43
392.75	608.54
392.94	587.47
393.13	589.82
393.33	470.45
393.52	582.79
393.71	528.96
393.91	610.88
394.10	533.64
394.29	596.84
394.49	629.60
394.68	554.71
394.88	587.47
395.07	615.56
395.26	627.26
395.46	697.48
395.65	613.22
395.84	617.90
396.04	702.16
396.23	631.94
396.42	660.03
396.62	676.41
396.81	657.69
397.00	711.52
397.19	711.52
397.39	692.80
397.58	641.31
397.77	692.80
397.97	741.95
398.16	669.39
398.35	692.80
398.55	697.48
398.74	695.14
398.93	772.38
399.12	774.72
399.32	664.71
399.51	709.18
399.70	753.65
399.90	674.07
400.09	800.46
400.28	781.74
400.47	779.40
400.67	847.27
400.86	819.19
401.05	786.42
401.24	816.85
401.44	837.91
401.63	847.27
401.82	821.53
402.01	847.27
402.21	851.96
402.40	814.51
402.59	809.83
402.78	945.58
402.97	915.15
403.17	931.53
403.36	830.89
403.55	922.17
403.74	959.62
403.93	835.57
404.13	880.04
404.32	931.53
404.51	873.02
404.70	908.13
404.89	880.04
405.09	976.00
405.28	931.53
405.47	861.32
405.66	1055.58
405.85	1069.62
406.05	1090.69
406.24	1013.45
406.43	1006.43
406.62	992.39
406.81	1156.22
407.00	1067.28
407.20	1076.65
407.39	1057.92
407.58	1083.67
407.77	1116.44
407.96	1158.57
408.15	1090.69
408.34	1069.62
408.54	1095.37
408.73	1181.97
408.92	1128.14
409.11	1137.50
409.30	1116.44
409.49	1081.33
409.68	1114.10
409.87	1149.20
410.07	1118.78
410.26	1153.88
410.45	1146.86
410.64	1167.93
410.83	1341.13
411.02	1196.01
411.21	1277.93
411.40	1238.14
411.59	1294.32
411.78	1291.98
411.98	1212.40
412.17	1345.81
412.36	1291.98
412.55	1315.38
412.74	1458.15
412.93	1324.74
413.12	1390.28
413.31	1390.28
413.50	1427.73
413.69	1394.96
413.88	1547.09
414.07	1448.79
414.26	1533.05
414.45	1376.24
414.64	1533.05
414.83	1420.71
415.02	1563.48
415.22	1554.12
415.41	1692.21
415.60	1629.01
415.79	1629.01
415.98	1673.48
416.17	1565.82
416.36	1668.80
416.55	1703.91
416.74	1703.91
416.93	1715.61
417.12	1652.42
417.31	1638.38
417.50	1743.70
417.69	1849.02
417.88	1717.95
418.07	1727.32
418.26	1783.49
418.45	1769.44
418.64	1909.88
418.83	1863.07
419.02	1767.10
419.21	1816.26
419.39	1872.43
419.58	1900.52
419.77	1891.15
419.96	1909.88
420.15	1909.88
420.34	1881.79
420.53	1881.79
420.72	1996.48
420.91	1923.92
421.10	1949.67
421.29	2071.37
421.48	1870.09
421.67	1952.01
421.86	2012.86
422.05	1991.80
422.24	1956.69
422.43	2024.56
422.61	1952.01
422.80	2019.88
422.99	2106.48
423.18	2153.29
423.37	2120.53
423.56	1996.48
423.75	2101.80
423.94	2054.99
424.13	1909.88
424.32	1935.62
424.50	2045.63
424.69	2029.24
424.88	2090.10
425.07	2024.56
425.26	2078.40
425.45	2090.10
425.64	2047.97
425.83	2125.21
426.01	2139.25
426.20	2111.16
426.39	2052.65
426.58	2029.24
426.77	2228.19
426.96	2139.25
427.15	2232.87
427.33	2179.04
427.52	2136.91
427.71	2197.76
427.90	2136.91
428.09	2214.15
428.28	2195.42
428.46	2214.15
428.65	2263.30
428.84	2291.38
429.03	2406.07
429.22	2204.78
429.40	2237.55
429.59	2214.15
429.78	2106.48
429.97	2181.38
430.16	2286.70
430.34	2387.35
430.53	2363.94
430.72	2340.54
430.91	2263.30
431.10	2333.51
431.28	2429.48
431.47	2396.71
431.66	2370.96
431.85	2270.32
432.03	2476.29
432.22	2548.84
432.41	2464.58
432.60	2478.63
432.79	2434.16
432.97	2438.84
433.16	2450.54
433.35	2495.01
433.54	2509.05
433.72	2450.54
433.91	2532.46
434.10	2548.84
434.28	2546.50
434.47	2539.48
434.66	2672.89
434.85	2698.64
435.03	2630.76
435.22	2626.08
435.41	2686.94
435.59	2661.19
435.78	2663.53
435.97	2696.30
436.16	2792.26
436.34	2752.47
436.53	2703.32
436.72	2839.07
436.90	2726.72
437.09	2839.07
437.28	2708.00
437.46	2782.90
437.65	2670.55
437.84	2874.18
438.02	2869.50
438.21	2874.18
438.40	2913.97
438.58	2916.31
438.77	2974.82
438.96	2885.88
439.14	2925.67
439.33	3103.55
439.52	3016.95
439.70	2984.18
439.89	3054.40
440.08	3049.72
440.26	3094.19
440.45	3136.32
440.63	3150.36
440.82	3052.06
441.01	3162.06
441.19	3222.92
441.38	3206.53
441.57	3302.50
441.75	3258.03
441.94	3323.56
442.12	3421.86
442.31	3356.33
442.50	3454.63
442.68	3361.01
442.87	3349.31
443.05	3370.37
443.24	3370.37
443.43	3536.55
443.61	3309.52
443.80	3494.42
443.98	3499.10
444.17	3262.71
444.35	3368.03
444.54	3508.46
444.73	3344.63
444.91	3531.87
445.10	3473.36
445.28	3562.30
445.47	3417.18
445.65	3417.18
445.84	3506.12
446.02	3599.74
446.21	3482.72
446.39	3545.91
446.58	3531.87
446.77	3581.02
446.95	3452.29
447.14	3557.61
447.32	3655.92
447.51	3609.11
447.69	3632.51
447.88	3630.17
448.06	3742.52
448.25	3552.93
448.43	3695.71
448.62	3613.79
448.80	3646.55
448.99	3559.95
449.17	3698.05
449.36	3665.28
449.54	3836.14
449.73	3691.02
449.91	3843.16
450.10	3726.13
450.28	3772.94
450.46	3815.07
450.65	3861.88
450.83	3838.48
451.02	3831.46
451.20	3812.73
451.39	3936.78
451.57	3721.45
451.76	3782.31
451.94	3822.09
452.13	3939.12
452.31	3906.35
452.49	3880.61
452.68	3992.95
452.86	3889.97
453.05	3971.89
453.23	3985.93
453.42	3988.27
453.60	4016.36
453.78	3983.59
453.97	3824.44
454.15	3918.06
454.34	3985.93
454.52	4161.47
454.70	4030.40
454.89	4060.83
455.07	4114.66
455.26	4208.28
455.44	4128.70
455.62	4159.13
455.81	4016.36
455.99	4177.86
456.17	4273.82
456.36	4121.68
456.54	4217.65
456.73	4404.89
456.91	4409.57
457.09	4386.16
457.28	4421.27
457.46	4376.80
457.64	4428.29
457.83	4411.91
458.01	4360.42
458.19	4535.96
458.38	4395.53
458.56	4514.89
458.74	4395.53
458.93	4365.10
459.11	4498.51
459.29	4430.63
459.48	4585.11
459.66	4507.87
459.84	4484.47
460.03	4713.84
460.21	4758.31
460.39	4610.86
460.57	4545.32
460.76	4762.99
460.94	4777.03
461.12	4706.82
461.31	4755.97
461.49	4753.63
461.67	4681.07
461.85	4795.76
462.04	4709.16
462.22	5097.69
462.40	4894.06
462.59	4802.78
462.77	4851.93
462.95	4943.21
463.13	5109.39
463.32	4798.10
463.50	4990.02
463.68	4938.53
463.86	5128.11
464.05	4863.63
464.23	4933.85
464.41	5055.56
464.59	4882.36
464.78	5053.22
464.96	5046.20
465.14	5006.41
465.32	5151.52
465.50	5184.29
465.69	5172.58
465.87	5053.22
466.05	4992.36
466.23	5174.92
466.41	5294.29
466.60	5228.76
466.78	5266.21
466.96	5018.11
467.14	5088.32
467.32	5275.57
467.51	5142.16
467.69	5069.60
467.87	5221.74
468.05	5320.04
468.23	5247.48
468.41	5266.21
468.60	5329.40
468.78	5331.74
468.96	5207.69
469.14	5383.23
469.32	5626.65
469.50	5392.59
469.69	5359.83
469.87	5479.19
470.05	5640.69
470.23	5427.70
470.41	5521.32
470.59	5645.37
470.77	5591.54
470.95	5603.24
471.14	5753.04
471.32	5738.99
471.50	5764.74
471.68	5926.24
471.86	5790.49
472.04	5682.82
472.22	6059.65
472.40	5614.95
472.58	5769.42
472.77	5659.42
472.95	5874.74
473.13	6150.93
473.31	5856.02
473.49	5863.04
473.67	5827.93
473.85	5973.05
474.03	6221.14
474.21	6174.33
474.39	6134.54
474.57	6326.47
474.75	6303.06
474.93	6211.78
475.12	6265.61
475.30	6317.11
475.48	6265.61
475.66	6363.92
475.84	6438.81
476.02	6537.12
476.20	6408.39
476.38	6406.05
476.56	6733.72
476.74	6846.07
476.92	6621.38
477.10	6752.45
477.28	6857.77
477.46	6778.19
477.64	7133.95
477.82	6876.49
478.00	7197.15
478.18	7103.53
478.36	7068.42
478.54	7372.69
478.72	7283.75
478.90	7229.91
479.08	7342.26
479.26	7447.58
479.44	7447.58
479.62	7377.37
479.80	7515.46
479.98	7658.23
480.16	7688.66
480.34	7716.75
480.52	7822.07
480.70	7852.50
480.88	7793.98
481.06	7719.09
481.24	8021.02
481.41	7826.75
481.59	7868.88
481.77	8058.46
481.95	8063.15
482.13	8264.43
482.31	8294.86
482.49	8421.25
482.67	8428.27
482.85	8458.70
483.03	8713.81
483.21	8784.03
483.39	8777.01
483.57	8861.27
483.74	9034.47
483.92	8882.33
484.10	8856.59
484.28	9078.94
484.46	9263.84
484.64	9284.91
484.82	9125.75
485.00	9270.86
485.18	9238.09
485.35	9692.16
485.53	9401.93
485.71	9778.76
485.89	9769.40
486.07	9645.35
486.25	9914.51
486.43	9923.87
486.61	10012.81
486.78	10122.82
486.96	10235.16
487.14	10342.83
487.32	10249.21
487.50	10235.16
487.68	10349.85
487.85	10480.92
488.03	10576.88
488.21	10745.40
488.39	10778.17
488.57	10876.47
488.75	10820.30
488.92	10860.09
489.10	11145.63
489.28	11218.19
489.46	11360.96
489.64	11384.37
489.81	11587.99
489.99	11616.08
490.17	11712.04
490.35	11578.63
490.53	11735.45
490.70	11793.96
490.88	12152.06
491.06	12035.03
491.24	11889.92
491.41	12152.06
491.59	12173.13
491.77	12250.36
491.95	12512.50
492.13	12334.62
492.30	12479.74
492.48	12421.22
492.66	12753.58
492.84	12620.17
493.01	12681.02
493.19	12943.16
493.37	12842.52
493.54	12959.55
493.72	13200.62
493.90	13242.75
494.08	13226.37
494.25	13268.50
494.43	13383.18
494.61	13598.51
494.79	13692.13
494.96	13619.58
495.14	13479.15
495.32	13860.65
495.49	13797.46
495.67	13816.18
495.85	14125.13
496.02	14185.99
496.20	14223.44
496.38	14181.31
496.55	14190.67
496.73	14303.01
496.91	14600.26
497.09	14670.48
497.26	14689.20
497.44	14642.39
497.62	14808.57
497.79	14815.59
497.97	14780.48
498.14	15110.50
498.32	14782.82
498.50	15496.69
498.67	15204.12
498.85	15407.75
499.03	15297.74
499.20	15215.82
499.38	15468.60
499.56	15389.02
499.73	15527.11
499.91	15604.35
500.08	15786.91
500.26	15655.84
500.44	15948.41
500.61	15976.50
500.79	15688.61
500.97	16322.90
501.14	16226.93
501.32	16346.30
501.49	16252.68
501.67	16009.26
501.84	16226.93
502.02	16095.86
502.20	16472.69
502.37	16308.85
502.55	16269.06
502.72	16332.26
502.90	16484.39
503.07	16531.20
503.25	16514.82
503.43	16596.74
503.60	16961.86
503.78	16978.25
503.95	17034.42
504.13	16826.11
504.30	17249.75
504.48	17003.99
504.65	17146.76
504.83	17006.33
505.01	17696.79
505.18	17334.01
505.36	17523.59
505.53	17404.22
505.71	17516.57
505.88	17619.55
506.06	17483.80
506.23	17687.43
506.41	17525.93
506.58	17841.90
506.76	17701.47
506.93	17954.25
507.11	17685.09
507.28	17839.56
507.46	18244.48
507.63	18125.11
507.81	18155.54
507.98	18190.64
508.16	18052.55
508.33	18328.74
508.50	17987.02
508.68	18462.15
508.85	18689.18
509.03	18207.03
509.20	18532.36
509.38	18719.60
509.55	18595.56
509.73	18654.07
509.90	18810.89
510.08	18637.69
510.25	19101.11
510.42	19035.58
510.60	18906.85
510.77	19171.33
510.95	19222.82
511.12	19147.92
511.30	19091.75
511.47	19218.14
511.64	19084.73
511.82	19332.82
511.99	19555.18
512.17	19491.98
512.34	19489.64
512.51	19648.80
512.69	19627.73
512.86	19840.72
513.04	19964.77
513.21	19829.02
513.38	19824.34
513.56	19714.33
513.73	20121.59
513.90	19599.65
514.08	20327.55
514.25	20088.82
514.43	20051.37
514.60	20060.73
514.77	20079.46
514.95	20273.72
515.12	20311.17
515.29	20301.81
515.47	20395.43
515.64	20769.91
515.81	20463.30
515.99	20659.91
516.16	20790.98
516.33	20592.03
516.51	20905.66
516.68	20933.75
516.85	20631.82
517.03	21312.92
517.20	20823.75
517.37	20915.03
517.54	21067.16
517.72	21010.99
517.89	21067.16
518.06	21142.06
518.24	21380.79
518.41	21256.75
518.58	21205.25
518.75	21298.88
518.93	21329.30
519.10	21223.98
519.27	21483.78
519.45	21432.29
519.62	21612.51
519.79	21621.87
519.96	21336.32
520.14	21886.35
520.31	21851.24
520.48	21909.75
520.65	21626.55
520.83	21986.99
521.00	21717.83
521.17	21757.62
521.34	22211.68
521.52	21806.77
521.69	22188.28
521.86	22326.37
522.03	22059.55
522.20	22396.59
522.38	22394.25
522.55	22466.80
522.72	22508.93
522.89	22415.31
523.07	22480.85
523.24	22602.55
523.41	22813.20
523.58	22602.55
523.75	22527.66
523.92	22775.75
524.10	22675.11
524.27	22742.99
524.44	22700.86
524.61	23115.13
524.78	22855.33
524.96	22780.43
525.13	22761.71
525.30	23021.51
525.47	23012.15
525.64	23173.64
525.81	23220.45
525.98	23276.63
526.16	23346.84
526.33	23178.33
526.50	23503.66
526.67	23194.71
526.84	23494.30
527.01	23271.95
527.18	23295.35
527.36	23293.01
527.53	23789.20
527.70	23908.57
527.87	24119.22
528.04	23541.11
528.21	23894.53
528.38	24004.53
528.55	23810.27
528.72	23630.05
528.89	24060.71
529.07	24107.52
529.24	24032.62
529.41	24013.90
529.58	24063.05
529.75	24009.22
529.92	23939.00
530.09	24348.59
530.26	24559.24
530.43	24151.99
530.60	24119.22
530.77	24297.10
530.94	24463.28
531.11	24287.74
531.28	24247.95
531.46	24315.83
531.63	24451.58
531.80	24355.61
531.97	24531.15
532.14	24676.27
532.31	24554.56
532.48	24755.85
532.65	24790.95
532.82	24503.07
532.99	24540.52
533.16	24535.84
533.33	24926.71
533.50	25172.46
533.67	24952.45
533.84	24659.88
534.01	24699.67
534.18	24659.88
534.35	25053.09
534.52	24783.93
534.69	24889.26
534.86	25221.61
535.03	25160.76
535.20	25029.69
535.37	25516.52
535.54	25125.65
535.71	24961.81
535.88	25383.11
536.05	25151.40
536.22	25830.15
536.38	25542.27
536.55	25551.63
536.72	25453.33
536.89	25584.40
537.06	25450.99
537.23	25607.80
537.40	25727.17
537.57	25717.81
537.74	25891.01
537.91	25944.84
538.08	25560.99
538.25	25563.33
538.42	25986.97
538.59	26188.25
538.75	25750.57
538.92	26017.40
539.09	25692.06
539.26	26419.97
539.43	25993.99
539.60	26054.84
539.77	26085.27
539.94	26415.29
540.11	26075.91
540.28	26026.76
540.44	26164.85
540.61	26253.79
540.78	26096.97
540.95	26508.91
541.12	26326.35
541.29	26082.93
541.46	26569.76
541.62	26429.33
541.79	26391.88
541.96	26256.13
542.13	26267.83
542.30	26663.38
542.47	27110.43
542.63	26625.93
542.80	26981.70
542.97	27136.17
543.14	26544.02
543.31	26742.96
543.48	26899.78
543.64	26939.57
543.81	27070.64
543.98	26785.09
544.15	27040.21
544.32	27140.85
544.48	27487.25
544.65	27115.11
544.82	26885.73
544.99	27194.68
545.16	27426.40
545.32	27180.64
545.49	27428.74
545.66	27417.04
545.83	27325.75
546.00	27976.42
546.16	27550.45
546.33	27398.31
546.50	27185.32
546.67	27536.40
546.83	27000.42
547.00	27578.53
547.17	27681.52
547.34	27391.29
547.50	27803.22
547.67	28009.19
547.84	27536.40
548.00	27805.56
548.17	28079.41
548.34	27929.61
548.51	28046.64
548.67	28130.90
548.84	28236.22
549.01	28006.85
549.18	27824.29
549.34	27704.92
549.51	27772.80
549.68	27936.63
549.84	27623.00
550.01	28182.39
550.18	27985.79
550.34	28325.16
550.51	28173.03
550.68	28231.54
550.84	28011.53
551.01	28400.06
551.18	27948.34
551.34	28339.21
551.51	28009.19
551.68	28130.90
551.84	28638.80
552.01	28240.90
552.18	28320.48
552.34	28313.46
552.51	28751.14
552.68	28149.62
552.84	28320.48
553.01	28423.47
553.18	28409.42
553.34	28432.83
553.51	28631.77
553.67	28622.41
553.84	28606.03
554.01	28854.12
554.17	29174.78
554.34	28709.01
554.51	28755.82
554.67	29060.09
554.84	28938.38
555.00	28606.03
555.17	28893.91
555.33	29017.96
555.50	28826.04
555.67	28676.24
555.83	28716.03
556.00	28950.09
556.16	29156.05
556.33	29209.89
556.50	28936.04
556.66	29013.28
556.83	29226.27
556.99	29340.96
557.16	29319.89
557.32	29490.75
557.49	29130.31
557.65	29181.80
557.82	29195.84
557.98	28978.17
558.15	29296.49
558.32	29170.10
558.48	28982.85
558.65	29291.80
558.81	29385.43
558.98	29570.33
559.14	29483.73
559.31	29240.31
559.47	29200.52
559.64	29273.08
559.80	29303.51
559.97	29345.64
560.13	29350.32
560.30	29638.20
560.46	29476.71
560.63	29661.61
560.79	29589.05
560.96	29638.20
561.12	29483.73
561.29	29457.98
561.45	29170.10
561.61	29607.78
561.78	29586.71
561.94	29766.93
562.11	29579.69
562.27	29795.02
562.44	29799.70
562.60	29446.28
562.77	29624.16
562.93	29476.71
563.10	29813.74
563.26	29404.15
563.42	29755.23
563.59	30022.05
563.75	29324.57
563.92	29926.09
564.08	29729.48
564.24	29919.07
564.41	29481.39
564.57	29509.47
564.74	30171.85
564.90	30033.75
565.07	29717.78
565.23	30284.19
565.39	29989.28
565.56	30387.18
565.72	29591.39
565.88	29546.92
566.05	30000.99
566.21	29663.95
566.38	29788.00
566.54	29844.17
566.70	30019.71
566.87	30190.57
567.03	30157.80
567.19	30314.62
567.36	30101.63
567.52	29558.63
567.68	30064.18
567.85	30057.16
568.01	30410.58
568.17	29912.05
568.34	29759.91
568.50	30057.16
568.66	30204.61
568.83	30288.87
568.99	29968.22
569.15	30277.17
569.32	29977.58
569.48	29881.62
569.64	30103.97
569.81	29876.94
569.97	29996.31
570.13	30445.69
570.30	30122.69
570.46	30408.24
570.62	30307.60
570.78	30354.41
570.95	30277.17
571.11	30146.10
571.27	29977.58
571.43	29809.06
571.60	30246.74
571.76	30206.95
571.92	30192.91
572.09	30422.28
572.25	30632.93
572.41	30469.09
572.57	30366.11
572.74	30288.87
572.90	29977.58
573.06	30169.51
573.22	30197.59
573.38	30572.08
573.55	30455.05
573.71	30644.63
573.87	30565.06
574.03	30267.81
574.20	30387.18
574.36	30202.27
574.52	30333.34
574.68	30237.38
574.84	30382.49
575.01	30326.32
575.17	30279.51
575.33	30096.95
575.49	30335.68
575.65	30452.71
575.82	30876.35
575.98	30527.61
576.14	30511.22
576.30	30277.17
576.46	30040.78
576.62	30553.35
576.79	30462.07
576.95	30134.40
577.11	30803.79
577.27	30520.59
577.43	30665.70
577.59	30579.10
577.75	30792.09
577.92	30331.00
578.08	30204.61
578.24	30174.19
578.40	30235.04
578.56	30543.99
578.72	30593.14
578.88	30579.10
579.04	31122.10
579.21	30728.89
579.37	30712.51
579.53	30478.46
579.69	30347.39
579.85	30459.73
580.01	30284.19
580.17	30508.88
580.33	30787.41
580.49	30331.00
580.65	30450.37
580.82	31077.63
580.98	30787.41
581.14	30436.33
581.30	30600.16
581.46	30553.35
581.62	30724.21
581.78	30698.47
581.94	30899.75
582.10	30616.55
582.26	30562.72
582.42	30960.61
582.58	30892.73
582.74	30834.22
582.90	30817.83
583.06	30829.54
583.22	30309.94
583.38	30618.89
583.54	30583.78
583.70	30668.04
583.86	30658.68
584.02	30504.20
584.18	30581.44
584.34	30864.64
584.50	30558.03
584.66	30876.35
584.82	30370.79
584.98	30312.28
585.14	30756.98
585.30	30689.10
585.46	30583.78
585.62	30656.34
585.78	31159.55
585.94	30609.53
586.10	30967.63
586.26	30801.45
586.42	31087.00
586.58	30955.93
586.74	30885.71
586.90	30419.94
587.06	30773.36
587.22	30764.00
587.38	30265.47
587.54	30665.70
587.70	31175.94
587.86	30937.20
588.02	31264.88
588.18	31278.92
588.34	31070.61
588.49	30934.86
588.65	30955.93
588.81	31363.18
588.97	30972.31
589.13	31009.76
589.29	30918.48
589.45	30953.58
589.61	31311.69
589.77	31477.86
589.93	31262.54
590.08	31491.91
590.24	31016.78
590.40	31353.82
590.56	30995.71
590.72	30581.44
590.88	31133.81
591.04	31140.83
591.20	31260.20
591.35	31246.15
591.51	31220.41
591.67	31108.06
591.83	31655.75
