SpectraSuite Data File
++++++++++++++++++++++++++++++++++++
Date: Fri Oct 18 13:57:54 GMT-05:00 2013
User: bianchi
Dark Spectrum Present: No
Reference Spectrum Present: No
Number of Sampled Component Spectra: 1
Spectrometers: USB2+H05261
Integration Time (usec): 50000 (USB2+H05261)
Spectra Averaged: 1 (USB2+H05261)
Boxcar Smoothing: 0 (USB2+H05261)
Correct for Electrical Dark: No (USB2+H05261)
Strobe/Lamp Enabled: No (USB2+H05261)
Correct for Detector Non-linearity: No (USB2+H05261)
Correct for Stray Light: No (USB2+H05261)
Number of Pixels in Processed Spectrum: 2048
>>>>>Begin Processed Spectral Data<<<<<
365.73	0.00
365.92	0.00
366.12	0.00
366.32	0.00
366.52	0.00
366.72	0.00
366.91	0.00
367.11	0.00
367.31	0.00
367.51	0.00
367.70	0.00
367.90	0.00
368.10	0.00
368.30	0.00
368.49	0.00
368.69	0.00
368.89	0.00
369.09	0.00
369.28	0.00
369.48	0.00
369.68	0.00
369.87	0.00
370.07	0.00
370.27	0.00
370.47	0.00
370.66	102.98
370.86	138.09
371.06	170.86
371.25	121.71
371.45	138.09
371.65	149.79
371.84	138.09
372.04	119.37
372.24	154.48
372.44	182.56
372.63	154.48
372.83	187.24
373.03	196.60
373.22	266.82
373.42	217.67
373.62	285.55
373.81	117.03
374.01	145.11
374.21	203.63
374.40	138.09
374.60	259.80
374.79	220.01
374.99	159.16
375.19	259.80
375.38	266.82
375.58	212.99
375.78	229.37
375.97	308.95
376.17	217.67
376.37	269.16
376.56	243.42
376.76	234.05
376.95	301.93
377.15	297.25
377.35	266.82
377.54	283.20
377.74	255.12
377.93	266.82
378.13	208.31
378.33	241.08
378.52	322.99
378.72	322.99
378.91	255.12
379.11	332.36
379.31	308.95
379.50	308.95
379.70	306.61
379.89	428.32
380.09	299.59
380.28	287.89
380.48	276.18
380.68	255.12
380.87	374.49
381.07	337.04
381.26	414.27
381.46	407.25
381.65	337.04
381.85	306.61
382.04	337.04
382.24	348.74
382.43	344.06
382.63	330.02
382.83	318.31
383.02	346.40
383.22	393.21
383.41	348.74
383.61	397.89
383.80	507.90
384.00	327.68
384.19	306.61
384.39	365.12
384.58	376.83
384.78	451.72
384.97	337.04
385.17	386.19
385.36	381.51
385.56	337.04
385.75	299.59
385.95	418.96
386.14	461.09
386.34	411.93
386.53	407.25
386.72	393.21
386.92	397.89
387.11	355.76
387.31	447.04
387.50	430.66
387.70	447.04
387.89	444.70
388.09	383.85
388.28	433.00
388.48	470.45
388.67	435.34
388.86	430.66
389.06	533.64
389.25	418.96
389.45	491.51
389.64	379.17
389.84	442.36
390.03	437.68
390.22	538.32
390.42	517.26
390.61	433.00
390.81	475.13
391.00	470.45
391.19	428.32
391.39	505.56
391.58	482.15
391.78	414.27
391.97	498.53
392.16	596.84
392.36	566.41
392.55	538.32
392.75	505.56
392.94	514.92
393.13	500.87
393.33	517.26
393.52	617.90
393.71	564.07
393.91	589.82
394.10	557.05
394.29	641.31
394.49	650.67
394.68	627.26
394.88	540.66
395.07	589.82
395.26	631.94
395.46	610.88
395.65	650.67
395.84	606.20
396.04	706.84
396.23	706.84
396.42	688.12
396.62	669.39
396.81	627.26
397.00	676.41
397.19	741.95
397.39	718.54
397.58	664.71
397.77	655.35
397.97	739.61
398.16	653.01
398.35	765.36
398.55	704.50
398.74	653.01
398.93	746.63
399.12	713.86
399.32	685.78
399.51	744.29
399.70	765.36
399.90	798.12
400.09	826.21
400.28	741.95
400.47	713.86
400.67	847.27
400.86	816.85
401.05	786.42
401.24	823.87
401.44	791.10
401.63	802.80
401.82	755.99
402.01	791.10
402.21	826.21
402.40	819.19
402.59	758.33
402.78	866.00
402.97	877.70
403.17	844.93
403.36	788.76
403.55	961.96
403.74	954.94
403.93	959.62
404.13	903.45
404.32	854.30
404.51	931.53
404.70	992.39
404.89	905.79
405.09	898.77
405.28	1022.81
405.47	912.81
405.66	945.58
405.85	964.30
406.05	978.34
406.24	1032.18
406.43	973.66
406.62	1027.50
406.81	1111.75
407.00	1008.77
407.20	1064.94
407.39	1142.18
407.58	1142.18
407.77	1067.28
407.96	1008.77
408.15	1034.52
408.34	1149.20
408.54	1139.84
408.73	1078.99
408.92	1160.91
409.11	1151.54
409.30	1139.84
409.49	1027.50
409.68	1132.82
409.87	1245.16
410.07	1224.10
410.26	1284.95
410.45	1219.42
410.64	1177.29
410.83	1109.41
411.02	1320.06
411.21	1352.83
411.40	1322.40
411.59	1338.79
411.78	1308.36
411.98	1254.53
412.17	1336.45
412.36	1378.58
412.55	1359.85
412.74	1327.08
412.93	1392.62
413.12	1322.40
413.31	1533.05
413.50	1317.72
413.69	1455.81
413.88	1413.68
414.07	1458.15
414.26	1423.05
414.45	1547.09
414.64	1519.01
414.83	1586.88
415.02	1575.18
415.22	1591.56
415.41	1540.07
415.60	1654.76
415.79	1638.38
415.98	1610.29
416.17	1682.85
416.36	1664.12
416.55	1631.35
416.74	1631.35
416.93	1703.91
417.12	1664.12
417.31	1767.10
417.50	1790.51
417.69	1762.42
417.88	1654.76
418.07	1802.21
418.26	1739.02
418.45	1795.19
418.64	1909.88
418.83	1804.55
419.02	1809.23
419.21	1877.11
419.39	1844.34
419.58	1884.13
419.77	1783.49
419.96	1905.20
420.15	1846.68
420.34	1846.68
420.53	1860.73
420.72	1935.62
420.91	1942.64
421.10	2024.56
421.29	1893.49
421.48	1907.54
421.67	2054.99
421.86	1937.96
422.05	2019.88
422.24	1966.05
422.43	1994.14
422.61	1961.37
422.80	2078.40
422.99	2092.44
423.18	2076.06
423.37	2176.70
423.56	2015.20
423.75	2087.76
423.94	2008.18
424.13	1886.47
424.32	1830.30
424.50	2024.56
424.69	2038.61
424.88	2127.55
425.07	2064.35
425.26	2005.84
425.45	1980.09
425.64	2129.89
425.83	2176.70
426.01	2134.57
426.20	2153.29
426.39	2139.25
426.58	2106.48
426.77	2118.18
426.96	2085.42
427.15	2127.55
427.33	2169.68
427.52	2148.61
427.71	2172.02
427.90	2249.25
428.09	2218.83
428.28	2148.61
428.46	2167.34
428.65	2214.15
428.84	2251.60
429.03	2289.04
429.22	2289.04
429.40	2338.20
429.59	2282.02
429.78	2218.83
429.97	2157.97
430.16	2258.62
430.34	2307.77
430.53	2361.60
430.72	2459.90
430.91	2300.75
431.10	2363.94
431.28	2441.18
431.47	2342.88
431.66	2459.90
431.85	2441.18
432.03	2452.88
432.22	2562.89
432.41	2410.75
432.60	2473.95
432.79	2532.46
432.97	2420.11
433.16	2457.56
433.35	2597.99
433.54	2574.59
433.72	2647.15
433.91	2600.34
434.10	2546.50
434.28	2527.78
434.47	2588.63
434.66	2724.38
434.85	2719.70
435.03	2679.91
435.22	2647.15
435.41	2686.94
435.59	2663.53
435.78	2789.92
435.97	2691.62
436.16	2740.77
436.34	2628.42
436.53	2663.53
436.72	2759.49
436.90	2651.83
437.09	2796.94
437.28	2712.68
437.46	2780.56
437.65	2754.81
437.84	2857.79
438.02	2878.86
438.21	2853.11
438.40	2857.79
438.58	2951.42
438.77	2820.35
438.96	2923.33
439.14	3019.29
439.33	3040.36
439.52	3026.31
439.70	3033.33
439.89	3014.61
440.08	3059.08
440.26	3094.19
440.45	3122.27
440.63	2995.89
440.82	3068.44
441.01	3089.51
441.19	3173.77
441.38	3269.73
441.57	3330.58
441.75	3316.54
441.94	3267.39
442.12	3288.45
442.31	3496.76
442.50	3382.07
442.68	3295.47
442.87	3283.77
443.05	3398.46
443.24	3398.46
443.43	3449.95
443.61	3379.73
443.80	3555.27
443.98	3405.48
444.17	3321.22
444.35	3468.67
444.54	3428.88
444.73	3529.53
444.91	3482.72
445.10	3447.61
445.28	3541.23
445.47	3386.76
445.65	3536.55
445.84	3461.65
446.02	3627.83
446.21	3632.51
446.39	3468.67
446.58	3527.19
446.77	3583.36
446.95	3433.57
447.14	3562.30
447.32	3583.36
447.51	3522.51
447.69	3510.80
447.88	3681.66
448.06	3606.77
448.25	3545.91
448.43	3562.30
448.62	3562.30
448.80	3566.98
448.99	3794.01
449.17	3623.15
449.36	3597.40
449.54	3737.84
449.73	3660.60
449.91	3740.18
450.10	3709.75
450.28	3758.90
450.46	3772.94
450.65	3887.63
450.83	3840.82
451.02	3791.67
451.20	3758.90
451.39	3904.01
451.57	3798.69
451.76	3922.74
451.94	3908.69
452.13	3861.88
452.31	3974.23
452.49	3864.22
452.68	4025.72
452.86	3932.10
453.05	3915.72
453.23	4131.05
453.42	4102.96
453.60	3861.88
453.78	3992.95
453.97	4028.06
454.15	4028.06
454.34	3981.25
454.52	3922.74
454.70	3889.97
454.89	4051.47
455.07	4194.24
455.26	4100.62
455.44	4112.32
455.62	4018.70
455.81	4180.20
455.99	4217.65
456.17	4273.82
456.36	4236.37
456.54	4210.62
456.73	4341.69
456.91	4339.35
457.09	4266.80
457.28	4400.21
457.46	4234.03
457.64	4418.93
457.83	4248.07
458.01	4344.03
458.19	4531.28
458.38	4423.61
458.56	4517.23
458.74	4498.51
458.93	4540.64
459.11	4437.66
459.29	4442.34
459.48	4423.61
459.66	4617.88
459.84	4674.05
460.03	4711.50
460.21	4538.30
460.39	4737.24
460.57	4578.09
460.76	4692.77
460.94	4645.96
461.12	4664.69
461.31	4767.67
461.49	4727.88
461.67	4802.78
461.85	4716.18
462.04	4652.98
462.22	4947.89
462.40	4898.74
462.59	4959.60
462.77	4718.52
462.95	4826.18
463.13	4847.25
463.32	4990.02
463.50	4887.04
463.68	4753.63
463.86	4788.74
464.05	4868.31
464.23	4929.17
464.41	5048.54
464.59	4933.85
464.78	5029.81
464.96	4877.68
465.14	4975.98
465.32	5081.30
465.50	5078.96
465.69	5081.30
465.87	4968.96
466.05	5015.77
466.23	5186.63
466.41	5111.73
466.60	5343.44
466.78	4997.04
466.96	5174.92
467.14	5149.18
467.32	5287.27
467.51	5090.67
467.69	5078.96
467.87	5329.40
468.05	5331.74
468.23	5095.35
468.41	5301.31
468.60	5303.65
468.78	5385.57
468.96	5146.84
469.14	5383.23
469.32	5521.32
469.50	5408.98
469.69	5591.54
469.87	5476.85
470.05	5547.07
470.23	5605.58
470.41	5607.92
470.59	5617.29
470.77	5502.60
470.95	5502.60
471.14	5703.89
471.32	5572.82
471.50	5720.27
471.68	5713.25
471.86	5607.92
472.04	5640.69
472.22	6019.86
472.40	5769.42
472.58	5841.98
472.77	5970.71
472.95	5870.06
473.13	6080.71
473.31	5827.93
473.49	5720.27
473.67	5891.13
473.85	5987.09
474.03	6256.25
474.21	6019.86
474.39	6017.52
474.57	6239.87
474.75	6270.30
474.93	6251.57
475.12	6296.04
475.30	6319.45
475.48	6225.82
475.66	6377.96
475.84	6392.00
476.02	6494.99
476.20	6272.64
476.38	6532.44
476.56	6782.87
476.74	6473.92
476.92	6792.23
477.10	6642.44
477.28	6759.47
477.46	6740.74
477.64	6937.35
477.82	6979.48
478.00	7005.22
478.18	7042.67
478.36	7040.33
478.54	7176.08
478.72	7098.84
478.90	7328.22
479.08	7332.90
479.26	7192.47
479.44	7417.16
479.62	7438.22
479.80	7503.76
479.98	7566.95
480.16	7845.48
480.34	7702.70
480.52	7782.28
480.70	7758.88
480.88	7681.64
481.06	7808.03
481.24	7747.17
481.41	8011.65
481.59	8095.91
481.77	8149.75
481.95	8231.66
482.13	8189.53
482.31	8234.00
482.49	8573.38
482.67	8439.97
482.85	8439.97
483.03	8617.85
483.21	8793.39
483.39	8503.17
483.57	8966.59
483.74	8809.78
483.92	9020.42
484.10	8894.04
484.28	9219.37
484.46	9146.81
484.64	9380.87
484.82	9163.20
485.00	9249.80
485.18	9341.08
485.35	9476.83
485.53	9724.93
485.71	9724.93
485.89	9940.26
486.07	9797.48
486.25	9891.10
486.43	9886.42
486.61	9774.08
486.78	10078.35
486.96	10031.54
487.14	10377.94
487.32	10218.78
487.50	10305.38
487.68	10469.22
487.85	10464.54
488.03	10457.51
488.21	10766.46
488.39	10740.72
488.57	10874.13
488.75	10876.47
488.92	11274.36
489.10	11304.79
489.28	11197.12
489.46	11108.18
489.64	11489.69
489.81	11393.73
489.99	11660.55
490.17	11672.25
490.35	11751.83
490.53	11611.40
490.70	11803.32
490.88	11840.77
491.06	12142.70
491.24	11901.62
491.41	11932.05
491.59	12173.13
491.77	12318.24
491.95	12500.80
492.13	12578.04
492.30	12659.96
492.48	12603.78
492.66	12627.19
492.84	12835.50
493.01	12886.99
493.19	12865.92
493.37	13064.87
493.54	13420.63
493.72	12936.14
493.90	13125.72
494.08	13296.58
494.25	13476.80
494.43	13420.63
494.61	13678.09
494.79	13659.37
494.96	13942.57
495.14	13743.63
495.32	13696.82
495.49	13685.11
495.67	13760.01
495.85	13994.06
496.02	14059.60
496.20	14129.81
496.38	14295.99
496.55	14223.44
496.73	14546.43
496.91	14345.14
497.09	14654.09
497.26	14656.43
497.44	14485.58
497.62	14501.96
497.79	14799.21
497.97	14724.31
498.14	15005.17
498.32	14986.45
498.50	15234.55
498.67	15236.89
498.85	15082.41
499.03	15316.47
499.20	15206.46
499.38	15534.14
499.56	15503.71
499.73	15438.17
499.91	15527.11
500.08	15522.43
500.26	15859.47
500.44	15852.45
500.61	15700.31
500.79	15906.28
500.97	16037.35
501.14	16163.74
501.32	16095.86
501.49	16262.04
501.67	16095.86
501.84	16222.25
502.02	15910.96
502.20	16421.20
502.37	16280.77
502.55	16664.61
502.72	16465.67
502.90	16798.02
503.07	16486.73
503.25	16748.87
503.43	16641.21
503.60	16596.74
503.78	16805.05
503.95	16748.87
504.13	16854.20
504.30	17181.87
504.48	17036.76
504.65	17296.56
504.83	17207.62
505.01	17642.96
505.18	17392.52
505.36	17336.35
505.53	17425.29
505.71	17315.28
505.88	17287.20
506.06	17586.79
506.23	17713.17
506.41	17598.49
506.58	17554.02
506.76	17647.64
506.93	17752.96
507.11	17645.30
507.28	18106.38
507.46	17764.67
507.63	18108.72
507.81	18214.05
507.98	18263.20
508.16	18026.81
508.33	18363.84
508.50	18410.65
508.68	18232.77
508.85	18775.78
509.03	18637.69
509.20	18691.52
509.38	18878.76
509.55	18441.08
509.73	18806.20
509.90	18810.89
510.08	18843.65
510.25	18684.50
510.42	18803.86
510.60	19248.57
510.77	19023.87
510.95	19166.65
511.12	19166.65
511.30	19068.34
511.47	19487.30
511.64	19370.27
511.82	19482.62
511.99	19578.58
512.17	19576.24
512.34	19543.47
512.51	19789.23
512.69	19782.21
512.86	19594.96
513.04	19789.23
513.21	20142.65
513.38	19981.15
513.56	19854.76
513.73	19768.16
513.90	19995.20
514.08	19922.64
514.25	19943.70
514.43	20210.53
514.60	20084.14
514.77	20217.55
514.95	20042.01
515.12	20320.53
515.29	20493.73
515.47	20758.21
515.64	20688.00
515.81	20341.60
515.99	20458.62
516.16	21120.99
516.33	20699.70
516.51	20776.94
516.68	20592.03
516.85	20657.57
517.03	20905.66
517.20	20936.09
517.37	20938.43
517.54	20950.14
517.72	21275.47
517.89	20774.60
518.06	21097.59
518.24	21214.62
518.41	21460.37
518.58	21556.33
518.75	21254.40
518.93	21324.62
519.10	21425.26
519.27	21301.22
519.45	21717.83
519.62	21462.71
519.79	21289.51
519.96	21649.96
520.14	21682.72
520.31	21774.00
520.48	22057.21
520.65	22078.27
520.83	22288.92
521.00	21841.88
521.17	21935.50
521.34	21961.25
521.52	21902.73
521.69	21968.27
521.86	22342.75
522.03	21996.35
522.20	22249.13
522.38	22464.46
522.55	22195.30
522.72	22492.55
522.89	22501.91
523.07	22703.20
523.24	22333.39
523.41	22824.90
523.58	22515.95
523.75	22539.36
523.92	22841.29
524.10	22331.05
524.27	22661.07
524.44	22820.22
524.61	22838.95
524.78	22988.74
524.96	23028.53
525.13	22588.51
525.30	23229.82
525.47	23105.77
525.64	23140.88
525.81	23557.49
525.98	23353.87
526.16	23030.87
526.33	23468.55
526.50	23814.95
526.67	23461.53
526.84	23431.10
527.01	23590.26
527.18	23356.21
527.36	23611.32
527.53	23718.99
527.70	23992.83
527.87	23854.74
528.04	23573.88
528.21	23737.71
528.38	24011.56
528.55	23440.47
528.72	24070.07
528.89	24009.22
529.07	23812.61
529.24	23733.03
529.41	23992.83
529.58	23910.91
529.75	24137.94
529.92	24140.29
530.09	24041.98
530.26	24084.11
530.43	23948.36
530.60	24123.90
530.77	23878.15
530.94	24390.72
531.11	24217.52
531.28	24254.97
531.46	24620.10
531.63	24641.16
531.80	24608.39
531.97	24744.14
532.14	24891.60
532.31	24470.30
532.48	24779.25
532.65	25118.63
532.82	24463.28
532.99	24278.38
533.16	24507.75
533.33	25287.15
533.50	24959.47
533.67	25228.63
533.84	25074.16
534.01	25088.20
534.18	24727.76
534.35	25532.90
534.52	25214.59
534.69	25111.61
534.86	25404.17
535.03	25167.78
535.20	24889.26
535.37	25266.08
535.54	25563.33
535.71	25050.75
535.88	25186.50
536.05	25219.27
536.22	25624.18
536.38	25820.79
536.55	25720.15
536.72	25706.10
536.89	25528.22
537.06	25460.35
537.23	25626.53
537.40	25642.91
537.57	25551.63
537.74	25781.00
537.91	25881.64
538.08	26005.69
538.25	25961.22
538.42	25895.69
538.59	25846.54
538.75	25511.84
538.92	25841.85
539.09	25535.24
539.26	26061.87
539.43	26307.62
539.60	26146.12
539.77	25731.85
539.94	26047.82
540.11	26188.25
540.28	26101.65
540.44	25937.82
540.61	25818.45
540.78	26223.36
540.95	26101.65
541.12	26480.82
541.29	26160.17
541.46	26045.48
541.62	26450.39
541.79	26319.32
541.96	26178.89
542.13	26302.94
542.30	26562.74
542.47	26845.94
542.63	26546.36
542.80	26686.79
542.97	26665.72
543.14	27131.49
543.31	26911.48
543.48	26857.65
543.64	27185.32
543.81	27147.87
543.98	27084.68
544.15	27363.20
544.32	26944.25
544.48	27463.85
544.65	27211.07
544.82	27398.31
544.99	26927.86
545.16	27391.29
545.32	27147.87
545.49	27309.37
545.66	27374.91
545.83	27550.45
546.00	27655.77
546.16	27367.88
546.33	27276.60
546.50	27220.43
546.67	27267.24
546.83	27047.23
547.00	27386.61
547.17	27428.74
547.34	27328.10
547.50	28114.52
547.67	27569.17
547.84	27789.18
548.00	27594.92
548.17	27744.71
548.34	27702.58
548.51	28044.30
548.67	28470.28
548.84	28379.00
549.01	28135.58
549.18	28109.83
549.34	28070.04
549.51	27763.43
549.68	27714.28
549.84	28013.87
550.01	27981.10
550.18	27976.42
550.34	27955.36
550.51	28254.95
550.68	28226.86
550.84	27758.75
551.01	28180.05
551.18	27683.86
551.34	27702.58
551.51	28173.03
551.68	28311.12
551.84	28329.84
552.01	28034.94
552.18	28453.89
552.34	28386.02
552.51	28233.88
552.68	28177.71
552.84	28266.65
553.01	28311.12
553.18	28697.31
553.34	28606.03
553.51	28428.15
553.67	28809.65
553.84	28898.59
554.01	28666.88
554.17	28989.88
554.34	28325.16
554.51	28767.52
554.67	29020.30
554.84	28837.74
555.00	28519.43
555.17	28811.99
555.33	29029.66
555.50	28683.27
555.67	28856.46
555.83	28704.33
556.00	28973.49
556.16	29357.34
556.33	29085.84
556.50	28680.92
556.66	28879.87
556.83	29308.19
556.99	29244.99
557.16	29153.71
557.32	29298.83
557.49	29343.30
557.65	29167.76
557.82	29041.37
557.98	29132.65
558.15	29083.50
558.32	29036.69
558.48	29371.38
558.65	29432.24
558.81	29043.71
558.98	29207.55
559.14	29270.74
559.31	29371.38
559.47	29411.17
559.64	29469.69
559.80	29067.11
559.97	29544.58
560.13	29268.40
560.30	29301.17
560.46	29656.93
560.63	29827.79
560.79	29331.59
560.96	29617.14
561.12	29247.33
561.29	29467.34
561.45	29589.05
561.61	29649.91
561.78	29813.74
561.94	29717.78
562.11	29886.30
562.27	29656.93
562.44	29603.10
562.60	30118.01
562.77	29677.99
562.93	29640.54
563.10	29783.32
563.26	29521.18
563.42	30148.44
563.59	29928.43
563.75	29928.43
563.92	30375.47
564.08	29879.28
564.24	29525.86
564.41	29795.02
564.57	29820.77
564.74	30155.46
564.90	29795.02
565.07	30272.49
565.23	30047.80
565.39	30019.71
565.56	30029.07
565.72	30019.71
565.88	29937.79
566.05	29687.36
566.21	30197.59
566.38	29846.51
566.54	30096.95
566.70	30094.61
566.87	30307.60
567.03	30176.53
567.19	30316.96
567.36	29991.62
567.52	29696.72
567.68	30167.16
567.85	30085.25
568.01	30410.58
568.17	30321.64
568.34	30424.62
568.50	30192.91
568.66	29963.54
568.83	29998.65
568.99	30373.13
569.15	30068.86
569.32	30258.45
569.48	30408.24
569.64	30202.27
569.81	29858.21
569.97	30319.30
570.13	30389.52
570.30	29907.37
570.46	30342.70
570.62	29942.47
570.78	30340.36
570.95	30146.10
571.11	30157.80
571.27	29965.88
571.43	30321.64
571.60	30424.62
571.76	29909.71
571.92	30441.01
572.09	30534.63
572.25	30609.53
572.41	30705.49
572.57	30621.23
572.74	30431.65
572.90	30361.43
573.06	30221.00
573.22	30087.59
573.38	30122.69
573.55	30267.81
573.71	30789.75
573.87	30527.61
574.03	30698.47
574.20	30778.04
574.36	30272.49
574.52	30316.96
574.68	30349.73
574.84	30457.39
575.01	30366.11
575.17	30590.80
575.33	30607.19
575.49	30543.99
575.65	30511.22
575.82	30246.74
575.98	30494.84
576.14	30941.88
576.30	30745.28
576.46	30553.35
576.62	30218.66
576.79	30515.90
576.95	30417.60
577.11	30710.17
577.27	30551.01
577.43	30913.80
577.59	30426.96
577.75	30775.70
577.92	30338.02
578.08	30457.39
578.24	30630.59
578.40	30258.45
578.56	30391.86
578.72	30448.03
578.88	30637.61
579.04	30951.24
579.21	30792.09
579.37	30417.60
579.53	30824.86
579.69	30302.92
579.85	30595.48
580.01	30529.95
580.17	30679.74
580.33	30532.29
580.49	30445.69
580.65	30483.14
580.82	30719.53
580.98	30841.24
581.14	30728.89
581.30	30979.33
581.46	30529.95
581.62	30597.82
581.78	30476.12
581.94	30689.10
582.10	30595.48
582.26	30347.39
582.42	30281.85
582.58	30913.80
582.74	30892.73
582.90	30904.43
583.06	30661.02
583.22	30398.88
583.38	30476.12
583.54	30345.05
583.70	30277.17
583.86	30904.43
584.02	30581.44
584.18	30696.13
584.34	30705.49
584.50	31182.96
584.66	30668.04
584.82	30546.33
584.98	30665.70
585.14	30836.56
585.30	30476.12
585.46	30717.19
585.62	30677.40
585.78	31016.78
585.94	30630.59
586.10	31168.91
586.26	30654.00
586.42	31234.45
586.58	31124.44
586.74	31152.53
586.90	30698.47
587.06	30583.78
587.22	30852.94
587.38	30859.96
587.54	31047.21
587.70	31049.55
587.86	31239.13
588.02	31021.46
588.18	31091.68
588.34	30782.73
588.49	30672.72
588.65	30799.11
588.81	30810.81
588.97	30525.27
589.13	30897.41
589.29	30672.72
589.45	30871.67
589.61	31405.31
589.77	31140.83
589.93	30988.69
590.08	31594.89
590.24	31470.84
590.40	31393.61
590.56	31262.54
590.72	30827.20
590.88	31021.46
591.04	30874.01
591.20	31456.80
591.35	31311.69
591.51	31789.16
591.67	31414.67
591.83	31145.51
