SpectraSuite Data File
++++++++++++++++++++++++++++++++++++
Date: Fri Oct 18 13:58:18 GMT-05:00 2013
User: bianchi
Dark Spectrum Present: No
Reference Spectrum Present: No
Number of Sampled Component Spectra: 1
Spectrometers: USB2+H05261
Integration Time (usec): 50000 (USB2+H05261)
Spectra Averaged: 1 (USB2+H05261)
Boxcar Smoothing: 0 (USB2+H05261)
Correct for Electrical Dark: No (USB2+H05261)
Strobe/Lamp Enabled: No (USB2+H05261)
Correct for Detector Non-linearity: No (USB2+H05261)
Correct for Stray Light: No (USB2+H05261)
Number of Pixels in Processed Spectrum: 2048
>>>>>Begin Processed Spectral Data<<<<<
365.73	0.00
365.92	0.00
366.12	0.00
366.32	0.00
366.52	0.00
366.72	0.00
366.91	0.00
367.11	0.00
367.31	0.00
367.51	0.00
367.70	0.00
367.90	0.00
368.10	0.00
368.30	0.00
368.49	0.00
368.69	0.00
368.89	0.00
369.09	0.00
369.28	0.00
369.48	0.00
369.68	0.00
369.87	0.00
370.07	0.00
370.27	0.00
370.47	0.00
370.66	60.85
370.86	126.39
371.06	79.58
371.25	168.52
371.45	84.26
371.65	105.32
371.84	229.37
372.04	166.18
372.24	128.73
372.44	177.88
372.63	224.69
372.83	215.33
373.03	173.20
373.22	243.42
373.42	248.10
373.62	285.55
373.81	208.31
374.01	180.22
374.21	308.95
374.40	227.03
374.60	269.16
374.79	227.03
374.99	276.18
375.19	191.92
375.38	245.76
375.58	292.57
375.78	220.01
375.97	161.50
376.17	257.46
376.37	252.78
376.56	322.99
376.76	201.29
376.95	196.60
377.15	276.18
377.35	271.50
377.54	259.80
377.74	231.71
377.93	304.27
378.13	252.78
378.33	259.80
378.52	337.04
378.72	294.91
378.91	301.93
379.11	262.14
379.31	304.27
379.50	271.50
379.70	337.04
379.89	252.78
380.09	278.52
380.28	269.16
380.48	390.87
380.68	355.76
380.87	285.55
381.07	259.80
381.26	234.05
381.46	248.10
381.65	264.48
381.85	386.19
382.04	304.27
382.24	360.44
382.43	304.27
382.63	294.91
382.83	285.55
383.02	358.10
383.22	400.23
383.41	332.36
383.61	358.10
383.80	425.98
384.00	369.80
384.19	334.70
384.39	339.38
384.58	400.23
384.78	390.87
384.97	397.89
385.17	393.21
385.36	393.21
385.56	393.21
385.75	325.33
385.95	393.21
386.14	435.34
386.34	397.89
386.53	376.83
386.72	444.70
386.92	451.72
387.11	418.96
387.31	543.00
387.50	404.91
387.70	393.21
387.89	416.62
388.09	407.25
388.28	456.40
388.48	400.23
388.67	449.38
388.86	411.93
389.06	390.87
389.25	484.49
389.45	444.70
389.64	543.00
389.84	498.53
390.03	400.23
390.22	489.17
390.42	423.64
390.61	409.59
390.81	423.64
391.00	587.47
391.19	435.34
391.39	470.45
391.58	486.83
391.78	491.51
391.97	503.22
392.16	514.92
392.36	620.24
392.55	519.60
392.75	416.62
392.94	454.06
393.13	547.69
393.33	477.47
393.52	552.37
393.71	566.41
393.91	521.94
394.10	564.07
394.29	587.47
394.49	512.58
394.68	545.34
394.88	594.50
395.07	631.94
395.26	571.09
395.46	683.44
395.65	634.29
395.84	582.79
396.04	634.29
396.23	624.92
396.42	699.82
396.62	631.94
396.81	667.05
397.00	709.18
397.19	725.57
397.39	564.07
397.58	667.05
397.77	615.56
397.97	702.16
398.16	702.16
398.35	655.35
398.55	727.91
398.74	718.54
398.93	748.97
399.12	688.12
399.32	683.44
399.51	748.97
399.70	683.44
399.90	716.20
400.09	809.83
400.28	828.55
400.47	737.27
400.67	711.52
400.86	730.25
401.05	802.80
401.24	723.23
401.44	849.61
401.63	873.02
401.82	940.90
402.01	774.72
402.21	814.51
402.40	830.89
402.59	805.14
402.78	917.49
402.97	903.45
403.17	908.13
403.36	772.38
403.55	800.46
403.74	905.79
403.93	915.15
404.13	866.00
404.32	950.26
404.51	849.61
404.70	940.90
404.89	851.96
405.09	875.36
405.28	954.94
405.47	1074.31
405.66	957.28
405.85	933.87
406.05	950.26
406.24	966.64
406.43	992.39
406.62	922.17
406.81	1076.65
407.00	997.07
407.20	929.19
407.39	1078.99
407.58	1078.99
407.77	1135.16
407.96	1125.80
408.15	994.73
408.34	1095.37
408.54	1088.35
408.73	1116.44
408.92	1170.27
409.11	1076.65
409.30	1130.48
409.49	1158.57
409.68	1053.24
409.87	1132.82
410.07	1153.88
410.26	1170.27
410.45	1172.61
410.64	1156.22
410.83	1219.42
411.02	1263.89
411.21	1242.82
411.40	1252.19
411.59	1322.40
411.78	1364.53
411.98	1270.91
412.17	1240.48
412.36	1315.38
412.55	1303.68
412.74	1345.81
412.93	1322.40
413.12	1291.98
413.31	1348.15
413.50	1336.45
413.69	1341.13
413.88	1483.90
414.07	1427.73
414.26	1390.28
414.45	1507.30
414.64	1530.71
414.83	1502.62
415.02	1544.75
415.22	1556.46
415.41	1528.37
415.60	1483.90
415.79	1572.84
415.98	1612.63
416.17	1591.56
416.36	1610.29
416.55	1685.19
416.74	1629.01
416.93	1561.14
417.12	1621.99
417.31	1589.22
417.50	1619.65
417.69	1708.59
417.88	1701.57
418.07	1614.97
418.26	1666.46
418.45	1795.19
418.64	1844.34
418.83	1795.19
419.02	1788.17
419.21	1975.41
419.39	1827.96
419.58	1839.66
419.77	1809.23
419.96	1933.28
420.15	1870.09
420.34	1849.02
420.53	1914.56
420.72	1881.79
420.91	1966.05
421.10	2045.63
421.29	2008.18
421.48	1856.04
421.67	1966.05
421.86	1959.03
422.05	1907.54
422.24	1970.73
422.43	1991.80
422.61	2001.16
422.80	2022.22
422.99	1952.01
423.18	1966.05
423.37	2019.88
423.56	2062.01
423.75	2080.74
423.94	1895.83
424.13	1900.52
424.32	1884.13
424.50	2087.76
424.69	2113.50
424.88	2118.18
425.07	1916.90
425.26	2043.29
425.45	1926.26
425.64	2047.97
425.83	2031.58
426.01	2043.29
426.20	2085.42
426.39	1961.37
426.58	2022.22
426.77	2026.90
426.96	1987.11
427.15	2120.53
427.33	2129.89
427.52	2193.08
427.71	2150.95
427.90	2197.76
428.09	2078.40
428.28	2099.46
428.46	2216.49
428.65	2221.17
428.84	2188.40
429.03	2244.57
429.22	2190.74
429.40	2333.51
429.59	2260.96
429.78	2174.36
429.97	2167.34
430.16	2249.25
430.34	2282.02
430.53	2275.00
430.72	2347.56
430.91	2370.96
431.10	2335.85
431.28	2370.96
431.47	2335.85
431.66	2417.77
431.85	2413.09
432.03	2523.10
432.22	2394.37
432.41	2420.11
432.60	2445.86
432.79	2438.84
432.97	2541.82
433.16	2490.33
433.35	2417.77
433.54	2441.18
433.72	2478.63
433.91	2499.69
434.10	2480.97
434.28	2492.67
434.47	2502.03
434.66	2586.29
434.85	2534.80
435.03	2530.12
435.22	2626.08
435.41	2747.79
435.59	2712.68
435.78	2541.82
435.97	2502.03
436.16	2621.40
436.34	2621.40
436.53	2768.85
436.72	2752.47
436.90	2628.42
437.09	2708.00
437.28	2628.42
437.46	2661.19
437.65	2768.85
437.84	2672.89
438.02	2801.62
438.21	2747.79
438.40	2773.53
438.58	2904.60
438.77	2874.18
438.96	2923.33
439.14	2944.39
439.33	2981.84
439.52	2911.63
439.70	3023.97
439.89	3080.14
440.08	2979.50
440.26	3005.25
440.45	3000.57
440.63	3119.93
440.82	3152.70
441.01	3082.49
441.19	3112.91
441.38	3286.11
441.57	3131.64
441.75	3218.24
441.94	3234.62
442.12	3272.07
442.31	3272.07
442.50	3239.30
442.68	3286.11
442.87	3342.28
443.05	3328.24
443.24	3400.80
443.43	3414.84
443.61	3286.11
443.80	3496.76
443.98	3274.41
444.17	3192.49
444.35	3318.88
444.54	3391.44
444.73	3389.10
444.91	3452.29
445.10	3309.52
445.28	3328.24
445.47	3417.18
445.65	3442.93
445.84	3510.80
446.02	3499.10
446.21	3363.35
446.39	3482.72
446.58	3478.04
446.77	3456.97
446.95	3471.01
447.14	3485.06
447.32	3616.13
447.51	3489.74
447.69	3463.99
447.88	3468.67
448.06	3475.70
448.25	3386.76
448.43	3503.78
448.62	3574.00
448.80	3515.48
448.99	3604.42
449.17	3569.32
449.36	3595.06
449.54	3637.19
449.73	3775.28
449.91	3637.19
450.10	3499.10
450.28	3562.30
450.46	3728.47
450.65	3627.83
450.83	3751.88
451.02	3831.46
451.20	3822.09
451.39	3871.25
451.57	3822.09
451.76	3676.98
451.94	3880.61
452.13	3801.03
452.31	3674.64
452.49	3679.32
452.68	3749.54
452.86	3840.82
453.05	3801.03
453.23	3985.93
453.42	3915.72
453.60	3873.59
453.78	3875.93
453.97	3728.47
454.15	4007.00
454.34	3990.61
454.52	4065.51
454.70	4002.32
454.89	3962.53
455.07	3864.22
455.26	4147.43
455.44	4238.71
455.62	4079.55
455.81	3962.53
455.99	4159.13
456.17	4102.96
456.36	4109.98
456.54	4161.47
456.73	4332.33
456.91	4245.73
457.09	4278.50
457.28	4395.53
457.46	4238.71
457.64	4381.48
457.83	4381.48
458.01	4287.86
458.19	4477.44
458.38	4278.50
458.56	4493.83
458.74	4383.82
458.93	4430.63
459.11	4451.70
459.29	4447.02
459.48	4507.87
459.66	4442.34
459.84	4454.04
460.03	4379.14
460.21	4564.04
460.39	4428.29
460.57	4519.57
460.76	4599.15
460.94	4458.72
461.12	4561.70
461.31	4482.13
461.49	4432.97
461.67	4662.35
461.85	4592.13
462.04	4720.86
462.22	4929.17
462.40	4781.71
462.59	4657.67
462.77	4767.67
462.95	4596.81
463.13	4762.99
463.32	4774.69
463.50	4882.36
463.68	4739.58
463.86	4847.25
464.05	4905.76
464.23	4734.90
464.41	4762.99
464.59	4709.16
464.78	4910.44
464.96	5018.11
465.14	4980.66
465.32	5025.13
465.50	5064.92
465.69	4905.76
465.87	5022.79
466.05	5067.26
466.23	4985.34
466.41	5125.77
466.60	5179.61
466.78	4910.44
466.96	5118.75
467.14	5008.75
467.32	5156.20
467.51	5214.71
467.69	4961.94
467.87	5018.11
468.05	5095.35
468.23	5081.30
468.41	5114.07
468.60	5249.82
468.78	5191.31
468.96	5174.92
469.14	5359.83
469.32	5296.63
469.50	5139.82
469.69	5263.86
469.87	5399.62
470.05	5373.87
470.23	5418.34
470.41	5451.11
470.59	5455.79
470.77	5434.72
470.95	5497.92
471.14	5542.39
471.32	5380.89
471.50	5647.71
471.68	5650.05
471.86	5619.63
472.04	5673.46
472.22	5647.71
472.40	5668.78
472.58	5668.78
472.77	5652.39
472.95	5923.90
473.13	5947.30
473.31	5898.15
473.49	5879.43
473.67	5996.45
473.85	5982.41
474.03	5900.49
474.21	5949.64
474.39	6017.52
474.57	6146.25
474.75	5970.71
474.93	6244.55
475.12	6141.57
475.30	5977.73
475.48	6265.61
475.66	6265.61
475.84	6239.87
476.02	6267.95
476.20	6183.70
476.38	6452.86
476.56	6576.91
476.74	6424.77
476.92	6597.97
477.10	6443.49
477.28	6679.89
477.46	6628.40
477.64	6696.27
477.82	6740.74
478.00	6867.13
478.18	7030.97
478.36	6932.67
478.54	7075.44
478.72	7206.51
478.90	6892.88
479.08	7124.59
479.26	7061.40
479.44	7262.68
479.62	7393.75
479.80	7517.80
479.98	7639.51
480.16	7604.40
480.34	7648.87
480.52	7843.14
480.70	7723.77
480.88	7571.63
481.06	7691.00
481.24	7702.70
481.41	7824.41
481.59	7913.35
481.77	7864.20
481.95	7983.57
482.13	8198.90
482.31	8124.00
482.49	8219.96
482.67	8234.00
482.85	8313.58
483.03	8421.25
483.21	8421.25
483.39	8540.61
483.57	8435.29
483.74	8608.49
483.92	8854.25
484.10	8606.15
484.28	8760.63
484.46	9263.84
484.64	9273.20
484.82	8940.85
485.00	8947.87
485.18	9027.45
485.35	9200.65
485.53	9320.01
485.71	9301.29
485.89	9586.83
486.07	9643.01
486.25	9621.94
486.43	9554.07
486.61	9530.66
486.78	9680.46
486.96	10003.45
487.14	10193.03
487.32	10106.43
487.50	9886.42
487.68	10246.87
487.85	10326.44
488.03	10534.75
488.21	10729.02
488.39	10513.69
488.57	10729.02
488.75	10677.52
488.92	10834.34
489.10	10787.53
489.28	10869.45
489.46	11037.97
489.64	11206.48
489.81	11187.76
489.99	11297.77
490.17	11084.78
490.35	11587.99
490.53	11454.58
490.70	11836.09
490.88	11606.72
491.06	11756.51
491.24	11747.15
491.41	11758.85
491.59	11901.62
491.77	12109.93
491.95	12142.70
492.13	12175.47
492.30	12112.27
492.48	12098.23
492.66	12243.34
492.84	12453.99
493.01	12339.30
493.19	12397.82
493.37	12671.66
493.54	12601.44
493.72	12835.50
493.90	12786.35
494.08	12744.22
494.25	13205.30
494.43	13067.21
494.61	13165.51
494.79	13088.28
494.96	13165.51
495.14	13090.62
495.32	13427.65
495.49	13577.45
495.67	13591.49
495.85	13928.53
496.02	13895.76
496.20	13860.65
496.38	13872.36
496.55	14157.90
496.73	14373.23
496.91	14101.73
497.09	13987.04
497.26	14492.60
497.44	14216.41
497.62	14457.49
497.79	14422.38
497.97	14490.26
498.14	14831.97
498.32	14853.04
498.50	14637.71
498.67	14951.34
498.85	15007.52
499.03	14972.41
499.20	15089.43
499.38	15269.66
499.56	15178.37
499.73	15304.76
499.91	15293.06
500.08	15571.58
500.26	15370.30
500.44	15356.25
500.61	15742.44
500.79	15389.02
500.97	15571.58
501.14	15655.84
501.32	15690.95
501.49	15737.76
501.67	15707.34
501.84	15829.04
502.02	15915.64
502.20	16128.63
502.37	16067.78
502.55	16386.09
502.72	16355.66
502.90	16175.44
503.07	16208.21
503.25	16465.67
503.43	16084.16
503.60	16240.98
503.78	16381.41
503.95	16446.94
504.13	16542.91
504.30	16606.10
504.48	16662.27
504.65	16812.07
504.83	16903.35
505.01	17151.45
505.18	17114.00
505.36	17188.89
505.53	17027.40
505.71	17245.07
505.88	16924.41
506.06	17006.33
506.23	17343.37
506.41	17170.17
506.58	17219.32
506.76	17383.16
506.93	17212.30
507.11	17518.91
507.28	17462.74
507.46	17446.35
507.63	17642.96
507.81	17813.82
507.98	17762.33
508.16	18073.62
508.33	17600.83
508.50	17593.81
508.68	17865.31
508.85	18307.67
509.03	18073.62
509.20	18101.70
509.38	18075.96
509.55	18288.95
509.73	18345.12
509.90	18565.13
510.08	18567.47
510.25	18420.02
510.42	18139.15
510.60	18654.07
510.77	18750.03
510.95	18841.31
511.12	18609.60
511.30	18911.53
511.47	18761.73
511.64	18642.37
511.82	19201.76
511.99	18848.33
512.17	19101.11
512.34	18934.93
512.51	19236.86
512.69	19178.35
512.86	19173.67
513.04	19503.68
513.21	19620.71
513.38	19379.64
513.56	19679.22
513.73	19491.98
513.90	19428.79
514.08	19283.67
514.25	19538.79
514.43	19917.96
514.60	19866.47
514.77	19814.98
514.95	19962.43
515.12	19843.06
515.29	19782.21
515.47	19936.68
515.64	19777.53
515.81	19978.81
515.99	19932.00
516.16	20528.84
516.33	20357.98
516.51	20278.40
516.68	20372.02
516.85	20018.60
517.03	20348.62
517.20	20458.62
517.37	20400.11
517.54	20592.03
517.72	20432.88
517.89	20334.57
518.06	20435.22
518.24	20798.00
518.41	20765.23
518.58	20685.65
518.75	20645.87
518.93	21010.99
519.10	20840.13
519.27	21048.44
519.45	21125.68
519.62	20947.79
519.79	21116.31
519.96	21097.59
520.14	21055.46
520.31	21231.00
520.48	21284.83
520.65	21357.39
520.83	21514.20
521.00	21060.14
521.17	21308.24
521.34	21291.85
521.52	21500.16
521.69	21617.19
521.86	21530.59
522.03	21488.46
522.20	21745.92
522.38	21837.20
522.55	21706.13
522.72	21862.94
522.89	21617.19
523.07	22188.28
523.24	22092.32
523.41	22192.96
523.58	22122.74
523.75	22466.80
523.92	22038.48
524.10	22061.89
524.27	22258.49
524.44	22195.30
524.61	22649.36
524.78	22590.85
524.96	22391.91
525.13	22623.62
525.30	22501.91
525.47	22359.14
525.64	22604.89
525.81	22499.57
525.98	22630.64
526.16	22504.25
526.33	22525.32
526.50	23070.66
526.67	22827.24
526.84	22815.54
527.01	22562.76
527.18	22995.76
527.36	22623.62
527.53	23325.78
527.70	23608.98
527.87	23421.74
528.04	22658.73
528.21	23084.70
528.38	23143.22
528.55	23541.11
528.72	23459.19
528.89	23616.01
529.07	23398.34
529.24	23295.35
529.41	23662.82
529.58	23545.79
529.75	23339.82
529.92	23611.32
530.09	23267.27
530.26	23690.90
530.43	23349.18
530.60	23489.62
530.77	23566.85
530.94	23983.47
531.11	23428.76
531.28	23618.35
531.46	23814.95
531.63	23868.78
531.80	23948.36
531.97	24215.18
532.14	24428.17
532.31	23789.20
532.48	23896.87
532.65	24144.97
532.82	23903.89
532.99	24273.70
533.16	24348.59
533.33	24133.26
533.50	24084.11
533.67	24767.55
533.84	24093.47
534.01	24151.99
534.18	24568.60
534.35	24451.58
534.52	24493.71
534.69	25062.46
534.86	25008.62
535.03	24460.94
535.20	24673.93
535.37	24549.88
535.54	24709.04
535.71	24884.58
535.88	24559.24
536.05	24563.92
536.22	24975.86
536.38	25064.80
536.55	24603.71
536.72	24760.53
536.89	25160.76
537.06	25057.78
537.23	25015.65
537.40	25233.32
537.57	25104.59
537.74	25029.69
537.91	25116.29
538.08	25418.22
538.25	25020.33
538.42	25275.45
538.59	25518.86
538.75	25160.76
538.92	25418.22
539.09	25132.67
539.26	25394.81
539.43	25556.31
539.60	25362.04
539.77	25785.68
539.94	25666.31
540.11	25633.55
540.28	25825.47
540.44	25357.36
540.61	25626.53
540.78	25495.46
540.95	25572.69
541.12	25640.57
541.29	25900.37
541.46	26064.21
541.62	25638.23
541.79	25867.60
541.96	25296.51
542.13	25757.60
542.30	25699.08
542.47	26417.63
542.63	25965.90
542.80	26279.54
542.97	26689.13
543.14	26415.29
543.31	26621.25
543.48	26228.04
543.64	26539.33
543.81	26286.56
543.98	26185.91
544.15	26532.31
544.32	26693.81
544.48	26586.15
544.65	26752.32
544.82	26382.52
544.99	26024.42
545.16	26579.12
545.32	26403.58
545.49	26698.49
545.66	26749.98
545.83	26735.94
546.00	26836.58
546.16	26981.70
546.33	26859.99
546.50	26485.50
546.67	26522.95
546.83	26398.90
547.00	26899.78
547.17	27175.96
547.34	26874.03
547.50	27110.43
547.67	27140.85
547.84	27033.19
548.00	26675.09
548.17	27044.89
548.34	26984.04
548.51	26948.93
548.67	27206.39
548.84	27538.74
549.01	27267.24
549.18	26972.33
549.34	27295.33
549.51	27325.75
549.68	27314.05
549.84	27157.24
550.01	27178.30
550.18	26934.88
550.34	27105.74
550.51	27810.25
550.68	27835.99
550.84	27295.33
551.01	27545.76
551.18	27419.38
551.34	27328.10
551.51	27742.37
551.68	27515.34
551.84	27679.18
552.01	27807.90
552.18	27934.29
552.34	27716.62
552.51	27665.13
552.68	27536.40
552.84	27611.30
553.01	27763.43
553.18	27667.47
553.34	27611.30
553.51	27899.19
553.67	28100.47
553.84	28187.07
554.01	28409.42
554.17	27983.44
554.34	28063.02
554.51	27880.46
554.67	28161.33
554.84	28161.33
555.00	27983.44
555.17	27999.83
555.33	28301.76
555.50	27901.53
555.67	27985.79
555.83	28004.51
556.00	28245.58
556.16	28259.63
556.33	28514.75
556.50	28304.10
556.66	28339.21
556.83	28229.20
556.99	28599.01
557.16	28524.11
557.32	28552.20
557.49	28975.83
557.65	28397.72
557.82	28421.13
557.98	28346.23
558.15	28460.91
558.32	28545.17
558.48	28645.82
558.65	28683.27
558.81	28519.43
558.98	28643.48
559.14	28266.65
559.31	28706.67
559.47	28566.24
559.64	28203.46
559.80	28575.60
559.97	28489.00
560.13	28397.72
560.30	28390.70
560.46	28886.89
560.63	28840.08
560.79	28711.35
560.96	28814.34
561.12	28687.95
561.29	28577.94
561.45	28779.23
561.61	29022.64
561.78	28730.08
561.94	28716.03
562.11	28606.03
562.27	29069.45
562.44	28758.16
562.60	28655.18
562.77	28765.18
562.93	29022.64
563.10	29235.63
563.26	28924.34
563.42	29165.42
563.59	29081.16
563.75	29219.25
563.92	29172.44
564.08	28884.55
564.24	28996.90
564.41	28905.62
564.57	29198.18
564.74	29010.94
564.90	29017.96
565.07	29427.56
565.23	28739.44
565.39	29074.13
565.56	29542.24
565.72	29256.70
565.88	29067.11
566.05	29373.72
566.21	29179.46
566.38	29158.39
566.54	29228.61
566.70	29488.41
566.87	29392.45
567.03	29090.52
567.19	29397.13
567.36	29647.57
567.52	29032.00
567.68	29582.03
567.85	29319.89
568.01	29406.49
568.17	29443.94
568.34	29633.52
568.50	29312.87
568.66	29259.04
568.83	29659.27
568.99	29170.10
569.15	29703.74
569.32	29266.06
569.48	29006.26
569.64	29467.34
569.81	29479.05
569.97	29738.85
570.13	29483.73
570.30	29610.12
570.46	29270.74
570.62	29357.34
570.78	29230.95
570.95	29312.87
571.11	29195.84
571.27	29762.25
571.43	29158.39
571.60	29820.77
571.76	29373.72
571.92	29479.05
572.09	29308.19
572.25	29319.89
572.41	29729.48
572.57	29621.82
572.74	29783.32
572.90	29443.94
573.06	29729.48
573.22	29280.10
573.38	29191.16
573.55	29345.64
573.71	29979.92
573.87	29579.69
574.03	29916.73
574.20	29495.43
574.36	29724.80
574.52	29799.70
574.68	29685.01
574.84	29905.02
575.01	29869.92
575.17	29593.73
575.33	29420.53
575.49	29923.75
575.65	29900.34
575.82	29523.52
575.98	29820.77
576.14	29975.24
576.30	29727.14
576.46	29434.58
576.62	29567.99
576.79	29577.35
576.95	29687.36
577.11	29666.29
577.27	29670.97
577.43	29626.50
577.59	29909.71
577.75	29586.71
577.92	29418.19
578.08	29633.52
578.24	29752.89
578.40	29663.95
578.56	29893.32
578.72	30188.23
578.88	30132.06
579.04	29979.92
579.21	29989.28
579.37	30005.67
579.53	29642.88
579.69	29617.14
579.85	29673.31
580.01	29457.98
580.17	29621.82
580.33	29546.92
580.49	29701.40
580.65	29979.92
580.82	30040.78
580.98	30000.99
581.14	30000.99
581.30	30050.14
581.46	29722.46
581.62	29893.32
581.78	29350.32
581.94	29792.68
582.10	29963.54
582.26	29862.90
582.42	29780.98
582.58	29900.34
582.74	29865.24
582.90	30178.87
583.06	29860.55
583.22	29947.15
583.38	29685.01
583.54	29631.18
583.70	29736.51
583.86	30045.46
584.02	29572.67
584.18	30075.88
584.34	30155.46
584.50	29942.47
584.66	30134.40
584.82	29373.72
584.98	29956.52
585.14	30040.78
585.30	29563.31
585.46	29921.41
585.62	29947.15
585.78	30281.85
585.94	29813.74
586.10	30092.27
586.26	30347.39
586.42	30267.81
586.58	29958.86
586.74	29865.24
586.90	29914.39
587.06	29851.19
587.22	29647.57
587.38	29677.99
587.54	30216.32
587.70	30270.15
587.86	30590.80
588.02	30284.19
588.18	29886.30
588.34	30005.67
588.49	29961.20
588.65	30143.76
588.81	30085.25
588.97	30057.16
589.13	30054.82
589.29	29914.39
589.45	29958.86
589.61	29991.62
589.77	30595.48
589.93	30171.85
590.08	29982.26
590.24	30338.02
590.40	29940.13
590.56	30387.18
590.72	30141.42
590.88	30106.31
591.04	30211.64
591.20	30176.53
591.35	30181.21
591.51	30766.34
591.67	30499.52
591.83	30766.34
591.99	30661.02
