SpectraSuite Data File
++++++++++++++++++++++++++++++++++++
Date: Fri Oct 18 13:58:42 GMT-05:00 2013
User: bianchi
Dark Spectrum Present: No
Reference Spectrum Present: No
Number of Sampled Component Spectra: 1
Spectrometers: USB2+H05261
Integration Time (usec): 50000 (USB2+H05261)
Spectra Averaged: 1 (USB2+H05261)
Boxcar Smoothing: 0 (USB2+H05261)
Correct for Electrical Dark: No (USB2+H05261)
Strobe/Lamp Enabled: No (USB2+H05261)
Correct for Detector Non-linearity: No (USB2+H05261)
Correct for Stray Light: No (USB2+H05261)
Number of Pixels in Processed Spectrum: 2048
>>>>>Begin Processed Spectral Data<<<<<
365.73	58.51
365.92	58.51
366.12	58.51
366.32	0.00
366.52	0.00
366.72	0.00
366.91	0.00
367.11	0.00
367.31	0.00
367.51	0.00
367.70	0.00
367.90	0.00
368.10	0.00
368.30	0.00
368.49	0.00
368.69	0.00
368.89	0.00
369.09	0.00
369.28	0.00
369.48	0.00
369.68	0.00
369.87	0.00
370.07	0.00
370.27	0.00
370.47	0.00
370.66	49.15
370.86	23.41
371.06	114.69
371.25	145.11
371.45	112.35
371.65	182.56
371.84	138.09
372.04	156.82
372.24	173.20
372.44	156.82
372.63	177.88
372.83	262.14
373.03	189.58
373.22	304.27
373.42	248.10
373.62	187.24
373.81	222.35
374.01	231.71
374.21	238.73
374.40	248.10
374.60	306.61
374.79	217.67
374.99	264.48
375.19	330.02
375.38	278.52
375.58	212.99
375.78	248.10
375.97	215.33
376.17	271.50
376.37	229.37
376.56	337.04
376.76	264.48
376.95	196.60
377.15	255.12
377.35	259.80
377.54	320.65
377.74	304.27
377.93	217.67
378.13	201.29
378.33	308.95
378.52	276.18
378.72	278.52
378.91	294.91
379.11	332.36
379.31	236.39
379.50	250.44
379.70	330.02
379.89	255.12
380.09	269.16
380.28	358.10
380.48	299.59
380.68	294.91
380.87	264.48
381.07	234.05
381.26	266.82
381.46	264.48
381.65	334.70
381.85	297.25
382.04	311.29
382.24	287.89
382.43	365.12
382.63	376.83
382.83	362.78
383.02	407.25
383.22	386.19
383.41	344.06
383.61	374.49
383.80	383.85
384.00	339.38
384.19	308.95
384.39	400.23
384.58	318.31
384.78	306.61
384.97	344.06
385.17	411.93
385.36	358.10
385.56	332.36
385.75	400.23
385.95	318.31
386.14	407.25
386.34	430.66
386.53	414.27
386.72	470.45
386.92	444.70
387.11	503.22
387.31	383.85
387.50	461.09
387.70	400.23
387.89	463.43
388.09	400.23
388.28	463.43
388.48	428.32
388.67	449.38
388.86	451.72
389.06	404.91
389.25	479.81
389.45	386.19
389.64	423.64
389.84	414.27
390.03	411.93
390.22	475.13
390.42	491.51
390.61	442.36
390.81	559.39
391.00	423.64
391.19	493.85
391.39	409.59
391.58	454.06
391.78	496.19
391.97	498.53
392.16	486.83
392.36	552.37
392.55	564.07
392.75	554.71
392.94	524.28
393.13	575.77
393.33	554.71
393.52	484.49
393.71	547.69
393.91	503.22
394.10	580.45
394.29	500.87
394.49	573.43
394.68	543.00
394.88	564.07
395.07	622.58
395.26	653.01
395.46	571.09
395.65	535.98
395.84	624.92
396.04	697.48
396.23	643.65
396.42	690.46
396.62	610.88
396.81	734.93
397.00	592.16
397.19	638.97
397.39	695.14
397.58	669.39
397.77	631.94
397.97	641.31
398.16	695.14
398.35	690.46
398.55	678.76
398.74	692.80
398.93	706.84
399.12	702.16
399.32	737.27
399.51	669.39
399.70	669.39
399.90	676.41
400.09	763.01
400.28	765.36
400.47	702.16
400.67	814.51
400.86	751.31
401.05	774.72
401.24	718.54
401.44	802.80
401.63	763.01
401.82	844.93
402.01	788.76
402.21	793.44
402.40	814.51
402.59	819.19
402.78	816.85
402.97	791.10
403.17	896.43
403.36	833.23
403.55	910.47
403.74	849.61
403.93	898.77
404.13	908.13
404.32	903.45
404.51	947.92
404.70	842.59
404.89	866.00
405.09	898.77
405.28	929.19
405.47	887.06
405.66	1050.90
405.85	1013.45
406.05	938.55
406.24	943.24
406.43	947.92
406.62	990.05
406.81	1062.60
407.00	978.34
407.20	915.15
407.39	994.73
407.58	1050.90
407.77	1025.15
407.96	1043.88
408.15	1034.52
408.34	1076.65
408.54	1015.79
408.73	1086.01
408.92	1067.28
409.11	1088.35
409.30	1100.05
409.49	1116.44
409.68	1191.33
409.87	1118.78
410.07	1198.35
410.26	1224.10
410.45	1022.81
410.64	1238.14
410.83	1219.42
411.02	1153.88
411.21	1231.12
411.40	1210.06
411.59	1287.29
411.78	1301.34
411.98	1334.11
412.17	1273.25
412.36	1275.59
412.55	1310.70
412.74	1336.45
412.93	1310.70
413.12	1320.06
413.31	1404.32
413.50	1270.91
413.69	1455.81
413.88	1488.58
414.07	1462.83
414.26	1448.79
414.45	1437.09
414.64	1434.75
414.83	1455.81
415.02	1465.18
415.22	1612.63
415.41	1504.96
415.60	1413.68
415.79	1664.12
415.98	1556.46
416.17	1619.65
416.36	1490.92
416.55	1603.27
416.74	1619.65
416.93	1629.01
417.12	1682.85
417.31	1715.61
417.50	1619.65
417.69	1795.19
417.88	1813.92
418.07	1692.21
418.26	1607.95
418.45	1668.80
418.64	1811.57
418.83	1825.62
419.02	1734.34
419.21	1739.02
419.39	1732.00
419.58	1710.93
419.77	1755.40
419.96	1874.77
420.15	1827.96
420.34	1856.04
420.53	1895.83
420.72	1909.88
420.91	1851.36
421.10	1753.06
421.29	2052.65
421.48	1930.94
421.67	1851.36
421.86	1926.26
422.05	1937.96
422.24	1898.17
422.43	1973.07
422.61	1952.01
422.80	1982.43
422.99	1998.82
423.18	2012.86
423.37	2012.86
423.56	2031.58
423.75	1940.30
423.94	1973.07
424.13	1844.34
424.32	1954.35
424.50	2085.42
424.69	2033.93
424.88	2057.33
425.07	1921.58
425.26	1919.24
425.45	1933.28
425.64	2040.95
425.83	2026.90
426.01	2134.57
426.20	1994.14
426.39	1975.41
426.58	2054.99
426.77	2113.50
426.96	2019.88
427.15	2143.93
427.33	2099.46
427.52	2101.80
427.71	2157.97
427.90	2148.61
428.09	2122.87
428.28	2155.63
428.46	2293.72
428.65	2275.00
428.84	2193.08
429.03	2230.53
429.22	2230.53
429.40	2298.41
429.59	2167.34
429.78	2083.08
429.97	2108.82
430.16	2265.64
430.34	2321.81
430.53	2253.94
430.72	2340.54
430.91	2363.94
431.10	2361.60
431.28	2387.35
431.47	2385.01
431.66	2401.39
431.85	2335.85
432.03	2366.28
432.22	2487.99
432.41	2392.03
432.60	2363.94
432.79	2436.50
432.97	2464.58
433.16	2497.35
433.35	2476.29
433.54	2527.78
433.72	2551.18
433.91	2534.80
434.10	2551.18
434.28	2511.39
434.47	2555.86
434.66	2588.63
434.85	2621.40
435.03	2527.78
435.22	2621.40
435.41	2649.49
435.59	2537.14
435.78	2539.48
435.97	2560.55
436.16	2656.51
436.34	2621.40
436.53	2633.10
436.72	2693.96
436.90	2616.72
437.09	2579.27
437.28	2647.15
437.46	2799.28
437.65	2778.22
437.84	2841.41
438.02	2757.15
438.21	2759.49
438.40	2717.36
438.58	2939.71
438.77	2902.26
438.96	2818.00
439.14	2930.35
439.33	3019.29
439.52	2972.48
439.70	2974.82
439.89	3009.93
440.08	3035.67
440.26	2988.86
440.45	3110.57
440.63	3021.63
440.82	3054.40
441.01	3141.00
441.19	3155.04
441.38	3105.89
441.57	3098.87
441.75	3225.26
441.94	3148.02
442.12	3281.43
442.31	3307.18
442.50	3398.46
442.68	3311.86
442.87	3274.41
443.05	3379.73
443.24	3463.99
443.43	3344.63
443.61	3185.47
443.80	3447.61
443.98	3272.07
444.17	3190.15
444.35	3421.86
444.54	3361.01
444.73	3358.67
444.91	3330.58
445.10	3431.23
445.28	3382.07
445.47	3548.25
445.65	3506.12
445.84	3494.42
446.02	3417.18
446.21	3527.19
446.39	3421.86
446.58	3538.89
446.77	3480.38
446.95	3400.80
447.14	3515.48
447.32	3637.19
447.51	3517.83
447.69	3496.76
447.88	3445.27
448.06	3557.61
448.25	3543.57
448.43	3435.91
448.62	3620.81
448.80	3510.80
448.99	3541.23
449.17	3639.53
449.36	3499.10
449.54	3606.77
449.73	3576.34
449.91	3744.86
450.10	3805.71
450.28	3707.41
450.46	3658.26
450.65	3779.97
450.83	3875.93
451.02	3709.75
451.20	3927.42
451.39	3843.16
451.57	3712.09
451.76	3625.49
451.94	3815.07
452.13	3852.52
452.31	3791.67
452.49	3779.97
452.68	3667.62
452.86	3873.59
453.05	3808.05
453.23	3978.91
453.42	3873.59
453.60	3908.69
453.78	3866.56
453.97	3925.08
454.15	3878.27
454.34	3929.76
454.52	3967.21
454.70	3962.53
454.89	4107.64
455.07	4119.34
455.26	3955.51
455.44	4091.26
455.62	3974.23
455.81	3985.93
455.99	4025.72
456.17	4102.96
456.36	4159.13
456.54	4086.58
456.73	4177.86
456.91	4339.35
457.09	4255.09
457.28	4432.97
457.46	4196.58
457.64	4292.54
457.83	4344.03
458.01	4217.65
458.19	4428.29
458.38	4255.09
458.56	4430.63
458.74	4425.95
458.93	4339.35
459.11	4360.42
459.29	4451.70
459.48	4315.95
459.66	4496.17
459.84	4498.51
460.03	4505.53
460.21	4421.27
460.39	4547.66
460.57	4437.66
460.76	4557.02
460.94	4610.86
461.12	4650.64
461.31	4648.30
461.49	4479.79
461.67	4519.57
461.85	4692.77
462.04	4554.68
462.22	4711.50
462.40	4762.99
462.59	4823.84
462.77	4732.56
462.95	4671.71
463.13	4926.83
463.32	4685.75
463.50	4770.01
463.68	4664.69
463.86	4840.23
464.05	4833.21
464.23	4898.74
464.41	4896.40
464.59	4828.53
464.78	4987.68
464.96	4954.91
465.14	4793.42
465.32	5043.85
465.50	4994.70
465.69	5022.79
465.87	4767.67
466.05	5029.81
466.23	4973.64
466.41	4940.87
466.60	5160.88
466.78	5074.28
466.96	5055.56
467.14	5085.98
467.32	5039.17
467.51	5008.75
467.69	5029.81
467.87	5195.99
468.05	5259.18
468.23	5160.88
468.41	4980.66
468.60	5156.20
468.78	5291.95
468.96	5322.38
469.14	5195.99
469.32	5193.65
469.50	5160.88
469.69	5390.25
469.87	5348.12
470.05	5371.53
470.23	5341.10
470.41	5186.63
470.59	5275.57
470.77	5369.19
470.95	5413.66
471.14	5509.62
471.32	5399.62
471.50	5619.63
471.68	5654.73
471.86	5671.12
472.04	5600.90
472.22	5762.40
472.40	5692.18
472.58	5570.48
472.77	5717.93
472.95	5678.14
473.13	5961.34
473.31	5659.42
473.49	5827.93
473.67	5820.91
473.85	5895.81
474.03	6036.24
474.21	5930.92
474.39	5940.28
474.57	6019.86
474.75	6064.33
474.93	6052.63
475.12	6108.80
475.30	6146.25
475.48	6146.25
475.66	6141.57
475.84	6333.49
476.02	6324.13
476.20	6282.00
476.38	6328.81
476.56	6370.94
476.74	6384.98
476.92	6686.91
477.10	6539.46
477.28	6658.82
477.46	6672.87
477.64	6867.13
477.82	6686.91
478.00	7002.88
478.18	6806.28
478.36	6965.43
478.54	6925.65
478.72	7080.12
478.90	6895.22
479.08	7119.91
479.26	7077.78
479.44	7290.77
479.62	7152.68
479.80	7293.11
479.98	7431.20
480.16	7393.75
480.34	7506.10
480.52	7485.03
480.70	7536.52
480.88	7606.74
481.06	7786.96
481.24	7866.54
481.41	7831.43
481.59	7786.96
481.77	8021.02
481.95	8032.72
482.13	8107.62
482.31	8119.32
482.49	8208.26
482.67	8336.99
482.85	8276.13
483.03	8479.76
483.21	8500.83
483.39	8575.72
483.57	8589.77
483.74	8610.83
483.92	8823.82
484.10	8432.95
484.28	9011.06
484.46	9179.58
484.64	9109.36
484.82	9050.85
485.00	9125.75
485.18	9144.47
485.35	9446.40
485.53	9282.56
485.71	9582.15
485.89	9741.31
486.07	9455.76
486.25	9605.56
486.43	9544.70
486.61	9650.03
486.78	9549.39
486.96	9951.96
487.14	10001.11
487.32	10207.08
487.50	10115.80
487.68	10038.56
487.85	10265.59
488.03	10413.04
488.21	10668.16
488.39	10469.22
488.57	10548.79
488.75	10633.05
488.92	10663.48
489.10	10736.04
489.28	10876.47
489.46	11140.95
489.64	10970.09
489.81	11159.67
489.99	11272.02
490.17	11218.19
490.35	11286.06
490.53	11630.12
490.70	11477.99
490.88	11473.31
491.06	11723.74
491.24	11754.17
491.41	11641.82
491.59	11831.41
491.77	12088.87
491.95	12086.53
492.13	12135.68
492.30	11936.73
492.48	12376.75
492.66	12348.67
492.84	12397.82
493.01	12468.03
493.19	12610.81
493.37	12453.99
493.54	12676.34
493.72	12734.85
493.90	12842.52
494.08	12816.77
494.25	13125.72
494.43	13198.28
494.61	13366.80
494.79	13640.64
494.96	13121.04
495.14	13371.48
495.32	13568.09
495.49	13385.52
495.67	13514.25
495.85	13605.53
496.02	13650.00
496.20	13973.00
496.38	13860.65
496.55	13743.63
496.73	14359.19
496.91	14143.86
497.09	14518.34
497.26	14319.40
497.44	14317.06
497.62	14319.40
497.79	14902.19
497.97	14434.08
498.14	14712.61
498.32	14560.47
498.50	14794.53
498.67	14909.21
498.85	14963.04
499.03	15044.96
499.20	14682.18
499.38	15080.07
499.56	15154.97
499.73	15110.50
499.91	15389.02
500.08	15440.51
500.26	15152.63
500.44	15382.00
500.61	15604.35
500.79	15658.18
500.97	15445.20
501.14	15805.64
501.32	15807.98
501.49	15527.11
501.67	15880.53
501.84	16027.99
502.02	15658.18
502.20	16336.94
502.37	16311.19
502.55	15981.18
502.72	16255.02
502.90	16081.82
503.07	16252.68
503.25	16067.78
503.43	16116.93
503.60	16601.42
503.78	16505.46
503.95	16573.33
504.13	16187.14
504.30	16802.71
504.48	16575.67
504.65	16886.97
504.83	16772.28
505.01	16779.30
505.18	17043.78
505.36	16943.14
505.53	16760.58
505.71	17165.49
505.88	17359.75
506.06	16915.05
506.23	17556.36
506.41	17334.01
506.58	17397.20
506.76	17343.37
506.93	17607.85
507.11	17315.28
507.28	17521.25
507.46	17568.06
507.63	17554.02
507.81	17720.20
507.98	17441.67
508.16	17558.70
508.33	17528.27
508.50	17682.75
508.68	17820.84
508.85	18045.53
509.03	18174.26
509.20	18101.70
509.38	18249.16
509.55	18176.60
509.73	18190.64
509.90	18139.15
510.08	18300.65
510.25	18104.04
510.42	18431.72
510.60	18611.94
510.77	18625.98
510.95	18714.92
511.12	18396.61
511.30	18464.49
511.47	18810.89
511.64	18766.42
511.82	18824.93
511.99	18892.80
512.17	19103.45
512.34	18679.82
512.51	19302.40
512.69	18932.59
512.86	18979.40
513.04	19435.81
513.21	19501.34
513.38	19552.84
513.56	19618.37
513.73	19271.97
513.90	19606.67
514.08	19400.70
514.25	19594.96
514.43	19803.27
514.60	19447.51
514.77	19676.88
514.95	19763.48
515.12	19646.46
515.29	19716.67
515.47	19969.45
515.64	19976.47
515.81	20067.75
515.99	19770.51
516.16	20339.26
516.33	20149.67
516.51	20423.51
516.68	20004.56
516.85	20133.29
517.03	20264.36
517.20	20306.49
517.37	20713.74
517.54	20456.28
517.72	20393.09
517.89	20526.50
518.06	20556.93
518.24	20475.01
518.41	20744.17
518.58	20542.88
518.75	20386.07
518.93	20903.32
519.10	20971.20
519.27	21125.68
519.45	20931.41
519.62	20959.50
519.79	20872.90
519.96	20835.45
520.14	21495.48
520.31	20706.72
520.48	21294.19
520.65	21252.06
520.83	21165.46
521.00	21383.13
521.17	21563.36
521.34	21287.17
521.52	21453.35
521.69	21521.23
521.86	21598.46
522.03	21621.87
522.20	21781.03
522.38	21884.01
522.55	21488.46
522.72	21628.89
522.89	21752.94
523.07	21743.58
523.24	21933.16
523.41	22136.79
523.58	21827.84
523.75	22061.89
523.92	22178.92
524.10	22129.77
524.27	22291.26
524.44	22707.88
524.61	22555.74
524.78	22600.21
524.96	22579.15
525.13	22569.79
525.30	22565.10
525.47	22473.82
525.64	22455.10
525.81	22527.66
525.98	22986.40
526.16	22808.52
526.33	22775.75
526.50	22623.62
526.67	22747.67
526.84	22810.86
527.01	22745.33
527.18	22883.42
527.36	22951.29
527.53	23304.71
527.70	22960.66
527.87	22796.82
528.04	22862.35
528.21	23248.54
528.38	23300.03
528.55	23154.92
528.72	23051.94
528.89	23131.51
529.07	23274.29
529.24	22991.08
529.41	23288.33
529.58	23653.45
529.75	23192.37
529.92	23335.14
530.09	23503.66
530.26	23754.10
530.43	23604.30
530.60	23515.36
530.77	23658.14
530.94	23662.82
531.11	23548.13
531.28	23777.50
531.46	23711.97
531.63	23683.88
531.80	23978.79
531.97	23950.70
532.14	24198.80
532.31	23913.25
532.48	24212.84
532.65	23866.44
532.82	23812.61
532.99	23990.49
533.16	23693.24
533.33	24119.22
533.50	24404.77
533.67	24723.08
533.84	23976.45
534.01	24299.44
534.18	24112.20
534.35	24123.90
534.52	24474.98
534.69	24760.53
534.86	24690.31
535.03	24367.32
535.20	24414.13
535.37	24484.34
535.54	24559.24
535.71	24423.49
535.88	24573.28
536.05	24671.59
536.22	24746.48
536.38	25036.71
536.55	24802.66
536.72	25130.33
536.89	24755.85
537.06	24865.85
537.23	25137.35
537.40	25188.85
537.57	24917.34
537.74	24854.15
537.91	25053.09
538.08	25123.31
538.25	24989.90
538.42	25238.00
538.59	25003.94
538.75	25008.62
538.92	24943.09
539.09	25355.02
539.26	25448.64
539.43	25441.62
539.60	25415.88
539.77	25568.01
539.94	25385.45
540.11	25771.64
540.28	25661.63
540.44	25488.43
540.61	25645.25
540.78	25582.06
540.95	25446.30
541.12	25755.26
541.29	25530.56
541.46	25542.27
541.62	25518.86
541.79	25752.91
541.96	25380.77
542.13	25823.13
542.30	25640.57
542.47	26225.70
542.63	26057.18
542.80	25813.77
542.97	26291.24
543.14	26387.20
543.31	26429.33
543.48	26410.60
543.64	26359.11
543.81	26436.35
543.98	26464.44
544.15	26309.96
544.32	26520.61
544.48	26354.43
544.65	26260.81
544.82	26331.03
544.99	26111.02
545.16	26017.40
545.32	26260.81
545.49	26668.06
545.66	26864.67
545.83	27070.64
546.00	26548.70
546.16	26850.63
546.33	26766.37
546.50	26389.54
546.67	26574.44
546.83	26436.35
547.00	26726.58
547.17	26773.39
547.34	26836.58
547.50	26934.88
547.67	27304.69
547.84	26810.84
548.00	26913.82
548.17	26977.01
548.34	26806.16
548.51	27122.13
548.67	26878.71
548.84	27323.41
549.01	27344.48
549.18	27119.79
549.34	26913.82
549.51	27072.98
549.68	27274.26
549.84	26874.03
550.01	27187.66
550.18	26941.91
550.34	27168.94
550.51	27410.01
550.68	27695.56
550.84	26916.16
551.01	27527.04
551.18	27255.54
551.34	27171.28
551.51	27527.04
551.68	27538.74
551.84	27536.40
552.01	27538.74
552.18	27606.62
552.34	27304.69
552.51	27431.08
552.68	27321.07
552.84	27672.15
553.01	27967.06
553.18	27770.46
553.34	27716.62
553.51	27728.33
553.67	28364.95
553.84	28063.02
554.01	27796.20
554.17	27955.36
554.34	27662.79
554.51	27828.97
554.67	27814.93
554.84	27775.14
555.00	28009.19
555.17	28084.09
555.33	28243.24
555.50	28170.69
555.67	27889.82
555.83	27697.90
556.00	28243.24
556.16	28334.53
556.33	27817.27
556.50	28329.84
556.66	28395.38
556.83	28364.95
556.99	28634.11
557.16	28580.28
557.32	28336.87
557.49	28870.51
557.65	28009.19
557.82	28027.92
557.98	28294.74
558.15	28360.27
558.32	28676.24
558.48	28489.00
558.65	28725.39
558.81	28479.64
558.98	28587.30
559.14	28657.52
559.31	28767.52
559.47	28353.25
559.64	28687.95
559.80	28851.78
559.97	28875.19
560.13	28357.93
560.30	28507.72
560.46	28669.22
560.63	29020.30
560.79	28987.53
560.96	28809.65
561.12	28231.54
561.29	28622.41
561.45	28561.56
561.61	28746.46
561.78	28919.66
561.94	28624.75
562.11	29001.58
562.27	28514.75
562.44	28814.34
562.60	28741.78
562.77	28699.65
562.93	28809.65
563.10	28662.20
563.26	29179.46
563.42	29160.73
563.59	29027.32
563.75	28648.16
563.92	28978.17
564.08	28608.37
564.24	28776.89
564.41	28772.21
564.57	28809.65
564.74	28830.72
564.90	28985.19
565.07	29057.75
565.23	29315.21
565.39	29170.10
565.56	29102.22
565.72	29329.25
565.88	29134.99
566.05	28893.91
566.21	28884.55
566.38	28790.93
566.54	29240.31
566.70	29244.99
566.87	29247.33
567.03	29153.71
567.19	29247.33
567.36	29244.99
567.52	29432.24
567.68	29345.64
567.85	28886.89
568.01	29207.55
568.17	29305.85
568.34	29244.99
568.50	29219.25
568.66	29350.32
568.83	29338.62
568.99	29455.64
569.15	28811.99
569.32	29088.18
569.48	29099.88
569.64	29523.52
569.81	29198.18
569.97	29532.88
570.13	29020.30
570.30	29202.86
570.46	29034.35
570.62	29252.02
570.78	29209.89
570.95	29352.66
571.11	28964.13
571.27	29366.70
571.43	29041.37
571.60	29223.93
571.76	29570.33
571.92	29584.37
572.09	29457.98
572.25	29357.34
572.41	29724.80
572.57	29443.94
572.74	29759.91
572.90	29439.26
573.06	29523.52
573.22	29390.11
573.38	29408.83
573.55	29317.55
573.71	29806.72
573.87	29472.03
574.03	29757.57
574.20	29457.98
574.36	29663.95
574.52	29233.29
574.68	29619.48
574.84	29249.67
575.01	29205.20
575.17	29343.30
575.33	29724.80
575.49	29369.04
575.65	29331.59
575.82	30012.69
575.98	29977.58
576.14	29497.77
576.30	29357.34
576.46	29432.24
576.62	29298.83
576.79	29565.65
576.95	29600.76
577.11	29668.63
577.27	29472.03
577.43	29823.11
577.59	29677.99
577.75	29799.70
577.92	29486.07
578.08	29575.01
578.24	29694.38
578.40	29357.34
578.56	29706.08
578.72	29521.18
578.88	30221.00
579.04	29996.31
579.21	29745.87
579.37	29504.79
579.53	29628.84
579.69	29441.60
579.85	29689.70
580.01	29509.47
580.17	29446.28
580.33	29310.53
580.49	29827.79
580.65	29645.23
580.82	30012.69
580.98	29827.79
581.14	29954.18
581.30	29654.59
581.46	29476.71
581.62	29860.55
581.78	29518.84
581.94	29738.85
582.10	29575.01
582.26	29748.21
582.42	29596.07
582.58	29862.90
582.74	29661.61
582.90	29776.30
583.06	30024.39
583.22	29556.28
583.38	29322.23
583.54	29626.50
583.70	29881.62
583.86	29825.45
584.02	29352.66
584.18	29699.06
584.34	29661.61
584.50	29916.73
584.66	29830.13
584.82	29551.60
584.98	30148.44
585.14	29610.12
585.30	29331.59
585.46	29589.05
585.62	29848.85
585.78	30178.87
585.94	29652.25
586.10	29736.51
586.26	29792.68
586.42	29839.49
586.58	30087.59
586.74	29780.98
586.90	29762.25
587.06	29717.78
587.22	29982.26
587.38	29804.38
587.54	29921.41
587.70	30253.76
587.86	30171.85
588.02	30253.76
588.18	29886.30
588.34	29947.15
588.49	30015.03
588.65	29886.30
588.81	29736.51
588.97	30015.03
589.13	30092.27
589.29	29865.24
589.45	30277.17
589.61	29944.81
589.77	30316.96
589.93	30288.87
590.08	30302.92
590.24	30583.78
590.40	30139.08
590.56	30356.75
590.72	30228.02
590.88	30167.16
591.04	30033.75
591.20	30237.38
591.35	30015.03
591.51	30190.57
591.67	30162.48
591.83	30698.47
591.99	30277.17
