SpectraSuite Data File
++++++++++++++++++++++++++++++++++++
Date: Fri Oct 18 13:58:09 GMT-05:00 2013
User: bianchi
Dark Spectrum Present: No
Reference Spectrum Present: No
Number of Sampled Component Spectra: 1
Spectrometers: USB2+H05261
Integration Time (usec): 50000 (USB2+H05261)
Spectra Averaged: 1 (USB2+H05261)
Boxcar Smoothing: 0 (USB2+H05261)
Correct for Electrical Dark: No (USB2+H05261)
Strobe/Lamp Enabled: No (USB2+H05261)
Correct for Detector Non-linearity: No (USB2+H05261)
Correct for Stray Light: No (USB2+H05261)
Number of Pixels in Processed Spectrum: 2048
>>>>>Begin Processed Spectral Data<<<<<
365.73	0.00
365.92	0.00
366.12	0.00
366.32	0.00
366.52	0.00
366.72	0.00
366.91	0.00
367.11	0.00
367.31	0.00
367.51	0.00
367.70	0.00
367.90	0.00
368.10	0.00
368.30	0.00
368.49	0.00
368.69	0.00
368.89	0.00
369.09	0.00
369.28	0.00
369.48	0.00
369.68	0.00
369.87	0.00
370.07	0.00
370.27	0.00
370.47	0.00
370.66	42.13
370.86	51.49
371.06	163.84
371.25	138.09
371.45	121.71
371.65	140.43
371.84	70.22
372.04	159.16
372.24	201.29
372.44	191.92
372.63	177.88
372.83	203.63
373.03	159.16
373.22	187.24
373.42	187.24
373.62	257.46
373.81	208.31
374.01	301.93
374.21	238.73
374.40	220.01
374.60	285.55
374.79	224.69
374.99	266.82
375.19	285.55
375.38	264.48
375.58	266.82
375.78	220.01
375.97	266.82
376.17	273.84
376.37	379.17
376.56	290.23
376.76	196.60
376.95	304.27
377.15	220.01
377.35	266.82
377.54	290.23
377.74	278.52
377.93	348.74
378.13	187.24
378.33	210.65
378.52	243.42
378.72	208.31
378.91	362.78
379.11	231.71
379.31	313.63
379.50	407.25
379.70	217.67
379.89	283.20
380.09	248.10
380.28	327.68
380.48	311.29
380.68	306.61
380.87	381.51
381.07	330.02
381.26	341.72
381.46	325.33
381.65	320.65
381.85	290.23
382.04	381.51
382.24	414.27
382.43	362.78
382.63	322.99
382.83	369.80
383.02	362.78
383.22	374.49
383.41	332.36
383.61	348.74
383.80	379.17
384.00	327.68
384.19	304.27
384.39	397.89
384.58	334.70
384.78	425.98
384.97	386.19
385.17	465.77
385.36	393.21
385.56	360.44
385.75	369.80
385.95	465.77
386.14	456.40
386.34	383.85
386.53	367.46
386.72	421.30
386.92	468.11
387.11	358.10
387.31	395.55
387.50	367.46
387.70	435.34
387.89	404.91
388.09	402.57
388.28	444.70
388.48	402.57
388.67	468.11
388.86	447.04
389.06	454.06
389.25	411.93
389.45	379.17
389.64	500.87
389.84	468.11
390.03	489.17
390.22	353.42
390.42	416.62
390.61	526.62
390.81	528.96
391.00	465.77
391.19	461.09
391.39	550.03
391.58	561.73
391.78	533.64
391.97	535.98
392.16	498.53
392.36	589.82
392.55	631.94
392.75	613.22
392.94	512.58
393.13	578.11
393.33	564.07
393.52	608.54
393.71	538.32
393.91	545.34
394.10	540.66
394.29	657.69
394.49	571.09
394.68	547.69
394.88	655.35
395.07	596.84
395.26	627.26
395.46	608.54
395.65	620.24
395.84	676.41
396.04	709.18
396.23	723.23
396.42	641.31
396.62	688.12
396.81	622.58
397.00	610.88
397.19	685.78
397.39	634.29
397.58	725.57
397.77	674.07
397.97	688.12
398.16	695.14
398.35	695.14
398.55	723.23
398.74	697.48
398.93	699.82
399.12	737.27
399.32	662.37
399.51	814.51
399.70	716.20
399.90	763.01
400.09	786.42
400.28	748.97
400.47	765.36
400.67	880.04
400.86	816.85
401.05	814.51
401.24	823.87
401.44	847.27
401.63	856.64
401.82	786.42
402.01	828.55
402.21	964.30
402.40	851.96
402.59	973.66
402.78	830.89
402.97	779.40
403.17	889.40
403.36	870.68
403.55	908.13
403.74	840.25
403.93	837.91
404.13	933.87
404.32	922.17
404.51	924.51
404.70	997.07
404.89	940.90
405.09	1041.54
405.28	1020.47
405.47	905.79
405.66	987.71
405.85	950.26
406.05	1018.13
406.24	1090.69
406.43	931.53
406.62	1013.45
406.81	992.39
407.00	933.87
407.20	983.02
407.39	994.73
407.58	973.66
407.77	1076.65
407.96	1027.50
408.15	1088.35
408.34	1057.92
408.54	1146.86
408.73	1135.16
408.92	1046.22
409.11	1207.72
409.30	1137.50
409.49	1132.82
409.68	1151.54
409.87	1153.88
410.07	1160.91
410.26	1198.35
410.45	1219.42
410.64	1228.78
410.83	1266.23
411.02	1263.89
411.21	1371.55
411.40	1249.85
411.59	1313.04
411.78	1306.02
411.98	1263.89
412.17	1350.49
412.36	1235.80
412.55	1306.02
412.74	1357.51
412.93	1444.11
413.12	1397.30
413.31	1427.73
413.50	1378.58
413.69	1430.07
413.88	1413.68
414.07	1469.86
414.26	1481.56
414.45	1504.96
414.64	1371.55
414.83	1483.90
415.02	1521.35
415.22	1556.46
415.41	1675.82
415.60	1549.43
415.79	1504.96
415.98	1631.35
416.17	1631.35
416.36	1570.50
416.55	1659.44
416.74	1589.22
416.93	1626.67
417.12	1638.38
417.31	1748.38
417.50	1729.66
417.69	1755.40
417.88	1825.62
418.07	1774.13
418.26	1830.30
418.45	1781.15
418.64	1870.09
418.83	1788.17
419.02	1832.64
419.21	1806.89
419.39	1895.83
419.58	1865.41
419.77	1818.60
419.96	1834.98
420.15	1970.73
420.34	1858.39
420.53	1849.02
420.72	2012.86
420.91	1811.57
421.10	1846.68
421.29	1944.99
421.48	1930.94
421.67	2017.54
421.86	2031.58
422.05	1935.62
422.24	1996.48
422.43	1947.33
422.61	2031.58
422.80	1952.01
422.99	2115.84
423.18	2038.61
423.37	1963.71
423.56	2052.65
423.75	1949.67
423.94	1858.39
424.13	1902.86
424.32	1923.92
424.50	1963.71
424.69	2108.82
424.88	2045.63
425.07	2136.91
425.26	2083.08
425.45	1987.11
425.64	1991.80
425.83	2045.63
426.01	2118.18
426.20	2008.18
426.39	2083.08
426.58	2047.97
426.77	2036.27
426.96	2118.18
427.15	2125.21
427.33	2162.66
427.52	2118.18
427.71	2202.44
427.90	2275.00
428.09	2230.53
428.28	2125.21
428.46	2216.49
428.65	2272.66
428.84	2291.38
429.03	2279.68
429.22	2214.15
429.40	2289.04
429.59	2363.94
429.78	2221.17
429.97	2202.44
430.16	2183.72
430.34	2291.38
430.53	2293.72
430.72	2328.83
430.91	2349.90
431.10	2249.25
431.28	2242.23
431.47	2284.36
431.66	2436.50
431.85	2377.98
432.03	2459.90
432.22	2445.86
432.41	2373.30
432.60	2485.65
432.79	2399.05
432.97	2516.08
433.16	2623.74
433.35	2487.99
433.54	2504.37
433.72	2485.65
433.91	2478.63
434.10	2429.48
434.28	2417.77
434.47	2509.05
434.66	2541.82
434.85	2654.17
435.03	2668.21
435.22	2630.76
435.41	2677.57
435.59	2663.53
435.78	2757.15
435.97	2621.40
436.16	2656.51
436.34	2658.85
436.53	2752.47
436.72	2836.73
436.90	2565.23
437.09	2677.57
437.28	2689.28
437.46	2818.00
437.65	2794.60
437.84	2778.22
438.02	2743.11
438.21	2825.03
438.40	2722.04
438.58	2888.22
438.77	2960.78
438.96	2836.73
439.14	3066.10
439.33	2998.23
439.52	2930.35
439.70	2991.20
439.89	3009.93
440.08	3035.67
440.26	3148.02
440.45	3173.77
440.63	3213.56
440.82	3038.02
441.01	3138.66
441.19	3258.03
441.38	3075.46
441.57	3281.43
441.75	3206.53
441.94	3361.01
442.12	3222.92
442.31	3356.33
442.50	3365.69
442.68	3169.09
442.87	3302.50
443.05	3403.14
443.24	3494.42
443.43	3524.85
443.61	3372.71
443.80	3499.10
443.98	3363.35
444.17	3133.98
444.35	3421.86
444.54	3463.99
444.73	3637.19
444.91	3618.47
445.10	3564.64
445.28	3478.04
445.47	3339.94
445.65	3414.84
445.84	3433.57
446.02	3485.06
446.21	3473.36
446.39	3356.33
446.58	3534.21
446.77	3648.90
446.95	3445.27
447.14	3475.70
447.32	3494.42
447.51	3412.50
447.69	3480.38
447.88	3562.30
448.06	3433.57
448.25	3630.17
448.43	3606.77
448.62	3595.06
448.80	3503.78
448.99	3545.91
449.17	3641.87
449.36	3740.18
449.54	3627.83
449.73	3735.50
449.91	3723.79
450.10	3749.54
450.28	3691.02
450.46	3808.05
450.65	3749.54
450.83	3831.46
451.02	3655.92
451.20	3894.65
451.39	3971.89
451.57	3707.41
451.76	3913.38
451.94	3880.61
452.13	3913.38
452.31	3948.48
452.49	3810.39
452.68	3861.88
452.86	3911.04
453.05	3934.44
453.23	3992.95
453.42	4023.38
453.60	3896.99
453.78	3918.06
453.97	3852.52
454.15	3941.46
454.34	3918.06
454.52	4009.34
454.70	4072.53
454.89	4079.55
455.07	4128.70
455.26	4058.49
455.44	4180.20
455.62	4215.30
455.81	4056.15
455.99	4234.03
456.17	4194.24
456.36	4124.02
456.54	4257.43
456.73	4161.47
456.91	4388.50
457.09	4463.40
457.28	4489.15
457.46	4269.14
457.64	4449.36
457.83	4404.89
458.01	4365.10
458.19	4320.63
458.38	4196.58
458.56	4531.28
458.74	4526.60
458.93	4440.00
459.11	4486.81
459.29	4517.23
459.48	4489.15
459.66	4683.41
459.84	4550.00
460.03	4573.41
460.21	4557.02
460.39	4681.07
460.57	4624.90
460.76	4695.11
460.94	4795.76
461.12	4620.22
461.31	4744.27
461.49	4671.71
461.67	4652.98
461.85	4844.91
462.04	4568.73
462.22	4922.15
462.40	4655.33
462.59	4613.20
462.77	4795.76
462.95	4802.78
463.13	4840.23
463.32	4947.89
463.50	4870.65
463.68	4901.08
463.86	5135.14
464.05	4882.36
464.23	4851.93
464.41	4983.00
464.59	4894.06
464.78	5064.92
464.96	4973.64
465.14	4823.84
465.32	5088.32
465.50	5100.03
465.69	5015.77
465.87	5043.85
466.05	5015.77
466.23	5043.85
466.41	4997.04
466.60	5231.10
466.78	5186.63
466.96	5156.20
467.14	4961.94
467.32	5118.75
467.51	5104.71
467.69	5158.54
467.87	5144.50
468.05	5170.24
468.23	5284.93
468.41	5291.95
468.60	5254.50
468.78	5275.57
468.96	5067.26
469.14	5296.63
469.32	5495.58
469.50	5305.99
469.69	5406.64
469.87	5554.09
470.05	5598.56
470.23	5556.43
470.41	5488.56
470.59	5495.58
470.77	5481.53
470.95	5647.71
471.14	5724.95
471.32	5561.11
471.50	5778.78
471.68	5668.78
471.86	5722.61
472.04	5769.42
472.22	5820.91
472.40	5675.80
472.58	5881.77
472.77	5762.40
472.95	5905.17
473.13	5998.79
473.31	5888.79
473.49	5849.00
473.67	5933.26
473.85	5916.87
474.03	6176.67
474.21	6047.94
474.39	6218.80
474.57	6298.38
474.75	6099.44
474.93	6228.17
475.12	6104.12
475.30	6312.42
475.48	6375.62
475.66	6394.34
475.84	6392.00
476.02	6595.63
476.20	6539.46
476.38	6537.12
476.56	6626.06
476.74	6738.40
476.92	6581.59
477.10	6621.38
477.28	6815.64
477.46	6494.99
477.64	6581.59
477.82	6815.64
478.00	6984.16
478.18	6932.67
478.36	7176.08
478.54	7155.02
478.72	7042.67
478.90	7178.42
479.08	7398.43
479.26	7321.20
479.44	7494.40
479.62	7489.71
479.80	7506.10
479.98	7550.57
480.16	7545.89
480.34	7555.25
480.52	7742.49
480.70	7716.75
480.88	7744.83
481.06	7852.50
481.24	7735.47
481.41	7819.73
481.59	8018.68
481.77	8229.32
481.95	8217.62
482.13	8285.50
482.31	8234.00
482.49	8198.90
482.67	8358.05
482.85	8599.13
483.03	8692.75
483.21	8725.52
483.39	8713.81
483.57	8655.30
483.74	8940.85
483.92	8861.27
484.10	9001.70
484.28	9167.88
484.46	9195.96
484.64	9308.31
484.82	9320.01
485.00	9212.35
485.18	9523.64
485.35	9413.63
485.53	9528.32
485.71	9369.16
485.89	9919.19
486.07	9647.69
486.25	9666.41
486.43	9893.44
486.61	9853.66
486.78	10197.71
486.96	10164.95
487.14	10340.49
487.32	10148.56
487.50	10511.35
487.68	10277.29
487.85	10420.06
488.03	10623.69
488.21	10757.10
488.39	10516.03
488.57	10726.68
488.75	10979.45
488.92	11239.25
489.10	11110.52
489.28	10981.79
489.46	11044.99
489.64	11229.89
489.81	11236.91
489.99	11499.05
490.17	11681.61
490.35	11559.91
490.53	11634.80
490.70	11857.15
490.88	11850.13
491.06	11871.20
491.24	11913.33
491.41	12086.53
491.59	11997.59
491.77	12035.03
491.95	12372.07
492.13	12379.09
492.30	12212.92
492.48	12409.52
492.66	12395.48
492.84	12526.55
493.01	12737.20
493.19	12760.60
493.37	12854.22
493.54	13123.38
493.72	13097.64
493.90	13130.41
494.08	13111.68
494.25	13312.97
494.43	13568.09
494.61	13460.42
494.79	13582.13
494.96	13675.75
495.14	13736.60
495.32	13579.79
495.49	13603.19
495.67	13628.94
495.85	13788.10
496.02	13994.06
496.20	13886.40
496.38	14258.54
496.55	14148.54
496.73	14413.02
496.91	14394.29
497.09	14347.48
497.26	14359.19
497.44	14642.39
497.62	14607.28
497.79	14736.01
497.97	14527.71
498.14	15262.63
498.32	14878.79
498.50	14956.02
498.67	15185.40
498.85	15028.58
499.03	15098.80
499.20	15119.86
499.38	15356.25
499.56	15431.15
499.73	15358.60
499.91	15672.23
500.08	15704.99
500.26	15594.99
500.44	15826.70
500.61	15704.99
500.79	15955.43
500.97	15934.37
501.14	16217.57
501.32	16081.82
501.49	16091.18
501.67	16065.44
501.84	16142.67
502.02	16152.04
502.20	16280.77
502.37	16554.61
502.55	16435.24
502.72	16386.09
502.90	16212.89
503.07	16208.21
503.25	16287.79
503.43	16290.13
503.60	16898.67
503.78	17011.01
503.95	16615.46
504.13	16676.32
504.30	16762.92
504.48	16940.80
504.65	17015.69
504.83	17104.64
505.01	17338.69
505.18	17245.07
505.36	17465.08
505.53	17135.06
505.71	17476.78
505.88	17303.58
506.06	17303.58
506.23	17790.41
506.41	17561.04
506.58	17809.14
506.76	17572.74
506.93	17825.52
507.11	17692.11
507.28	17703.81
507.46	17804.46
507.63	18391.93
507.81	18380.23
507.98	17867.65
508.16	18017.44
508.33	18164.90
508.50	18373.21
508.68	17965.95
508.85	18579.17
509.03	18469.17
509.20	18614.28
509.38	18321.71
509.55	18630.66
509.73	18424.70
509.90	18743.01
510.08	18595.56
510.25	18448.10
510.42	18827.27
510.60	19112.81
510.77	18899.83
510.95	18963.02
511.12	18984.09
511.30	18600.24
511.47	19044.94
511.64	19117.50
511.82	19543.47
511.99	19047.28
512.17	19452.19
512.34	19213.46
512.51	19555.18
512.69	19381.98
512.86	19508.37
513.04	19782.21
513.21	19711.99
513.38	19770.51
513.56	19522.41
513.73	19613.69
513.90	19934.34
514.08	19721.35
514.25	20025.62
514.43	20116.90
514.60	19978.81
514.77	19974.13
514.95	20290.10
515.12	19976.47
515.29	20074.77
515.47	19978.81
515.64	20531.18
515.81	20442.24
515.99	20430.54
516.16	20783.96
516.33	20486.71
516.51	20762.89
516.68	20634.16
516.85	20723.10
517.03	20879.92
517.20	20610.76
517.37	20900.98
517.54	20898.64
517.72	21001.63
517.89	20849.49
518.06	20936.09
518.24	21029.71
518.41	20812.04
518.58	21153.76
518.75	21125.68
518.93	21291.85
519.10	20931.41
519.27	21289.51
519.45	20985.24
519.62	21343.35
519.79	21242.70
519.96	21163.12
520.14	21544.63
520.31	21355.05
520.48	21802.09
520.65	21713.15
520.83	21788.05
521.00	21441.65
521.17	21879.33
521.34	21912.10
521.52	22190.62
521.69	21820.81
521.86	22188.28
522.03	22153.17
522.20	22225.73
522.38	22300.62
522.55	22462.12
522.72	22256.15
522.89	22155.51
523.07	22242.11
523.24	22202.32
523.41	22682.13
523.58	22190.62
523.75	22705.54
523.92	22607.23
524.10	22862.35
524.27	22408.29
524.44	23089.38
524.61	23246.20
524.78	22972.36
524.96	22515.95
525.13	22977.04
525.30	22948.95
525.47	22845.97
525.64	22707.88
525.81	22979.38
525.98	23278.97
526.16	22984.06
526.33	23267.27
526.50	23379.61
526.67	23063.64
526.84	23051.94
527.01	23314.08
527.18	23297.69
527.36	23494.30
527.53	23281.31
527.70	23459.19
527.87	23702.61
528.04	23475.57
528.21	23508.34
528.38	23709.63
528.55	23754.10
528.72	23601.96
528.89	23866.44
529.07	23950.70
529.24	23552.81
529.41	23793.89
529.58	23828.99
529.75	23850.06
529.92	23709.63
530.09	23796.23
530.26	23960.06
530.43	24283.06
530.60	24308.80
530.77	24109.86
530.94	24435.19
531.11	24086.45
531.28	24058.37
531.46	24306.46
531.63	24311.14
531.80	24353.27
531.97	24379.02
532.14	24505.41
532.31	24465.62
532.48	24636.48
532.65	24732.44
532.82	24456.26
532.99	24638.82
533.16	24533.50
533.33	24797.98
533.50	24833.08
533.67	24929.05
533.84	24996.92
534.01	24732.44
534.18	24753.51
534.35	24882.24
534.52	24912.66
534.69	25165.44
534.86	24931.39
535.03	24819.04
535.20	25174.80
535.37	24947.77
535.54	25032.03
535.71	25181.82
535.88	25191.19
536.05	25153.74
536.22	25289.49
536.38	25462.69
536.55	25270.76
536.72	25273.10
536.89	25263.74
537.06	25544.61
537.23	25579.71
537.40	25425.24
537.57	25362.04
537.74	25568.01
537.91	25921.43
538.08	25781.00
538.25	25404.17
538.42	25757.60
538.59	25912.07
538.75	25549.29
538.92	25757.60
539.09	25872.28
539.26	25635.89
539.43	26036.12
539.60	26403.58
539.77	26043.14
539.94	25907.39
540.11	25769.30
540.28	25916.75
540.44	26115.70
540.61	25764.62
540.78	25902.71
540.95	25951.86
541.12	25961.22
541.29	26354.43
541.46	25919.09
541.62	26101.65
541.79	26111.02
541.96	25958.88
542.13	26352.09
542.30	26089.95
542.47	26426.99
542.63	26457.42
542.80	26658.70
542.97	26717.22
543.14	26749.98
543.31	26476.14
543.48	27241.50
543.64	26511.25
543.81	27077.66
543.98	27080.00
544.15	26773.39
544.32	27243.84
544.48	27276.60
544.65	26890.41
544.82	26693.81
544.99	26995.74
545.16	27061.27
545.32	26740.62
545.49	26913.82
545.66	27068.30
545.83	27262.56
546.00	27309.37
546.16	27140.85
546.33	27208.73
546.50	27044.89
546.67	27269.58
546.83	26916.16
547.00	27562.15
547.17	27250.86
547.34	27543.42
547.50	27395.97
547.67	27983.44
547.84	27700.24
548.00	27414.69
548.17	27704.92
548.34	27080.00
548.51	27744.71
548.67	27637.05
548.84	27608.96
549.01	27854.72
549.18	27337.46
549.34	27667.47
549.51	27924.93
549.68	27672.15
549.84	27807.90
550.01	28063.02
550.18	27569.17
550.34	28149.62
550.51	28126.22
550.68	28208.14
550.84	27686.20
551.01	28240.90
551.18	27824.29
551.34	27730.67
551.51	28154.30
551.68	28184.73
551.84	27981.10
552.01	28545.17
552.18	28048.98
552.34	28503.04
552.51	28180.05
552.68	27880.46
552.84	28182.39
553.01	28325.16
553.18	28191.75
553.34	28266.65
553.51	28446.87
553.67	28280.69
553.84	28362.61
554.01	28549.85
554.17	28507.72
554.34	28444.53
554.51	28577.94
554.67	28430.49
554.84	28816.68
555.00	28954.77
555.17	28610.71
555.33	28666.88
555.50	28790.93
555.67	28547.51
555.83	28889.23
556.00	28781.57
556.16	28816.68
556.33	28599.01
556.50	29022.64
556.66	29102.22
556.83	28889.23
556.99	29191.16
557.16	29357.34
557.32	28914.98
557.49	28982.85
557.65	28819.02
557.82	28837.74
557.98	28973.49
558.15	28748.80
558.32	29097.54
558.48	28680.92
558.65	29132.65
558.81	29111.58
558.98	29001.58
559.14	29106.90
559.31	28699.65
559.47	28828.38
559.64	29057.75
559.80	29177.12
559.97	29406.49
560.13	28933.70
560.30	29666.29
560.46	29090.52
560.63	29406.49
560.79	29200.52
560.96	29453.30
561.12	29312.87
561.29	28844.76
561.45	29301.17
561.61	29603.10
561.78	29397.13
561.94	29244.99
562.11	29418.19
562.27	29640.54
562.44	29212.23
562.60	29385.43
562.77	29427.56
562.93	29497.77
563.10	29802.04
563.26	29670.97
563.42	30024.39
563.59	29336.27
563.75	29848.85
563.92	29813.74
564.08	29289.46
564.24	29759.91
564.41	29673.31
564.57	29731.83
564.74	29570.33
564.90	29806.72
565.07	29340.96
565.23	29600.76
565.39	29792.68
565.56	29788.00
565.72	29699.06
565.88	29724.80
566.05	29542.24
566.21	29663.95
566.38	29736.51
566.54	29661.61
566.70	30024.39
566.87	29788.00
567.03	29755.23
567.19	29935.45
567.36	29764.59
567.52	29825.45
567.68	29813.74
567.85	29806.72
568.01	30061.84
568.17	30050.14
568.34	30160.14
568.50	30073.54
568.66	30085.25
568.83	30342.70
568.99	30122.69
569.15	29699.06
569.32	29755.23
569.48	29766.93
569.64	29998.65
569.81	30036.09
569.97	29853.53
570.13	30127.38
570.30	30082.91
570.46	30197.59
570.62	30106.31
570.78	29942.47
570.95	30085.25
571.11	30230.36
571.27	29991.62
571.43	29837.15
571.60	30251.42
571.76	29713.10
571.92	30146.10
572.09	30354.41
572.25	30347.39
572.41	30284.19
572.57	30347.39
572.74	29954.18
572.90	29907.37
573.06	30052.48
573.22	30473.78
573.38	30195.25
573.55	30071.20
573.71	30426.96
573.87	30115.67
574.03	30260.79
574.20	30265.47
574.36	30120.35
574.52	30260.79
574.68	30333.34
574.84	30352.07
575.01	30176.53
575.17	30118.01
575.33	30005.67
575.49	30092.27
575.65	30555.69
575.82	30167.16
575.98	30082.91
576.14	30087.59
576.30	30110.99
576.46	30302.92
576.62	30429.30
576.79	30314.62
576.95	30452.71
577.11	30340.36
577.27	30696.13
577.43	30471.43
577.59	29970.56
577.75	30815.49
577.92	29954.18
578.08	30029.07
578.24	30309.94
578.40	30314.62
578.56	30305.26
578.72	30216.32
578.88	30632.93
579.04	30864.64
579.21	30693.79
579.37	30551.01
579.53	30471.43
579.69	30485.48
579.85	30401.22
580.01	30724.21
580.17	30394.20
580.33	30651.66
580.49	30309.94
580.65	30403.56
580.82	30843.58
580.98	30513.56
581.14	30426.96
581.30	30387.18
581.46	30300.58
581.62	29993.97
581.78	30356.75
581.94	30586.12
582.10	30562.72
582.26	30553.35
582.42	30272.49
582.58	31101.04
582.74	30459.73
582.90	30689.10
583.06	30487.82
583.22	30359.09
583.38	30501.86
583.54	30668.04
583.70	30562.72
583.86	30707.83
584.02	30312.28
584.18	30555.69
584.34	30895.07
584.50	30686.76
584.66	30396.54
584.82	30087.59
584.98	30562.72
585.14	30368.45
585.30	30157.80
585.46	30295.89
585.62	30443.35
585.78	30260.79
585.94	30263.13
586.10	30405.90
586.26	30766.34
586.42	30614.21
586.58	30855.28
586.74	30658.68
586.90	30326.32
587.06	30473.78
587.22	30583.78
587.38	30260.79
587.54	30476.12
587.70	30714.85
587.86	31292.96
588.02	30984.01
588.18	31012.10
588.34	30871.67
588.49	30492.50
588.65	30543.99
588.81	30459.73
588.97	30742.94
589.13	30749.96
589.29	30118.01
589.45	30841.24
589.61	31000.40
589.77	30937.20
589.93	30974.65
590.08	31049.55
590.24	30902.09
590.40	31281.26
590.56	30960.61
590.72	30764.00
590.88	30768.68
591.04	30305.26
591.20	31065.93
591.35	31122.10
591.51	31405.31
591.67	30761.66
591.83	31304.67
591.99	30831.88
