SpectraSuite Data File
++++++++++++++++++++++++++++++++++++
Date: Fri Oct 18 13:58:33 GMT-05:00 2013
User: bianchi
Dark Spectrum Present: No
Reference Spectrum Present: No
Number of Sampled Component Spectra: 1
Spectrometers: USB2+H05261
Integration Time (usec): 50000 (USB2+H05261)
Spectra Averaged: 1 (USB2+H05261)
Boxcar Smoothing: 0 (USB2+H05261)
Correct for Electrical Dark: No (USB2+H05261)
Strobe/Lamp Enabled: No (USB2+H05261)
Correct for Detector Non-linearity: No (USB2+H05261)
Correct for Stray Light: No (USB2+H05261)
Number of Pixels in Processed Spectrum: 2048
>>>>>Begin Processed Spectral Data<<<<<
365.73	0.00
365.92	0.00
366.12	0.00
366.32	0.00
366.52	0.00
366.72	0.00
366.91	0.00
367.11	0.00
367.31	0.00
367.51	0.00
367.70	0.00
367.90	0.00
368.10	0.00
368.30	0.00
368.49	0.00
368.69	0.00
368.89	0.00
369.09	0.00
369.28	0.00
369.48	0.00
369.68	0.00
369.87	0.00
370.07	0.00
370.27	0.00
370.47	0.00
370.66	91.28
370.86	119.37
371.06	114.69
371.25	163.84
371.45	170.86
371.65	119.37
371.84	98.30
372.04	119.37
372.24	145.11
372.44	205.97
372.63	152.13
372.83	264.48
373.03	205.97
373.22	250.44
373.42	168.52
373.62	283.20
373.81	189.58
374.01	222.35
374.21	208.31
374.40	292.57
374.60	227.03
374.79	191.92
374.99	220.01
375.19	250.44
375.38	184.90
375.58	217.67
375.78	252.78
375.97	238.73
376.17	262.14
376.37	238.73
376.56	234.05
376.76	285.55
376.95	243.42
377.15	264.48
377.35	322.99
377.54	287.89
377.74	339.38
377.93	229.37
378.13	297.25
378.33	276.18
378.52	280.86
378.72	262.14
378.91	327.68
379.11	294.91
379.31	243.42
379.50	259.80
379.70	287.89
379.89	341.72
380.09	255.12
380.28	248.10
380.48	273.84
380.68	266.82
380.87	308.95
381.07	313.63
381.26	360.44
381.46	325.33
381.65	325.33
381.85	278.52
382.04	322.99
382.24	262.14
382.43	308.95
382.63	325.33
382.83	372.15
383.02	360.44
383.22	325.33
383.41	353.42
383.61	447.04
383.80	287.89
384.00	425.98
384.19	346.40
384.39	397.89
384.58	390.87
384.78	388.53
384.97	444.70
385.17	327.68
385.36	423.64
385.56	376.83
385.75	355.76
385.95	325.33
386.14	383.85
386.34	280.86
386.53	346.40
386.72	332.36
386.92	376.83
387.11	454.06
387.31	418.96
387.50	390.87
387.70	379.17
387.89	360.44
388.09	428.32
388.28	449.38
388.48	395.55
388.67	498.53
388.86	458.74
389.06	418.96
389.25	383.85
389.45	423.64
389.64	425.98
389.84	440.02
390.03	491.51
390.22	472.79
390.42	507.90
390.61	451.72
390.81	416.62
391.00	524.28
391.19	479.81
391.39	512.58
391.58	493.85
391.78	517.26
391.97	535.98
392.16	512.58
392.36	514.92
392.55	500.87
392.75	550.03
392.94	561.73
393.13	547.69
393.33	557.05
393.52	514.92
393.71	533.64
393.91	533.64
394.10	582.79
394.29	596.84
394.49	559.39
394.68	620.24
394.88	578.11
395.07	596.84
395.26	617.90
395.46	500.87
395.65	641.31
395.84	538.32
396.04	610.88
396.23	578.11
396.42	645.99
396.62	704.50
396.81	624.92
397.00	627.26
397.19	664.71
397.39	690.46
397.58	704.50
397.77	594.50
397.97	566.41
398.16	620.24
398.35	664.71
398.55	779.40
398.74	711.52
398.93	725.57
399.12	727.91
399.32	709.18
399.51	751.31
399.70	751.31
399.90	746.63
400.09	779.40
400.28	786.42
400.47	702.16
400.67	786.42
400.86	777.06
401.05	753.65
401.24	863.66
401.44	798.12
401.63	798.12
401.82	868.34
402.01	828.55
402.21	678.76
402.40	814.51
402.59	753.65
402.78	856.64
402.97	695.14
403.17	877.70
403.36	807.48
403.55	870.68
403.74	959.62
403.93	784.08
404.13	877.70
404.32	919.83
404.51	912.81
404.70	915.15
404.89	964.30
405.09	912.81
405.28	877.70
405.47	957.28
405.66	983.02
405.85	973.66
406.05	924.51
406.24	1029.84
406.43	1015.79
406.62	1076.65
406.81	985.37
407.00	1025.15
407.20	985.37
407.39	992.39
407.58	1055.58
407.77	1139.84
407.96	1004.09
408.15	1025.15
408.34	1048.56
408.54	1121.12
408.73	1046.22
408.92	1095.37
409.11	1139.84
409.30	1116.44
409.49	1097.71
409.68	1172.61
409.87	1144.52
410.07	1184.31
410.26	1203.04
410.45	1165.59
410.64	1128.14
410.83	1196.01
411.02	1139.84
411.21	1116.44
411.40	1235.80
411.59	1226.44
411.78	1217.08
411.98	1273.25
412.17	1228.78
412.36	1184.31
412.55	1214.74
412.74	1287.29
412.93	1296.66
413.12	1362.19
413.31	1453.47
413.50	1315.38
413.69	1430.07
413.88	1540.07
414.07	1502.62
414.26	1404.32
414.45	1528.37
414.64	1413.68
414.83	1490.92
415.02	1439.43
415.22	1490.92
415.41	1561.14
415.60	1521.35
415.79	1551.78
415.98	1504.96
416.17	1556.46
416.36	1523.69
416.55	1652.42
416.74	1680.50
416.93	1680.50
417.12	1750.72
417.31	1689.87
417.50	1703.91
417.69	1671.14
417.88	1584.54
418.07	1657.10
418.26	1736.68
418.45	1659.44
418.64	1762.42
418.83	1710.93
419.02	1710.93
419.21	1820.94
419.39	1790.51
419.58	1774.13
419.77	1799.87
419.96	1727.32
420.15	1849.02
420.34	1842.00
420.53	1888.81
420.72	1842.00
420.91	1849.02
421.10	1788.17
421.29	1844.34
421.48	1881.79
421.67	1966.05
421.86	1823.28
422.05	1944.99
422.24	1895.83
422.43	2043.29
422.61	1884.13
422.80	1940.30
422.99	1921.58
423.18	1928.60
423.37	1996.48
423.56	1956.69
423.75	1961.37
423.94	1937.96
424.13	1888.81
424.32	1940.30
424.50	2148.61
424.69	2155.63
424.88	2045.63
425.07	2047.97
425.26	1865.41
425.45	2026.90
425.64	1991.80
425.83	2029.24
426.01	2047.97
426.20	2005.84
426.39	1884.13
426.58	2066.69
426.77	2162.66
426.96	2169.68
427.15	2080.74
427.33	2129.89
427.52	2174.36
427.71	2232.87
427.90	2120.53
428.09	2108.82
428.28	2139.25
428.46	2132.23
428.65	2083.08
428.84	2207.13
429.03	2272.66
429.22	2057.33
429.40	2284.36
429.59	2169.68
429.78	2078.40
429.97	2141.59
430.16	2256.28
430.34	2251.60
430.53	2382.67
430.72	2214.15
430.91	2317.13
431.10	2293.72
431.28	2270.32
431.47	2277.34
431.66	2413.09
431.85	2349.90
432.03	2356.92
432.22	2373.30
432.41	2478.63
432.60	2415.43
432.79	2338.20
432.97	2406.07
433.16	2448.20
433.35	2387.35
433.54	2441.18
433.72	2593.31
433.91	2476.29
434.10	2497.35
434.28	2574.59
434.47	2373.30
434.66	2567.57
434.85	2516.08
435.03	2546.50
435.22	2413.09
435.41	2616.72
435.59	2569.91
435.78	2647.15
435.97	2478.63
436.16	2506.71
436.34	2576.93
436.53	2733.75
436.72	2708.00
436.90	2675.23
437.09	2581.61
437.28	2663.53
437.46	2621.40
437.65	2649.49
437.84	2757.15
438.02	2761.83
438.21	2630.76
438.40	2829.71
438.58	2935.03
438.77	2815.66
438.96	2747.79
439.14	2935.03
439.33	2867.16
439.52	2888.22
439.70	2986.52
439.89	2960.78
440.08	3002.91
440.26	2979.50
440.45	2993.55
440.63	3063.76
440.82	3173.77
441.01	3080.14
441.19	3038.02
441.38	3094.19
441.57	3124.62
441.75	3162.06
441.94	3302.50
442.12	3190.15
442.31	3269.73
442.50	3236.96
442.68	3213.56
442.87	3290.79
443.05	3372.71
443.24	3471.01
443.43	3363.35
443.61	3335.26
443.80	3452.29
443.98	3297.81
444.17	3150.36
444.35	3382.07
444.54	3424.20
444.73	3487.40
444.91	3428.88
445.10	3468.67
445.28	3311.86
445.47	3424.20
445.65	3424.20
445.84	3459.31
446.02	3433.57
446.21	3442.93
446.39	3576.34
446.58	3543.57
446.77	3456.97
446.95	3428.88
447.14	3419.52
447.32	3375.05
447.51	3382.07
447.69	3494.42
447.88	3524.85
448.06	3400.80
448.25	3452.29
448.43	3417.18
448.62	3496.76
448.80	3592.72
448.99	3606.77
449.17	3489.74
449.36	3574.00
449.54	3559.95
449.73	3524.85
449.91	3545.91
450.10	3520.17
450.28	3714.43
450.46	3653.58
450.65	3627.83
450.83	3686.34
451.02	3817.41
451.20	3693.37
451.39	3721.45
451.57	3698.05
451.76	3712.09
451.94	3574.00
452.13	3929.76
452.31	3822.09
452.49	3737.84
452.68	3681.66
452.86	3768.26
453.05	3801.03
453.23	3866.56
453.42	3920.40
453.60	3822.09
453.78	3847.84
453.97	3794.01
454.15	3859.54
454.34	3803.37
454.52	3948.48
454.70	3871.25
454.89	3943.80
455.07	3992.95
455.26	3971.89
455.44	4081.89
455.62	4074.87
455.81	3988.27
455.99	4180.20
456.17	4147.43
456.36	4049.13
456.54	4142.75
456.73	4149.77
456.91	4168.49
457.09	4248.07
457.28	4383.82
457.46	4212.96
457.64	4163.81
457.83	4280.84
458.01	4177.86
458.19	4163.81
458.38	4180.20
458.56	4266.80
458.74	4435.32
458.93	4411.91
459.11	4264.46
459.29	4411.91
459.48	4470.42
459.66	4479.79
459.84	4510.21
460.03	4547.66
460.21	4362.76
460.39	4470.42
460.57	4601.49
460.76	4519.57
460.94	4641.28
461.12	4538.30
461.31	4554.68
461.49	4505.53
461.67	4456.38
461.85	4533.62
462.04	4444.68
462.22	4667.03
462.40	4566.39
462.59	4578.09
462.77	4765.33
462.95	4613.20
463.13	4751.29
463.32	4741.93
463.50	4631.92
463.68	4767.67
463.86	4739.58
464.05	4772.35
464.23	4734.90
464.41	4865.97
464.59	4762.99
464.78	4819.16
464.96	4912.78
465.14	5071.94
465.32	4800.44
465.50	4905.76
465.69	5034.49
465.87	4964.28
466.05	4784.06
466.23	4964.28
466.41	5081.30
466.60	5167.90
466.78	4922.15
466.96	4987.68
467.14	4910.44
467.32	5008.75
467.51	5221.74
467.69	4924.49
467.87	5093.01
468.05	5060.24
468.23	5043.85
468.41	5132.79
468.60	5083.64
468.78	5069.60
468.96	5090.67
469.14	5242.80
469.32	5238.12
469.50	5188.97
469.69	5205.35
469.87	5406.64
470.05	5406.64
470.23	5345.78
470.41	5467.49
470.59	5476.85
470.77	5352.81
470.95	5448.77
471.14	5446.43
471.32	5472.17
471.50	5540.05
471.68	5575.16
471.86	5537.71
472.04	5488.56
472.22	5612.60
472.40	5486.22
472.58	5701.54
472.77	5785.80
472.95	5776.44
473.13	5916.87
473.31	5746.02
473.49	5734.31
473.67	5668.78
473.85	5820.91
474.03	5956.66
474.21	5788.14
474.39	5898.15
474.57	5935.60
474.75	6132.20
474.93	6099.44
475.12	6211.78
475.30	6347.53
475.48	6047.94
475.66	6169.65
475.84	6218.80
476.02	6113.48
476.20	6377.96
476.38	6258.59
476.56	6541.80
476.74	6375.62
476.92	6370.94
477.10	6464.56
477.28	6623.72
477.46	6604.99
477.64	6509.03
477.82	6710.32
478.00	6869.47
478.18	6876.49
478.36	6937.35
478.54	6918.62
478.72	7056.72
478.90	7016.93
479.08	7169.06
479.26	7148.00
479.44	7084.80
479.62	7173.74
479.80	7180.76
479.98	7152.68
480.16	7550.57
480.34	7337.58
480.52	7391.41
480.70	7283.75
480.88	7391.41
481.06	7550.57
481.24	7618.44
481.41	7700.36
481.59	7854.84
481.77	8053.78
481.95	7960.16
482.13	7985.91
482.31	8219.96
482.49	8107.62
482.67	8060.80
482.85	8184.85
483.03	8369.76
483.21	8557.00
483.39	8416.57
483.57	8336.99
483.74	8561.68
483.92	8624.87
484.10	8552.32
484.28	8760.63
484.46	9025.11
484.64	8966.59
484.82	8772.33
485.00	8912.76
485.18	9249.80
485.35	9100.00
485.53	9296.61
485.71	9315.33
485.89	9650.03
486.07	9462.79
486.25	9256.82
486.43	9521.30
486.61	9537.68
486.78	9783.44
486.96	9895.78
487.14	9963.66
487.32	9942.60
487.50	9966.00
487.68	10078.35
487.85	10242.18
488.03	10429.43
488.21	10499.64
488.39	10602.63
488.57	10569.86
488.75	10574.54
488.92	10754.76
489.10	10773.49
489.28	10817.96
489.46	10867.11
489.64	10778.17
489.81	11197.12
489.99	11101.16
490.17	11281.38
490.35	11269.68
490.53	11311.81
490.70	11454.58
490.88	11543.52
491.06	11597.35
491.24	11487.35
491.41	11515.44
491.59	11646.51
491.77	11894.60
491.95	11805.66
492.13	12018.65
492.30	12086.53
492.48	12205.89
492.66	12180.15
492.84	12285.47
493.01	12315.90
493.19	12292.49
493.37	12599.10
493.54	12582.72
493.72	12748.90
493.90	12891.67
494.08	12847.20
494.25	12901.03
494.43	13114.02
494.61	13118.70
494.79	13212.32
494.96	12989.97
495.14	13184.24
495.32	13408.93
495.49	13343.39
495.67	13327.01
495.85	13708.52
496.02	13717.88
496.20	13532.98
496.38	13825.54
496.55	13762.35
496.73	14178.97
496.91	14019.81
497.09	14127.47
497.26	14141.52
497.44	13902.78
497.62	14235.14
497.79	14445.79
497.97	14141.52
498.14	14483.24
498.32	14621.33
498.50	14609.62
498.67	14913.89
498.85	14501.96
499.03	14707.93
499.20	14668.14
499.38	14813.25
499.56	15080.07
499.73	14993.47
499.91	15049.64
500.08	15157.31
500.26	14925.60
500.44	15150.29
500.61	15307.10
500.79	15297.74
500.97	15424.13
501.14	15700.31
501.32	15520.09
501.49	15712.02
501.67	15686.27
501.84	15726.06
502.02	15843.09
502.20	16013.95
502.37	15983.52
502.55	15861.81
502.72	16023.31
502.90	16121.61
503.07	16077.14
503.25	16065.44
503.43	16016.29
503.60	16278.43
503.78	16517.16
503.95	16226.93
504.13	16519.50
504.30	16308.85
504.48	16376.73
504.65	16479.71
504.83	16713.77
505.01	16566.31
505.18	16924.41
505.36	16940.80
505.53	16671.64
505.71	16898.67
505.88	16795.68
506.06	16861.22
506.23	17071.87
506.41	17376.14
506.58	17348.05
506.76	17287.20
506.93	17043.78
507.11	17018.04
507.28	17151.45
507.46	17411.25
507.63	17397.20
507.81	17525.93
507.98	17706.15
508.16	17645.30
508.33	17593.81
508.50	17797.43
508.68	17554.02
508.85	18071.28
509.03	17994.04
509.20	17951.91
509.38	18162.56
509.55	17984.68
509.73	18192.98
509.90	18202.35
510.08	18029.15
510.25	18176.60
510.42	18136.81
510.60	18476.19
510.77	18410.65
510.95	18457.46
511.12	18576.83
511.30	18185.96
511.47	18476.19
511.64	18691.52
511.82	18787.48
511.99	18679.82
512.17	18845.99
512.34	18728.97
512.51	18932.59
512.69	18970.04
512.86	19108.13
513.04	19206.44
513.21	19351.55
513.38	18972.38
513.56	18998.13
513.73	18916.21
513.90	19220.48
514.08	19199.41
514.25	19426.45
514.43	19487.30
514.60	19627.73
514.77	19503.68
514.95	19557.52
515.12	19665.18
515.29	19398.36
515.47	19665.18
515.64	20016.26
515.81	19770.51
515.99	19843.06
516.16	20074.77
516.33	19922.64
516.51	20407.13
516.68	20140.31
516.85	19810.29
517.03	19882.85
517.20	20144.99
517.37	20325.21
517.54	20350.96
517.72	20159.03
517.89	20245.63
518.06	20194.14
518.24	20320.53
518.41	20521.82
518.58	20437.56
518.75	20781.62
518.93	20961.84
519.10	20596.71
519.27	20807.36
519.45	20662.25
519.62	20851.83
519.79	21060.14
519.96	20753.53
520.14	20999.29
520.31	20709.06
520.48	21020.35
520.65	20816.72
520.83	21172.49
521.00	20975.88
521.17	21099.93
521.34	21186.53
521.52	21247.38
521.69	21167.80
521.86	21504.84
522.03	21759.96
522.20	21671.02
522.38	21120.99
522.55	21516.54
522.72	21551.65
522.89	21502.50
523.07	21699.11
523.24	21813.79
523.41	21685.06
523.58	21678.04
523.75	21970.61
523.92	21633.57
524.10	21984.65
524.27	21956.57
524.44	22251.47
524.61	22345.09
524.78	22551.06
524.96	21844.22
525.13	21916.78
525.30	22204.66
525.47	22132.11
525.64	22211.68
525.81	22113.38
525.98	22590.85
526.16	22511.27
526.33	22450.42
526.50	22771.07
526.67	22703.20
526.84	22647.02
527.01	22363.82
527.18	22717.24
527.36	22441.06
527.53	22719.58
527.70	23033.21
527.87	22761.71
528.04	23098.75
528.21	22899.80
528.38	22984.06
528.55	23377.27
528.72	22927.89
528.89	23220.45
529.07	22984.06
529.24	23264.92
529.41	23122.15
529.58	23374.93
529.75	23297.69
529.92	23194.71
530.09	23117.47
530.26	23293.01
530.43	23529.41
530.60	23419.40
530.77	23426.42
530.94	23515.36
531.11	23524.72
531.28	23445.15
531.46	23632.39
531.63	23480.25
531.80	24208.16
531.97	23978.79
532.14	23796.23
532.31	23482.59
532.48	23702.61
532.65	23875.80
532.82	23770.48
532.99	23751.76
533.16	23852.40
533.33	23922.62
533.50	24339.23
533.67	24107.52
533.84	23625.37
534.01	23878.15
534.18	24060.71
534.35	24273.70
534.52	24238.59
534.69	24287.74
534.86	24266.67
535.03	24173.05
535.20	24449.24
535.37	24276.04
535.54	24577.97
535.71	24327.53
535.88	24376.68
536.05	24566.26
536.22	24575.62
536.38	25064.80
536.55	25071.82
536.72	24554.56
536.89	24762.87
537.06	24751.17
537.23	24865.85
537.40	24676.27
537.57	24261.99
537.74	24783.93
537.91	25029.69
538.08	24924.36
538.25	25219.27
538.42	25048.41
538.59	25074.16
538.75	24875.21
538.92	24943.09
539.09	24973.52
539.26	25153.74
539.43	25448.64
539.60	25010.96
539.77	25263.74
539.94	25397.15
540.11	25537.59
540.28	25432.26
540.44	25205.23
540.61	25324.60
540.78	25256.72
540.95	25289.49
541.12	25469.71
541.29	25633.55
541.46	25401.83
541.62	25163.10
541.79	24975.86
541.96	25118.63
542.13	25474.39
542.30	25778.66
542.47	25905.05
542.63	25663.97
542.80	25874.62
542.97	25628.87
543.14	25830.15
543.31	25874.62
543.48	25649.93
543.64	25982.29
543.81	26506.57
543.98	26043.14
544.15	26267.83
544.32	26398.90
544.48	26637.64
544.65	26150.81
544.82	26054.84
544.99	26103.99
545.16	25865.26
545.32	25914.41
545.49	26368.48
545.66	26651.68
545.83	26288.90
546.00	26654.02
546.16	26473.80
546.33	26504.23
546.50	26096.97
546.67	26218.68
546.83	26401.24
547.00	26529.97
547.17	26452.73
547.34	26525.29
547.50	27037.87
547.67	26728.92
547.84	26897.44
548.00	26618.91
548.17	26431.67
548.34	27021.48
548.51	26647.00
548.67	26974.67
548.84	26757.00
549.01	26808.50
549.18	26761.69
549.34	26714.87
549.51	26623.59
549.68	27054.25
549.84	26871.69
550.01	26925.52
550.18	26831.90
550.34	27330.44
550.51	27225.11
550.68	27080.00
550.84	26852.97
551.01	27267.24
551.18	27068.30
551.34	27124.47
551.51	27028.51
551.68	27346.82
551.84	27040.21
552.01	27143.19
552.18	27637.05
552.34	27232.13
552.51	27482.57
552.68	27175.96
552.84	27344.48
553.01	27548.11
553.18	27393.63
553.34	27807.90
553.51	27618.32
553.67	27466.19
553.84	27611.30
554.01	27847.69
554.17	27395.97
554.34	27983.44
554.51	27557.47
554.67	27885.14
554.84	27395.97
555.00	27672.15
555.17	27765.78
555.33	28217.50
555.50	27672.15
555.67	27786.84
555.83	27447.46
556.00	27810.25
556.16	28093.45
556.33	27634.71
556.50	27840.67
556.66	28032.60
556.83	27988.13
556.99	27983.44
557.16	28442.19
557.32	28079.41
557.49	28294.74
557.65	27845.35
557.82	27866.42
557.98	27964.72
558.15	27805.56
558.32	28170.69
558.48	28133.24
558.65	28374.31
558.81	27985.79
558.98	28154.30
559.14	28046.64
559.31	27941.32
559.47	27695.56
559.64	27903.87
559.80	28128.56
559.97	28201.11
560.13	28458.57
560.30	28348.57
560.46	28353.25
560.63	28327.50
560.79	28617.73
560.96	28559.22
561.12	28493.68
561.29	28156.64
561.45	28624.75
561.61	28393.04
561.78	28187.07
561.94	28257.29
562.11	28657.52
562.27	29069.45
562.44	28341.55
562.60	28437.51
562.77	28318.14
562.93	28505.38
563.10	28624.75
563.26	28423.47
563.42	28793.27
563.59	28716.03
563.75	28952.43
563.92	28383.68
564.08	28428.15
564.24	28367.29
564.41	28512.41
564.57	28809.65
564.74	28554.54
564.90	28872.85
565.07	28919.66
565.23	28790.93
565.39	28891.57
565.56	28917.32
565.72	28655.18
565.88	28952.43
566.05	29050.73
566.21	28610.71
566.38	28629.43
566.54	28819.02
566.70	28744.12
566.87	28811.99
567.03	28709.01
567.19	28730.08
567.36	29060.09
567.52	28804.97
567.68	29027.32
567.85	28914.98
568.01	28809.65
568.17	28823.70
568.34	28868.17
568.50	28849.44
568.66	28947.75
568.83	29097.54
568.99	29013.28
569.15	28851.78
569.32	29179.46
569.48	29111.58
569.64	28973.49
569.81	28959.45
569.97	28669.22
570.13	28971.15
570.30	29156.05
570.46	29085.84
570.62	29188.82
570.78	29223.93
570.95	28891.57
571.11	28865.83
571.27	28540.49
571.43	28704.33
571.60	29277.76
571.76	29153.71
571.92	29326.91
572.09	29249.67
572.25	28849.44
572.41	29476.71
572.57	29088.18
572.74	29198.18
572.90	29340.96
573.06	28830.72
573.22	29137.33
573.38	29219.25
573.55	28907.96
573.71	29577.35
573.87	29699.06
574.03	29216.91
574.20	29120.95
574.36	29195.84
574.52	29294.14
574.68	28968.81
574.84	29453.30
575.01	29479.05
575.17	29338.62
575.33	29586.71
575.49	29120.95
575.65	29259.04
575.82	29394.79
575.98	29528.20
576.14	28952.43
576.30	29539.90
576.46	28912.64
576.62	28973.49
576.79	29071.79
576.95	29434.58
577.11	29289.46
577.27	29259.04
577.43	29570.33
577.59	29486.07
577.75	29223.93
577.92	29343.30
578.08	29352.66
578.24	29404.15
578.40	29254.36
578.56	29591.39
578.72	29277.76
578.88	29172.44
579.04	29418.19
579.21	29188.82
579.37	29441.60
579.53	29668.63
579.69	29167.76
579.85	29350.32
580.01	29212.23
580.17	29472.03
580.33	29289.46
580.49	29432.24
580.65	29497.77
580.82	29633.52
580.98	29441.60
581.14	29654.59
581.30	29167.76
581.46	29036.69
581.62	29790.34
581.78	29273.08
581.94	29563.31
582.10	29273.08
582.26	29495.43
582.42	29504.79
582.58	29219.25
582.74	29385.43
582.90	29226.27
583.06	29649.91
583.22	29399.47
583.38	29273.08
583.54	29263.72
583.70	29465.00
583.86	29645.23
584.02	29235.63
584.18	29607.78
584.34	29291.80
584.50	29883.96
584.66	29486.07
584.82	29483.73
584.98	29586.71
585.14	29261.38
585.30	29191.16
585.46	29535.22
585.62	29345.64
585.78	29797.36
585.94	29032.00
586.10	29727.14
586.26	29226.27
586.42	29692.04
586.58	29799.70
586.74	29202.86
586.90	29376.06
587.06	29413.51
587.22	29518.84
587.38	29383.09
587.54	29586.71
587.70	29469.69
587.86	29963.54
588.02	29780.98
588.18	29832.47
588.34	29834.81
588.49	29453.30
588.65	29883.96
588.81	29577.35
588.97	29710.76
589.13	29951.84
589.29	29493.09
589.45	29799.70
589.61	30024.39
589.77	29944.81
589.93	29355.00
590.08	30019.71
590.24	29724.80
590.40	29750.55
590.56	30120.35
590.72	29710.76
590.88	29598.41
591.04	29642.88
591.20	29914.39
591.35	30064.18
591.51	30094.61
591.67	29816.08
591.83	29926.09
591.99	30256.11
