SpectraSuite Data File
++++++++++++++++++++++++++++++++++++
Date: Fri Oct 18 13:58:23 GMT-05:00 2013
User: bianchi
Dark Spectrum Present: No
Reference Spectrum Present: No
Number of Sampled Component Spectra: 1
Spectrometers: USB2+H05261
Integration Time (usec): 50000 (USB2+H05261)
Spectra Averaged: 1 (USB2+H05261)
Boxcar Smoothing: 0 (USB2+H05261)
Correct for Electrical Dark: No (USB2+H05261)
Strobe/Lamp Enabled: No (USB2+H05261)
Correct for Detector Non-linearity: No (USB2+H05261)
Correct for Stray Light: No (USB2+H05261)
Number of Pixels in Processed Spectrum: 2048
>>>>>Begin Processed Spectral Data<<<<<
365.73	0.00
365.92	0.00
366.12	0.00
366.32	0.00
366.52	0.00
366.72	0.00
366.91	0.00
367.11	0.00
367.31	0.00
367.51	0.00
367.70	0.00
367.90	0.00
368.10	0.00
368.30	0.00
368.49	0.00
368.69	0.00
368.89	0.00
369.09	0.00
369.28	0.00
369.48	0.00
369.68	0.00
369.87	0.00
370.07	0.00
370.27	0.00
370.47	0.00
370.66	93.62
370.86	133.41
371.06	140.43
371.25	135.75
371.45	119.37
371.65	147.45
371.84	114.69
372.04	191.92
372.24	110.01
372.44	121.71
372.63	110.01
372.83	259.80
373.03	152.13
373.22	194.26
373.42	145.11
373.62	285.55
373.81	212.99
374.01	231.71
374.21	152.13
374.40	320.65
374.60	290.23
374.79	217.67
374.99	224.69
375.19	196.60
375.38	208.31
375.58	175.54
375.78	318.31
375.97	194.26
376.17	304.27
376.37	273.84
376.56	229.37
376.76	191.92
376.95	248.10
377.15	292.57
377.35	241.08
377.54	250.44
377.74	294.91
377.93	308.95
378.13	271.50
378.33	280.86
378.52	273.84
378.72	234.05
378.91	290.23
379.11	290.23
379.31	299.59
379.50	217.67
379.70	325.33
379.89	304.27
380.09	227.03
380.28	285.55
380.48	306.61
380.68	315.97
380.87	299.59
381.07	365.12
381.26	318.31
381.46	332.36
381.65	262.14
381.85	292.57
382.04	308.95
382.24	425.98
382.43	381.51
382.63	400.23
382.83	341.72
383.02	423.64
383.22	393.21
383.41	339.38
383.61	365.12
383.80	344.06
384.00	358.10
384.19	325.33
384.39	381.51
384.58	400.23
384.78	348.74
384.97	416.62
385.17	330.02
385.36	365.12
385.56	362.78
385.75	428.32
385.95	449.38
386.14	463.43
386.34	461.09
386.53	397.89
386.72	386.19
386.92	430.66
387.11	468.11
387.31	463.43
387.50	440.02
387.70	376.83
387.89	456.40
388.09	397.89
388.28	430.66
388.48	397.89
388.67	423.64
388.86	456.40
389.06	451.72
389.25	447.04
389.45	442.36
389.64	437.68
389.84	521.94
390.03	468.11
390.22	528.96
390.42	454.06
390.61	498.53
390.81	505.56
391.00	519.60
391.19	470.45
391.39	402.57
391.58	433.00
391.78	531.30
391.97	526.62
392.16	491.51
392.36	657.69
392.55	526.62
392.75	538.32
392.94	517.26
393.13	491.51
393.33	514.92
393.52	582.79
393.71	547.69
393.91	617.90
394.10	477.47
394.29	552.37
394.49	559.39
394.68	580.45
394.88	538.32
395.07	620.24
395.26	636.63
395.46	674.07
395.65	594.50
395.84	627.26
396.04	564.07
396.23	606.20
396.42	650.67
396.62	634.29
396.81	629.60
397.00	594.50
397.19	699.82
397.39	664.71
397.58	716.20
397.77	622.58
397.97	732.59
398.16	645.99
398.35	702.16
398.55	664.71
398.74	711.52
398.93	716.20
399.12	610.88
399.32	645.99
399.51	770.04
399.70	725.57
399.90	779.40
400.09	727.91
400.28	781.74
400.47	730.25
400.67	816.85
400.86	758.33
401.05	758.33
401.24	779.40
401.44	807.48
401.63	816.85
401.82	898.77
402.01	821.53
402.21	837.91
402.40	833.23
402.59	837.91
402.78	828.55
402.97	809.83
403.17	912.81
403.36	847.27
403.55	854.30
403.74	863.66
403.93	835.57
404.13	795.78
404.32	877.70
404.51	954.94
404.70	938.55
404.89	1006.43
405.09	903.45
405.28	1001.75
405.47	903.45
405.66	1025.15
405.85	1018.13
406.05	1004.09
406.24	950.26
406.43	997.07
406.62	1027.50
406.81	992.39
407.00	987.71
407.20	1011.11
407.39	1057.92
407.58	954.94
407.77	1057.92
407.96	1015.79
408.15	1046.22
408.34	1053.24
408.54	1156.22
408.73	1151.54
408.92	1100.05
409.11	1170.27
409.30	1097.71
409.49	1114.10
409.68	1158.57
409.87	1186.65
410.07	1130.48
410.26	1163.25
410.45	1172.61
410.64	1210.06
410.83	1090.69
411.02	1165.59
411.21	1245.16
411.40	1191.33
411.59	1336.45
411.78	1308.36
411.98	1196.01
412.17	1301.34
412.36	1355.17
412.55	1299.00
412.74	1336.45
412.93	1432.41
413.12	1345.81
413.31	1455.81
413.50	1446.45
413.69	1331.76
413.88	1462.83
414.07	1458.15
414.26	1369.21
414.45	1413.68
414.64	1467.52
414.83	1584.54
415.02	1523.69
415.22	1500.28
415.41	1502.62
415.60	1523.69
415.79	1540.07
415.98	1561.14
416.17	1558.80
416.36	1526.03
416.55	1636.03
416.74	1678.16
416.93	1652.42
417.12	1600.93
417.31	1519.01
417.50	1638.38
417.69	1647.74
417.88	1753.06
418.07	1802.21
418.26	1687.53
418.45	1870.09
418.64	1846.68
418.83	1696.89
419.02	1778.81
419.21	1743.70
419.39	1811.57
419.58	1739.02
419.77	1926.26
419.96	1954.35
420.15	1898.17
420.34	1900.52
420.53	1874.77
420.72	1842.00
420.91	1923.92
421.10	1860.73
421.29	2054.99
421.48	1846.68
421.67	1966.05
421.86	1912.22
422.05	1891.15
422.24	1930.94
422.43	1907.54
422.61	1975.41
422.80	2078.40
422.99	2062.01
423.18	2054.99
423.37	1966.05
423.56	1914.56
423.75	2022.22
423.94	1984.77
424.13	1919.24
424.32	1879.45
424.50	2052.65
424.69	2033.93
424.88	2043.29
425.07	2024.56
425.26	2080.74
425.45	1987.11
425.64	2064.35
425.83	2127.55
426.01	2141.59
426.20	1982.43
426.39	2015.20
426.58	2094.78
426.77	2101.80
426.96	2083.08
427.15	2057.33
427.33	2132.23
427.52	2127.55
427.71	2122.87
427.90	2244.57
428.09	2218.83
428.28	2207.13
428.46	2307.77
428.65	2111.16
428.84	2249.25
429.03	2263.30
429.22	2174.36
429.40	2361.60
429.59	2160.31
429.78	2157.97
429.97	2195.42
430.16	2200.10
430.34	2249.25
430.53	2352.24
430.72	2448.20
430.91	2394.37
431.10	2415.43
431.28	2354.58
431.47	2342.88
431.66	2459.90
431.85	2356.92
432.03	2485.65
432.22	2373.30
432.41	2382.67
432.60	2436.50
432.79	2448.20
432.97	2457.56
433.16	2551.18
433.35	2345.22
433.54	2473.95
433.72	2396.71
433.91	2516.08
434.10	2478.63
434.28	2497.35
434.47	2443.52
434.66	2558.21
434.85	2539.48
435.03	2586.29
435.22	2506.71
435.41	2499.69
435.59	2614.38
435.78	2588.63
435.97	2703.32
436.16	2633.10
436.34	2682.25
436.53	2614.38
436.72	2696.30
436.90	2644.81
437.09	2764.17
437.28	2672.89
437.46	2708.00
437.65	2789.92
437.84	2693.96
438.02	2764.17
438.21	2792.26
438.40	2658.85
438.58	2895.24
438.77	2897.58
438.96	2902.26
439.14	2806.30
439.33	2937.37
439.52	3033.33
439.70	2918.65
439.89	3007.59
440.08	3077.80
440.26	2998.23
440.45	2977.16
440.63	3075.46
440.82	2981.84
441.01	3033.33
441.19	3124.62
441.38	3218.24
441.57	3066.10
441.75	3178.45
441.94	3253.34
442.12	3300.16
442.31	3382.07
442.50	3269.73
442.68	3227.60
442.87	3344.63
443.05	3215.90
443.24	3304.84
443.43	3288.45
443.61	3506.12
443.80	3485.06
443.98	3260.37
444.17	3222.92
444.35	3365.69
444.54	3431.23
444.73	3414.84
444.91	3353.99
445.10	3368.03
445.28	3403.14
445.47	3342.28
445.65	3515.48
445.84	3494.42
446.02	3510.80
446.21	3606.77
446.39	3375.05
446.58	3499.10
446.77	3571.66
446.95	3377.39
447.14	3428.88
447.32	3651.24
447.51	3501.44
447.69	3550.59
447.88	3426.54
448.06	3440.59
448.25	3524.85
448.43	3475.70
448.62	3658.26
448.80	3492.08
448.99	3625.49
449.17	3611.45
449.36	3592.72
449.54	3595.06
449.73	3833.80
449.91	3684.00
450.10	3541.23
450.28	3831.46
450.46	3707.41
450.65	3693.37
450.83	3676.98
451.02	3817.41
451.20	3765.92
451.39	3901.67
451.57	3765.92
451.76	3716.77
451.94	3850.18
452.13	3927.42
452.31	3742.52
452.49	3772.94
452.68	3868.91
452.86	3733.15
453.05	3985.93
453.23	4067.85
453.42	3836.14
453.60	3845.50
453.78	3852.52
453.97	3845.50
454.15	3927.42
454.34	3840.82
454.52	4011.68
454.70	4023.38
454.89	3962.53
455.07	4102.96
455.26	4065.51
455.44	4119.34
455.62	4107.64
455.81	4074.87
455.99	4149.77
456.17	4126.36
456.36	4182.54
456.54	4194.24
456.73	4203.60
456.91	4374.46
457.09	4393.19
457.28	4461.06
457.46	4255.09
457.64	4287.86
457.83	4234.03
458.01	4290.20
458.19	4229.35
458.38	4402.55
458.56	4535.96
458.74	4486.81
458.93	4606.17
459.11	4575.75
459.29	4479.79
459.48	4386.16
459.66	4510.21
459.84	4599.15
460.03	4596.81
460.21	4559.36
460.39	4475.10
460.57	4568.73
460.76	4561.70
460.94	4915.12
461.12	4578.09
461.31	4571.07
461.49	4587.45
461.67	4596.81
461.85	4660.01
462.04	4805.12
462.22	4711.50
462.40	4603.83
462.59	4774.69
462.77	4683.41
462.95	4638.94
463.13	4608.51
463.32	4915.12
463.50	4823.84
463.68	4805.12
463.86	4889.38
464.05	4767.67
464.23	4910.44
464.41	4856.61
464.59	4830.87
464.78	4940.87
464.96	5036.83
465.14	4828.53
465.32	4947.89
465.50	4882.36
465.69	4978.32
465.87	4858.95
466.05	5071.94
466.23	4926.83
466.41	5048.54
466.60	5282.59
466.78	5006.41
466.96	5029.81
467.14	5167.90
467.32	5153.86
467.51	5212.37
467.69	4851.93
467.87	5074.28
468.05	5195.99
468.23	5221.74
468.41	5029.81
468.60	5289.61
468.78	5116.41
468.96	5235.78
469.14	5179.61
469.32	5301.31
469.50	5102.37
469.69	5259.18
469.87	5516.64
470.05	5575.16
470.23	5448.77
470.41	5301.31
470.59	5523.66
470.77	5458.13
470.95	5423.02
471.14	5521.32
471.32	5533.03
471.50	5582.18
471.68	5554.09
471.86	5638.35
472.04	5614.95
472.22	5731.97
472.40	5715.59
472.58	5806.87
472.77	5589.20
472.95	5926.24
473.13	6136.88
473.31	5767.08
473.49	5959.00
473.67	5912.19
473.85	5937.94
474.03	5944.96
474.21	6083.05
474.39	6267.95
474.57	6148.59
474.75	6249.23
474.93	6174.33
475.12	6251.57
475.30	6361.58
475.48	6181.35
475.66	6209.44
475.84	6328.81
476.02	6328.81
476.20	6366.26
476.38	6429.45
476.56	6499.67
476.74	6773.51
476.92	6642.44
477.10	6595.63
477.28	6757.13
477.46	6487.96
477.64	6827.34
477.82	6913.94
478.00	6958.41
478.18	6909.26
478.36	6977.14
478.54	7131.61
478.72	7063.74
478.90	7337.58
479.08	7262.68
479.26	7337.58
479.44	7169.06
479.62	7412.48
479.80	7276.73
479.98	7417.16
480.16	7716.75
480.34	7456.95
480.52	7555.25
480.70	7723.77
480.88	7494.40
481.06	7831.43
481.24	7754.19
481.41	7878.24
481.59	7943.78
481.77	7868.88
481.95	8032.72
482.13	8224.64
482.31	8060.80
482.49	8442.31
482.67	8156.77
482.85	8428.27
483.03	8500.83
483.21	8315.92
483.39	8477.42
483.57	8496.14
483.74	8741.90
483.92	8716.16
484.10	8744.24
484.28	8945.53
484.46	9069.58
484.64	9191.28
484.82	9111.71
485.00	9081.28
485.18	9390.23
485.35	9500.23
485.53	9458.10
485.71	9348.10
485.89	9682.80
486.07	9521.30
486.25	9619.60
486.43	9685.14
486.61	9928.55
486.78	9839.61
486.96	10024.51
487.14	10111.11
487.32	10064.30
487.50	10256.23
487.68	10080.69
487.85	10359.21
488.03	10401.34
488.21	10644.76
488.39	10551.14
488.57	10682.20
488.75	10623.69
488.92	11000.52
489.10	10913.92
489.28	11066.05
489.46	11173.72
489.64	10806.25
489.81	11461.60
489.99	11304.79
490.17	11300.11
490.35	11714.38
490.53	11386.71
490.70	11683.95
490.88	11683.95
491.06	11817.36
491.24	11758.85
491.41	11789.28
491.59	11985.88
491.77	11910.99
491.95	12238.66
492.13	12306.54
492.30	12194.19
492.48	12407.18
492.66	12271.43
492.84	12652.94
493.01	12475.06
493.19	12606.13
493.37	12711.45
493.54	12786.35
493.72	12929.12
493.90	12966.57
494.08	13078.91
494.25	13179.56
494.43	13371.48
494.61	13242.75
494.79	13186.58
494.96	13437.02
495.14	13427.65
495.32	13748.31
495.49	13575.11
495.67	13734.26
495.85	13865.33
496.02	13916.83
496.20	13879.38
496.38	13788.10
496.55	14024.49
496.73	14228.12
496.91	14080.66
497.09	14195.35
497.26	14328.76
497.44	14366.21
497.62	14160.24
497.79	14836.66
497.97	14443.45
498.14	14801.55
498.32	14698.56
498.50	14941.98
498.67	14967.73
498.85	14831.97
499.03	15295.40
499.20	14857.72
499.38	15119.86
499.56	15206.46
499.73	15379.66
499.91	15396.04
500.08	15552.86
500.26	15367.96
500.44	15543.50
500.61	15499.03
500.79	15550.52
500.97	15529.45
501.14	16100.55
501.32	16035.01
501.49	16114.59
501.67	15740.10
501.84	16137.99
502.02	15864.15
502.20	15992.88
502.37	16166.08
502.55	16107.57
502.72	16086.50
502.90	16294.81
503.07	16042.03
503.25	16269.06
503.43	16088.84
503.60	16582.70
503.78	16664.61
503.95	16779.30
504.13	16807.39
504.30	16563.97
504.48	16650.57
504.65	16596.74
504.83	16989.95
505.01	17139.74
505.18	17067.19
505.36	17305.92
505.53	16978.25
505.71	17020.38
505.88	17114.00
506.06	17146.76
506.23	17352.73
506.41	17326.99
506.58	17338.69
506.76	17511.89
506.93	17245.07
507.11	17584.44
507.28	17532.95
507.46	17607.85
507.63	17640.62
507.81	17806.80
507.98	17832.54
508.16	17652.32
508.33	17755.30
508.50	17989.36
508.68	18054.89
508.85	18209.37
509.03	18054.89
509.20	18029.15
509.38	18338.10
509.55	18427.04
509.73	18380.23
509.90	18490.23
510.08	18242.14
510.25	18427.04
510.42	18347.46
510.60	18504.28
510.77	18630.66
510.95	18614.28
511.12	18611.94
511.30	18555.77
511.47	18913.87
511.64	18895.14
511.82	19138.56
511.99	19239.20
512.17	18874.08
512.34	18981.74
512.51	19405.38
512.69	19168.99
512.86	19351.55
513.04	19599.65
513.21	19325.80
513.38	19566.88
513.56	19531.77
513.73	19201.76
513.90	19538.79
514.08	19459.21
514.25	19559.86
514.43	19690.93
514.60	19899.23
514.77	19838.38
514.95	20016.26
515.12	20020.94
515.29	19716.67
515.47	20229.25
515.64	20126.27
515.81	20123.93
515.99	20297.13
516.16	20329.89
516.33	20308.83
516.51	20727.78
516.68	20327.55
516.85	20065.41
517.03	20659.91
517.20	20683.31
517.37	20507.77
517.54	20453.94
517.72	20922.05
517.89	20549.90
518.06	20713.74
518.24	20514.80
518.41	20547.56
518.58	20800.34
518.75	20449.26
518.93	20882.26
519.10	20961.84
519.27	21022.69
519.45	20992.26
519.62	21336.32
519.79	21352.71
519.96	21067.16
520.14	21511.86
520.31	21291.85
520.48	21610.17
520.65	21057.80
520.83	21458.03
521.00	21561.02
521.17	21200.57
521.34	21514.20
521.52	21333.98
521.69	21252.06
521.86	21537.61
522.03	21888.69
522.20	21635.91
522.38	21949.54
522.55	22047.85
522.72	21923.80
522.89	22216.36
523.07	22157.85
523.24	22026.78
523.41	22412.97
523.58	21823.16
523.75	22108.70
523.92	22272.54
524.10	22342.75
524.27	22356.80
524.44	22712.56
524.61	22759.37
524.78	22494.89
524.96	22595.53
525.13	22576.81
525.30	22609.58
525.47	22604.89
525.64	22642.34
525.81	22597.87
525.98	22970.02
526.16	22916.19
526.33	22611.92
526.50	22967.68
526.67	22808.52
526.84	23054.28
527.01	22698.52
527.18	22972.36
527.36	23126.83
527.53	23199.39
527.70	23555.15
527.87	23295.35
528.04	23035.55
528.21	23239.18
528.38	23278.97
528.55	23194.71
528.72	23152.58
528.89	23438.12
529.07	23239.18
529.24	23330.46
529.41	23506.00
529.58	23328.12
529.75	23517.70
529.92	23718.99
530.09	23726.01
530.26	23854.74
530.43	23861.76
530.60	23648.77
530.77	23445.15
530.94	23608.98
531.11	23524.72
531.28	23885.17
531.46	23946.02
531.63	24027.94
531.80	24156.67
531.97	24156.67
532.14	24056.03
532.31	24212.84
532.48	24311.14
532.65	24423.49
532.82	23999.85
532.99	24116.88
533.16	24168.37
533.33	24425.83
533.50	24451.58
533.67	24418.81
533.84	24489.03
534.01	24376.68
534.18	24390.72
534.35	24769.89
534.52	24650.52
534.69	24891.60
534.86	24847.13
535.03	24615.41
535.20	24996.92
535.37	24854.15
535.54	24706.70
535.71	24788.61
535.88	24875.21
536.05	24933.73
536.22	24900.96
536.38	25223.95
536.55	25209.91
536.72	25123.31
536.89	24992.24
537.06	25160.76
537.23	25202.89
537.40	24891.60
537.57	25071.82
537.74	25394.81
537.91	25254.38
538.08	25441.62
538.25	25123.31
538.42	24985.22
538.59	25465.03
538.75	25509.50
538.92	25373.75
539.09	25455.67
539.26	25223.95
539.43	25565.67
539.60	25525.88
539.77	25734.19
539.94	26061.87
540.11	25549.29
540.28	25551.63
540.44	25518.86
540.61	25771.64
540.78	25612.48
540.95	25860.58
541.12	25792.70
541.29	25804.41
541.46	25895.69
541.62	25776.32
541.79	26019.74
541.96	25544.61
542.13	25937.82
542.30	25993.99
542.47	26038.46
542.63	26279.54
542.80	26141.44
542.97	26389.54
543.14	26169.53
543.31	26206.98
543.48	26167.19
543.64	26504.23
543.81	26511.25
543.98	26927.86
544.15	26712.53
544.32	26862.33
544.48	26691.47
544.65	26693.81
544.82	26675.09
544.99	26230.38
545.16	26370.82
545.32	26707.85
545.49	26930.20
545.66	26700.83
545.83	26878.71
546.00	27370.22
546.16	26757.00
546.33	26794.45
546.50	26359.11
546.67	26771.05
546.83	26558.06
547.00	27009.78
547.17	26628.27
547.34	27147.87
547.50	27323.41
547.67	27136.17
547.84	27274.26
548.00	27002.76
548.17	27178.30
548.34	27070.64
548.51	27302.35
548.67	27438.10
548.84	27826.63
549.01	27431.08
549.18	27150.21
549.34	26981.70
549.51	27087.02
549.68	27496.61
549.84	27384.27
550.01	27384.27
550.18	27393.63
550.34	27604.28
550.51	27566.83
550.68	27634.71
550.84	27295.33
551.01	27414.69
551.18	27487.25
551.34	27236.81
551.51	27442.78
551.68	27641.73
551.84	27723.65
552.01	27412.35
552.18	27669.81
552.34	27803.22
552.51	28060.68
552.68	27896.85
552.84	27847.69
553.01	27871.10
553.18	27999.83
553.34	28304.10
553.51	28182.39
553.67	28161.33
553.84	28210.48
554.01	28271.33
554.17	28084.09
554.34	27976.42
554.51	28163.67
554.67	27761.09
554.84	28175.37
555.00	28711.35
555.17	27946.00
555.33	28173.03
555.50	28135.58
555.67	28432.83
555.83	28079.41
556.00	28161.33
556.16	28692.63
556.33	28496.02
556.50	28315.80
556.66	28549.85
556.83	28196.43
556.99	28786.25
557.16	28456.23
557.32	28414.10
557.49	28599.01
557.65	28151.96
557.82	28299.42
557.98	28489.00
558.15	28423.47
558.32	28601.35
558.48	28662.20
558.65	28629.43
558.81	28247.93
558.98	28767.52
559.14	28758.16
559.31	28556.88
559.47	28580.28
559.64	28739.44
559.80	28538.15
559.97	28849.44
560.13	28704.33
560.30	28840.08
560.46	28868.17
560.63	28912.64
560.79	29067.11
560.96	28826.04
561.12	28435.17
561.29	28446.87
561.45	28931.36
561.61	28931.36
561.78	29046.05
561.94	28896.25
562.11	28868.17
562.27	29132.65
562.44	28835.40
562.60	28912.64
562.77	28662.20
562.93	28830.72
563.10	29102.22
563.26	29043.71
563.42	29125.63
563.59	28919.66
563.75	29046.05
563.92	29104.56
564.08	29048.39
564.24	29022.64
564.41	28877.53
564.57	28844.76
564.74	29331.59
564.90	29317.55
565.07	29032.00
565.23	29322.23
565.39	29315.21
565.56	29205.20
565.72	29116.26
565.88	29090.52
566.05	29053.07
566.21	29186.48
566.38	29378.40
566.54	29170.10
566.70	29607.78
566.87	29893.32
567.03	29401.81
567.19	29305.85
567.36	29633.52
567.52	29521.18
567.68	29331.59
567.85	29233.29
568.01	29759.91
568.17	29308.19
568.34	29642.88
568.50	29560.97
568.66	29521.18
568.83	29607.78
568.99	29713.10
569.15	29434.58
569.32	29734.17
569.48	29280.10
569.64	29757.57
569.81	29647.57
569.97	29465.00
570.13	29469.69
570.30	29467.34
570.46	29301.17
570.62	29635.86
570.78	29518.84
570.95	29202.86
571.11	29560.97
571.27	29511.81
571.43	29315.21
571.60	29516.50
571.76	29649.91
571.92	29287.12
572.09	29399.47
572.25	29708.42
572.41	29514.16
572.57	29701.40
572.74	29600.76
572.90	29350.32
573.06	29734.17
573.22	29502.45
573.38	29654.59
573.55	29551.60
573.71	29869.92
573.87	29991.62
574.03	29509.47
574.20	29762.25
574.36	29694.38
574.52	29385.43
574.68	29394.79
574.84	29797.36
575.01	29766.93
575.17	29881.62
575.33	29710.76
575.49	29638.20
575.65	29935.45
575.82	29996.31
575.98	29734.17
576.14	29809.06
576.30	29312.87
576.46	29399.47
576.62	29780.98
576.79	29818.42
576.95	29336.27
577.11	29968.22
577.27	29935.45
577.43	29900.34
577.59	29881.62
577.75	29642.88
577.92	29577.35
578.08	29790.34
578.24	29661.61
578.40	29659.27
578.56	29930.77
578.72	29738.85
578.88	29947.15
579.04	30319.30
579.21	29816.08
579.37	30068.86
579.53	30071.20
579.69	29865.24
579.85	29984.60
580.01	29881.62
580.17	29696.72
580.33	30148.44
580.49	29982.26
580.65	29996.31
580.82	30045.46
580.98	30143.76
581.14	29855.87
581.30	29914.39
581.46	30141.42
581.62	29954.18
581.78	29837.15
581.94	29998.65
582.10	29736.51
582.26	29977.58
582.42	29628.84
582.58	29909.71
582.74	30286.53
582.90	29874.60
583.06	30003.33
583.22	29738.85
583.38	29621.82
583.54	29898.00
583.70	30106.31
583.86	29696.72
584.02	29848.85
584.18	30225.68
584.34	30080.56
584.50	30473.78
584.66	29872.26
584.82	29425.22
584.98	29813.74
585.14	29834.81
585.30	29977.58
585.46	29769.27
585.62	29785.66
585.78	29898.00
585.94	29633.52
586.10	30331.00
586.26	30265.47
586.42	30199.93
586.58	30204.61
586.74	30033.75
586.90	29820.77
587.06	29874.60
587.22	30000.99
587.38	29963.54
587.54	30153.12
587.70	29986.94
587.86	30106.31
588.02	30345.05
588.18	30543.99
588.34	30160.14
588.49	30061.84
588.65	30134.40
588.81	29759.91
588.97	30483.14
589.13	30057.16
589.29	30045.46
589.45	30108.65
589.61	30576.76
589.77	30298.23
589.93	30347.39
590.08	30532.29
590.24	30113.33
590.40	30567.40
590.56	30188.23
590.72	30096.95
590.88	30115.67
591.04	30249.08
591.20	30445.69
591.35	30443.35
591.51	30869.33
591.67	30593.14
591.83	30913.80
591.99	30485.48
