SpectraSuite Data File
++++++++++++++++++++++++++++++++++++
Date: Fri Oct 18 13:58:13 GMT-05:00 2013
User: bianchi
Dark Spectrum Present: No
Reference Spectrum Present: No
Number of Sampled Component Spectra: 1
Spectrometers: USB2+H05261
Integration Time (usec): 50000 (USB2+H05261)
Spectra Averaged: 1 (USB2+H05261)
Boxcar Smoothing: 0 (USB2+H05261)
Correct for Electrical Dark: No (USB2+H05261)
Strobe/Lamp Enabled: No (USB2+H05261)
Correct for Detector Non-linearity: No (USB2+H05261)
Correct for Stray Light: No (USB2+H05261)
Number of Pixels in Processed Spectrum: 2048
>>>>>Begin Processed Spectral Data<<<<<
365.73	0.00
365.92	0.00
366.12	0.00
366.32	0.00
366.52	0.00
366.72	0.00
366.91	0.00
367.11	0.00
367.31	0.00
367.51	0.00
367.70	0.00
367.90	0.00
368.10	0.00
368.30	0.00
368.49	0.00
368.69	0.00
368.89	0.00
369.09	0.00
369.28	0.00
369.48	0.00
369.68	0.00
369.87	0.00
370.07	0.00
370.27	0.00
370.47	0.00
370.66	2.34
370.86	67.88
371.06	147.45
371.25	170.86
371.45	159.16
371.65	107.66
371.84	166.18
372.04	196.60
372.24	86.60
372.44	161.50
372.63	159.16
372.83	147.45
373.03	142.77
373.22	212.99
373.42	222.35
373.62	229.37
373.81	299.59
374.01	224.69
374.21	229.37
374.40	269.16
374.60	231.71
374.79	212.99
374.99	175.54
375.19	243.42
375.38	276.18
375.58	217.67
375.78	287.89
375.97	175.54
376.17	337.04
376.37	236.39
376.56	269.16
376.76	189.58
376.95	201.29
377.15	168.52
377.35	203.63
377.54	369.80
377.74	301.93
377.93	285.55
378.13	212.99
378.33	283.20
378.52	283.20
378.72	241.08
378.91	238.73
379.11	236.39
379.31	262.14
379.50	292.57
379.70	358.10
379.89	355.76
380.09	248.10
380.28	266.82
380.48	308.95
380.68	337.04
380.87	266.82
381.07	292.57
381.26	337.04
381.46	290.23
381.65	320.65
381.85	299.59
382.04	308.95
382.24	318.31
382.43	376.83
382.63	339.38
382.83	351.08
383.02	283.20
383.22	381.51
383.41	341.72
383.61	409.59
383.80	381.51
384.00	456.40
384.19	397.89
384.39	418.96
384.58	386.19
384.78	416.62
384.97	369.80
385.17	369.80
385.36	397.89
385.56	337.04
385.75	416.62
385.95	369.80
386.14	383.85
386.34	330.02
386.53	320.65
386.72	407.25
386.92	395.55
387.11	430.66
387.31	451.72
387.50	390.87
387.70	449.38
387.89	407.25
388.09	344.06
388.28	458.74
388.48	500.87
388.67	479.81
388.86	496.19
389.06	468.11
389.25	540.66
389.45	437.68
389.64	484.49
389.84	428.32
390.03	444.70
390.22	425.98
390.42	437.68
390.61	489.17
390.81	505.56
391.00	458.74
391.19	491.51
391.39	578.11
391.58	512.58
391.78	573.43
391.97	571.09
392.16	514.92
392.36	526.62
392.55	540.66
392.75	566.41
392.94	491.51
393.13	538.32
393.33	582.79
393.52	594.50
393.71	550.03
393.91	610.88
394.10	533.64
394.29	554.71
394.49	667.05
394.68	514.92
394.88	634.29
395.07	650.67
395.26	648.33
395.46	676.41
395.65	641.31
395.84	667.05
396.04	613.22
396.23	624.92
396.42	739.61
396.62	681.10
396.81	634.29
397.00	683.44
397.19	648.33
397.39	732.59
397.58	671.73
397.77	699.82
397.97	706.84
398.16	713.86
398.35	622.58
398.55	664.71
398.74	786.42
398.93	678.76
399.12	631.94
399.32	620.24
399.51	809.83
399.70	840.25
399.90	741.95
400.09	739.61
400.28	734.93
400.47	863.66
400.67	772.38
400.86	690.46
401.05	786.42
401.24	777.06
401.44	858.98
401.63	858.98
401.82	835.57
402.01	777.06
402.21	821.53
402.40	835.57
402.59	926.85
402.78	919.83
402.97	812.17
403.17	858.98
403.36	901.11
403.55	798.12
403.74	896.43
403.93	985.37
404.13	933.87
404.32	959.62
404.51	889.40
404.70	940.90
404.89	917.49
405.09	968.98
405.28	976.00
405.47	940.90
405.66	1015.79
405.85	1053.24
406.05	891.74
406.24	940.90
406.43	940.90
406.62	1022.81
406.81	1043.88
407.00	950.26
407.20	1006.43
407.39	1022.81
407.58	1069.62
407.77	1088.35
407.96	1111.75
408.15	1151.54
408.34	1107.07
408.54	1130.48
408.73	1104.73
408.92	1067.28
409.11	1153.88
409.30	1128.14
409.49	1088.35
409.68	1128.14
409.87	1224.10
410.07	1249.85
410.26	1177.29
410.45	1242.82
410.64	1235.80
410.83	1186.65
411.02	1191.33
411.21	1254.53
411.40	1322.40
411.59	1338.79
411.78	1240.48
411.98	1299.00
412.17	1322.40
412.36	1226.44
412.55	1287.29
412.74	1299.00
412.93	1348.15
413.12	1284.95
413.31	1406.66
413.50	1397.30
413.69	1448.79
413.88	1453.47
414.07	1401.98
414.26	1462.83
414.45	1547.09
414.64	1493.26
414.83	1483.90
415.02	1523.69
415.22	1516.67
415.41	1554.12
415.60	1547.09
415.79	1514.33
415.98	1671.14
416.17	1579.86
416.36	1629.01
416.55	1610.29
416.74	1748.38
416.93	1652.42
417.12	1626.67
417.31	1650.08
417.50	1729.66
417.69	1624.33
417.88	1703.91
418.07	1743.70
418.26	1774.13
418.45	1886.47
418.64	1839.66
418.83	1778.81
419.02	1795.19
419.21	1776.47
419.39	1813.92
419.58	1818.60
419.77	1839.66
419.96	1956.69
420.15	1844.34
420.34	1893.49
420.53	1799.87
420.72	1900.52
420.91	1827.96
421.10	1874.77
421.29	2047.97
421.48	1919.24
421.67	1975.41
421.86	1870.09
422.05	1881.79
422.24	1991.80
422.43	2031.58
422.61	2024.56
422.80	1961.37
422.99	2050.31
423.18	1987.11
423.37	1991.80
423.56	2026.90
423.75	2090.10
423.94	2101.80
424.13	1963.71
424.32	1942.64
424.50	2031.58
424.69	2057.33
424.88	2040.95
425.07	2040.95
425.26	1984.77
425.45	2003.50
425.64	2111.16
425.83	2160.31
426.01	2080.74
426.20	2143.93
426.39	2059.67
426.58	2230.53
426.77	2204.78
426.96	2101.80
427.15	2157.97
427.33	2143.93
427.52	2153.29
427.71	2153.29
427.90	2148.61
428.09	2176.70
428.28	2162.66
428.46	2160.31
428.65	2235.21
428.84	2303.09
429.03	2200.10
429.22	2172.02
429.40	2221.17
429.59	2296.07
429.78	2197.76
429.97	2333.51
430.16	2195.42
430.34	2408.41
430.53	2389.69
430.72	2403.73
430.91	2270.32
431.10	2368.62
431.28	2459.90
431.47	2373.30
431.66	2424.80
431.85	2338.20
432.03	2431.82
432.22	2518.42
432.41	2506.71
432.60	2523.10
432.79	2492.67
432.97	2485.65
433.16	2495.01
433.35	2431.82
433.54	2569.91
433.72	2605.02
433.91	2471.61
434.10	2541.82
434.28	2539.48
434.47	2516.08
434.66	2530.12
434.85	2574.59
435.03	2705.66
435.22	2569.91
435.41	2590.97
435.59	2672.89
435.78	2696.30
435.97	2637.78
436.16	2527.78
436.34	2661.19
436.53	2909.29
436.72	2813.32
436.90	2726.72
437.09	2806.30
437.28	2672.89
437.46	2710.34
437.65	2869.50
437.84	2827.37
438.02	2855.45
438.21	2822.69
438.40	2726.72
438.58	2925.67
438.77	2803.96
438.96	2916.31
439.14	2911.63
439.33	3021.63
439.52	3045.04
439.70	2995.89
439.89	3030.99
440.08	3059.08
440.26	3124.62
440.45	3143.34
440.63	3234.62
440.82	3190.15
441.01	3075.46
441.19	3166.74
441.38	3272.07
441.57	3307.18
441.75	3297.81
441.94	3269.73
442.12	3375.05
442.31	3365.69
442.50	3279.09
442.68	3353.99
442.87	3258.03
443.05	3323.56
443.24	3566.98
443.43	3449.95
443.61	3574.00
443.80	3480.38
443.98	3389.10
444.17	3265.05
444.35	3496.76
444.54	3459.31
444.73	3588.04
444.91	3496.76
445.10	3496.76
445.28	3400.80
445.47	3400.80
445.65	3449.95
445.84	3419.52
446.02	3508.46
446.21	3407.82
446.39	3503.78
446.58	3510.80
446.77	3562.30
446.95	3639.53
447.14	3599.74
447.32	3583.36
447.51	3438.25
447.69	3513.14
447.88	3571.66
448.06	3721.45
448.25	3653.58
448.43	3679.32
448.62	3536.55
448.80	3599.74
448.99	3571.66
449.17	3564.64
449.36	3562.30
449.54	3742.52
449.73	3749.54
449.91	3712.09
450.10	3716.77
450.28	3705.07
450.46	3801.03
450.65	3747.20
450.83	3796.35
451.02	3709.75
451.20	3868.91
451.39	3829.12
451.57	3798.69
451.76	3850.18
451.94	3920.40
452.13	3955.51
452.31	3868.91
452.49	4002.32
452.68	4016.36
452.86	3815.07
453.05	3892.31
453.23	3939.12
453.42	3901.67
453.60	3873.59
453.78	3934.44
453.97	3999.98
454.15	4037.42
454.34	3953.16
454.52	4145.09
454.70	4124.02
454.89	4051.47
455.07	4191.90
455.26	4156.79
455.44	4189.56
455.62	4067.85
455.81	4212.96
455.99	4121.68
456.17	3974.23
456.36	4257.43
456.54	4369.78
456.73	4400.21
456.91	4365.10
457.09	4292.54
457.28	4407.23
457.46	4292.54
457.64	4346.37
457.83	4334.67
458.01	4414.25
458.19	4468.08
458.38	4470.42
458.56	4613.20
458.74	4442.34
458.93	4514.89
459.11	4425.95
459.29	4526.60
459.48	4578.09
459.66	4486.81
459.84	4510.21
460.03	4627.24
460.21	4603.83
460.39	4592.13
460.57	4505.53
460.76	4608.51
460.94	4617.88
461.12	4793.42
461.31	4786.40
461.49	4564.04
461.67	4638.94
461.85	4667.03
462.04	4660.01
462.22	4945.55
462.40	4711.50
462.59	4734.90
462.77	4849.59
462.95	4936.19
463.13	4744.27
463.32	4908.10
463.50	4924.49
463.68	5004.07
463.86	4868.31
464.05	4830.87
464.23	4929.17
464.41	5205.35
464.59	4919.81
464.78	4915.12
464.96	5074.28
465.14	4805.12
465.32	4786.40
465.50	5100.03
465.69	5022.79
465.87	4931.51
466.05	5008.75
466.23	4884.70
466.41	5046.20
466.60	5205.35
466.78	5022.79
466.96	5097.69
467.14	5102.37
467.32	5085.98
467.51	5177.26
467.69	5195.99
467.87	5315.36
468.05	5191.31
468.23	5245.14
468.41	5310.68
468.60	5317.70
468.78	5476.85
468.96	5193.65
469.14	5348.12
469.32	5305.99
469.50	5228.76
469.69	5416.00
469.87	5378.55
470.05	5575.16
470.23	5486.22
470.41	5474.51
470.59	5598.56
470.77	5598.56
470.95	5636.01
471.14	5678.14
471.32	5523.66
471.50	5624.31
471.68	5668.78
471.86	5771.76
472.04	5603.24
472.22	5792.83
472.40	5694.52
472.58	5806.87
472.77	5865.38
472.95	5846.66
473.13	6031.56
473.31	5849.00
473.49	5806.87
473.67	5975.39
473.85	5877.09
474.03	5940.28
474.21	6104.12
474.39	6146.25
474.57	6080.71
474.75	6328.81
474.93	6221.14
475.12	6218.80
475.30	6469.24
475.48	6277.32
475.66	6377.96
475.84	6293.70
476.02	6303.06
476.20	6366.26
476.38	6544.14
476.56	6572.22
476.74	6590.95
476.92	6698.61
477.10	6609.67
477.28	6726.70
477.46	6672.87
477.64	6780.53
477.82	6832.02
478.00	7070.76
478.18	7075.44
478.36	7075.44
478.54	7227.57
478.72	7215.87
478.90	7206.51
479.08	7246.30
479.26	7197.15
479.44	7531.84
479.62	7351.62
479.80	7522.48
479.98	7592.70
480.16	7735.47
480.34	7843.14
480.52	7592.70
480.70	7707.38
480.88	7648.87
481.06	7840.79
481.24	7801.01
481.41	7824.41
481.59	8133.36
481.77	8095.91
481.95	8180.17
482.13	8355.71
482.31	8077.19
482.49	8493.80
482.67	8390.82
482.85	8407.20
483.03	8695.09
483.21	8699.77
483.39	8777.01
483.57	8746.58
483.74	8788.71
483.92	8833.18
484.10	8784.03
484.28	9078.94
484.46	9294.27
484.64	9392.57
484.82	9074.26
485.00	9146.81
485.18	9579.81
485.35	9308.31
485.53	9633.64
485.71	9528.32
485.89	9720.24
486.07	9685.14
486.25	9703.86
486.43	9736.63
486.61	9947.28
486.78	10209.42
486.96	10057.28
487.14	10031.54
487.32	10148.56
487.50	10181.33
487.68	10321.76
487.85	10473.90
488.03	10752.42
488.21	10775.83
488.39	10623.69
488.57	10874.13
488.75	10663.48
488.92	11066.05
489.10	11042.65
489.28	11138.61
489.46	11564.59
489.64	11103.50
489.81	11690.98
489.99	11620.76
490.17	11426.50
490.35	11695.66
490.53	11587.99
490.70	11744.81
490.88	11908.65
491.06	11866.52
491.24	11915.67
491.41	11976.52
491.59	12358.03
491.77	12416.54
491.95	12133.34
492.13	12266.75
492.30	12423.56
492.48	12315.90
492.66	12421.22
492.84	12465.69
493.01	12727.83
493.19	12758.26
493.37	12809.75
493.54	13022.74
493.72	13209.98
493.90	12966.57
494.08	13224.03
494.25	13336.37
494.43	13352.76
494.61	13362.12
494.79	13518.93
494.96	13584.47
495.14	13617.24
495.32	13661.71
495.49	13820.86
495.67	13647.66
495.85	13788.10
496.02	13790.44
496.20	14066.62
496.38	14209.39
496.55	14429.40
496.73	14672.82
496.91	14387.27
497.09	14333.44
497.26	14415.36
497.44	14785.16
497.62	14448.13
497.79	14885.81
497.97	14387.27
498.14	14977.09
498.32	14899.85
498.50	15222.84
498.67	15077.73
498.85	15225.18
499.03	15140.93
499.20	15204.12
499.38	15276.68
499.56	15634.78
499.73	15370.30
499.91	15597.33
500.08	15695.63
500.26	15784.57
500.44	15644.14
500.61	16121.61
500.79	15737.76
500.97	15939.05
501.14	16308.85
501.32	16154.38
501.49	15960.11
501.67	16084.16
501.84	16217.57
502.02	16006.92
502.20	16322.90
502.37	16484.39
502.55	16142.67
502.72	16315.87
502.90	16379.07
503.07	16470.35
503.25	16673.98
503.43	16453.97
503.60	16627.17
503.78	16713.77
503.95	16954.84
504.13	16884.62
504.30	16898.67
504.48	16798.02
504.65	16924.41
504.83	17144.42
505.01	17273.15
505.18	17226.34
505.36	17415.93
505.53	17296.56
505.71	17348.05
505.88	17701.47
506.06	17376.14
506.23	17467.42
506.41	17589.13
506.58	17783.39
506.76	17521.25
506.93	17783.39
507.11	17680.41
507.28	17584.44
507.46	17940.21
507.63	17851.27
507.81	18279.58
507.98	17884.03
508.16	17980.00
508.33	18073.62
508.50	18354.48
508.68	17963.61
508.85	18342.78
509.03	18263.20
509.20	18366.18
509.38	18541.72
509.55	18838.97
509.73	18815.57
509.90	18888.12
510.08	18677.48
510.25	18551.09
510.42	18888.12
510.60	18927.91
510.77	18906.85
510.95	18944.30
511.12	19009.83
511.30	19080.05
511.47	19204.10
511.64	19037.92
511.82	19239.20
511.99	19000.47
512.17	19435.81
512.34	19571.56
512.51	19389.00
512.69	19440.49
512.86	19384.32
513.04	19779.87
513.21	19716.67
513.38	19552.84
513.56	19796.25
513.73	19772.85
513.90	19812.63
514.08	19885.19
514.25	20123.93
514.43	19936.68
514.60	19878.17
514.77	20049.03
514.95	20191.80
515.12	20299.47
515.29	20114.56
515.47	20414.15
515.64	20463.30
515.81	20189.46
515.99	20177.76
516.16	20805.02
516.33	20683.31
516.51	20793.32
516.68	20554.58
516.85	20463.30
517.03	20884.60
517.20	20833.11
517.37	20706.72
517.54	20577.99
517.72	21041.42
517.89	21109.29
518.06	21132.70
518.24	21027.37
518.41	21048.44
518.58	20861.19
518.75	21188.87
518.93	21144.40
519.10	21139.72
519.27	21530.59
519.45	21238.02
519.62	21460.37
519.79	21350.37
519.96	21598.46
520.14	21598.46
520.31	21451.01
520.48	21542.29
520.65	21816.13
520.83	21600.80
521.00	22026.78
521.17	22008.06
521.34	21708.47
521.52	21759.96
521.69	21568.04
521.86	22270.20
522.03	22649.36
522.20	22204.66
522.38	21837.20
522.55	22286.58
522.72	21811.45
522.89	22541.70
523.07	22586.17
523.24	22691.49
523.41	22862.35
523.58	22326.37
523.75	22260.84
523.92	22522.98
524.10	22448.08
524.27	22820.22
524.44	22766.39
524.61	23131.51
524.78	22970.02
524.96	22848.31
525.13	22614.26
525.30	22836.61
525.47	23168.96
525.64	22757.03
525.81	23026.19
525.98	23063.64
526.16	23030.87
526.33	23276.63
526.50	23517.70
526.67	23042.57
526.84	23386.63
527.01	23201.73
527.18	23028.53
527.36	23737.71
527.53	23440.47
527.70	24004.53
527.87	23597.28
528.04	23548.13
528.21	23805.59
528.38	23447.49
528.55	23981.13
528.72	23367.91
528.89	24018.58
529.07	23697.92
529.24	23772.82
529.41	23852.40
529.58	23971.77
529.75	23718.99
529.92	23852.40
530.09	23707.29
530.26	24025.60
530.43	24187.10
530.60	24114.54
530.77	23983.47
530.94	24367.32
531.11	24128.58
531.28	24009.22
531.46	24332.21
531.63	24332.21
531.80	24489.03
531.97	24542.86
532.14	24755.85
532.31	24414.13
532.48	24208.16
532.65	24589.67
532.82	24395.40
532.99	24673.93
533.16	24512.43
533.33	24769.89
533.50	24807.34
533.67	25287.15
533.84	24680.95
534.01	24627.12
534.18	24594.35
534.35	24769.89
534.52	24748.82
534.69	24968.84
534.86	24863.51
535.03	25160.76
535.20	25324.60
535.37	25287.15
535.54	25238.00
535.71	25144.38
535.88	25193.53
536.05	25266.08
536.22	25282.47
536.38	25528.22
536.55	25390.13
536.72	25350.34
536.89	24931.39
537.06	25280.13
537.23	25411.20
537.40	25273.10
537.57	25340.98
537.74	25614.82
537.91	25795.04
538.08	25450.99
538.25	25598.44
538.42	25729.51
538.59	25970.58
538.75	25696.74
538.92	25687.38
539.09	25799.73
539.26	25919.09
539.43	25783.34
539.60	25867.60
539.77	25912.07
539.94	26197.62
540.11	26462.10
540.28	26115.70
540.44	25921.43
540.61	26396.56
540.78	25720.15
540.95	26111.02
541.12	26010.37
541.29	26602.53
541.46	26120.38
541.62	26169.53
541.79	26314.64
541.96	26061.87
542.13	26286.56
542.30	26464.44
542.47	26991.06
542.63	26778.07
542.80	26459.76
542.97	26899.78
543.14	26663.38
543.31	26735.94
543.48	26726.58
543.64	27166.60
543.81	26965.31
543.98	27168.94
544.15	26911.48
544.32	27159.58
544.48	27087.02
544.65	26902.12
544.82	26871.69
544.99	27133.83
545.16	26890.41
545.32	26984.04
545.49	26920.84
545.66	27587.89
545.83	27271.92
546.00	27449.80
546.16	27316.39
546.33	27278.94
546.50	27157.24
546.67	27550.45
546.83	27243.84
547.00	27096.38
547.17	27292.99
547.34	27248.52
547.50	27475.55
547.67	27997.49
547.84	27421.72
548.00	27887.48
548.17	27508.32
548.34	27442.78
548.51	27655.77
548.67	27541.08
548.84	27875.78
549.01	27995.15
549.18	27641.73
549.34	27707.26
549.51	27482.57
549.68	27805.56
549.84	27693.22
550.01	28041.96
550.18	27634.71
550.34	27920.25
550.51	28009.19
550.68	28341.55
550.84	28123.88
551.01	27864.08
551.18	27847.69
551.34	28203.46
551.51	28067.70
551.68	27817.27
551.84	28491.34
552.01	27936.63
552.18	28280.69
552.34	28215.16
552.51	28224.52
552.68	27955.36
552.84	28020.89
553.01	28451.55
553.18	28348.57
553.34	28177.71
553.51	28498.36
553.67	28620.07
553.84	28659.86
554.01	28489.00
554.17	28685.61
554.34	28481.98
554.51	28629.43
554.67	28802.63
554.84	28266.65
555.00	28437.51
555.17	28687.95
555.33	28795.61
555.50	28547.51
555.67	28973.49
555.83	29081.16
556.00	28814.34
556.16	29163.08
556.33	28936.04
556.50	28854.12
556.66	29118.60
556.83	28842.42
556.99	28723.05
557.16	29083.50
557.32	29181.80
557.49	29200.52
557.65	28535.81
557.82	28833.06
557.98	28753.48
558.15	29261.38
558.32	29053.07
558.48	28816.68
558.65	29160.73
558.81	29078.82
558.98	28917.32
559.14	28975.83
559.31	28774.55
559.47	29067.11
559.64	28994.56
559.80	29188.82
559.97	29432.24
560.13	28725.39
560.30	29619.48
560.46	29223.93
560.63	29085.84
560.79	29097.54
560.96	29436.92
561.12	29352.66
561.29	28989.88
561.45	29345.64
561.61	29610.12
561.78	29579.69
561.94	29544.58
562.11	29528.20
562.27	29603.10
562.44	29500.11
562.60	29413.51
562.77	29069.45
562.93	29472.03
563.10	29790.34
563.26	29511.81
563.42	29565.65
563.59	29509.47
563.75	29689.70
563.92	29907.37
564.08	29347.98
564.24	29572.67
564.41	29572.67
564.57	29670.97
564.74	29741.19
564.90	29986.94
565.07	29497.77
565.23	30024.39
565.39	29673.31
565.56	29862.90
565.72	29619.48
565.88	29633.52
566.05	29809.06
566.21	29549.26
566.38	29448.62
566.54	29865.24
566.70	30253.76
566.87	29872.26
567.03	30150.78
567.19	30127.38
567.36	30129.72
567.52	29397.13
567.68	30120.35
567.85	29837.15
568.01	30263.13
568.17	29584.37
568.34	29619.48
568.50	29764.59
568.66	30132.06
568.83	30316.96
568.99	29912.05
569.15	30218.66
569.32	29617.14
569.48	29661.61
569.64	30199.93
569.81	29865.24
569.97	29907.37
570.13	30309.94
570.30	29984.60
570.46	30003.33
570.62	30202.27
570.78	30073.54
570.95	29511.81
571.11	30153.12
571.27	29839.49
571.43	29865.24
571.60	30038.44
571.76	30326.32
571.92	30099.29
572.09	30258.45
572.25	30089.93
572.41	30080.56
572.57	30249.08
572.74	30455.05
572.90	30129.72
573.06	30244.40
573.22	30092.27
573.38	30272.49
573.55	30080.56
573.71	30590.80
573.87	30684.42
574.03	30249.08
574.20	30078.22
574.36	30237.38
574.52	30099.29
574.68	29930.77
574.84	29912.05
575.01	30185.89
575.17	30162.48
575.33	30183.55
575.49	30415.26
575.65	30326.32
575.82	30038.44
575.98	29820.77
576.14	30089.93
576.30	30092.27
576.46	30256.11
576.62	29764.59
576.79	30267.81
576.95	30188.23
577.11	30724.21
577.27	30429.30
577.43	30431.65
577.59	30307.60
577.75	30398.88
577.92	30071.20
578.08	30331.00
578.24	30457.39
578.40	30206.95
578.56	30455.05
578.72	30501.86
578.88	30419.94
579.04	30850.60
579.21	29979.92
579.37	30312.28
579.53	30457.39
579.69	29869.92
579.85	30565.06
580.01	30230.36
580.17	30115.67
580.33	30452.71
580.49	30211.64
580.65	30862.30
580.82	30803.79
580.98	30675.06
581.14	30593.14
581.30	30696.13
581.46	30237.38
581.62	30286.53
581.78	30033.75
581.94	30574.42
582.10	30714.85
582.26	30520.59
582.42	30373.13
582.58	30646.97
582.74	30153.12
582.90	30443.35
583.06	30756.98
583.22	30525.27
583.38	30328.66
583.54	30323.98
583.70	30363.77
583.86	30204.61
584.02	30153.12
584.18	30972.31
584.34	30677.40
584.50	30675.06
584.66	30665.70
584.82	30340.36
584.98	30693.79
585.14	30789.75
585.30	30433.99
585.46	30663.36
585.62	30621.23
585.78	30417.60
585.94	30403.56
586.10	30499.52
586.26	30721.87
586.42	30827.20
586.58	30682.08
586.74	30480.80
586.90	30127.38
587.06	30387.18
587.22	30333.34
587.38	30511.22
587.54	30518.25
587.70	30644.63
587.86	30951.24
588.02	31096.36
588.18	30637.61
588.34	30862.30
588.49	30930.18
588.65	30686.76
588.81	30838.90
588.97	30813.15
589.13	30874.01
589.29	30883.37
589.45	30356.75
589.61	30787.41
589.77	30752.30
589.93	31173.60
590.08	31117.42
590.24	30976.99
590.40	30869.33
590.56	31117.42
590.72	30714.85
590.88	30532.29
591.04	31049.55
591.20	31105.72
591.35	31072.95
591.51	31058.91
591.67	31295.30
591.83	31459.14
591.99	30948.90
