SpectraSuite Data File
++++++++++++++++++++++++++++++++++++
Date: Fri Oct 18 13:58:03 GMT-05:00 2013
User: bianchi
Dark Spectrum Present: No
Reference Spectrum Present: No
Number of Sampled Component Spectra: 1
Spectrometers: USB2+H05261
Integration Time (usec): 50000 (USB2+H05261)
Spectra Averaged: 1 (USB2+H05261)
Boxcar Smoothing: 0 (USB2+H05261)
Correct for Electrical Dark: No (USB2+H05261)
Strobe/Lamp Enabled: No (USB2+H05261)
Correct for Detector Non-linearity: No (USB2+H05261)
Correct for Stray Light: No (USB2+H05261)
Number of Pixels in Processed Spectrum: 2048
>>>>>Begin Processed Spectral Data<<<<<
365.73	0.00
365.92	0.00
366.12	0.00
366.32	0.00
366.52	0.00
366.72	0.00
366.91	0.00
367.11	0.00
367.31	0.00
367.51	0.00
367.70	0.00
367.90	0.00
368.10	0.00
368.30	0.00
368.49	0.00
368.69	0.00
368.89	0.00
369.09	0.00
369.28	0.00
369.48	0.00
369.68	0.00
369.87	0.00
370.07	0.00
370.27	0.00
370.47	0.00
370.66	100.64
370.86	145.11
371.06	133.41
371.25	220.01
371.45	119.37
371.65	102.98
371.84	170.86
372.04	70.22
372.24	191.92
372.44	161.50
372.63	173.20
372.83	187.24
373.03	159.16
373.22	152.13
373.42	191.92
373.62	262.14
373.81	222.35
374.01	262.14
374.21	222.35
374.40	250.44
374.60	248.10
374.79	210.65
374.99	227.03
375.19	313.63
375.38	245.76
375.58	252.78
375.78	220.01
375.97	187.24
376.17	243.42
376.37	241.08
376.56	306.61
376.76	231.71
376.95	238.73
377.15	220.01
377.35	191.92
377.54	257.46
377.74	229.37
377.93	297.25
378.13	248.10
378.33	280.86
378.52	280.86
378.72	294.91
378.91	372.15
379.11	250.44
379.31	250.44
379.50	348.74
379.70	315.97
379.89	306.61
380.09	262.14
380.28	278.52
380.48	320.65
380.68	250.44
380.87	269.16
381.07	395.55
381.26	294.91
381.46	264.48
381.65	376.83
381.85	311.29
382.04	355.76
382.24	365.12
382.43	297.25
382.63	332.36
382.83	365.12
383.02	379.17
383.22	383.85
383.41	299.59
383.61	404.91
383.80	348.74
384.00	414.27
384.19	341.72
384.39	397.89
384.58	397.89
384.78	395.55
384.97	381.51
385.17	430.66
385.36	404.91
385.56	411.93
385.75	346.40
385.95	322.99
386.14	318.31
386.34	400.23
386.53	465.77
386.72	365.12
386.92	421.30
387.11	388.53
387.31	374.49
387.50	444.70
387.70	416.62
387.89	440.02
388.09	451.72
388.28	444.70
388.48	400.23
388.67	430.66
388.86	409.59
389.06	447.04
389.25	472.79
389.45	479.81
389.64	451.72
389.84	465.77
390.03	543.00
390.22	390.87
390.42	411.93
390.61	442.36
390.81	491.51
391.00	451.72
391.19	571.09
391.39	498.53
391.58	491.51
391.78	472.79
391.97	547.69
392.16	564.07
392.36	566.41
392.55	557.05
392.75	582.79
392.94	575.77
393.13	596.84
393.33	552.37
393.52	533.64
393.71	517.26
393.91	582.79
394.10	613.22
394.29	531.30
394.49	533.64
394.68	608.54
394.88	601.52
395.07	678.76
395.26	671.73
395.46	655.35
395.65	596.84
395.84	669.39
396.04	702.16
396.23	606.20
396.42	627.26
396.62	547.69
396.81	709.18
397.00	636.63
397.19	608.54
397.39	657.69
397.58	636.63
397.77	631.94
397.97	667.05
398.16	678.76
398.35	699.82
398.55	636.63
398.74	657.69
398.93	727.91
399.12	702.16
399.32	648.33
399.51	727.91
399.70	730.25
399.90	814.51
400.09	753.65
400.28	744.29
400.47	737.27
400.67	788.76
400.86	765.36
401.05	730.25
401.24	863.66
401.44	851.96
401.63	814.51
401.82	828.55
402.01	880.04
402.21	875.36
402.40	891.74
402.59	802.80
402.78	858.98
402.97	770.04
403.17	894.08
403.36	849.61
403.55	819.19
403.74	901.11
403.93	905.79
404.13	915.15
404.32	882.38
404.51	866.00
404.70	945.58
404.89	849.61
405.09	1001.75
405.28	919.83
405.47	919.83
405.66	908.13
405.85	1060.26
406.05	987.71
406.24	980.68
406.43	903.45
406.62	1114.10
406.81	1057.92
407.00	1069.62
407.20	1067.28
407.39	1050.90
407.58	1055.58
407.77	1069.62
407.96	1097.71
408.15	1050.90
408.34	999.41
408.54	1041.54
408.73	1114.10
408.92	1050.90
409.11	1132.82
409.30	1036.86
409.49	1123.46
409.68	1177.29
409.87	1249.85
410.07	1200.69
410.26	1153.88
410.45	1200.69
410.64	1198.35
410.83	1144.52
411.02	1240.48
411.21	1198.35
411.40	1139.84
411.59	1193.67
411.78	1320.06
411.98	1252.19
412.17	1329.42
412.36	1259.21
412.55	1301.34
412.74	1341.13
412.93	1409.00
413.12	1338.79
413.31	1425.39
413.50	1420.71
413.69	1500.28
413.88	1427.73
414.07	1427.73
414.26	1423.05
414.45	1476.88
414.64	1455.81
414.83	1495.60
415.02	1488.58
415.22	1437.09
415.41	1570.50
415.60	1586.88
415.79	1504.96
415.98	1708.59
416.17	1556.46
416.36	1650.08
416.55	1654.76
416.74	1598.59
416.93	1605.61
417.12	1767.10
417.31	1650.08
417.50	1673.48
417.69	1715.61
417.88	1736.68
418.07	1739.02
418.26	1750.72
418.45	1783.49
418.64	1825.62
418.83	1797.53
419.02	1781.15
419.21	1806.89
419.39	1837.32
419.58	1811.57
419.77	1881.79
419.96	1881.79
420.15	1905.20
420.34	1788.17
420.53	1860.73
420.72	1980.09
420.91	1970.73
421.10	1963.71
421.29	1973.07
421.48	1898.17
421.67	1858.39
421.86	1966.05
422.05	1937.96
422.24	1888.81
422.43	2010.52
422.61	1877.11
422.80	1982.43
422.99	2003.50
423.18	1994.14
423.37	2005.84
423.56	2031.58
423.75	1944.99
423.94	2003.50
424.13	1769.44
424.32	1907.54
424.50	2045.63
424.69	2106.48
424.88	2012.86
425.07	2054.99
425.26	1937.96
425.45	2062.01
425.64	2083.08
425.83	2104.14
426.01	2092.44
426.20	2059.67
426.39	2010.52
426.58	2076.06
426.77	2076.06
426.96	2045.63
427.15	2099.46
427.33	2136.91
427.52	2073.71
427.71	2143.93
427.90	2190.74
428.09	2127.55
428.28	2244.57
428.46	2228.19
428.65	2085.42
428.84	2214.15
429.03	2275.00
429.22	2162.66
429.40	2289.04
429.59	2319.47
429.78	2160.31
429.97	2094.78
430.16	2221.17
430.34	2275.00
430.53	2307.77
430.72	2342.88
430.91	2303.09
431.10	2331.17
431.28	2272.66
431.47	2328.83
431.66	2495.01
431.85	2406.07
432.03	2389.69
432.22	2495.01
432.41	2410.75
432.60	2410.75
432.79	2370.96
432.97	2452.88
433.16	2422.45
433.35	2459.90
433.54	2576.93
433.72	2583.95
433.91	2487.99
434.10	2471.61
434.28	2450.54
434.47	2525.44
434.66	2586.29
434.85	2574.59
435.03	2567.57
435.22	2544.16
435.41	2712.68
435.59	2450.54
435.78	2682.25
435.97	2651.83
436.16	2663.53
436.34	2675.23
436.53	2754.81
436.72	2822.69
436.90	2619.06
437.09	2789.92
437.28	2635.44
437.46	2698.64
437.65	2605.02
437.84	2736.09
438.02	2703.32
438.21	2768.85
438.40	2705.66
438.58	2958.44
438.77	2832.05
438.96	2782.90
439.14	2932.69
439.33	3082.49
439.52	2977.16
439.70	3035.67
439.89	3026.31
440.08	2995.89
440.26	3112.91
440.45	3061.42
440.63	3047.38
440.82	3040.36
441.01	3164.40
441.19	3138.66
441.38	3314.20
441.57	3187.81
441.75	3103.55
441.94	3122.27
442.12	3311.86
442.31	3412.50
442.50	3248.66
442.68	3227.60
442.87	3248.66
443.05	3246.32
443.24	3349.31
443.43	3363.35
443.61	3515.48
443.80	3459.31
443.98	3243.98
444.17	3332.92
444.35	3391.44
444.54	3548.25
444.73	3417.18
444.91	3412.50
445.10	3428.88
445.28	3520.17
445.47	3283.77
445.65	3510.80
445.84	3426.54
446.02	3346.97
446.21	3536.55
446.39	3646.55
446.58	3578.68
446.77	3550.59
446.95	3466.33
447.14	3545.91
447.32	3440.59
447.51	3576.34
447.69	3557.61
447.88	3536.55
448.06	3637.19
448.25	3578.68
448.43	3597.40
448.62	3478.04
448.80	3494.42
448.99	3478.04
449.17	3698.05
449.36	3478.04
449.54	3578.68
449.73	3695.71
449.91	3770.60
450.10	3789.33
450.28	3758.90
450.46	3932.10
450.65	3742.52
450.83	3861.88
451.02	3761.24
451.20	3779.97
451.39	3829.12
451.57	3765.92
451.76	3805.71
451.94	3822.09
452.13	3875.93
452.31	3990.61
452.49	3857.20
452.68	3817.41
452.86	3901.67
453.05	3957.85
453.23	4046.79
453.42	3843.16
453.60	3850.18
453.78	3976.57
453.97	3969.55
454.15	3915.72
454.34	3988.27
454.52	4042.11
454.70	4018.70
454.89	4168.49
455.07	4114.66
455.26	4175.52
455.44	4135.73
455.62	4102.96
455.81	4215.30
455.99	4065.51
456.17	4236.37
456.36	4086.58
456.54	4241.05
456.73	4248.07
456.91	4491.49
457.09	4283.18
457.28	4425.95
457.46	4241.05
457.64	4292.54
457.83	4437.66
458.01	4210.62
458.19	4526.60
458.38	4402.55
458.56	4329.99
458.74	4299.56
458.93	4355.74
459.11	4369.78
459.29	4344.03
459.48	4526.60
459.66	4500.85
459.84	4547.66
460.03	4573.41
460.21	4388.50
460.39	4688.09
460.57	4807.46
460.76	4526.60
460.94	4727.88
461.12	4648.30
461.31	4554.68
461.49	4559.36
461.67	4645.96
461.85	4753.63
462.04	4702.14
462.22	5018.11
462.40	4779.37
462.59	4830.87
462.77	4844.91
462.95	4891.72
463.13	4837.89
463.32	4873.00
463.50	4936.19
463.68	4933.85
463.86	4863.63
464.05	4849.59
464.23	4844.91
464.41	4821.50
464.59	4915.12
464.78	4816.82
464.96	5062.58
465.14	4875.34
465.32	5013.43
465.50	5083.64
465.69	5121.09
465.87	5074.28
466.05	5034.49
466.23	4990.02
466.41	5193.65
466.60	5226.42
466.78	5111.73
466.96	4997.04
467.14	5151.52
467.32	5163.22
467.51	5205.35
467.69	5006.41
467.87	5226.42
468.05	5081.30
468.23	5142.16
468.41	5188.97
468.60	5177.26
468.78	5240.46
468.96	5240.46
469.14	5287.27
469.32	5217.05
469.50	5198.33
469.69	5369.19
469.87	5348.12
470.05	5350.46
470.23	5535.37
470.41	5451.11
470.59	5275.57
470.77	5408.98
470.95	5603.24
471.14	5490.90
471.32	5455.79
471.50	5586.86
471.68	5547.07
471.86	5778.78
472.04	5729.63
472.22	5774.10
472.40	5708.57
472.58	5832.62
472.77	5729.63
472.95	5863.04
473.13	5930.92
473.31	5710.91
473.49	5823.25
473.67	5935.60
473.85	6033.90
474.03	5912.19
474.21	6043.26
474.39	6001.13
474.57	6188.38
474.75	6239.87
474.93	5954.32
475.12	6045.60
475.30	6340.51
475.48	6204.76
475.66	6384.98
475.84	6209.44
476.02	6457.54
476.20	6335.83
476.38	6565.20
476.56	6726.70
476.74	6626.06
476.92	6513.71
477.10	6555.84
477.28	6665.85
477.46	6665.85
477.64	6731.38
477.82	6909.26
478.00	6904.58
478.18	7049.69
478.36	7136.29
478.54	7059.06
478.72	7082.46
478.90	7148.00
479.08	7297.79
479.26	7410.14
479.44	7396.09
479.62	7332.90
479.80	7492.05
479.98	7407.80
480.16	7660.57
480.34	7496.74
480.52	7695.68
480.70	7805.69
480.88	7550.57
481.06	7875.90
481.24	7845.48
481.41	7707.38
481.59	8152.09
481.77	8238.69
481.95	8156.77
482.13	8049.10
482.31	8173.15
482.49	8397.84
482.67	8355.71
482.85	8294.86
483.03	8461.04
483.21	8575.72
483.39	8578.06
483.57	8674.03
483.74	8737.22
483.92	8777.01
484.10	8765.31
484.28	8975.95
484.46	8865.95
484.64	9097.66
484.82	8985.32
485.00	9188.94
485.18	9411.29
485.35	9530.66
485.53	9455.76
485.71	9380.87
485.89	9640.67
486.07	9643.01
486.25	9703.86
486.43	9715.56
486.61	9708.54
486.78	10031.54
486.96	10090.05
487.14	10129.84
487.32	10029.20
487.50	10331.12
487.68	10017.49
487.85	10394.32
488.03	10525.39
488.21	10590.92
488.39	10494.96
488.57	10497.30
488.75	10853.06
488.92	10864.77
489.10	11054.35
489.28	10932.64
489.46	10993.50
489.64	11166.70
489.81	11129.25
489.99	11314.15
490.17	11449.90
490.35	11651.19
490.53	11543.52
490.70	11733.11
490.88	11714.38
491.06	11705.02
491.24	11698.00
491.41	11772.89
491.59	12013.97
491.77	11922.69
491.95	12255.04
492.13	12233.98
492.30	12123.98
492.48	12442.29
492.66	12245.68
492.84	12442.29
493.01	12545.27
493.19	12666.98
493.37	12863.58
493.54	12826.14
493.72	13053.17
493.90	13029.76
494.08	13029.76
494.25	13158.49
494.43	13111.68
494.61	13345.73
494.79	13331.69
494.96	13254.45
495.14	13537.66
495.32	13406.59
495.49	13474.46
495.67	13619.58
495.85	13783.41
496.02	13851.29
496.20	14003.43
496.38	14207.05
496.55	14033.85
496.73	14473.87
496.91	14455.15
497.09	14218.75
497.26	14441.11
497.44	14101.73
497.62	14726.65
497.79	14752.40
497.97	14644.73
498.14	14967.73
498.32	15023.90
498.50	14864.74
498.67	15147.95
498.85	15070.71
499.03	14977.09
499.20	15215.82
499.38	15204.12
499.56	14949.00
499.73	15250.93
499.91	15564.56
500.08	15431.15
500.26	15260.29
500.44	15594.99
500.61	15473.28
500.79	15730.74
500.97	15747.12
501.14	15789.25
501.32	16222.25
501.49	15667.55
501.67	15957.77
501.84	15953.09
502.02	15925.00
502.20	16145.02
502.37	16578.01
502.55	16154.38
502.72	16374.39
502.90	16465.67
503.07	16189.49
503.25	16430.56
503.43	16379.07
503.60	16554.61
503.78	16517.16
503.95	16592.06
504.13	16744.19
504.30	16720.79
504.48	16580.36
504.65	16699.72
504.83	16802.71
505.01	17259.11
505.18	17273.15
505.36	17284.86
505.53	17280.18
505.71	17055.48
505.88	17245.07
506.06	17315.28
506.23	17324.65
506.41	17399.54
506.58	17474.44
506.76	17558.70
506.93	17720.20
507.11	17549.34
507.28	17799.77
507.46	17610.19
507.63	17816.16
507.81	17755.30
507.98	17696.79
508.16	17951.91
508.33	17680.41
508.50	18066.60
508.68	18188.30
508.85	18321.71
509.03	18118.09
509.20	18207.03
509.38	18438.74
509.55	18258.52
509.73	18394.27
509.90	18614.28
510.08	18520.66
510.25	18457.46
510.42	18455.12
510.60	18895.14
510.77	18803.86
510.95	18956.00
511.12	18871.74
511.30	18892.80
511.47	18979.40
511.64	19185.37
511.82	19124.52
511.99	18930.25
512.17	19365.59
512.34	19398.36
512.51	19480.28
512.69	19475.60
512.86	19103.45
513.04	19669.86
513.21	19417.08
513.38	19613.69
513.56	19381.98
513.73	19740.08
513.90	19836.04
514.08	19278.99
514.25	19812.63
514.43	19908.60
514.60	19866.47
514.77	19817.32
514.95	20100.52
515.12	19880.51
515.29	20093.50
515.47	19906.26
515.64	20458.62
515.81	20297.13
515.99	20409.47
516.16	20372.02
516.33	20250.32
516.51	20688.00
516.68	20566.29
516.85	20411.81
517.03	20526.50
517.20	20783.96
517.37	20627.14
517.54	20510.11
517.72	21027.37
517.89	20512.46
518.06	20601.40
518.24	20830.77
518.41	20559.27
518.58	20891.62
518.75	20980.56
518.93	20915.03
519.10	20971.20
519.27	21289.51
519.45	20922.05
519.62	21284.83
519.79	21195.89
519.96	21310.58
520.14	21333.98
520.31	21228.66
520.48	21326.96
520.65	21401.86
520.83	21348.03
521.00	21593.78
521.17	21144.40
521.34	21514.20
521.52	21811.45
521.69	21891.03
521.86	21874.65
522.03	21790.39
522.20	21797.41
522.38	22024.44
522.55	21792.73
522.72	21965.93
522.89	22192.96
523.07	22452.76
523.24	22195.30
523.41	22073.59
523.58	21907.41
523.75	22211.68
523.92	22134.45
524.10	22473.82
524.27	22513.61
524.44	22504.25
524.61	22869.37
524.78	22647.02
524.96	22672.77
525.13	22864.69
525.30	23033.21
525.47	22883.42
525.64	22593.19
525.81	23012.15
525.98	23063.64
526.16	22862.35
526.33	23023.85
526.50	23152.58
526.67	22836.61
526.84	22803.84
527.01	22876.40
527.18	23016.83
527.36	23082.36
527.53	23094.07
527.70	23365.57
527.87	23412.38
528.04	23419.40
528.21	23578.56
528.38	23337.48
528.55	23557.49
528.72	23625.37
528.89	23644.09
529.07	23459.19
529.24	23634.73
529.41	23789.20
529.58	23634.73
529.75	23630.05
529.92	23772.82
530.09	23957.72
530.26	23686.22
530.43	23836.02
530.60	23569.19
530.77	23840.70
530.94	23765.80
531.11	23880.49
531.28	23707.29
531.46	24180.07
531.63	23892.19
531.80	24519.45
531.97	24233.91
532.14	24311.14
532.31	24187.10
532.48	24229.23
532.65	24699.67
532.82	24334.55
532.99	24259.65
533.16	24556.90
533.33	24603.71
533.50	24610.73
533.67	24821.38
533.84	24276.04
534.01	24659.88
534.18	24313.48
534.35	24451.58
534.52	24549.88
534.69	24758.19
534.86	24961.81
535.03	24788.61
535.20	24973.52
535.37	25252.04
535.54	24692.65
535.71	24863.51
535.88	24812.02
536.05	24886.92
536.22	25324.60
536.38	25123.31
536.55	25064.80
536.72	25343.32
536.89	25205.23
537.06	25216.93
537.23	25184.16
537.40	25153.74
537.57	25067.14
537.74	25055.43
537.91	25268.42
538.08	25530.56
538.25	25252.04
538.42	25689.72
538.59	25474.39
538.75	25369.07
538.92	25771.64
539.09	25830.15
539.26	25551.63
539.43	25844.20
539.60	25844.20
539.77	25605.46
539.94	25804.41
540.11	25752.91
540.28	25633.55
540.44	25867.60
540.61	25694.40
540.78	25851.22
540.95	26256.13
541.12	25773.98
541.29	26167.19
541.46	26103.99
541.62	25933.14
541.79	25919.09
541.96	26064.21
542.13	26017.40
542.30	25865.26
542.47	26188.25
542.63	26363.79
542.80	25949.52
542.97	26572.10
543.14	26703.17
543.31	26403.58
543.48	26654.02
543.64	26562.74
543.81	26363.79
543.98	26796.79
544.15	26661.04
544.32	27178.30
544.48	27000.42
544.65	26808.50
544.82	26925.52
544.99	26129.74
545.16	26654.02
545.32	26700.83
545.49	26731.26
545.66	27164.26
545.83	26904.46
546.00	27255.54
546.16	27147.87
546.33	26738.28
546.50	26515.93
546.67	27070.64
546.83	26602.53
547.00	26864.67
547.17	27442.78
547.34	27367.88
547.50	27154.90
547.67	27541.08
547.84	27215.75
548.00	27337.46
548.17	27260.22
548.34	27131.49
548.51	27381.93
548.67	27278.94
548.84	27627.68
549.01	27447.46
549.18	27503.64
549.34	27494.27
549.51	27309.37
549.68	27520.02
549.84	27618.32
550.01	27681.52
550.18	27335.12
550.34	27241.50
550.51	27800.88
550.68	27721.30
550.84	27346.82
551.01	27576.19
551.18	27555.13
551.34	27391.29
551.51	27669.81
551.68	27924.93
551.84	28123.88
552.01	28002.17
552.18	28105.15
552.34	28297.08
552.51	28294.74
552.68	28086.43
552.84	27985.79
553.01	28446.87
553.18	27924.93
553.34	28290.06
553.51	28191.75
553.67	28072.39
553.84	28203.46
554.01	28273.67
554.17	28168.35
554.34	28219.84
554.51	27955.36
554.67	28606.03
554.84	28622.41
555.00	28048.98
555.17	27913.23
555.33	28362.61
555.50	28226.86
555.67	28601.35
555.83	28591.98
556.00	28421.13
556.16	28505.38
556.33	28264.31
556.50	28486.66
556.66	28657.52
556.83	28357.93
556.99	28701.99
557.16	28690.29
557.32	28685.61
557.49	29017.96
557.65	28386.02
557.82	28877.53
557.98	28353.25
558.15	28596.67
558.32	28671.56
558.48	28538.15
558.65	28980.51
558.81	29062.43
558.98	29198.18
559.14	29160.73
559.31	28886.89
559.47	29027.32
559.64	28926.68
559.80	29167.76
559.97	28893.91
560.13	28772.21
560.30	28828.38
560.46	29284.78
560.63	29001.58
560.79	29270.74
560.96	29289.46
561.12	28882.21
561.29	28823.70
561.45	28587.30
561.61	28790.93
561.78	29139.67
561.94	29343.30
562.11	28957.11
562.27	29228.61
562.44	29010.94
562.60	28950.09
562.77	29020.30
562.93	28624.75
563.10	29205.20
563.26	29120.95
563.42	29701.40
563.59	29689.70
563.75	29263.72
563.92	29429.90
564.08	28898.59
564.24	29333.93
564.41	29134.99
564.57	29319.89
564.74	29151.37
564.90	29605.44
565.07	29479.05
565.23	29387.77
565.39	29727.14
565.56	29689.70
565.72	29401.81
565.88	29706.08
566.05	29172.44
566.21	29294.14
566.38	29305.85
566.54	29212.23
566.70	29308.19
566.87	29514.16
567.03	29663.95
567.19	30047.80
567.36	29476.71
567.52	29647.57
567.68	29795.02
567.85	29418.19
568.01	29661.61
568.17	29577.35
568.34	29371.38
568.50	29502.45
568.66	29401.81
568.83	29921.41
568.99	30054.82
569.15	29413.51
569.32	29633.52
569.48	29752.89
569.64	29682.67
569.81	30075.88
569.97	29652.25
570.13	29724.80
570.30	29631.18
570.46	30003.33
570.62	29446.28
570.78	29886.30
570.95	29556.28
571.11	29645.23
571.27	29357.34
571.43	29565.65
571.60	29736.51
571.76	29935.45
571.92	29951.84
572.09	30043.12
572.25	29968.22
572.41	29940.13
572.57	29823.11
572.74	30045.46
572.90	29839.49
573.06	29687.36
573.22	29935.45
573.38	30036.09
573.55	29696.72
573.71	30108.65
573.87	29722.46
574.03	29947.15
574.20	29872.26
574.36	29780.98
574.52	29928.43
574.68	29802.04
574.84	29689.70
575.01	30134.40
575.17	29652.25
575.33	29795.02
575.49	29338.62
575.65	30288.87
575.82	29853.53
575.98	30139.08
576.14	29979.92
576.30	30064.18
576.46	29893.32
576.62	29905.02
576.79	29785.66
576.95	29963.54
577.11	29935.45
577.27	30089.93
577.43	29937.79
577.59	30101.63
577.75	29729.48
577.92	29867.58
578.08	29666.29
578.24	29575.01
578.40	29975.24
578.56	30345.05
578.72	30115.67
578.88	30258.45
579.04	30366.11
579.21	30300.58
579.37	30174.19
579.53	30354.41
579.69	29993.97
579.85	30012.69
580.01	30249.08
580.17	29993.97
580.33	30129.72
580.49	29956.52
580.65	30202.27
580.82	30050.14
580.98	30185.89
581.14	30087.59
581.30	30309.94
581.46	30417.60
581.62	29773.95
581.78	29951.84
581.94	30015.03
582.10	30384.83
582.26	30155.46
582.42	30281.85
582.58	29991.62
582.74	30033.75
582.90	30665.70
583.06	30178.87
583.22	29944.81
583.38	30141.42
583.54	29989.28
583.70	30281.85
583.86	30368.45
584.02	29954.18
584.18	30576.76
584.34	30218.66
584.50	30403.56
584.66	30412.92
584.82	29766.93
584.98	30602.50
585.14	30181.21
585.30	30019.71
585.46	30347.39
585.62	30183.55
585.78	30279.51
585.94	30457.39
586.10	29989.28
586.26	30309.94
586.42	30312.28
586.58	30490.16
586.74	30005.67
586.90	30478.46
587.06	29736.51
587.22	30225.68
587.38	30024.39
587.54	30518.25
587.70	30464.41
587.86	30394.20
588.02	30405.90
588.18	30661.02
588.34	30272.49
588.49	30459.73
588.65	29771.61
588.81	30583.78
588.97	29998.65
589.13	30164.82
589.29	30270.15
589.45	30426.96
589.61	30520.59
589.77	30878.69
589.93	30345.05
590.08	30768.68
590.24	30614.21
590.40	30941.88
590.56	30728.89
590.72	30558.03
590.88	30164.82
591.04	30316.96
591.20	30600.16
591.35	30513.56
591.51	30651.66
591.67	30637.61
591.83	30951.24
591.99	30558.03
