SpectraSuite Data File
++++++++++++++++++++++++++++++++++++
Date: Fri Oct 18 13:58:40 GMT-05:00 2013
User: bianchi
Dark Spectrum Present: No
Reference Spectrum Present: No
Number of Sampled Component Spectra: 1
Spectrometers: USB2+H05261
Integration Time (usec): 50000 (USB2+H05261)
Spectra Averaged: 1 (USB2+H05261)
Boxcar Smoothing: 0 (USB2+H05261)
Correct for Electrical Dark: No (USB2+H05261)
Strobe/Lamp Enabled: No (USB2+H05261)
Correct for Detector Non-linearity: No (USB2+H05261)
Correct for Stray Light: No (USB2+H05261)
Number of Pixels in Processed Spectrum: 2048
>>>>>Begin Processed Spectral Data<<<<<
365.73	0.00
365.92	0.00
366.12	0.00
366.32	0.00
366.52	0.00
366.72	0.00
366.91	0.00
367.11	0.00
367.31	0.00
367.51	0.00
367.70	0.00
367.90	0.00
368.10	0.00
368.30	0.00
368.49	0.00
368.69	0.00
368.89	0.00
369.09	0.00
369.28	0.00
369.48	0.00
369.68	0.00
369.87	0.00
370.07	0.00
370.27	0.00
370.47	0.00
370.66	37.45
370.86	117.03
371.06	156.82
371.25	147.45
371.45	168.52
371.65	152.13
371.84	149.79
372.04	159.16
372.24	126.39
372.44	196.60
372.63	231.71
372.83	234.05
373.03	210.65
373.22	72.56
373.42	269.16
373.62	243.42
373.81	187.24
374.01	191.92
374.21	285.55
374.40	191.92
374.60	320.65
374.79	203.63
374.99	234.05
375.19	241.08
375.38	269.16
375.58	215.33
375.78	273.84
375.97	322.99
376.17	355.76
376.37	264.48
376.56	231.71
376.76	224.69
376.95	262.14
377.15	229.37
377.35	257.46
377.54	191.92
377.74	292.57
377.93	257.46
378.13	278.52
378.33	241.08
378.52	259.80
378.72	245.76
378.91	280.86
379.11	276.18
379.31	285.55
379.50	259.80
379.70	287.89
379.89	322.99
380.09	280.86
380.28	241.08
380.48	259.80
380.68	294.91
380.87	358.10
381.07	285.55
381.26	280.86
381.46	330.02
381.65	360.44
381.85	337.04
382.04	271.50
382.24	374.49
382.43	311.29
382.63	273.84
382.83	294.91
383.02	353.42
383.22	313.63
383.41	388.53
383.61	376.83
383.80	346.40
384.00	372.15
384.19	344.06
384.39	367.46
384.58	374.49
384.78	367.46
384.97	299.59
385.17	430.66
385.36	344.06
385.56	374.49
385.75	308.95
385.95	376.83
386.14	351.08
386.34	379.17
386.53	327.68
386.72	388.53
386.92	435.34
387.11	519.60
387.31	362.78
387.50	437.68
387.70	362.78
387.89	430.66
388.09	472.79
388.28	393.21
388.48	425.98
388.67	437.68
388.86	454.06
389.06	524.28
389.25	461.09
389.45	425.98
389.64	484.49
389.84	451.72
390.03	531.30
390.22	482.15
390.42	493.85
390.61	458.74
390.81	510.24
391.00	580.45
391.19	512.58
391.39	507.90
391.58	475.13
391.78	533.64
391.97	510.24
392.16	538.32
392.36	622.58
392.55	559.39
392.75	540.66
392.94	550.03
393.13	585.13
393.33	540.66
393.52	531.30
393.71	547.69
393.91	538.32
394.10	622.58
394.29	580.45
394.49	543.00
394.68	620.24
394.88	606.20
395.07	638.97
395.26	573.43
395.46	543.00
395.65	629.60
395.84	603.86
396.04	613.22
396.23	573.43
396.42	688.12
396.62	746.63
396.81	608.54
397.00	636.63
397.19	573.43
397.39	671.73
397.58	610.88
397.77	791.10
397.97	657.69
398.16	692.80
398.35	699.82
398.55	695.14
398.74	620.24
398.93	807.48
399.12	685.78
399.32	699.82
399.51	718.54
399.70	786.42
399.90	777.06
400.09	781.74
400.28	821.53
400.47	779.40
400.67	741.95
400.86	781.74
401.05	720.88
401.24	725.57
401.44	791.10
401.63	833.23
401.82	870.68
402.01	842.59
402.21	854.30
402.40	819.19
402.59	940.90
402.78	774.72
402.97	805.14
403.17	877.70
403.36	910.47
403.55	866.00
403.74	837.91
403.93	887.06
404.13	863.66
404.32	954.94
404.51	854.30
404.70	842.59
404.89	866.00
405.09	1043.88
405.28	887.06
405.47	994.73
405.66	961.96
405.85	919.83
406.05	957.28
406.24	947.92
406.43	1067.28
406.62	1088.35
406.81	1146.86
407.00	1053.24
407.20	959.62
407.39	1013.45
407.58	1083.67
407.77	1064.94
407.96	1121.12
408.15	1036.86
408.34	1142.18
408.54	1097.71
408.73	1060.26
408.92	1158.57
409.11	1095.37
409.30	1247.51
409.49	1125.80
409.68	1027.50
409.87	1022.81
410.07	1137.50
410.26	1177.29
410.45	1181.97
410.64	1165.59
410.83	1121.12
411.02	1235.80
411.21	1231.12
411.40	1242.82
411.59	1324.74
411.78	1259.21
411.98	1266.23
412.17	1296.66
412.36	1282.61
412.55	1317.72
412.74	1317.72
412.93	1301.34
413.12	1334.11
413.31	1401.98
413.50	1324.74
413.69	1366.87
413.88	1535.39
414.07	1406.66
414.26	1526.03
414.45	1451.13
414.64	1537.73
414.83	1582.20
415.02	1458.15
415.22	1535.39
415.41	1507.30
415.60	1596.25
415.79	1547.09
415.98	1631.35
416.17	1533.05
416.36	1563.48
416.55	1612.63
416.74	1680.50
416.93	1617.31
417.12	1689.87
417.31	1659.44
417.50	1710.93
417.69	1771.79
417.88	1631.35
418.07	1603.27
418.26	1823.28
418.45	1778.81
418.64	1818.60
418.83	1823.28
419.02	1825.62
419.21	1973.07
419.39	1891.15
419.58	1706.25
419.77	1863.07
419.96	1781.15
420.15	1853.70
420.34	1870.09
420.53	1858.39
420.72	1797.53
420.91	1881.79
421.10	1849.02
421.29	1895.83
421.48	1933.28
421.67	2026.90
421.86	1916.90
422.05	1996.48
422.24	1933.28
422.43	1961.37
422.61	1952.01
422.80	1984.77
422.99	1959.03
423.18	1961.37
423.37	2031.58
423.56	2017.54
423.75	1989.46
423.94	1949.67
424.13	1846.68
424.32	1877.11
424.50	1944.99
424.69	2120.53
424.88	2162.66
425.07	1980.09
425.26	1968.39
425.45	2043.29
425.64	1975.41
425.83	2047.97
426.01	2134.57
426.20	2045.63
426.39	2040.95
426.58	2059.67
426.77	1963.71
426.96	2073.71
427.15	1961.37
427.33	2104.14
427.52	2038.61
427.71	2230.53
427.90	2059.67
428.09	2080.74
428.28	2108.82
428.46	2256.28
428.65	2188.40
428.84	2310.11
429.03	2291.38
429.22	2181.38
429.40	2307.77
429.59	2289.04
429.78	2099.46
429.97	2143.93
430.16	2094.78
430.34	2207.13
430.53	2232.87
430.72	2289.04
430.91	2382.67
431.10	2272.66
431.28	2373.30
431.47	2359.26
431.66	2331.17
431.85	2331.17
432.03	2305.43
432.22	2403.73
432.41	2406.07
432.60	2361.60
432.79	2349.90
432.97	2455.22
433.16	2490.33
433.35	2509.05
433.54	2553.52
433.72	2509.05
433.91	2473.95
434.10	2492.67
434.28	2459.90
434.47	2497.35
434.66	2558.21
434.85	2544.16
435.03	2614.38
435.22	2602.68
435.41	2654.17
435.59	2708.00
435.78	2623.74
435.97	2787.58
436.16	2633.10
436.34	2670.55
436.53	2544.16
436.72	2789.92
436.90	2633.10
437.09	2726.72
437.28	2614.38
437.46	2722.04
437.65	2698.64
437.84	2759.49
438.02	2677.57
438.21	2808.64
438.40	2724.38
438.58	2885.88
438.77	2902.26
438.96	2911.63
439.14	2935.03
439.33	2864.82
439.52	3059.08
439.70	2885.88
439.89	3054.40
440.08	2991.20
440.26	2963.12
440.45	2946.73
440.63	3122.27
440.82	3129.30
441.01	3091.85
441.19	3169.09
441.38	3197.17
441.57	3084.83
441.75	3150.36
441.94	3185.47
442.12	3222.92
442.31	3307.18
442.50	3288.45
442.68	3328.24
442.87	3323.56
443.05	3337.60
443.24	3353.99
443.43	3297.81
443.61	3304.84
443.80	3459.31
443.98	3405.48
444.17	3232.28
444.35	3489.74
444.54	3501.44
444.73	3541.23
444.91	3454.63
445.10	3372.71
445.28	3382.07
445.47	3339.94
445.65	3346.97
445.84	3501.44
446.02	3466.33
446.21	3541.23
446.39	3447.61
446.58	3503.78
446.77	3459.31
446.95	3496.76
447.14	3506.12
447.32	3459.31
447.51	3555.27
447.69	3407.82
447.88	3541.23
448.06	3442.93
448.25	3438.25
448.43	3548.25
448.62	3442.93
448.80	3616.13
448.99	3562.30
449.17	3562.30
449.36	3599.74
449.54	3531.87
449.73	3770.60
449.91	3698.05
450.10	3730.81
450.28	3723.79
450.46	3623.15
450.65	3822.09
450.83	3880.61
451.02	3707.41
451.20	3829.12
451.39	3747.20
451.57	3712.09
451.76	3695.71
451.94	3824.44
452.13	3850.18
452.31	3908.69
452.49	3852.52
452.68	3880.61
452.86	3798.69
453.05	3880.61
453.23	3857.20
453.42	3925.08
453.60	3892.31
453.78	3761.24
453.97	3955.51
454.15	4121.68
454.34	3955.51
454.52	3936.78
454.70	3899.33
454.89	3840.82
455.07	3845.50
455.26	4063.17
455.44	4046.79
455.62	4117.00
455.81	4166.15
455.99	4112.32
456.17	4049.13
456.36	4021.04
456.54	4039.76
456.73	4198.92
456.91	4327.65
457.09	4241.05
457.28	4203.60
457.46	4262.12
457.64	4248.07
457.83	4210.62
458.01	4227.01
458.19	4454.04
458.38	4301.90
458.56	4404.89
458.74	4266.80
458.93	4318.29
459.11	4416.59
459.29	4386.16
459.48	4461.06
459.66	4432.97
459.84	4561.70
460.03	4535.96
460.21	4615.54
460.39	4552.34
460.57	4578.09
460.76	4608.51
460.94	4547.66
461.12	4610.86
461.31	4631.92
461.49	4573.41
461.67	4594.47
461.85	4681.07
462.04	4774.69
462.22	4685.75
462.40	4711.50
462.59	4730.22
462.77	4809.80
462.95	4730.22
463.13	4901.08
463.32	4762.99
463.50	4882.36
463.68	4884.70
463.86	4966.62
464.05	4713.84
464.23	4880.02
464.41	4795.76
464.59	4814.48
464.78	4802.78
464.96	4910.44
465.14	4910.44
465.32	4751.29
465.50	5018.11
465.69	4910.44
465.87	4992.36
466.05	5020.45
466.23	4915.12
466.41	5055.56
466.60	5160.88
466.78	5097.69
466.96	5013.43
467.14	4987.68
467.32	5069.60
467.51	5203.01
467.69	4985.34
467.87	4947.89
468.05	5085.98
468.23	4985.34
468.41	5039.17
468.60	5397.28
468.78	5247.48
468.96	5170.24
469.14	5210.03
469.32	5203.01
469.50	5149.18
469.69	5298.97
469.87	5472.17
470.05	5425.36
470.23	5521.32
470.41	5446.43
470.59	5308.34
470.77	5355.15
470.95	5582.18
471.14	5734.31
471.32	5476.85
471.50	5624.31
471.68	5652.39
471.86	5591.54
472.04	5556.43
472.22	5830.27
472.40	5729.63
472.58	5905.17
472.77	5886.45
472.95	5776.44
473.13	5968.37
473.31	5596.22
473.49	5696.86
473.67	5713.25
473.85	5795.17
474.03	5919.21
474.21	5914.53
474.39	5893.47
474.57	5944.96
474.75	6193.06
474.93	6237.53
475.12	6080.71
475.30	5991.77
475.48	6272.64
475.66	6045.60
475.84	6279.66
476.02	6274.98
476.20	6384.98
476.38	6394.34
476.56	6396.68
476.74	6443.49
476.92	6609.67
477.10	6455.20
477.28	6546.48
477.46	6628.40
477.64	6785.21
477.82	6785.21
478.00	6970.12
478.18	6899.90
478.36	6993.52
478.54	6974.80
478.72	7028.63
478.90	7124.59
479.08	7108.21
479.26	7087.14
479.44	7269.70
479.62	7335.24
479.80	7356.30
479.98	7330.56
480.16	7632.49
480.34	7445.24
480.52	7618.44
480.70	7658.23
480.88	7492.05
481.06	7620.78
481.24	7625.47
481.41	7681.64
481.59	7786.96
481.77	7962.50
481.95	7782.28
482.13	7911.01
482.31	7990.59
482.49	8212.94
482.67	8182.51
482.85	8348.69
483.03	8423.59
483.21	8552.32
483.39	8482.10
483.57	8552.32
483.74	8702.11
483.92	8727.86
484.10	8641.26
484.28	8868.29
484.46	8940.85
484.64	9060.21
484.82	9013.40
485.00	8999.36
485.18	9252.14
485.35	9317.67
485.53	9530.66
485.71	9446.40
485.89	9685.14
486.07	9317.67
486.25	9537.68
486.43	9607.90
486.61	9682.80
486.78	9727.27
486.96	9970.68
487.14	9994.09
487.32	9961.32
487.50	10188.35
487.68	10211.76
487.85	10328.78
488.03	10349.85
488.21	10483.26
488.39	10530.07
488.57	10523.05
488.75	10583.90
488.92	10789.87
489.10	10885.83
489.28	10707.95
489.46	11009.88
489.64	10743.06
489.81	11396.07
489.99	11255.64
490.17	11389.05
490.35	11288.40
490.53	11269.68
490.70	11330.53
490.88	11719.06
491.06	11857.15
491.24	11768.21
491.41	11555.22
491.59	11784.60
491.77	12098.23
491.95	12044.40
492.13	12131.00
492.30	12161.42
492.48	12276.11
492.66	12372.07
492.84	12145.04
493.01	12519.53
493.19	12578.04
493.37	12674.00
493.54	12585.06
493.72	12629.53
493.90	12559.31
494.08	12940.82
494.25	12915.08
494.43	12924.44
494.61	13291.90
494.79	13209.98
494.96	13170.19
495.14	13378.50
495.32	13624.26
495.49	13671.07
495.67	13638.30
495.85	13851.29
496.02	13799.80
496.20	13769.37
496.38	13799.80
496.55	13837.25
496.73	14139.18
496.91	14097.05
497.09	14169.60
497.26	14209.39
497.44	14183.65
497.62	14279.61
497.79	14373.23
497.97	14546.43
498.14	14731.33
498.32	14682.18
498.50	14764.10
498.67	14759.42
498.85	14817.93
499.03	14839.00
499.20	14862.40
499.38	15164.33
499.56	15463.92
499.73	15147.95
499.91	15276.68
500.08	15194.76
500.26	15250.93
500.44	15344.55
500.61	15440.51
500.79	15337.53
500.97	15810.32
501.14	15655.84
501.32	15943.73
501.49	15580.95
501.67	15700.31
501.84	15854.79
502.02	15852.45
502.20	15761.17
502.37	16119.27
502.55	16149.70
502.72	16163.74
502.90	16023.31
503.07	16290.13
503.25	16250.34
503.43	16229.27
503.60	16065.44
503.78	16339.28
503.95	16453.97
504.13	16428.22
504.30	16379.07
504.48	16395.45
504.65	16833.13
504.83	16755.90
505.01	17062.51
505.18	16901.01
505.36	17219.32
505.53	16875.26
505.71	16823.77
505.88	17170.17
506.06	16865.90
506.23	17188.89
506.41	17378.48
506.58	17053.14
506.76	17216.98
506.93	17338.69
507.11	17261.45
507.28	17153.79
507.46	17495.50
507.63	17687.43
507.81	17525.93
507.98	17504.87
508.16	17795.09
508.33	17493.16
508.50	17769.35
508.68	17832.54
508.85	17860.63
509.03	18136.81
509.20	17898.08
509.38	18176.60
509.55	18104.04
509.73	18043.19
509.90	18157.88
510.08	17898.08
510.25	18059.57
510.42	18696.20
510.60	18829.61
510.77	18743.01
510.95	18518.32
511.12	18806.20
511.30	18691.52
511.47	18693.86
511.64	18871.74
511.82	18998.13
511.99	18838.97
512.17	19012.17
512.34	19040.26
512.51	18796.84
512.69	19068.34
512.86	19276.65
513.04	19475.60
513.21	19482.62
513.38	19234.52
513.56	19293.04
513.73	19290.70
513.90	19510.71
514.08	19318.78
514.25	19660.50
514.43	19482.62
514.60	19667.52
514.77	19585.60
514.95	19924.98
515.12	19625.39
515.29	19882.85
515.47	19915.62
515.64	20133.29
515.81	19908.60
515.99	20100.52
516.16	19761.14
516.33	20470.33
516.51	20332.23
516.68	20262.02
516.85	20013.92
517.03	20453.94
517.20	20390.75
517.37	20514.80
517.54	20505.43
517.72	20367.34
517.89	20465.64
518.06	20444.58
518.24	20629.48
518.41	20540.54
518.58	20538.20
518.75	20411.81
518.93	20601.40
519.10	20856.51
519.27	21095.25
519.45	21022.69
519.62	20786.30
519.79	21085.89
519.96	21078.86
520.14	21053.12
520.31	20940.77
520.48	21336.32
520.65	21151.42
520.83	21366.75
521.00	21181.85
521.17	21055.46
521.34	21319.94
521.52	21546.97
521.69	21483.78
521.86	21642.93
522.03	21472.07
522.20	21717.83
522.38	21837.20
522.55	21537.61
522.72	21755.28
522.89	21802.09
523.07	22087.64
523.24	21682.72
523.41	22221.05
523.58	21881.67
523.75	22340.41
523.92	22050.19
524.10	21743.58
524.27	22108.70
524.44	22204.66
524.61	22670.43
524.78	22314.67
524.96	22347.44
525.13	22553.40
525.30	22480.85
525.47	22553.40
525.64	22434.03
525.81	22377.86
525.98	22768.73
526.16	22567.45
526.33	22651.70
526.50	22483.19
526.67	22391.91
526.84	22665.75
527.01	22621.28
527.18	22974.70
527.36	22986.40
527.53	22714.90
527.70	23281.31
527.87	23374.93
528.04	23136.20
528.21	23264.92
528.38	22813.20
528.55	23370.25
528.72	23227.48
528.89	23145.56
529.07	23482.59
529.24	22960.66
529.41	23620.69
529.58	23229.82
529.75	23391.31
529.92	23264.92
530.09	23033.21
530.26	23562.17
530.43	23679.20
530.60	23522.38
530.77	23613.66
530.94	23887.51
531.11	23510.68
531.28	23520.04
531.46	23552.81
531.63	23779.84
531.80	23859.42
531.97	23955.38
532.14	24070.07
532.31	23608.98
532.48	23943.68
532.65	23913.25
532.82	24081.77
532.99	24088.79
533.16	24070.07
533.33	24243.27
533.50	24182.42
533.67	24334.55
533.84	24243.27
534.01	24311.14
534.18	24306.46
534.35	24041.98
534.52	24503.07
534.69	24418.81
534.86	24442.21
535.03	24664.57
535.20	24526.47
535.37	24734.78
535.54	24617.75
535.71	24505.41
535.88	24575.62
536.05	24297.10
536.22	24678.61
536.38	24992.24
536.55	24929.05
536.72	24545.20
536.89	25116.29
537.06	24758.19
537.23	25223.95
537.40	24734.78
537.57	25212.25
537.74	25238.00
537.91	25397.15
538.08	25263.74
538.25	25074.16
538.42	25020.33
538.59	25458.01
538.75	25324.60
538.92	24891.60
539.09	25348.00
539.26	25364.39
539.43	25193.53
539.60	25226.29
539.77	25069.48
539.94	25156.08
540.11	25280.13
540.28	25518.86
540.44	25216.93
540.61	25340.98
540.78	25474.39
540.95	25539.93
541.12	25748.23
541.29	25673.34
541.46	25532.90
541.62	25558.65
541.79	25188.85
541.96	25322.26
542.13	25741.21
542.30	26043.14
542.47	25837.17
542.63	25926.11
542.80	25942.50
542.97	26431.67
543.14	25961.22
543.31	25734.19
543.48	26071.23
543.64	26216.34
543.81	26199.96
543.98	26597.85
544.15	26099.31
544.32	26389.54
544.48	26642.32
544.65	26279.54
544.82	26539.33
544.99	26120.38
545.16	26122.72
545.32	26527.63
545.49	26909.14
545.66	26899.78
545.83	26663.38
546.00	26780.41
546.16	26546.36
546.33	26569.76
546.50	26291.24
546.67	26656.36
546.83	26551.04
547.00	26560.40
547.17	26902.12
547.34	26780.41
547.50	26962.97
547.67	26869.35
547.84	26862.33
548.00	26869.35
548.17	26806.16
548.34	26991.06
548.51	27335.12
548.67	26855.31
548.84	27580.87
549.01	26991.06
549.18	27005.10
549.34	27140.85
549.51	27077.66
549.68	26984.04
549.84	27185.32
550.01	27204.05
550.18	27227.45
550.34	27337.46
550.51	27557.47
550.68	27412.35
550.84	26981.70
551.01	27328.10
551.18	27388.95
551.34	27318.73
551.51	27377.25
551.68	27505.98
551.84	27243.84
552.01	27545.76
552.18	27527.04
552.34	27627.68
552.51	27573.85
552.68	27426.40
552.84	27625.34
553.01	27988.13
553.18	27644.07
553.34	27805.56
553.51	27580.87
553.67	27920.25
553.84	28086.43
554.01	27871.10
554.17	27557.47
554.34	27821.95
554.51	27871.10
554.67	28105.15
554.84	27786.84
555.00	27995.15
555.17	27779.82
555.33	27761.09
555.50	27805.56
555.67	27992.81
555.83	28196.43
556.00	27864.08
556.16	28311.12
556.33	28180.05
556.50	28034.94
556.66	28280.69
556.83	27882.80
556.99	28718.37
557.16	28503.04
557.32	28498.36
557.49	27964.72
557.65	27875.78
557.82	27938.97
557.98	28194.09
558.15	28156.64
558.32	28299.42
558.48	28130.90
558.65	28634.11
558.81	28170.69
558.98	28603.69
559.14	28318.14
559.31	28582.62
559.47	28400.06
559.64	28030.26
559.80	28758.16
559.97	28556.88
560.13	28694.97
560.30	28460.91
560.46	28465.60
560.63	28641.14
560.79	28634.11
560.96	28563.90
561.12	28629.43
561.29	28308.78
561.45	28505.38
561.61	28748.80
561.78	28734.76
561.94	28910.30
562.11	28971.15
562.27	28795.61
562.44	28645.82
562.60	28620.07
562.77	28701.99
562.93	28863.49
563.10	29032.00
563.26	28903.28
563.42	28816.68
563.59	28744.12
563.75	28713.69
563.92	28884.55
564.08	28774.55
564.24	29252.02
564.41	28697.31
564.57	28952.43
564.74	28905.62
564.90	28786.25
565.07	28992.22
565.23	29097.54
565.39	29123.29
565.56	29039.03
565.72	28966.47
565.88	28580.28
566.05	29270.74
566.21	28795.61
566.38	28606.03
566.54	29123.29
566.70	29387.77
566.87	29537.56
567.03	29008.60
567.19	29511.81
567.36	29312.87
567.52	29069.45
567.68	29172.44
567.85	29249.67
568.01	28788.59
568.17	29064.77
568.34	29270.74
568.50	29319.89
568.66	29153.71
568.83	29102.22
568.99	29022.64
569.15	29317.55
569.32	28826.04
569.48	29078.82
569.64	28891.57
569.81	29240.31
569.97	29109.24
570.13	29446.28
570.30	29041.37
570.46	29319.89
570.62	29008.60
570.78	29256.70
570.95	29312.87
571.11	29387.77
571.27	29125.63
571.43	29167.76
571.60	29406.49
571.76	29156.05
571.92	29701.40
572.09	29497.77
572.25	29097.54
572.41	29355.00
572.57	29053.07
572.74	29785.66
572.90	29535.22
573.06	29207.55
573.22	29500.11
573.38	29315.21
573.55	29340.96
573.71	29603.10
573.87	29560.97
574.03	28982.85
574.20	29259.04
574.36	29207.55
574.52	29446.28
574.68	29160.73
574.84	29567.99
575.01	29488.41
575.17	29242.65
575.33	29472.03
575.49	29366.70
575.65	29326.91
575.82	29827.79
575.98	29537.56
576.14	29720.12
576.30	29720.12
576.46	29205.20
576.62	29165.42
576.79	29422.87
576.95	29172.44
577.11	29495.43
577.27	29783.32
577.43	29841.83
577.59	29404.15
577.75	29476.71
577.92	29455.64
578.08	29694.38
578.24	29317.55
578.40	29479.05
578.56	29535.22
578.72	29921.41
578.88	29404.15
579.04	29853.53
579.21	29591.39
579.37	29556.28
579.53	29890.98
579.69	29717.78
579.85	29598.41
580.01	29544.58
580.17	29628.84
580.33	29752.89
580.49	29535.22
580.65	29933.11
580.82	29848.85
580.98	29462.66
581.14	29993.97
581.30	29860.55
581.46	29984.60
581.62	29692.04
581.78	29275.42
581.94	29390.11
582.10	29951.84
582.26	29577.35
582.42	29563.31
582.58	30075.88
582.74	29855.87
582.90	29738.85
583.06	29685.01
583.22	29567.99
583.38	29483.73
583.54	29453.30
583.70	29326.91
583.86	29998.65
584.02	29717.78
584.18	29677.99
584.34	29827.79
584.50	29771.61
584.66	29500.11
584.82	29460.32
584.98	29500.11
585.14	29785.66
585.30	29249.67
585.46	29516.50
585.62	29408.83
585.78	29834.81
585.94	29333.93
586.10	29898.00
586.26	29947.15
586.42	29720.12
586.58	29977.58
586.74	29553.94
586.90	29589.05
587.06	29659.27
587.22	29542.24
587.38	29944.81
587.54	29898.00
587.70	29759.91
587.86	30024.39
588.02	30000.99
588.18	30010.35
588.34	29776.30
588.49	29706.08
588.65	29670.97
588.81	29642.88
588.97	30237.38
589.13	29806.72
589.29	29832.47
589.45	29895.66
589.61	30281.85
589.77	30139.08
589.93	29989.28
590.08	30005.67
590.24	29912.05
590.40	30183.55
590.56	29972.90
590.72	29944.81
590.88	29802.04
591.04	30054.82
591.20	30391.86
591.35	30529.95
591.51	30429.30
591.67	30239.72
591.83	30455.05
591.99	30103.97
