SpectraSuite Data File
++++++++++++++++++++++++++++++++++++
Date: Fri Oct 18 13:58:00 GMT-05:00 2013
User: bianchi
Dark Spectrum Present: No
Reference Spectrum Present: No
Number of Sampled Component Spectra: 1
Spectrometers: USB2+H05261
Integration Time (usec): 50000 (USB2+H05261)
Spectra Averaged: 1 (USB2+H05261)
Boxcar Smoothing: 0 (USB2+H05261)
Correct for Electrical Dark: No (USB2+H05261)
Strobe/Lamp Enabled: No (USB2+H05261)
Correct for Detector Non-linearity: No (USB2+H05261)
Correct for Stray Light: No (USB2+H05261)
Number of Pixels in Processed Spectrum: 2048
>>>>>Begin Processed Spectral Data<<<<<
365.73	0.00
365.92	0.00
366.12	0.00
366.32	0.00
366.52	0.00
366.72	0.00
366.91	0.00
367.11	0.00
367.31	0.00
367.51	0.00
367.70	0.00
367.90	0.00
368.10	0.00
368.30	0.00
368.49	0.00
368.69	0.00
368.89	0.00
369.09	0.00
369.28	0.00
369.48	0.00
369.68	0.00
369.87	0.00
370.07	0.00
370.27	0.00
370.47	0.00
370.66	0.00
370.86	100.64
371.06	154.48
371.25	156.82
371.45	105.32
371.65	154.48
371.84	166.18
372.04	128.73
372.24	227.03
372.44	189.58
372.63	227.03
372.83	222.35
373.03	105.32
373.22	222.35
373.42	133.41
373.62	271.50
373.81	290.23
374.01	241.08
374.21	245.76
374.40	252.78
374.60	259.80
374.79	161.50
374.99	266.82
375.19	306.61
375.38	262.14
375.58	231.71
375.78	315.97
375.97	287.89
376.17	318.31
376.37	224.69
376.56	337.04
376.76	198.95
376.95	220.01
377.15	255.12
377.35	262.14
377.54	255.12
377.74	222.35
377.93	315.97
378.13	285.55
378.33	299.59
378.52	227.03
378.72	236.39
378.91	217.67
379.11	306.61
379.31	308.95
379.50	250.44
379.70	308.95
379.89	358.10
380.09	280.86
380.28	259.80
380.48	306.61
380.68	301.93
380.87	276.18
381.07	280.86
381.26	362.78
381.46	276.18
381.65	346.40
381.85	339.38
382.04	320.65
382.24	280.86
382.43	330.02
382.63	308.95
382.83	388.53
383.02	348.74
383.22	344.06
383.41	346.40
383.61	374.49
383.80	344.06
384.00	390.87
384.19	383.85
384.39	334.70
384.58	402.57
384.78	365.12
384.97	388.53
385.17	283.20
385.36	402.57
385.56	369.80
385.75	360.44
385.95	428.32
386.14	374.49
386.34	381.51
386.53	353.42
386.72	393.21
386.92	447.04
387.11	428.32
387.31	454.06
387.50	374.49
387.70	386.19
387.89	465.77
388.09	381.51
388.28	435.34
388.48	393.21
388.67	400.23
388.86	447.04
389.06	500.87
389.25	468.11
389.45	449.38
389.64	482.15
389.84	489.17
390.03	444.70
390.22	451.72
390.42	458.74
390.61	559.39
390.81	507.90
391.00	423.64
391.19	552.37
391.39	479.81
391.58	496.19
391.78	505.56
391.97	512.58
392.16	510.24
392.36	568.75
392.55	568.75
392.75	620.24
392.94	545.34
393.13	545.34
393.33	514.92
393.52	627.26
393.71	585.13
393.91	524.28
394.10	550.03
394.29	540.66
394.49	631.94
394.68	599.18
394.88	664.71
395.07	573.43
395.26	571.09
395.46	596.84
395.65	645.99
395.84	610.88
396.04	638.97
396.23	662.37
396.42	631.94
396.62	664.71
396.81	545.34
397.00	653.01
397.19	681.10
397.39	720.88
397.58	744.29
397.77	664.71
397.97	662.37
398.16	758.33
398.35	772.38
398.55	716.20
398.74	767.70
398.93	732.59
399.12	746.63
399.32	695.14
399.51	755.99
399.70	734.93
399.90	713.86
400.09	709.18
400.28	793.44
400.47	739.61
400.67	770.04
400.86	849.61
401.05	760.67
401.24	758.33
401.44	854.30
401.63	802.80
401.82	758.33
402.01	812.17
402.21	777.06
402.40	828.55
402.59	793.44
402.78	760.67
402.97	842.59
403.17	833.23
403.36	873.02
403.55	894.08
403.74	863.66
403.93	877.70
404.13	816.85
404.32	875.36
404.51	868.34
404.70	968.98
404.89	924.51
405.09	952.60
405.28	931.53
405.47	947.92
405.66	915.15
405.85	966.64
406.05	976.00
406.24	875.36
406.43	1055.58
406.62	1015.79
406.81	1011.11
407.00	1048.56
407.20	936.21
407.39	1071.97
407.58	985.37
407.77	1013.45
407.96	1050.90
408.15	1114.10
408.34	1029.84
408.54	1074.31
408.73	1090.69
408.92	1053.24
409.11	1139.84
409.30	1156.22
409.49	1078.99
409.68	1102.39
409.87	1130.48
410.07	1196.01
410.26	1130.48
410.45	1210.06
410.64	1153.88
410.83	1273.25
411.02	1132.82
411.21	1322.40
411.40	1156.22
411.59	1240.48
411.78	1254.53
411.98	1296.66
412.17	1256.87
412.36	1217.08
412.55	1310.70
412.74	1327.08
412.93	1313.04
413.12	1357.51
413.31	1317.72
413.50	1352.83
413.69	1380.92
413.88	1373.89
414.07	1453.47
414.26	1535.39
414.45	1380.92
414.64	1544.75
414.83	1439.43
415.02	1444.11
415.22	1577.52
415.41	1568.16
415.60	1554.12
415.79	1495.60
415.98	1514.33
416.17	1479.22
416.36	1685.19
416.55	1610.29
416.74	1675.82
416.93	1610.29
417.12	1652.42
417.31	1659.44
417.50	1647.74
417.69	1797.53
417.88	1666.46
418.07	1804.55
418.26	1746.04
418.45	1710.93
418.64	1827.96
418.83	1902.86
419.02	1778.81
419.21	1823.28
419.39	1762.42
419.58	1694.55
419.77	1769.44
419.96	1811.57
420.15	1898.17
420.34	1844.34
420.53	1961.37
420.72	1966.05
420.91	1886.47
421.10	1928.60
421.29	2031.58
421.48	2031.58
421.67	1984.77
421.86	1928.60
422.05	2001.16
422.24	1834.98
422.43	1952.01
422.61	1973.07
422.80	1989.46
422.99	1994.14
423.18	2019.88
423.37	2015.20
423.56	1905.20
423.75	2008.18
423.94	1870.09
424.13	1849.02
424.32	1963.71
424.50	2101.80
424.69	2057.33
424.88	1977.75
425.07	1930.94
425.26	1877.11
425.45	2015.20
425.64	2036.27
425.83	1959.03
426.01	2069.03
426.20	2038.61
426.39	2076.06
426.58	2122.87
426.77	2073.71
426.96	2043.29
427.15	2148.61
427.33	2146.27
427.52	2202.44
427.71	2122.87
427.90	2228.19
428.09	2106.48
428.28	2132.23
428.46	2235.21
428.65	2284.36
428.84	2260.96
429.03	2265.64
429.22	2169.68
429.40	2165.00
429.59	2291.38
429.78	2214.15
429.97	2202.44
430.16	2289.04
430.34	2298.41
430.53	2326.49
430.72	2356.92
430.91	2408.41
431.10	2275.00
431.28	2331.17
431.47	2270.32
431.66	2361.60
431.85	2436.50
432.03	2476.29
432.22	2436.50
432.41	2408.41
432.60	2436.50
432.79	2427.14
432.97	2506.71
433.16	2415.43
433.35	2471.61
433.54	2527.78
433.72	2590.97
433.91	2448.20
434.10	2394.37
434.28	2509.05
434.47	2612.04
434.66	2567.57
434.85	2579.27
435.03	2555.86
435.22	2597.99
435.41	2595.65
435.59	2565.23
435.78	2698.64
435.97	2663.53
436.16	2579.27
436.34	2740.77
436.53	2684.59
436.72	2644.81
436.90	2602.68
437.09	2789.92
437.28	2677.57
437.46	2682.25
437.65	2717.36
437.84	2724.38
438.02	2644.81
438.21	2813.32
438.40	2794.60
438.58	2864.82
438.77	2951.42
438.96	2834.39
439.14	2860.13
439.33	2916.31
439.52	3007.59
439.70	2883.54
439.89	3007.59
440.08	3073.12
440.26	3040.36
440.45	2970.14
440.63	3033.33
440.82	3150.36
441.01	3176.11
441.19	3124.62
441.38	3220.58
441.57	3215.90
441.75	3194.83
441.94	3276.75
442.12	3300.16
442.31	3286.11
442.50	3185.47
442.68	3155.04
442.87	3307.18
443.05	3307.18
443.24	3267.39
443.43	3318.88
443.61	3461.65
443.80	3398.46
443.98	3171.43
444.17	3283.77
444.35	3417.18
444.54	3342.28
444.73	3286.11
444.91	3325.90
445.10	3344.63
445.28	3382.07
445.47	3482.72
445.65	3269.73
445.84	3396.12
446.02	3454.63
446.21	3445.27
446.39	3410.16
446.58	3393.78
446.77	3412.50
446.95	3494.42
447.14	3482.72
447.32	3492.08
447.51	3646.55
447.69	3480.38
447.88	3510.80
448.06	3431.23
448.25	3445.27
448.43	3667.62
448.62	3438.25
448.80	3499.10
448.99	3613.79
449.17	3557.61
449.36	3564.64
449.54	3578.68
449.73	3679.32
449.91	3499.10
450.10	3576.34
450.28	3688.68
450.46	3735.50
450.65	3552.93
450.83	3695.71
451.02	3707.41
451.20	3896.99
451.39	3845.50
451.57	3637.19
451.76	3892.31
451.94	3639.53
452.13	3896.99
452.31	3765.92
452.49	3721.45
452.68	3859.54
452.86	3789.33
453.05	3840.82
453.23	3920.40
453.42	3964.87
453.60	3918.06
453.78	3906.35
453.97	3957.85
454.15	3824.44
454.34	3920.40
454.52	3927.42
454.70	3925.08
454.89	3920.40
455.07	4074.87
455.26	3953.16
455.44	4070.19
455.62	3946.14
455.81	3974.23
455.99	4121.68
456.17	4107.64
456.36	4114.66
456.54	4109.98
456.73	4208.28
456.91	4187.22
457.09	4257.43
457.28	4414.25
457.46	4306.59
457.64	4381.48
457.83	4360.42
458.01	4266.80
458.19	4486.81
458.38	4287.86
458.56	4437.66
458.74	4276.16
458.93	4430.63
459.11	4442.34
459.29	4447.02
459.48	4535.96
459.66	4421.27
459.84	4566.39
460.03	4545.32
460.21	4484.47
460.39	4381.48
460.57	4482.13
460.76	4348.72
460.94	4638.94
461.12	4622.56
461.31	4580.43
461.49	4510.21
461.67	4739.58
461.85	4575.75
462.04	4770.01
462.22	4940.87
462.40	4692.77
462.59	4573.41
462.77	4669.37
462.95	4791.08
463.13	4734.90
463.32	4664.69
463.50	4882.36
463.68	4727.88
463.86	4739.58
464.05	4732.56
464.23	4873.00
464.41	4807.46
464.59	4858.95
464.78	4990.02
464.96	4868.31
465.14	4847.25
465.32	4964.28
465.50	5015.77
465.69	4950.23
465.87	4863.63
466.05	4807.46
466.23	4887.04
466.41	5088.32
466.60	5095.35
466.78	5018.11
466.96	4847.25
467.14	5170.24
467.32	5046.20
467.51	5132.79
467.69	5193.65
467.87	5170.24
468.05	5055.56
468.23	5046.20
468.41	5085.98
468.60	5137.48
468.78	5308.34
468.96	5139.82
469.14	5277.91
469.32	5298.97
469.50	5247.48
469.69	5364.51
469.87	5394.93
470.05	5408.98
470.23	5439.40
470.41	5392.59
470.59	5469.83
470.77	5376.21
470.95	5282.59
471.14	5490.90
471.32	5228.76
471.50	5603.24
471.68	5671.12
471.86	5654.73
472.04	5593.88
472.22	5746.02
472.40	5675.80
472.58	5607.92
472.77	5734.31
472.95	5657.07
473.13	5940.28
473.31	5839.64
473.49	5715.59
473.67	5757.72
473.85	5781.12
474.03	5895.81
474.21	5937.94
474.39	5863.04
474.57	6078.37
474.75	6211.78
474.93	6108.80
475.12	6115.82
475.30	6090.07
475.48	5935.60
475.66	6200.08
475.84	6218.80
476.02	6150.93
476.20	6427.11
476.38	6361.58
476.56	6626.06
476.74	6597.97
476.92	6560.52
477.10	6607.33
477.28	6612.01
477.46	6476.26
477.64	6817.98
477.82	6817.98
478.00	7005.22
478.18	6883.52
478.36	6888.20
478.54	7021.61
478.72	6904.58
478.90	7091.82
479.08	7194.81
479.26	7171.40
479.44	7295.45
479.62	7316.51
479.80	7456.95
479.98	7384.39
480.16	7499.08
480.34	7428.86
480.52	7590.36
480.70	7705.04
480.88	7651.21
481.06	7868.88
481.24	7948.46
481.41	7625.47
481.59	7896.97
481.77	8219.96
481.95	8006.97
482.13	8152.09
482.31	8060.80
482.49	8315.92
482.67	8262.09
482.85	8259.75
483.03	8411.89
483.21	8664.66
483.39	8573.38
483.57	8507.85
483.74	8636.58
483.92	8718.50
484.10	8578.06
484.28	8975.95
484.46	9097.66
484.64	9114.05
484.82	9055.53
485.00	9146.81
485.18	9142.13
485.35	9231.07
485.53	9462.79
485.71	9383.21
485.89	9535.34
486.07	9460.45
486.25	9692.16
486.43	9575.13
486.61	9755.35
486.78	9722.59
486.96	9949.62
487.14	10228.14
487.32	9933.23
487.50	10188.35
487.68	10239.84
487.85	10052.60
488.03	10497.30
488.21	10504.32
488.39	10438.79
488.57	10403.68
488.75	10771.15
488.92	10820.30
489.10	10806.25
489.28	10881.15
489.46	11126.91
489.64	11089.46
489.81	11180.74
489.99	11253.30
490.17	11201.80
490.35	11297.77
490.53	11335.21
490.70	11637.14
490.88	11529.48
491.06	11740.13
491.24	11674.59
491.41	11520.12
491.59	11992.90
491.77	11906.31
491.95	12100.57
492.13	12184.83
492.30	12334.62
492.48	12210.57
492.66	12266.75
492.84	12376.75
493.01	12521.87
493.19	12793.37
493.37	12589.74
493.54	12648.26
493.72	12683.36
493.90	12755.92
494.08	12739.54
494.25	13027.42
494.43	13228.71
494.61	13184.24
494.79	13399.57
494.96	13334.03
495.14	13270.84
495.32	13500.21
495.49	13465.10
495.67	13624.26
495.85	13633.62
496.02	13703.84
496.20	13963.64
496.38	13755.33
496.55	13923.85
496.73	14057.26
496.91	13923.85
497.09	14272.59
497.26	13942.57
497.44	14221.10
497.62	14326.42
497.79	14335.78
497.97	14487.92
498.14	14590.90
498.32	14714.95
498.50	14661.12
498.67	15122.20
498.85	14911.55
499.03	14817.93
499.20	14876.44
499.38	15005.17
499.56	15103.48
499.73	15414.77
499.91	15468.60
500.08	15316.47
500.26	15314.13
500.44	15332.85
500.61	15410.09
500.79	15482.64
500.97	15414.77
501.14	15522.43
501.32	15772.87
501.49	15456.90
501.67	15796.28
501.84	15997.56
502.02	15735.42
502.20	15850.11
502.37	15936.71
502.55	16074.80
502.72	16259.70
502.90	15962.45
503.07	16020.97
503.25	16423.54
503.43	16390.77
503.60	16264.38
503.78	16505.46
503.95	16465.67
504.13	16535.88
504.30	16552.27
504.48	16732.49
504.65	16643.55
504.83	16833.13
505.01	17240.39
505.18	17011.01
505.36	17254.43
505.53	17254.43
505.71	17163.15
505.88	16666.95
506.06	16950.16
506.23	17195.92
506.41	17020.38
506.58	16936.12
506.76	17308.26
506.93	17362.09
507.11	17277.83
507.28	17451.03
507.46	17558.70
507.63	17570.40
507.81	17905.10
507.98	17635.94
508.16	17745.94
508.33	17568.06
508.50	17820.84
508.68	17832.54
508.85	18090.00
509.03	17841.90
509.20	18284.26
509.38	18317.03
509.55	18288.95
509.73	18097.02
509.90	18307.67
510.08	18349.80
510.25	18298.31
510.42	18441.08
510.60	18649.39
510.77	18518.32
510.95	18567.47
511.12	18541.72
511.30	18817.91
511.47	18853.02
511.64	18860.04
511.82	18970.04
511.99	19073.03
512.17	19056.64
512.34	18946.64
512.51	18951.32
512.69	19234.52
512.86	19438.15
513.04	19150.26
513.21	19213.46
513.38	19119.84
513.56	19435.81
513.73	19323.46
513.90	19569.22
514.08	19255.59
514.25	19257.93
514.43	19601.99
514.60	19599.65
514.77	19665.18
514.95	19826.68
515.12	19681.56
515.29	19716.67
515.47	19676.88
515.64	19683.91
515.81	19831.36
515.99	20170.74
516.16	20201.16
516.33	20229.25
516.51	20655.23
516.68	20042.01
516.85	20058.39
517.03	20442.24
517.20	20493.73
517.37	20425.86
517.54	20350.96
517.72	20655.23
517.89	20290.10
518.06	20575.65
518.24	20699.70
518.41	20116.90
518.58	20727.78
518.75	20842.47
518.93	21050.78
519.10	20982.90
519.27	21083.55
519.45	20709.06
519.62	20652.89
519.79	21128.02
519.96	20900.98
520.14	21043.76
520.31	20957.16
520.48	21270.79
520.65	21287.17
520.83	21333.98
521.00	21322.28
521.17	21392.50
521.34	21280.15
521.52	21443.99
521.69	21570.38
521.86	21542.29
522.03	21996.35
522.20	21816.13
522.38	21708.47
522.55	21572.72
522.72	21699.11
522.89	21998.70
523.07	22452.76
523.24	22050.19
523.41	22029.12
523.58	21804.43
523.75	22064.23
523.92	22097.00
524.10	22284.24
524.27	22066.57
524.44	22569.79
524.61	22434.03
524.78	22445.74
524.96	21956.57
525.13	22185.94
525.30	22429.35
525.47	22099.34
525.64	22146.15
525.81	22424.67
525.98	22740.64
526.16	22597.87
526.33	22384.88
526.50	23028.53
526.67	22324.03
526.84	22782.77
527.01	22764.05
527.18	22986.40
527.36	22965.34
527.53	23103.43
527.70	23201.73
527.87	23229.82
528.04	23089.38
528.21	22967.68
528.38	22977.04
528.55	23398.34
528.72	23248.54
528.89	23138.54
529.07	22981.72
529.24	23192.37
529.41	23438.12
529.58	23388.97
529.75	23477.91
529.92	23538.77
530.09	23288.33
530.26	23716.65
530.43	23545.79
530.60	23407.70
530.77	23421.74
530.94	23990.49
531.11	23676.86
531.28	23585.58
531.46	23917.93
531.63	23475.57
531.80	24053.69
531.97	24016.24
532.14	24198.80
532.31	24072.41
532.48	23936.66
532.65	24421.15
532.82	23922.62
532.99	23964.75
533.16	23852.40
533.33	24212.84
533.50	24573.28
533.67	24652.86
533.84	24154.33
534.01	24327.53
534.18	23969.43
534.35	24524.13
534.52	24147.31
534.69	24624.78
534.86	24456.26
535.03	24390.72
535.20	24568.60
535.37	24753.51
535.54	24781.59
535.71	24552.22
535.88	24680.95
536.05	24372.00
536.22	24683.29
536.38	24741.80
536.55	24943.09
536.72	25020.33
536.89	24753.51
537.06	24900.96
537.23	24790.95
537.40	24620.10
537.57	24732.44
537.74	25104.59
537.91	25366.73
538.08	25380.77
538.25	25163.10
538.42	25490.77
538.59	25502.48
538.75	25188.85
538.92	24807.34
539.09	25446.30
539.26	25259.06
539.43	25315.23
539.60	25687.38
539.77	25376.09
539.94	25352.68
540.11	25474.39
540.28	25310.55
540.44	25666.31
540.61	25469.71
540.78	25858.24
540.95	25841.85
541.12	25736.53
541.29	25689.72
541.46	25525.88
541.62	25591.42
541.79	25886.32
541.96	25317.57
542.13	25481.41
542.30	25654.61
542.47	26040.80
542.63	26059.52
542.80	26005.69
542.97	26272.51
543.14	26141.44
543.31	25996.33
543.48	26085.27
543.64	26256.13
543.81	26338.05
543.98	26714.87
544.15	26588.49
544.32	26316.98
544.48	26553.38
544.65	26111.02
544.82	26551.04
544.99	26139.10
545.16	26501.89
545.32	26394.22
545.49	26827.22
545.66	26738.28
545.83	26506.57
546.00	27103.40
546.16	26796.79
546.33	26719.56
546.50	26174.21
546.67	26338.05
546.83	26361.45
547.00	26834.24
547.17	26778.07
547.34	26913.82
547.50	26911.48
547.67	27330.44
547.84	27248.52
548.00	27311.71
548.17	26951.27
548.34	27138.51
548.51	26960.63
548.67	27115.11
548.84	27531.72
549.01	27264.90
549.18	27180.64
549.34	26857.65
549.51	27012.12
549.68	27290.65
549.84	27260.22
550.01	27173.62
550.18	27248.52
550.34	27089.36
550.51	27328.10
550.68	27332.78
550.84	27208.73
551.01	27850.03
551.18	27510.66
551.34	27576.19
551.51	27143.19
551.68	27630.02
551.84	27648.75
552.01	27770.46
552.18	27655.77
552.34	27597.26
552.51	28130.90
552.68	27384.27
552.84	27950.68
553.01	27735.35
553.18	27564.49
553.34	28011.53
553.51	27761.09
553.67	27718.96
553.84	28032.60
554.01	28194.09
554.17	27889.82
554.34	27695.56
554.51	27859.40
554.67	27936.63
554.84	27922.59
555.00	28077.07
555.17	28322.82
555.33	28271.33
555.50	27931.95
555.67	28210.48
555.83	28173.03
556.00	28044.30
556.16	27957.70
556.33	28070.04
556.50	28156.64
556.66	28212.82
556.83	27971.74
556.99	28233.88
557.16	28266.65
557.32	28570.92
557.49	28582.62
557.65	28418.78
557.82	28336.87
557.98	28542.83
558.15	28430.49
558.32	28400.06
558.48	28507.72
558.65	28664.54
558.81	28467.94
558.98	28137.92
559.14	28137.92
559.31	28292.40
559.47	28313.46
559.64	28709.01
559.80	28313.46
559.97	28591.98
560.13	28594.32
560.30	29095.20
560.46	28926.68
560.63	28676.24
560.79	28767.52
560.96	28741.78
561.12	28191.75
561.29	28709.01
561.45	28521.77
561.61	28989.88
561.78	28840.08
561.94	29010.94
562.11	29078.82
562.27	28914.98
562.44	28734.76
562.60	28751.14
562.77	28758.16
562.93	28615.39
563.10	29116.26
563.26	28816.68
563.42	28929.02
563.59	28788.59
563.75	28711.35
563.92	29078.82
564.08	28854.12
564.24	29015.62
564.41	28926.68
564.57	28786.25
564.74	29109.24
564.90	29230.95
565.07	29102.22
565.23	28980.51
565.39	29591.39
565.56	29390.11
565.72	28980.51
565.88	28982.85
566.05	29308.19
566.21	29174.78
566.38	29397.13
566.54	29046.05
566.70	28893.91
566.87	29333.93
567.03	28840.08
567.19	29570.33
567.36	29404.15
567.52	29006.26
567.68	29373.72
567.85	28872.85
568.01	29371.38
568.17	29266.06
568.34	29509.47
568.50	29326.91
568.66	29230.95
568.83	29441.60
568.99	29102.22
569.15	29130.31
569.32	29146.69
569.48	29050.73
569.64	29399.47
569.81	29509.47
569.97	29369.04
570.13	29495.43
570.30	29415.85
570.46	29488.41
570.62	29598.41
570.78	29401.81
570.95	29174.78
571.11	29392.45
571.27	28959.45
571.43	29212.23
571.60	29362.02
571.76	29191.16
571.92	29699.06
572.09	29406.49
572.25	29177.12
572.41	29785.66
572.57	29450.96
572.74	29586.71
572.90	29202.86
573.06	29436.92
573.22	29448.62
573.38	29586.71
573.55	29488.41
573.71	29720.12
573.87	29933.11
574.03	29706.08
574.20	29724.80
574.36	29722.46
574.52	29467.34
574.68	29326.91
574.84	29401.81
575.01	29483.73
575.17	29268.40
575.33	29380.74
575.49	29429.90
575.65	29647.57
575.82	29633.52
575.98	29462.66
576.14	29780.98
576.30	29308.19
576.46	29717.78
576.62	29617.14
576.79	29319.89
576.95	29701.40
577.11	29881.62
577.27	29736.51
577.43	29586.71
577.59	29560.97
577.75	29874.60
577.92	29766.93
578.08	29635.86
578.24	29488.41
578.40	29694.38
578.56	29373.72
578.72	29764.59
578.88	29530.54
579.04	29584.37
579.21	29809.06
579.37	29558.63
579.53	29745.87
579.69	29624.16
579.85	29177.12
580.01	29670.97
580.17	29439.26
580.33	29738.85
580.49	29516.50
580.65	29579.69
580.82	29935.45
580.98	29745.87
581.14	29788.00
581.30	29788.00
581.46	29820.77
581.62	29635.86
581.78	29598.41
581.94	29965.88
582.10	29511.81
582.26	29736.51
582.42	29610.12
582.58	29858.21
582.74	29865.24
582.90	29926.09
583.06	29961.20
583.22	29869.92
583.38	29795.02
583.54	29598.41
583.70	29722.46
583.86	29855.87
584.02	29853.53
584.18	30141.42
584.34	29991.62
584.50	29802.04
584.66	29869.92
584.82	30132.06
584.98	29776.30
585.14	30087.59
585.30	29565.65
585.46	29890.98
585.62	29839.49
585.78	29706.08
585.94	29434.58
586.10	30089.93
586.26	29518.84
586.42	29883.96
586.58	29972.90
586.74	29905.02
586.90	29785.66
587.06	29656.93
587.22	29743.53
587.38	29759.91
587.54	30426.96
587.70	30110.99
587.86	29692.04
588.02	30263.13
588.18	30361.43
588.34	29837.15
588.49	29933.11
588.65	29879.28
588.81	29965.88
588.97	30031.41
589.13	29685.01
589.29	30087.59
589.45	30136.74
589.61	30036.09
589.77	30450.37
589.93	30005.67
590.08	30368.45
590.24	30602.50
590.40	30490.16
590.56	30139.08
590.72	30251.42
590.88	29713.10
591.04	29975.24
591.20	29996.31
591.35	30258.45
591.51	30614.21
591.67	30068.86
591.83	30260.79
591.99	30103.97
