SpectraSuite Data File
++++++++++++++++++++++++++++++++++++
Date: Fri Oct 18 13:58:27 GMT-05:00 2013
User: bianchi
Dark Spectrum Present: No
Reference Spectrum Present: No
Number of Sampled Component Spectra: 1
Spectrometers: USB2+H05261
Integration Time (usec): 50000 (USB2+H05261)
Spectra Averaged: 1 (USB2+H05261)
Boxcar Smoothing: 0 (USB2+H05261)
Correct for Electrical Dark: No (USB2+H05261)
Strobe/Lamp Enabled: No (USB2+H05261)
Correct for Detector Non-linearity: No (USB2+H05261)
Correct for Stray Light: No (USB2+H05261)
Number of Pixels in Processed Spectrum: 2048
>>>>>Begin Processed Spectral Data<<<<<
365.73	4.68
365.92	4.68
366.12	4.68
366.32	0.00
366.52	0.00
366.72	0.00
366.91	0.00
367.11	0.00
367.31	0.00
367.51	0.00
367.70	0.00
367.90	0.00
368.10	0.00
368.30	0.00
368.49	0.00
368.69	0.00
368.89	0.00
369.09	0.00
369.28	0.00
369.48	0.00
369.68	0.00
369.87	0.00
370.07	0.00
370.27	0.00
370.47	0.00
370.66	0.00
370.86	91.28
371.06	121.71
371.25	107.66
371.45	110.01
371.65	131.07
371.84	191.92
372.04	161.50
372.24	70.22
372.44	184.90
372.63	196.60
372.83	236.39
373.03	184.90
373.22	217.67
373.42	191.92
373.62	220.01
373.81	203.63
374.01	170.86
374.21	224.69
374.40	297.25
374.60	299.59
374.79	208.31
374.99	269.16
375.19	320.65
375.38	278.52
375.58	147.45
375.78	208.31
375.97	245.76
376.17	294.91
376.37	278.52
376.56	220.01
376.76	229.37
376.95	337.04
377.15	224.69
377.35	278.52
377.54	262.14
377.74	273.84
377.93	315.97
378.13	241.08
378.33	222.35
378.52	280.86
378.72	320.65
378.91	318.31
379.11	308.95
379.31	304.27
379.50	278.52
379.70	304.27
379.89	360.44
380.09	304.27
380.28	250.44
380.48	306.61
380.68	283.20
380.87	315.97
381.07	315.97
381.26	264.48
381.46	334.70
381.65	285.55
381.85	337.04
382.04	381.51
382.24	334.70
382.43	395.55
382.63	348.74
382.83	381.51
383.02	348.74
383.22	318.31
383.41	355.76
383.61	283.20
383.80	383.85
384.00	376.83
384.19	386.19
384.39	339.38
384.58	376.83
384.78	325.33
384.97	367.46
385.17	414.27
385.36	425.98
385.56	418.96
385.75	435.34
385.95	369.80
386.14	437.68
386.34	423.64
386.53	397.89
386.72	334.70
386.92	421.30
387.11	428.32
387.31	386.19
387.50	449.38
387.70	376.83
387.89	409.59
388.09	451.72
388.28	433.00
388.48	458.74
388.67	449.38
388.86	449.38
389.06	383.85
389.25	447.04
389.45	461.09
389.64	463.43
389.84	447.04
390.03	440.02
390.22	376.83
390.42	510.24
390.61	500.87
390.81	535.98
391.00	400.23
391.19	573.43
391.39	521.94
391.58	512.58
391.78	463.43
391.97	428.32
392.16	561.73
392.36	458.74
392.55	526.62
392.75	554.71
392.94	547.69
393.13	557.05
393.33	538.32
393.52	566.41
393.71	624.92
393.91	582.79
394.10	550.03
394.29	580.45
394.49	531.30
394.68	514.92
394.88	510.24
395.07	575.77
395.26	566.41
395.46	636.63
395.65	550.03
395.84	636.63
396.04	655.35
396.23	596.84
396.42	650.67
396.62	631.94
396.81	631.94
397.00	594.50
397.19	596.84
397.39	650.67
397.58	699.82
397.77	655.35
397.97	662.37
398.16	608.54
398.35	741.95
398.55	657.69
398.74	624.92
398.93	725.57
399.12	697.48
399.32	671.73
399.51	718.54
399.70	697.48
399.90	767.70
400.09	758.33
400.28	842.59
400.47	774.72
400.67	730.25
400.86	816.85
401.05	767.70
401.24	758.33
401.44	809.83
401.63	770.04
401.82	777.06
402.01	802.80
402.21	842.59
402.40	819.19
402.59	912.81
402.78	866.00
402.97	784.08
403.17	821.53
403.36	868.34
403.55	854.30
403.74	929.19
403.93	880.04
404.13	947.92
404.32	877.70
404.51	870.68
404.70	833.23
404.89	954.94
405.09	987.71
405.28	1022.81
405.47	901.11
405.66	1062.60
405.85	915.15
406.05	950.26
406.24	938.55
406.43	1013.45
406.62	999.41
406.81	1034.52
407.00	1006.43
407.20	985.37
407.39	1076.65
407.58	1081.33
407.77	1090.69
407.96	1135.16
408.15	1025.15
408.34	999.41
408.54	1057.92
408.73	1025.15
408.92	1095.37
409.11	1193.67
409.30	1100.05
409.49	1025.15
409.68	1114.10
409.87	1191.33
410.07	1135.16
410.26	1146.86
410.45	1095.37
410.64	1160.91
410.83	1146.86
411.02	1210.06
411.21	1263.89
411.40	1296.66
411.59	1196.01
411.78	1259.21
411.98	1203.04
412.17	1263.89
412.36	1259.21
412.55	1397.30
412.74	1336.45
412.93	1397.30
413.12	1322.40
413.31	1469.86
413.50	1425.39
413.69	1357.51
413.88	1425.39
414.07	1376.24
414.26	1516.67
414.45	1387.94
414.64	1467.52
414.83	1488.58
415.02	1392.62
415.22	1586.88
415.41	1596.25
415.60	1638.38
415.79	1554.12
415.98	1643.06
416.17	1575.18
416.36	1696.89
416.55	1528.37
416.74	1647.74
416.93	1593.90
417.12	1657.10
417.31	1682.85
417.50	1600.93
417.69	1703.91
417.88	1743.70
418.07	1708.59
418.26	1886.47
418.45	1764.76
418.64	1816.26
418.83	1827.96
419.02	1792.85
419.21	1727.32
419.39	1865.41
419.58	1785.83
419.77	1879.45
419.96	1818.60
420.15	1961.37
420.34	1872.43
420.53	1830.30
420.72	1881.79
420.91	1928.60
421.10	1961.37
421.29	1975.41
421.48	1888.81
421.67	1935.62
421.86	1926.26
422.05	1926.26
422.24	1998.82
422.43	1956.69
422.61	1959.03
422.80	1961.37
422.99	1954.35
423.18	2057.33
423.37	1996.48
423.56	2036.27
423.75	1996.48
423.94	1996.48
424.13	1900.52
424.32	1870.09
424.50	2026.90
424.69	2076.06
424.88	2139.25
425.07	1963.71
425.26	1996.48
425.45	2029.24
425.64	2005.84
425.83	2057.33
426.01	2069.03
426.20	2132.23
426.39	2080.74
426.58	2040.95
426.77	2057.33
426.96	2108.82
427.15	1937.96
427.33	2062.01
427.52	2099.46
427.71	2118.18
427.90	2071.37
428.09	2087.76
428.28	2122.87
428.46	2193.08
428.65	2209.47
428.84	2188.40
429.03	2195.42
429.22	2176.70
429.40	2176.70
429.59	2251.60
429.78	2232.87
429.97	2202.44
430.16	2146.27
430.34	2279.68
430.53	2340.54
430.72	2319.47
430.91	2216.49
431.10	2120.53
431.28	2310.11
431.47	2326.49
431.66	2352.24
431.85	2310.11
432.03	2420.11
432.22	2380.32
432.41	2544.16
432.60	2387.35
432.79	2469.27
432.97	2464.58
433.16	2459.90
433.35	2424.80
433.54	2434.16
433.72	2466.92
433.91	2448.20
434.10	2452.88
434.28	2380.32
434.47	2518.42
434.66	2597.99
434.85	2583.95
435.03	2616.72
435.22	2576.93
435.41	2597.99
435.59	2504.37
435.78	2607.36
435.97	2560.55
436.16	2679.91
436.34	2534.80
436.53	2796.94
436.72	2871.84
436.90	2743.11
437.09	2712.68
437.28	2736.09
437.46	2722.04
437.65	2785.24
437.84	2719.70
438.02	2810.98
438.21	2715.02
438.40	2787.58
438.58	2871.84
438.77	2789.92
438.96	2951.42
439.14	2937.37
439.33	2935.03
439.52	2986.52
439.70	2967.80
439.89	2967.80
440.08	2902.26
440.26	3005.25
440.45	2939.71
440.63	3082.49
440.82	3227.60
441.01	3126.96
441.19	3145.68
441.38	3225.26
441.57	3180.79
441.75	3119.93
441.94	3379.73
442.12	3220.58
442.31	3201.85
442.50	3246.32
442.68	3260.37
442.87	3304.84
443.05	3253.34
443.24	3421.86
443.43	3323.56
443.61	3330.58
443.80	3382.07
443.98	3393.78
444.17	3391.44
444.35	3220.58
444.54	3375.05
444.73	3433.57
444.91	3459.31
445.10	3358.67
445.28	3382.07
445.47	3351.65
445.65	3485.06
445.84	3569.32
446.02	3506.12
446.21	3431.23
446.39	3445.27
446.58	3421.86
446.77	3520.17
446.95	3396.12
447.14	3480.38
447.32	3585.70
447.51	3602.08
447.69	3534.21
447.88	3353.99
448.06	3585.70
448.25	3543.57
448.43	3438.25
448.62	3478.04
448.80	3473.36
448.99	3496.76
449.17	3611.45
449.36	3522.51
449.54	3641.87
449.73	3623.15
449.91	3754.22
450.10	3597.40
450.28	3779.97
450.46	3782.31
450.65	3742.52
450.83	3838.48
451.02	3637.19
451.20	3723.79
451.39	3812.73
451.57	3691.02
451.76	3719.11
451.94	3728.47
452.13	3782.31
452.31	3885.29
452.49	3712.09
452.68	3810.39
452.86	3775.28
453.05	3824.44
453.23	3920.40
453.42	3880.61
453.60	4011.68
453.78	3889.97
453.97	3896.99
454.15	4028.06
454.34	3836.14
454.52	3896.99
454.70	3934.44
454.89	3889.97
455.07	4081.89
455.26	3969.55
455.44	4007.00
455.62	4056.15
455.81	3981.25
455.99	4009.34
456.17	4088.92
456.36	4131.05
456.54	4241.05
456.73	4217.65
456.91	4297.22
457.09	4348.72
457.28	4346.37
457.46	4315.95
457.64	4449.36
457.83	4313.61
458.01	4222.33
458.19	4423.61
458.38	4327.65
458.56	4505.53
458.74	4423.61
458.93	4318.29
459.11	4456.38
459.29	4397.87
459.48	4418.93
459.66	4381.48
459.84	4526.60
460.03	4615.54
460.21	4542.98
460.39	4507.87
460.57	4470.42
460.76	4744.27
460.94	4655.33
461.12	4573.41
461.31	4638.94
461.49	4582.77
461.67	4589.79
461.85	4535.96
462.04	4566.39
462.22	4856.61
462.40	4650.64
462.59	4706.82
462.77	4709.16
462.95	4919.81
463.13	4692.77
463.32	4657.67
463.50	4734.90
463.68	4713.84
463.86	4767.67
464.05	4678.73
464.23	4807.46
464.41	4908.10
464.59	4854.27
464.78	4975.98
464.96	4856.61
465.14	4798.10
465.32	4931.51
465.50	4912.78
465.69	4954.91
465.87	4870.65
466.05	4950.23
466.23	4926.83
466.41	4931.51
466.60	5067.26
466.78	4997.04
466.96	4908.10
467.14	4990.02
467.32	5048.54
467.51	5231.10
467.69	5081.30
467.87	5135.14
468.05	5146.84
468.23	4994.70
468.41	5085.98
468.60	5153.86
468.78	5259.18
468.96	5111.73
469.14	5198.33
469.32	5392.59
469.50	5203.01
469.69	5252.16
469.87	5350.46
470.05	5336.42
470.23	5373.87
470.41	5387.91
470.59	5378.55
470.77	5444.09
470.95	5490.90
471.14	5685.16
471.32	5313.02
471.50	5577.50
471.68	5598.56
471.86	5563.45
472.04	5675.80
472.22	5710.91
472.40	5526.00
472.58	5603.24
472.77	5537.71
472.95	5720.27
473.13	5832.62
473.31	5926.24
473.49	5860.70
473.67	5760.06
473.85	5825.59
474.03	6005.81
474.21	5860.70
474.39	5973.05
474.57	5980.07
474.75	6019.86
474.93	6246.89
475.12	6099.44
475.30	6300.72
475.48	6193.06
475.66	6204.76
475.84	6338.17
476.02	6387.32
476.20	6441.15
476.38	6480.94
476.56	6576.91
476.74	6551.16
476.92	6654.14
477.10	6443.49
477.28	6640.10
477.46	6689.25
477.64	6616.69
477.82	6696.27
478.00	6965.43
478.18	6965.43
478.36	6834.36
478.54	7094.16
478.72	6972.46
478.90	6876.49
479.08	7152.68
479.26	7094.16
479.44	7297.79
479.62	7234.60
479.80	7304.81
479.98	7400.77
480.16	7424.18
480.34	7552.91
480.52	7658.23
480.70	7569.29
480.88	7597.38
481.06	7641.85
481.24	7625.47
481.41	7896.97
481.59	7770.58
481.77	7868.88
481.95	7971.86
482.13	8124.00
482.31	7887.61
482.49	8091.23
482.67	8044.42
482.85	8121.66
483.03	8540.61
483.21	8734.88
483.39	8564.02
483.57	8458.70
483.74	8777.01
483.92	8769.99
484.10	8568.70
484.28	8964.25
484.46	9090.64
484.64	8898.72
484.82	9163.20
485.00	8915.10
485.18	9165.54
485.35	9343.42
485.53	9415.98
485.71	9397.25
485.89	9476.83
486.07	9352.78
486.25	9383.21
486.43	9479.17
486.61	9619.60
486.78	9614.92
486.96	9607.90
487.14	9919.19
487.32	9944.94
487.50	10139.20
487.68	10228.14
487.85	10263.25
488.03	10441.13
488.21	10441.13
488.39	10457.51
488.57	10654.12
488.75	10555.82
488.92	10764.12
489.10	10806.25
489.28	10738.38
489.46	11087.12
489.64	10897.53
489.81	11166.70
489.99	11047.33
490.17	11274.36
490.35	11370.32
490.53	11335.21
490.70	11719.06
490.88	11473.31
491.06	11721.40
491.24	11627.78
491.41	11754.17
491.59	11672.25
491.77	11871.20
491.95	12004.61
492.13	12219.94
492.30	12039.72
492.48	12116.95
492.66	12306.54
492.84	12248.02
493.01	12327.60
493.19	12212.92
493.37	12514.84
493.54	12587.40
493.72	12617.83
493.90	12910.40
494.08	12683.36
494.25	12622.51
494.43	12690.38
494.61	12966.57
494.79	13249.77
494.96	13319.99
495.14	13312.97
495.32	13607.87
495.49	13593.83
495.67	13591.49
495.85	13551.70
496.02	13610.22
496.20	13757.67
496.38	13774.05
496.55	13996.40
496.73	14310.04
496.91	13982.36
497.09	13935.55
497.26	14230.46
497.44	14157.90
497.62	14291.31
497.79	14396.64
497.97	14499.62
498.14	14621.33
498.32	15133.90
498.50	14473.87
498.67	14874.10
498.85	14787.50
499.03	14944.32
499.20	14864.74
499.38	14841.34
499.56	14974.75
499.73	15140.93
499.91	15314.13
500.08	15300.08
500.26	15267.31
500.44	15332.85
500.61	15616.05
500.79	15487.32
500.97	15492.01
501.14	15700.31
501.32	15836.06
501.49	15695.63
501.67	15807.98
501.84	15791.59
502.02	16121.61
502.20	15723.72
502.37	15967.13
502.55	15772.87
502.72	15859.47
502.90	16152.04
503.07	16027.99
503.25	16035.01
503.43	15976.50
503.60	16379.07
503.78	16343.96
503.95	16615.46
504.13	16414.18
504.30	16507.80
504.48	16407.16
504.65	16744.19
504.83	16673.98
505.01	17006.33
505.18	16655.25
505.36	16959.52
505.53	16781.64
505.71	17015.69
505.88	16917.39
506.06	16985.27
506.23	17212.30
506.41	17231.02
506.58	17235.70
506.76	17369.12
506.93	17432.31
507.11	17607.85
507.28	17219.32
507.46	17479.12
507.63	17612.53
507.81	17654.66
507.98	17324.65
508.16	17657.00
508.33	17481.46
508.50	17631.26
508.68	17617.21
508.85	17891.06
509.03	17734.24
509.20	18277.24
509.38	18052.55
509.55	18146.17
509.73	18504.28
509.90	18075.96
510.08	18024.47
510.25	18141.49
510.42	18441.08
510.60	18422.36
510.77	18499.59
510.95	18693.86
511.12	18789.82
511.30	18403.63
511.47	18747.69
511.64	18780.46
511.82	18927.91
511.99	19047.28
512.17	18920.89
512.34	19077.71
512.51	18712.58
512.69	19007.49
512.86	18726.63
513.04	19307.08
513.21	19250.91
513.38	19138.56
513.56	19007.49
513.73	18988.77
513.90	19379.64
514.08	19248.57
514.25	19683.91
514.43	19711.99
514.60	19796.25
514.77	19674.54
514.95	19719.01
515.12	19653.48
515.29	19653.48
515.47	19742.42
515.64	19845.40
515.81	19737.74
515.99	20294.79
516.16	20086.48
516.33	20161.37
516.51	20255.00
516.68	20152.01
516.85	20243.29
517.03	20098.18
517.20	20329.89
517.37	20243.29
517.54	20580.33
517.72	20388.41
517.89	20437.56
518.06	20453.94
518.24	20531.18
518.41	20704.38
518.58	20589.69
518.75	20404.79
518.93	20856.51
519.10	20512.46
519.27	20835.45
519.45	20606.08
519.62	20720.76
519.79	20762.89
519.96	20847.15
520.14	21095.25
520.31	21104.61
520.48	21226.32
520.65	21076.52
520.83	21055.46
521.00	21069.50
521.17	21252.06
521.34	21296.53
521.52	21404.20
521.69	21270.79
521.86	21603.14
522.03	21638.25
522.20	21619.53
522.38	21694.43
522.55	21841.88
522.72	21490.80
522.89	21902.73
523.07	21879.33
523.24	22029.12
523.41	21867.63
523.58	21956.57
523.75	21944.86
523.92	21886.35
524.10	22045.51
524.27	22228.07
524.44	22239.77
524.61	22354.46
524.78	22160.19
524.96	22216.36
525.13	22506.59
525.30	22347.44
525.47	22176.58
525.64	22537.02
525.81	22387.22
525.98	22717.24
526.16	22967.68
526.33	22370.84
526.50	22707.88
526.67	22705.54
526.84	22707.88
527.01	22228.07
527.18	22717.24
527.36	23047.26
527.53	23007.47
527.70	22899.80
527.87	23117.47
528.04	23019.17
528.21	22923.21
528.38	23117.47
528.55	23033.21
528.72	23250.88
528.89	23321.10
529.07	23110.45
529.24	23019.17
529.41	23435.78
529.58	23110.45
529.75	23431.10
529.92	23058.96
530.09	23274.29
530.26	23229.82
530.43	23576.22
530.60	23374.93
530.77	23417.06
530.94	23660.48
531.11	23208.75
531.28	23442.81
531.46	23618.35
531.63	23948.36
531.80	23967.09
531.97	23782.18
532.14	23978.79
532.31	23983.47
532.48	24194.12
532.65	24030.28
532.82	23955.38
532.99	23686.22
533.16	23988.15
533.33	23894.53
533.50	24460.94
533.67	24034.96
533.84	23908.57
534.01	23803.25
534.18	24196.46
534.35	24402.43
534.52	24173.05
534.69	24280.72
534.86	24254.97
535.03	24119.22
535.20	24805.00
535.37	24554.56
535.54	24463.28
535.71	24449.24
535.88	24474.98
536.05	24568.60
536.22	24851.81
536.38	24629.46
536.55	24840.11
536.72	24753.51
536.89	24842.45
537.06	24484.34
537.23	24702.01
537.40	24875.21
537.57	25062.46
537.74	24973.52
537.91	24828.40
538.08	25032.03
538.25	24947.77
538.42	25135.01
538.59	24886.92
538.75	24863.51
538.92	25132.67
539.09	25003.94
539.26	25188.85
539.43	25036.71
539.60	25144.38
539.77	25151.40
539.94	25848.88
540.11	25230.98
540.28	25106.93
540.44	25565.67
540.61	25434.60
540.78	25450.99
540.95	25415.88
541.12	25450.99
541.29	25418.22
541.46	25673.34
541.62	25111.61
541.79	25427.58
541.96	24844.79
542.13	25635.89
542.30	25720.15
542.47	25804.41
542.63	26223.36
542.80	25837.17
542.97	26029.10
543.14	25869.94
543.31	26066.55
543.48	25869.94
543.64	26356.77
543.81	26373.16
543.98	26295.92
544.15	26103.99
544.32	26316.98
544.48	26270.17
544.65	26183.57
544.82	26497.20
544.99	26082.93
545.16	26265.49
545.32	26539.33
545.49	26515.93
545.66	26438.69
545.83	26703.17
546.00	26551.04
546.16	26539.33
546.33	26775.73
546.50	26286.56
546.67	26555.72
546.83	26349.75
547.00	26637.64
547.17	26499.55
547.34	26565.08
547.50	26843.60
547.67	26995.74
547.84	26902.12
548.00	27023.83
548.17	26656.36
548.34	26726.58
548.51	27070.64
548.67	27028.51
548.84	27192.34
549.01	27044.89
549.18	27002.76
549.34	27140.85
549.51	26951.27
549.68	27068.30
549.84	27154.90
550.01	27185.32
550.18	27016.80
550.34	27234.47
550.51	27108.08
550.68	27407.67
550.84	26855.31
551.01	27384.27
551.18	27157.24
551.34	27220.43
551.51	26955.95
551.68	27342.14
551.84	27515.34
552.01	27349.16
552.18	27477.89
552.34	27625.34
552.51	27754.07
552.68	27171.28
552.84	27534.06
553.01	27978.76
553.18	27716.62
553.34	27445.12
553.51	27529.38
553.67	27929.61
553.84	28006.85
554.01	27686.20
554.17	28196.43
554.34	27644.07
554.51	27733.01
554.67	27496.61
554.84	27903.87
555.00	27740.03
555.17	27761.09
555.33	27744.71
555.50	27807.90
555.67	27850.03
555.83	27880.46
556.00	27695.56
556.16	28072.39
556.33	28198.77
556.50	28116.86
556.66	28261.97
556.83	27941.32
556.99	28341.55
557.16	28180.05
557.32	28056.00
557.49	28414.10
557.65	27985.79
557.82	28177.71
557.98	27920.25
558.15	28222.18
558.32	28173.03
558.48	28116.86
558.65	28559.22
558.81	28460.91
558.98	28304.10
559.14	28287.71
559.31	28025.57
559.47	28151.96
559.64	28268.99
559.80	28533.47
559.97	28474.96
560.13	28491.34
560.30	28517.09
560.46	28023.23
560.63	28484.32
560.79	28627.09
560.96	28243.24
561.12	28231.54
561.29	28287.71
561.45	28676.24
561.61	28491.34
561.78	28465.60
561.94	28758.16
562.11	29074.13
562.27	28889.23
562.44	28615.39
562.60	28594.32
562.77	28685.61
562.93	28638.80
563.10	28599.01
563.26	28769.86
563.42	29106.90
563.59	28800.29
563.75	28982.85
563.92	28465.60
564.08	28360.27
564.24	28692.63
564.41	28596.67
564.57	28498.36
564.74	28891.57
564.90	28987.53
565.07	28893.91
565.23	28638.80
565.39	28975.83
565.56	29067.11
565.72	28617.73
565.88	28875.19
566.05	28638.80
566.21	28746.46
566.38	28978.17
566.54	28802.63
566.70	28926.68
566.87	29275.42
567.03	28959.45
567.19	29516.50
567.36	28975.83
567.52	28896.25
567.68	29174.78
567.85	28917.32
568.01	29191.16
568.17	29202.86
568.34	28683.27
568.50	29518.84
568.66	28797.95
568.83	29048.39
568.99	29048.39
569.15	28718.37
569.32	28994.56
569.48	28807.31
569.64	29373.72
569.81	29085.84
569.97	29097.54
570.13	29263.72
570.30	28964.13
570.46	29336.27
570.62	29233.29
570.78	28919.66
570.95	28900.94
571.11	29397.13
571.27	29174.78
571.43	29287.12
571.60	29244.99
571.76	29134.99
571.92	28999.24
572.09	29118.60
572.25	29139.67
572.41	29062.43
572.57	29179.46
572.74	29443.94
572.90	29032.00
573.06	29418.19
573.22	28793.27
573.38	29191.16
573.55	29390.11
573.71	29572.67
573.87	29406.49
574.03	29259.04
574.20	29249.67
574.36	29355.00
574.52	29317.55
574.68	29256.70
574.84	29406.49
575.01	29376.06
575.17	29083.50
575.33	29298.83
575.49	29247.33
575.65	29432.24
575.82	29656.93
575.98	29191.16
576.14	29605.44
576.30	29560.97
576.46	29177.12
576.62	29397.13
576.79	29418.19
576.95	29511.81
577.11	29195.84
577.27	29780.98
577.43	29369.04
577.59	29120.95
577.75	29308.19
577.92	29177.12
578.08	29401.81
578.24	29261.38
578.40	29488.41
578.56	29694.38
578.72	29256.70
578.88	29532.88
579.04	29766.93
579.21	29476.71
579.37	29699.06
579.53	29486.07
579.69	29125.63
579.85	29233.29
580.01	29450.96
580.17	29177.12
580.33	29378.40
580.49	29680.33
580.65	29748.21
580.82	29675.65
580.98	29378.40
581.14	29446.28
581.30	29408.83
581.46	29329.25
581.62	29188.82
581.78	29120.95
581.94	29553.94
582.10	29523.52
582.26	29214.57
582.42	29457.98
582.58	29752.89
582.74	29645.23
582.90	29453.30
583.06	29958.86
583.22	29301.17
583.38	29315.21
583.54	29305.85
583.70	29434.58
583.86	29694.38
584.02	29469.69
584.18	29680.33
584.34	29364.36
584.50	29741.19
584.66	29710.76
584.82	29500.11
584.98	29659.27
585.14	29727.14
585.30	29432.24
585.46	29605.44
585.62	29113.92
585.78	29680.33
585.94	29954.18
586.10	29362.02
586.26	29734.17
586.42	29507.13
586.58	29795.02
586.74	29474.37
586.90	29336.27
587.06	29661.61
587.22	29853.53
587.38	29479.05
587.54	29687.36
587.70	29699.06
587.86	29722.46
588.02	29736.51
588.18	30115.67
588.34	29902.68
588.49	29710.76
588.65	29703.74
588.81	29907.37
588.97	29685.01
589.13	29912.05
589.29	29525.86
589.45	29893.32
589.61	29846.51
589.77	30410.58
589.93	29928.43
590.08	30022.05
590.24	30052.48
590.40	30089.93
590.56	30010.35
590.72	29764.59
590.88	29755.23
591.04	29324.57
591.20	29717.78
591.35	30108.65
591.51	29909.71
591.67	29820.77
591.83	30153.12
591.99	29493.09
