SpectraSuite Data File
++++++++++++++++++++++++++++++++++++
Date: Fri Oct 18 13:58:27 GMT-05:00 2013
User: bianchi
Dark Spectrum Present: No
Reference Spectrum Present: No
Number of Sampled Component Spectra: 1
Spectrometers: USB2+H05261
Integration Time (usec): 50000 (USB2+H05261)
Spectra Averaged: 1 (USB2+H05261)
Boxcar Smoothing: 0 (USB2+H05261)
Correct for Electrical Dark: No (USB2+H05261)
Strobe/Lamp Enabled: No (USB2+H05261)
Correct for Detector Non-linearity: No (USB2+H05261)
Correct for Stray Light: No (USB2+H05261)
Number of Pixels in Processed Spectrum: 2048
>>>>>Begin Processed Spectral Data<<<<<
365.73	0.00
365.92	0.00
366.12	0.00
366.32	0.00
366.52	0.00
366.72	0.00
366.91	0.00
367.11	0.00
367.31	0.00
367.51	0.00
367.70	0.00
367.90	0.00
368.10	0.00
368.30	0.00
368.49	0.00
368.69	0.00
368.89	0.00
369.09	0.00
369.28	0.00
369.48	0.00
369.68	0.00
369.87	0.00
370.07	0.00
370.27	0.00
370.47	0.00
370.66	56.17
370.86	46.81
371.06	72.56
371.25	128.73
371.45	81.92
371.65	154.48
371.84	166.18
372.04	205.97
372.24	112.35
372.44	114.69
372.63	163.84
372.83	180.22
373.03	241.08
373.22	266.82
373.42	227.03
373.62	224.69
373.81	231.71
374.01	264.48
374.21	259.80
374.40	332.36
374.60	264.48
374.79	224.69
374.99	203.63
375.19	271.50
375.38	255.12
375.58	257.46
375.78	287.89
375.97	280.86
376.17	201.29
376.37	252.78
376.56	266.82
376.76	245.76
376.95	241.08
377.15	217.67
377.35	301.93
377.54	234.05
377.74	266.82
377.93	283.20
378.13	259.80
378.33	243.42
378.52	191.92
378.72	243.42
378.91	374.49
379.11	245.76
379.31	304.27
379.50	299.59
379.70	269.16
379.89	250.44
380.09	358.10
380.28	299.59
380.48	325.33
380.68	365.12
380.87	304.27
381.07	287.89
381.26	278.52
381.46	278.52
381.65	301.93
381.85	325.33
382.04	280.86
382.24	390.87
382.43	294.91
382.63	360.44
382.83	388.53
383.02	334.70
383.22	346.40
383.41	332.36
383.61	311.29
383.80	451.72
384.00	344.06
384.19	388.53
384.39	369.80
384.58	320.65
384.78	390.87
384.97	348.74
385.17	365.12
385.36	486.83
385.56	440.02
385.75	365.12
385.95	390.87
386.14	400.23
386.34	400.23
386.53	404.91
386.72	372.15
386.92	376.83
387.11	444.70
387.31	379.17
387.50	425.98
387.70	414.27
387.89	433.00
388.09	376.83
388.28	475.13
388.48	416.62
388.67	430.66
388.86	491.51
389.06	395.55
389.25	447.04
389.45	470.45
389.64	482.15
389.84	493.85
390.03	442.36
390.22	465.77
390.42	463.43
390.61	463.43
390.81	533.64
391.00	514.92
391.19	409.59
391.39	433.00
391.58	486.83
391.78	503.22
391.97	512.58
392.16	500.87
392.36	543.00
392.55	540.66
392.75	547.69
392.94	500.87
393.13	514.92
393.33	489.17
393.52	582.79
393.71	627.26
393.91	559.39
394.10	617.90
394.29	526.62
394.49	561.73
394.68	624.92
394.88	547.69
395.07	674.07
395.26	613.22
395.46	575.77
395.65	648.33
395.84	629.60
396.04	709.18
396.23	617.90
396.42	641.31
396.62	674.07
396.81	620.24
397.00	629.60
397.19	692.80
397.39	692.80
397.58	592.16
397.77	622.58
397.97	709.18
398.16	643.65
398.35	681.10
398.55	559.39
398.74	767.70
398.93	746.63
399.12	774.72
399.32	725.57
399.51	594.50
399.70	692.80
399.90	709.18
400.09	784.08
400.28	791.10
400.47	758.33
400.67	751.31
400.86	741.95
401.05	814.51
401.24	760.67
401.44	807.48
401.63	772.38
401.82	685.78
402.01	748.97
402.21	755.99
402.40	753.65
402.59	823.87
402.78	741.95
402.97	802.80
403.17	793.44
403.36	809.83
403.55	877.70
403.74	844.93
403.93	861.32
404.13	947.92
404.32	791.10
404.51	898.77
404.70	947.92
404.89	954.94
405.09	961.96
405.28	896.43
405.47	915.15
405.66	943.24
405.85	861.32
406.05	961.96
406.24	1006.43
406.43	926.85
406.62	1027.50
406.81	1053.24
407.00	1006.43
407.20	983.02
407.39	971.32
407.58	990.05
407.77	1060.26
407.96	1067.28
408.15	1100.05
408.34	1107.07
408.54	1088.35
408.73	1067.28
408.92	1076.65
409.11	1139.84
409.30	1090.69
409.49	1132.82
409.68	1149.20
409.87	1107.07
410.07	1069.62
410.26	1144.52
410.45	1198.35
410.64	1228.78
410.83	1149.20
411.02	1142.18
411.21	1196.01
411.40	1301.34
411.59	1153.88
411.78	1235.80
411.98	1299.00
412.17	1280.27
412.36	1179.63
412.55	1336.45
412.74	1331.76
412.93	1310.70
413.12	1350.49
413.31	1343.47
413.50	1355.17
413.69	1364.53
413.88	1401.98
414.07	1430.07
414.26	1511.99
414.45	1394.96
414.64	1511.99
414.83	1345.81
415.02	1502.62
415.22	1579.86
415.41	1556.46
415.60	1540.07
415.79	1570.50
415.98	1619.65
416.17	1636.03
416.36	1509.65
416.55	1528.37
416.74	1502.62
416.93	1584.54
417.12	1650.08
417.31	1654.76
417.50	1760.08
417.69	1713.27
417.88	1753.06
418.07	1680.50
418.26	1692.21
418.45	1687.53
418.64	1785.83
418.83	1818.60
419.02	1757.74
419.21	1795.19
419.39	1837.32
419.58	1823.28
419.77	1837.32
419.96	1785.83
420.15	1839.66
420.34	1874.77
420.53	1795.19
420.72	1954.35
420.91	1872.43
421.10	1879.45
421.29	1926.26
421.48	1877.11
421.67	2022.22
421.86	1881.79
422.05	1909.88
422.24	1952.01
422.43	1949.67
422.61	2012.86
422.80	1994.14
422.99	1987.11
423.18	2024.56
423.37	1970.73
423.56	1954.35
423.75	1987.11
423.94	1935.62
424.13	1823.28
424.32	1900.52
424.50	2008.18
424.69	2036.27
424.88	2019.88
425.07	1891.15
425.26	1968.39
425.45	2026.90
425.64	2019.88
425.83	2062.01
426.01	2090.10
426.20	2033.93
426.39	2050.31
426.58	1984.77
426.77	2026.90
426.96	1977.75
427.15	2101.80
427.33	2136.91
427.52	1940.30
427.71	2090.10
427.90	1982.43
428.09	2104.14
428.28	2204.78
428.46	2122.87
428.65	2197.76
428.84	2230.53
429.03	2275.00
429.22	2136.91
429.40	2303.09
429.59	2195.42
429.78	2157.97
429.97	2232.87
430.16	2050.31
430.34	2242.23
430.53	2289.04
430.72	2340.54
430.91	2200.10
431.10	2300.75
431.28	2385.01
431.47	2235.21
431.66	2471.61
431.85	2277.34
432.03	2354.58
432.22	2438.84
432.41	2509.05
432.60	2420.11
432.79	2406.07
432.97	2415.43
433.16	2394.37
433.35	2532.46
433.54	2544.16
433.72	2525.44
433.91	2605.02
434.10	2509.05
434.28	2459.90
434.47	2661.19
434.66	2511.39
434.85	2530.12
435.03	2605.02
435.22	2569.91
435.41	2574.59
435.59	2696.30
435.78	2654.17
435.97	2644.81
436.16	2602.68
436.34	2600.34
436.53	2658.85
436.72	2766.51
436.90	2719.70
437.09	2651.83
437.28	2562.89
437.46	2593.31
437.65	2698.64
437.84	2857.79
438.02	2658.85
438.21	2810.98
438.40	2693.96
438.58	2733.75
438.77	2848.43
438.96	2820.35
439.14	2890.56
439.33	2925.67
439.52	2974.82
439.70	2963.12
439.89	2970.14
440.08	3023.97
440.26	2949.08
440.45	2906.95
440.63	3021.63
440.82	3112.91
441.01	3070.78
441.19	3108.23
441.38	3183.13
441.57	3096.53
441.75	3103.55
441.94	3138.66
442.12	3133.98
442.31	3377.39
442.50	3269.73
442.68	3227.60
442.87	3323.56
443.05	3283.77
443.24	3382.07
443.43	3370.37
443.61	3344.63
443.80	3400.80
443.98	3122.27
444.17	3272.07
444.35	3431.23
444.54	3468.67
444.73	3405.48
444.91	3398.46
445.10	3449.95
445.28	3213.56
445.47	3346.97
445.65	3281.43
445.84	3426.54
446.02	3494.42
446.21	3346.97
446.39	3473.36
446.58	3433.57
446.77	3440.59
446.95	3290.79
447.14	3405.48
447.32	3454.63
447.51	3466.33
447.69	3569.32
447.88	3513.14
448.06	3454.63
448.25	3471.01
448.43	3592.72
448.62	3487.40
448.80	3386.76
448.99	3501.44
449.17	3590.38
449.36	3557.61
449.54	3520.17
449.73	3637.19
449.91	3609.11
450.10	3545.91
450.28	3810.39
450.46	3655.92
450.65	3684.00
450.83	3693.37
451.02	3688.68
451.20	3597.40
451.39	3758.90
451.57	3719.11
451.76	3686.34
451.94	3700.39
452.13	3810.39
452.31	3871.25
452.49	3847.84
452.68	3911.04
452.86	3789.33
453.05	4009.34
453.23	3845.50
453.42	3852.52
453.60	3796.35
453.78	3943.80
453.97	3878.27
454.15	3815.07
454.34	3861.88
454.52	3985.93
454.70	3946.14
454.89	4028.06
455.07	4007.00
455.26	3976.57
455.44	4140.41
455.62	4112.32
455.81	4025.72
455.99	4074.87
456.17	4175.52
456.36	4117.00
456.54	4133.39
456.73	4021.04
456.91	4191.90
457.09	4191.90
457.28	4318.29
457.46	4117.00
457.64	4332.33
457.83	4245.73
458.01	4126.36
458.19	4271.48
458.38	4227.01
458.56	4318.29
458.74	4348.72
458.93	4418.93
459.11	4470.42
459.29	4402.55
459.48	4498.51
459.66	4454.04
459.84	4564.04
460.03	4601.49
460.21	4582.77
460.39	4493.83
460.57	4489.15
460.76	4423.61
460.94	4477.44
461.12	4456.38
461.31	4643.62
461.49	4535.96
461.67	4512.55
461.85	4699.80
462.04	4608.51
462.22	4795.76
462.40	4685.75
462.59	4627.24
462.77	4908.10
462.95	4842.57
463.13	4643.62
463.32	4737.24
463.50	4798.10
463.68	4777.03
463.86	4786.40
464.05	4809.80
464.23	4767.67
464.41	4856.61
464.59	4964.28
464.78	5015.77
464.96	4908.10
465.14	4889.38
465.32	4975.98
465.50	5018.11
465.69	4889.38
465.87	4819.16
466.05	4922.15
466.23	4858.95
466.41	4873.00
466.60	5020.45
466.78	4919.81
466.96	4961.94
467.14	4926.83
467.32	5144.50
467.51	5125.77
467.69	4877.68
467.87	5111.73
468.05	5153.86
468.23	5132.79
468.41	5074.28
468.60	5156.20
468.78	5287.27
468.96	4954.91
469.14	5076.62
469.32	5242.80
469.50	5095.35
469.69	5313.02
469.87	5397.28
470.05	5418.34
470.23	5320.04
470.41	5245.14
470.59	5490.90
470.77	5341.10
470.95	5355.15
471.14	5488.56
471.32	5305.99
471.50	5596.22
471.68	5497.92
471.86	5483.88
472.04	5654.73
472.22	5748.36
472.40	5483.88
472.58	5598.56
472.77	5893.47
472.95	5607.92
473.13	5902.83
473.31	5849.00
473.49	5785.80
473.67	5731.97
473.85	5792.83
474.03	6099.44
474.21	5884.11
474.39	6054.97
474.57	6085.39
474.75	5937.94
474.93	6169.65
475.12	6059.65
475.30	6190.72
475.48	6108.80
475.66	6155.61
475.84	6202.42
476.02	6087.73
476.20	6249.23
476.38	6312.42
476.56	6555.84
476.74	6555.84
476.92	6389.66
477.10	6459.88
477.28	6600.31
477.46	6551.16
477.64	6656.48
477.82	6541.80
478.00	6729.04
478.18	6803.94
478.36	7009.90
478.54	6775.85
478.72	6979.48
478.90	6942.03
479.08	7045.01
479.26	7255.66
479.44	7152.68
479.62	7382.05
479.80	7396.09
479.98	7534.18
480.16	7321.20
480.34	7517.80
480.52	7447.58
480.70	7648.87
480.88	7625.47
481.06	7581.00
481.24	7674.62
481.41	7655.89
481.59	7889.95
481.77	7913.35
481.95	7941.44
482.13	7925.05
482.31	7992.93
482.49	8086.55
482.67	8196.56
482.85	8208.26
483.03	8503.17
483.21	8393.16
483.39	8374.44
483.57	8676.37
483.74	8601.47
483.92	8713.81
484.10	8711.47
484.28	8828.50
484.46	8926.80
484.64	9057.87
484.82	9025.11
485.00	9020.42
485.18	9221.71
485.35	9556.41
485.53	9095.32
485.71	9425.34
485.89	9474.49
486.07	9413.63
486.25	9324.69
486.43	9650.03
486.61	9547.05
486.78	9858.34
486.96	9935.57
487.14	9919.19
487.32	9973.02
487.50	10054.94
487.68	10141.54
487.85	10157.92
488.03	10359.21
488.21	10490.28
488.39	10511.35
488.57	10614.33
488.75	10466.88
488.92	10420.06
489.10	10843.70
489.28	11002.86
489.46	11021.58
489.64	11000.52
489.81	10981.79
489.99	11009.88
490.17	11154.99
490.35	11375.00
490.53	11459.26
490.70	11384.37
490.88	11477.99
491.06	11477.99
491.24	11389.05
491.41	11557.57
491.59	11913.33
491.77	11936.73
491.95	12133.34
492.13	12065.46
492.30	12156.74
492.48	12269.09
492.66	12278.45
492.84	12156.74
493.01	12489.10
493.19	12564.00
493.37	12606.13
493.54	12769.96
493.72	12549.95
493.90	12725.49
494.08	12943.16
494.25	12786.35
494.43	12840.18
494.61	12844.86
494.79	13245.09
494.96	13186.58
495.14	13238.07
495.32	13331.69
495.49	13380.84
495.67	13474.46
495.85	13619.58
496.02	13664.05
496.20	13865.33
496.38	13816.18
496.55	13650.00
496.73	14024.49
496.91	14001.08
497.09	14197.69
497.26	14256.20
497.44	14146.20
497.62	14228.12
497.79	14485.58
497.97	14300.67
498.14	14448.13
498.32	14480.89
498.50	14698.56
498.67	15075.39
498.85	14478.55
499.03	14740.69
499.20	14686.86
499.38	14857.72
499.56	15068.37
499.73	14951.34
499.91	15187.74
500.08	15208.80
500.26	14998.15
500.44	15250.93
500.61	15243.91
500.79	15604.35
500.97	15508.39
501.14	15632.44
501.32	15658.18
501.49	15557.54
501.67	15634.78
501.84	15789.25
502.02	15564.56
502.20	15768.19
502.37	16035.01
502.55	15892.24
502.72	15910.96
502.90	16072.46
503.07	15859.47
503.25	16081.82
503.43	16027.99
503.60	16297.15
503.78	16781.64
503.95	16411.84
504.13	16248.00
504.30	16287.79
504.48	16311.19
504.65	16599.08
504.83	16783.98
505.01	16999.31
505.18	16835.47
505.36	16982.93
505.53	16912.71
505.71	16973.56
505.88	16968.88
506.06	16828.45
506.23	16830.79
506.41	16964.20
506.58	17202.94
506.76	17493.16
506.93	17212.30
507.11	17179.53
507.28	17357.41
507.46	17331.67
507.63	17577.42
507.81	17844.24
507.98	17441.67
508.16	17308.26
508.33	17380.82
508.50	17748.28
508.68	17586.79
508.85	17504.87
509.03	17762.33
509.20	18057.23
509.38	17998.72
509.55	18038.51
509.73	18047.87
509.90	17951.91
510.08	18183.62
510.25	18017.44
510.42	18094.68
510.60	18225.75
510.77	18298.31
510.95	18661.09
511.12	18548.75
511.30	18384.91
511.47	18607.26
511.64	18576.83
511.82	18719.60
511.99	18284.26
512.17	19021.53
512.34	18492.57
512.51	18745.35
512.69	19143.24
512.86	18916.21
513.04	19033.24
513.21	19063.66
513.38	19133.88
513.56	19157.28
513.73	19157.28
513.90	19108.13
514.08	19211.12
514.25	19545.81
514.43	19363.25
514.60	19389.00
514.77	19641.78
514.95	19536.45
515.12	19524.75
515.29	19412.40
515.47	19686.25
515.64	19814.98
515.81	19726.04
515.99	20009.24
516.16	19807.95
516.33	20411.81
516.51	19999.88
516.68	20173.08
516.85	20027.96
517.03	20292.44
517.20	20191.80
517.37	20276.06
517.54	20409.47
517.72	20629.48
517.89	20222.23
518.06	20189.46
518.24	20528.84
518.41	20596.71
518.58	20311.17
518.75	20648.21
518.93	20842.47
519.10	20699.70
519.27	20774.60
519.45	20819.07
519.62	20589.69
519.79	20582.67
519.96	20805.02
520.14	21015.67
520.31	20989.92
520.48	21160.78
520.65	20676.29
520.83	21467.39
521.00	20919.71
521.17	21090.57
521.34	21490.80
521.52	20858.85
521.69	21322.28
521.86	21401.86
522.03	21614.85
522.20	21528.25
522.38	21539.95
522.55	21708.47
522.72	21703.79
522.89	21600.80
523.07	21708.47
523.24	21839.54
523.41	21888.69
523.58	21774.00
523.75	22080.61
523.92	21963.59
524.10	21696.77
524.27	22209.34
524.44	22115.72
524.61	21991.67
524.78	22326.37
524.96	21855.92
525.13	22146.15
525.30	22178.92
525.47	22534.68
525.64	22082.95
525.81	22443.40
525.98	22504.25
526.16	22054.87
526.33	22789.80
526.50	22895.12
526.67	22300.62
526.84	22731.28
527.01	22562.76
527.18	22656.39
527.36	22806.18
527.53	22764.05
527.70	23297.69
527.87	23150.24
528.04	23110.45
528.21	22745.33
528.38	22998.10
528.55	23456.85
528.72	23094.07
528.89	22972.36
529.07	22843.63
529.24	23295.35
529.41	23152.58
529.58	23005.13
529.75	23346.84
529.92	23197.05
530.09	22977.04
530.26	23208.75
530.43	23246.20
530.60	23480.25
530.77	23494.30
530.94	23288.33
531.11	23520.04
531.28	23386.63
531.46	23491.96
531.63	23763.46
531.80	23784.52
531.97	23463.87
532.14	23988.15
532.31	23758.78
532.48	23597.28
532.65	23859.42
532.82	23370.25
532.99	23840.70
533.16	23527.06
533.33	23943.68
533.50	24299.44
533.67	24088.79
533.84	24027.94
534.01	23999.85
534.18	23941.34
534.35	24233.91
534.52	24123.90
534.69	24287.74
534.86	24680.95
535.03	23852.40
535.20	24634.14
535.37	24439.87
535.54	24524.13
535.71	24198.80
535.88	24514.77
536.05	24219.86
536.22	24734.78
536.38	24751.17
536.55	24737.12
536.72	24353.27
536.89	24795.64
537.06	24685.63
537.23	24727.76
537.40	24765.21
537.57	24774.57
537.74	24973.52
537.91	24713.72
538.08	24849.47
538.25	24851.81
538.42	25076.50
538.59	24739.46
538.75	24898.62
538.92	25118.63
539.09	25181.82
539.26	24900.96
539.43	25104.59
539.60	25212.25
539.77	25223.95
539.94	24751.17
540.11	24992.24
540.28	25305.87
540.44	25179.48
540.61	25048.41
540.78	25010.96
540.95	25570.35
541.12	25069.48
541.29	25500.14
541.46	25219.27
541.62	25497.80
541.79	25495.46
541.96	24884.58
542.13	25495.46
542.30	25553.97
542.47	25649.93
542.63	25865.26
542.80	25668.66
542.97	26125.06
543.14	25865.26
543.31	25998.67
543.48	26106.34
543.64	26010.37
543.81	26061.87
543.98	26305.28
544.15	26246.77
544.32	26188.25
544.48	26471.46
544.65	26068.89
544.82	26199.96
544.99	26316.98
545.16	26267.83
545.32	26190.59
545.49	26391.88
545.66	26478.48
545.83	26132.08
546.00	26579.12
546.16	26169.53
546.33	26499.55
546.50	25989.31
546.67	26291.24
546.83	26567.42
547.00	26483.16
547.17	26569.76
547.34	26759.34
547.50	26415.29
547.67	26792.11
547.84	26600.19
548.00	26663.38
548.17	27103.40
548.34	26885.73
548.51	26768.71
548.67	26593.17
548.84	26874.03
549.01	26761.69
549.18	26862.33
549.34	27035.53
549.51	26651.68
549.68	26794.45
549.84	27019.14
550.01	27016.80
550.18	26735.94
550.34	26831.90
550.51	27452.14
550.68	27145.53
550.84	26691.47
551.01	27351.50
551.18	26843.60
551.34	27056.59
551.51	27328.10
551.68	27468.53
551.84	27098.72
552.01	27117.45
552.18	27463.85
552.34	26881.05
552.51	27337.46
552.68	27700.24
552.84	27461.51
553.01	27651.09
553.18	27278.94
553.34	27477.89
553.51	27192.34
553.67	27618.32
553.84	27578.53
554.01	27503.64
554.17	27538.74
554.34	27623.00
554.51	27473.21
554.67	27765.78
554.84	27442.78
555.00	27779.82
555.17	27421.72
555.33	27637.05
555.50	27803.22
555.67	28034.94
555.83	27728.33
556.00	27953.02
556.16	28046.64
556.33	28011.53
556.50	28011.53
556.66	28184.73
556.83	28020.89
556.99	28336.87
557.16	28231.54
557.32	27950.68
557.49	28198.77
557.65	28128.56
557.82	27840.67
557.98	27534.06
558.15	27978.76
558.32	28128.56
558.48	27702.58
558.65	28425.81
558.81	28170.69
558.98	28290.06
559.14	28229.20
559.31	28271.33
559.47	28306.44
559.64	28278.35
559.80	28465.60
559.97	28360.27
560.13	28079.41
560.30	28395.38
560.46	28102.81
560.63	28177.71
560.79	28517.09
560.96	28587.30
561.12	28458.57
561.29	28533.47
561.45	28194.09
561.61	28364.95
561.78	28472.62
561.94	28945.41
562.11	28912.64
562.27	28540.49
562.44	28304.10
562.60	28617.73
562.77	28671.56
562.93	28339.21
563.10	28589.64
563.26	28276.01
563.42	28638.80
563.59	28292.40
563.75	28566.24
563.92	28811.99
564.08	28166.01
564.24	28512.41
564.41	28177.71
564.57	28491.34
564.74	28535.81
564.90	28601.35
565.07	28870.51
565.23	28716.03
565.39	28591.98
565.56	28765.18
565.72	28357.93
565.88	28629.43
566.05	28692.63
566.21	28711.35
566.38	28467.94
566.54	28844.76
566.70	29137.33
566.87	29336.27
567.03	28781.57
567.19	29036.69
567.36	28727.74
567.52	28638.80
567.68	29024.98
567.85	28718.37
568.01	28882.21
568.17	28577.94
568.34	29039.03
568.50	28828.38
568.66	29104.56
568.83	28982.85
568.99	28898.59
569.15	28910.30
569.32	28620.07
569.48	28884.55
569.64	29097.54
569.81	29125.63
569.97	29219.25
570.13	28793.27
570.30	29062.43
570.46	28713.69
570.62	29221.59
570.78	29053.07
570.95	29067.11
571.11	29010.94
571.27	28795.61
571.43	28732.42
571.60	28926.68
571.76	28987.53
571.92	29160.73
572.09	28931.36
572.25	29699.06
572.41	29198.18
572.57	29139.67
572.74	29532.88
572.90	29212.23
573.06	29017.96
573.22	29027.32
573.38	29200.52
573.55	29291.80
573.71	29228.61
573.87	29062.43
574.03	29436.92
574.20	29165.42
574.36	28786.25
574.52	28943.06
574.68	28884.55
574.84	29244.99
575.01	29102.22
575.17	28996.90
575.33	29254.36
575.49	29020.30
575.65	29221.59
575.82	29170.10
575.98	29099.88
576.14	29308.19
576.30	29600.76
576.46	29343.30
576.62	29252.02
576.79	29249.67
576.95	29074.13
577.11	29535.22
577.27	29521.18
577.43	29303.51
577.59	29567.99
577.75	29340.96
577.92	29472.03
578.08	29029.66
578.24	29336.27
578.40	29144.35
578.56	29443.94
578.72	29139.67
578.88	29579.69
579.04	29479.05
579.21	29165.42
579.37	29532.88
579.53	29755.23
579.69	28882.21
579.85	29228.61
580.01	29404.15
580.17	29039.03
580.33	29074.13
580.49	29312.87
580.65	29525.86
580.82	29202.86
580.98	29156.05
581.14	29425.22
581.30	29289.46
581.46	29022.64
581.62	29244.99
581.78	29415.85
581.94	29549.26
582.10	29228.61
582.26	29462.66
582.42	29390.11
582.58	29287.12
582.74	29720.12
582.90	29401.81
583.06	29490.75
583.22	29345.64
583.38	29312.87
583.54	29460.32
583.70	29436.92
583.86	29605.44
584.02	29514.16
584.18	29649.91
584.34	29282.44
584.50	30003.33
584.66	29607.78
584.82	29060.09
584.98	29596.07
585.14	29371.38
585.30	29195.84
585.46	29378.40
585.62	29586.71
585.78	29720.12
585.94	29326.91
586.10	29259.04
586.26	29649.91
586.42	29745.87
586.58	29493.09
586.74	29436.92
586.90	28980.51
587.06	29500.11
587.22	29315.21
587.38	29565.65
587.54	29385.43
587.70	29570.33
587.86	29563.31
588.02	29865.24
588.18	29872.26
588.34	29675.65
588.49	29738.85
588.65	29638.20
588.81	29301.17
588.97	29619.48
589.13	29692.04
589.29	29436.92
589.45	29788.00
589.61	30036.09
589.77	29811.40
589.93	29905.02
590.08	29909.71
590.24	29802.04
590.40	29984.60
590.56	29792.68
590.72	29462.66
590.88	29397.13
591.04	29350.32
591.20	29923.75
591.35	29766.93
591.51	29949.50
591.67	30183.55
591.83	29986.94
591.99	29589.05
