SpectraSuite Data File
++++++++++++++++++++++++++++++++++++
Date: Fri Oct 18 13:58:28 GMT-05:00 2013
User: bianchi
Dark Spectrum Present: No
Reference Spectrum Present: No
Number of Sampled Component Spectra: 1
Spectrometers: USB2+H05261
Integration Time (usec): 50000 (USB2+H05261)
Spectra Averaged: 1 (USB2+H05261)
Boxcar Smoothing: 0 (USB2+H05261)
Correct for Electrical Dark: No (USB2+H05261)
Strobe/Lamp Enabled: No (USB2+H05261)
Correct for Detector Non-linearity: No (USB2+H05261)
Correct for Stray Light: No (USB2+H05261)
Number of Pixels in Processed Spectrum: 2048
>>>>>Begin Processed Spectral Data<<<<<
365.73	0.00
365.92	0.00
366.12	0.00
366.32	0.00
366.52	0.00
366.72	0.00
366.91	0.00
367.11	0.00
367.31	0.00
367.51	0.00
367.70	0.00
367.90	0.00
368.10	0.00
368.30	0.00
368.49	0.00
368.69	0.00
368.89	0.00
369.09	0.00
369.28	0.00
369.48	0.00
369.68	0.00
369.87	0.00
370.07	0.00
370.27	0.00
370.47	0.00
370.66	117.03
370.86	112.35
371.06	100.64
371.25	163.84
371.45	84.26
371.65	161.50
371.84	147.45
372.04	170.86
372.24	145.11
372.44	182.56
372.63	201.29
372.83	255.12
373.03	208.31
373.22	236.39
373.42	231.71
373.62	248.10
373.81	243.42
374.01	283.20
374.21	262.14
374.40	217.67
374.60	259.80
374.79	217.67
374.99	184.90
375.19	229.37
375.38	285.55
375.58	308.95
375.78	276.18
375.97	315.97
376.17	306.61
376.37	285.55
376.56	262.14
376.76	276.18
376.95	278.52
377.15	292.57
377.35	266.82
377.54	322.99
377.74	297.25
377.93	262.14
378.13	287.89
378.33	304.27
378.52	306.61
378.72	269.16
378.91	278.52
379.11	229.37
379.31	278.52
379.50	212.99
379.70	252.78
379.89	348.74
380.09	262.14
380.28	222.35
380.48	241.08
380.68	330.02
380.87	306.61
381.07	322.99
381.26	299.59
381.46	283.20
381.65	388.53
381.85	313.63
382.04	339.38
382.24	325.33
382.43	320.65
382.63	292.57
382.83	308.95
383.02	318.31
383.22	353.42
383.41	374.49
383.61	292.57
383.80	346.40
384.00	388.53
384.19	355.76
384.39	348.74
384.58	299.59
384.78	351.08
384.97	400.23
385.17	451.72
385.36	362.78
385.56	390.87
385.75	325.33
385.95	411.93
386.14	437.68
386.34	386.19
386.53	297.25
386.72	402.57
386.92	404.91
387.11	339.38
387.31	376.83
387.50	337.04
387.70	468.11
387.89	484.49
388.09	437.68
388.28	400.23
388.48	449.38
388.67	507.90
388.86	451.72
389.06	470.45
389.25	507.90
389.45	388.53
389.64	402.57
389.84	489.17
390.03	578.11
390.22	447.04
390.42	449.38
390.61	472.79
390.81	507.90
391.00	465.77
391.19	547.69
391.39	472.79
391.58	465.77
391.78	507.90
391.97	524.28
392.16	538.32
392.36	507.90
392.55	550.03
392.75	601.52
392.94	554.71
393.13	543.00
393.33	479.81
393.52	550.03
393.71	479.81
393.91	505.56
394.10	601.52
394.29	514.92
394.49	559.39
394.68	535.98
394.88	571.09
395.07	613.22
395.26	582.79
395.46	629.60
395.65	629.60
395.84	674.07
396.04	660.03
396.23	561.73
396.42	613.22
396.62	653.01
396.81	585.13
397.00	683.44
397.19	770.04
397.39	634.29
397.58	746.63
397.77	617.90
397.97	692.80
398.16	734.93
398.35	706.84
398.55	702.16
398.74	692.80
398.93	657.69
399.12	765.36
399.32	744.29
399.51	723.23
399.70	760.67
399.90	748.97
400.09	709.18
400.28	793.44
400.47	807.48
400.67	793.44
400.86	826.21
401.05	847.27
401.24	763.01
401.44	777.06
401.63	784.08
401.82	770.04
402.01	779.40
402.21	791.10
402.40	870.68
402.59	798.12
402.78	891.74
402.97	791.10
403.17	905.79
403.36	943.24
403.55	842.59
403.74	875.36
403.93	844.93
404.13	788.76
404.32	887.06
404.51	943.24
404.70	901.11
404.89	917.49
405.09	1032.18
405.28	833.23
405.47	945.58
405.66	936.21
405.85	957.28
406.05	856.64
406.24	1032.18
406.43	1020.47
406.62	1027.50
406.81	1001.75
407.00	999.41
407.20	1039.20
407.39	1006.43
407.58	1107.07
407.77	1093.03
407.96	1057.92
408.15	961.96
408.34	1018.13
408.54	987.71
408.73	1132.82
408.92	987.71
409.11	1163.25
409.30	1088.35
409.49	1118.78
409.68	1086.01
409.87	1142.18
410.07	1095.37
410.26	1184.31
410.45	1144.52
410.64	1207.72
410.83	1210.06
411.02	1263.89
411.21	1128.14
411.40	1191.33
411.59	1277.93
411.78	1256.87
411.98	1200.69
412.17	1404.32
412.36	1299.00
412.55	1327.08
412.74	1371.55
412.93	1441.77
413.12	1308.36
413.31	1416.02
413.50	1373.89
413.69	1476.88
413.88	1462.83
414.07	1373.89
414.26	1380.92
414.45	1411.34
414.64	1476.88
414.83	1493.26
415.02	1488.58
415.22	1561.14
415.41	1563.48
415.60	1577.52
415.79	1537.73
415.98	1577.52
416.17	1645.40
416.36	1617.31
416.55	1696.89
416.74	1640.72
416.93	1666.46
417.12	1776.47
417.31	1675.82
417.50	1713.27
417.69	1692.21
417.88	1757.74
418.07	1621.99
418.26	1678.16
418.45	1799.87
418.64	1806.89
418.83	1753.06
419.02	1734.34
419.21	1717.95
419.39	1706.25
419.58	1923.92
419.77	1837.32
419.96	1823.28
420.15	1846.68
420.34	1956.69
420.53	1846.68
420.72	1947.33
420.91	2008.18
421.10	1933.28
421.29	1879.45
421.48	1863.07
421.67	2001.16
421.86	1963.71
422.05	1893.49
422.24	1956.69
422.43	2031.58
422.61	2054.99
422.80	1970.73
422.99	1980.09
423.18	1975.41
423.37	2017.54
423.56	1947.33
423.75	1947.33
423.94	2106.48
424.13	1863.07
424.32	1975.41
424.50	2076.06
424.69	2143.93
424.88	2019.88
425.07	1952.01
425.26	2012.86
425.45	2012.86
425.64	1949.67
425.83	2078.40
426.01	2141.59
426.20	2001.16
426.39	2076.06
426.58	2050.31
426.77	1998.82
426.96	2062.01
427.15	2232.87
427.33	2104.14
427.52	2099.46
427.71	2104.14
427.90	2101.80
428.09	2211.81
428.28	2132.23
428.46	2148.61
428.65	2181.38
428.84	2232.87
429.03	2162.66
429.22	2143.93
429.40	2300.75
429.59	2179.04
429.78	2062.01
429.97	2078.40
430.16	2265.64
430.34	2300.75
430.53	2211.81
430.72	2265.64
430.91	2282.02
431.10	2354.58
431.28	2445.86
431.47	2431.82
431.66	2457.56
431.85	2352.24
432.03	2513.74
432.22	2380.32
432.41	2387.35
432.60	2487.99
432.79	2256.28
432.97	2452.88
433.16	2438.84
433.35	2541.82
433.54	2483.31
433.72	2612.04
433.91	2476.29
434.10	2473.95
434.28	2548.84
434.47	2448.20
434.66	2537.14
434.85	2668.21
435.03	2693.96
435.22	2471.61
435.41	2670.55
435.59	2588.63
435.78	2520.76
435.97	2743.11
436.16	2567.57
436.34	2640.12
436.53	2705.66
436.72	2799.28
436.90	2698.64
437.09	2808.64
437.28	2684.59
437.46	2810.98
437.65	2684.59
437.84	2754.81
438.02	2813.32
438.21	2757.15
438.40	2787.58
438.58	2848.43
438.77	2829.71
438.96	2801.62
439.14	2878.86
439.33	2808.64
439.52	2991.20
439.70	2888.22
439.89	3063.76
440.08	3014.61
440.26	3021.63
440.45	3068.44
440.63	3059.08
440.82	3075.46
441.01	3122.27
441.19	3204.19
441.38	3243.98
441.57	3054.40
441.75	3225.26
441.94	3204.19
442.12	3281.43
442.31	3304.84
442.50	3300.16
442.68	3220.58
442.87	3391.44
443.05	3239.30
443.24	3396.12
443.43	3288.45
443.61	3389.10
443.80	3375.05
443.98	3389.10
444.17	3236.96
444.35	3468.67
444.54	3461.65
444.73	3438.25
444.91	3414.84
445.10	3545.91
445.28	3496.76
445.47	3440.59
445.65	3552.93
445.84	3555.27
446.02	3529.53
446.21	3534.21
446.39	3538.89
446.58	3445.27
446.77	3459.31
446.95	3438.25
447.14	3442.93
447.32	3513.14
447.51	3550.59
447.69	3492.08
447.88	3548.25
448.06	3637.19
448.25	3520.17
448.43	3552.93
448.62	3503.78
448.80	3433.57
448.99	3569.32
449.17	3655.92
449.36	3548.25
449.54	3887.63
449.73	3681.66
449.91	3784.65
450.10	3819.75
450.28	3770.60
450.46	3782.31
450.65	3735.50
450.83	3770.60
451.02	3674.64
451.20	3815.07
451.39	3630.17
451.57	3789.33
451.76	3721.45
451.94	3950.82
452.13	3913.38
452.31	3948.48
452.49	3730.81
452.68	3794.01
452.86	3904.01
453.05	3971.89
453.23	3918.06
453.42	3908.69
453.60	3929.76
453.78	3934.44
453.97	3906.35
454.15	3840.82
454.34	3960.19
454.52	3882.95
454.70	3995.29
454.89	4088.92
455.07	4072.53
455.26	3964.87
455.44	4107.64
455.62	4105.30
455.81	4074.87
455.99	4067.85
456.17	4067.85
456.36	4194.24
456.54	4210.62
456.73	4187.22
456.91	4337.01
457.09	4339.35
457.28	4224.67
457.46	4278.50
457.64	4297.22
457.83	4299.56
458.01	4212.96
458.19	4227.01
458.38	4315.95
458.56	4423.61
458.74	4447.02
458.93	4461.06
459.11	4540.64
459.29	4414.25
459.48	4421.27
459.66	4533.62
459.84	4477.44
460.03	4603.83
460.21	4484.47
460.39	4550.00
460.57	4507.87
460.76	4486.81
460.94	4547.66
461.12	4425.95
461.31	4566.39
461.49	4573.41
461.67	4489.15
461.85	4676.39
462.04	4622.56
462.22	4887.04
462.40	4772.35
462.59	4667.03
462.77	4688.09
462.95	4730.22
463.13	4814.48
463.32	4903.42
463.50	4898.74
463.68	5074.28
463.86	4919.81
464.05	4863.63
464.23	4791.08
464.41	5029.81
464.59	4746.61
464.78	4732.56
464.96	5011.09
465.14	4875.34
465.32	4891.72
465.50	5001.72
465.69	4994.70
465.87	4877.68
466.05	5046.20
466.23	4772.35
466.41	4968.96
466.60	5231.10
466.78	5020.45
466.96	4990.02
467.14	4997.04
467.32	5046.20
467.51	5355.15
467.69	5039.17
467.87	5177.26
468.05	5303.65
468.23	5043.85
468.41	5125.77
468.60	5032.15
468.78	5095.35
468.96	5200.67
469.14	5247.48
469.32	5385.57
469.50	5177.26
469.69	5390.25
469.87	5397.28
470.05	5357.49
470.23	5144.50
470.41	5404.30
470.59	5394.93
470.77	5434.72
470.95	5252.16
471.14	5598.56
471.32	5453.45
471.50	5701.54
471.68	5633.67
471.86	5624.31
472.04	5633.67
472.22	5823.25
472.40	5600.90
472.58	5741.33
472.77	5696.86
472.95	5666.44
473.13	5888.79
473.31	5795.17
473.49	5736.65
473.67	5685.16
473.85	5930.92
474.03	5954.32
474.21	5973.05
474.39	6066.67
474.57	6104.12
474.75	6115.82
474.93	6054.97
475.12	6033.90
475.30	6244.55
475.48	6155.61
475.66	6167.31
475.84	6218.80
476.02	6293.70
476.20	6363.92
476.38	6462.22
476.56	6684.57
476.74	6399.02
476.92	6506.69
477.10	6593.29
477.28	6523.07
477.46	6682.23
477.64	6731.38
477.82	6689.25
478.00	7056.72
478.18	6867.13
478.36	7016.93
478.54	6927.99
478.72	7091.82
478.90	6998.20
479.08	7318.86
479.26	7215.87
479.44	7213.53
479.62	7236.94
479.80	7468.65
479.98	7300.13
480.16	7452.27
480.34	7562.27
480.52	7683.98
480.70	7604.40
480.88	7599.72
481.06	7604.40
481.24	7548.23
481.41	7777.60
481.59	7915.69
481.77	8086.55
481.95	7889.95
482.13	8112.30
482.31	7981.23
482.49	8365.07
482.67	8236.35
482.85	8477.42
483.03	8472.74
483.21	8603.81
483.39	8538.27
483.57	8482.10
483.74	8681.05
483.92	8800.41
484.10	8631.90
484.28	8884.67
484.46	8952.55
484.64	9057.87
484.82	8938.51
485.00	9345.76
485.18	9036.81
485.35	9270.86
485.53	9423.00
485.71	9469.81
485.89	9495.55
486.07	9469.81
486.25	9511.94
486.43	9575.13
486.61	9682.80
486.78	9720.24
486.96	9963.66
487.14	10064.30
487.32	10040.90
487.50	10197.71
487.68	10174.31
487.85	10352.19
488.03	10366.23
488.21	10565.18
488.39	10267.93
488.57	10682.20
488.75	10560.50
488.92	10885.83
489.10	10916.26
489.28	10902.22
489.46	11054.35
489.64	11108.18
489.81	11103.50
489.99	11239.25
490.17	11274.36
490.35	11396.07
490.53	11433.52
490.70	11536.50
490.88	11403.09
491.06	11777.58
491.24	11882.90
491.41	12065.46
491.59	11918.01
491.77	11950.78
491.95	12023.33
492.13	12025.67
492.30	12280.79
492.48	12297.17
492.66	12086.53
492.84	12524.21
493.01	12512.50
493.19	12453.99
493.37	12561.66
493.54	12711.45
493.72	12685.70
493.90	12648.26
494.08	13053.17
494.25	13083.59
494.43	12973.59
494.61	13329.35
494.79	13350.42
494.96	13247.43
495.14	13249.77
495.32	13523.62
495.49	13434.68
495.67	13570.43
495.85	13626.60
496.02	14012.79
496.20	13912.14
496.38	13696.82
496.55	14059.60
496.73	14057.26
496.91	14207.05
497.09	14295.99
497.26	14389.61
497.44	14143.86
497.62	14466.85
497.79	14618.99
497.97	14537.07
498.14	14806.23
498.32	14787.50
498.50	14726.65
498.67	15002.83
498.85	14764.10
499.03	14801.55
499.20	14958.36
499.38	15026.24
499.56	15129.22
499.73	15417.11
499.91	15197.10
500.08	15466.26
500.26	15192.42
500.44	15307.10
500.61	15538.82
500.79	15463.92
500.97	15702.65
501.14	15922.66
501.32	15744.78
501.49	15487.32
501.67	15826.70
501.84	15920.32
502.02	16046.71
502.20	15871.17
502.37	16208.21
502.55	16170.76
502.72	15915.64
502.90	16315.87
503.07	16346.30
503.25	16135.65
503.43	16156.72
503.60	16528.86
503.78	16500.78
503.95	16589.72
504.13	16535.88
504.30	16343.96
504.48	16533.54
504.65	16753.55
504.83	16950.16
505.01	16898.67
505.18	16854.20
505.36	17198.26
505.53	16912.71
505.71	16971.22
505.88	16877.60
506.06	16793.34
506.23	17434.65
506.41	17153.79
506.58	17177.19
506.76	17341.03
506.93	17547.00
507.11	17315.28
507.28	17404.22
507.46	17432.31
507.63	17589.13
507.81	17729.56
507.98	17551.68
508.16	17785.73
508.33	17846.58
508.50	17589.13
508.68	17930.84
508.85	18160.22
509.03	17640.62
509.20	18031.49
509.38	18263.20
509.55	18281.92
509.73	18232.77
509.90	18515.98
510.08	18417.68
510.25	18244.48
510.42	18691.52
510.60	18534.70
510.77	18628.32
510.95	18806.20
511.12	18651.73
511.30	18700.88
511.47	18750.03
511.64	18956.00
511.82	18883.44
511.99	18913.87
512.17	19157.28
512.34	18775.78
512.51	18848.33
512.69	19311.76
512.86	18850.67
513.04	19702.63
513.21	19056.64
513.38	19344.53
513.56	19433.47
513.73	18981.74
513.90	19386.66
514.08	19686.25
514.25	19791.57
514.43	19751.78
514.60	19700.29
514.77	19765.82
514.95	19747.10
515.12	19920.30
515.29	20070.09
515.47	19894.55
515.64	19840.72
515.81	19943.70
515.99	20170.74
516.16	20496.07
516.33	20051.37
516.51	20418.83
516.68	20482.03
516.85	20196.48
517.03	20273.72
517.20	20720.76
517.37	20606.08
517.54	20648.21
517.72	20655.23
517.89	20601.40
518.06	20624.80
518.24	20393.09
518.41	20285.42
518.58	20800.34
518.75	20634.16
518.93	20842.47
519.10	20706.72
519.27	20713.74
519.45	20919.71
519.62	20816.72
519.79	20678.63
519.96	21181.85
520.14	21095.25
520.31	20926.73
520.48	21350.37
520.65	21067.16
520.83	21479.10
521.00	21301.22
521.17	21415.90
521.34	21106.95
521.52	21656.98
521.69	21465.05
521.86	21722.51
522.03	21507.18
522.20	21736.56
522.38	21982.31
522.55	22012.74
522.72	21797.41
522.89	21893.37
523.07	21996.35
523.24	21713.15
523.41	22043.17
523.58	21755.28
523.75	22387.22
523.92	22164.87
524.10	22050.19
524.27	22155.51
524.44	22317.01
524.61	22370.84
524.78	22518.29
524.96	22375.52
525.13	22497.23
525.30	22230.41
525.47	22455.10
525.64	22635.32
525.81	22801.50
525.98	22923.21
526.16	22710.22
526.33	22691.49
526.50	22897.46
526.67	22628.30
526.84	22782.77
527.01	22808.52
527.18	22827.24
527.36	23096.41
527.53	23236.84
527.70	23571.54
527.87	23253.22
528.04	22824.90
528.21	23122.15
528.38	23211.09
528.55	23307.05
528.72	23356.21
528.89	23271.95
529.07	23290.67
529.24	23302.37
529.41	23321.10
529.58	23468.55
529.75	23852.40
529.92	23522.38
530.09	23658.14
530.26	23161.94
530.43	23646.43
530.60	23461.53
530.77	23393.65
530.94	23700.26
531.11	23255.56
531.28	23885.17
531.46	23988.15
531.63	23716.65
531.80	24135.60
531.97	24044.32
532.14	24264.33
532.31	23950.70
532.48	24053.69
532.65	24095.82
532.82	23985.81
532.99	24257.31
533.16	24009.22
533.33	24105.18
533.50	24369.66
533.67	24243.27
533.84	23934.32
534.01	24442.21
534.18	24491.37
534.35	24247.95
534.52	24521.79
534.69	24790.95
534.86	24374.34
535.03	24332.21
535.20	24980.54
535.37	24592.01
535.54	24842.45
535.71	24779.25
535.88	24570.94
536.05	24486.68
536.22	24769.89
536.38	24879.89
536.55	25223.95
536.72	24903.30
536.89	24947.77
537.06	25034.37
537.23	24903.30
537.40	25226.29
537.57	24922.02
537.74	24861.17
537.91	25200.55
538.08	25036.71
538.25	24982.88
538.42	25174.80
538.59	24919.68
538.75	25135.01
538.92	25081.18
539.09	25465.03
539.26	25355.02
539.43	25099.90
539.60	25415.88
539.77	25406.52
539.94	25923.77
540.11	25322.26
540.28	25467.37
540.44	25788.02
540.61	25273.10
540.78	25467.37
540.95	25336.30
541.12	25734.19
541.29	25640.57
541.46	25530.56
541.62	26031.44
541.79	25790.36
541.96	25219.27
542.13	25476.73
542.30	25860.58
542.47	25993.99
542.63	25944.84
542.80	26103.99
542.97	26452.73
543.14	26316.98
543.31	26043.14
543.48	26143.78
543.64	26401.24
543.81	26457.42
543.98	26347.41
544.15	26480.82
544.32	26527.63
544.48	26642.32
544.65	26539.33
544.82	26267.83
544.99	26214.00
545.16	26551.04
545.32	26520.61
545.49	26721.90
545.66	26827.22
545.83	26766.37
546.00	26700.83
546.16	26700.83
546.33	26251.45
546.50	26448.05
546.67	26806.16
546.83	26583.80
547.00	26780.41
547.17	26862.33
547.34	26508.91
547.50	27110.43
547.67	27084.68
547.84	26792.11
548.00	26937.23
548.17	27138.51
548.34	26845.94
548.51	27215.75
548.67	27285.97
548.84	27075.32
549.01	26874.03
549.18	27089.36
549.34	27328.10
549.51	27344.48
549.68	27028.51
549.84	26993.40
550.01	27367.88
550.18	26974.67
550.34	27400.65
550.51	27363.20
550.68	27351.50
550.84	27044.89
551.01	27639.39
551.18	27241.50
551.34	27208.73
551.51	27449.80
551.68	27424.06
551.84	27618.32
552.01	27356.18
552.18	27342.14
552.34	27466.19
552.51	27548.11
552.68	27611.30
552.84	27702.58
553.01	28032.60
553.18	27768.12
553.34	27716.62
553.51	27576.19
553.67	27775.14
553.84	28112.17
554.01	28109.83
554.17	27655.77
554.34	27843.01
554.51	27557.47
554.67	28013.87
554.84	27791.52
555.00	28051.32
555.17	28100.47
555.33	28297.08
555.50	28072.39
555.67	27976.42
555.83	28072.39
556.00	28102.81
556.16	28556.88
556.33	27978.76
556.50	28210.48
556.66	28510.07
556.83	28238.56
556.99	28652.84
557.16	28575.60
557.32	28060.68
557.49	28498.36
557.65	28329.84
557.82	28030.26
557.98	28329.84
558.15	28570.92
558.32	28517.09
558.48	28320.48
558.65	28467.94
558.81	28624.75
558.98	28297.08
559.14	28725.39
559.31	28767.52
559.47	28479.64
559.64	28353.25
559.80	29144.35
559.97	28842.42
560.13	28622.41
560.30	28285.37
560.46	28346.23
560.63	28423.47
560.79	28481.98
560.96	28854.12
561.12	28285.37
561.29	28474.96
561.45	28613.05
561.61	28620.07
561.78	29024.98
561.94	28966.47
562.11	28847.10
562.27	28620.07
562.44	28723.05
562.60	28968.81
562.77	28718.37
562.93	28734.76
563.10	29013.28
563.26	28833.06
563.42	28922.00
563.59	28837.74
563.75	28875.19
563.92	28938.38
564.08	29076.48
564.24	29001.58
564.41	28711.35
564.57	28924.34
564.74	28769.86
564.90	29024.98
565.07	29090.52
565.23	29490.75
565.39	29008.60
565.56	29071.79
565.72	28835.40
565.88	28996.90
566.05	29315.21
566.21	28947.75
566.38	29186.48
566.54	29013.28
566.70	28938.38
566.87	29443.94
567.03	28837.74
567.19	29193.50
567.36	29221.59
567.52	29137.33
567.68	29380.74
567.85	29116.26
568.01	29053.07
568.17	28987.53
568.34	29413.51
568.50	29226.27
568.66	29144.35
568.83	29289.46
568.99	29303.51
569.15	29497.77
569.32	29472.03
569.48	29064.77
569.64	28978.17
569.81	29486.07
569.97	28968.81
570.13	29329.25
570.30	29165.42
570.46	29347.98
570.62	29193.50
570.78	29275.42
570.95	29589.05
571.11	29677.99
571.27	29277.76
571.43	29310.53
571.60	29418.19
571.76	29310.53
571.92	29481.39
572.09	29301.17
572.25	29483.73
572.41	29390.11
572.57	29462.66
572.74	29633.52
572.90	29350.32
573.06	29472.03
573.22	29289.46
573.38	29738.85
573.55	29392.45
573.71	29806.72
573.87	29827.79
574.03	29270.74
574.20	29610.12
574.36	29584.37
574.52	29032.00
574.68	29362.02
574.84	29338.62
575.01	29472.03
575.17	29570.33
575.33	29593.73
575.49	29628.84
575.65	29773.95
575.82	29755.23
575.98	29546.92
576.14	29675.65
576.30	29582.03
576.46	29649.91
576.62	29181.80
576.79	29642.88
576.95	29385.43
577.11	29675.65
577.27	29736.51
577.43	29525.86
577.59	29914.39
577.75	29656.93
577.92	29710.76
578.08	29589.05
578.24	29502.45
578.40	29518.84
578.56	29886.30
578.72	29582.03
578.88	29654.59
579.04	29649.91
579.21	29586.71
579.37	29907.37
579.53	29741.19
579.69	29244.99
579.85	29851.19
580.01	29268.40
580.17	29280.10
580.33	29481.39
580.49	29457.98
580.65	29907.37
580.82	29961.20
580.98	29790.34
581.14	30024.39
581.30	29907.37
581.46	29818.42
581.62	29542.24
581.78	29593.73
581.94	30005.67
582.10	29591.39
582.26	29811.40
582.42	29514.16
582.58	29603.10
582.74	30125.04
582.90	29769.27
583.06	29495.43
583.22	29722.46
583.38	29743.53
583.54	29750.55
583.70	29888.64
583.86	29947.15
584.02	29713.10
584.18	29762.25
584.34	29769.27
584.50	29778.64
584.66	29493.09
584.82	29673.31
584.98	29577.35
585.14	29544.58
585.30	29256.70
585.46	29425.22
585.62	29621.82
585.78	30101.63
585.94	29825.45
586.10	29975.24
586.26	29916.73
586.42	29668.63
586.58	29773.95
586.74	30031.41
586.90	29914.39
587.06	29378.40
587.22	29638.20
587.38	29972.90
587.54	30045.46
587.70	30242.06
587.86	29914.39
588.02	30008.01
588.18	30270.15
588.34	29940.13
588.49	29839.49
588.65	29919.07
588.81	29748.21
588.97	29752.89
589.13	30078.22
589.29	29565.65
589.45	30033.75
589.61	29926.09
589.77	30265.47
589.93	30125.04
590.08	30141.42
590.24	30160.14
590.40	30375.47
590.56	29673.31
590.72	29909.71
590.88	29893.32
591.04	30342.70
591.20	30239.72
591.35	30192.91
591.51	30742.94
591.67	30113.33
591.83	30579.10
591.99	30506.54
