SpectraSuite Data File
++++++++++++++++++++++++++++++++++++
Date: Fri Oct 18 13:58:21 GMT-05:00 2013
User: bianchi
Dark Spectrum Present: No
Reference Spectrum Present: No
Number of Sampled Component Spectra: 1
Spectrometers: USB2+H05261
Integration Time (usec): 50000 (USB2+H05261)
Spectra Averaged: 1 (USB2+H05261)
Boxcar Smoothing: 0 (USB2+H05261)
Correct for Electrical Dark: No (USB2+H05261)
Strobe/Lamp Enabled: No (USB2+H05261)
Correct for Detector Non-linearity: No (USB2+H05261)
Correct for Stray Light: No (USB2+H05261)
Number of Pixels in Processed Spectrum: 2048
>>>>>Begin Processed Spectral Data<<<<<
365.73	0.00
365.92	0.00
366.12	0.00
366.32	0.00
366.52	0.00
366.72	0.00
366.91	0.00
367.11	0.00
367.31	0.00
367.51	0.00
367.70	0.00
367.90	0.00
368.10	0.00
368.30	0.00
368.49	0.00
368.69	0.00
368.89	0.00
369.09	0.00
369.28	0.00
369.48	0.00
369.68	0.00
369.87	0.00
370.07	0.00
370.27	0.00
370.47	0.00
370.66	72.56
370.86	95.96
371.06	117.03
371.25	217.67
371.45	187.24
371.65	72.56
371.84	140.43
372.04	107.66
372.24	175.54
372.44	212.99
372.63	198.95
372.83	201.29
373.03	159.16
373.22	191.92
373.42	227.03
373.62	147.45
373.81	262.14
374.01	243.42
374.21	266.82
374.40	215.33
374.60	250.44
374.79	278.52
374.99	168.52
375.19	227.03
375.38	245.76
375.58	236.39
375.78	283.20
375.97	273.84
376.17	271.50
376.37	276.18
376.56	152.13
376.76	224.69
376.95	231.71
377.15	308.95
377.35	262.14
377.54	266.82
377.74	287.89
377.93	308.95
378.13	308.95
378.33	257.46
378.52	231.71
378.72	292.57
378.91	313.63
379.11	262.14
379.31	245.76
379.50	299.59
379.70	276.18
379.89	276.18
380.09	269.16
380.28	320.65
380.48	266.82
380.68	231.71
380.87	346.40
381.07	245.76
381.26	308.95
381.46	292.57
381.65	367.46
381.85	362.78
382.04	301.93
382.24	348.74
382.43	348.74
382.63	327.68
382.83	315.97
383.02	346.40
383.22	330.02
383.41	283.20
383.61	407.25
383.80	365.12
384.00	393.21
384.19	353.42
384.39	428.32
384.58	390.87
384.78	337.04
384.97	386.19
385.17	395.55
385.36	437.68
385.56	362.78
385.75	388.53
385.95	376.83
386.14	451.72
386.34	365.12
386.53	358.10
386.72	383.85
386.92	433.00
387.11	299.59
387.31	400.23
387.50	472.79
387.70	351.08
387.89	435.34
388.09	430.66
388.28	477.47
388.48	414.27
388.67	411.93
388.86	397.89
389.06	463.43
389.25	454.06
389.45	428.32
389.64	491.51
389.84	475.13
390.03	444.70
390.22	489.17
390.42	510.24
390.61	472.79
390.81	512.58
391.00	500.87
391.19	423.64
391.39	430.66
391.58	547.69
391.78	519.60
391.97	500.87
392.16	521.94
392.36	528.96
392.55	531.30
392.75	528.96
392.94	477.47
393.13	475.13
393.33	547.69
393.52	540.66
393.71	580.45
393.91	561.73
394.10	533.64
394.29	568.75
394.49	575.77
394.68	564.07
394.88	580.45
395.07	622.58
395.26	603.86
395.46	594.50
395.65	620.24
395.84	615.56
396.04	585.13
396.23	634.29
396.42	660.03
396.62	711.52
396.81	599.18
397.00	613.22
397.19	660.03
397.39	737.27
397.58	739.61
397.77	636.63
397.97	734.93
398.16	732.59
398.35	737.27
398.55	695.14
398.74	688.12
398.93	699.82
399.12	660.03
399.32	692.80
399.51	734.93
399.70	837.91
399.90	709.18
400.09	786.42
400.28	746.63
400.47	720.88
400.67	678.76
400.86	709.18
401.05	732.59
401.24	812.17
401.44	777.06
401.63	746.63
401.82	737.27
402.01	727.91
402.21	844.93
402.40	849.61
402.59	828.55
402.78	821.53
402.97	812.17
403.17	786.42
403.36	837.91
403.55	936.21
403.74	910.47
403.93	983.02
404.13	926.85
404.32	896.43
404.51	905.79
404.70	905.79
404.89	880.04
405.09	994.73
405.28	894.08
405.47	908.13
405.66	940.90
405.85	908.13
406.05	910.47
406.24	1001.75
406.43	884.72
406.62	973.66
406.81	1027.50
407.00	973.66
407.20	1071.97
407.39	926.85
407.58	1060.26
407.77	1034.52
407.96	990.05
408.15	1048.56
408.34	1062.60
408.54	1111.75
408.73	1074.31
408.92	1104.73
409.11	1022.81
409.30	1032.18
409.49	1114.10
409.68	1196.01
409.87	1123.46
410.07	1118.78
410.26	1156.22
410.45	1130.48
410.64	1165.59
410.83	1235.80
411.02	1205.38
411.21	1184.31
411.40	1174.95
411.59	1179.63
411.78	1245.16
411.98	1336.45
412.17	1331.76
412.36	1233.46
412.55	1296.66
412.74	1322.40
412.93	1373.89
413.12	1299.00
413.31	1366.87
413.50	1366.87
413.69	1479.22
413.88	1394.96
414.07	1423.05
414.26	1469.86
414.45	1479.22
414.64	1460.49
414.83	1481.56
415.02	1451.13
415.22	1528.37
415.41	1549.43
415.60	1544.75
415.79	1483.90
415.98	1654.76
416.17	1671.14
416.36	1561.14
416.55	1621.99
416.74	1629.01
416.93	1607.95
417.12	1675.82
417.31	1624.33
417.50	1598.59
417.69	1739.02
417.88	1643.06
418.07	1621.99
418.26	1710.93
418.45	1830.30
418.64	1764.76
418.83	1792.85
419.02	1827.96
419.21	1849.02
419.39	1774.13
419.58	1823.28
419.77	1785.83
419.96	1921.58
420.15	1900.52
420.34	1743.70
420.53	1888.81
420.72	1870.09
420.91	1926.26
421.10	1886.47
421.29	1944.99
421.48	1912.22
421.67	2031.58
421.86	1959.03
422.05	1888.81
422.24	1952.01
422.43	1987.11
422.61	1895.83
422.80	1968.39
422.99	2017.54
423.18	2045.63
423.37	2078.40
423.56	1991.80
423.75	1952.01
423.94	2052.65
424.13	1872.43
424.32	2005.84
424.50	2064.35
424.69	2090.10
424.88	2136.91
425.07	2024.56
425.26	2040.95
425.45	1975.41
425.64	2120.53
425.83	2012.86
426.01	2083.08
426.20	2113.50
426.39	1977.75
426.58	1994.14
426.77	2003.50
426.96	2139.25
427.15	2033.93
427.33	2052.65
427.52	2099.46
427.71	2244.57
427.90	2258.62
428.09	2148.61
428.28	2136.91
428.46	2235.21
428.65	2139.25
428.84	2331.17
429.03	2200.10
429.22	2211.81
429.40	2237.55
429.59	2179.04
429.78	2134.57
429.97	2076.06
430.16	2209.47
430.34	2328.83
430.53	2305.43
430.72	2314.79
430.91	2333.51
431.10	2349.90
431.28	2200.10
431.47	2296.07
431.66	2319.47
431.85	2216.49
432.03	2450.54
432.22	2483.31
432.41	2345.22
432.60	2471.61
432.79	2499.69
432.97	2389.69
433.16	2537.14
433.35	2427.14
433.54	2455.22
433.72	2490.33
433.91	2450.54
434.10	2485.65
434.28	2583.95
434.47	2506.71
434.66	2595.65
434.85	2548.84
435.03	2511.39
435.22	2523.10
435.41	2672.89
435.59	2539.48
435.78	2548.84
435.97	2593.31
436.16	2621.40
436.34	2614.38
436.53	2682.25
436.72	2785.24
436.90	2560.55
437.09	2682.25
437.28	2562.89
437.46	2635.44
437.65	2768.85
437.84	2895.24
438.02	2796.94
438.21	2787.58
438.40	2796.94
438.58	2836.73
438.77	2778.22
438.96	2829.71
439.14	2724.38
439.33	2930.35
439.52	2956.10
439.70	2925.67
439.89	3026.31
440.08	3002.91
440.26	3014.61
440.45	2958.44
440.63	3063.76
440.82	3159.72
441.01	3056.74
441.19	3066.10
441.38	3124.62
441.57	3164.40
441.75	3164.40
441.94	3286.11
442.12	3201.85
442.31	3421.86
442.50	3276.75
442.68	3185.47
442.87	3339.94
443.05	3325.90
443.24	3239.30
443.43	3236.96
443.61	3382.07
443.80	3499.10
443.98	3435.91
444.17	3183.13
444.35	3501.44
444.54	3466.33
444.73	3445.27
444.91	3363.35
445.10	3426.54
445.28	3588.04
445.47	3393.78
445.65	3445.27
445.84	3482.72
446.02	3494.42
446.21	3382.07
446.39	3431.23
446.58	3527.19
446.77	3524.85
446.95	3281.43
447.14	3482.72
447.32	3431.23
447.51	3534.21
447.69	3456.97
447.88	3569.32
448.06	3613.79
448.25	3431.23
448.43	3407.82
448.62	3574.00
448.80	3456.97
448.99	3611.45
449.17	3693.37
449.36	3485.06
449.54	3637.19
449.73	3676.98
449.91	3733.15
450.10	3660.60
450.28	3667.62
450.46	3581.02
450.65	3665.28
450.83	3733.15
451.02	3765.92
451.20	3758.90
451.39	3709.75
451.57	3623.15
451.76	3761.24
451.94	3840.82
452.13	3819.75
452.31	3772.94
452.49	3765.92
452.68	3892.31
452.86	3873.59
453.05	3836.14
453.23	3941.46
453.42	3768.26
453.60	3721.45
453.78	4021.04
453.97	3796.35
454.15	3915.72
454.34	3960.19
454.52	4021.04
454.70	3913.38
454.89	3974.23
455.07	3932.10
455.26	4095.94
455.44	4093.60
455.62	3946.14
455.81	3995.29
455.99	3983.59
456.17	4093.60
456.36	4147.43
456.54	4060.83
456.73	4184.88
456.91	4210.62
457.09	4322.97
457.28	4290.20
457.46	4156.79
457.64	4337.01
457.83	4322.97
458.01	4234.03
458.19	4318.29
458.38	4341.69
458.56	4491.49
458.74	4430.63
458.93	4484.47
459.11	4262.12
459.29	4315.95
459.48	4456.38
459.66	4484.47
459.84	4449.36
460.03	4517.23
460.21	4496.17
460.39	4493.83
460.57	4538.30
460.76	4489.15
460.94	4608.51
461.12	4648.30
461.31	4725.54
461.49	4615.54
461.67	4596.81
461.85	4540.64
462.04	4664.69
462.22	4629.58
462.40	4758.31
462.59	4645.96
462.77	4678.73
462.95	4758.31
463.13	4744.27
463.32	4755.97
463.50	4688.09
463.68	4664.69
463.86	4791.08
464.05	4725.54
464.23	4865.97
464.41	4901.08
464.59	4950.23
464.78	5013.43
464.96	4842.57
465.14	4814.48
465.32	4950.23
465.50	4994.70
465.69	5132.79
465.87	4760.65
466.05	5048.54
466.23	4837.89
466.41	5008.75
466.60	4924.49
466.78	5057.90
466.96	5078.96
467.14	5036.83
467.32	5025.13
467.51	5144.50
467.69	5060.24
467.87	5100.03
468.05	5268.55
468.23	5158.54
468.41	4978.32
468.60	5135.14
468.78	5195.99
468.96	5153.86
469.14	5210.03
469.32	5247.48
469.50	5195.99
469.69	5291.95
469.87	5310.68
470.05	5413.66
470.23	5287.27
470.41	5317.70
470.59	5376.21
470.77	5416.00
470.95	5507.28
471.14	5523.66
471.32	5420.68
471.50	5516.64
471.68	5598.56
471.86	5640.69
472.04	5528.35
472.22	5722.61
472.40	5750.70
472.58	5692.18
472.77	5600.90
472.95	5762.40
473.13	5884.11
473.31	5858.36
473.49	5818.57
473.67	5652.39
473.85	5860.70
474.03	6010.50
474.21	5977.73
474.39	6010.50
474.57	6104.12
474.75	5996.45
474.93	6008.16
475.12	6015.18
475.30	6153.27
475.48	6078.37
475.66	6307.74
475.84	6282.00
476.02	6394.34
476.20	6492.65
476.38	6537.12
476.56	6403.71
476.74	6581.59
476.92	6621.38
477.10	6572.22
477.28	6644.78
477.46	6504.35
477.64	6810.96
477.82	6764.15
478.00	6888.20
478.18	6794.58
478.36	7009.90
478.54	6897.56
478.72	7023.95
478.90	6951.39
479.08	7206.51
479.26	7227.57
479.44	7318.86
479.62	7112.89
479.80	7080.12
479.98	7559.93
480.16	7492.05
480.34	7438.22
480.52	7508.44
480.70	7489.71
480.88	7501.42
481.06	7632.49
481.24	7557.59
481.41	7915.69
481.59	7964.84
481.77	7899.31
481.95	7960.16
482.13	8109.96
482.31	7990.59
482.49	8187.19
482.67	8224.64
482.85	8093.57
483.03	8400.18
483.21	8519.55
483.39	8479.76
483.57	8629.56
483.74	8629.56
483.92	8681.05
484.10	8704.45
484.28	8861.27
484.46	8858.93
484.64	9097.66
484.82	8816.80
485.00	9224.05
485.18	9174.90
485.35	9518.96
485.53	9312.99
485.71	9146.81
485.89	9631.30
486.07	9439.38
486.25	9437.04
486.43	9547.05
486.61	9788.12
486.78	9820.89
486.96	9863.02
487.14	9858.34
487.32	9930.89
487.50	10071.33
487.68	10064.30
487.85	10246.87
488.03	10333.47
488.21	10464.54
488.39	10373.25
488.57	10417.72
488.75	10448.15
488.92	10846.04
489.10	10862.43
489.28	11012.22
489.46	11080.10
489.64	10993.50
489.81	10939.66
489.99	11192.44
490.17	11166.70
490.35	11360.96
490.53	11316.49
490.70	11391.39
490.88	11674.59
491.06	11571.61
491.24	11431.18
491.41	11688.64
491.59	11939.07
491.77	11941.41
491.95	11950.78
492.13	11967.16
492.30	12224.62
492.48	12212.92
492.66	12044.40
492.84	12411.86
493.01	12549.95
493.19	12446.97
493.37	12510.16
493.54	12648.26
493.72	12751.24
493.90	12615.49
494.08	12788.69
494.25	12975.93
494.43	12863.58
494.61	13207.64
494.79	13284.88
494.96	13076.57
495.14	13198.28
495.32	13401.91
495.49	13336.37
495.67	13429.99
495.85	13680.43
496.02	13614.90
496.20	13846.61
496.38	13584.47
496.55	13951.93
496.73	14448.13
496.91	14050.24
497.09	13994.06
497.26	14356.85
497.44	14017.47
497.62	14291.31
497.79	14614.30
497.97	14441.11
498.14	14696.22
498.32	14626.01
498.50	14644.73
498.67	14724.31
498.85	14736.01
499.03	14717.29
499.20	14785.16
499.38	14937.30
499.56	14944.32
499.73	15103.48
499.91	15080.07
500.08	15267.31
500.26	15234.55
500.44	15480.30
500.61	15190.08
500.79	15220.50
500.97	15367.96
501.14	15770.53
501.32	15627.76
501.49	15704.99
501.67	15747.12
501.84	15665.21
502.02	15978.84
502.20	15939.05
502.37	15896.92
502.55	15981.18
502.72	15976.50
502.90	15978.84
503.07	15913.30
503.25	16238.64
503.43	16205.87
503.60	16264.38
503.78	16283.11
503.95	16299.49
504.13	16327.58
504.30	16456.31
504.48	16638.87
504.65	16695.04
504.83	16725.47
505.01	16978.25
505.18	16854.20
505.36	17432.31
505.53	16856.54
505.71	17219.32
505.88	17034.42
506.06	16875.26
506.23	17219.32
506.41	17006.33
506.58	17343.37
506.76	17263.79
506.93	17039.10
507.11	17097.61
507.28	17362.09
507.46	17425.29
507.63	17647.64
507.81	17713.17
507.98	17413.59
508.16	17591.47
508.33	17797.43
508.50	17532.95
508.68	17795.09
508.85	18090.00
509.03	18225.75
509.20	18036.17
509.38	18085.32
509.55	18340.44
509.73	18326.39
509.90	18462.15
510.08	18228.09
510.25	18429.38
510.42	18223.41
510.60	18728.97
510.77	18132.13
510.95	18717.26
511.12	18272.56
511.30	18508.96
511.47	18693.86
511.64	18953.66
511.82	18904.51
511.99	18724.29
512.17	18700.88
512.34	19049.62
512.51	18930.25
512.69	19133.88
512.86	19075.37
513.04	19335.17
513.21	19564.54
513.38	19381.98
513.56	19122.18
513.73	19126.86
513.90	19445.17
514.08	19129.20
514.25	19328.14
514.43	19641.78
514.60	19676.88
514.77	19679.22
514.95	19756.46
515.12	19353.89
515.29	19744.76
515.47	19648.80
515.64	19976.47
515.81	19999.88
515.99	19838.38
516.16	20166.06
516.33	20023.28
516.51	20397.77
516.68	20175.42
516.85	19910.94
517.03	20123.93
517.20	20210.53
517.37	20463.30
517.54	20599.05
517.72	20531.18
517.89	20329.89
518.06	20416.49
518.24	20414.15
518.41	20446.92
518.58	20599.05
518.75	20577.99
518.93	21062.48
519.10	20699.70
519.27	20727.78
519.45	20568.63
519.62	21018.01
519.79	21027.37
519.96	20922.05
520.14	20985.24
520.31	20922.05
520.48	21371.43
520.65	20971.20
520.83	21373.77
521.00	21333.98
521.17	21177.17
521.34	21284.83
521.52	21010.99
521.69	21184.19
521.86	21226.32
522.03	21568.04
522.20	21642.93
522.38	21631.23
522.55	21202.91
522.72	21759.96
522.89	21881.67
523.07	21968.27
523.24	21902.73
523.41	22188.28
523.58	22141.47
523.75	22183.60
523.92	21942.52
524.10	21837.20
524.27	21909.75
524.44	22326.37
524.61	22265.52
524.78	22466.80
524.96	22237.43
525.13	22221.05
525.30	22553.40
525.47	22405.95
525.64	22382.54
525.81	22457.44
525.98	22373.18
526.16	22462.12
526.33	22394.25
526.50	23175.98
526.67	22436.38
526.84	22555.74
527.01	22267.86
527.18	22532.34
527.36	22934.91
527.53	22857.67
527.70	22948.95
527.87	23225.14
528.04	23065.98
528.21	23166.62
528.38	22895.12
528.55	22977.04
528.72	23084.70
528.89	22981.72
529.07	23166.62
529.24	22967.68
529.41	23365.57
529.58	23047.26
529.75	23157.26
529.92	23417.06
530.09	23145.56
530.26	23138.54
530.43	23585.58
530.60	23552.81
530.77	23618.35
530.94	23667.50
531.11	23222.80
531.28	23419.40
531.46	23667.50
531.63	24006.87
531.80	23810.27
531.97	23838.36
532.14	24013.90
532.31	23817.29
532.48	23861.76
532.65	23786.86
532.82	23644.09
532.99	23660.48
533.16	23793.89
533.33	23800.91
533.50	24301.78
533.67	24259.65
533.84	23917.93
534.01	24051.34
534.18	23939.00
534.35	24458.60
534.52	24060.71
534.69	24592.01
534.86	24491.37
535.03	24112.20
535.20	24439.87
535.37	24374.34
535.54	24634.14
535.71	24418.81
535.88	24379.02
536.05	24315.83
536.22	24781.59
536.38	25060.12
536.55	24643.50
536.72	24779.25
536.89	24709.04
537.06	24584.99
537.23	24819.04
537.40	24636.48
537.57	24943.09
537.74	24617.75
537.91	24922.02
538.08	24954.79
538.25	24954.79
538.42	24989.90
538.59	25315.23
538.75	25259.06
538.92	24702.01
539.09	25144.38
539.26	24987.56
539.43	25329.28
539.60	25228.63
539.77	25144.38
539.94	25521.20
540.11	25453.33
540.28	25624.18
540.44	25474.39
540.61	25319.92
540.78	25249.70
540.95	25268.42
541.12	25460.35
541.29	25443.96
541.46	25633.55
541.62	25198.21
541.79	25450.99
541.96	25411.20
542.13	25488.43
542.30	25755.26
542.47	25598.44
542.63	26324.01
542.80	25977.61
542.97	26096.97
543.14	26239.75
543.31	25701.42
543.48	25961.22
543.64	26338.05
543.81	26017.40
543.98	25975.27
544.15	26314.64
544.32	26473.80
544.48	26363.79
544.65	26195.28
544.82	26319.32
544.99	26394.22
545.16	26223.36
545.32	26562.74
545.49	26480.82
545.66	26712.53
545.83	26689.13
546.00	26904.46
546.16	26862.33
546.33	26178.89
546.50	26309.96
546.67	26419.97
546.83	26265.49
547.00	26555.72
547.17	26356.77
547.34	26534.65
547.50	26801.47
547.67	27124.47
547.84	26600.19
548.00	26749.98
548.17	27075.32
548.34	26787.43
548.51	27065.96
548.67	27309.37
548.84	26969.99
549.01	26712.53
549.18	26923.18
549.34	26747.64
549.51	27424.06
549.68	26764.03
549.84	27105.74
550.01	27180.64
550.18	27133.83
550.34	27232.13
550.51	27606.62
550.68	27838.33
550.84	27063.61
551.01	27190.00
551.18	26869.35
551.34	27042.55
551.51	27314.05
551.68	27414.69
551.84	27428.74
552.01	27171.28
552.18	27480.23
552.34	27435.76
552.51	27693.22
552.68	27353.84
552.84	27517.68
553.01	27583.21
553.18	27211.07
553.34	27510.66
553.51	27496.61
553.67	27452.14
553.84	27992.81
554.01	28016.21
554.17	27716.62
554.34	27756.41
554.51	27634.71
554.67	27711.94
554.84	27803.22
555.00	27761.09
555.17	27653.43
555.33	27735.35
555.50	27683.86
555.67	27843.01
555.83	27835.99
556.00	27599.60
556.16	28112.17
556.33	27868.76
556.50	28264.31
556.66	28079.41
556.83	28133.24
556.99	28173.03
557.16	28587.30
557.32	28201.11
557.49	28163.67
557.65	28128.56
557.82	27777.48
557.98	28102.81
558.15	28276.01
558.32	28116.86
558.48	28489.00
558.65	28435.17
558.81	28166.01
558.98	28624.75
559.14	28123.88
559.31	28404.74
559.47	28376.66
559.64	28226.86
559.80	28467.94
559.97	28435.17
560.13	28474.96
560.30	28428.15
560.46	28505.38
560.63	28826.04
560.79	28662.20
560.96	28428.15
561.12	28383.68
561.29	28341.55
561.45	28217.50
561.61	28566.24
561.78	28828.38
561.94	28212.82
562.11	28549.85
562.27	28788.59
562.44	28615.39
562.60	28526.45
562.77	28517.09
562.93	28730.08
563.10	28741.78
563.26	28591.98
563.42	28854.12
563.59	28601.35
563.75	28706.67
563.92	28678.58
564.08	28360.27
564.24	28678.58
564.41	28460.91
564.57	28533.47
564.74	28884.55
564.90	28851.78
565.07	28519.43
565.23	29209.89
565.39	28542.83
565.56	28819.02
565.72	28826.04
565.88	28971.15
566.05	29181.80
566.21	28666.88
566.38	28713.69
566.54	29125.63
566.70	29287.12
566.87	29345.64
567.03	29022.64
567.19	29556.28
567.36	28701.99
567.52	28954.77
567.68	29102.22
567.85	28603.69
568.01	29116.26
568.17	28938.38
568.34	28987.53
568.50	29191.16
568.66	28889.23
568.83	29509.47
568.99	28664.54
569.15	29343.30
569.32	28877.53
569.48	29036.69
569.64	29233.29
569.81	29324.57
569.97	28793.27
570.13	29228.61
570.30	29226.27
570.46	29387.77
570.62	29331.59
570.78	28978.17
570.95	28861.15
571.11	28952.43
571.27	29095.20
571.43	29240.31
571.60	29139.67
571.76	29191.16
571.92	29043.71
572.09	29142.01
572.25	29039.03
572.41	29266.06
572.57	29277.76
572.74	29294.14
572.90	29591.39
573.06	29099.88
573.22	29610.12
573.38	29184.14
573.55	28926.68
573.71	29345.64
573.87	29752.89
574.03	29769.27
574.20	29502.45
574.36	29242.65
574.52	29198.18
574.68	29397.13
574.84	29291.80
575.01	29607.78
575.17	29628.84
575.33	29291.80
575.49	29329.25
575.65	29331.59
575.82	29619.48
575.98	29153.71
576.14	29465.00
576.30	29207.55
576.46	29174.78
576.62	29500.11
576.79	29401.81
576.95	29383.09
577.11	29394.79
577.27	29474.37
577.43	29039.03
577.59	29474.37
577.75	29429.90
577.92	29558.63
578.08	29567.99
578.24	29507.13
578.40	29261.38
578.56	29642.88
578.72	29956.52
578.88	29649.91
579.04	29766.93
579.21	29256.70
579.37	29696.72
579.53	29345.64
579.69	29273.08
579.85	29364.36
580.01	29390.11
580.17	29081.16
580.33	29603.10
580.49	29385.43
580.65	29502.45
580.82	29811.40
580.98	29476.71
581.14	29530.54
581.30	29764.59
581.46	29347.98
581.62	29434.58
581.78	29539.90
581.94	29603.10
582.10	29439.26
582.26	29242.65
582.42	29233.29
582.58	29823.11
582.74	29642.88
582.90	29436.92
583.06	29523.52
583.22	29729.48
583.38	29387.77
583.54	29324.57
583.70	29317.55
583.86	29736.51
584.02	29308.19
584.18	29694.38
584.34	29575.01
584.50	29956.52
584.66	29832.47
584.82	29837.15
584.98	29778.64
585.14	29626.50
585.30	29275.42
585.46	29663.95
585.62	29692.04
585.78	29589.05
585.94	29373.72
586.10	29441.60
586.26	29699.06
586.42	29659.27
586.58	29986.94
586.74	29418.19
586.90	29369.04
587.06	29518.84
587.22	29638.20
587.38	29935.45
587.54	29703.74
587.70	29848.85
587.86	29759.91
588.02	29731.83
588.18	29654.59
588.34	30057.16
588.49	29860.55
588.65	29338.62
588.81	29830.13
588.97	29858.21
589.13	29745.87
589.29	29518.84
589.45	30106.31
589.61	29905.02
589.77	30094.61
589.93	30178.87
590.08	30160.14
590.24	29785.66
590.40	30071.20
590.56	30068.86
590.72	30335.68
590.88	29776.30
591.04	29853.53
591.20	29982.26
591.35	29923.75
591.51	30480.80
591.67	29914.39
591.83	30237.38
591.99	30134.40
