SpectraSuite Data File
++++++++++++++++++++++++++++++++++++
Date: Fri Oct 18 13:58:28 GMT-05:00 2013
User: bianchi
Dark Spectrum Present: No
Reference Spectrum Present: No
Number of Sampled Component Spectra: 1
Spectrometers: USB2+H05261
Integration Time (usec): 50000 (USB2+H05261)
Spectra Averaged: 1 (USB2+H05261)
Boxcar Smoothing: 0 (USB2+H05261)
Correct for Electrical Dark: No (USB2+H05261)
Strobe/Lamp Enabled: No (USB2+H05261)
Correct for Detector Non-linearity: No (USB2+H05261)
Correct for Stray Light: No (USB2+H05261)
Number of Pixels in Processed Spectrum: 2048
>>>>>Begin Processed Spectral Data<<<<<
365.73	0.00
365.92	0.00
366.12	0.00
366.32	0.00
366.52	0.00
366.72	0.00
366.91	0.00
367.11	0.00
367.31	0.00
367.51	0.00
367.70	0.00
367.90	0.00
368.10	0.00
368.30	0.00
368.49	0.00
368.69	0.00
368.89	0.00
369.09	0.00
369.28	0.00
369.48	0.00
369.68	0.00
369.87	0.00
370.07	0.00
370.27	0.00
370.47	0.00
370.66	88.94
370.86	98.30
371.06	156.82
371.25	212.99
371.45	119.37
371.65	91.28
371.84	112.35
372.04	156.82
372.24	128.73
372.44	201.29
372.63	138.09
372.83	210.65
373.03	229.37
373.22	159.16
373.42	217.67
373.62	231.71
373.81	168.52
374.01	220.01
374.21	266.82
374.40	308.95
374.60	217.67
374.79	238.73
374.99	287.89
375.19	271.50
375.38	238.73
375.58	222.35
375.78	224.69
375.97	311.29
376.17	259.80
376.37	238.73
376.56	234.05
376.76	271.50
376.95	266.82
377.15	264.48
377.35	325.33
377.54	315.97
377.74	276.18
377.93	252.78
378.13	262.14
378.33	262.14
378.52	266.82
378.72	308.95
378.91	229.37
379.11	327.68
379.31	299.59
379.50	245.76
379.70	259.80
379.89	287.89
380.09	285.55
380.28	259.80
380.48	292.57
380.68	330.02
380.87	353.42
381.07	304.27
381.26	374.49
381.46	311.29
381.65	252.78
381.85	318.31
382.04	266.82
382.24	367.46
382.43	315.97
382.63	283.20
382.83	348.74
383.02	337.04
383.22	397.89
383.41	337.04
383.61	299.59
383.80	372.15
384.00	311.29
384.19	348.74
384.39	388.53
384.58	402.57
384.78	430.66
384.97	437.68
385.17	348.74
385.36	365.12
385.56	395.55
385.75	320.65
385.95	374.49
386.14	402.57
386.34	348.74
386.53	334.70
386.72	372.15
386.92	430.66
387.11	416.62
387.31	400.23
387.50	337.04
387.70	393.21
387.89	381.51
388.09	393.21
388.28	512.58
388.48	414.27
388.67	435.34
388.86	416.62
389.06	411.93
389.25	442.36
389.45	491.51
389.64	458.74
389.84	465.77
390.03	482.15
390.22	468.11
390.42	461.09
390.61	477.47
390.81	524.28
391.00	486.83
391.19	484.49
391.39	500.87
391.58	638.97
391.78	533.64
391.97	484.49
392.16	475.13
392.36	578.11
392.55	524.28
392.75	524.28
392.94	493.85
393.13	503.22
393.33	552.37
393.52	531.30
393.71	580.45
393.91	512.58
394.10	458.74
394.29	660.03
394.49	594.50
394.68	657.69
394.88	545.34
395.07	566.41
395.26	662.37
395.46	580.45
395.65	667.05
395.84	645.99
396.04	669.39
396.23	601.52
396.42	657.69
396.62	636.63
396.81	657.69
397.00	624.92
397.19	645.99
397.39	540.66
397.58	753.65
397.77	587.47
397.97	671.73
398.16	725.57
398.35	702.16
398.55	751.31
398.74	758.33
398.93	660.03
399.12	706.84
399.32	709.18
399.51	739.61
399.70	772.38
399.90	751.31
400.09	781.74
400.28	835.57
400.47	734.93
400.67	744.29
400.86	737.27
401.05	730.25
401.24	683.44
401.44	770.04
401.63	805.14
401.82	779.40
402.01	732.59
402.21	788.76
402.40	786.42
402.59	835.57
402.78	809.83
402.97	847.27
403.17	891.74
403.36	814.51
403.55	971.32
403.74	957.28
403.93	781.74
404.13	915.15
404.32	966.64
404.51	894.08
404.70	894.08
404.89	952.60
405.09	950.26
405.28	898.77
405.47	994.73
405.66	966.64
405.85	952.60
406.05	1015.79
406.24	959.62
406.43	966.64
406.62	1055.58
406.81	1027.50
407.00	1083.67
407.20	1018.13
407.39	966.64
407.58	1015.79
407.77	1032.18
407.96	1025.15
408.15	1170.27
408.34	1116.44
408.54	1041.54
408.73	1062.60
408.92	997.07
409.11	1067.28
409.30	1132.82
409.49	1196.01
409.68	1107.07
409.87	1210.06
410.07	1121.12
410.26	1329.42
410.45	1135.16
410.64	1249.85
410.83	1205.38
411.02	1214.74
411.21	1210.06
411.40	1284.95
411.59	1256.87
411.78	1261.55
411.98	1270.91
412.17	1193.67
412.36	1240.48
412.55	1249.85
412.74	1212.40
412.93	1387.94
413.12	1306.02
413.31	1472.20
413.50	1259.21
413.69	1256.87
413.88	1404.32
414.07	1439.43
414.26	1423.05
414.45	1418.36
414.64	1439.43
414.83	1486.24
415.02	1469.86
415.22	1514.33
415.41	1535.39
415.60	1481.56
415.79	1554.12
415.98	1542.41
416.17	1696.89
416.36	1540.07
416.55	1593.90
416.74	1685.19
416.93	1678.16
417.12	1638.38
417.31	1638.38
417.50	1757.74
417.69	1598.59
417.88	1682.85
418.07	1900.52
418.26	1706.25
418.45	1694.55
418.64	1750.72
418.83	1682.85
419.02	1734.34
419.21	1757.74
419.39	1732.00
419.58	1809.23
419.77	1741.36
419.96	1727.32
420.15	1921.58
420.34	1849.02
420.53	1994.14
420.72	1858.39
420.91	1881.79
421.10	1820.94
421.29	1900.52
421.48	1940.30
421.67	1881.79
421.86	1947.33
422.05	2031.58
422.24	1937.96
422.43	1984.77
422.61	1963.71
422.80	1914.56
422.99	1963.71
423.18	1947.33
423.37	2033.93
423.56	1996.48
423.75	2015.20
423.94	1877.11
424.13	1858.39
424.32	1900.52
424.50	2003.50
424.69	2045.63
424.88	2024.56
425.07	2003.50
425.26	1980.09
425.45	2118.18
425.64	2008.18
425.83	2101.80
426.01	1996.48
426.20	2094.78
426.39	1989.46
426.58	2047.97
426.77	2033.93
426.96	2136.91
427.15	2162.66
427.33	2043.29
427.52	2040.95
427.71	2143.93
427.90	2078.40
428.09	2115.84
428.28	2120.53
428.46	2307.77
428.65	2246.91
428.84	2157.97
429.03	2218.83
429.22	2104.14
429.40	2153.29
429.59	2256.28
429.78	2202.44
429.97	2197.76
430.16	2265.64
430.34	2136.91
430.53	2291.38
430.72	2291.38
430.91	2338.20
431.10	2296.07
431.28	2317.13
431.47	2352.24
431.66	2352.24
431.85	2347.56
432.03	2429.48
432.22	2396.71
432.41	2363.94
432.60	2429.48
432.79	2368.62
432.97	2473.95
433.16	2420.11
433.35	2520.76
433.54	2490.33
433.72	2532.46
433.91	2480.97
434.10	2504.37
434.28	2408.41
434.47	2497.35
434.66	2663.53
434.85	2593.31
435.03	2487.99
435.22	2532.46
435.41	2614.38
435.59	2473.95
435.78	2553.52
435.97	2583.95
436.16	2693.96
436.34	2595.65
436.53	2684.59
436.72	2649.49
436.90	2750.13
437.09	2640.12
437.28	2771.19
437.46	2792.26
437.65	2696.30
437.84	2796.94
438.02	2740.77
438.21	2731.41
438.40	2719.70
438.58	2827.37
438.77	2890.56
438.96	2923.33
439.14	2801.62
439.33	2925.67
439.52	2904.60
439.70	2939.71
439.89	2920.99
440.08	3052.06
440.26	3040.36
440.45	3021.63
440.63	3070.78
440.82	3145.68
441.01	3117.59
441.19	3176.11
441.38	3276.75
441.57	3220.58
441.75	3260.37
441.94	3122.27
442.12	3236.96
442.31	3321.22
442.50	3372.71
442.68	3300.16
442.87	3349.31
443.05	3356.33
443.24	3314.20
443.43	3318.88
443.61	3335.26
443.80	3496.76
443.98	3258.03
444.17	3241.64
444.35	3297.81
444.54	3351.65
444.73	3403.14
444.91	3480.38
445.10	3449.95
445.28	3391.44
445.47	3213.56
445.65	3377.39
445.84	3447.61
446.02	3620.81
446.21	3414.84
446.39	3489.74
446.58	3440.59
446.77	3428.88
446.95	3499.10
447.14	3346.97
447.32	3517.83
447.51	3417.18
447.69	3482.72
447.88	3417.18
448.06	3660.60
448.25	3531.87
448.43	3529.53
448.62	3485.06
448.80	3604.42
448.99	3599.74
449.17	3620.81
449.36	3597.40
449.54	3714.43
449.73	3581.02
449.91	3716.77
450.10	3632.51
450.28	3761.24
450.46	3669.96
450.65	3693.37
450.83	3709.75
451.02	3719.11
451.20	3808.05
451.39	3758.90
451.57	3887.63
451.76	3700.39
451.94	3702.73
452.13	3880.61
452.31	3676.98
452.49	3726.13
452.68	3875.93
452.86	3740.18
453.05	3882.95
453.23	3847.84
453.42	3840.82
453.60	3796.35
453.78	3878.27
453.97	3911.04
454.15	3819.75
454.34	3852.52
454.52	4009.34
454.70	4077.21
454.89	4023.38
455.07	3915.72
455.26	4095.94
455.44	4100.62
455.62	4161.47
455.81	4102.96
455.99	4138.07
456.17	4002.32
456.36	4152.11
456.54	4175.52
456.73	4170.83
456.91	4227.01
457.09	4189.56
457.28	4313.61
457.46	4227.01
457.64	4198.92
457.83	4198.92
458.01	4372.12
458.19	4493.83
458.38	4360.42
458.56	4454.04
458.74	4404.89
458.93	4360.42
459.11	4507.87
459.29	4465.74
459.48	4381.48
459.66	4500.85
459.84	4540.64
460.03	4629.58
460.21	4561.70
460.39	4571.07
460.57	4456.38
460.76	4648.30
460.94	4489.15
461.12	4505.53
461.31	4589.79
461.49	4475.10
461.67	4414.25
461.85	4664.69
462.04	4634.26
462.22	4777.03
462.40	4695.11
462.59	4655.33
462.77	4774.69
462.95	4692.77
463.13	4734.90
463.32	4737.24
463.50	4821.50
463.68	4891.72
463.86	4793.42
464.05	4896.40
464.23	4880.02
464.41	4861.29
464.59	4748.95
464.78	4985.34
464.96	4865.97
465.14	4929.17
465.32	4959.60
465.50	5083.64
465.69	4931.51
465.87	4795.76
466.05	4966.62
466.23	4961.94
466.41	5249.82
466.60	5334.08
466.78	5022.79
466.96	4936.19
467.14	4966.62
467.32	5149.18
467.51	5207.69
467.69	4985.34
467.87	5043.85
468.05	5160.88
468.23	5158.54
468.41	5149.18
468.60	5043.85
468.78	5198.33
468.96	5160.88
469.14	5327.06
469.32	5284.93
469.50	5177.26
469.69	5198.33
469.87	5334.08
470.05	5483.88
470.23	5338.76
470.41	5331.74
470.59	5416.00
470.77	5357.49
470.95	5406.64
471.14	5504.94
471.32	5411.32
471.50	5650.05
471.68	5549.41
471.86	5448.77
472.04	5565.79
472.22	5591.54
472.40	5692.18
472.58	5666.44
472.77	5767.08
472.95	5813.89
473.13	5944.96
473.31	5741.33
473.49	5774.10
473.67	5790.49
473.85	5834.96
474.03	6010.50
474.21	5926.24
474.39	6045.60
474.57	6087.73
474.75	6120.50
474.93	6305.40
475.12	5963.68
475.30	6113.48
475.48	6209.44
475.66	6167.31
475.84	6230.51
476.02	6148.59
476.20	6204.76
476.38	6352.21
476.56	6555.84
476.74	6476.26
476.92	6642.44
477.10	6406.05
477.28	6626.06
477.46	6588.61
477.64	6569.88
477.82	6792.23
478.00	6892.88
478.18	6902.24
478.36	6970.12
478.54	6888.20
478.72	7073.10
478.90	7180.76
479.08	7028.63
479.26	7384.39
479.44	7101.19
479.62	7349.28
479.80	7300.13
479.98	7339.92
480.16	7424.18
480.34	7431.20
480.52	7672.28
480.70	7419.50
480.88	7651.21
481.06	7644.19
481.24	7602.06
481.41	7716.75
481.59	7829.09
481.77	8088.89
481.95	8009.31
482.13	8056.12
482.31	7903.99
482.49	8367.42
482.67	8063.15
482.85	8397.84
483.03	8461.04
483.21	8519.55
483.39	8468.06
483.57	8482.10
483.74	8718.50
483.92	8505.51
484.10	8622.53
484.28	8765.31
484.46	8894.04
484.64	8950.21
484.82	8837.86
485.00	8929.14
485.18	9336.40
485.35	9490.87
485.53	9235.75
485.71	9198.31
485.89	9554.07
486.07	9589.17
486.25	9305.97
486.43	9275.54
486.61	9558.75
486.78	9792.80
486.96	9783.44
487.14	9914.51
487.32	10214.10
487.50	10066.64
487.68	10204.74
487.85	10232.82
488.03	10516.03
488.21	10604.97
488.39	10490.28
488.57	10511.35
488.75	10853.06
488.92	10937.32
489.10	10927.96
489.28	10963.07
489.46	11108.18
489.64	10913.92
489.81	11269.68
489.99	11353.94
490.17	11150.31
490.35	11398.41
490.53	11510.75
490.70	11590.33
490.88	11328.19
491.06	11644.17
491.24	11688.64
491.41	11957.80
491.59	11595.01
491.77	12011.63
491.95	12091.21
492.13	11983.54
492.30	12238.66
492.48	12170.79
492.66	12210.57
492.84	12119.29
493.01	12255.04
493.19	12491.44
493.37	12468.03
493.54	12755.92
493.72	12631.87
493.90	12943.16
494.08	12765.28
494.25	12903.37
494.43	13240.41
494.61	13004.02
494.79	13170.19
494.96	13401.91
495.14	13331.69
495.32	13420.63
495.49	13373.82
495.67	13685.11
495.85	13654.69
496.02	13832.57
496.20	13788.10
496.38	14129.81
496.55	13877.04
496.73	14106.41
496.91	14176.62
497.09	13987.04
497.26	14272.59
497.44	14174.28
497.62	14462.17
497.79	14394.29
497.97	14244.50
498.14	14649.41
498.32	14537.07
498.50	14628.35
498.67	14993.47
498.85	14808.57
499.03	14593.24
499.20	14991.13
499.38	15056.67
499.56	15152.63
499.73	15122.20
499.91	15068.37
500.08	15297.74
500.26	15178.37
500.44	15206.46
500.61	15396.04
500.79	15309.44
500.97	15339.87
501.14	15903.94
501.32	15901.60
501.49	15693.29
501.67	15571.58
501.84	15826.70
502.02	15920.32
502.20	15861.81
502.37	16112.25
502.55	15901.60
502.72	15824.36
502.90	16189.49
503.07	15950.75
503.25	15934.37
503.43	16219.91
503.60	16245.66
503.78	16762.92
503.95	16484.39
504.13	16428.22
504.30	16596.74
504.48	16362.69
504.65	16868.24
504.83	16805.05
505.01	17247.41
505.18	16751.21
505.36	17032.08
505.53	16809.73
505.71	16779.30
505.88	17104.64
506.06	17085.91
506.23	17149.11
506.41	17420.61
506.58	17352.73
506.76	17338.69
506.93	17252.09
507.11	17479.12
507.28	17703.81
507.46	17394.86
507.63	17439.33
507.81	17556.36
507.98	17727.22
508.16	17774.03
508.33	17624.23
508.50	17619.55
508.68	17893.40
508.85	18146.17
509.03	17951.91
509.20	18363.84
509.38	18122.77
509.55	18101.70
509.73	18235.11
509.90	18087.66
510.08	17954.25
510.25	18197.67
510.42	18490.23
510.60	18504.28
510.77	18815.57
510.95	18569.81
511.12	18637.69
511.30	18415.34
511.47	18782.80
511.64	18700.88
511.82	18712.58
511.99	18890.46
512.17	18838.97
512.34	19122.18
512.51	18583.85
512.69	19192.39
512.86	19021.53
513.04	19351.55
513.21	19234.52
513.38	19461.55
513.56	19194.73
513.73	19269.63
513.90	19286.01
514.08	19442.83
514.25	19459.21
514.43	19477.94
514.60	19627.73
514.77	19440.49
514.95	19723.69
515.12	19667.52
515.29	19522.41
515.47	19702.63
515.64	19981.15
515.81	19749.44
515.99	20053.71
516.16	20262.02
516.33	20070.09
516.51	19946.05
516.68	20376.70
516.85	20252.66
517.03	20332.23
517.20	20393.09
517.37	20149.67
517.54	20507.77
517.72	20229.25
517.89	20219.89
518.06	20430.54
518.24	20587.35
518.41	20430.54
518.58	20767.57
518.75	20634.16
518.93	20800.34
519.10	20695.02
519.27	20954.82
519.45	20774.60
519.62	21233.34
519.79	20830.77
519.96	20795.66
520.14	21242.70
520.31	20680.97
520.48	21191.21
520.65	21095.25
520.83	21261.43
521.00	21329.30
521.17	21549.31
521.34	21266.11
521.52	21446.33
521.69	21380.79
521.86	21642.93
522.03	21427.60
522.20	21481.44
522.38	21647.61
522.55	21776.34
522.72	21781.03
522.89	21874.65
523.07	22132.11
523.24	22022.10
523.41	21900.39
523.58	21832.52
523.75	22073.59
523.92	21802.09
524.10	21788.05
524.27	22087.64
524.44	22307.65
524.61	22295.94
524.78	22665.75
524.96	22223.39
525.13	22459.78
525.30	22520.63
525.47	22171.89
525.64	22520.63
525.81	22661.07
525.98	22616.60
526.16	22808.52
526.33	22321.69
526.50	22773.41
526.67	22541.70
526.84	22876.40
527.01	22501.91
527.18	22951.29
527.36	22871.72
527.53	23133.86
527.70	23124.49
527.87	23133.86
528.04	22712.56
528.21	23208.75
528.38	23168.96
528.55	23002.78
528.72	23110.45
528.89	23381.95
529.07	23140.88
529.24	23124.49
529.41	23229.82
529.58	23084.70
529.75	23421.74
529.92	23218.11
530.09	23403.02
530.26	23288.33
530.43	23419.40
530.60	23559.83
530.77	23620.69
530.94	23683.88
531.11	23559.83
531.28	23587.92
531.46	23583.24
531.63	23594.94
531.80	23517.70
531.97	24163.69
532.14	24049.00
532.31	24009.22
532.48	23840.70
532.65	24039.64
532.82	23828.99
532.99	24269.01
533.16	23924.96
533.33	24147.31
533.50	24411.79
533.67	24077.09
533.84	24107.52
534.01	24269.01
534.18	23971.77
534.35	24416.47
534.52	24372.00
534.69	24491.37
534.86	24432.85
535.03	24140.29
535.20	24374.34
535.37	24456.26
535.54	24575.62
535.71	24526.47
535.88	24126.24
536.05	24322.85
536.22	24423.49
536.38	25034.37
536.55	24812.02
536.72	24905.64
536.89	24734.78
537.06	24613.07
537.23	24800.32
537.40	24643.50
537.57	24788.61
537.74	24996.92
537.91	25111.61
538.08	25088.20
538.25	24500.73
538.42	24994.58
538.59	24968.84
538.75	25125.65
538.92	24973.52
539.09	25418.22
539.26	25418.22
539.43	25200.55
539.60	25769.30
539.77	25539.93
539.94	25748.23
540.11	25280.13
540.28	25245.02
540.44	25450.99
540.61	25055.43
540.78	25113.95
540.95	25706.10
541.12	25399.49
541.29	25741.21
541.46	25881.64
541.62	25511.84
541.79	25460.35
541.96	25359.70
542.13	25502.48
542.30	25640.57
542.47	25680.36
542.63	25839.51
542.80	26096.97
542.97	26148.46
543.14	26085.27
543.31	25993.99
543.48	26113.36
543.64	25998.67
543.81	26099.31
543.98	26532.31
544.15	26143.78
544.32	26391.88
544.48	26256.13
544.65	26167.19
544.82	26228.04
544.99	26087.61
545.16	26658.70
545.32	26410.60
545.49	26813.18
545.66	26698.49
545.83	26464.44
546.00	26897.44
546.16	26604.87
546.33	26382.52
546.50	26391.88
546.67	26621.25
546.83	26611.89
547.00	26567.42
547.17	26682.11
547.34	26595.51
547.50	26843.60
547.67	27094.04
547.84	26448.05
548.00	26857.65
548.17	27101.06
548.34	26991.06
548.51	27105.74
548.67	27440.44
548.84	26838.92
549.01	27307.03
549.18	26824.88
549.34	26817.86
549.51	27126.81
549.68	26867.01
549.84	26881.05
550.01	27152.55
550.18	26792.11
550.34	27075.32
550.51	27290.65
550.68	26998.08
550.84	27414.69
551.01	27215.75
551.18	27028.51
551.34	26799.13
551.51	27611.30
551.68	27185.32
551.84	27431.08
552.01	27625.34
552.18	27489.59
552.34	27356.18
552.51	27702.58
552.68	27407.67
552.84	27566.83
553.01	27676.83
553.18	27819.61
553.34	27878.12
553.51	27353.84
553.67	27857.06
553.84	27702.58
554.01	27651.09
554.17	27798.54
554.34	27597.26
554.51	27751.73
554.67	27538.74
554.84	27793.86
555.00	27653.43
555.17	27950.68
555.33	27967.06
555.50	27723.65
555.67	27660.45
555.83	27838.33
556.00	27934.29
556.16	27992.81
556.33	27889.82
556.50	27997.49
556.66	28056.00
556.83	28086.43
556.99	28081.75
557.16	28374.31
557.32	28135.58
557.49	28315.80
557.65	28343.89
557.82	28254.95
557.98	28477.30
558.15	28018.55
558.32	28507.72
558.48	28191.75
558.65	28472.62
558.81	28676.24
558.98	28381.34
559.14	28683.27
559.31	27922.59
559.47	28142.60
559.64	28357.93
559.80	28182.39
559.97	28673.90
560.13	28339.21
560.30	28463.25
560.46	28945.41
560.63	28311.12
560.79	28418.78
560.96	28472.62
561.12	28732.42
561.29	28287.71
561.45	28322.82
561.61	28765.18
561.78	28481.98
561.94	28858.81
562.11	28950.09
562.27	28727.74
562.44	28318.14
562.60	28863.49
562.77	28594.32
562.93	28678.58
563.10	29036.69
563.26	29043.71
563.42	28907.96
563.59	28760.50
563.75	28811.99
563.92	28568.58
564.08	28648.16
564.24	28870.51
564.41	28943.06
564.57	28589.64
564.74	28898.59
564.90	29134.99
565.07	28496.02
565.23	28699.65
565.39	29029.66
565.56	28833.06
565.72	28811.99
565.88	29041.37
566.05	28797.95
566.21	28877.53
566.38	28849.44
566.54	29181.80
566.70	29069.45
566.87	29032.00
567.03	29046.05
567.19	29364.36
567.36	29139.67
567.52	28989.88
567.68	29294.14
567.85	28896.25
568.01	29205.20
568.17	29364.36
568.34	29209.89
568.50	29083.50
568.66	28950.09
568.83	29078.82
568.99	29244.99
569.15	29146.69
569.32	29017.96
569.48	28833.06
569.64	29476.71
569.81	29099.88
569.97	29186.48
570.13	29537.56
570.30	28924.34
570.46	29355.00
570.62	29376.06
570.78	29008.60
570.95	28854.12
571.11	28933.70
571.27	29067.11
571.43	29291.80
571.60	29535.22
571.76	29244.99
571.92	29146.69
572.09	29378.40
572.25	29214.57
572.41	29352.66
572.57	29048.39
572.74	29095.20
572.90	29230.95
573.06	29450.96
573.22	29057.75
573.38	29214.57
573.55	28786.25
573.71	29621.82
573.87	29575.01
574.03	29486.07
574.20	29544.58
574.36	29355.00
574.52	29160.73
574.68	28900.94
574.84	29312.87
575.01	29186.48
575.17	29418.19
575.33	29186.48
575.49	29371.38
575.65	29483.73
575.82	29378.40
575.98	29806.72
576.14	29422.87
576.30	29385.43
576.46	29347.98
576.62	29326.91
576.79	29237.97
576.95	29605.44
577.11	29376.06
577.27	29652.25
577.43	29720.12
577.59	29282.44
577.75	29692.04
577.92	29228.61
578.08	29170.10
578.24	29219.25
578.40	29652.25
578.56	29457.98
578.72	29567.99
578.88	29846.51
579.04	30134.40
579.21	29340.96
579.37	29724.80
579.53	29600.76
579.69	29350.32
579.85	29336.27
580.01	29113.92
580.17	29326.91
580.33	29460.32
580.49	29509.47
580.65	29570.33
580.82	29558.63
580.98	29560.97
581.14	29607.78
581.30	30029.07
581.46	29432.24
581.62	29649.91
581.78	29462.66
581.94	29289.46
582.10	29326.91
582.26	29846.51
582.42	29563.31
582.58	29844.17
582.74	29516.50
582.90	29858.21
583.06	29886.30
583.22	29905.02
583.38	29177.12
583.54	29558.63
583.70	29455.64
583.86	29404.15
584.02	29607.78
584.18	29795.02
584.34	29617.14
584.50	29813.74
584.66	29710.76
584.82	29577.35
584.98	29729.48
585.14	29443.94
585.30	29432.24
585.46	29638.20
585.62	29661.61
585.78	29755.23
585.94	29453.30
586.10	29738.85
586.26	29736.51
586.42	30008.01
586.58	29504.79
586.74	29493.09
586.90	29460.32
587.06	29443.94
587.22	29954.18
587.38	29500.11
587.54	29584.37
587.70	29909.71
587.86	29757.57
588.02	29933.11
588.18	29874.60
588.34	29584.37
588.49	29806.72
588.65	29553.94
588.81	29923.75
588.97	29542.24
589.13	29900.34
589.29	29689.70
589.45	29883.96
589.61	29425.22
589.77	29944.81
589.93	30012.69
590.08	29965.88
590.24	30017.37
590.40	29823.11
590.56	29888.64
590.72	29972.90
590.88	29703.74
591.04	29996.31
591.20	30153.12
591.35	30312.28
591.51	30106.31
591.67	29984.60
591.83	30422.28
591.99	30022.05
