SpectraSuite Data File
++++++++++++++++++++++++++++++++++++
Date: Fri Oct 18 13:58:34 GMT-05:00 2013
User: bianchi
Dark Spectrum Present: No
Reference Spectrum Present: No
Number of Sampled Component Spectra: 1
Spectrometers: USB2+H05261
Integration Time (usec): 50000 (USB2+H05261)
Spectra Averaged: 1 (USB2+H05261)
Boxcar Smoothing: 0 (USB2+H05261)
Correct for Electrical Dark: No (USB2+H05261)
Strobe/Lamp Enabled: No (USB2+H05261)
Correct for Detector Non-linearity: No (USB2+H05261)
Correct for Stray Light: No (USB2+H05261)
Number of Pixels in Processed Spectrum: 2048
>>>>>Begin Processed Spectral Data<<<<<
365.73	4.68
365.92	4.68
366.12	4.68
366.32	0.00
366.52	0.00
366.72	0.00
366.91	0.00
367.11	0.00
367.31	0.00
367.51	0.00
367.70	0.00
367.90	0.00
368.10	0.00
368.30	0.00
368.49	0.00
368.69	0.00
368.89	0.00
369.09	0.00
369.28	0.00
369.48	0.00
369.68	0.00
369.87	0.00
370.07	0.00
370.27	0.00
370.47	0.00
370.66	107.66
370.86	112.35
371.06	131.07
371.25	173.20
371.45	222.35
371.65	149.79
371.84	224.69
372.04	147.45
372.24	220.01
372.44	154.48
372.63	205.97
372.83	201.29
373.03	250.44
373.22	149.79
373.42	243.42
373.62	114.69
373.81	203.63
374.01	290.23
374.21	318.31
374.40	210.65
374.60	224.69
374.79	182.56
374.99	292.57
375.19	243.42
375.38	259.80
375.58	264.48
375.78	236.39
375.97	299.59
376.17	273.84
376.37	318.31
376.56	311.29
376.76	313.63
376.95	299.59
377.15	257.46
377.35	262.14
377.54	407.25
377.74	248.10
377.93	294.91
378.13	203.63
378.33	292.57
378.52	227.03
378.72	227.03
378.91	287.89
379.11	283.20
379.31	344.06
379.50	299.59
379.70	252.78
379.89	266.82
380.09	320.65
380.28	234.05
380.48	299.59
380.68	301.93
380.87	269.16
381.07	346.40
381.26	301.93
381.46	292.57
381.65	299.59
381.85	252.78
382.04	374.49
382.24	362.78
382.43	325.33
382.63	341.72
382.83	369.80
383.02	351.08
383.22	379.17
383.41	358.10
383.61	379.17
383.80	330.02
384.00	353.42
384.19	388.53
384.39	334.70
384.58	353.42
384.78	330.02
384.97	414.27
385.17	353.42
385.36	313.63
385.56	358.10
385.75	400.23
385.95	395.55
386.14	372.15
386.34	503.22
386.53	451.72
386.72	393.21
386.92	400.23
387.11	456.40
387.31	468.11
387.50	409.59
387.70	514.92
387.89	442.36
388.09	435.34
388.28	463.43
388.48	369.80
388.67	470.45
388.86	362.78
389.06	444.70
389.25	470.45
389.45	550.03
389.64	435.34
389.84	477.47
390.03	468.11
390.22	491.51
390.42	524.28
390.61	482.15
390.81	454.06
391.00	479.81
391.19	517.26
391.39	447.04
391.58	486.83
391.78	526.62
391.97	524.28
392.16	505.56
392.36	507.90
392.55	493.85
392.75	571.09
392.94	585.13
393.13	521.94
393.33	538.32
393.52	634.29
393.71	561.73
393.91	533.64
394.10	517.26
394.29	580.45
394.49	550.03
394.68	683.44
394.88	566.41
395.07	589.82
395.26	648.33
395.46	592.16
395.65	599.18
395.84	526.62
396.04	732.59
396.23	638.97
396.42	641.31
396.62	683.44
396.81	662.37
397.00	603.86
397.19	746.63
397.39	683.44
397.58	772.38
397.77	667.05
397.97	662.37
398.16	622.58
398.35	704.50
398.55	702.16
398.74	706.84
398.93	755.99
399.12	774.72
399.32	718.54
399.51	758.33
399.70	709.18
399.90	681.10
400.09	690.46
400.28	861.32
400.47	798.12
400.67	809.83
400.86	835.57
401.05	784.08
401.24	777.06
401.44	725.57
401.63	919.83
401.82	816.85
402.01	795.78
402.21	788.76
402.40	737.27
402.59	844.93
402.78	875.36
402.97	798.12
403.17	849.61
403.36	875.36
403.55	856.64
403.74	823.87
403.93	894.08
404.13	915.15
404.32	917.49
404.51	854.30
404.70	936.21
404.89	847.27
405.09	968.98
405.28	959.62
405.47	985.37
405.66	959.62
405.85	983.02
406.05	1048.56
406.24	959.62
406.43	994.73
406.62	1039.20
406.81	1060.26
407.00	968.98
407.20	1015.79
407.39	1022.81
407.58	1006.43
407.77	1053.24
407.96	1177.29
408.15	1118.78
408.34	1041.54
408.54	1015.79
408.73	1125.80
408.92	1046.22
409.11	1043.88
409.30	1107.07
409.49	1128.14
409.68	1029.84
409.87	1210.06
410.07	1118.78
410.26	1111.75
410.45	1167.93
410.64	1181.97
410.83	1179.63
411.02	1242.82
411.21	1259.21
411.40	1160.91
411.59	1214.74
411.78	1196.01
411.98	1200.69
412.17	1191.33
412.36	1240.48
412.55	1343.47
412.74	1348.15
412.93	1324.74
413.12	1441.77
413.31	1383.26
413.50	1420.71
413.69	1343.47
413.88	1359.85
414.07	1469.86
414.26	1474.54
414.45	1514.33
414.64	1481.56
414.83	1446.45
415.02	1490.92
415.22	1577.52
415.41	1511.99
415.60	1523.69
415.79	1565.82
415.98	1556.46
416.17	1652.42
416.36	1598.59
416.55	1542.41
416.74	1593.90
416.93	1657.10
417.12	1673.48
417.31	1762.42
417.50	1643.06
417.69	1699.23
417.88	1734.34
418.07	1708.59
418.26	1769.44
418.45	1795.19
418.64	1860.73
418.83	1834.98
419.02	1849.02
419.21	1858.39
419.39	1863.07
419.58	1797.53
419.77	1727.32
419.96	1851.36
420.15	1907.54
420.34	1842.00
420.53	1853.70
420.72	1949.67
420.91	1874.77
421.10	1944.99
421.29	2024.56
421.48	1884.13
421.67	1952.01
421.86	1895.83
422.05	2066.69
422.24	1912.22
422.43	1881.79
422.61	1977.75
422.80	1966.05
422.99	1994.14
423.18	2008.18
423.37	2106.48
423.56	1987.11
423.75	1970.73
423.94	1916.90
424.13	1764.76
424.32	2012.86
424.50	2104.14
424.69	2078.40
424.88	2134.57
425.07	2104.14
425.26	2015.20
425.45	2017.54
425.64	2064.35
425.83	1994.14
426.01	2036.27
426.20	2050.31
426.39	1970.73
426.58	1994.14
426.77	1888.81
426.96	2019.88
427.15	2235.21
427.33	2069.03
427.52	1998.82
427.71	2186.06
427.90	2207.13
428.09	2115.84
428.28	2087.76
428.46	2073.71
428.65	2129.89
428.84	2298.41
429.03	2310.11
429.22	2228.19
429.40	2244.57
429.59	2204.78
429.78	2052.65
429.97	2113.50
430.16	2328.83
430.34	2197.76
430.53	2293.72
430.72	2335.85
430.91	2263.30
431.10	2244.57
431.28	2303.09
431.47	2438.84
431.66	2354.58
431.85	2434.16
432.03	2424.80
432.22	2553.52
432.41	2335.85
432.60	2525.44
432.79	2396.71
432.97	2382.67
433.16	2546.50
433.35	2509.05
433.54	2513.74
433.72	2537.14
433.91	2399.05
434.10	2516.08
434.28	2541.82
434.47	2560.55
434.66	2523.10
434.85	2642.46
435.03	2614.38
435.22	2677.57
435.41	2668.21
435.59	2609.70
435.78	2686.94
435.97	2693.96
436.16	2665.87
436.34	2773.53
436.53	2635.44
436.72	2703.32
436.90	2600.34
437.09	2682.25
437.28	2689.28
437.46	2764.17
437.65	2712.68
437.84	2757.15
438.02	2768.85
438.21	2752.47
438.40	2799.28
438.58	2892.90
438.77	2888.22
438.96	2801.62
439.14	2752.47
439.33	2988.86
439.52	2932.69
439.70	2923.33
439.89	3026.31
440.08	2935.03
440.26	3045.04
440.45	3070.78
440.63	3045.04
440.82	3143.34
441.01	3124.62
441.19	3150.36
441.38	3211.22
441.57	3110.57
441.75	3169.09
441.94	3138.66
442.12	3157.38
442.31	3246.32
442.50	3272.07
442.68	3358.67
442.87	3227.60
443.05	3393.78
443.24	3426.54
443.43	3379.73
443.61	3293.13
443.80	3414.84
443.98	3363.35
444.17	3243.98
444.35	3396.12
444.54	3431.23
444.73	3342.28
444.91	3550.59
445.10	3478.04
445.28	3349.31
445.47	3262.71
445.65	3419.52
445.84	3419.52
446.02	3485.06
446.21	3475.70
446.39	3499.10
446.58	3531.87
446.77	3581.02
446.95	3454.63
447.14	3623.15
447.32	3473.36
447.51	3410.16
447.69	3478.04
447.88	3382.07
448.06	3531.87
448.25	3536.55
448.43	3492.08
448.62	3456.97
448.80	3471.01
448.99	3569.32
449.17	3471.01
449.36	3632.51
449.54	3623.15
449.73	3667.62
449.91	3726.13
450.10	3618.47
450.28	3744.86
450.46	3695.71
450.65	3667.62
450.83	3709.75
451.02	3709.75
451.20	3803.37
451.39	3765.92
451.57	3700.39
451.76	3740.18
451.94	3765.92
452.13	3772.94
452.31	3908.69
452.49	3707.41
452.68	3822.09
452.86	3929.76
453.05	3880.61
453.23	3904.01
453.42	3784.65
453.60	3815.07
453.78	4028.06
453.97	3901.67
454.15	3875.93
454.34	3997.64
454.52	4004.66
454.70	4037.42
454.89	4117.00
455.07	4140.41
455.26	4016.36
455.44	4074.87
455.62	3983.59
455.81	4023.38
455.99	4177.86
456.17	4128.70
456.36	4046.79
456.54	4203.60
456.73	4154.45
456.91	4262.12
457.09	4257.43
457.28	4337.01
457.46	4219.99
457.64	4320.63
457.83	4203.60
458.01	4091.26
458.19	4409.57
458.38	4372.12
458.56	4414.25
458.74	4337.01
458.93	4334.67
459.11	4285.52
459.29	4447.02
459.48	4376.80
459.66	4519.57
459.84	4404.89
460.03	4674.05
460.21	4477.44
460.39	4575.75
460.57	4489.15
460.76	4496.17
460.94	4596.81
461.12	4634.26
461.31	4603.83
461.49	4458.72
461.67	4507.87
461.85	4748.95
462.04	4603.83
462.22	4692.77
462.40	4765.33
462.59	4685.75
462.77	4634.26
462.95	4709.16
463.13	4802.78
463.32	4915.12
463.50	4753.63
463.68	4795.76
463.86	4875.34
464.05	4943.21
464.23	4919.81
464.41	4823.84
464.59	4795.76
464.78	4945.55
464.96	4854.27
465.14	4856.61
465.32	4828.53
465.50	5036.83
465.69	4983.00
465.87	4936.19
466.05	4915.12
466.23	4975.98
466.41	5151.52
466.60	5231.10
466.78	4875.34
466.96	5018.11
467.14	5034.49
467.32	5034.49
467.51	5160.88
467.69	5060.24
467.87	5193.65
468.05	5170.24
468.23	5151.52
468.41	5107.05
468.60	5214.71
468.78	5324.72
468.96	5125.77
469.14	5298.97
469.32	5240.46
469.50	5336.42
469.69	5334.08
469.87	5320.04
470.05	5474.51
470.23	5401.96
470.41	5376.21
470.59	5467.49
470.77	5502.60
470.95	5439.40
471.14	5600.90
471.32	5518.98
471.50	5748.36
471.68	5518.98
471.86	5537.71
472.04	5710.91
472.22	5579.84
472.40	5673.46
472.58	5643.03
472.77	5626.65
472.95	5846.66
473.13	6036.24
473.31	5652.39
473.49	5687.50
473.67	5666.44
473.85	5905.17
474.03	5921.56
474.21	5980.07
474.39	5921.56
474.57	5928.58
474.75	6076.03
474.93	6066.67
475.12	5987.09
475.30	6083.05
475.48	6099.44
475.66	6195.40
475.84	6076.03
476.02	6333.49
476.20	6303.06
476.38	6345.19
476.56	6459.88
476.74	6209.44
476.92	6239.87
477.10	6679.89
477.28	6707.98
477.46	6497.33
477.64	6679.89
477.82	6916.28
478.00	7082.46
478.18	7009.90
478.36	6970.12
478.54	7033.31
478.72	7070.76
478.90	7054.37
479.08	7155.02
479.26	7232.26
479.44	7316.51
479.62	7410.14
479.80	7475.67
479.98	7424.18
480.16	7339.92
480.34	7515.46
480.52	7679.30
480.70	7658.23
480.88	7503.76
481.06	7672.28
481.24	7698.02
481.41	7686.32
481.59	7843.14
481.77	8011.65
481.95	7819.73
482.13	8067.83
482.31	7885.26
482.49	8468.06
482.67	8198.90
482.85	8430.61
483.03	8430.61
483.21	8547.64
483.39	8526.57
483.57	8458.70
483.74	8582.74
483.92	8538.27
484.10	8589.77
484.28	8924.46
484.46	9029.79
484.64	9071.92
484.82	9011.06
485.00	8898.72
485.18	9121.07
485.35	9329.38
485.53	9231.07
485.71	9401.93
485.89	9685.14
486.07	9556.41
486.25	9528.32
486.43	9664.07
486.61	9493.21
486.78	9699.18
486.96	9827.91
487.14	10190.69
487.32	9813.87
487.50	10036.22
487.68	10209.42
487.85	10176.65
488.03	10473.90
488.21	10251.55
488.39	10441.13
488.57	10487.94
488.75	10661.14
488.92	10803.91
489.10	10949.03
489.28	10775.83
489.46	11056.69
489.64	11098.82
489.81	11403.09
489.99	11150.31
490.17	11379.68
490.35	11482.67
490.53	11297.77
490.70	11508.41
490.88	11637.14
491.06	11651.19
491.24	11623.10
491.41	11894.60
491.59	11857.15
491.77	11950.78
491.95	12053.76
492.13	12093.55
492.30	12367.39
492.48	12072.48
492.66	12077.16
492.84	12395.48
493.01	12528.89
493.19	12566.34
493.37	12671.66
493.54	12828.48
493.72	12723.15
493.90	12650.60
494.08	12999.34
494.25	12980.61
494.43	13158.49
494.61	13238.07
494.79	13022.74
494.96	13429.99
495.14	13015.72
495.32	13371.48
495.49	13788.10
495.67	13500.21
495.85	13860.65
496.02	13589.15
496.20	13963.64
496.38	13771.71
496.55	13755.33
496.73	14085.34
496.91	14155.56
497.09	14363.87
497.26	14068.96
497.44	14398.98
497.62	14223.44
497.79	14377.91
497.97	14590.90
498.14	14705.59
498.32	14857.72
498.50	14988.79
498.67	14799.21
498.85	14731.33
499.03	14993.47
499.20	14878.79
499.38	15176.03
499.56	15068.37
499.73	15138.58
499.91	15199.44
500.08	15337.53
500.26	15248.59
500.44	15391.36
500.61	15339.87
500.79	15374.98
500.97	15456.90
501.14	15733.08
501.32	15709.68
501.49	15894.58
501.67	15676.91
501.84	15887.56
502.02	15660.52
502.20	15768.19
502.37	15864.15
502.55	15829.04
502.72	16243.32
502.90	16252.68
503.07	16093.52
503.25	16109.91
503.43	16084.16
503.60	16575.67
503.78	16643.55
503.95	16479.71
504.13	16582.70
504.30	16505.46
504.48	16592.06
504.65	16627.17
504.83	16814.41
505.01	16837.81
505.18	17048.46
505.36	17106.98
505.53	17090.59
505.71	17137.40
505.88	16879.94
506.06	16989.95
506.23	17128.04
506.41	17516.57
506.58	17418.27
506.76	17170.17
506.93	17212.30
507.11	17118.68
507.28	17530.61
507.46	17575.08
507.63	17645.30
507.81	17778.71
507.98	17848.93
508.16	17935.53
508.33	17649.98
508.50	17837.22
508.68	18111.07
508.85	18300.65
509.03	17642.96
509.20	18249.16
509.38	18153.20
509.55	18307.67
509.73	18333.42
509.90	18256.18
510.08	18211.71
510.25	18307.67
510.42	18274.90
510.60	18478.53
510.77	18813.23
510.95	18810.89
511.12	18391.93
511.30	18487.89
511.47	18658.75
511.64	18806.20
511.82	18888.12
511.99	18661.09
512.17	19168.99
512.34	18888.12
512.51	18958.34
512.69	19435.81
512.86	19461.55
513.04	19131.54
513.21	19215.80
513.38	19793.91
513.56	19393.68
513.73	19314.10
513.90	19414.74
514.08	19117.50
514.25	19461.55
514.43	19571.56
514.60	19627.73
514.77	19730.72
514.95	19901.58
515.12	19611.35
515.29	19531.77
515.47	19779.87
515.64	19960.09
515.81	19756.46
515.99	19817.32
516.16	20446.92
516.33	20130.95
516.51	20109.88
516.68	20009.24
516.85	20107.54
517.03	20222.23
517.20	20332.23
517.37	20475.01
517.54	20643.52
517.72	20390.75
517.89	20233.93
518.06	20643.52
518.24	20622.46
518.41	20507.77
518.58	20657.57
518.75	20765.23
518.93	20919.71
519.10	20297.13
519.27	20952.48
519.45	20636.50
519.62	20924.39
519.79	20893.96
519.96	20664.59
520.14	21273.13
520.31	21060.14
520.48	21296.53
520.65	21022.69
520.83	21263.77
521.00	21228.66
521.17	21284.83
521.34	21233.34
521.52	21233.34
521.69	21362.07
521.86	21266.11
522.03	21949.54
522.20	21661.66
522.38	21750.60
522.55	21717.83
522.72	21834.86
522.89	21696.77
523.07	22279.56
523.24	22225.73
523.41	22263.18
523.58	21546.97
523.75	22008.06
523.92	22038.48
524.10	22061.89
524.27	22434.03
524.44	22125.08
524.61	22328.71
524.78	22691.49
524.96	22520.63
525.13	22319.35
525.30	22389.56
525.47	22328.71
525.64	22583.83
525.81	22876.40
525.98	22768.73
526.16	22555.74
526.33	22806.18
526.50	22640.00
526.67	22813.20
526.84	22309.99
527.01	22644.68
527.18	22754.69
527.36	23159.60
527.53	22799.16
527.70	23122.15
527.87	23180.67
528.04	22993.42
528.21	23344.50
528.38	23126.83
528.55	23047.26
528.72	22693.83
528.89	23194.71
529.07	23131.51
529.24	23152.58
529.41	23056.62
529.58	23508.34
529.75	23424.08
529.92	23445.15
530.09	23391.31
530.26	23255.56
530.43	23468.55
530.60	23555.15
530.77	23442.81
530.94	23424.08
531.11	23328.12
531.28	23360.89
531.46	23655.79
531.63	24032.62
531.80	23939.00
531.97	23901.55
532.14	23971.77
532.31	23997.51
532.48	23946.02
532.65	23819.63
532.82	23924.96
532.99	24058.37
533.16	24212.84
533.33	24304.12
533.50	24542.86
533.67	24294.76
533.84	23859.42
534.01	24091.13
534.18	24011.56
534.35	24460.94
534.52	24451.58
534.69	24533.50
534.86	24531.15
535.03	24250.29
535.20	24683.29
535.37	24254.97
535.54	24577.97
535.71	24280.72
535.88	24711.38
536.05	24608.39
536.22	25013.31
536.38	25130.33
536.55	24865.85
536.72	24643.50
536.89	24915.00
537.06	24926.71
537.23	24706.70
537.40	25116.29
537.57	24931.39
537.74	25039.05
537.91	25221.61
538.08	25104.59
538.25	25048.41
538.42	25039.05
538.59	25282.47
538.75	24959.47
538.92	25322.26
539.09	25142.03
539.26	25469.71
539.43	25364.39
539.60	25289.49
539.77	25476.73
539.94	25638.23
540.11	25357.36
540.28	25593.76
540.44	25268.42
540.61	25319.92
540.78	25179.48
540.95	25671.00
541.12	25575.03
541.29	25462.69
541.46	25516.52
541.62	25837.17
541.79	25460.35
541.96	25504.82
542.13	25879.30
542.30	25975.27
542.47	25717.81
542.63	25930.80
542.80	25862.92
542.97	26501.89
543.14	26380.18
543.31	26382.52
543.48	26197.62
543.64	26403.58
543.81	26391.88
543.98	26225.70
544.15	26581.46
544.32	26429.33
544.48	26703.17
544.65	26017.40
544.82	26265.49
544.99	26075.91
545.16	26305.28
545.32	26611.89
545.49	26813.18
545.66	26724.24
545.83	26651.68
546.00	26740.62
546.16	26986.38
546.33	26471.46
546.50	26560.40
546.67	26352.09
546.83	26401.24
547.00	26986.38
547.17	26630.62
547.34	26649.34
547.50	27009.78
547.67	27292.99
547.84	26902.12
548.00	26852.97
548.17	26852.97
548.34	27236.81
548.51	27358.52
548.67	26845.94
548.84	27129.15
549.01	26892.76
549.18	27250.86
549.34	27215.75
549.51	27304.69
549.68	27208.73
549.84	26937.23
550.01	27496.61
550.18	27168.94
550.34	27190.00
550.51	27447.46
550.68	27585.55
550.84	27590.24
551.01	27733.01
551.18	26698.49
551.34	27080.00
551.51	27295.33
551.68	27494.27
551.84	27138.51
552.01	27248.52
552.18	27690.88
552.34	27391.29
552.51	27660.45
552.68	27285.97
552.84	27606.62
553.01	27637.05
553.18	27541.08
553.34	27915.57
553.51	27981.10
553.67	27679.18
553.84	27974.08
554.01	27948.34
554.17	28187.07
554.34	27988.13
554.51	27758.75
554.67	27915.57
554.84	27873.44
555.00	27967.06
555.17	27985.79
555.33	27941.32
555.50	27894.50
555.67	28287.71
555.83	28037.28
556.00	27711.94
556.16	28353.25
556.33	27871.10
556.50	27716.62
556.66	28404.74
556.83	28182.39
556.99	28542.83
557.16	28320.48
557.32	28470.28
557.49	28100.47
557.65	28210.48
557.82	28180.05
557.98	28287.71
558.15	28292.40
558.32	28491.34
558.48	28121.54
558.65	28666.88
558.81	28594.32
558.98	28554.54
559.14	28416.44
559.31	28072.39
559.47	28369.63
559.64	28435.17
559.80	28388.36
559.97	28603.69
560.13	28582.62
560.30	28376.66
560.46	28896.25
560.63	28531.13
560.79	28758.16
560.96	28507.72
561.12	28327.50
561.29	28716.03
561.45	28519.43
561.61	28554.54
561.78	28428.15
561.94	28978.17
562.11	29123.29
562.27	29003.92
562.44	28711.35
562.60	28524.11
562.77	28575.60
562.93	28701.99
563.10	28655.18
563.26	28725.39
563.42	28701.99
563.59	28514.75
563.75	28896.25
563.92	29006.26
564.08	28819.02
564.24	28854.12
564.41	28622.41
564.57	28851.78
564.74	28985.19
564.90	28987.53
565.07	29252.02
565.23	28762.84
565.39	29226.27
565.56	29448.62
565.72	28884.55
565.88	29053.07
566.05	29282.44
566.21	29048.39
566.38	28886.89
566.54	28725.39
566.70	29083.50
566.87	29486.07
567.03	29263.72
567.19	29319.89
567.36	28978.17
567.52	29123.29
567.68	29113.92
567.85	28854.12
568.01	29202.86
568.17	28929.02
568.34	29434.58
568.50	28945.41
568.66	29146.69
568.83	29481.39
568.99	29394.79
569.15	29273.08
569.32	29209.89
569.48	29422.87
569.64	29252.02
569.81	29338.62
569.97	28900.94
570.13	29322.23
570.30	29081.16
570.46	29436.92
570.62	29376.06
570.78	29125.63
570.95	29139.67
571.11	29366.70
571.27	29237.97
571.43	29275.42
571.60	29457.98
571.76	29340.96
571.92	29738.85
572.09	29305.85
572.25	29598.41
572.41	29579.69
572.57	29158.39
572.74	29504.79
572.90	29219.25
573.06	29216.91
573.22	29511.81
573.38	29476.71
573.55	29303.51
573.71	29598.41
573.87	29738.85
574.03	29237.97
574.20	29130.31
574.36	29200.52
574.52	29514.16
574.68	29214.57
574.84	29514.16
575.01	29811.40
575.17	29591.39
575.33	29689.70
575.49	29631.18
575.65	29490.75
575.82	30082.91
575.98	29535.22
576.14	29930.77
576.30	29675.65
576.46	29144.35
576.62	29301.17
576.79	29731.83
576.95	29802.04
577.11	29666.29
577.27	29834.81
577.43	29717.78
577.59	29418.19
577.75	29490.75
577.92	29296.49
578.08	29415.85
578.24	29465.00
578.40	29546.92
578.56	29670.97
578.72	29823.11
578.88	29825.45
579.04	30167.16
579.21	29776.30
579.37	29752.89
579.53	29844.17
579.69	29420.53
579.85	29881.62
580.01	29577.35
580.17	29177.12
580.33	29518.84
580.49	29663.95
580.65	29769.27
580.82	29638.20
580.98	29703.74
581.14	29556.28
581.30	29479.05
581.46	29598.41
581.62	29619.48
581.78	29530.54
581.94	29692.04
582.10	29628.84
582.26	29216.91
582.42	29937.79
582.58	29865.24
582.74	29448.62
582.90	29996.31
583.06	29940.13
583.22	29633.52
583.38	29633.52
583.54	29453.30
583.70	29788.00
583.86	29610.12
584.02	29710.76
584.18	30101.63
584.34	29631.18
584.50	29813.74
584.66	29926.09
584.82	29324.57
584.98	29956.52
585.14	29558.63
585.30	29357.34
585.46	29860.55
585.62	29539.90
585.78	29457.98
585.94	29694.38
586.10	29930.77
586.26	30040.78
586.42	30213.98
586.58	30099.29
586.74	29638.20
586.90	29537.56
587.06	29392.45
587.22	29958.86
587.38	29724.80
587.54	29914.39
587.70	30071.20
587.86	30031.41
588.02	30061.84
588.18	30113.33
588.34	29977.58
588.49	30015.03
588.65	29663.95
588.81	29780.98
588.97	29584.37
589.13	30052.48
589.29	29575.01
589.45	30101.63
589.61	30043.12
589.77	30382.49
589.93	30616.55
590.08	30326.32
590.24	30197.59
590.40	30085.25
590.56	30017.37
590.72	30190.57
590.88	29986.94
591.04	29841.83
591.20	30281.85
591.35	30059.50
591.51	30448.03
591.67	30281.85
591.83	30132.06
591.99	30443.35
