SpectraSuite Data File
++++++++++++++++++++++++++++++++++++
Date: Fri Oct 18 13:58:17 GMT-05:00 2013
User: bianchi
Dark Spectrum Present: No
Reference Spectrum Present: No
Number of Sampled Component Spectra: 1
Spectrometers: USB2+H05261
Integration Time (usec): 50000 (USB2+H05261)
Spectra Averaged: 1 (USB2+H05261)
Boxcar Smoothing: 0 (USB2+H05261)
Correct for Electrical Dark: No (USB2+H05261)
Strobe/Lamp Enabled: No (USB2+H05261)
Correct for Detector Non-linearity: No (USB2+H05261)
Correct for Stray Light: No (USB2+H05261)
Number of Pixels in Processed Spectrum: 2048
>>>>>Begin Processed Spectral Data<<<<<
365.73	0.00
365.92	0.00
366.12	0.00
366.32	0.00
366.52	0.00
366.72	0.00
366.91	0.00
367.11	0.00
367.31	0.00
367.51	0.00
367.70	0.00
367.90	0.00
368.10	0.00
368.30	0.00
368.49	0.00
368.69	0.00
368.89	0.00
369.09	0.00
369.28	0.00
369.48	0.00
369.68	0.00
369.87	0.00
370.07	0.00
370.27	0.00
370.47	0.00
370.66	124.05
370.86	53.83
371.06	110.01
371.25	154.48
371.45	121.71
371.65	98.30
371.84	187.24
372.04	138.09
372.24	138.09
372.44	215.33
372.63	86.60
372.83	124.05
373.03	170.86
373.22	140.43
373.42	114.69
373.62	145.11
373.81	212.99
374.01	245.76
374.21	271.50
374.40	259.80
374.60	215.33
374.79	212.99
374.99	243.42
375.19	210.65
375.38	201.29
375.58	205.97
375.78	224.69
375.97	280.86
376.17	318.31
376.37	252.78
376.56	189.58
376.76	142.77
376.95	313.63
377.15	273.84
377.35	250.44
377.54	294.91
377.74	236.39
377.93	269.16
378.13	205.97
378.33	301.93
378.52	332.36
378.72	280.86
378.91	229.37
379.11	269.16
379.31	299.59
379.50	292.57
379.70	311.29
379.89	344.06
380.09	278.52
380.28	383.85
380.48	262.14
380.68	327.68
380.87	313.63
381.07	360.44
381.26	346.40
381.46	294.91
381.65	344.06
381.85	266.82
382.04	318.31
382.24	332.36
382.43	311.29
382.63	383.85
382.83	234.05
383.02	301.93
383.22	397.89
383.41	358.10
383.61	365.12
383.80	423.64
384.00	332.36
384.19	332.36
384.39	334.70
384.58	308.95
384.78	402.57
384.97	362.78
385.17	447.04
385.36	334.70
385.56	425.98
385.75	390.87
385.95	414.27
386.14	374.49
386.34	341.72
386.53	402.57
386.72	393.21
386.92	428.32
387.11	449.38
387.31	407.25
387.50	421.30
387.70	379.17
387.89	416.62
388.09	484.49
388.28	416.62
388.48	428.32
388.67	425.98
388.86	479.81
389.06	369.80
389.25	468.11
389.45	521.94
389.64	493.85
389.84	484.49
390.03	514.92
390.22	486.83
390.42	571.09
390.61	454.06
390.81	465.77
391.00	596.84
391.19	463.43
391.39	580.45
391.58	533.64
391.78	505.56
391.97	528.96
392.16	550.03
392.36	592.16
392.55	648.33
392.75	540.66
392.94	475.13
393.13	599.18
393.33	482.15
393.52	531.30
393.71	613.22
393.91	617.90
394.10	634.29
394.29	573.43
394.49	613.22
394.68	575.77
394.88	592.16
395.07	571.09
395.26	575.77
395.46	655.35
395.65	603.86
395.84	601.52
396.04	734.93
396.23	645.99
396.42	664.71
396.62	601.52
396.81	641.31
397.00	636.63
397.19	634.29
397.39	631.94
397.58	660.03
397.77	650.67
397.97	709.18
398.16	596.84
398.35	737.27
398.55	692.80
398.74	791.10
398.93	795.78
399.12	657.69
399.32	727.91
399.51	699.82
399.70	777.06
399.90	734.93
400.09	664.71
400.28	732.59
400.47	781.74
400.67	748.97
400.86	744.29
401.05	798.12
401.24	798.12
401.44	826.21
401.63	779.40
401.82	826.21
402.01	837.91
402.21	919.83
402.40	875.36
402.59	842.59
402.78	858.98
402.97	784.08
403.17	784.08
403.36	854.30
403.55	842.59
403.74	870.68
403.93	823.87
404.13	959.62
404.32	938.55
404.51	1013.45
404.70	901.11
404.89	863.66
405.09	940.90
405.28	922.17
405.47	891.74
405.66	933.87
405.85	976.00
406.05	959.62
406.24	985.37
406.43	983.02
406.62	966.64
406.81	1057.92
407.00	1036.86
407.20	999.41
407.39	1034.52
407.58	1001.75
407.77	1057.92
407.96	1043.88
408.15	1034.52
408.34	1090.69
408.54	1125.80
408.73	1090.69
408.92	1029.84
409.11	1123.46
409.30	1086.01
409.49	1076.65
409.68	1151.54
409.87	1107.07
410.07	1193.67
410.26	1146.86
410.45	1231.12
410.64	1212.40
410.83	1224.10
411.02	1214.74
411.21	1181.97
411.40	1247.51
411.59	1186.65
411.78	1247.51
411.98	1228.78
412.17	1277.93
412.36	1196.01
412.55	1397.30
412.74	1315.38
412.93	1299.00
413.12	1355.17
413.31	1399.64
413.50	1397.30
413.69	1404.32
413.88	1406.66
414.07	1488.58
414.26	1448.79
414.45	1432.41
414.64	1439.43
414.83	1533.05
415.02	1385.60
415.22	1561.14
415.41	1523.69
415.60	1598.59
415.79	1451.13
415.98	1638.38
416.17	1638.38
416.36	1598.59
416.55	1572.84
416.74	1619.65
416.93	1675.82
417.12	1619.65
417.31	1643.06
417.50	1699.23
417.69	1762.42
417.88	1762.42
418.07	1734.34
418.26	1774.13
418.45	1657.10
418.64	1863.07
418.83	1902.86
419.02	1696.89
419.21	1827.96
419.39	1837.32
419.58	1806.89
419.77	1687.53
419.96	1825.62
420.15	1935.62
420.34	1879.45
420.53	1811.57
420.72	1928.60
420.91	1940.30
421.10	1942.64
421.29	1954.35
421.48	1977.75
421.67	1977.75
421.86	1980.09
422.05	2022.22
422.24	2031.58
422.43	1963.71
422.61	1914.56
422.80	1977.75
422.99	2043.29
423.18	1849.02
423.37	1963.71
423.56	2029.24
423.75	1998.82
423.94	1984.77
424.13	1842.00
424.32	1863.07
424.50	1973.07
424.69	2005.84
424.88	2087.76
425.07	1989.46
425.26	1916.90
425.45	2005.84
425.64	2097.12
425.83	1982.43
426.01	2092.44
426.20	2043.29
426.39	2071.37
426.58	2099.46
426.77	2090.10
426.96	2076.06
427.15	2162.66
427.33	1987.11
427.52	2209.47
427.71	2099.46
427.90	2153.29
428.09	2111.16
428.28	2143.93
428.46	2179.04
428.65	2195.42
428.84	2230.53
429.03	2314.79
429.22	2143.93
429.40	2291.38
429.59	2300.75
429.78	2122.87
429.97	2183.72
430.16	2216.49
430.34	2216.49
430.53	2289.04
430.72	2380.32
430.91	2307.77
431.10	2326.49
431.28	2211.81
431.47	2347.56
431.66	2431.82
431.85	2289.04
432.03	2382.67
432.22	2502.03
432.41	2441.18
432.60	2408.41
432.79	2429.48
432.97	2471.61
433.16	2548.84
433.35	2389.69
433.54	2590.97
433.72	2609.70
433.91	2537.14
434.10	2436.50
434.28	2492.67
434.47	2469.27
434.66	2574.59
434.85	2565.23
435.03	2551.18
435.22	2689.28
435.41	2609.70
435.59	2544.16
435.78	2623.74
435.97	2523.10
436.16	2656.51
436.34	2700.98
436.53	2738.43
436.72	2759.49
436.90	2626.08
437.09	2799.28
437.28	2511.39
437.46	2689.28
437.65	2698.64
437.84	2815.66
438.02	2761.83
438.21	2878.86
438.40	2820.35
438.58	2876.52
438.77	2883.54
438.96	2885.88
439.14	2949.08
439.33	2911.63
439.52	2956.10
439.70	2988.86
439.89	2972.48
440.08	3021.63
440.26	2986.52
440.45	2995.89
440.63	3049.72
440.82	3108.23
441.01	3110.57
441.19	3070.78
441.38	3201.85
441.57	3110.57
441.75	3190.15
441.94	3274.41
442.12	3288.45
442.31	3239.30
442.50	3300.16
442.68	3213.56
442.87	3398.46
443.05	3281.43
443.24	3346.97
443.43	3449.95
443.61	3389.10
443.80	3531.87
443.98	3314.20
444.17	3325.90
444.35	3358.67
444.54	3323.56
444.73	3562.30
444.91	3377.39
445.10	3478.04
445.28	3485.06
445.47	3487.40
445.65	3349.31
445.84	3538.89
446.02	3534.21
446.21	3328.24
446.39	3398.46
446.58	3421.86
446.77	3466.33
446.95	3382.07
447.14	3386.76
447.32	3555.27
447.51	3433.57
447.69	3433.57
447.88	3478.04
448.06	3599.74
448.25	3447.61
448.43	3459.31
448.62	3508.46
448.80	3529.53
448.99	3728.47
449.17	3700.39
449.36	3562.30
449.54	3646.55
449.73	3655.92
449.91	3728.47
450.10	3705.07
450.28	3637.19
450.46	3707.41
450.65	3815.07
450.83	3581.02
451.02	3721.45
451.20	3688.68
451.39	3784.65
451.57	3698.05
451.76	3798.69
451.94	3681.66
452.13	3901.67
452.31	3770.60
452.49	3712.09
452.68	3775.28
452.86	3857.20
453.05	3922.74
453.23	3974.23
453.42	3784.65
453.60	3899.33
453.78	3894.65
453.97	3896.99
454.15	3971.89
454.34	3854.86
454.52	4021.04
454.70	3819.75
454.89	3957.85
455.07	4023.38
455.26	4014.02
455.44	4131.05
455.62	4147.43
455.81	4037.42
455.99	4070.19
456.17	4100.62
456.36	4046.79
456.54	4205.94
456.73	4126.36
456.91	4262.12
457.09	4259.78
457.28	4332.33
457.46	4231.69
457.64	4432.97
457.83	4227.01
458.01	4290.20
458.19	4423.61
458.38	4311.27
458.56	4498.51
458.74	4524.26
458.93	4346.37
459.11	4456.38
459.29	4496.17
459.48	4470.42
459.66	4341.69
459.84	4528.94
460.03	4589.79
460.21	4468.08
460.39	4489.15
460.57	4660.01
460.76	4503.19
460.94	4456.38
461.12	4664.69
461.31	4730.22
461.49	4613.20
461.67	4547.66
461.85	4795.76
462.04	4699.80
462.22	4905.76
462.40	4788.74
462.59	4723.20
462.77	4643.62
462.95	4880.02
463.13	4819.16
463.32	4826.18
463.50	4851.93
463.68	4809.80
463.86	4812.14
464.05	4704.48
464.23	4943.21
464.41	4947.89
464.59	4748.95
464.78	5013.43
464.96	4990.02
465.14	4847.25
465.32	4947.89
465.50	5191.31
465.69	5029.81
465.87	4954.91
466.05	4947.89
466.23	4910.44
466.41	4973.64
466.60	5121.09
466.78	5153.86
466.96	5057.90
467.14	4849.59
467.32	5121.09
467.51	5217.05
467.69	5036.83
467.87	5219.39
468.05	5188.97
468.23	5088.32
468.41	5111.73
468.60	5184.29
468.78	5249.82
468.96	5221.74
469.14	5380.89
469.32	5322.38
469.50	5366.85
469.69	5301.31
469.87	5329.40
470.05	5425.36
470.23	5399.62
470.41	5432.38
470.59	5238.12
470.77	5423.02
470.95	5441.75
471.14	5504.94
471.32	5549.41
471.50	5514.30
471.68	5537.71
471.86	5483.88
472.04	5762.40
472.22	5706.23
472.40	5619.63
472.58	5804.53
472.77	5888.79
472.95	5802.19
473.13	5940.28
473.31	5610.26
473.49	5764.74
473.67	5919.21
473.85	5921.56
474.03	5919.21
474.21	5975.39
474.39	6045.60
474.57	6127.52
474.75	6193.06
474.93	5996.45
475.12	6101.78
475.30	6127.52
475.48	6134.54
475.66	6239.87
475.84	6176.67
476.02	6424.77
476.20	6429.45
476.38	6450.52
476.56	6602.65
476.74	6459.88
476.92	6483.28
477.10	6668.19
477.28	6619.04
477.46	6729.04
477.64	6691.59
477.82	6794.58
478.00	6960.75
478.18	7054.37
478.36	6916.28
478.54	7138.63
478.72	7089.48
478.90	7199.49
479.08	7016.93
479.26	7220.55
479.44	7309.49
479.62	7255.66
479.80	7405.46
479.98	7489.71
480.16	7632.49
480.34	7611.42
480.52	7496.74
480.70	7407.80
480.88	7679.30
481.06	7896.97
481.24	7672.28
481.41	7765.90
481.59	8013.99
481.77	7878.24
481.95	7943.78
482.13	7981.23
482.31	7803.35
482.49	8067.83
482.67	8173.15
482.85	8341.67
483.03	8479.76
483.21	8435.29
483.39	8475.08
483.57	8645.94
483.74	8702.11
483.92	8657.64
484.10	8624.87
484.28	8753.60
484.46	9013.40
484.64	9025.11
484.82	8936.17
485.00	9064.89
485.18	9312.99
485.35	9373.85
485.53	9266.18
485.71	9495.55
485.89	9612.58
486.07	9734.29
486.25	9579.81
486.43	9469.81
486.61	9809.19
486.78	9738.97
486.96	9813.87
487.14	10305.38
487.32	10087.71
487.50	10216.44
487.68	10293.68
487.85	10445.81
488.03	10389.64
488.21	10506.66
488.39	10384.96
488.57	10689.23
488.75	10920.94
488.92	10899.87
489.10	10801.57
489.28	10895.19
489.46	11147.97
489.64	10998.18
489.81	11428.84
489.99	11389.05
490.17	11351.60
490.35	11618.42
490.53	11527.14
490.70	11534.16
490.88	11714.38
491.06	11763.53
491.24	11765.87
491.41	11887.58
491.59	11920.35
491.77	12035.03
491.95	12112.27
492.13	12248.02
492.30	12308.88
492.48	12168.45
492.66	12430.59
492.84	12173.13
493.01	12615.49
493.19	12301.86
493.37	12554.63
493.54	12666.98
493.72	12807.41
493.90	12908.05
494.08	12954.87
494.25	13167.85
494.43	12856.56
494.61	13289.56
494.79	13151.47
494.96	13399.57
495.14	13067.21
495.32	13514.25
495.49	13624.26
495.67	13830.23
495.85	13706.18
496.02	13958.96
496.20	13891.08
496.38	13879.38
496.55	13867.67
496.73	14022.15
496.91	14047.90
497.09	14202.37
497.26	14303.01
497.44	14141.52
497.62	14256.20
497.79	14539.41
497.97	14270.25
498.14	14867.08
498.32	14956.02
498.50	14658.78
498.67	15204.12
498.85	14867.08
499.03	14874.10
499.20	14853.04
499.38	15103.48
499.56	15185.40
499.73	15166.67
499.91	15028.58
500.08	15517.75
500.26	15145.61
500.44	15297.74
500.61	15494.35
500.79	15578.61
500.97	15667.55
501.14	15550.52
501.32	16004.58
501.49	15896.92
501.67	15672.23
501.84	16009.26
502.02	15822.02
502.20	15971.82
502.37	16145.02
502.55	16224.59
502.72	16086.50
502.90	16226.93
503.07	16044.37
503.25	16175.44
503.43	16477.37
503.60	16133.31
503.78	16629.51
503.95	16582.70
504.13	16573.33
504.30	16613.12
504.48	16477.37
504.65	16681.00
504.83	16915.05
505.01	17041.44
505.18	17095.27
505.36	17135.06
505.53	16879.94
505.71	17062.51
505.88	17228.68
506.06	16980.59
506.23	17298.90
506.41	17338.69
506.58	17666.36
506.76	17523.59
506.93	17547.00
507.11	17584.44
507.28	17216.98
507.46	17558.70
507.63	17661.68
507.81	17860.63
507.98	17940.21
508.16	17647.64
508.33	17771.69
508.50	17968.29
508.68	17935.53
508.85	18115.75
509.03	18085.32
509.20	18057.23
509.38	18270.22
509.55	18401.29
509.73	18412.99
509.90	18176.60
510.08	18298.31
510.25	18417.68
510.42	18878.76
510.60	18527.68
510.77	18562.79
510.95	18750.03
511.12	18696.20
511.30	18640.03
511.47	18787.48
511.64	18780.46
511.82	19023.87
511.99	18735.99
512.17	19159.63
512.34	18871.74
512.51	19271.97
512.69	19468.58
512.86	19087.07
513.04	19428.79
513.21	19229.84
513.38	19515.39
513.56	19391.34
513.73	19353.89
513.90	19433.47
514.08	19466.24
514.25	19538.79
514.43	19559.86
514.60	19878.17
514.77	19763.48
514.95	19683.91
515.12	19920.30
515.29	19702.63
515.47	19885.19
515.64	20201.16
515.81	19852.42
515.99	20027.96
516.16	20086.48
516.33	19999.88
516.51	20205.84
516.68	20077.12
516.85	20245.63
517.03	20290.10
517.20	20439.90
517.37	20379.04
517.54	20730.12
517.72	20556.93
517.89	20617.78
518.06	20414.15
518.24	20655.23
518.41	20582.67
518.58	20762.89
518.75	20587.35
518.93	20865.88
519.10	20774.60
519.27	20900.98
519.45	20786.30
519.62	20821.41
519.79	20985.24
519.96	20917.37
520.14	21132.70
520.31	21078.86
520.48	21408.88
520.65	21291.85
520.83	21186.53
521.00	21418.24
521.17	21312.92
521.34	21511.86
521.52	21570.38
521.69	21568.04
521.86	21930.82
522.03	21661.66
522.20	21790.39
522.38	21692.08
522.55	21745.92
522.72	21954.22
522.89	21944.86
523.07	21994.01
523.24	21876.99
523.41	22054.87
523.58	22050.19
523.75	22127.42
523.92	22256.15
524.10	21949.54
524.27	22382.54
524.44	22590.85
524.61	22513.61
524.78	22644.68
524.96	22448.08
525.13	22792.14
525.30	22682.13
525.47	22473.82
525.64	22600.21
525.81	22338.07
525.98	22682.13
526.16	22721.92
526.33	22799.16
526.50	23110.45
526.67	22445.74
526.84	22375.52
527.01	22862.35
527.18	23335.14
527.36	22944.27
527.53	23058.96
527.70	23337.48
527.87	23311.74
528.04	23241.52
528.21	23281.31
528.38	22925.55
528.55	23264.92
528.72	22883.42
528.89	23360.89
529.07	23215.77
529.24	23639.41
529.41	23740.05
529.58	23452.17
529.75	23304.71
529.92	23566.85
530.09	23611.32
530.26	23726.01
530.43	23578.56
530.60	23669.84
530.77	23793.89
530.94	23625.37
531.11	23777.50
531.28	23562.17
531.46	23894.53
531.63	23784.52
531.80	23541.11
531.97	24397.74
532.14	23995.17
532.31	24060.71
532.48	24325.19
532.65	24592.01
532.82	23901.55
532.99	24102.84
533.16	24489.03
533.33	24355.61
533.50	24226.89
533.67	24400.08
533.84	24159.01
534.01	24411.79
534.18	24386.04
534.35	24606.05
534.52	24243.27
534.69	24615.41
534.86	24795.64
535.03	24435.19
535.20	24379.02
535.37	24570.94
535.54	24669.25
535.71	24872.87
535.88	24388.38
536.05	24826.06
536.22	24959.47
536.38	24826.06
536.55	25003.94
536.72	24891.60
536.89	24933.73
537.06	25200.55
537.23	24863.51
537.40	24975.86
537.57	25352.68
537.74	25125.65
537.91	25282.47
538.08	24975.86
538.25	24964.15
538.42	24943.09
538.59	25376.09
538.75	25010.96
538.92	25298.85
539.09	25179.48
539.26	25076.50
539.43	25539.93
539.60	25495.46
539.77	25383.11
539.94	25542.27
540.11	25717.81
540.28	25322.26
540.44	25853.56
540.61	25682.70
540.78	25591.42
540.95	25647.59
541.12	25717.81
541.29	25830.15
541.46	25376.09
541.62	25923.77
541.79	25553.97
541.96	25855.90
542.13	25729.51
542.30	25914.41
542.47	25869.94
542.63	25961.22
542.80	25956.54
542.97	26494.86
543.14	26466.78
543.31	26258.47
543.48	26225.70
543.64	26380.18
543.81	26443.37
543.98	26272.51
544.15	26478.48
544.32	26576.78
544.48	26831.90
544.65	26349.75
544.82	26448.05
544.99	25989.31
545.16	26609.55
545.32	26565.08
545.49	26661.04
545.66	26635.30
545.83	26916.16
546.00	27091.70
546.16	26604.87
546.33	26731.26
546.50	26410.60
546.67	26824.88
546.83	26565.08
547.00	26682.11
547.17	26974.67
547.34	27026.17
547.50	27145.53
547.67	27047.23
547.84	27201.71
548.00	27040.21
548.17	27288.31
548.34	27215.75
548.51	27239.15
548.67	27395.97
548.84	27599.60
549.01	27248.52
549.18	27274.26
549.34	27208.73
549.51	27330.44
549.68	27295.33
549.84	27058.93
550.01	27555.13
550.18	27232.13
550.34	27410.01
550.51	27491.93
550.68	27374.91
550.84	27117.45
551.01	27386.61
551.18	27374.91
551.34	26967.65
551.51	27316.39
551.68	27381.93
551.84	27747.05
552.01	27644.07
552.18	27604.28
552.34	27489.59
552.51	27653.43
552.68	27623.00
552.84	27728.33
553.01	27569.17
553.18	27852.38
553.34	28170.69
553.51	27974.08
553.67	27840.67
553.84	28189.41
554.01	27934.29
554.17	27824.29
554.34	27812.59
554.51	28067.70
554.67	27924.93
554.84	27758.75
555.00	27983.44
555.17	27885.14
555.33	27882.80
555.50	27920.25
555.67	27978.76
555.83	28233.88
556.00	28175.37
556.16	27985.79
556.33	27917.91
556.50	28046.64
556.66	28437.51
556.83	28264.31
556.99	28430.49
557.16	28804.97
557.32	28631.77
557.49	28311.12
557.65	28217.50
557.82	28486.66
557.98	28217.50
558.15	28453.89
558.32	28418.78
558.48	28624.75
558.65	29062.43
558.81	28645.82
558.98	28673.90
559.14	28496.02
559.31	28669.22
559.47	28360.27
559.64	28711.35
559.80	28685.61
559.97	28596.67
560.13	28559.22
560.30	28847.10
560.46	28718.37
560.63	28500.70
560.79	28811.99
560.96	29027.32
561.12	28701.99
561.29	28617.73
561.45	28910.30
561.61	28856.46
561.78	28865.83
561.94	28889.23
562.11	28624.75
562.27	28870.51
562.44	28776.89
562.60	28704.33
562.77	28428.15
562.93	28727.74
563.10	29092.86
563.26	28816.68
563.42	29277.76
563.59	28856.46
563.75	28929.02
563.92	29242.65
564.08	28875.19
564.24	29305.85
564.41	28936.04
564.57	29303.51
564.74	29078.82
564.90	29160.73
565.07	29383.09
565.23	29001.58
565.39	29130.31
565.56	29429.90
565.72	28830.72
565.88	29081.16
566.05	29193.50
566.21	29032.00
566.38	28891.57
566.54	29071.79
566.70	29399.47
566.87	29474.37
567.03	29083.50
567.19	29586.71
567.36	29436.92
567.52	29504.79
567.68	29041.37
567.85	28966.47
568.01	29216.91
568.17	28982.85
568.34	29640.54
568.50	29378.40
568.66	29696.72
568.83	29680.33
568.99	29270.74
569.15	29408.83
569.32	29404.15
569.48	29532.88
569.64	29462.66
569.81	29347.98
569.97	29055.41
570.13	29605.44
570.30	29507.13
570.46	29830.13
570.62	29488.41
570.78	29525.86
570.95	28968.81
571.11	29582.03
571.27	28854.12
571.43	29020.30
571.60	29406.49
571.76	29556.28
571.92	29525.86
572.09	29731.83
572.25	29713.10
572.41	29500.11
572.57	29310.53
572.74	29511.81
572.90	29088.18
573.06	29230.95
573.22	29600.76
573.38	29659.27
573.55	29457.98
573.71	29797.36
573.87	29575.01
574.03	29523.52
574.20	29326.91
574.36	29378.40
574.52	29661.61
574.68	29577.35
574.84	29930.77
575.01	29736.51
575.17	29525.86
575.33	29750.55
575.49	29708.42
575.65	29790.34
575.82	29804.38
575.98	29816.08
576.14	29785.66
576.30	29500.11
576.46	29570.33
576.62	29467.34
576.79	29635.86
576.95	29642.88
577.11	29621.82
577.27	30094.61
577.43	29900.34
577.59	29898.00
577.75	29689.70
577.92	29575.01
578.08	29577.35
578.24	29333.93
578.40	29879.28
578.56	29755.23
578.72	29783.32
578.88	30335.68
579.04	29853.53
579.21	29743.53
579.37	29853.53
579.53	30134.40
579.69	29516.50
579.85	29867.58
580.01	29635.86
580.17	29511.81
580.33	29790.34
580.49	29544.58
580.65	29965.88
580.82	30087.59
580.98	29591.39
581.14	29813.74
581.30	30005.67
581.46	29605.44
581.62	29780.98
581.78	29675.65
581.94	29858.21
582.10	30010.35
582.26	29626.50
582.42	29951.84
582.58	30005.67
582.74	29769.27
582.90	29731.83
583.06	30213.98
583.22	29902.68
583.38	29677.99
583.54	29898.00
583.70	30087.59
583.86	29848.85
584.02	29947.15
584.18	30033.75
584.34	30068.86
584.50	29853.53
584.66	30024.39
584.82	30031.41
584.98	29816.08
585.14	29202.86
585.30	29734.17
585.46	29869.92
585.62	29970.56
585.78	29982.26
585.94	29364.36
586.10	30113.33
586.26	30120.35
586.42	29895.66
586.58	30190.57
586.74	29617.14
586.90	29750.55
587.06	29645.23
587.22	29848.85
587.38	29652.25
587.54	29638.20
587.70	30410.58
587.86	30183.55
588.02	30050.14
588.18	30316.96
588.34	30169.51
588.49	30429.30
588.65	30089.93
588.81	30110.99
588.97	29919.07
589.13	29888.64
589.29	30085.25
589.45	30038.44
589.61	29996.31
589.77	30469.09
589.93	30441.01
590.08	30714.85
590.24	30326.32
590.40	30522.93
590.56	30286.53
590.72	30066.52
590.88	29649.91
591.04	30438.67
591.20	30286.53
591.35	30431.65
591.51	30586.12
591.67	30714.85
591.83	30483.14
591.99	30204.61
