SpectraSuite Data File
++++++++++++++++++++++++++++++++++++
Date: Fri Oct 18 13:58:18 GMT-05:00 2013
User: bianchi
Dark Spectrum Present: No
Reference Spectrum Present: No
Number of Sampled Component Spectra: 1
Spectrometers: USB2+H05261
Integration Time (usec): 50000 (USB2+H05261)
Spectra Averaged: 1 (USB2+H05261)
Boxcar Smoothing: 0 (USB2+H05261)
Correct for Electrical Dark: No (USB2+H05261)
Strobe/Lamp Enabled: No (USB2+H05261)
Correct for Detector Non-linearity: No (USB2+H05261)
Correct for Stray Light: No (USB2+H05261)
Number of Pixels in Processed Spectrum: 2048
>>>>>Begin Processed Spectral Data<<<<<
365.73	0.00
365.92	0.00
366.12	0.00
366.32	0.00
366.52	0.00
366.72	0.00
366.91	0.00
367.11	0.00
367.31	0.00
367.51	0.00
367.70	0.00
367.90	0.00
368.10	0.00
368.30	0.00
368.49	0.00
368.69	0.00
368.89	0.00
369.09	0.00
369.28	0.00
369.48	0.00
369.68	0.00
369.87	0.00
370.07	0.00
370.27	0.00
370.47	21.06
370.66	67.88
370.86	95.96
371.06	58.51
371.25	131.07
371.45	86.60
371.65	128.73
371.84	77.24
372.04	159.16
372.24	212.99
372.44	224.69
372.63	234.05
372.83	241.08
373.03	196.60
373.22	154.48
373.42	210.65
373.62	210.65
373.81	198.95
374.01	135.75
374.21	231.71
374.40	227.03
374.60	220.01
374.79	255.12
374.99	222.35
375.19	264.48
375.38	266.82
375.58	203.63
375.78	229.37
375.97	227.03
376.17	271.50
376.37	280.86
376.56	276.18
376.76	245.76
376.95	264.48
377.15	273.84
377.35	201.29
377.54	262.14
377.74	339.38
377.93	255.12
378.13	264.48
378.33	367.46
378.52	245.76
378.72	238.73
378.91	301.93
379.11	238.73
379.31	294.91
379.50	243.42
379.70	215.33
379.89	203.63
380.09	276.18
380.28	280.86
380.48	231.71
380.68	271.50
380.87	294.91
381.07	259.80
381.26	280.86
381.46	362.78
381.65	327.68
381.85	376.83
382.04	318.31
382.24	337.04
382.43	397.89
382.63	334.70
382.83	372.15
383.02	409.59
383.22	372.15
383.41	334.70
383.61	353.42
383.80	320.65
384.00	395.55
384.19	351.08
384.39	339.38
384.58	339.38
384.78	330.02
384.97	395.55
385.17	369.80
385.36	362.78
385.56	388.53
385.75	353.42
385.95	402.57
386.14	379.17
386.34	362.78
386.53	332.36
386.72	346.40
386.92	407.25
387.11	383.85
387.31	456.40
387.50	404.91
387.70	449.38
387.89	365.12
388.09	458.74
388.28	425.98
388.48	444.70
388.67	470.45
388.86	411.93
389.06	456.40
389.25	402.57
389.45	491.51
389.64	475.13
389.84	585.13
390.03	550.03
390.22	465.77
390.42	423.64
390.61	482.15
390.81	437.68
391.00	519.60
391.19	552.37
391.39	493.85
391.58	512.58
391.78	468.11
391.97	472.79
392.16	514.92
392.36	512.58
392.55	580.45
392.75	573.43
392.94	566.41
393.13	521.94
393.33	566.41
393.52	524.28
393.71	613.22
393.91	538.32
394.10	554.71
394.29	554.71
394.49	585.13
394.68	547.69
394.88	526.62
395.07	585.13
395.26	641.31
395.46	585.13
395.65	573.43
395.84	641.31
396.04	631.94
396.23	648.33
396.42	678.76
396.62	606.20
396.81	683.44
397.00	648.33
397.19	615.56
397.39	629.60
397.58	655.35
397.77	685.78
397.97	678.76
398.16	660.03
398.35	739.61
398.55	622.58
398.74	709.18
398.93	823.87
399.12	706.84
399.32	713.86
399.51	716.20
399.70	730.25
399.90	781.74
400.09	718.54
400.28	713.86
400.47	744.29
400.67	828.55
400.86	709.18
401.05	732.59
401.24	844.93
401.44	638.97
401.63	826.21
401.82	814.51
402.01	765.36
402.21	802.80
402.40	800.46
402.59	777.06
402.78	863.66
402.97	823.87
403.17	779.40
403.36	774.72
403.55	830.89
403.74	940.90
403.93	912.81
404.13	851.96
404.32	875.36
404.51	847.27
404.70	896.43
404.89	788.76
405.09	880.04
405.28	945.58
405.47	1022.81
405.66	938.55
405.85	919.83
406.05	940.90
406.24	966.64
406.43	945.58
406.62	1043.88
406.81	1055.58
407.00	985.37
407.20	896.43
407.39	961.96
407.58	1055.58
407.77	1057.92
407.96	1020.47
408.15	1093.03
408.34	978.34
408.54	987.71
408.73	1093.03
408.92	1013.45
409.11	1179.63
409.30	1107.07
409.49	1137.50
409.68	1071.97
409.87	1132.82
410.07	1121.12
410.26	1174.95
410.45	1210.06
410.64	1193.67
410.83	1254.53
411.02	1219.42
411.21	1179.63
411.40	1280.27
411.59	1299.00
411.78	1186.65
411.98	1380.92
412.17	1252.19
412.36	1355.17
412.55	1310.70
412.74	1373.89
412.93	1336.45
413.12	1294.32
413.31	1390.28
413.50	1294.32
413.69	1397.30
413.88	1390.28
414.07	1387.94
414.26	1476.88
414.45	1430.07
414.64	1416.02
414.83	1476.88
415.02	1486.24
415.22	1502.62
415.41	1465.18
415.60	1572.84
415.79	1629.01
415.98	1519.01
416.17	1612.63
416.36	1607.95
416.55	1570.50
416.74	1692.21
416.93	1605.61
417.12	1624.33
417.31	1636.03
417.50	1694.55
417.69	1739.02
417.88	1626.67
418.07	1722.63
418.26	1640.72
418.45	1820.94
418.64	1942.64
418.83	1816.26
419.02	1706.25
419.21	1790.51
419.39	1867.75
419.58	1706.25
419.77	1776.47
419.96	1858.39
420.15	1849.02
420.34	1886.47
420.53	1893.49
420.72	1839.66
420.91	1781.15
421.10	1832.64
421.29	2040.95
421.48	1860.73
421.67	1921.58
421.86	1879.45
422.05	1797.53
422.24	1982.43
422.43	2052.65
422.61	1926.26
422.80	1952.01
422.99	1952.01
423.18	1996.48
423.37	2083.08
423.56	1961.37
423.75	2017.54
423.94	2036.27
424.13	1830.30
424.32	1872.43
424.50	2043.29
424.69	2122.87
424.88	2052.65
425.07	2022.22
425.26	2043.29
425.45	1916.90
425.64	1984.77
425.83	1912.22
426.01	2015.20
426.20	2024.56
426.39	2001.16
426.58	2204.78
426.77	1977.75
426.96	2071.37
427.15	2038.61
427.33	2031.58
427.52	2059.67
427.71	2087.76
427.90	2092.44
428.09	2174.36
428.28	2153.29
428.46	2143.93
428.65	2155.63
428.84	2169.68
429.03	2300.75
429.22	2167.34
429.40	2272.66
429.59	2232.87
429.78	2214.15
429.97	2059.67
430.16	2221.17
430.34	2298.41
430.53	2396.71
430.72	2321.81
430.91	2338.20
431.10	2253.94
431.28	2342.88
431.47	2370.96
431.66	2490.33
431.85	2263.30
432.03	2487.99
432.22	2401.39
432.41	2349.90
432.60	2471.61
432.79	2396.71
432.97	2548.84
433.16	2452.88
433.35	2361.60
433.54	2448.20
433.72	2450.54
433.91	2497.35
434.10	2527.78
434.28	2513.74
434.47	2539.48
434.66	2689.28
434.85	2635.44
435.03	2569.91
435.22	2621.40
435.41	2670.55
435.59	2637.78
435.78	2612.04
435.97	2612.04
436.16	2689.28
436.34	2668.21
436.53	2670.55
436.72	2703.32
436.90	2724.38
437.09	2583.95
437.28	2677.57
437.46	2665.87
437.65	2677.57
437.84	2839.07
438.02	2743.11
438.21	2682.25
438.40	2698.64
438.58	2799.28
438.77	2944.39
438.96	2757.15
439.14	2935.03
439.33	2876.52
439.52	2899.92
439.70	2860.13
439.89	2993.55
440.08	2827.37
440.26	3056.74
440.45	2981.84
440.63	2981.84
440.82	3180.79
441.01	3234.62
441.19	3096.53
441.38	3148.02
441.57	3096.53
441.75	3300.16
441.94	3342.28
442.12	3089.51
442.31	3363.35
442.50	3222.92
442.68	3295.47
442.87	3346.97
443.05	3262.71
443.24	3255.69
443.43	3356.33
443.61	3370.37
443.80	3405.48
443.98	3375.05
444.17	3283.77
444.35	3545.91
444.54	3353.99
444.73	3442.93
444.91	3496.76
445.10	3524.85
445.28	3332.92
445.47	3386.76
445.65	3241.64
445.84	3356.33
446.02	3452.29
446.21	3405.48
446.39	3524.85
446.58	3384.41
446.77	3449.95
446.95	3323.56
447.14	3548.25
447.32	3545.91
447.51	3419.52
447.69	3346.97
447.88	3665.28
448.06	3536.55
448.25	3368.03
448.43	3578.68
448.62	3543.57
448.80	3461.65
448.99	3482.72
449.17	3358.67
449.36	3616.13
449.54	3646.55
449.73	3667.62
449.91	3660.60
450.10	3627.83
450.28	3831.46
450.46	3819.75
450.65	3667.62
450.83	3796.35
451.02	3749.54
451.20	3754.22
451.39	3702.73
451.57	3730.81
451.76	3742.52
451.94	3747.20
452.13	3742.52
452.31	3887.63
452.49	3838.48
452.68	3784.65
452.86	3791.67
453.05	3894.65
453.23	3992.95
453.42	3758.90
453.60	3796.35
453.78	3775.28
453.97	3887.63
454.15	3866.56
454.34	3992.95
454.52	3997.64
454.70	3932.10
454.89	4042.11
455.07	4023.38
455.26	3836.14
455.44	4039.76
455.62	4004.66
455.81	4060.83
455.99	4037.42
456.17	4138.07
456.36	4051.47
456.54	3995.29
456.73	4285.52
456.91	4299.56
457.09	4208.28
457.28	4301.90
457.46	4194.24
457.64	4250.41
457.83	4311.27
458.01	4266.80
458.19	4313.61
458.38	4306.59
458.56	4437.66
458.74	4475.10
458.93	4376.80
459.11	4545.32
459.29	4435.32
459.48	4470.42
459.66	4411.91
459.84	4517.23
460.03	4493.83
460.21	4615.54
460.39	4479.79
460.57	4477.44
460.76	4582.77
460.94	4559.36
461.12	4641.28
461.31	4510.21
461.49	4561.70
461.67	4538.30
461.85	4678.73
462.04	4629.58
462.22	5013.43
462.40	4589.79
462.59	4713.84
462.77	4734.90
462.95	4695.11
463.13	4599.15
463.32	4898.74
463.50	4718.52
463.68	4938.53
463.86	4734.90
464.05	4915.12
464.23	4833.21
464.41	4798.10
464.59	4692.77
464.78	4856.61
464.96	4891.72
465.14	4863.63
465.32	4898.74
465.50	5011.09
465.69	5020.45
465.87	4954.91
466.05	4798.10
466.23	5011.09
466.41	4919.81
466.60	5207.69
466.78	4938.53
466.96	5050.88
467.14	4999.38
467.32	4922.15
467.51	5235.78
467.69	5071.94
467.87	5107.05
468.05	5158.54
468.23	4947.89
468.41	5053.22
468.60	5050.88
468.78	5203.01
468.96	5142.16
469.14	5296.63
469.32	5298.97
469.50	5116.41
469.69	5366.85
469.87	5376.21
470.05	5385.57
470.23	5404.30
470.41	5289.61
470.59	5350.46
470.77	5497.92
470.95	5413.66
471.14	5579.84
471.32	5404.30
471.50	5556.43
471.68	5540.05
471.86	5638.35
472.04	5563.45
472.22	5556.43
472.40	5528.35
472.58	5673.46
472.77	5626.65
472.95	5556.43
473.13	5867.72
473.31	5591.54
473.49	5661.76
473.67	5771.76
473.85	5928.58
474.03	6045.60
474.21	5921.56
474.39	6038.58
474.57	6059.65
474.75	6043.26
474.93	6022.20
475.12	5954.32
475.30	6176.67
475.48	6029.22
475.66	6087.73
475.84	6092.41
476.02	6345.19
476.20	6237.53
476.38	6347.53
476.56	6534.78
476.74	6394.34
476.92	6534.78
477.10	6539.46
477.28	6768.83
477.46	6572.22
477.64	6703.29
477.82	6555.84
478.00	6773.51
478.18	6892.88
478.36	6869.47
478.54	7103.53
478.72	7042.67
478.90	7194.81
479.08	7365.67
479.26	7183.10
479.44	7295.45
479.62	7246.30
479.80	7356.30
479.98	7414.82
480.16	7641.85
480.34	7480.35
480.52	7438.22
480.70	7674.62
480.88	7400.77
481.06	7672.28
481.24	7604.40
481.41	7667.60
481.59	7775.26
481.77	8135.70
481.95	8182.51
482.13	7913.35
482.31	8222.30
482.49	8140.38
482.67	8065.49
482.85	8334.65
483.03	8414.23
483.21	8505.51
483.39	8376.78
483.57	8393.16
483.74	8636.58
483.92	8571.04
484.10	8744.24
484.28	8713.81
484.46	8912.76
484.64	9132.77
484.82	8901.06
485.00	9050.85
485.18	9053.19
485.35	9170.22
485.53	9474.49
485.71	9249.80
485.89	9696.84
486.07	9537.68
486.25	9392.57
486.43	9584.49
486.61	9666.41
486.78	9912.17
486.96	9933.23
487.14	9820.89
487.32	9970.68
487.50	10118.14
487.68	9982.38
487.85	10305.38
488.03	10267.93
488.21	10640.08
488.39	10445.81
488.57	10616.67
488.75	10518.37
488.92	10855.40
489.10	10764.12
489.28	10721.99
489.46	10902.22
489.64	10946.69
489.81	11080.10
489.99	11332.87
490.17	11262.66
490.35	11316.49
490.53	11459.26
490.70	11499.05
490.88	11564.59
491.06	11803.32
491.24	11534.16
491.41	11840.77
491.59	11908.65
491.77	11683.95
491.95	12159.08
492.13	12035.03
492.30	12166.10
492.48	12226.96
492.66	12269.09
492.84	12250.36
493.01	12355.69
493.19	12381.43
493.37	12545.27
493.54	12784.01
493.72	12950.18
493.90	12732.51
494.08	12802.73
494.25	13011.04
494.43	12945.50
494.61	13245.09
494.79	13156.15
494.96	13242.75
495.14	13179.56
495.32	13570.43
495.49	13289.56
495.67	13357.44
495.85	13647.66
496.02	13481.49
496.20	13891.08
496.38	13748.31
496.55	13804.48
496.73	14195.35
496.91	13980.02
497.09	14312.38
497.26	14321.74
497.44	14122.79
497.62	14340.46
497.79	14548.77
497.97	14352.16
498.14	14773.46
498.32	14654.09
498.50	14761.76
498.67	14904.53
498.85	14803.89
499.03	14829.63
499.20	14890.49
499.38	15009.86
499.56	15206.46
499.73	15161.99
499.91	15129.22
500.08	15264.97
500.26	15169.01
500.44	15239.23
500.61	15206.46
500.79	15349.23
500.97	15475.62
501.14	15754.15
501.32	16004.58
501.49	15557.54
501.67	15674.57
501.84	15995.22
502.02	15915.64
502.20	16074.80
502.37	16088.84
502.55	16088.84
502.72	16102.89
502.90	16065.44
503.07	16154.38
503.25	16126.29
503.43	16130.97
503.60	16166.08
503.78	16489.07
503.95	16285.45
504.13	16430.56
504.30	16566.31
504.48	16582.70
504.65	16655.25
504.83	16877.60
505.01	16788.66
505.18	16809.73
505.36	17025.06
505.53	16961.86
505.71	16697.38
505.88	16704.40
506.06	16727.81
506.23	17195.92
506.41	16889.31
506.58	17429.97
506.76	17504.87
506.93	17216.98
507.11	17352.73
507.28	17710.83
507.46	17369.12
507.63	17703.81
507.81	17682.75
507.98	17359.75
508.16	17532.95
508.33	17678.07
508.50	17631.26
508.68	17748.28
508.85	17736.58
509.03	18026.81
509.20	18036.17
509.38	18122.77
509.55	18211.71
509.73	18317.03
509.90	18370.86
510.08	18183.62
510.25	18197.67
510.42	18288.95
510.60	18249.16
510.77	18487.89
510.95	18916.21
511.12	18359.16
511.30	18642.37
511.47	18492.57
511.64	18728.97
511.82	18724.29
511.99	18651.73
512.17	18752.37
512.34	18773.44
512.51	18939.62
512.69	18981.74
512.86	18984.09
513.04	19201.76
513.21	19066.00
513.38	19314.10
513.56	19534.11
513.73	19215.80
513.90	19529.43
514.08	19243.88
514.25	19550.49
514.43	19534.11
514.60	19819.66
514.77	19840.72
514.95	19651.14
515.12	19871.15
515.29	19850.08
515.47	19988.18
515.64	19854.76
515.81	19971.79
515.99	20016.26
516.16	20177.76
516.33	19990.52
516.51	19733.06
516.68	20044.35
516.85	20264.36
517.03	20210.53
517.20	20245.63
517.37	20322.87
517.54	20435.22
517.72	20648.21
517.89	20262.02
518.06	20463.30
518.24	20435.22
518.41	20741.83
518.58	20795.66
518.75	20554.58
518.93	20737.15
519.10	20886.94
519.27	21113.97
519.45	20734.81
519.62	21057.80
519.79	21001.63
519.96	20879.92
520.14	21319.94
520.31	21081.21
520.48	21266.11
520.65	21135.04
520.83	21247.38
521.00	21055.46
521.17	21214.62
521.34	21186.53
521.52	21715.49
521.69	21420.58
521.86	21427.60
522.03	21816.13
522.20	21652.30
522.38	21535.27
522.55	21834.86
522.72	21420.58
522.89	21771.66
523.07	21832.52
523.24	22111.04
523.41	22188.28
523.58	21507.18
523.75	22197.64
523.92	21958.91
524.10	21912.10
524.27	22286.58
524.44	22368.50
524.61	22368.50
524.78	22401.27
524.96	22405.95
525.13	22141.47
525.30	22356.80
525.47	22455.10
525.64	22216.36
525.81	22593.19
525.98	22441.06
526.16	22719.58
526.33	23035.55
526.50	22824.90
526.67	22576.81
526.84	22675.11
527.01	22576.81
527.18	22815.54
527.36	22913.84
527.53	22974.70
527.70	22906.82
527.87	23171.30
528.04	22967.68
528.21	22782.77
528.38	22925.55
528.55	23190.03
528.72	23248.54
528.89	23136.20
529.07	23393.65
529.24	23227.48
529.41	23543.45
529.58	23564.51
529.75	23321.10
529.92	23089.38
530.09	23377.27
530.26	23531.75
530.43	23819.63
530.60	23618.35
530.77	23894.53
530.94	23625.37
531.11	23597.28
531.28	23496.64
531.46	23672.18
531.63	23702.61
531.80	23601.96
531.97	24395.40
532.14	23777.50
532.31	23924.96
532.48	23625.37
532.65	24020.92
532.82	23896.87
532.99	24107.52
533.16	24261.99
533.33	24128.58
533.50	23939.00
533.67	24100.50
533.84	24222.20
534.01	24496.05
534.18	24023.26
534.35	24554.56
534.52	24400.08
534.69	24170.71
534.86	24540.52
535.03	24151.99
535.20	24582.65
535.37	24512.43
535.54	24645.84
535.71	24372.00
535.88	24402.43
536.05	24594.35
536.22	24734.78
536.38	24959.47
536.55	24823.72
536.72	24989.90
536.89	24411.79
537.06	25097.56
537.23	24994.58
537.40	24545.20
537.57	25179.48
537.74	25160.76
537.91	25137.35
538.08	25359.70
538.25	24996.92
538.42	25057.78
538.59	25305.87
538.75	24861.17
538.92	24842.45
539.09	25219.27
539.26	25315.23
539.43	25142.03
539.60	25277.79
539.77	25497.80
539.94	25434.60
540.11	25172.46
540.28	25329.28
540.44	25404.17
540.61	25240.34
540.78	25479.07
540.95	25507.16
541.12	25549.29
541.29	25769.30
541.46	25479.07
541.62	25348.00
541.79	25827.81
541.96	25570.35
542.13	25663.97
542.30	25621.84
542.47	25989.31
542.63	25771.64
542.80	26106.34
542.97	26361.45
543.14	25832.49
543.31	25954.20
543.48	26094.63
543.64	26328.69
543.81	26073.57
543.98	26251.45
544.15	26246.77
544.32	26438.69
544.48	26333.37
544.65	25947.18
544.82	26522.95
544.99	26237.41
545.16	26515.93
545.32	26384.86
545.49	26609.55
545.66	26551.04
545.83	26478.48
546.00	26916.16
546.16	26125.06
546.33	26410.60
546.50	26174.21
546.67	26998.08
546.83	26546.36
547.00	26904.46
547.17	26501.89
547.34	26817.86
547.50	26759.34
547.67	27220.43
547.84	26574.44
548.00	26874.03
548.17	26939.57
548.34	26960.63
548.51	27161.92
548.67	27260.22
548.84	26799.13
549.01	27035.53
549.18	26817.86
549.34	27154.90
549.51	26955.95
549.68	26724.24
549.84	26995.74
550.01	26995.74
550.18	27482.57
550.34	26951.27
550.51	27372.57
550.68	27623.00
550.84	26930.20
551.01	27548.11
551.18	27206.39
551.34	27171.28
551.51	27164.26
551.68	27262.56
551.84	27782.16
552.01	27461.51
552.18	27665.13
552.34	27941.32
552.51	27529.38
552.68	27482.57
552.84	27768.12
553.01	27445.12
553.18	27573.85
553.34	27744.71
553.51	27882.80
553.67	27725.99
553.84	27644.07
554.01	28116.86
554.17	28046.64
554.34	27672.15
554.51	27520.02
554.67	28046.64
554.84	27676.83
555.00	28023.23
555.17	27601.94
555.33	28030.26
555.50	27835.99
555.67	28084.09
555.83	27838.33
556.00	27723.65
556.16	27924.93
556.33	27711.94
556.50	28034.94
556.66	28374.31
556.83	28081.75
556.99	28496.02
557.16	28222.18
557.32	28208.14
557.49	28409.42
557.65	28070.04
557.82	28430.49
557.98	27941.32
558.15	28446.87
558.32	28423.47
558.48	28444.53
558.65	28751.14
558.81	28451.55
558.98	28266.65
559.14	28355.59
559.31	28449.21
559.47	28617.73
559.64	28367.29
559.80	28421.13
559.97	28793.27
560.13	28573.26
560.30	28652.84
560.46	28819.02
560.63	28645.82
560.79	28594.32
560.96	28620.07
561.12	28559.22
561.29	28285.37
561.45	28421.13
561.61	28968.81
561.78	28884.55
561.94	29125.63
562.11	28776.89
562.27	28940.72
562.44	28844.76
562.60	28924.34
562.77	28636.45
562.93	28673.90
563.10	29097.54
563.26	28514.75
563.42	29001.58
563.59	28699.65
563.75	28996.90
563.92	28678.58
564.08	28683.27
564.24	28898.59
564.41	28599.01
564.57	28896.25
564.74	28690.29
564.90	28980.51
565.07	28819.02
565.23	28847.10
565.39	28636.45
565.56	29120.95
565.72	28716.03
565.88	28629.43
566.05	29010.94
566.21	28711.35
566.38	28973.49
566.54	28971.15
566.70	29345.64
566.87	29521.18
567.03	29256.70
567.19	29266.06
567.36	29277.76
567.52	29163.08
567.68	29268.40
567.85	29186.48
568.01	29235.63
568.17	28952.43
568.34	29273.08
568.50	28903.28
568.66	29207.55
568.83	29273.08
568.99	29446.28
569.15	29174.78
569.32	28961.79
569.48	29074.13
569.64	28973.49
569.81	29034.35
569.97	29179.46
570.13	29558.63
570.30	29015.62
570.46	29572.67
570.62	29184.14
570.78	29205.20
570.95	28992.22
571.11	29338.62
571.27	28992.22
571.43	29235.63
571.60	29357.34
571.76	29429.90
571.92	29228.61
572.09	29413.51
572.25	29343.30
572.41	29586.71
572.57	29610.12
572.74	29223.93
572.90	29579.69
573.06	29436.92
573.22	29432.24
573.38	29331.59
573.55	29151.37
573.71	30015.03
573.87	29680.33
574.03	29582.03
574.20	29539.90
574.36	29221.59
574.52	29495.43
574.68	29399.47
574.84	29413.51
575.01	29216.91
575.17	29537.56
575.33	29170.10
575.49	29603.10
575.65	29570.33
575.82	29717.78
575.98	29748.21
576.14	29462.66
576.30	29937.79
576.46	29539.90
576.62	29598.41
576.79	29696.72
576.95	29188.82
577.11	29560.97
577.27	29729.48
577.43	29439.26
577.59	29589.05
577.75	29687.36
577.92	29364.36
578.08	29326.91
578.24	29205.20
578.40	29605.44
578.56	29532.88
578.72	29799.70
578.88	29785.66
579.04	29837.15
579.21	29310.53
579.37	29490.75
579.53	29785.66
579.69	29376.06
579.85	29851.19
580.01	29771.61
580.17	29347.98
580.33	29427.56
580.49	29528.20
580.65	29570.33
580.82	29944.81
580.98	29841.83
581.14	29659.27
581.30	29734.17
581.46	29619.48
581.62	29331.59
581.78	29846.51
581.94	29731.83
582.10	29355.00
582.26	29762.25
582.42	29869.92
582.58	29872.26
582.74	29685.01
582.90	30019.71
583.06	29694.38
583.22	29530.54
583.38	29542.24
583.54	29612.46
583.70	29710.76
583.86	29703.74
584.02	29890.98
584.18	29975.24
584.34	29486.07
584.50	29277.76
584.66	29617.14
584.82	29610.12
584.98	30064.18
585.14	29612.46
585.30	29567.99
585.46	29659.27
585.62	29347.98
585.78	29734.17
585.94	29923.75
586.10	29633.52
586.26	29933.11
586.42	29656.93
586.58	29975.24
586.74	29771.61
586.90	29647.57
587.06	29411.17
587.22	29490.75
587.38	29621.82
587.54	29872.26
587.70	30136.74
587.86	29858.21
588.02	30068.86
588.18	30188.23
588.34	29968.22
588.49	30071.20
588.65	29797.36
588.81	29666.29
588.97	29813.74
589.13	29785.66
589.29	29490.75
589.45	29888.64
589.61	30139.08
589.77	30455.05
589.93	30167.16
590.08	30265.47
590.24	30609.53
590.40	30284.19
590.56	30213.98
590.72	29827.79
590.88	30036.09
591.04	29846.51
591.20	30036.09
591.35	30054.82
591.51	30270.15
591.67	30370.79
591.83	30270.15
591.99	30000.99
