SpectraSuite Data File
++++++++++++++++++++++++++++++++++++
Date: Fri Oct 18 13:58:35 GMT-05:00 2013
User: bianchi
Dark Spectrum Present: No
Reference Spectrum Present: No
Number of Sampled Component Spectra: 1
Spectrometers: USB2+H05261
Integration Time (usec): 50000 (USB2+H05261)
Spectra Averaged: 1 (USB2+H05261)
Boxcar Smoothing: 0 (USB2+H05261)
Correct for Electrical Dark: No (USB2+H05261)
Strobe/Lamp Enabled: No (USB2+H05261)
Correct for Detector Non-linearity: No (USB2+H05261)
Correct for Stray Light: No (USB2+H05261)
Number of Pixels in Processed Spectrum: 2048
>>>>>Begin Processed Spectral Data<<<<<
365.73	0.00
365.92	0.00
366.12	0.00
366.32	0.00
366.52	0.00
366.72	0.00
366.91	0.00
367.11	0.00
367.31	0.00
367.51	0.00
367.70	0.00
367.90	0.00
368.10	0.00
368.30	0.00
368.49	0.00
368.69	0.00
368.89	0.00
369.09	0.00
369.28	0.00
369.48	0.00
369.68	0.00
369.87	0.00
370.07	0.00
370.27	0.00
370.47	0.00
370.66	74.90
370.86	105.32
371.06	114.69
371.25	215.33
371.45	177.88
371.65	201.29
371.84	98.30
372.04	156.82
372.24	212.99
372.44	215.33
372.63	142.77
372.83	201.29
373.03	236.39
373.22	163.84
373.42	273.84
373.62	222.35
373.81	245.76
374.01	198.95
374.21	290.23
374.40	217.67
374.60	194.26
374.79	283.20
374.99	215.33
375.19	238.73
375.38	198.95
375.58	276.18
375.78	236.39
375.97	285.55
376.17	276.18
376.37	283.20
376.56	243.42
376.76	250.44
376.95	287.89
377.15	264.48
377.35	248.10
377.54	292.57
377.74	255.12
377.93	245.76
378.13	341.72
378.33	238.73
378.52	330.02
378.72	339.38
378.91	325.33
379.11	243.42
379.31	280.86
379.50	245.76
379.70	294.91
379.89	266.82
380.09	325.33
380.28	292.57
380.48	276.18
380.68	294.91
380.87	318.31
381.07	264.48
381.26	264.48
381.46	430.66
381.65	337.04
381.85	311.29
382.04	311.29
382.24	320.65
382.43	306.61
382.63	318.31
382.83	372.15
383.02	308.95
383.22	339.38
383.41	360.44
383.61	386.19
383.80	379.17
384.00	407.25
384.19	339.38
384.39	407.25
384.58	308.95
384.78	421.30
384.97	395.55
385.17	386.19
385.36	414.27
385.56	437.68
385.75	388.53
385.95	435.34
386.14	507.90
386.34	409.59
386.53	416.62
386.72	383.85
386.92	404.91
387.11	425.98
387.31	465.77
387.50	388.53
387.70	461.09
387.89	411.93
388.09	404.91
388.28	442.36
388.48	430.66
388.67	545.34
388.86	407.25
389.06	435.34
389.25	430.66
389.45	383.85
389.64	416.62
389.84	505.56
390.03	449.38
390.22	491.51
390.42	491.51
390.61	475.13
390.81	489.17
391.00	493.85
391.19	559.39
391.39	486.83
391.58	503.22
391.78	578.11
391.97	514.92
392.16	538.32
392.36	606.20
392.55	552.37
392.75	477.47
392.94	559.39
393.13	613.22
393.33	608.54
393.52	512.58
393.71	545.34
393.91	606.20
394.10	571.09
394.29	519.60
394.49	498.53
394.68	650.67
394.88	648.33
395.07	603.86
395.26	601.52
395.46	697.48
395.65	660.03
395.84	615.56
396.04	655.35
396.23	688.12
396.42	615.56
396.62	660.03
396.81	676.41
397.00	741.95
397.19	739.61
397.39	667.05
397.58	695.14
397.77	643.65
397.97	685.78
398.16	702.16
398.35	699.82
398.55	692.80
398.74	739.61
398.93	725.57
399.12	688.12
399.32	685.78
399.51	767.70
399.70	758.33
399.90	692.80
400.09	758.33
400.28	788.76
400.47	849.61
400.67	809.83
400.86	739.61
401.05	746.63
401.24	800.46
401.44	786.42
401.63	842.59
401.82	908.13
402.01	821.53
402.21	823.87
402.40	807.48
402.59	802.80
402.78	755.99
402.97	882.38
403.17	800.46
403.36	957.28
403.55	877.70
403.74	880.04
403.93	875.36
404.13	908.13
404.32	882.38
404.51	891.74
404.70	861.32
404.89	912.81
405.09	943.24
405.28	891.74
405.47	987.71
405.66	1027.50
405.85	924.51
406.05	976.00
406.24	1034.52
406.43	940.90
406.62	1071.97
406.81	1046.22
407.00	1048.56
407.20	950.26
407.39	994.73
407.58	968.98
407.77	1067.28
407.96	1172.61
408.15	1046.22
408.34	1123.46
408.54	997.07
408.73	1102.39
408.92	1139.84
409.11	1196.01
409.30	1121.12
409.49	1160.91
409.68	1095.37
409.87	1181.97
410.07	1149.20
410.26	1062.60
410.45	1156.22
410.64	1172.61
410.83	1238.14
411.02	1174.95
411.21	1238.14
411.40	1212.40
411.59	1289.64
411.78	1329.42
411.98	1242.82
412.17	1364.53
412.36	1291.98
412.55	1364.53
412.74	1362.19
412.93	1327.08
413.12	1359.85
413.31	1373.89
413.50	1266.23
413.69	1362.19
413.88	1371.55
414.07	1437.09
414.26	1535.39
414.45	1411.34
414.64	1640.72
414.83	1432.41
415.02	1441.77
415.22	1514.33
415.41	1509.65
415.60	1586.88
415.79	1645.40
415.98	1598.59
416.17	1591.56
416.36	1626.67
416.55	1610.29
416.74	1699.23
416.93	1685.19
417.12	1713.27
417.31	1516.67
417.50	1732.00
417.69	1771.79
417.88	1694.55
418.07	1781.15
418.26	1640.72
418.45	1720.29
418.64	1853.70
418.83	1825.62
419.02	1776.47
419.21	1846.68
419.39	1874.77
419.58	1788.17
419.77	1860.73
419.96	1884.13
420.15	1949.67
420.34	1905.20
420.53	1895.83
420.72	1858.39
420.91	1881.79
421.10	1947.33
421.29	1968.39
421.48	1921.58
421.67	1881.79
421.86	1968.39
422.05	1987.11
422.24	1902.86
422.43	1949.67
422.61	1982.43
422.80	2031.58
422.99	2033.93
423.18	2050.31
423.37	2099.46
423.56	2076.06
423.75	1942.64
423.94	2094.78
424.13	1884.13
424.32	2026.90
424.50	2076.06
424.69	1956.69
424.88	2183.72
425.07	2057.33
425.26	2019.88
425.45	2073.71
425.64	2078.40
425.83	1968.39
426.01	2174.36
426.20	2090.10
426.39	2113.50
426.58	2054.99
426.77	2139.25
426.96	2085.42
427.15	2031.58
427.33	2092.44
427.52	2122.87
427.71	2155.63
427.90	2167.34
428.09	2169.68
428.28	2242.23
428.46	2193.08
428.65	2160.31
428.84	2209.47
429.03	2324.15
429.22	2214.15
429.40	2251.60
429.59	2246.91
429.78	2162.66
429.97	2113.50
430.16	2150.95
430.34	2253.94
430.53	2382.67
430.72	2312.45
430.91	2324.15
431.10	2349.90
431.28	2401.39
431.47	2338.20
431.66	2385.01
431.85	2317.13
432.03	2495.01
432.22	2408.41
432.41	2312.45
432.60	2445.86
432.79	2431.82
432.97	2457.56
433.16	2457.56
433.35	2452.88
433.54	2438.84
433.72	2462.24
433.91	2345.22
434.10	2546.50
434.28	2534.80
434.47	2637.78
434.66	2576.93
434.85	2602.68
435.03	2502.03
435.22	2586.29
435.41	2698.64
435.59	2637.78
435.78	2750.13
435.97	2593.31
436.16	2682.25
436.34	2668.21
436.53	2747.79
436.72	2726.72
436.90	2565.23
437.09	2736.09
437.28	2747.79
437.46	2820.35
437.65	2731.41
437.84	2815.66
438.02	2829.71
438.21	2787.58
438.40	2754.81
438.58	2920.99
438.77	2825.03
438.96	2911.63
439.14	2906.95
439.33	3035.67
439.52	3023.97
439.70	3054.40
439.89	3045.04
440.08	3066.10
440.26	2979.50
440.45	2935.03
440.63	3077.80
440.82	3243.98
441.01	3045.04
441.19	3026.31
441.38	3290.79
441.57	3229.94
441.75	3295.47
441.94	3328.24
442.12	3281.43
442.31	3386.76
442.50	3398.46
442.68	3361.01
442.87	3361.01
443.05	3517.83
443.24	3438.25
443.43	3405.48
443.61	3346.97
443.80	3466.33
443.98	3337.60
444.17	3190.15
444.35	3442.93
444.54	3555.27
444.73	3478.04
444.91	3393.78
445.10	3541.23
445.28	3463.99
445.47	3382.07
445.65	3435.91
445.84	3562.30
446.02	3489.74
446.21	3452.29
446.39	3417.18
446.58	3396.12
446.77	3576.34
446.95	3456.97
447.14	3459.31
447.32	3487.40
447.51	3590.38
447.69	3461.65
447.88	3513.14
448.06	3665.28
448.25	3548.25
448.43	3501.44
448.62	3522.51
448.80	3555.27
448.99	3522.51
449.17	3578.68
449.36	3616.13
449.54	3581.02
449.73	3686.34
449.91	3641.87
450.10	3625.49
450.28	3854.86
450.46	3691.02
450.65	3707.41
450.83	3936.78
451.02	3655.92
451.20	3805.71
451.39	3861.88
451.57	3730.81
451.76	3864.22
451.94	3822.09
452.13	4002.32
452.31	3854.86
452.49	3749.54
452.68	3955.51
452.86	3908.69
453.05	3955.51
453.23	3927.42
453.42	3967.21
453.60	3838.48
453.78	3946.14
453.97	3906.35
454.15	3936.78
454.34	3906.35
454.52	4016.36
454.70	4074.87
454.89	3974.23
455.07	4063.17
455.26	3964.87
455.44	4021.04
455.62	4168.49
455.81	3978.91
455.99	4079.55
456.17	4025.72
456.36	4219.99
456.54	4271.48
456.73	4180.20
456.91	4287.86
457.09	4393.19
457.28	4348.72
457.46	4222.33
457.64	4353.40
457.83	4381.48
458.01	4315.95
458.19	4383.82
458.38	4262.12
458.56	4360.42
458.74	4435.32
458.93	4564.04
459.11	4397.87
459.29	4425.95
459.48	4521.92
459.66	4442.34
459.84	4550.00
460.03	4648.30
460.21	4479.79
460.39	4669.37
460.57	4809.80
460.76	4676.39
460.94	4547.66
461.12	4645.96
461.31	4552.34
461.49	4709.16
461.67	4601.49
461.85	4833.21
462.04	4770.01
462.22	4926.83
462.40	4767.67
462.59	4809.80
462.77	4739.58
462.95	4868.31
463.13	4779.37
463.32	4770.01
463.50	4760.65
463.68	4709.16
463.86	4936.19
464.05	4734.90
464.23	4931.51
464.41	5027.47
464.59	4889.38
464.78	5085.98
464.96	4959.60
465.14	4851.93
465.32	4905.76
465.50	5032.15
465.69	5111.73
465.87	4947.89
466.05	4994.70
466.23	5116.41
466.41	5055.56
466.60	5142.16
466.78	4978.32
466.96	5081.30
467.14	5076.62
467.32	5109.39
467.51	5130.45
467.69	5109.39
467.87	5198.33
468.05	5198.33
468.23	5107.05
468.41	5121.09
468.60	5203.01
468.78	5338.76
468.96	5294.29
469.14	5282.59
469.32	5219.39
469.50	5226.42
469.69	5324.72
469.87	5518.98
470.05	5427.70
470.23	5387.91
470.41	5387.91
470.59	5380.89
470.77	5476.85
470.95	5678.14
471.14	5724.95
471.32	5441.75
471.50	5575.16
471.68	5600.90
471.86	5521.32
472.04	5678.14
472.22	5806.87
472.40	5570.48
472.58	5870.06
472.77	5816.23
472.95	5825.59
473.13	5856.02
473.31	5844.32
473.49	5722.61
473.67	5816.23
473.85	5905.17
474.03	6003.47
474.21	5940.28
474.39	6071.35
474.57	6141.57
474.75	6171.99
474.93	6083.05
475.12	6005.81
475.30	6174.33
475.48	6251.57
475.66	6284.34
475.84	6373.28
476.02	6368.60
476.20	6415.41
476.38	6457.54
476.56	6548.82
476.74	6588.61
476.92	6546.48
477.10	6520.73
477.28	6766.49
477.46	6656.48
477.64	6885.86
477.82	6661.16
478.00	6930.33
478.18	6970.12
478.36	6979.48
478.54	7077.78
478.72	7070.76
478.90	7080.12
479.08	7077.78
479.26	7190.13
479.44	7323.54
479.62	7426.52
479.80	7255.66
479.98	7522.48
480.16	7515.46
480.34	7536.52
480.52	7726.11
480.70	7531.84
480.88	7571.63
481.06	7658.23
481.24	7531.84
481.41	7763.56
481.59	7929.74
481.77	8095.91
481.95	8107.62
482.13	8210.60
482.31	8149.75
482.49	8290.18
482.67	8219.96
482.85	8245.71
483.03	8381.46
483.21	8557.00
483.39	8655.30
483.57	8634.24
483.74	8699.77
483.92	8741.90
484.10	8685.73
484.28	8954.89
484.46	9055.53
484.64	9287.25
484.82	8999.36
485.00	9104.68
485.18	9284.91
485.35	9268.52
485.53	9458.10
485.71	9469.81
485.89	9439.38
486.07	9554.07
486.25	9551.73
486.43	9593.86
486.61	9743.65
486.78	9729.61
486.96	10054.94
487.14	10249.21
487.32	10174.31
487.50	10324.10
487.68	10511.35
487.85	10389.64
488.03	10511.35
488.21	10696.25
488.39	10619.01
488.57	10780.51
488.75	10705.61
488.92	10913.92
489.10	11030.94
489.28	11042.65
489.46	10946.69
489.64	11063.71
489.81	11307.13
489.99	11375.00
490.17	11559.91
490.35	11690.98
490.53	11616.08
490.70	11751.83
490.88	11644.17
491.06	11786.94
491.24	11782.26
491.41	11992.90
491.59	11950.78
491.77	12011.63
491.95	12131.00
492.13	12245.68
492.30	12341.64
492.48	12362.71
492.66	12479.74
492.84	12538.25
493.01	12449.31
493.19	12496.12
493.37	12580.38
493.54	12753.58
493.72	12886.99
493.90	12875.29
494.08	13163.17
494.25	13102.32
494.43	13165.51
494.61	13170.19
494.79	13439.36
494.96	13385.52
495.14	13235.73
495.32	13584.47
495.49	13586.81
495.67	13596.17
495.85	13792.78
496.02	13928.53
496.20	13923.85
496.38	14090.02
496.55	13745.97
496.73	14239.82
496.91	14157.90
497.09	14387.27
497.26	14338.12
497.44	14363.87
497.62	14300.67
497.79	14883.47
497.97	14380.25
498.14	14768.78
498.32	14829.63
498.50	14988.79
498.67	15136.24
498.85	14885.81
499.03	14960.70
499.20	15044.96
499.38	15068.37
499.56	15314.13
499.73	15309.44
499.91	15442.85
500.08	15580.95
500.26	15323.49
500.44	15513.07
500.61	15686.27
500.79	15524.77
500.97	15852.45
501.14	15908.62
501.32	16070.12
501.49	15971.82
501.67	16018.63
501.84	15733.08
502.02	15962.45
502.20	16369.71
502.37	16278.43
502.55	16208.21
502.72	16100.55
502.90	16500.78
503.07	16252.68
503.25	16585.04
503.43	16346.30
503.60	16561.63
503.78	16669.30
503.95	16390.77
504.13	16917.39
504.30	16549.93
504.48	16610.78
504.65	16952.50
504.83	17001.65
505.01	17142.08
505.18	17032.08
505.36	17336.35
505.53	17036.76
505.71	17177.19
505.88	16989.95
506.06	17167.83
506.23	17521.25
506.41	17488.48
506.58	17528.27
506.76	17266.13
506.93	17605.51
507.11	17497.84
507.28	17289.54
507.46	17642.96
507.63	17722.54
507.81	18263.20
507.98	17497.84
508.16	17914.46
508.33	17930.84
508.50	18085.32
508.68	18242.14
508.85	17783.39
509.03	18176.60
509.20	18412.99
509.38	18492.57
509.55	18314.69
509.73	18331.08
509.90	18871.74
510.08	18427.04
510.25	18288.95
510.42	18445.76
510.60	18743.01
510.77	19145.58
510.95	18817.91
511.12	18553.43
511.30	18686.84
511.47	18860.04
511.64	18953.66
511.82	18885.78
511.99	19094.09
512.17	19098.77
512.34	18981.74
512.51	19152.60
512.69	19417.08
512.86	19171.33
513.04	19489.64
513.21	19435.81
513.38	19548.15
513.56	19393.68
513.73	19288.35
513.90	19655.82
514.08	19515.39
514.25	19580.92
514.43	19836.04
514.60	19606.67
514.77	19796.25
514.95	20219.89
515.12	19990.52
515.29	19700.29
515.47	19875.83
515.64	20264.36
515.81	20123.93
515.99	20301.81
516.16	20306.49
516.33	20299.47
516.51	20327.55
516.68	20262.02
516.85	20472.67
517.03	20573.31
517.20	20538.20
517.37	20805.02
517.54	20788.64
517.72	20664.59
517.89	20697.36
518.06	20636.50
518.24	20645.87
518.41	20720.76
518.58	20697.36
518.75	20938.43
518.93	21149.08
519.10	20947.79
519.27	21116.31
519.45	20879.92
519.62	20931.41
519.79	21284.83
519.96	21113.97
520.14	21415.90
520.31	21326.96
520.48	21458.03
520.65	21591.44
520.83	21343.35
521.00	21387.82
521.17	21598.46
521.34	21432.29
521.52	21956.57
521.69	21483.78
521.86	21703.79
522.03	21872.31
522.20	21930.82
522.38	21937.84
522.55	21865.28
522.72	22223.39
522.89	21942.52
523.07	22024.44
523.24	22246.79
523.41	22171.89
523.58	22167.21
523.75	22567.45
523.92	22356.80
524.10	22387.22
524.27	22483.19
524.44	22485.53
524.61	22553.40
524.78	22551.06
524.96	22623.62
525.13	22686.81
525.30	22686.81
525.47	22412.97
525.64	22838.95
525.81	22644.68
525.98	22862.35
526.16	22951.29
526.33	22820.22
526.50	22944.27
526.67	22867.03
526.84	22787.46
527.01	22902.14
527.18	23023.85
527.36	23255.56
527.53	23316.42
527.70	23400.68
527.87	23150.24
528.04	23520.04
528.21	23557.49
528.38	23278.97
528.55	23459.19
528.72	23454.51
528.89	23356.21
529.07	23468.55
529.24	23372.59
529.41	23606.64
529.58	23412.38
529.75	23381.95
529.92	23854.74
530.09	23623.03
530.26	23660.48
530.43	23892.19
530.60	23758.78
530.77	23695.58
530.94	23924.96
531.11	23899.21
531.28	23913.25
531.46	24360.30
531.63	23981.13
531.80	24056.03
531.97	24231.57
532.14	24383.70
532.31	24332.21
532.48	24306.46
532.65	24170.71
532.82	23796.23
532.99	24421.15
533.16	24049.00
533.33	24379.02
533.50	24486.68
533.67	24819.04
533.84	24304.12
534.01	24641.16
534.18	24496.05
534.35	24510.09
534.52	24449.24
534.69	24835.42
534.86	24912.66
535.03	24638.82
535.20	24933.73
535.37	25050.75
535.54	24922.02
535.71	24767.55
535.88	24844.79
536.05	24552.22
536.22	25127.99
536.38	24989.90
536.55	24973.52
536.72	25219.27
536.89	24741.80
537.06	24709.04
537.23	25418.22
537.40	25221.61
537.57	24996.92
537.74	25280.13
537.91	25268.42
538.08	25364.39
538.25	24903.30
538.42	25303.53
538.59	25788.02
538.75	25120.97
538.92	25495.46
539.09	25565.67
539.26	25280.13
539.43	25422.90
539.60	25537.59
539.77	25453.33
539.94	25734.19
540.11	25837.17
540.28	25797.38
540.44	25656.95
540.61	25846.54
540.78	25898.03
540.95	26064.21
541.12	26080.59
541.29	25703.76
541.46	25991.65
541.62	25916.75
541.79	25905.05
541.96	25539.93
542.13	25806.75
542.30	25914.41
542.47	26118.04
542.63	26036.12
542.80	25986.97
542.97	26424.65
543.14	26696.15
543.31	26361.45
543.48	26246.77
543.64	26471.46
543.81	26628.27
543.98	26644.66
544.15	26771.05
544.32	26740.62
544.48	26733.60
544.65	26679.77
544.82	26501.89
544.99	26469.12
545.16	26567.42
545.32	26682.11
545.49	26937.23
545.66	26867.01
545.83	26930.20
546.00	27314.05
546.16	26761.69
546.33	26501.89
546.50	26661.04
546.67	26979.36
546.83	26993.40
547.00	26845.94
547.17	27136.17
547.34	27009.78
547.50	27089.36
547.67	27087.02
547.84	27304.69
548.00	27110.43
548.17	27452.14
548.34	26890.41
548.51	27344.48
548.67	27463.85
548.84	27405.33
549.01	27360.86
549.18	27667.47
549.34	27527.04
549.51	27281.28
549.68	27274.26
549.84	27126.81
550.01	27522.36
550.18	27084.68
550.34	27740.03
550.51	27442.78
550.68	27625.34
550.84	27300.01
551.01	27510.66
551.18	27417.04
551.34	27283.62
551.51	27615.98
551.68	27758.75
551.84	27594.92
552.01	27747.05
552.18	28018.55
552.34	27660.45
552.51	27639.39
552.68	27697.90
552.84	27861.74
553.01	28233.88
553.18	27695.56
553.34	28364.95
553.51	28194.09
553.67	27915.57
553.84	28254.95
554.01	28098.13
554.17	28376.66
554.34	28070.04
554.51	28507.72
554.67	28163.67
554.84	28020.89
555.00	28191.75
555.17	27974.08
555.33	28077.07
555.50	27920.25
555.67	28002.17
555.83	28676.24
556.00	28247.93
556.16	28376.66
556.33	28449.21
556.50	28594.32
556.66	28133.24
556.83	28458.57
556.99	28489.00
557.16	28435.17
557.32	28709.01
557.49	28627.09
557.65	28606.03
557.82	28435.17
557.98	28435.17
558.15	28376.66
558.32	28776.89
558.48	28748.80
558.65	28886.89
558.81	28608.37
558.98	28854.12
559.14	29308.19
559.31	28783.91
559.47	29132.65
559.64	28730.08
559.80	28858.81
559.97	29001.58
560.13	29057.75
560.30	28868.17
560.46	28973.49
560.63	28802.63
560.79	29055.41
560.96	29570.33
561.12	28577.94
561.29	29069.45
561.45	28847.10
561.61	28643.48
561.78	28910.30
561.94	29071.79
562.11	29233.29
562.27	28797.95
562.44	29134.99
562.60	29062.43
562.77	29315.21
562.93	28924.34
563.10	29308.19
563.26	28961.79
563.42	29179.46
563.59	29146.69
563.75	29020.30
563.92	29125.63
564.08	29074.13
564.24	29364.36
564.41	29294.14
564.57	28842.42
564.74	29347.98
564.90	29263.72
565.07	28931.36
565.23	29322.23
565.39	29394.79
565.56	29575.01
565.72	28980.51
565.88	29528.20
566.05	29223.93
566.21	29483.73
566.38	29357.34
566.54	28851.78
566.70	29617.14
566.87	29598.41
567.03	29457.98
567.19	29762.25
567.36	29113.92
567.52	29598.41
567.68	29642.88
567.85	29172.44
568.01	29881.62
568.17	29256.70
568.34	29469.69
568.50	29495.43
568.66	29486.07
568.83	29762.25
568.99	29797.36
569.15	29586.71
569.32	29226.27
569.48	29462.66
569.64	29528.20
569.81	29326.91
569.97	29818.42
570.13	29738.85
570.30	29394.79
570.46	29579.69
570.62	29446.28
570.78	29551.60
570.95	29572.67
571.11	29593.73
571.27	29296.49
571.43	29677.99
571.60	29488.41
571.76	29563.31
571.92	29853.53
572.09	29619.48
572.25	29661.61
572.41	29933.11
572.57	29755.23
572.74	29813.74
572.90	29685.01
573.06	29635.86
573.22	29687.36
573.38	29575.01
573.55	29516.50
573.71	30005.67
573.87	29984.60
574.03	29612.46
574.20	29488.41
574.36	29954.18
574.52	29752.89
574.68	29773.95
574.84	29874.60
575.01	29731.83
575.17	29654.59
575.33	29713.10
575.49	29886.30
575.65	29640.54
575.82	29947.15
575.98	29947.15
576.14	30125.04
576.30	29689.70
576.46	29275.42
576.62	29795.02
576.79	29741.19
576.95	29621.82
577.11	29944.81
577.27	29717.78
577.43	30010.35
577.59	29909.71
577.75	29898.00
577.92	29619.48
578.08	29701.40
578.24	29687.36
578.40	29914.39
578.56	29752.89
578.72	29773.95
578.88	30087.59
579.04	30284.19
579.21	29977.58
579.37	30003.33
579.53	29710.76
579.69	29942.47
579.85	29694.38
580.01	29715.44
580.17	29392.45
580.33	29502.45
580.49	29989.28
580.65	29804.38
580.82	30263.13
580.98	30082.91
581.14	30008.01
581.30	30307.60
581.46	29937.79
581.62	30073.54
581.78	30277.17
581.94	29984.60
582.10	29846.51
582.26	29607.78
582.42	29668.63
582.58	29933.11
582.74	30206.95
582.90	30005.67
583.06	29991.62
583.22	30359.09
583.38	29991.62
583.54	29902.68
583.70	29764.59
583.86	30005.67
584.02	29923.75
584.18	30445.69
584.34	30218.66
584.50	30263.13
584.66	29944.81
584.82	29961.20
584.98	30366.11
585.14	29972.90
585.30	29965.88
585.46	30192.91
585.62	30073.54
585.78	29968.22
585.94	29968.22
586.10	30010.35
586.26	30038.44
586.42	30370.79
586.58	30050.14
586.74	30246.74
586.90	30356.75
587.06	29905.02
587.22	30410.58
587.38	29677.99
587.54	30422.28
587.70	29968.22
587.86	30394.20
588.02	30300.58
588.18	30417.60
588.34	30265.47
588.49	30211.64
588.65	30188.23
588.81	30005.67
588.97	30103.97
589.13	30494.84
589.29	30066.52
589.45	30089.93
589.61	30618.89
589.77	30635.27
589.93	30265.47
590.08	30443.35
590.24	30469.09
590.40	30183.55
590.56	30359.09
590.72	30541.65
590.88	30000.99
591.04	30071.20
591.20	30731.23
591.35	30691.44
591.51	30827.20
591.67	30604.84
591.83	30637.61
591.99	30485.48
