SpectraSuite Data File
++++++++++++++++++++++++++++++++++++
Date: Fri Oct 18 13:58:40 GMT-05:00 2013
User: bianchi
Dark Spectrum Present: No
Reference Spectrum Present: No
Number of Sampled Component Spectra: 1
Spectrometers: USB2+H05261
Integration Time (usec): 50000 (USB2+H05261)
Spectra Averaged: 1 (USB2+H05261)
Boxcar Smoothing: 0 (USB2+H05261)
Correct for Electrical Dark: No (USB2+H05261)
Strobe/Lamp Enabled: No (USB2+H05261)
Correct for Detector Non-linearity: No (USB2+H05261)
Correct for Stray Light: No (USB2+H05261)
Number of Pixels in Processed Spectrum: 2048
>>>>>Begin Processed Spectral Data<<<<<
365.73	0.00
365.92	0.00
366.12	0.00
366.32	0.00
366.52	0.00
366.72	0.00
366.91	0.00
367.11	0.00
367.31	0.00
367.51	0.00
367.70	0.00
367.90	0.00
368.10	0.00
368.30	0.00
368.49	0.00
368.69	0.00
368.89	0.00
369.09	0.00
369.28	0.00
369.48	0.00
369.68	0.00
369.87	0.00
370.07	0.00
370.27	0.00
370.47	0.00
370.66	149.79
370.86	63.19
371.06	152.13
371.25	196.60
371.45	119.37
371.65	131.07
371.84	58.51
372.04	198.95
372.24	224.69
372.44	198.95
372.63	166.18
372.83	166.18
373.03	161.50
373.22	156.82
373.42	259.80
373.62	215.33
373.81	182.56
374.01	250.44
374.21	283.20
374.40	262.14
374.60	236.39
374.79	262.14
374.99	238.73
375.19	269.16
375.38	227.03
375.58	212.99
375.78	231.71
375.97	301.93
376.17	212.99
376.37	191.92
376.56	308.95
376.76	196.60
376.95	248.10
377.15	355.76
377.35	264.48
377.54	294.91
377.74	255.12
377.93	299.59
378.13	236.39
378.33	245.76
378.52	304.27
378.72	287.89
378.91	376.83
379.11	292.57
379.31	266.82
379.50	278.52
379.70	322.99
379.89	353.42
380.09	243.42
380.28	369.80
380.48	304.27
380.68	304.27
380.87	259.80
381.07	337.04
381.26	351.08
381.46	264.48
381.65	280.86
381.85	369.80
382.04	280.86
382.24	304.27
382.43	386.19
382.63	266.82
382.83	311.29
383.02	404.91
383.22	397.89
383.41	379.17
383.61	376.83
383.80	454.06
384.00	332.36
384.19	360.44
384.39	325.33
384.58	397.89
384.78	400.23
384.97	325.33
385.17	442.36
385.36	360.44
385.56	425.98
385.75	367.46
385.95	365.12
386.14	461.09
386.34	365.12
386.53	355.76
386.72	416.62
386.92	418.96
387.11	339.38
387.31	475.13
387.50	416.62
387.70	447.04
387.89	447.04
388.09	362.78
388.28	374.49
388.48	463.43
388.67	404.91
388.86	447.04
389.06	533.64
389.25	465.77
389.45	482.15
389.64	568.75
389.84	418.96
390.03	425.98
390.22	470.45
390.42	512.58
390.61	519.60
390.81	507.90
391.00	425.98
391.19	538.32
391.39	500.87
391.58	428.32
391.78	486.83
391.97	479.81
392.16	512.58
392.36	535.98
392.55	599.18
392.75	606.20
392.94	533.64
393.13	545.34
393.33	526.62
393.52	489.17
393.71	608.54
393.91	613.22
394.10	543.00
394.29	491.51
394.49	594.50
394.68	592.16
394.88	507.90
395.07	631.94
395.26	631.94
395.46	585.13
395.65	596.84
395.84	608.54
396.04	706.84
396.23	587.47
396.42	695.14
396.62	636.63
396.81	671.73
397.00	641.31
397.19	655.35
397.39	671.73
397.58	650.67
397.77	688.12
397.97	697.48
398.16	713.86
398.35	791.10
398.55	676.41
398.74	737.27
398.93	723.23
399.12	702.16
399.32	788.76
399.51	685.78
399.70	770.04
399.90	800.46
400.09	784.08
400.28	791.10
400.47	730.25
400.67	863.66
400.86	753.65
401.05	688.12
401.24	786.42
401.44	814.51
401.63	774.72
401.82	833.23
402.01	734.93
402.21	823.87
402.40	842.59
402.59	880.04
402.78	704.50
402.97	805.14
403.17	854.30
403.36	835.57
403.55	786.42
403.74	891.74
403.93	851.96
404.13	915.15
404.32	938.55
404.51	968.98
404.70	905.79
404.89	1013.45
405.09	968.98
405.28	866.00
405.47	1046.22
405.66	919.83
405.85	985.37
406.05	992.39
406.24	940.90
406.43	1008.77
406.62	1013.45
406.81	1090.69
407.00	987.71
407.20	959.62
407.39	992.39
407.58	992.39
407.77	1081.33
407.96	1006.43
408.15	1008.77
408.34	1078.99
408.54	1025.15
408.73	1039.20
408.92	1118.78
409.11	1160.91
409.30	1029.84
409.49	1090.69
409.68	1167.93
409.87	1170.27
410.07	1177.29
410.26	1142.18
410.45	1144.52
410.64	1158.57
410.83	1245.16
411.02	1261.55
411.21	1224.10
411.40	1270.91
411.59	1224.10
411.78	1217.08
411.98	1210.06
412.17	1263.89
412.36	1336.45
412.55	1289.64
412.74	1327.08
412.93	1385.60
413.12	1320.06
413.31	1423.05
413.50	1373.89
413.69	1404.32
413.88	1455.81
414.07	1521.35
414.26	1488.58
414.45	1434.75
414.64	1371.55
414.83	1476.88
415.02	1458.15
415.22	1516.67
415.41	1540.07
415.60	1612.63
415.79	1624.33
415.98	1584.54
416.17	1570.50
416.36	1521.35
416.55	1568.16
416.74	1582.20
416.93	1598.59
417.12	1572.84
417.31	1668.80
417.50	1659.44
417.69	1701.57
417.88	1650.08
418.07	1680.50
418.26	1710.93
418.45	1755.40
418.64	1823.28
418.83	1715.61
419.02	1771.79
419.21	1706.25
419.39	1818.60
419.58	1832.64
419.77	1858.39
419.96	1846.68
420.15	1795.19
420.34	1879.45
420.53	1837.32
420.72	1743.70
420.91	1937.96
421.10	1956.69
421.29	1989.46
421.48	1888.81
421.67	1954.35
421.86	1891.15
422.05	1898.17
422.24	2033.93
422.43	1959.03
422.61	2003.50
422.80	2036.27
422.99	1947.33
423.18	2022.22
423.37	2024.56
423.56	1991.80
423.75	1987.11
423.94	1959.03
424.13	1734.34
424.32	1827.96
424.50	2059.67
424.69	2010.52
424.88	1975.41
425.07	2008.18
425.26	1961.37
425.45	2008.18
425.64	2115.84
425.83	2024.56
426.01	2078.40
426.20	2057.33
426.39	2073.71
426.58	1970.73
426.77	2071.37
426.96	2251.60
427.15	2125.21
427.33	2036.27
427.52	2143.93
427.71	2052.65
427.90	2172.02
428.09	2118.18
428.28	2132.23
428.46	2251.60
428.65	2167.34
428.84	2279.68
429.03	2312.45
429.22	2209.47
429.40	2275.00
429.59	2162.66
429.78	2108.82
429.97	2097.12
430.16	2200.10
430.34	2265.64
430.53	2289.04
430.72	2394.37
430.91	2230.53
431.10	2296.07
431.28	2305.43
431.47	2303.09
431.66	2452.88
431.85	2230.53
432.03	2476.29
432.22	2539.48
432.41	2389.69
432.60	2410.75
432.79	2502.03
432.97	2485.65
433.16	2356.92
433.35	2464.58
433.54	2403.73
433.72	2436.50
433.91	2429.48
434.10	2497.35
434.28	2502.03
434.47	2436.50
434.66	2527.78
434.85	2541.82
435.03	2675.23
435.22	2525.44
435.41	2693.96
435.59	2621.40
435.78	2661.19
435.97	2651.83
436.16	2689.28
436.34	2537.14
436.53	2665.87
436.72	2677.57
436.90	2600.34
437.09	2663.53
437.28	2698.64
437.46	2654.17
437.65	2703.32
437.84	2733.75
438.02	2712.68
438.21	2761.83
438.40	2708.00
438.58	2736.09
438.77	2881.20
438.96	2876.52
439.14	2822.69
439.33	2876.52
439.52	2916.31
439.70	2925.67
439.89	2970.14
440.08	2963.12
440.26	2970.14
440.45	3059.08
440.63	3077.80
440.82	3045.04
441.01	3213.56
441.19	3131.64
441.38	3115.25
441.57	3150.36
441.75	3239.30
441.94	3187.81
442.12	3351.65
442.31	3279.09
442.50	3260.37
442.68	3211.22
442.87	3241.64
443.05	3389.10
443.24	3335.26
443.43	3335.26
443.61	3258.03
443.80	3482.72
443.98	3356.33
444.17	3218.24
444.35	3431.23
444.54	3438.25
444.73	3405.48
444.91	3449.95
445.10	3475.70
445.28	3426.54
445.47	3400.80
445.65	3386.76
445.84	3321.22
446.02	3667.62
446.21	3466.33
446.39	3403.14
446.58	3412.50
446.77	3646.55
446.95	3496.76
447.14	3454.63
447.32	3471.01
447.51	3445.27
447.69	3412.50
447.88	3522.51
448.06	3421.86
448.25	3634.85
448.43	3559.95
448.62	3581.02
448.80	3482.72
448.99	3517.83
449.17	3564.64
449.36	3466.33
449.54	3644.21
449.73	3716.77
449.91	3634.85
450.10	3742.52
450.28	3761.24
450.46	3662.94
450.65	3768.26
450.83	3789.33
451.02	3632.51
451.20	3833.80
451.39	3880.61
451.57	3786.99
451.76	3941.46
451.94	3665.28
452.13	3920.40
452.31	3906.35
452.49	3943.80
452.68	3749.54
452.86	3791.67
453.05	3838.48
453.23	3978.91
453.42	3758.90
453.60	3868.91
453.78	3978.91
453.97	3875.93
454.15	3985.93
454.34	3904.01
454.52	4030.40
454.70	3880.61
454.89	4058.49
455.07	3936.78
455.26	3838.48
455.44	4102.96
455.62	4194.24
455.81	4163.81
455.99	4046.79
456.17	4042.11
456.36	4133.39
456.54	4117.00
456.73	4278.50
456.91	4252.75
457.09	4250.41
457.28	4238.71
457.46	4271.48
457.64	4320.63
457.83	4372.12
458.01	4334.67
458.19	4451.70
458.38	4241.05
458.56	4418.93
458.74	4528.94
458.93	4304.25
459.11	4386.16
459.29	4362.76
459.48	4346.37
459.66	4507.87
459.84	4505.53
460.03	4505.53
460.21	4545.32
460.39	4521.92
460.57	4603.83
460.76	4531.28
460.94	4777.03
461.12	4557.02
461.31	4596.81
461.49	4524.26
461.67	4578.09
461.85	4798.10
462.04	4601.49
462.22	4697.46
462.40	4669.37
462.59	4636.60
462.77	4788.74
462.95	4800.44
463.13	4840.23
463.32	4636.60
463.50	4770.01
463.68	4812.14
463.86	4774.69
464.05	4762.99
464.23	4882.36
464.41	4793.42
464.59	4755.97
464.78	4887.04
464.96	4844.91
465.14	4882.36
465.32	4901.08
465.50	4915.12
465.69	4992.36
465.87	4858.95
466.05	5057.90
466.23	4954.91
466.41	5071.94
466.60	5107.05
466.78	4880.02
466.96	4910.44
467.14	5027.47
467.32	5015.77
467.51	5107.05
467.69	4912.78
467.87	5081.30
468.05	5107.05
468.23	5195.99
468.41	5102.37
468.60	5198.33
468.78	5181.95
468.96	5055.56
469.14	5205.35
469.32	5198.33
469.50	5268.55
469.69	5284.93
469.87	5348.12
470.05	5481.53
470.23	5451.11
470.41	5598.56
470.59	5411.32
470.77	5495.58
470.95	5331.74
471.14	5596.22
471.32	5345.78
471.50	5474.51
471.68	5533.03
471.86	5526.00
472.04	5682.82
472.22	5846.66
472.40	5659.42
472.58	5827.93
472.77	5657.07
472.95	5767.08
473.13	5970.71
473.31	5692.18
473.49	5722.61
473.67	5795.17
473.85	5834.96
474.03	6029.22
474.21	6029.22
474.39	6080.71
474.57	5916.87
474.75	6218.80
474.93	6148.59
475.12	6113.48
475.30	6228.17
475.48	6106.46
475.66	6291.36
475.84	6134.54
476.02	6377.96
476.20	6244.55
476.38	6590.95
476.56	6581.59
476.74	6427.11
476.92	6459.88
477.10	6602.65
477.28	6497.33
477.46	6593.29
477.64	6532.44
477.82	6820.32
478.00	7105.87
478.18	6841.39
478.36	6911.60
478.54	6813.30
478.72	7002.88
478.90	7122.25
479.08	7173.74
479.26	7133.95
479.44	7382.05
479.62	7297.79
479.80	7316.51
479.98	7433.54
480.16	7403.11
480.34	7536.52
480.52	7566.95
480.70	7555.25
480.88	7517.80
481.06	7667.60
481.24	7550.57
481.41	7712.07
481.59	7831.43
481.77	7894.63
481.95	7852.50
482.13	8198.90
482.31	8124.00
482.49	7981.23
482.67	8145.06
482.85	8421.25
483.03	8566.36
483.21	8519.55
483.39	8475.08
483.57	8486.78
483.74	8540.61
483.92	8933.82
484.10	8547.64
484.28	8961.91
484.46	8990.00
484.64	9245.12
484.82	8966.59
485.00	9327.03
485.18	9137.45
485.35	9109.36
485.53	9252.14
485.71	9500.23
485.89	9469.81
486.07	9479.17
486.25	9479.17
486.43	9530.66
486.61	9643.01
486.78	9987.07
486.96	9806.84
487.14	10164.95
487.32	9994.09
487.50	9947.28
487.68	9958.98
487.85	10349.85
488.03	10413.04
488.21	10518.37
488.39	10490.28
488.57	10436.45
488.75	10630.71
488.92	10780.51
489.10	10782.85
489.28	10951.37
489.46	10934.98
489.64	10974.77
489.81	11257.98
489.99	11197.12
490.17	11485.01
490.35	11220.53
490.53	11236.91
490.70	11613.74
490.88	11609.06
491.06	11737.79
491.24	11571.61
491.41	11782.26
491.59	11915.67
491.77	11831.41
491.95	11866.52
492.13	12269.09
492.30	12105.25
492.48	12409.52
492.66	12100.57
492.84	12152.06
493.01	12348.67
493.19	12552.29
493.37	12589.74
493.54	12657.62
493.72	12669.32
493.90	12411.86
494.08	12716.13
494.25	12830.82
494.43	13097.64
494.61	13336.37
494.79	13050.83
494.96	13097.64
495.14	13415.95
495.32	13291.90
495.49	13530.64
495.67	13500.21
495.85	13741.29
496.02	13624.26
496.20	13914.48
496.38	13881.72
496.55	13809.16
496.73	14214.07
496.91	14015.13
497.09	14108.75
497.26	14352.16
497.44	14221.10
497.62	14356.85
497.79	14366.21
497.97	14218.75
498.14	14958.36
498.32	14691.54
498.50	14508.98
498.67	14759.42
498.85	14822.61
499.03	15023.90
499.20	14958.36
499.38	14890.49
499.56	15009.86
499.73	15276.68
499.91	15618.39
500.08	15349.23
500.26	15129.22
500.44	15391.36
500.61	15417.11
500.79	15419.45
500.97	15592.65
501.14	15782.23
501.32	15744.78
501.49	15686.27
501.67	15627.76
501.84	15597.33
502.02	15981.18
502.20	15962.45
502.37	16100.55
502.55	15932.03
502.72	16126.29
502.90	16093.52
503.07	15906.28
503.25	16477.37
503.43	16332.26
503.60	16510.14
503.78	16587.38
503.95	16547.59
504.13	16365.03
504.30	16453.97
504.48	16596.74
504.65	16629.51
504.83	16936.12
505.01	17062.51
505.18	17018.04
505.36	16870.58
505.53	16821.43
505.71	17029.74
505.88	16964.20
506.06	16774.62
506.23	17404.22
506.41	17497.84
506.58	17336.35
506.76	17125.70
506.93	17413.59
507.11	17268.47
507.28	17411.25
507.46	17294.22
507.63	17525.93
507.81	17940.21
507.98	17589.13
508.16	18043.19
508.33	17523.59
508.50	17935.53
508.68	18085.32
508.85	17900.42
509.03	18118.09
509.20	18118.09
509.38	18324.05
509.55	18092.34
509.73	18356.82
509.90	18134.47
510.08	18274.90
510.25	17909.78
510.42	18111.07
510.60	18593.22
510.77	18560.45
510.95	18541.72
511.12	18595.56
511.30	18677.48
511.47	18663.43
511.64	18939.62
511.82	19058.98
511.99	18757.05
512.17	18796.84
512.34	18836.63
512.51	18845.99
512.69	19171.33
512.86	19278.99
513.04	19307.08
513.21	19241.54
513.38	19716.67
513.56	19356.23
513.73	19459.21
513.90	19168.99
514.08	19424.11
514.25	19660.50
514.43	19517.73
514.60	20002.22
514.77	19520.07
514.95	19555.18
515.12	19740.08
515.29	19854.76
515.47	20121.59
515.64	20084.14
515.81	20044.35
515.99	19971.79
516.16	20205.84
516.33	20283.08
516.51	20308.83
516.68	20088.82
516.85	20084.14
517.03	20493.73
517.20	20350.96
517.37	20322.87
517.54	20460.96
517.72	20563.95
517.89	20592.03
518.06	20596.71
518.24	20416.49
518.41	20505.43
518.58	20554.58
518.75	20929.07
518.93	20926.73
519.10	20938.43
519.27	20556.93
519.45	20575.65
519.62	21050.78
519.79	21008.65
519.96	20917.37
520.14	21184.19
520.31	21371.43
520.48	21231.00
520.65	20980.56
520.83	21282.49
521.00	21195.89
521.17	21394.84
521.34	21458.03
521.52	20879.92
521.69	21291.85
521.86	21385.47
522.03	21474.42
522.20	21586.76
522.38	21694.43
522.55	21834.86
522.72	21610.17
522.89	21876.99
523.07	21862.94
523.24	21986.99
523.41	21678.04
523.58	22047.85
523.75	21869.97
523.92	21949.54
524.10	21851.24
524.27	21766.98
524.44	22160.19
524.61	22422.33
524.78	22363.82
524.96	22040.82
525.13	22298.28
525.30	22462.12
525.47	22244.45
525.64	22235.09
525.81	22623.62
525.98	22710.22
526.16	22546.38
526.33	22700.86
526.50	22970.02
526.67	22628.30
526.84	22852.99
527.01	22450.42
527.18	22899.80
527.36	23145.56
527.53	22934.91
527.70	23342.16
527.87	23374.93
528.04	23194.71
528.21	23147.90
528.38	23075.34
528.55	23267.27
528.72	23248.54
528.89	23157.26
529.07	23105.77
529.24	23061.30
529.41	23234.50
529.58	23073.00
529.75	23304.71
529.92	23241.52
530.09	23164.28
530.26	23508.34
530.43	23557.49
530.60	23190.03
530.77	23484.94
530.94	23639.41
531.11	23580.90
531.28	23700.26
531.46	23669.84
531.63	23648.77
531.80	23730.69
531.97	23866.44
532.14	23756.44
532.31	24247.95
532.48	23742.39
532.65	23693.24
532.82	23599.62
532.99	23812.61
533.16	23859.42
533.33	24081.77
533.50	24156.67
533.67	24093.47
533.84	24079.43
534.01	24098.16
534.18	23875.80
534.35	24395.40
534.52	24217.52
534.69	24531.15
534.86	24556.90
535.03	24608.39
535.20	24428.17
535.37	24439.87
535.54	24596.69
535.71	24224.54
535.88	24414.13
536.05	24423.49
536.22	24706.70
536.38	25067.14
536.55	25081.18
536.72	24765.21
536.89	24762.87
537.06	24851.81
537.23	24826.06
537.40	24491.37
537.57	24968.84
537.74	25174.80
537.91	24807.34
538.08	25149.06
538.25	25228.63
538.42	25259.06
538.59	25446.30
538.75	24957.13
538.92	25429.92
539.09	25188.85
539.26	25223.95
539.43	25373.75
539.60	25336.30
539.77	25254.38
539.94	25294.17
540.11	25568.01
540.28	25659.29
540.44	25436.94
540.61	25450.99
540.78	25277.79
540.95	25642.91
541.12	25516.52
541.29	25247.36
541.46	25362.04
541.62	25422.90
541.79	25656.95
541.96	25390.13
542.13	25717.81
542.30	25455.67
542.47	25961.22
542.63	25687.38
542.80	26082.93
542.97	25851.22
543.14	26012.71
543.31	26057.18
543.48	25528.22
543.64	26036.12
543.81	26312.30
543.98	26377.84
544.15	26251.45
544.32	26501.89
544.48	26644.66
544.65	26630.62
544.82	26181.23
544.99	26272.51
545.16	26141.44
545.32	26583.80
545.49	26497.20
545.66	26850.63
545.83	26773.39
546.00	26377.84
546.16	26733.60
546.33	26225.70
546.50	26504.23
546.67	26424.65
546.83	26408.26
547.00	26443.37
547.17	26789.77
547.34	26749.98
547.50	26532.31
547.67	26911.48
547.84	27084.68
548.00	26637.64
548.17	27185.32
548.34	26771.05
548.51	27044.89
548.67	27274.26
548.84	27276.60
549.01	27042.55
549.18	27131.49
549.34	26923.18
549.51	27119.79
549.68	27094.04
549.84	27328.10
550.01	27108.08
550.18	27505.98
550.34	27550.45
550.51	27367.88
550.68	27262.56
550.84	27054.25
551.01	27538.74
551.18	27351.50
551.34	27005.10
551.51	27211.07
551.68	27838.33
551.84	27110.43
552.01	27597.26
552.18	27459.16
552.34	27452.14
552.51	27735.35
552.68	27562.15
552.84	27402.99
553.01	27651.09
553.18	27641.73
553.34	27725.99
553.51	27840.67
553.67	27861.74
553.84	27828.97
554.01	28077.07
554.17	27948.34
554.34	27646.41
554.51	27510.66
554.67	28034.94
554.84	27864.08
555.00	27700.24
555.17	27894.50
555.33	27955.36
555.50	27562.15
555.67	27889.82
555.83	28032.60
556.00	28044.30
556.16	28037.28
556.33	28187.07
556.50	27967.06
556.66	28168.35
556.83	28158.99
556.99	28254.95
557.16	28252.61
557.32	28238.56
557.49	28341.55
557.65	28315.80
557.82	28470.28
557.98	28128.56
558.15	28231.54
558.32	28095.79
558.48	28135.58
558.65	28222.18
558.81	28201.11
558.98	28547.51
559.14	28257.29
559.31	28463.25
559.47	28467.94
559.64	28767.52
559.80	28381.34
559.97	28222.18
560.13	28505.38
560.30	28746.46
560.46	28545.17
560.63	28463.25
560.79	28489.00
560.96	28510.07
561.12	28294.74
561.29	28678.58
561.45	28547.51
561.61	28371.97
561.78	28823.70
561.94	28587.30
562.11	28683.27
562.27	28624.75
562.44	28952.43
562.60	28727.74
562.77	28657.52
562.93	28662.20
563.10	28861.15
563.26	28903.28
563.42	28584.96
563.59	28769.86
563.75	28680.92
563.92	29181.80
564.08	28896.25
564.24	29053.07
564.41	28889.23
564.57	28828.38
564.74	28830.72
564.90	29111.58
565.07	29120.95
565.23	28868.17
565.39	28870.51
565.56	29146.69
565.72	28896.25
565.88	28905.62
566.05	28725.39
566.21	29017.96
566.38	29020.30
566.54	29106.90
566.70	28966.47
566.87	29619.48
567.03	29198.18
567.19	29254.36
567.36	29029.66
567.52	29146.69
567.68	29221.59
567.85	29219.25
568.01	29514.16
568.17	29111.58
568.34	28872.85
568.50	29254.36
568.66	29130.31
568.83	29181.80
568.99	28980.51
569.15	29312.87
569.32	29020.30
569.48	29113.92
569.64	29486.07
569.81	29032.00
569.97	29062.43
570.13	29343.30
570.30	29383.09
570.46	29376.06
570.62	29296.49
570.78	29209.89
570.95	29062.43
571.11	28947.75
571.27	29083.50
571.43	28954.77
571.60	29242.65
571.76	29481.39
571.92	29317.55
572.09	29345.64
572.25	29570.33
572.41	29415.85
572.57	28856.46
572.74	29252.02
572.90	29429.90
573.06	29240.31
573.22	29406.49
573.38	29373.72
573.55	29184.14
573.71	29853.53
573.87	29673.31
574.03	29516.50
574.20	29450.96
574.36	29359.68
574.52	29383.09
574.68	29163.08
574.84	29371.38
575.01	29532.88
575.17	29631.18
575.33	29429.90
575.49	29429.90
575.65	29397.13
575.82	29890.98
575.98	29340.96
576.14	29652.25
576.30	29497.77
576.46	29324.57
576.62	29104.56
576.79	29467.34
576.95	29453.30
577.11	29673.31
577.27	29467.34
577.43	29689.70
577.59	29628.84
577.75	29450.96
577.92	29195.84
578.08	29486.07
578.24	29570.33
578.40	29289.46
578.56	29385.43
578.72	29766.93
578.88	29722.46
579.04	29937.79
579.21	29883.96
579.37	29504.79
579.53	29689.70
579.69	29432.24
579.85	29490.75
580.01	29593.73
580.17	29401.81
580.33	29762.25
580.49	29598.41
580.65	29685.01
580.82	29572.67
580.98	29481.39
581.14	29495.43
581.30	29888.64
581.46	29675.65
581.62	29610.12
581.78	29036.69
581.94	29937.79
582.10	29317.55
582.26	29399.47
582.42	29282.44
582.58	30047.80
582.74	30015.03
582.90	29792.68
583.06	29717.78
583.22	29443.94
583.38	29731.83
583.54	29694.38
583.70	29420.53
583.86	29542.24
584.02	29537.56
584.18	29839.49
584.34	29397.13
584.50	29738.85
584.66	29633.52
584.82	29500.11
584.98	29628.84
585.14	29551.60
585.30	29872.26
585.46	29586.71
585.62	29385.43
585.78	29528.20
585.94	29333.93
586.10	30080.56
586.26	30089.93
586.42	29851.19
586.58	29689.70
586.74	29689.70
586.90	29926.09
587.06	29317.55
587.22	29434.58
587.38	30132.06
587.54	29670.97
587.70	30361.43
587.86	29708.42
588.02	29703.74
588.18	30115.67
588.34	29921.41
588.49	29680.33
588.65	29593.73
588.81	29734.17
588.97	29837.15
589.13	29762.25
589.29	29652.25
589.45	29467.34
589.61	29764.59
589.77	30213.98
589.93	29928.43
590.08	30230.36
590.24	30314.62
590.40	29963.54
590.56	30328.66
590.72	29816.08
590.88	30171.85
591.04	29750.55
591.20	29949.50
591.35	30618.89
591.51	30707.83
591.67	29921.41
591.83	30092.27
591.99	30162.48
