SpectraSuite Data File
++++++++++++++++++++++++++++++++++++
Date: Fri Oct 18 13:58:08 GMT-05:00 2013
User: bianchi
Dark Spectrum Present: No
Reference Spectrum Present: No
Number of Sampled Component Spectra: 1
Spectrometers: USB2+H05261
Integration Time (usec): 50000 (USB2+H05261)
Spectra Averaged: 1 (USB2+H05261)
Boxcar Smoothing: 0 (USB2+H05261)
Correct for Electrical Dark: No (USB2+H05261)
Strobe/Lamp Enabled: No (USB2+H05261)
Correct for Detector Non-linearity: No (USB2+H05261)
Correct for Stray Light: No (USB2+H05261)
Number of Pixels in Processed Spectrum: 2048
>>>>>Begin Processed Spectral Data<<<<<
365.73	0.00
365.92	0.00
366.12	0.00
366.32	0.00
366.52	0.00
366.72	0.00
366.91	0.00
367.11	0.00
367.31	0.00
367.51	0.00
367.70	0.00
367.90	0.00
368.10	0.00
368.30	0.00
368.49	0.00
368.69	0.00
368.89	0.00
369.09	0.00
369.28	0.00
369.48	0.00
369.68	0.00
369.87	0.00
370.07	0.00
370.27	0.00
370.47	0.00
370.66	51.49
370.86	74.90
371.06	177.88
371.25	184.90
371.45	77.24
371.65	91.28
371.84	147.45
372.04	161.50
372.24	145.11
372.44	184.90
372.63	147.45
372.83	205.97
373.03	222.35
373.22	187.24
373.42	227.03
373.62	145.11
373.81	269.16
374.01	189.58
374.21	194.26
374.40	212.99
374.60	287.89
374.79	212.99
374.99	252.78
375.19	271.50
375.38	234.05
375.58	297.25
375.78	301.93
375.97	313.63
376.17	266.82
376.37	273.84
376.56	266.82
376.76	243.42
376.95	325.33
377.15	304.27
377.35	266.82
377.54	285.55
377.74	255.12
377.93	252.78
378.13	304.27
378.33	205.97
378.52	252.78
378.72	236.39
378.91	283.20
379.11	308.95
379.31	276.18
379.50	320.65
379.70	325.33
379.89	250.44
380.09	210.65
380.28	266.82
380.48	362.78
380.68	308.95
380.87	341.72
381.07	353.42
381.26	348.74
381.46	386.19
381.65	433.00
381.85	301.93
382.04	320.65
382.24	334.70
382.43	280.86
382.63	332.36
382.83	339.38
383.02	369.80
383.22	374.49
383.41	304.27
383.61	376.83
383.80	411.93
384.00	390.87
384.19	362.78
384.39	381.51
384.58	365.12
384.78	337.04
384.97	348.74
385.17	400.23
385.36	337.04
385.56	386.19
385.75	346.40
385.95	444.70
386.14	414.27
386.34	355.76
386.53	395.55
386.72	367.46
386.92	425.98
387.11	468.11
387.31	451.72
387.50	458.74
387.70	411.93
387.89	470.45
388.09	428.32
388.28	348.74
388.48	444.70
388.67	456.40
388.86	465.77
389.06	482.15
389.25	458.74
389.45	526.62
389.64	433.00
389.84	414.27
390.03	484.49
390.22	503.22
390.42	463.43
390.61	528.96
390.81	489.17
391.00	482.15
391.19	559.39
391.39	425.98
391.58	578.11
391.78	468.11
391.97	498.53
392.16	498.53
392.36	489.17
392.55	643.65
392.75	519.60
392.94	540.66
393.13	610.88
393.33	566.41
393.52	587.47
393.71	613.22
393.91	500.87
394.10	613.22
394.29	603.86
394.49	620.24
394.68	526.62
394.88	543.00
395.07	657.69
395.26	650.67
395.46	566.41
395.65	601.52
395.84	538.32
396.04	669.39
396.23	631.94
396.42	683.44
396.62	730.25
396.81	648.33
397.00	727.91
397.19	777.06
397.39	653.01
397.58	809.83
397.77	692.80
397.97	596.84
398.16	685.78
398.35	746.63
398.55	763.01
398.74	842.59
398.93	821.53
399.12	709.18
399.32	823.87
399.51	706.84
399.70	734.93
399.90	802.80
400.09	847.27
400.28	800.46
400.47	777.06
400.67	891.74
400.86	840.25
401.05	765.36
401.24	779.40
401.44	805.14
401.63	849.61
401.82	816.85
402.01	779.40
402.21	849.61
402.40	854.30
402.59	732.59
402.78	912.81
402.97	884.72
403.17	875.36
403.36	889.40
403.55	826.21
403.74	814.51
403.93	866.00
404.13	898.77
404.32	863.66
404.51	833.23
404.70	987.71
404.89	917.49
405.09	901.11
405.28	1011.11
405.47	908.13
405.66	933.87
405.85	1001.75
406.05	957.28
406.24	997.07
406.43	1011.11
406.62	1041.54
406.81	1095.37
407.00	1053.24
407.20	1025.15
407.39	992.39
407.58	1118.78
407.77	1015.79
407.96	1053.24
408.15	1057.92
408.34	1100.05
408.54	1086.01
408.73	1102.39
408.92	1174.95
409.11	1104.73
409.30	1233.46
409.49	1277.93
409.68	1261.55
409.87	1111.75
410.07	1210.06
410.26	1193.67
410.45	1268.57
410.64	1177.29
410.83	1181.97
411.02	1181.97
411.21	1331.76
411.40	1252.19
411.59	1341.13
411.78	1254.53
411.98	1235.80
412.17	1228.78
412.36	1242.82
412.55	1310.70
412.74	1364.53
412.93	1345.81
413.12	1324.74
413.31	1474.54
413.50	1331.76
413.69	1465.18
413.88	1378.58
414.07	1437.09
414.26	1453.47
414.45	1404.32
414.64	1437.09
414.83	1619.65
415.02	1535.39
415.22	1575.18
415.41	1544.75
415.60	1507.30
415.79	1596.25
415.98	1659.44
416.17	1624.33
416.36	1547.09
416.55	1593.90
416.74	1692.21
416.93	1596.25
417.12	1746.04
417.31	1671.14
417.50	1727.32
417.69	1858.39
417.88	1799.87
418.07	1671.14
418.26	1685.19
418.45	1781.15
418.64	1799.87
418.83	1783.49
419.02	1849.02
419.21	1839.66
419.39	1989.46
419.58	1753.06
419.77	1823.28
419.96	1877.11
420.15	1891.15
420.34	1774.13
420.53	1963.71
420.72	2005.84
420.91	2029.24
421.10	1973.07
421.29	2017.54
421.48	1991.80
421.67	1977.75
421.86	1928.60
422.05	2001.16
422.24	1888.81
422.43	1968.39
422.61	1968.39
422.80	1947.33
422.99	2036.27
423.18	2040.95
423.37	2127.55
423.56	2076.06
423.75	2036.27
423.94	2083.08
424.13	1818.60
424.32	2029.24
424.50	2024.56
424.69	2057.33
424.88	2120.53
425.07	2097.12
425.26	2026.90
425.45	2104.14
425.64	2010.52
425.83	2012.86
426.01	2101.80
426.20	2083.08
426.39	2230.53
426.58	2008.18
426.77	2085.42
426.96	2064.35
427.15	2134.57
427.33	2169.68
427.52	2167.34
427.71	2106.48
427.90	2237.55
428.09	2193.08
428.28	2146.27
428.46	2183.72
428.65	2258.62
428.84	2319.47
429.03	2209.47
429.22	2326.49
429.40	2389.69
429.59	2263.30
429.78	2099.46
429.97	2282.02
430.16	2235.21
430.34	2307.77
430.53	2359.26
430.72	2396.71
430.91	2347.56
431.10	2380.32
431.28	2328.83
431.47	2408.41
431.66	2471.61
431.85	2347.56
432.03	2436.50
432.22	2555.86
432.41	2490.33
432.60	2614.38
432.79	2370.96
432.97	2504.37
433.16	2441.18
433.35	2457.56
433.54	2436.50
433.72	2558.21
433.91	2483.31
434.10	2530.12
434.28	2527.78
434.47	2630.76
434.66	2516.08
434.85	2609.70
435.03	2642.46
435.22	2551.18
435.41	2736.09
435.59	2635.44
435.78	2637.78
435.97	2569.91
436.16	2726.72
436.34	2607.36
436.53	2722.04
436.72	2752.47
436.90	2661.19
437.09	2729.06
437.28	2743.11
437.46	2686.94
437.65	2827.37
437.84	2773.53
438.02	2836.73
438.21	2860.13
438.40	2764.17
438.58	2932.69
438.77	2869.50
438.96	2869.50
439.14	2951.42
439.33	3021.63
439.52	2885.88
439.70	2986.52
439.89	3089.51
440.08	3103.55
440.26	3169.09
440.45	3084.83
440.63	3199.51
440.82	3096.53
441.01	3185.47
441.19	3150.36
441.38	3255.69
441.57	3201.85
441.75	3272.07
441.94	3370.37
442.12	3396.12
442.31	3272.07
442.50	3370.37
442.68	3372.71
442.87	3578.68
443.05	3344.63
443.24	3471.01
443.43	3468.67
443.61	3370.37
443.80	3552.93
443.98	3332.92
444.17	3309.52
444.35	3499.10
444.54	3494.42
444.73	3569.32
444.91	3634.85
445.10	3438.25
445.28	3508.46
445.47	3370.37
445.65	3431.23
445.84	3693.37
446.02	3609.11
446.21	3562.30
446.39	3510.80
446.58	3574.00
446.77	3599.74
446.95	3482.72
447.14	3569.32
447.32	3492.08
447.51	3461.65
447.69	3609.11
447.88	3522.51
448.06	3623.15
448.25	3632.51
448.43	3576.34
448.62	3639.53
448.80	3555.27
448.99	3695.71
449.17	3709.75
449.36	3667.62
449.54	3829.12
449.73	3688.68
449.91	3833.80
450.10	3723.79
450.28	3669.96
450.46	3714.43
450.65	3789.33
450.83	3932.10
451.02	3765.92
451.20	3805.71
451.39	3943.80
451.57	3829.12
451.76	3749.54
451.94	3861.88
452.13	3925.08
452.31	3927.42
452.49	3950.82
452.68	3992.95
452.86	3981.25
453.05	3953.16
453.23	4002.32
453.42	3784.65
453.60	3967.21
453.78	3920.40
453.97	3941.46
454.15	3880.61
454.34	4102.96
454.52	4063.17
454.70	4065.51
454.89	4072.53
455.07	4173.18
455.26	4095.94
455.44	4184.88
455.62	4056.15
455.81	4081.89
455.99	4138.07
456.17	4128.70
456.36	4238.71
456.54	4264.46
456.73	4236.37
456.91	4280.84
457.09	4416.59
457.28	4404.89
457.46	4280.84
457.64	4542.98
457.83	4442.34
458.01	4318.29
458.19	4470.42
458.38	4425.95
458.56	4517.23
458.74	4423.61
458.93	4360.42
459.11	4365.10
459.29	4484.47
459.48	4519.57
459.66	4521.92
459.84	4667.03
460.03	4697.46
460.21	4575.75
460.39	4627.24
460.57	4559.36
460.76	4629.58
460.94	4718.52
461.12	4751.29
461.31	4678.73
461.49	4685.75
461.67	4847.25
461.85	4835.55
462.04	4762.99
462.22	5071.94
462.40	4828.53
462.59	4779.37
462.77	4802.78
462.95	4788.74
463.13	4814.48
463.32	4802.78
463.50	4891.72
463.68	4975.98
463.86	4912.78
464.05	5055.56
464.23	4973.64
464.41	5076.62
464.59	4891.72
464.78	5102.37
464.96	4854.27
465.14	4966.62
465.32	5064.92
465.50	4961.94
465.69	5090.67
465.87	5135.14
466.05	5153.86
466.23	5144.50
466.41	5088.32
466.60	5193.65
466.78	5006.41
466.96	5146.84
467.14	5146.84
467.32	5174.92
467.51	5298.97
467.69	5195.99
467.87	5263.86
468.05	5217.05
468.23	5305.99
468.41	5210.03
468.60	5064.92
468.78	5479.19
468.96	5228.76
469.14	5392.59
469.32	5392.59
469.50	5359.83
469.69	5451.11
469.87	5631.33
470.05	5420.68
470.23	5439.40
470.41	5518.98
470.59	5413.66
470.77	5376.21
470.95	5472.17
471.14	5678.14
471.32	5544.73
471.50	5820.91
471.68	5839.64
471.86	5673.46
472.04	5771.76
472.22	5898.15
472.40	5614.95
472.58	5760.06
472.77	5764.74
472.95	5900.49
473.13	6090.07
473.31	5980.07
473.49	5961.34
473.67	5877.09
473.85	5935.60
474.03	6253.91
474.21	6190.72
474.39	5975.39
474.57	6127.52
474.75	6190.72
474.93	6345.19
475.12	6183.70
475.30	6230.51
475.48	6326.47
475.66	6335.83
475.84	6389.66
476.02	6401.37
476.20	6328.81
476.38	6504.35
476.56	6719.68
476.74	6794.58
476.92	6684.57
477.10	6565.20
477.28	6698.61
477.46	6771.17
477.64	6778.19
477.82	6906.92
478.00	6979.48
478.18	7115.23
478.36	7040.33
478.54	7260.34
478.72	7126.93
478.90	7094.16
479.08	7126.93
479.26	7389.07
479.44	7344.60
479.62	7332.90
479.80	7405.46
479.98	7407.80
480.16	7585.68
480.34	7709.72
480.52	7796.32
480.70	7765.90
480.88	7510.78
481.06	7831.43
481.24	7847.82
481.41	7707.38
481.59	7974.21
481.77	8086.55
481.95	8262.09
482.13	8332.31
482.31	8145.06
482.49	8503.17
482.67	8489.12
482.85	8575.72
483.03	8678.71
483.21	8610.83
483.39	8606.15
483.57	8667.00
483.74	8788.71
483.92	8730.20
484.10	8702.11
484.28	8936.17
484.46	8999.36
484.64	9383.21
484.82	9153.84
485.00	9210.01
485.18	9474.49
485.35	9708.54
485.53	9638.33
485.71	9699.18
485.89	9860.68
486.07	9722.59
486.25	9816.21
486.43	9720.24
486.61	9935.57
486.78	10162.61
486.96	9933.23
487.14	10059.62
487.32	10033.88
487.50	10420.06
487.68	10272.61
487.85	10513.69
488.03	10509.01
488.21	10729.02
488.39	10644.76
488.57	10822.64
488.75	10951.37
488.92	11239.25
489.10	11005.20
489.28	11108.18
489.46	11328.19
489.64	11293.08
489.81	11517.78
489.99	11417.13
490.17	11510.75
490.35	11538.84
490.53	11644.17
490.70	11845.45
490.88	11894.60
491.06	11733.11
491.24	11822.05
491.41	11868.86
491.59	12121.63
491.77	12184.83
491.95	12238.66
492.13	12472.71
492.30	12379.09
492.48	12374.41
492.66	12381.43
492.84	12444.63
493.01	12720.81
493.19	12706.77
493.37	13060.19
493.54	13132.75
493.72	13041.46
493.90	13085.94
494.08	13226.37
494.25	13111.68
494.43	13558.72
494.61	13619.58
494.79	13530.64
494.96	13401.91
495.14	13692.13
495.32	13694.47
495.49	13607.87
495.67	13902.78
495.85	14031.51
496.02	14118.11
496.20	14085.34
496.38	14197.69
496.55	13987.04
496.73	14382.59
496.91	14298.33
497.09	14427.06
497.26	14471.53
497.44	14497.28
497.62	14672.82
497.79	14494.94
497.97	14640.05
498.14	15152.63
498.32	15026.24
498.50	14941.98
498.67	15335.19
498.85	15115.18
499.03	15302.42
499.20	15119.86
499.38	15360.94
499.56	15204.12
499.73	15782.23
499.91	15688.61
500.08	15852.45
500.26	15583.29
500.44	15634.78
500.61	15805.64
500.79	15658.18
500.97	15901.60
501.14	16173.10
501.32	16053.73
501.49	16056.08
501.67	16217.57
501.84	16159.06
502.02	16187.14
502.20	16285.45
502.37	16269.06
502.55	16203.53
502.72	16645.89
502.90	16498.44
503.07	16430.56
503.25	16650.57
503.43	16835.47
503.60	16671.64
503.78	16940.80
503.95	16826.11
504.13	16809.73
504.30	17263.79
504.48	16854.20
504.65	16755.90
504.83	16992.29
505.01	17074.21
505.18	17357.41
505.36	17493.16
505.53	17488.48
505.71	17696.79
505.88	17411.25
506.06	17041.44
506.23	17781.05
506.41	17387.84
506.58	17731.90
506.76	17841.90
506.93	17853.61
507.11	17455.72
507.28	18043.19
507.46	17879.35
507.63	18235.11
507.81	18185.96
507.98	18167.24
508.16	18045.53
508.33	18122.77
508.50	18347.46
508.68	18122.77
508.85	18534.70
509.03	18396.61
509.20	18586.19
509.38	18911.53
509.55	18782.80
509.73	18733.65
509.90	18991.11
510.08	18698.54
510.25	18689.18
510.42	18611.94
510.60	18883.44
510.77	18845.99
510.95	19185.37
511.12	18799.18
511.30	19143.24
511.47	19262.61
511.64	19384.32
511.82	19344.53
511.99	19211.12
512.17	19690.93
512.34	19360.91
512.51	19632.41
512.69	19742.42
512.86	19585.60
513.04	20159.03
513.21	19946.05
513.38	19894.55
513.56	19737.74
513.73	19695.61
513.90	20030.30
514.08	19847.74
514.25	19913.28
514.43	20037.33
514.60	19943.70
514.77	20098.18
514.95	20152.01
515.12	19988.18
515.29	20343.94
515.47	20219.89
515.64	20542.88
515.81	20224.57
515.99	20755.87
516.16	20730.12
516.33	20823.75
516.51	20830.77
516.68	20519.48
516.85	20542.88
517.03	20671.61
517.20	20631.82
517.37	20788.64
517.54	21125.68
517.72	21060.14
517.89	20875.24
518.06	20900.98
518.24	21270.79
518.41	20872.90
518.58	21317.60
518.75	21034.39
518.93	21488.46
519.10	21376.11
519.27	21408.88
519.45	21490.80
519.62	21186.53
519.79	21193.55
519.96	21397.18
520.14	21593.78
520.31	21612.51
520.48	22005.72
520.65	21804.43
520.83	21912.10
521.00	21635.91
521.17	21706.13
521.34	21848.90
521.52	22207.00
521.69	22087.64
521.86	21998.70
522.03	21830.18
522.20	22113.38
522.38	21961.25
522.55	21998.70
522.72	22235.09
522.89	22253.81
523.07	22728.94
523.24	22508.93
523.41	22757.03
523.58	22459.78
523.75	22558.08
523.92	22621.28
524.10	22630.64
524.27	22864.69
524.44	22642.34
524.61	22885.76
524.78	23166.62
524.96	23068.32
525.13	23044.91
525.30	22822.56
525.47	22899.80
525.64	22955.97
525.81	23049.60
525.98	23374.93
526.16	22927.89
526.33	23283.65
526.50	23274.29
526.67	23360.89
526.84	23241.52
527.01	23232.16
527.18	23318.76
527.36	23461.53
527.53	23501.32
527.70	23714.31
527.87	23527.06
528.04	23508.34
528.21	24056.03
528.38	23531.75
528.55	23892.19
528.72	23878.15
528.89	24102.84
529.07	24294.76
529.24	23644.09
529.41	24056.03
529.58	23999.85
529.75	23805.59
529.92	23721.33
530.09	24245.61
530.26	24233.91
530.43	24114.54
530.60	24170.71
530.77	24135.60
530.94	24343.91
531.11	24079.43
531.28	24187.10
531.46	24240.93
531.63	24383.70
531.80	24570.94
531.97	24631.80
532.14	24772.23
532.31	24367.32
532.48	24720.74
532.65	24318.17
532.82	24697.33
532.99	24479.66
533.16	25006.28
533.33	24767.55
533.50	24716.06
533.67	24833.08
533.84	24575.62
534.01	25120.97
534.18	24702.01
534.35	24774.57
534.52	24816.70
534.69	25165.44
534.86	25120.97
535.03	25064.80
535.20	24917.34
535.37	25364.39
535.54	25273.10
535.71	24819.04
535.88	25390.13
536.05	25542.27
536.22	25605.46
536.38	25401.83
536.55	25556.31
536.72	25710.78
536.89	25261.40
537.06	25240.34
537.23	25181.82
537.40	25371.41
537.57	25628.87
537.74	25619.50
537.91	25818.45
538.08	26012.71
538.25	25736.53
538.42	25776.32
538.59	25949.52
538.75	25420.56
538.92	25914.41
539.09	25624.18
539.26	25876.96
539.43	26022.08
539.60	25764.62
539.77	25970.58
539.94	26256.13
540.11	25984.63
540.28	26373.16
540.44	26256.13
540.61	25865.26
540.78	26347.41
540.95	26050.16
541.12	26279.54
541.29	26529.97
541.46	26176.55
541.62	26143.78
541.79	26443.37
541.96	26246.77
542.13	26499.55
542.30	26082.93
542.47	26532.31
542.63	26520.61
542.80	26775.73
542.97	26579.12
543.14	26829.56
543.31	26876.37
543.48	26661.04
543.64	26998.08
543.81	26881.05
543.98	27190.00
544.15	26801.47
544.32	27178.30
544.48	27002.76
544.65	26930.20
544.82	26864.67
544.99	26815.52
545.16	26937.23
545.32	26998.08
545.49	27175.96
545.66	27281.28
545.83	27187.66
546.00	27655.77
546.16	27227.45
546.33	27271.92
546.50	27351.50
546.67	27133.83
546.83	27077.66
547.00	27515.34
547.17	27363.20
547.34	27410.01
547.50	27302.35
547.67	27866.42
547.84	27627.68
548.00	27812.59
548.17	27817.27
548.34	27573.85
548.51	27520.02
548.67	27885.14
548.84	28163.67
549.01	27850.03
549.18	27812.59
549.34	27669.81
549.51	27459.16
549.68	27868.76
549.84	27592.58
550.01	27960.04
550.18	27789.18
550.34	27955.36
550.51	28013.87
550.68	28009.19
550.84	27744.71
551.01	28084.09
551.18	28163.67
551.34	28196.43
551.51	27960.04
551.68	27981.10
551.84	27896.85
552.01	28123.88
552.18	28313.46
552.34	27845.35
552.51	28236.22
552.68	28060.68
552.84	28215.16
553.01	28519.43
553.18	28599.01
553.34	28299.42
553.51	28463.25
553.67	28133.24
553.84	28987.53
554.01	28854.12
554.17	28524.11
554.34	28648.16
554.51	28357.93
554.67	28554.54
554.84	28837.74
555.00	28945.41
555.17	28903.28
555.33	28835.40
555.50	28851.78
555.67	28779.23
555.83	28606.03
556.00	28968.81
556.16	29235.63
556.33	28755.82
556.50	28643.48
556.66	28650.50
556.83	28945.41
556.99	29074.13
557.16	29373.72
557.32	29104.56
557.49	29263.72
557.65	28617.73
557.82	28898.59
557.98	28847.10
558.15	28914.98
558.32	29097.54
558.48	28718.37
558.65	29263.72
558.81	28992.22
558.98	29088.18
559.14	29195.84
559.31	29013.28
559.47	29156.05
559.64	29359.68
559.80	29027.32
559.97	29385.43
560.13	28797.95
560.30	29301.17
560.46	29378.40
560.63	29422.87
560.79	29263.72
560.96	29596.07
561.12	28877.53
561.29	29244.99
561.45	29198.18
561.61	29879.28
561.78	29390.11
561.94	29226.27
562.11	29748.21
562.27	29476.71
562.44	29273.08
562.60	29418.19
562.77	29319.89
562.93	29357.34
563.10	29722.46
563.26	29649.91
563.42	30017.37
563.59	30022.05
563.75	29748.21
563.92	29689.70
564.08	29570.33
564.24	29867.58
564.41	29567.99
564.57	29521.18
564.74	29689.70
564.90	29970.56
565.07	29563.31
565.23	29802.04
565.39	29874.60
565.56	29940.13
565.72	29638.20
565.88	29565.65
566.05	29521.18
566.21	29818.42
566.38	29832.47
566.54	29706.08
566.70	30515.90
566.87	30162.48
567.03	29926.09
567.19	29713.10
567.36	30216.32
567.52	30012.69
567.68	30078.22
567.85	29668.63
568.01	29806.72
568.17	30075.88
568.34	29661.61
568.50	30110.99
568.66	30087.59
568.83	30443.35
568.99	30312.28
569.15	30221.00
569.32	29692.04
569.48	30078.22
569.64	30171.85
569.81	30106.31
569.97	29879.28
570.13	30323.98
570.30	29935.45
570.46	29942.47
570.62	30122.69
570.78	30038.44
570.95	30178.87
571.11	30064.18
571.27	29670.97
571.43	30174.19
571.60	30258.45
571.76	29984.60
571.92	30272.49
572.09	30176.53
572.25	30244.40
572.41	30244.40
572.57	30520.59
572.74	30232.70
572.90	30239.72
573.06	30047.80
573.22	29692.04
573.38	30125.04
573.55	30319.30
573.71	30277.17
573.87	30197.59
574.03	30394.20
574.20	30508.88
574.36	30005.67
574.52	30405.90
574.68	30307.60
574.84	30424.62
575.01	30452.71
575.17	30150.78
575.33	30192.91
575.49	30164.82
575.65	30478.46
575.82	30244.40
575.98	30562.72
576.14	30415.26
576.30	30487.82
576.46	30118.01
576.62	30319.30
576.79	30157.80
576.95	29935.45
577.11	30600.16
577.27	30340.36
577.43	30778.04
577.59	30759.32
577.75	30464.41
577.92	30506.54
578.08	30174.19
578.24	30085.25
578.40	30398.88
578.56	30272.49
578.72	30190.57
578.88	30803.79
579.04	30869.33
579.21	30139.08
579.37	30572.08
579.53	30691.44
579.69	30642.29
579.85	30323.98
580.01	30508.88
580.17	30078.22
580.33	30471.43
580.49	30611.87
580.65	30466.75
580.82	30897.41
580.98	30684.42
581.14	30033.75
581.30	30288.87
581.46	30345.05
581.62	30448.03
581.78	30646.97
581.94	30738.26
582.10	30139.08
582.26	30433.99
582.42	30822.51
582.58	30323.98
582.74	30785.07
582.90	30342.70
583.06	30462.07
583.22	30534.63
583.38	30476.12
583.54	30817.83
583.70	30735.92
583.86	30635.27
584.02	30157.80
584.18	30810.81
584.34	30906.77
584.50	30824.86
584.66	30623.57
584.82	30602.50
584.98	30525.27
585.14	30551.01
585.30	30417.60
585.46	30649.32
585.62	30150.78
585.78	30625.91
585.94	30455.05
586.10	30705.49
586.26	30979.33
586.42	30972.31
586.58	30609.53
586.74	30642.29
586.90	30232.70
587.06	30319.30
587.22	30782.73
587.38	30387.18
587.54	30902.09
587.70	30829.54
587.86	30885.71
588.02	31002.74
588.18	30883.37
588.34	30726.55
588.49	30778.04
588.65	31002.74
588.81	30766.34
588.97	30597.82
589.13	30394.20
589.29	30871.67
589.45	30836.56
589.61	30637.61
589.77	30469.09
589.93	30888.05
590.08	31197.00
590.24	31007.42
590.40	30976.99
590.56	31000.40
590.72	31000.40
590.88	30719.53
591.04	30742.94
591.20	30850.60
591.35	31002.74
591.51	31342.11
591.67	31302.32
591.83	31035.50
591.99	30998.06
