SpectraSuite Data File
++++++++++++++++++++++++++++++++++++
Date: Fri Oct 18 13:57:58 GMT-05:00 2013
User: bianchi
Dark Spectrum Present: No
Reference Spectrum Present: No
Number of Sampled Component Spectra: 1
Spectrometers: USB2+H05261
Integration Time (usec): 50000 (USB2+H05261)
Spectra Averaged: 1 (USB2+H05261)
Boxcar Smoothing: 0 (USB2+H05261)
Correct for Electrical Dark: No (USB2+H05261)
Strobe/Lamp Enabled: No (USB2+H05261)
Correct for Detector Non-linearity: No (USB2+H05261)
Correct for Stray Light: No (USB2+H05261)
Number of Pixels in Processed Spectrum: 2048
>>>>>Begin Processed Spectral Data<<<<<
365.73	0.00
365.92	0.00
366.12	0.00
366.32	0.00
366.52	0.00
366.72	0.00
366.91	0.00
367.11	0.00
367.31	0.00
367.51	0.00
367.70	0.00
367.90	0.00
368.10	0.00
368.30	0.00
368.49	0.00
368.69	0.00
368.89	0.00
369.09	0.00
369.28	0.00
369.48	0.00
369.68	0.00
369.87	0.00
370.07	0.00
370.27	0.00
370.47	0.00
370.66	121.71
370.86	100.64
371.06	168.52
371.25	196.60
371.45	166.18
371.65	124.05
371.84	102.98
372.04	191.92
372.24	142.77
372.44	201.29
372.63	163.84
372.83	241.08
373.03	203.63
373.22	149.79
373.42	210.65
373.62	224.69
373.81	173.20
374.01	217.67
374.21	220.01
374.40	154.48
374.60	248.10
374.79	313.63
374.99	243.42
375.19	273.84
375.38	243.42
375.58	229.37
375.78	287.89
375.97	271.50
376.17	245.76
376.37	236.39
376.56	332.36
376.76	243.42
376.95	241.08
377.15	306.61
377.35	346.40
377.54	236.39
377.74	318.31
377.93	278.52
378.13	325.33
378.33	252.78
378.52	315.97
378.72	269.16
378.91	327.68
379.11	290.23
379.31	306.61
379.50	269.16
379.70	348.74
379.89	306.61
380.09	290.23
380.28	320.65
380.48	372.15
380.68	297.25
380.87	330.02
381.07	315.97
381.26	381.51
381.46	327.68
381.65	320.65
381.85	285.55
382.04	360.44
382.24	337.04
382.43	388.53
382.63	322.99
382.83	322.99
383.02	428.32
383.22	418.96
383.41	311.29
383.61	372.15
383.80	341.72
384.00	404.91
384.19	330.02
384.39	376.83
384.58	318.31
384.78	358.10
384.97	409.59
385.17	456.40
385.36	355.76
385.56	395.55
385.75	358.10
385.95	383.85
386.14	369.80
386.34	397.89
386.53	404.91
386.72	393.21
386.92	381.51
387.11	411.93
387.31	498.53
387.50	451.72
387.70	470.45
387.89	447.04
388.09	423.64
388.28	477.47
388.48	440.02
388.67	517.26
388.86	538.32
389.06	416.62
389.25	437.68
389.45	517.26
389.64	456.40
389.84	514.92
390.03	444.70
390.22	521.94
390.42	442.36
390.61	507.90
390.81	496.19
391.00	512.58
391.19	505.56
391.39	524.28
391.58	465.77
391.78	477.47
391.97	608.54
392.16	585.13
392.36	580.45
392.55	559.39
392.75	592.16
392.94	468.11
393.13	608.54
393.33	657.69
393.52	535.98
393.71	538.32
393.91	589.82
394.10	564.07
394.29	531.30
394.49	554.71
394.68	660.03
394.88	636.63
395.07	596.84
395.26	669.39
395.46	613.22
395.65	681.10
395.84	580.45
396.04	695.14
396.23	727.91
396.42	653.01
396.62	692.80
396.81	767.70
397.00	711.52
397.19	755.99
397.39	730.25
397.58	671.73
397.77	674.07
397.97	760.67
398.16	695.14
398.35	716.20
398.55	713.86
398.74	660.03
398.93	763.01
399.12	758.33
399.32	828.55
399.51	732.59
399.70	823.87
399.90	758.33
400.09	741.95
400.28	875.36
400.47	823.87
400.67	786.42
400.86	772.38
401.05	812.17
401.24	784.08
401.44	800.46
401.63	807.48
401.82	814.51
402.01	868.34
402.21	844.93
402.40	877.70
402.59	835.57
402.78	919.83
402.97	887.06
403.17	894.08
403.36	870.68
403.55	926.85
403.74	875.36
403.93	947.92
404.13	926.85
404.32	992.39
404.51	931.53
404.70	973.66
404.89	884.72
405.09	901.11
405.28	964.30
405.47	1032.18
405.66	1034.52
405.85	999.41
406.05	1048.56
406.24	999.41
406.43	999.41
406.62	997.07
406.81	1090.69
407.00	1109.41
407.20	1086.01
407.39	1100.05
407.58	1050.90
407.77	1032.18
407.96	1123.46
408.15	1107.07
408.34	1053.24
408.54	1165.59
408.73	1146.86
408.92	1203.04
409.11	1196.01
409.30	1212.40
409.49	1193.67
409.68	1186.65
409.87	1240.48
410.07	1181.97
410.26	1151.54
410.45	1219.42
410.64	1214.74
410.83	1256.87
411.02	1289.64
411.21	1214.74
411.40	1299.00
411.59	1345.81
411.78	1320.06
411.98	1301.34
412.17	1343.47
412.36	1331.76
412.55	1409.00
412.74	1390.28
412.93	1338.79
413.12	1308.36
413.31	1446.45
413.50	1413.68
413.69	1488.58
413.88	1437.09
414.07	1423.05
414.26	1460.49
414.45	1561.14
414.64	1577.52
414.83	1540.07
415.02	1514.33
415.22	1624.33
415.41	1692.21
415.60	1577.52
415.79	1570.50
415.98	1619.65
416.17	1659.44
416.36	1544.75
416.55	1703.91
416.74	1717.95
416.93	1603.27
417.12	1706.25
417.31	1713.27
417.50	1645.40
417.69	1680.50
417.88	1701.57
418.07	1755.40
418.26	1757.74
418.45	1732.00
418.64	1816.26
418.83	1877.11
419.02	1750.72
419.21	1930.94
419.39	1853.70
419.58	1839.66
419.77	1867.75
419.96	1874.77
420.15	1954.35
420.34	1879.45
420.53	1902.86
420.72	1888.81
420.91	1966.05
421.10	1970.73
421.29	2143.93
421.48	1942.64
421.67	2054.99
421.86	1984.77
422.05	2038.61
422.24	2047.97
422.43	2057.33
422.61	2047.97
422.80	2015.20
422.99	2010.52
423.18	2024.56
423.37	2017.54
423.56	2052.65
423.75	2101.80
423.94	1984.77
424.13	1919.24
424.32	1961.37
424.50	2237.55
424.69	2253.94
424.88	2047.97
425.07	2092.44
425.26	2083.08
425.45	2031.58
425.64	2092.44
425.83	2106.48
426.01	2050.31
426.20	2162.66
426.39	2062.01
426.58	2104.14
426.77	1959.03
426.96	2253.94
427.15	2150.95
427.33	2106.48
427.52	2157.97
427.71	2279.68
427.90	2354.58
428.09	2097.12
428.28	2289.04
428.46	2193.08
428.65	2291.38
428.84	2366.28
429.03	2338.20
429.22	2200.10
429.40	2277.34
429.59	2305.43
429.78	2284.36
429.97	2190.74
430.16	2202.44
430.34	2359.26
430.53	2354.58
430.72	2408.41
430.91	2321.81
431.10	2413.09
431.28	2427.14
431.47	2450.54
431.66	2396.71
431.85	2473.95
432.03	2459.90
432.22	2462.24
432.41	2431.82
432.60	2464.58
432.79	2534.80
432.97	2450.54
433.16	2527.78
433.35	2562.89
433.54	2567.57
433.72	2654.17
433.91	2530.12
434.10	2682.25
434.28	2530.12
434.47	2696.30
434.66	2672.89
434.85	2572.25
435.03	2583.95
435.22	2574.59
435.41	2736.09
435.59	2651.83
435.78	2726.72
435.97	2747.79
436.16	2698.64
436.34	2778.22
436.53	2752.47
436.72	2892.90
436.90	2843.75
437.09	2885.88
437.28	2722.04
437.46	2764.17
437.65	2897.58
437.84	2935.03
438.02	2892.90
438.21	2939.71
438.40	2801.62
438.58	2860.13
438.77	2946.73
438.96	2942.05
439.14	2953.76
439.33	3056.74
439.52	2986.52
439.70	3124.62
439.89	3084.83
440.08	3038.02
440.26	3122.27
440.45	3073.12
440.63	3089.51
440.82	3136.32
441.01	3145.68
441.19	3281.43
441.38	3283.77
441.57	3323.56
441.75	3342.28
441.94	3405.48
442.12	3260.37
442.31	3316.54
442.50	3414.84
442.68	3438.25
442.87	3442.93
443.05	3468.67
443.24	3541.23
443.43	3307.18
443.61	3494.42
443.80	3506.12
443.98	3412.50
444.17	3337.60
444.35	3339.94
444.54	3499.10
444.73	3459.31
444.91	3602.08
445.10	3538.89
445.28	3463.99
445.47	3379.73
445.65	3531.87
445.84	3641.87
446.02	3449.95
446.21	3611.45
446.39	3403.14
446.58	3557.61
446.77	3548.25
446.95	3536.55
447.14	3473.36
447.32	3641.87
447.51	3648.90
447.69	3524.85
447.88	3581.02
448.06	3700.39
448.25	3602.08
448.43	3817.41
448.62	3613.79
448.80	3585.70
448.99	3691.02
449.17	3754.22
449.36	3644.21
449.54	3721.45
449.73	3875.93
449.91	3721.45
450.10	3857.20
450.28	3712.09
450.46	3744.86
450.65	3824.44
450.83	3829.12
451.02	3744.86
451.20	3939.12
451.39	3885.29
451.57	3957.85
451.76	3847.84
451.94	3901.67
452.13	3948.48
452.31	3920.40
452.49	3920.40
452.68	4007.00
452.86	3946.14
453.05	3995.29
453.23	4009.34
453.42	4098.28
453.60	3948.48
453.78	4037.42
453.97	3969.55
454.15	4042.11
454.34	4077.21
454.52	4051.47
454.70	4053.81
454.89	4313.61
455.07	4219.99
455.26	4079.55
455.44	4252.75
455.62	4227.01
455.81	4234.03
455.99	4248.07
456.17	4180.20
456.36	4437.66
456.54	4344.03
456.73	4329.99
456.91	4315.95
457.09	4442.34
457.28	4472.76
457.46	4430.63
457.64	4475.10
457.83	4479.79
458.01	4348.72
458.19	4440.00
458.38	4472.76
458.56	4610.86
458.74	4503.19
458.93	4507.87
459.11	4451.70
459.29	4461.06
459.48	4645.96
459.66	4521.92
459.84	4692.77
460.03	4713.84
460.21	4613.20
460.39	4608.51
460.57	4760.65
460.76	4711.50
460.94	4622.56
461.12	4854.27
461.31	4620.22
461.49	4767.67
461.67	4685.75
461.85	4861.29
462.04	4961.94
462.22	5093.01
462.40	4985.34
462.59	4877.68
462.77	4856.61
462.95	4880.02
463.13	4894.06
463.32	4983.00
463.50	4926.83
463.68	4975.98
463.86	4870.65
464.05	4943.21
464.23	5111.73
464.41	5149.18
464.59	5001.72
464.78	5093.01
464.96	5043.85
465.14	5055.56
465.32	5242.80
465.50	5144.50
465.69	5191.31
465.87	5125.77
466.05	5153.86
466.23	5097.69
466.41	5177.26
466.60	5303.65
466.78	5050.88
466.96	5200.67
467.14	5287.27
467.32	5399.62
467.51	5317.70
467.69	5177.26
467.87	5172.58
468.05	5294.29
468.23	5301.31
468.41	5231.10
468.60	5193.65
468.78	5397.28
468.96	5217.05
469.14	5401.96
469.32	5451.11
469.50	5188.97
469.69	5563.45
469.87	5526.00
470.05	5680.48
470.23	5619.63
470.41	5617.29
470.59	5493.24
470.77	5636.01
470.95	5664.10
471.14	5816.23
471.32	5582.18
471.50	5797.51
471.68	5715.59
471.86	5856.02
472.04	5966.03
472.22	5863.04
472.40	5736.65
472.58	5895.81
472.77	6076.03
472.95	6012.84
473.13	6193.06
473.31	5940.28
473.49	6104.12
473.67	5994.11
473.85	6083.05
474.03	6139.23
474.21	6090.07
474.39	6452.86
474.57	6338.17
474.75	6352.21
474.93	6324.13
475.12	6235.19
475.30	6267.95
475.48	6310.08
475.66	6431.79
475.84	6541.80
476.02	6546.48
476.20	6565.20
476.38	6633.08
476.56	6808.62
476.74	6792.23
476.92	6661.16
477.10	6637.76
477.28	6970.12
477.46	6834.36
477.64	6888.20
477.82	6892.88
478.00	7262.68
478.18	7164.38
478.36	7267.36
478.54	7169.06
478.72	7133.95
478.90	7332.90
479.08	7410.14
479.26	7438.22
479.44	7452.27
479.62	7623.12
479.80	7459.29
479.98	7492.05
480.16	7740.15
480.34	7655.89
480.52	7726.11
480.70	7681.64
480.88	7777.60
481.06	7953.14
481.24	8049.10
481.41	8063.15
481.59	8131.02
481.77	8423.59
481.95	8149.75
482.13	8224.64
482.31	8334.65
482.49	8730.20
482.67	8627.21
482.85	8533.59
483.03	8856.59
483.21	8898.72
483.39	8751.26
483.57	8840.20
483.74	8980.64
483.92	8882.33
484.10	8936.17
484.28	9301.29
484.46	9423.00
484.64	9500.23
484.82	9219.37
485.00	9486.19
485.18	9511.94
485.35	9493.21
485.53	9881.74
485.71	9760.03
485.89	9727.27
486.07	9666.41
486.25	9790.46
486.43	9926.21
486.61	9980.04
486.78	10347.51
486.96	10263.25
487.14	10431.77
487.32	10141.54
487.50	10478.58
487.68	10717.31
487.85	10656.46
488.03	10963.07
488.21	11087.12
488.39	10850.72
488.57	10897.53
488.75	11082.44
488.92	10906.90
489.10	11365.64
489.28	11150.31
489.46	11590.33
489.64	11496.71
489.81	11665.23
489.99	11662.89
490.17	11681.61
490.35	11875.88
490.53	11941.41
490.70	11819.71
490.88	11798.64
491.06	12112.27
491.24	12238.66
491.41	12315.90
491.59	12358.03
491.77	12348.67
491.95	12390.80
492.13	12617.83
492.30	12596.76
492.48	12383.77
492.66	12542.93
492.84	12784.01
493.01	13181.90
493.19	13025.08
493.37	12947.84
493.54	13186.58
493.72	13261.48
493.90	13231.05
494.08	13284.88
494.25	13497.87
494.43	13675.75
494.61	13694.47
494.79	13884.06
494.96	13748.31
495.14	13846.61
495.32	13912.14
495.49	14087.68
495.67	14097.05
495.85	14174.28
496.02	14200.03
496.20	14293.65
496.38	14403.66
496.55	14223.44
496.73	14993.47
496.91	14448.13
497.09	14937.30
497.26	14977.09
497.44	14668.14
497.62	14827.29
497.79	15124.54
497.97	15000.49
498.14	15351.57
498.32	15372.64
498.50	15379.66
498.67	15407.75
498.85	15140.93
499.03	15314.13
499.20	15440.51
499.38	15459.24
499.56	15749.46
499.73	15864.15
499.91	15889.90
500.08	15899.26
500.26	15648.82
500.44	15843.09
500.61	15936.71
500.79	16114.59
500.97	16123.95
501.14	16163.74
501.32	16360.34
501.49	16245.66
501.67	16472.69
501.84	16444.60
502.02	16528.86
502.20	16599.08
502.37	16727.81
502.55	16931.44
502.72	16791.00
502.90	16762.92
503.07	16758.24
503.25	16746.53
503.43	16938.46
503.60	17125.70
503.78	17219.32
503.95	17149.11
504.13	17205.28
504.30	17041.44
504.48	16964.20
504.65	17238.05
504.83	17376.14
505.01	17795.09
505.18	17661.68
505.36	17614.87
505.53	17275.49
505.71	17617.21
505.88	17668.70
506.06	17933.18
506.23	18054.89
506.41	17820.84
506.58	17951.91
506.76	18104.04
506.93	18178.94
507.11	17848.93
507.28	17834.88
507.46	18078.30
507.63	18377.89
507.81	18623.64
507.98	18284.26
508.16	18649.39
508.33	18340.44
508.50	18525.34
508.68	18471.51
508.85	18724.29
509.03	18944.30
509.20	18923.23
509.38	18981.74
509.55	18876.42
509.73	18920.89
509.90	18871.74
510.08	18625.98
510.25	19108.13
510.42	19218.14
510.60	19435.81
510.77	19070.68
510.95	19110.47
511.12	19321.12
511.30	19192.39
511.47	19484.96
511.64	19529.43
511.82	19545.81
511.99	19613.69
512.17	19651.14
512.34	19466.24
512.51	20196.48
512.69	19697.95
512.86	19800.93
513.04	19819.66
513.21	19985.83
513.38	20025.62
513.56	20393.09
513.73	20203.50
513.90	20191.80
514.08	19997.54
514.25	20091.16
514.43	20538.20
514.60	20528.84
514.77	20463.30
514.95	20655.23
515.12	20489.05
515.29	20624.80
515.47	20617.78
515.64	20528.84
515.81	20620.12
515.99	20835.45
516.16	20538.20
516.33	21034.39
516.51	21008.65
516.68	20776.94
516.85	20910.35
517.03	21193.55
517.20	21212.28
517.37	21383.13
517.54	21455.69
517.72	21088.23
517.89	21432.29
518.06	21329.30
518.24	21500.16
518.41	21605.49
518.58	21209.93
518.75	21385.47
518.93	21837.20
519.10	21453.35
519.27	21532.93
519.45	21509.52
519.62	21708.47
519.79	21764.64
519.96	21717.83
520.14	21745.92
520.31	21979.97
520.48	22354.46
520.65	22080.61
520.83	22054.87
521.00	22288.92
521.17	22157.85
521.34	22012.74
521.52	22235.09
521.69	22038.48
521.86	22485.53
522.03	22485.53
522.20	22644.68
522.38	22602.55
522.55	22480.85
522.72	22167.21
522.89	22771.07
523.07	22845.97
523.24	22864.69
523.41	22740.64
523.58	22677.45
523.75	22897.46
523.92	22913.84
524.10	23154.92
524.27	22611.92
524.44	23056.62
524.61	23138.54
524.78	23503.66
524.96	23248.54
525.13	23204.07
525.30	23433.44
525.47	23491.96
525.64	23248.54
525.81	23405.36
525.98	23632.39
526.16	23669.84
526.33	23583.24
526.50	23974.11
526.67	23564.51
526.84	23407.70
527.01	23454.51
527.18	23953.04
527.36	23941.34
527.53	23990.49
527.70	24402.43
527.87	24168.37
528.04	23854.74
528.21	24081.77
528.38	24091.13
528.55	24219.86
528.72	24020.92
528.89	24446.90
529.07	24421.15
529.24	24594.35
529.41	24107.52
529.58	24465.62
529.75	24247.95
529.92	24507.75
530.09	24458.60
530.26	24355.61
530.43	24533.50
530.60	24215.18
530.77	24762.87
530.94	24446.90
531.11	24203.48
531.28	24559.24
531.46	24519.45
531.63	24999.26
531.80	24774.57
531.97	24842.45
532.14	24872.87
532.31	25062.46
532.48	25294.17
532.65	25111.61
532.82	24685.63
532.99	25200.55
533.16	24711.38
533.33	25275.45
533.50	25596.10
533.67	25249.70
533.84	25043.73
534.01	24865.85
534.18	25050.75
534.35	25432.26
534.52	25392.47
534.69	25450.99
534.86	25645.25
535.03	25158.42
535.20	25731.85
535.37	25596.10
535.54	25252.04
535.71	25310.55
535.88	25560.99
536.05	25500.14
536.22	25348.00
536.38	25638.23
536.55	25998.67
536.72	25724.83
536.89	25790.36
537.06	25823.13
537.23	26019.74
537.40	25659.29
537.57	25881.64
537.74	26012.71
537.91	26108.68
538.08	26424.65
538.25	26113.36
538.42	25982.29
538.59	26265.49
538.75	26010.37
538.92	26270.17
539.09	26342.73
539.26	26211.66
539.43	26632.96
539.60	26764.03
539.77	26501.89
539.94	26412.95
540.11	26286.56
540.28	26239.75
540.44	26656.36
540.61	26223.36
540.78	26644.66
540.95	26665.72
541.12	26492.52
541.29	26429.33
541.46	26792.11
541.62	26462.10
541.79	26616.57
541.96	26235.06
542.13	26354.43
542.30	26553.38
542.47	26857.65
542.63	27290.65
542.80	26859.99
542.97	27063.61
543.14	27220.43
543.31	26955.95
543.48	26941.91
543.64	27288.31
543.81	27393.63
543.98	27337.46
544.15	27157.24
544.32	27618.32
544.48	27721.30
544.65	27456.82
544.82	27718.96
544.99	27012.12
545.16	27197.02
545.32	27449.80
545.49	27779.82
545.66	28051.32
545.83	27585.55
546.00	27700.24
546.16	27765.78
546.33	27367.88
546.50	27335.12
546.67	27988.13
546.83	27527.04
547.00	28032.60
547.17	27527.04
547.34	27983.44
547.50	28271.33
547.67	28168.35
547.84	28102.81
548.00	28037.28
548.17	28400.06
548.34	27789.18
548.51	28231.54
548.67	28414.10
548.84	28233.88
549.01	28299.42
549.18	28254.95
549.34	27990.47
549.51	28224.52
549.68	27906.21
549.84	28437.51
550.01	28683.27
550.18	28177.71
550.34	28442.19
550.51	28652.84
550.68	29029.66
550.84	28343.89
551.01	28685.61
551.18	28676.24
551.34	28231.54
551.51	28570.92
551.68	28472.62
551.84	28442.19
552.01	28559.22
552.18	28762.84
552.34	28898.59
552.51	28933.70
552.68	28627.09
552.84	28840.08
553.01	29240.31
553.18	28760.50
553.34	28802.63
553.51	28629.43
553.67	28882.21
553.84	29408.83
554.01	28802.63
554.17	29010.94
554.34	28929.02
554.51	28893.91
554.67	29008.60
554.84	28994.56
555.00	28870.51
555.17	28973.49
555.33	29022.64
555.50	29460.32
555.67	28896.25
555.83	29249.67
556.00	29214.57
556.16	29226.27
556.33	29347.98
556.50	29577.35
556.66	29879.28
556.83	29205.20
556.99	29624.16
557.16	29558.63
557.32	29607.78
557.49	29685.01
557.65	29186.48
557.82	29549.26
557.98	29399.47
558.15	29481.39
558.32	29455.64
558.48	29888.64
558.65	29469.69
558.81	29465.00
558.98	29535.22
559.14	29446.28
559.31	29324.57
559.47	29745.87
559.64	29738.85
559.80	29607.78
559.97	29977.58
560.13	29488.41
560.30	29818.42
560.46	29706.08
560.63	29933.11
560.79	29670.97
560.96	30029.07
561.12	30057.16
561.29	29635.86
561.45	29949.50
561.61	30078.22
561.78	29750.55
561.94	30181.21
562.11	29984.60
562.27	30125.04
562.44	29862.90
562.60	29841.83
562.77	30036.09
562.93	29659.27
563.10	30148.44
563.26	29886.30
563.42	30579.10
563.59	30115.67
563.75	30094.61
563.92	30052.48
564.08	29965.88
564.24	30075.88
564.41	29926.09
564.57	29996.31
564.74	30239.72
564.90	30272.49
565.07	30239.72
565.23	30405.90
565.39	30082.91
565.56	30218.66
565.72	30066.52
565.88	29783.32
566.05	30141.42
566.21	30143.76
566.38	30284.19
566.54	29984.60
566.70	30272.49
566.87	30277.17
567.03	30473.78
567.19	30532.29
567.36	30356.75
567.52	30323.98
567.68	30548.67
567.85	30665.70
568.01	30356.75
568.17	30349.73
568.34	30302.92
568.50	30195.25
568.66	30338.02
568.83	30508.88
568.99	30354.41
569.15	30213.98
569.32	30377.81
569.48	30518.25
569.64	30600.16
569.81	30391.86
569.97	30562.72
570.13	30265.47
570.30	30195.25
570.46	30609.53
570.62	30279.51
570.78	30431.65
570.95	30551.01
571.11	30424.62
571.27	30426.96
571.43	30354.41
571.60	30771.02
571.76	30396.54
571.92	30672.72
572.09	30569.74
572.25	31035.50
572.41	30635.27
572.57	30691.44
572.74	30483.14
572.90	30679.74
573.06	30462.07
573.22	30382.49
573.38	30878.69
573.55	30693.79
573.71	31260.20
573.87	30792.09
574.03	30314.62
574.20	30527.61
574.36	30663.36
574.52	30801.45
574.68	30806.13
574.84	30080.56
575.01	31161.89
575.17	30419.94
575.33	30604.84
575.49	30567.40
575.65	30822.51
575.82	30799.11
575.98	30845.92
576.14	30906.77
576.30	30827.20
576.46	30490.16
576.62	30726.55
576.79	30799.11
576.95	30749.96
577.11	31227.43
577.27	31232.11
577.43	30768.68
577.59	30885.71
577.75	31021.46
577.92	31082.31
578.08	30394.20
578.24	30742.94
578.40	30754.64
578.56	31222.75
578.72	30876.35
578.88	31056.57
579.04	31180.62
579.21	31058.91
579.37	30895.07
579.53	30902.09
579.69	30389.52
579.85	31035.50
580.01	30866.98
580.17	31021.46
580.33	30691.44
580.49	31065.93
580.65	30876.35
580.82	30874.01
580.98	30944.22
581.14	30761.66
581.30	31012.10
581.46	30707.83
581.62	31094.02
581.78	30845.92
581.94	30565.06
582.10	30927.84
582.26	31105.72
582.42	31154.87
582.58	30764.00
582.74	31241.47
582.90	30911.46
583.06	30916.14
583.22	30635.27
583.38	30906.77
583.54	30775.70
583.70	31009.76
583.86	31033.16
584.02	30719.53
584.18	31115.08
584.34	31384.24
584.50	31145.51
584.66	31075.29
584.82	30862.30
584.98	31152.53
585.14	30794.43
585.30	30614.21
585.46	31473.18
585.62	31115.08
585.78	30988.69
585.94	30881.03
586.10	30703.15
586.26	30764.00
586.42	31133.81
586.58	31138.49
586.74	31299.98
586.90	30855.28
587.06	31215.72
587.22	31131.47
587.38	30852.94
587.54	31044.87
587.70	30881.03
587.86	31386.58
588.02	31337.43
588.18	31164.23
588.34	31454.46
588.49	30876.35
588.65	30850.60
588.81	31089.34
588.97	31096.36
589.13	31220.41
589.29	31269.56
589.45	31122.10
589.61	31702.56
589.77	31505.95
589.93	31519.99
590.08	31779.79
590.24	31262.54
590.40	31447.44
590.56	31833.63
590.72	31325.73
590.88	31250.83
591.04	31585.53
591.20	31379.56
591.35	31218.07
591.51	31634.68
591.67	31445.10
591.83	31606.59
