SpectraSuite Data File
++++++++++++++++++++++++++++++++++++
Date: Fri Oct 18 13:58:39 GMT-05:00 2013
User: bianchi
Dark Spectrum Present: No
Reference Spectrum Present: No
Number of Sampled Component Spectra: 1
Spectrometers: USB2+H05261
Integration Time (usec): 50000 (USB2+H05261)
Spectra Averaged: 1 (USB2+H05261)
Boxcar Smoothing: 0 (USB2+H05261)
Correct for Electrical Dark: No (USB2+H05261)
Strobe/Lamp Enabled: No (USB2+H05261)
Correct for Detector Non-linearity: No (USB2+H05261)
Correct for Stray Light: No (USB2+H05261)
Number of Pixels in Processed Spectrum: 2048
>>>>>Begin Processed Spectral Data<<<<<
365.73	0.00
365.92	0.00
366.12	0.00
366.32	0.00
366.52	0.00
366.72	0.00
366.91	0.00
367.11	0.00
367.31	0.00
367.51	0.00
367.70	0.00
367.90	0.00
368.10	0.00
368.30	0.00
368.49	0.00
368.69	0.00
368.89	0.00
369.09	0.00
369.28	0.00
369.48	0.00
369.68	0.00
369.87	0.00
370.07	0.00
370.27	0.00
370.47	0.00
370.66	65.54
370.86	86.60
371.06	95.96
371.25	105.32
371.45	124.05
371.65	128.73
371.84	142.77
372.04	177.88
372.24	191.92
372.44	184.90
372.63	222.35
372.83	229.37
373.03	215.33
373.22	156.82
373.42	210.65
373.62	210.65
373.81	201.29
374.01	224.69
374.21	252.78
374.40	241.08
374.60	198.95
374.79	320.65
374.99	234.05
375.19	248.10
375.38	269.16
375.58	262.14
375.78	315.97
375.97	227.03
376.17	201.29
376.37	273.84
376.56	189.58
376.76	220.01
376.95	278.52
377.15	252.78
377.35	252.78
377.54	290.23
377.74	170.86
377.93	262.14
378.13	243.42
378.33	269.16
378.52	227.03
378.72	330.02
378.91	330.02
379.11	215.33
379.31	315.97
379.50	301.93
379.70	306.61
379.89	334.70
380.09	252.78
380.28	308.95
380.48	301.93
380.68	318.31
380.87	325.33
381.07	301.93
381.26	278.52
381.46	334.70
381.65	276.18
381.85	360.44
382.04	332.36
382.24	297.25
382.43	285.55
382.63	212.99
382.83	290.23
383.02	330.02
383.22	299.59
383.41	351.08
383.61	327.68
383.80	276.18
384.00	341.72
384.19	297.25
384.39	322.99
384.58	311.29
384.78	395.55
384.97	376.83
385.17	372.15
385.36	322.99
385.56	388.53
385.75	416.62
385.95	430.66
386.14	358.10
386.34	372.15
386.53	411.93
386.72	362.78
386.92	425.98
387.11	479.81
387.31	444.70
387.50	409.59
387.70	367.46
387.89	423.64
388.09	435.34
388.28	372.15
388.48	379.17
388.67	463.43
388.86	449.38
389.06	475.13
389.25	479.81
389.45	433.00
389.64	475.13
389.84	390.87
390.03	463.43
390.22	461.09
390.42	493.85
390.61	475.13
390.81	418.96
391.00	468.11
391.19	451.72
391.39	517.26
391.58	496.19
391.78	538.32
391.97	479.81
392.16	533.64
392.36	538.32
392.55	566.41
392.75	557.05
392.94	585.13
393.13	528.96
393.33	571.09
393.52	585.13
393.71	557.05
393.91	568.75
394.10	472.79
394.29	538.32
394.49	547.69
394.68	580.45
394.88	636.63
395.07	550.03
395.26	599.18
395.46	601.52
395.65	580.45
395.84	741.95
396.04	667.05
396.23	585.13
396.42	653.01
396.62	634.29
396.81	681.10
397.00	610.88
397.19	599.18
397.39	624.92
397.58	727.91
397.77	730.25
397.97	645.99
398.16	725.57
398.35	744.29
398.55	713.86
398.74	772.38
398.93	727.91
399.12	648.33
399.32	622.58
399.51	770.04
399.70	732.59
399.90	709.18
400.09	704.50
400.28	812.17
400.47	816.85
400.67	734.93
400.86	788.76
401.05	718.54
401.24	814.51
401.44	779.40
401.63	849.61
401.82	772.38
402.01	805.14
402.21	739.61
402.40	826.21
402.59	734.93
402.78	791.10
402.97	767.70
403.17	882.38
403.36	847.27
403.55	844.93
403.74	877.70
403.93	863.66
404.13	959.62
404.32	922.17
404.51	952.60
404.70	1036.86
404.89	861.32
405.09	875.36
405.28	884.72
405.47	896.43
405.66	966.64
405.85	1050.90
406.05	966.64
406.24	950.26
406.43	978.34
406.62	1039.20
406.81	1090.69
407.00	945.58
407.20	1015.79
407.39	976.00
407.58	1015.79
407.77	1064.94
407.96	1034.52
408.15	1107.07
408.34	1121.12
408.54	1027.50
408.73	1076.65
408.92	1109.41
409.11	1116.44
409.30	1107.07
409.49	1114.10
409.68	1146.86
409.87	1076.65
410.07	1153.88
410.26	1104.73
410.45	1196.01
410.64	1186.65
410.83	1231.12
411.02	1107.07
411.21	1266.23
411.40	1188.99
411.59	1301.34
411.78	1261.55
411.98	1291.98
412.17	1268.57
412.36	1158.57
412.55	1329.42
412.74	1416.02
412.93	1252.19
413.12	1299.00
413.31	1373.89
413.50	1392.62
413.69	1430.07
413.88	1362.19
414.07	1401.98
414.26	1455.81
414.45	1348.15
414.64	1497.94
414.83	1565.82
415.02	1458.15
415.22	1526.03
415.41	1575.18
415.60	1500.28
415.79	1570.50
415.98	1668.80
416.17	1596.25
416.36	1565.82
416.55	1542.41
416.74	1671.14
416.93	1589.22
417.12	1680.50
417.31	1734.34
417.50	1640.72
417.69	1668.80
417.88	1666.46
418.07	1806.89
418.26	1830.30
418.45	1713.27
418.64	1834.98
418.83	1834.98
419.02	1802.21
419.21	1809.23
419.39	1830.30
419.58	1757.74
419.77	1844.34
419.96	1746.04
420.15	1818.60
420.34	1799.87
420.53	1921.58
420.72	1916.90
420.91	1877.11
421.10	1907.54
421.29	1994.14
421.48	1858.39
421.67	1947.33
421.86	1912.22
422.05	1975.41
422.24	1900.52
422.43	1977.75
422.61	1919.24
422.80	1944.99
422.99	1940.30
423.18	1989.46
423.37	2008.18
423.56	2024.56
423.75	2085.42
423.94	1952.01
424.13	1935.62
424.32	1928.60
424.50	2022.22
424.69	2057.33
424.88	2080.74
425.07	1928.60
425.26	1837.32
425.45	2008.18
425.64	2106.48
425.83	2073.71
426.01	2057.33
426.20	2108.82
426.39	2150.95
426.58	2071.37
426.77	2139.25
426.96	2148.61
427.15	2047.97
427.33	2202.44
427.52	2101.80
427.71	2099.46
427.90	2148.61
428.09	2090.10
428.28	2054.99
428.46	2104.14
428.65	2165.00
428.84	2230.53
429.03	2232.87
429.22	2275.00
429.40	2186.06
429.59	2209.47
429.78	2183.72
429.97	2099.46
430.16	2307.77
430.34	2272.66
430.53	2298.41
430.72	2326.49
430.91	2326.49
431.10	2279.68
431.28	2363.94
431.47	2403.73
431.66	2326.49
431.85	2338.20
432.03	2377.98
432.22	2413.09
432.41	2560.55
432.60	2413.09
432.79	2525.44
432.97	2462.24
433.16	2499.69
433.35	2581.61
433.54	2537.14
433.72	2553.52
433.91	2502.03
434.10	2506.71
434.28	2576.93
434.47	2544.16
434.66	2640.12
434.85	2576.93
435.03	2478.63
435.22	2633.10
435.41	2724.38
435.59	2668.21
435.78	2579.27
435.97	2644.81
436.16	2588.63
436.34	2691.62
436.53	2712.68
436.72	2633.10
436.90	2635.44
437.09	2677.57
437.28	2658.85
437.46	2637.78
437.65	2665.87
437.84	2857.79
438.02	2841.41
438.21	2771.19
438.40	2693.96
438.58	2846.09
438.77	2801.62
438.96	2803.96
439.14	2803.96
439.33	2855.45
439.52	3042.70
439.70	2963.12
439.89	3052.06
440.08	2977.16
440.26	3038.02
440.45	2991.20
440.63	3136.32
440.82	3213.56
441.01	3054.40
441.19	3101.21
441.38	3187.81
441.57	3211.22
441.75	3159.72
441.94	3260.37
442.12	3236.96
442.31	3211.22
442.50	3276.75
442.68	3206.53
442.87	3199.51
443.05	3262.71
443.24	3361.01
443.43	3297.81
443.61	3426.54
443.80	3494.42
443.98	3295.47
444.17	3243.98
444.35	3363.35
444.54	3449.95
444.73	3400.80
444.91	3433.57
445.10	3478.04
445.28	3311.86
445.47	3290.79
445.65	3412.50
445.84	3403.14
446.02	3475.70
446.21	3665.28
446.39	3412.50
446.58	3463.99
446.77	3513.14
446.95	3618.47
447.14	3435.91
447.32	3492.08
447.51	3342.28
447.69	3487.40
447.88	3487.40
448.06	3524.85
448.25	3468.67
448.43	3585.70
448.62	3482.72
448.80	3487.40
448.99	3602.08
449.17	3597.40
449.36	3595.06
449.54	3700.39
449.73	3632.51
449.91	3709.75
450.10	3794.01
450.28	3838.48
450.46	3698.05
450.65	3749.54
450.83	3770.60
451.02	3728.47
451.20	3803.37
451.39	3819.75
451.57	3899.33
451.76	3688.68
451.94	3805.71
452.13	3911.04
452.31	3801.03
452.49	3728.47
452.68	3861.88
452.86	3826.78
453.05	3943.80
453.23	3962.53
453.42	3913.38
453.60	3922.74
453.78	3934.44
453.97	3953.16
454.15	3843.16
454.34	3899.33
454.52	4074.87
454.70	4060.83
454.89	3974.23
455.07	3976.57
455.26	3901.67
455.44	4088.92
455.62	4166.15
455.81	3964.87
455.99	4035.08
456.17	4124.02
456.36	4198.92
456.54	4227.01
456.73	4266.80
456.91	4276.16
457.09	4269.14
457.28	4231.69
457.46	4217.65
457.64	4297.22
457.83	4503.19
458.01	4248.07
458.19	4198.92
458.38	4372.12
458.56	4418.93
458.74	4447.02
458.93	4479.79
459.11	4404.89
459.29	4344.03
459.48	4456.38
459.66	4440.00
459.84	4432.97
460.03	4585.11
460.21	4496.17
460.39	4648.30
460.57	4524.26
460.76	4578.09
460.94	4622.56
461.12	4528.94
461.31	4594.47
461.49	4561.70
461.67	4688.09
461.85	4671.71
462.04	4777.03
462.22	4786.40
462.40	4688.09
462.59	4692.77
462.77	4830.87
462.95	4814.48
463.13	4683.41
463.32	4692.77
463.50	4856.61
463.68	4856.61
463.86	4777.03
464.05	4739.58
464.23	4905.76
464.41	4868.31
464.59	4884.70
464.78	4961.94
464.96	4835.55
465.14	4854.27
465.32	5060.24
465.50	5055.56
465.69	5006.41
465.87	5001.72
466.05	4990.02
466.23	5039.17
466.41	5018.11
466.60	5029.81
466.78	4870.65
466.96	4959.60
467.14	5004.07
467.32	5050.88
467.51	5116.41
467.69	5100.03
467.87	5165.56
468.05	5125.77
468.23	5100.03
468.41	5025.13
468.60	5025.13
468.78	5294.29
468.96	4987.68
469.14	5261.52
469.32	5357.49
469.50	5298.97
469.69	5188.97
469.87	5298.97
470.05	5476.85
470.23	5277.91
470.41	5385.57
470.59	5561.11
470.77	5350.46
470.95	5329.40
471.14	5612.60
471.32	5432.38
471.50	5570.48
471.68	5722.61
471.86	5598.56
472.04	5748.36
472.22	5657.07
472.40	5570.48
472.58	5500.26
472.77	5650.05
472.95	5645.37
473.13	5886.45
473.31	5671.12
473.49	5757.72
473.67	5860.70
473.85	5912.19
474.03	5947.30
474.21	5975.39
474.39	6078.37
474.57	5963.68
474.75	6036.24
474.93	6136.88
475.12	6010.50
475.30	6267.95
475.48	6143.91
475.66	6111.14
475.84	6298.38
476.02	6253.91
476.20	6228.17
476.38	6429.45
476.56	6574.56
476.74	6548.82
476.92	6583.93
477.10	6368.60
477.28	6583.93
477.46	6586.27
477.64	6565.20
477.82	6604.99
478.00	6860.11
478.18	6843.73
478.36	6951.39
478.54	7007.56
478.72	6963.09
478.90	7075.44
479.08	7250.98
479.26	7133.95
479.44	7218.21
479.62	7232.26
479.80	7456.95
479.98	7300.13
480.16	7517.80
480.34	7602.06
480.52	7548.23
480.70	7777.60
480.88	7562.27
481.06	7793.98
481.24	7599.72
481.41	7950.80
481.59	8107.62
481.77	8049.10
481.95	8035.06
482.13	7918.03
482.31	7852.50
482.49	8053.78
482.67	8301.88
482.85	8404.86
483.03	8425.93
483.21	8372.10
483.39	8652.96
483.57	8463.38
483.74	8542.96
483.92	8692.75
484.10	8765.31
484.28	8681.05
484.46	8887.01
484.64	9261.50
484.82	8945.53
485.00	9071.92
485.18	9132.77
485.35	9444.06
485.53	9308.31
485.71	9530.66
485.89	9591.52
486.07	9525.98
486.25	9439.38
486.43	9635.99
486.61	9813.87
486.78	9741.31
486.96	9982.38
487.14	10005.79
487.32	10092.39
487.50	9991.75
487.68	10193.03
487.85	10375.59
488.03	10450.49
488.21	10509.01
488.39	10562.84
488.57	10686.89
488.75	10696.25
488.92	10658.80
489.10	10670.50
489.28	10869.45
489.46	10878.81
489.64	11110.52
489.81	11302.45
489.99	11222.87
490.17	11304.79
490.35	11288.40
490.53	11569.27
490.70	11634.80
490.88	11595.01
491.06	11698.00
491.24	11662.89
491.41	11887.58
491.59	11829.07
491.77	11740.13
491.95	12142.70
492.13	12105.25
492.30	11974.18
492.48	12266.75
492.66	12358.03
492.84	12196.53
493.01	12353.35
493.19	12477.40
493.37	12706.77
493.54	12662.30
493.72	12662.30
493.90	12730.17
494.08	12898.69
494.25	12994.65
494.43	12828.48
494.61	13319.99
494.79	13319.99
494.96	12992.31
495.14	13345.73
495.32	13357.44
495.49	13455.74
495.67	13336.37
495.85	13451.06
496.02	13558.72
496.20	13614.90
496.38	13699.16
496.55	13991.72
496.73	14085.34
496.91	14015.13
497.09	14146.20
497.26	14431.74
497.44	14214.07
497.62	14305.35
497.79	14583.88
497.97	14317.06
498.14	14539.41
498.32	14757.08
498.50	14796.87
498.67	14869.42
498.85	14846.02
499.03	14792.19
499.20	14670.48
499.38	14993.47
499.56	15131.56
499.73	15061.35
499.91	15358.60
500.08	15515.41
500.26	15396.04
500.44	15103.48
500.61	15382.00
500.79	15700.31
500.97	15222.84
501.14	15742.44
501.32	15564.56
501.49	15679.25
501.67	15831.38
501.84	15782.23
502.02	15871.17
502.20	15763.51
502.37	16173.10
502.55	15796.28
502.72	16210.55
502.90	15896.92
503.07	16037.35
503.25	16079.48
503.43	16191.83
503.60	16112.25
503.78	16402.47
503.95	16730.15
504.13	16521.84
504.30	16531.20
504.48	16697.38
504.65	16594.40
504.83	16933.78
505.01	16854.20
505.18	17099.95
505.36	16954.84
505.53	16868.24
505.71	17121.02
505.88	17048.46
506.06	16727.81
506.23	16957.18
506.41	16889.31
506.58	17373.80
506.76	16872.92
506.93	17268.47
507.11	17252.09
507.28	17083.57
507.46	17319.96
507.63	17422.95
507.81	17563.38
507.98	17425.29
508.16	17469.76
508.33	17563.38
508.50	17649.98
508.68	17865.31
508.85	18146.17
509.03	17919.14
509.20	17853.61
509.38	18010.42
509.55	18331.08
509.73	18246.82
509.90	18441.08
510.08	18420.02
510.25	18113.41
510.42	18515.98
510.60	18462.15
510.77	18548.75
510.95	18459.81
511.12	18544.06
511.30	18750.03
511.47	18614.28
511.64	18747.69
511.82	18930.25
511.99	18768.76
512.17	19058.98
512.34	19049.62
512.51	19426.45
512.69	19161.97
512.86	19157.28
513.04	19534.11
513.21	19321.12
513.38	19302.40
513.56	19295.38
513.73	19456.87
513.90	19470.92
514.08	19267.29
514.25	19726.04
514.43	19723.69
514.60	19747.10
514.77	19754.12
514.95	19562.20
515.12	19517.73
515.29	19955.41
515.47	19592.62
515.64	19936.68
515.81	19934.34
515.99	20081.80
516.16	20152.01
516.33	20049.03
516.51	20374.36
516.68	20203.50
516.85	20514.80
517.03	20311.17
517.20	20449.26
517.37	20156.69
517.54	20332.23
517.72	20510.11
517.89	20596.71
518.06	20882.26
518.24	20638.84
518.41	20680.97
518.58	20568.63
518.75	20776.94
518.93	20755.87
519.10	20467.98
519.27	20844.81
519.45	20945.45
519.62	20863.54
519.79	20762.89
519.96	20779.28
520.14	20985.24
520.31	21046.10
520.48	21408.88
520.65	21214.62
520.83	20931.41
521.00	21247.38
521.17	20795.66
521.34	21333.98
521.52	21343.35
521.69	21282.49
521.86	21619.53
522.03	21736.56
522.20	22101.68
522.38	21516.54
522.55	21804.43
522.72	21649.96
522.89	21661.66
523.07	22171.89
523.24	21617.19
523.41	22068.91
523.58	21851.24
523.75	22132.11
523.92	21701.45
524.10	22181.26
524.27	22256.15
524.44	22216.36
524.61	22398.93
524.78	22300.62
524.96	22471.48
525.13	22309.99
525.30	22338.07
525.47	22427.01
525.64	22469.14
525.81	22616.60
525.98	22621.28
526.16	22651.70
526.33	22764.05
526.50	22977.04
526.67	22534.68
526.84	22752.35
527.01	22635.32
527.18	22403.61
527.36	23096.41
527.53	23030.87
527.70	23094.07
527.87	23028.53
528.04	23161.94
528.21	22981.72
528.38	23138.54
528.55	23253.22
528.72	23110.45
528.89	23091.73
529.07	23442.81
529.24	23370.25
529.41	23601.96
529.58	23405.36
529.75	23077.68
529.92	23520.04
530.09	23534.09
530.26	23735.37
530.43	23716.65
530.60	23761.12
530.77	23819.63
530.94	23580.90
531.11	23768.14
531.28	23618.35
531.46	23538.77
531.63	23887.51
531.80	23999.85
531.97	23646.43
532.14	24182.42
532.31	23894.53
532.48	24018.58
532.65	24105.18
532.82	23901.55
532.99	23536.43
533.16	24044.32
533.33	24074.75
533.50	24613.07
533.67	24367.32
533.84	24315.83
534.01	24217.52
534.18	24046.66
534.35	24659.88
534.52	24383.70
534.69	24486.68
534.86	24685.63
535.03	24379.02
535.20	24596.69
535.37	24542.86
535.54	24203.48
535.71	24297.10
535.88	24723.08
536.05	24212.84
536.22	25039.05
536.38	24966.49
536.55	25069.48
536.72	24861.17
536.89	25083.52
537.06	24489.03
537.23	25034.37
537.40	24982.88
537.57	24889.26
537.74	25027.35
537.91	24985.22
538.08	25057.78
538.25	25029.69
538.42	24886.92
538.59	25603.12
538.75	24622.44
538.92	25039.05
539.09	25266.08
539.26	25156.08
539.43	25273.10
539.60	25467.37
539.77	25582.06
539.94	25450.99
540.11	25883.98
540.28	25097.56
540.44	25298.85
540.61	25460.35
540.78	25186.50
540.95	25483.75
541.12	25628.87
541.29	25624.18
541.46	25507.16
541.62	25315.23
541.79	25474.39
541.96	25277.79
542.13	25535.24
542.30	26008.03
542.47	25483.75
542.63	25881.64
542.80	26101.65
542.97	26008.03
543.14	26206.98
543.31	26106.34
543.48	25741.21
543.64	26682.11
543.81	25853.56
543.98	26424.65
544.15	26806.16
544.32	26277.19
544.48	26782.75
544.65	26719.56
544.82	26682.11
544.99	25989.31
545.16	26434.01
545.32	26602.53
545.49	26719.56
545.66	26621.25
545.83	26703.17
546.00	27087.02
546.16	26485.50
546.33	26288.90
546.50	26293.58
546.67	26679.77
546.83	26387.20
547.00	26728.92
547.17	26555.72
547.34	26909.14
547.50	26981.70
547.67	27009.78
547.84	26895.10
548.00	26836.58
548.17	26829.56
548.34	26869.35
548.51	26899.78
548.67	27016.80
548.84	27009.78
549.01	27108.08
549.18	27239.15
549.34	26993.40
549.51	26775.73
549.68	27117.45
549.84	26897.44
550.01	27140.85
550.18	27328.10
550.34	27384.27
550.51	27454.48
550.68	27236.81
550.84	27138.51
551.01	27297.67
551.18	27374.91
551.34	26923.18
551.51	27487.25
551.68	27527.04
551.84	27372.57
552.01	27702.58
552.18	27679.18
552.34	27501.29
552.51	27559.81
552.68	27417.04
552.84	27431.08
553.01	27658.11
553.18	27702.58
553.34	27672.15
553.51	27704.92
553.67	27562.15
553.84	27894.50
554.01	27503.64
554.17	28006.85
554.34	27634.71
554.51	27494.27
554.67	28133.24
554.84	27482.57
555.00	27630.02
555.17	27604.28
555.33	28063.02
555.50	28016.21
555.67	27948.34
555.83	28027.92
556.00	27985.79
556.16	28292.40
556.33	27908.55
556.50	27852.38
556.66	28177.71
556.83	28252.61
556.99	28388.36
557.16	28212.82
557.32	28379.00
557.49	28280.69
557.65	28109.83
557.82	28409.42
557.98	27995.15
558.15	28264.31
558.32	28491.34
558.48	27927.27
558.65	28535.81
558.81	28364.95
558.98	28645.82
559.14	28599.01
559.31	28444.53
559.47	28315.80
559.64	28189.41
559.80	28545.17
559.97	29043.71
560.13	28395.38
560.30	28603.69
560.46	28713.69
560.63	28285.37
560.79	29081.16
560.96	28802.63
561.12	28800.29
561.29	28669.22
561.45	28678.58
561.61	28367.29
561.78	28526.45
561.94	28627.09
562.11	28453.89
562.27	28453.89
562.44	28659.86
562.60	28601.35
562.77	28950.09
562.93	28809.65
563.10	29085.84
563.26	28620.07
563.42	29209.89
563.59	28840.08
563.75	28819.02
563.92	28933.70
564.08	28587.30
564.24	28673.90
564.41	28896.25
564.57	28858.81
564.74	28940.72
564.90	28769.86
565.07	28823.70
565.23	28985.19
565.39	28629.43
565.56	29029.66
565.72	29050.73
565.88	28837.74
566.05	28807.31
566.21	29090.52
566.38	28893.91
566.54	29003.92
566.70	29151.37
566.87	28961.79
567.03	28856.46
567.19	29216.91
567.36	29469.69
567.52	29099.88
567.68	28947.75
567.85	28865.83
568.01	29142.01
568.17	29010.94
568.34	29252.02
568.50	29216.91
568.66	29209.89
568.83	29280.10
568.99	29006.26
569.15	28999.24
569.32	29338.62
569.48	29373.72
569.64	29355.00
569.81	29041.37
569.97	29291.80
570.13	29596.07
570.30	29034.35
570.46	29324.57
570.62	29219.25
570.78	29376.06
570.95	29338.62
571.11	29163.08
571.27	29130.31
571.43	29085.84
571.60	29467.34
571.76	29024.98
571.92	29177.12
572.09	29469.69
572.25	29322.23
572.41	29270.74
572.57	29352.66
572.74	29219.25
572.90	29259.04
573.06	29422.87
573.22	29174.78
573.38	29081.16
573.55	29418.19
573.71	29752.89
573.87	29479.05
574.03	29043.71
574.20	29340.96
574.36	29322.23
574.52	29277.76
574.68	29511.81
574.84	29336.27
575.01	29443.94
575.17	29465.00
575.33	29696.72
575.49	29120.95
575.65	29682.67
575.82	29895.66
575.98	29699.06
576.14	29626.50
576.30	29617.14
576.46	29366.70
576.62	29237.97
576.79	30099.29
576.95	29357.34
577.11	29401.81
577.27	29551.60
577.43	29600.76
577.59	29715.44
577.75	29589.05
577.92	29549.26
578.08	29331.59
578.24	29015.62
578.40	29642.88
578.56	29542.24
578.72	29404.15
578.88	29921.41
579.04	29654.59
579.21	29649.91
579.37	29516.50
579.53	29366.70
579.69	29685.01
579.85	29661.61
580.01	29282.44
580.17	29488.41
580.33	29296.49
580.49	29757.57
580.65	29736.51
580.82	29593.73
580.98	29525.86
581.14	29663.95
581.30	29586.71
581.46	29507.13
581.62	29816.08
581.78	29401.81
581.94	29881.62
582.10	29570.33
582.26	29701.40
582.42	29823.11
582.58	29883.96
582.74	29776.30
582.90	29589.05
583.06	29926.09
583.22	29493.09
583.38	29481.39
583.54	29851.19
583.70	29930.77
583.86	29886.30
584.02	29851.19
584.18	29949.50
584.34	29771.61
584.50	30178.87
584.66	29769.27
584.82	29717.78
584.98	29530.54
585.14	29841.83
585.30	29565.65
585.46	29825.45
585.62	29305.85
585.78	29834.81
585.94	29546.92
586.10	29844.17
586.26	29869.92
586.42	30328.66
586.58	29951.84
586.74	29645.23
586.90	29273.08
587.06	29528.20
587.22	29958.86
587.38	29493.09
587.54	29773.95
587.70	29867.58
587.86	29914.39
588.02	30005.67
588.18	30356.75
588.34	29923.75
588.49	29965.88
588.65	29666.29
588.81	29930.77
588.97	29600.76
589.13	29905.02
589.29	30010.35
589.45	29947.15
589.61	29890.98
589.77	30127.38
589.93	29954.18
590.08	29916.73
590.24	30228.02
590.40	29752.89
590.56	30380.15
590.72	30082.91
590.88	29624.16
591.04	30211.64
591.20	29813.74
591.35	30574.42
591.51	30387.18
591.67	30459.73
591.83	30253.76
591.99	30103.97
