SpectraSuite Data File
++++++++++++++++++++++++++++++++++++
Date: Fri Oct 18 13:58:31 GMT-05:00 2013
User: bianchi
Dark Spectrum Present: No
Reference Spectrum Present: No
Number of Sampled Component Spectra: 1
Spectrometers: USB2+H05261
Integration Time (usec): 50000 (USB2+H05261)
Spectra Averaged: 1 (USB2+H05261)
Boxcar Smoothing: 0 (USB2+H05261)
Correct for Electrical Dark: No (USB2+H05261)
Strobe/Lamp Enabled: No (USB2+H05261)
Correct for Detector Non-linearity: No (USB2+H05261)
Correct for Stray Light: No (USB2+H05261)
Number of Pixels in Processed Spectrum: 2048
>>>>>Begin Processed Spectral Data<<<<<
365.73	0.00
365.92	0.00
366.12	0.00
366.32	0.00
366.52	0.00
366.72	0.00
366.91	0.00
367.11	0.00
367.31	0.00
367.51	0.00
367.70	0.00
367.90	0.00
368.10	0.00
368.30	0.00
368.49	0.00
368.69	0.00
368.89	0.00
369.09	0.00
369.28	0.00
369.48	0.00
369.68	0.00
369.87	0.00
370.07	0.00
370.27	0.00
370.47	0.00
370.66	37.45
370.86	119.37
371.06	74.90
371.25	114.69
371.45	168.52
371.65	117.03
371.84	180.22
372.04	72.56
372.24	166.18
372.44	119.37
372.63	156.82
372.83	196.60
373.03	255.12
373.22	112.35
373.42	203.63
373.62	177.88
373.81	201.29
374.01	250.44
374.21	264.48
374.40	243.42
374.60	276.18
374.79	227.03
374.99	346.40
375.19	245.76
375.38	243.42
375.58	196.60
375.78	266.82
375.97	245.76
376.17	304.27
376.37	266.82
376.56	182.56
376.76	285.55
376.95	248.10
377.15	273.84
377.35	322.99
377.54	208.31
377.74	301.93
377.93	280.86
378.13	299.59
378.33	224.69
378.52	290.23
378.72	257.46
378.91	297.25
379.11	294.91
379.31	259.80
379.50	287.89
379.70	334.70
379.89	273.84
380.09	290.23
380.28	276.18
380.48	351.08
380.68	304.27
380.87	294.91
381.07	301.93
381.26	322.99
381.46	315.97
381.65	266.82
381.85	236.39
382.04	358.10
382.24	351.08
382.43	337.04
382.63	383.85
382.83	231.71
383.02	330.02
383.22	276.18
383.41	395.55
383.61	355.76
383.80	330.02
384.00	395.55
384.19	273.84
384.39	334.70
384.58	351.08
384.78	313.63
384.97	383.85
385.17	341.72
385.36	365.12
385.56	346.40
385.75	374.49
385.95	383.85
386.14	451.72
386.34	447.04
386.53	437.68
386.72	395.55
386.92	372.15
387.11	414.27
387.31	519.60
387.50	395.55
387.70	425.98
387.89	421.30
388.09	409.59
388.28	470.45
388.48	456.40
388.67	404.91
388.86	404.91
389.06	449.38
389.25	425.98
389.45	430.66
389.64	454.06
389.84	482.15
390.03	458.74
390.22	489.17
390.42	491.51
390.61	437.68
390.81	461.09
391.00	489.17
391.19	547.69
391.39	526.62
391.58	482.15
391.78	461.09
391.97	496.19
392.16	510.24
392.36	587.47
392.55	496.19
392.75	461.09
392.94	608.54
393.13	543.00
393.33	596.84
393.52	547.69
393.71	547.69
393.91	531.30
394.10	535.98
394.29	601.52
394.49	554.71
394.68	643.65
394.88	594.50
395.07	594.50
395.26	603.86
395.46	585.13
395.65	503.22
395.84	638.97
396.04	660.03
396.23	571.09
396.42	580.45
396.62	662.37
396.81	601.52
397.00	634.29
397.19	681.10
397.39	622.58
397.58	669.39
397.77	688.12
397.97	643.65
398.16	678.76
398.35	664.71
398.55	669.39
398.74	648.33
398.93	702.16
399.12	674.07
399.32	748.97
399.51	746.63
399.70	713.86
399.90	781.74
400.09	716.20
400.28	767.70
400.47	753.65
400.67	795.78
400.86	772.38
401.05	777.06
401.24	781.74
401.44	678.76
401.63	723.23
401.82	795.78
402.01	744.29
402.21	763.01
402.40	753.65
402.59	786.42
402.78	884.72
402.97	903.45
403.17	868.34
403.36	828.55
403.55	809.83
403.74	887.06
403.93	816.85
404.13	987.71
404.32	938.55
404.51	959.62
404.70	882.38
404.89	966.64
405.09	915.15
405.28	926.85
405.47	964.30
405.66	961.96
405.85	891.74
406.05	943.24
406.24	1022.81
406.43	1001.75
406.62	1036.86
406.81	1050.90
407.00	954.94
407.20	940.90
407.39	933.87
407.58	997.07
407.77	1076.65
407.96	1125.80
408.15	1078.99
408.34	1022.81
408.54	1071.97
408.73	1022.81
408.92	1076.65
409.11	1104.73
409.30	1109.41
409.49	1188.99
409.68	1083.67
409.87	1142.18
410.07	1256.87
410.26	1097.71
410.45	1179.63
410.64	1217.08
410.83	1240.48
411.02	1233.46
411.21	1188.99
411.40	1228.78
411.59	1228.78
411.78	1280.27
411.98	1245.16
412.17	1268.57
412.36	1240.48
412.55	1210.06
412.74	1390.28
412.93	1500.28
413.12	1320.06
413.31	1390.28
413.50	1366.87
413.69	1348.15
413.88	1420.71
414.07	1380.92
414.26	1364.53
414.45	1439.43
414.64	1462.83
414.83	1500.28
415.02	1444.11
415.22	1476.88
415.41	1586.88
415.60	1493.26
415.79	1514.33
415.98	1504.96
416.17	1519.01
416.36	1600.93
416.55	1563.48
416.74	1603.27
416.93	1696.89
417.12	1603.27
417.31	1598.59
417.50	1682.85
417.69	1610.29
417.88	1734.34
418.07	1741.36
418.26	1776.47
418.45	1776.47
418.64	1717.95
418.83	1804.55
419.02	1783.49
419.21	1842.00
419.39	1783.49
419.58	1809.23
419.77	1788.17
419.96	1750.72
420.15	1816.26
420.34	1795.19
420.53	1795.19
420.72	1823.28
420.91	1907.54
421.10	1856.04
421.29	1935.62
421.48	1893.49
421.67	1961.37
421.86	1947.33
422.05	1994.14
422.24	1937.96
422.43	2005.84
422.61	2010.52
422.80	1942.64
422.99	1926.26
423.18	1975.41
423.37	2031.58
423.56	1977.75
423.75	1940.30
423.94	1928.60
424.13	1865.41
424.32	1966.05
424.50	1926.26
424.69	2015.20
424.88	2118.18
425.07	1893.49
425.26	2031.58
425.45	1998.82
425.64	1975.41
425.83	2026.90
426.01	1963.71
426.20	2026.90
426.39	1905.20
426.58	2097.12
426.77	1961.37
426.96	2136.91
427.15	2066.69
427.33	2038.61
427.52	2078.40
427.71	1998.82
427.90	2097.12
428.09	2190.74
428.28	2104.14
428.46	2099.46
428.65	2134.57
428.84	2324.15
429.03	2216.49
429.22	2059.67
429.40	2244.57
429.59	2239.89
429.78	2113.50
429.97	2090.10
430.16	2305.43
430.34	2270.32
430.53	2340.54
430.72	2258.62
430.91	2232.87
431.10	2321.81
431.28	2333.51
431.47	2373.30
431.66	2312.45
431.85	2321.81
432.03	2368.62
432.22	2410.75
432.41	2392.03
432.60	2480.97
432.79	2363.94
432.97	2455.22
433.16	2478.63
433.35	2478.63
433.54	2392.03
433.72	2525.44
433.91	2457.56
434.10	2462.24
434.28	2450.54
434.47	2502.03
434.66	2626.08
434.85	2621.40
435.03	2518.42
435.22	2576.93
435.41	2700.98
435.59	2647.15
435.78	2621.40
435.97	2595.65
436.16	2576.93
436.34	2677.57
436.53	2661.19
436.72	2640.12
436.90	2602.68
437.09	2698.64
437.28	2593.31
437.46	2796.94
437.65	2633.10
437.84	2703.32
438.02	2724.38
438.21	2733.75
438.40	2710.34
438.58	2843.75
438.77	2977.16
438.96	2773.53
439.14	2916.31
439.33	2815.66
439.52	2860.13
439.70	2939.71
439.89	2974.82
440.08	2937.37
440.26	2906.95
440.45	2974.82
440.63	3049.72
440.82	3030.99
441.01	3045.04
441.19	3124.62
441.38	3103.55
441.57	3112.91
441.75	3176.11
441.94	3211.22
442.12	3243.98
442.31	3318.88
442.50	3187.81
442.68	3138.66
442.87	3157.38
443.05	3213.56
443.24	3407.82
443.43	3251.00
443.61	3349.31
443.80	3435.91
443.98	3274.41
444.17	3148.02
444.35	3353.99
444.54	3482.72
444.73	3339.94
444.91	3421.86
445.10	3403.14
445.28	3478.04
445.47	3386.76
445.65	3389.10
445.84	3396.12
446.02	3475.70
446.21	3426.54
446.39	3459.31
446.58	3393.78
446.77	3564.64
446.95	3414.84
447.14	3417.18
447.32	3574.00
447.51	3403.14
447.69	3456.97
447.88	3435.91
448.06	3524.85
448.25	3368.03
448.43	3478.04
448.62	3482.72
448.80	3466.33
448.99	3445.27
449.17	3576.34
449.36	3449.95
449.54	3510.80
449.73	3634.85
449.91	3693.37
450.10	3721.45
450.28	3693.37
450.46	3501.44
450.65	3566.98
450.83	3756.56
451.02	3730.81
451.20	3691.02
451.39	3698.05
451.57	3559.95
451.76	3541.23
451.94	3730.81
452.13	3777.62
452.31	3845.50
452.49	3651.24
452.68	3822.09
452.86	3756.56
453.05	3779.97
453.23	3737.84
453.42	3873.59
453.60	3698.05
453.78	3875.93
453.97	3913.38
454.15	3850.18
454.34	3906.35
454.52	3847.84
454.70	3908.69
454.89	4065.51
455.07	3770.60
455.26	3950.82
455.44	4079.55
455.62	4021.04
455.81	4037.42
455.99	4049.13
456.17	4023.38
456.36	4067.85
456.54	4196.58
456.73	4102.96
456.91	4135.73
457.09	4159.13
457.28	4306.59
457.46	4262.12
457.64	4348.72
457.83	4241.05
458.01	4156.79
458.19	4301.90
458.38	4299.56
458.56	4379.14
458.74	4369.78
458.93	4482.13
459.11	4334.67
459.29	4332.33
459.48	4278.50
459.66	4416.59
459.84	4407.23
460.03	4383.82
460.21	4484.47
460.39	4451.70
460.57	4486.81
460.76	4344.03
460.94	4571.07
461.12	4580.43
461.31	4564.04
461.49	4517.23
461.67	4458.72
461.85	4514.89
462.04	4571.07
462.22	4641.28
462.40	4755.97
462.59	4634.26
462.77	4645.96
462.95	4667.03
463.13	4713.84
463.32	4781.71
463.50	4704.48
463.68	4732.56
463.86	4826.18
464.05	4744.27
464.23	4713.84
464.41	4805.12
464.59	4664.69
464.78	4835.55
464.96	4802.78
465.14	4765.33
465.32	4994.70
465.50	4905.76
465.69	4905.76
465.87	4943.21
466.05	4887.04
466.23	4980.66
466.41	4994.70
466.60	5085.98
466.78	4947.89
466.96	4959.60
467.14	5048.54
467.32	4929.17
467.51	5076.62
467.69	4877.68
467.87	5095.35
468.05	5069.60
468.23	4973.64
468.41	5032.15
468.60	5043.85
468.78	5217.05
468.96	5217.05
469.14	5207.69
469.32	5172.58
469.50	5149.18
469.69	5158.54
469.87	5444.09
470.05	5376.21
470.23	5322.38
470.41	5334.08
470.59	5493.24
470.77	5331.74
470.95	5287.27
471.14	5394.93
471.32	5423.02
471.50	5586.86
471.68	5469.83
471.86	5577.50
472.04	5591.54
472.22	5769.42
472.40	5589.20
472.58	5692.18
472.77	5706.23
472.95	5633.67
473.13	5886.45
473.31	5584.52
473.49	5650.05
473.67	5771.76
473.85	5851.34
474.03	5975.39
474.21	5727.29
474.39	6087.73
474.57	5909.85
474.75	6050.28
474.93	6010.50
475.12	5998.79
475.30	6162.63
475.48	6141.57
475.66	6059.65
475.84	6363.92
476.02	6256.25
476.20	6146.25
476.38	6303.06
476.56	6282.00
476.74	6532.44
476.92	6450.52
477.10	6352.21
477.28	6462.22
477.46	6487.96
477.64	6469.24
477.82	6686.91
478.00	6588.61
478.18	6658.82
478.36	6736.06
478.54	6958.41
478.72	7166.72
478.90	7049.69
479.08	7023.95
479.26	7028.63
479.44	7180.76
479.62	7239.28
479.80	7042.67
479.98	7279.07
480.16	7541.21
480.34	7307.15
480.52	7492.05
480.70	7400.77
480.88	7501.42
481.06	7424.18
481.24	7485.03
481.41	7620.78
481.59	7789.30
481.77	7662.91
481.95	7981.23
482.13	8084.21
482.31	7866.54
482.49	8095.91
482.67	8051.44
482.85	8198.90
483.03	8491.46
483.21	8500.83
483.39	8327.63
483.57	8418.91
483.74	8477.42
483.92	8568.70
484.10	8451.67
484.28	8767.65
484.46	8842.54
484.64	8861.27
484.82	8887.01
485.00	8943.19
485.18	9174.90
485.35	9270.86
485.53	9151.49
485.71	9247.46
485.89	9441.72
486.07	9308.31
486.25	9525.98
486.43	9493.21
486.61	9481.51
486.78	9804.50
486.96	9607.90
487.14	9928.55
487.32	10001.11
487.50	9881.74
487.68	10038.56
487.85	10298.36
488.03	10417.72
488.21	10349.85
488.39	10448.15
488.57	10513.69
488.75	10401.34
488.92	10581.56
489.10	10820.30
489.28	10810.93
489.46	11014.56
489.64	10780.51
489.81	11211.17
489.99	11201.80
490.17	11295.43
490.35	11454.58
490.53	11192.44
490.70	11403.09
490.88	11272.02
491.06	11599.70
491.24	11651.19
491.41	11599.70
491.59	11981.20
491.77	11620.76
491.95	11843.11
492.13	11744.81
492.30	12191.85
492.48	11896.94
492.66	12191.85
492.84	12285.47
493.01	12395.48
493.19	12397.82
493.37	12414.20
493.54	12685.70
493.72	12552.29
493.90	12465.69
494.08	12800.39
494.25	12978.27
494.43	12910.40
494.61	13071.89
494.79	13032.10
494.96	13095.30
495.14	13142.11
495.32	13317.65
495.49	13392.55
495.67	13319.99
495.85	13420.63
496.02	13813.84
496.20	13687.45
496.38	13427.65
496.55	13844.27
496.73	14003.43
496.91	13769.37
497.09	13905.12
497.26	14090.02
497.44	14200.03
497.62	13855.97
497.79	14401.32
497.97	14136.84
498.14	14548.77
498.32	14518.34
498.50	14607.28
498.67	14675.16
498.85	14817.93
499.03	14740.69
499.20	14572.18
499.38	15049.64
499.56	14885.81
499.73	14918.57
499.91	14895.17
500.08	15089.43
500.26	15023.90
500.44	15274.34
500.61	15222.84
500.79	15229.87
500.97	15403.07
501.14	15665.21
501.32	15538.82
501.49	15522.43
501.67	15506.05
501.84	15377.32
502.02	15587.97
502.20	15527.11
502.37	15798.62
502.55	15735.42
502.72	15817.34
502.90	15672.23
503.07	16042.03
503.25	16123.95
503.43	16128.63
503.60	16163.74
503.78	16210.55
503.95	16444.60
504.13	16390.77
504.30	16360.34
504.48	16212.89
504.65	16538.23
504.83	16695.04
505.01	16563.97
505.18	16828.45
505.36	16889.31
505.53	16744.19
505.71	16835.47
505.88	16730.15
506.06	16821.43
506.23	17060.16
506.41	16776.96
506.58	17057.82
506.76	17254.43
506.93	17422.95
507.11	17151.45
507.28	17603.17
507.46	17275.49
507.63	17350.39
507.81	17544.66
507.98	17209.96
508.16	17547.00
508.33	17514.23
508.50	17802.11
508.68	17734.24
508.85	17778.71
509.03	17734.24
509.20	17928.50
509.38	17935.53
509.55	17949.57
509.73	18071.28
509.90	17965.95
510.08	18218.73
510.25	17970.63
510.42	17846.58
510.60	18019.78
510.77	18111.07
510.95	18717.26
511.12	18251.50
511.30	18548.75
511.47	18555.77
511.64	18560.45
511.82	18621.30
511.99	18820.25
512.17	18843.65
512.34	18661.09
512.51	18799.18
512.69	18939.62
512.86	18941.96
513.04	19206.44
513.21	19056.64
513.38	19161.97
513.56	19075.37
513.73	18911.53
513.90	19452.19
514.08	19035.58
514.25	19601.99
514.43	19377.30
514.60	19400.70
514.77	19658.16
514.95	19719.01
515.12	19501.34
515.29	19386.66
515.47	19660.50
515.64	19873.49
515.81	19517.73
515.99	19875.83
516.16	19929.66
516.33	20013.92
516.51	19784.55
516.68	19831.36
516.85	19662.84
517.03	20259.68
517.20	20027.96
517.37	19964.77
517.54	20233.93
517.72	20332.23
517.89	20018.60
518.06	20475.01
518.24	20247.97
518.41	20250.32
518.58	20390.75
518.75	20460.96
518.93	20821.41
519.10	20622.46
519.27	20669.27
519.45	20505.43
519.62	21163.12
519.79	20575.65
519.96	20917.37
520.14	20980.56
520.31	20608.42
520.48	20940.77
520.65	20837.79
520.83	21263.77
521.00	20783.96
521.17	20924.39
521.34	20802.68
521.52	21184.19
521.69	21078.86
521.86	21376.11
522.03	21467.39
522.20	21163.12
522.38	21530.59
522.55	21591.44
522.72	21589.10
522.89	21418.24
523.07	21371.43
523.24	21656.98
523.41	21626.55
523.58	21317.60
523.75	21535.27
523.92	21743.58
524.10	21720.17
524.27	22003.38
524.44	21774.00
524.61	21745.92
524.78	22017.42
524.96	22260.84
525.13	22192.96
525.30	22080.61
525.47	22452.76
525.64	22010.40
525.81	22040.82
525.98	22525.32
526.16	22305.31
526.33	22831.93
526.50	22696.17
526.67	22377.86
526.84	22539.36
527.01	22485.53
527.18	22263.18
527.36	22415.31
527.53	22494.89
527.70	23267.27
527.87	22843.63
528.04	22738.30
528.21	22752.35
528.38	22766.39
528.55	22944.27
528.72	22820.22
528.89	23138.54
529.07	23147.90
529.24	22946.61
529.41	23051.94
529.58	22869.37
529.75	23154.92
529.92	23026.19
530.09	23105.77
530.26	23264.92
530.43	23264.92
530.60	23360.89
530.77	23058.96
530.94	23325.78
531.11	23239.18
531.28	23222.80
531.46	23433.44
531.63	23293.01
531.80	23737.71
531.97	23805.59
532.14	23847.72
532.31	23180.67
532.48	23864.10
532.65	23672.18
532.82	23501.32
532.99	23683.88
533.16	23463.87
533.33	23999.85
533.50	23658.14
533.67	23786.86
533.84	23536.43
534.01	23882.83
534.18	23740.05
534.35	24285.40
534.52	23775.16
534.69	24011.56
534.86	24121.56
535.03	23737.71
535.20	24175.39
535.37	24587.33
535.54	24254.97
535.71	24264.33
535.88	23924.96
536.05	24297.10
536.22	24446.90
536.38	24837.76
536.55	24610.73
536.72	24524.13
536.89	24570.94
537.06	24748.82
537.23	24456.26
537.40	24460.94
537.57	24517.11
537.74	24374.34
537.91	25048.41
538.08	24833.08
538.25	24666.91
538.42	24723.08
538.59	24929.05
538.75	24269.01
538.92	24694.99
539.09	25001.60
539.26	24645.84
539.43	25076.50
539.60	24676.27
539.77	24959.47
539.94	24898.62
540.11	24886.92
540.28	25216.93
540.44	25254.38
540.61	25378.43
540.78	25064.80
540.95	25326.94
541.12	25160.76
541.29	25158.42
541.46	25383.11
541.62	25032.03
541.79	25153.74
541.96	24877.55
542.13	25069.48
542.30	25404.17
542.47	25439.28
542.63	25298.85
542.80	25766.96
542.97	25804.41
543.14	25701.42
543.31	25846.54
543.48	25858.24
543.64	25919.09
543.81	25855.90
543.98	26066.55
544.15	25806.75
544.32	26256.13
544.48	26558.06
544.65	25923.77
544.82	25989.31
544.99	25792.70
545.16	26043.14
545.32	25989.31
545.49	26263.15
545.66	26593.17
545.83	26197.62
546.00	26595.51
546.16	26274.85
546.33	26031.44
546.50	25902.71
546.67	26302.94
546.83	25823.13
547.00	26111.02
547.17	26333.37
547.34	26022.08
547.50	26675.09
547.67	26609.55
547.84	26546.36
548.00	26431.67
548.17	26677.43
548.34	26300.60
548.51	26462.10
548.67	26717.22
548.84	26616.57
549.01	26740.62
549.18	26625.93
549.34	26735.94
549.51	26670.40
549.68	26749.98
549.84	26693.81
550.01	26948.93
550.18	26668.06
550.34	26955.95
550.51	26689.13
550.68	27087.02
550.84	26874.03
551.01	27021.48
551.18	27040.21
551.34	26642.32
551.51	26960.63
551.68	26979.36
551.84	26967.65
552.01	26958.29
552.18	26951.27
552.34	26827.22
552.51	27049.57
552.68	26993.40
552.84	27173.62
553.01	27304.69
553.18	27215.75
553.34	27302.35
553.51	27428.74
553.67	27335.12
553.84	27501.29
554.01	27775.14
554.17	27573.85
554.34	27662.79
554.51	27269.58
554.67	27817.27
554.84	27400.65
555.00	27625.34
555.17	27367.88
555.33	27737.69
555.50	27349.16
555.67	27667.47
555.83	27325.75
556.00	27777.48
556.16	27695.56
556.33	27522.36
556.50	27964.72
556.66	28116.86
556.83	27714.28
556.99	28023.23
557.16	28065.36
557.32	27847.69
557.49	28013.87
557.65	28133.24
557.82	27988.13
557.98	27693.22
558.15	27674.49
558.32	28009.19
558.48	28037.28
558.65	28053.66
558.81	28158.99
558.98	28060.68
559.14	27983.44
559.31	27894.50
559.47	28081.75
559.64	27889.82
559.80	28222.18
559.97	27889.82
560.13	28037.28
560.30	28187.07
560.46	28128.56
560.63	28074.73
560.79	28044.30
560.96	28102.81
561.12	28325.16
561.29	28032.60
561.45	28180.05
561.61	28364.95
561.78	28587.30
561.94	28287.71
562.11	28383.68
562.27	28285.37
562.44	27906.21
562.60	28147.28
562.77	28203.46
562.93	28226.86
563.10	28416.44
563.26	28580.28
563.42	28936.04
563.59	28479.64
563.75	28416.44
563.92	28606.03
564.08	28549.85
564.24	28353.25
564.41	28299.42
564.57	28173.03
564.74	28297.08
564.90	28788.59
565.07	28432.83
565.23	28414.10
565.39	28631.77
565.56	28725.39
565.72	28362.61
565.88	28762.84
566.05	28570.92
566.21	28133.24
566.38	28449.21
566.54	28481.98
566.70	28926.68
566.87	28865.83
567.03	28823.70
567.19	29142.01
567.36	28840.08
567.52	28830.72
567.68	28484.32
567.85	28631.77
568.01	28793.27
568.17	28549.85
568.34	28828.38
568.50	28868.17
568.66	29022.64
568.83	29039.03
568.99	28861.15
569.15	28297.08
569.32	28617.73
569.48	28521.77
569.64	29081.16
569.81	28723.05
569.97	28938.38
570.13	28804.97
570.30	28886.89
570.46	28783.91
570.62	28643.48
570.78	29160.73
570.95	29069.45
571.11	28636.45
571.27	28769.86
571.43	28788.59
571.60	28694.97
571.76	28786.25
571.92	28973.49
572.09	29036.69
572.25	29036.69
572.41	28851.78
572.57	29256.70
572.74	29167.76
572.90	28208.14
573.06	29149.03
573.22	28655.18
573.38	28758.16
573.55	28528.79
573.71	29362.02
573.87	29226.27
574.03	29139.67
574.20	28889.23
574.36	28769.86
574.52	29123.29
574.68	28835.40
574.84	28905.62
575.01	28961.79
575.17	29315.21
575.33	29221.59
575.49	28919.66
575.65	29411.17
575.82	29294.14
575.98	28863.49
576.14	29064.77
576.30	29350.32
576.46	28809.65
576.62	28634.11
576.79	29134.99
576.95	28943.06
577.11	29237.97
577.27	29331.59
577.43	28978.17
577.59	29055.41
577.75	28711.35
577.92	28896.25
578.08	28807.31
578.24	29050.73
578.40	29188.82
578.56	29032.00
578.72	29432.24
578.88	29223.93
579.04	29432.24
579.21	29010.94
579.37	29315.21
579.53	29134.99
579.69	28879.87
579.85	28739.44
580.01	29163.08
580.17	29174.78
580.33	28858.81
580.49	29146.69
580.65	29446.28
580.82	28837.74
580.98	29184.14
581.14	29130.31
581.30	29160.73
581.46	28849.44
581.62	29263.72
581.78	29331.59
581.94	29429.90
582.10	28952.43
582.26	29237.97
582.42	28917.32
582.58	29413.51
582.74	29230.95
582.90	28826.04
583.06	29411.17
583.22	29158.39
583.38	29357.34
583.54	29256.70
583.70	28980.51
583.86	28795.61
584.02	29034.35
584.18	29254.36
584.34	29006.26
584.50	29291.80
584.66	29305.85
584.82	29156.05
584.98	29392.45
585.14	29165.42
585.30	28987.53
585.46	29259.04
585.62	29275.42
585.78	29151.37
585.94	29333.93
586.10	29401.81
586.26	29474.37
586.42	29319.89
586.58	29371.38
586.74	29219.25
586.90	29336.27
587.06	29153.71
587.22	29277.76
587.38	29303.51
587.54	29343.30
587.70	29727.14
587.86	29041.37
588.02	29717.78
588.18	29696.72
588.34	29034.35
588.49	29654.59
588.65	29310.53
588.81	29497.77
588.97	29493.09
589.13	29219.25
589.29	29202.86
589.45	29612.46
589.61	29549.26
589.77	29675.65
589.93	29729.48
590.08	29589.05
590.24	29638.20
590.40	29411.17
590.56	29860.55
590.72	29301.17
590.88	29432.24
591.04	29312.87
591.20	29656.93
591.35	29743.53
591.51	29984.60
591.67	29626.50
591.83	29710.76
591.99	29399.47
