SpectraSuite Data File
++++++++++++++++++++++++++++++++++++
Date: Fri Oct 18 13:58:04 GMT-05:00 2013
User: bianchi
Dark Spectrum Present: No
Reference Spectrum Present: No
Number of Sampled Component Spectra: 1
Spectrometers: USB2+H05261
Integration Time (usec): 50000 (USB2+H05261)
Spectra Averaged: 1 (USB2+H05261)
Boxcar Smoothing: 0 (USB2+H05261)
Correct for Electrical Dark: No (USB2+H05261)
Strobe/Lamp Enabled: No (USB2+H05261)
Correct for Detector Non-linearity: No (USB2+H05261)
Correct for Stray Light: No (USB2+H05261)
Number of Pixels in Processed Spectrum: 2048
>>>>>Begin Processed Spectral Data<<<<<
365.73	0.00
365.92	0.00
366.12	0.00
366.32	0.00
366.52	0.00
366.72	0.00
366.91	0.00
367.11	0.00
367.31	0.00
367.51	0.00
367.70	0.00
367.90	0.00
368.10	0.00
368.30	0.00
368.49	0.00
368.69	0.00
368.89	0.00
369.09	0.00
369.28	0.00
369.48	0.00
369.68	0.00
369.87	0.00
370.07	0.00
370.27	0.00
370.47	0.00
370.66	124.05
370.86	70.22
371.06	133.41
371.25	175.54
371.45	105.32
371.65	121.71
371.84	161.50
372.04	105.32
372.24	124.05
372.44	133.41
372.63	138.09
372.83	264.48
373.03	163.84
373.22	262.14
373.42	182.56
373.62	201.29
373.81	191.92
374.01	313.63
374.21	283.20
374.40	194.26
374.60	147.45
374.79	252.78
374.99	210.65
375.19	252.78
375.38	238.73
375.58	222.35
375.78	381.51
375.97	304.27
376.17	217.67
376.37	280.86
376.56	285.55
376.76	234.05
376.95	187.24
377.15	241.08
377.35	294.91
377.54	313.63
377.74	287.89
377.93	283.20
378.13	245.76
378.33	266.82
378.52	264.48
378.72	283.20
378.91	278.52
379.11	257.46
379.31	271.50
379.50	266.82
379.70	236.39
379.89	229.37
380.09	313.63
380.28	278.52
380.48	212.99
380.68	250.44
380.87	287.89
381.07	315.97
381.26	346.40
381.46	311.29
381.65	365.12
381.85	318.31
382.04	330.02
382.24	416.62
382.43	374.49
382.63	304.27
382.83	294.91
383.02	447.04
383.22	390.87
383.41	325.33
383.61	290.23
383.80	388.53
384.00	388.53
384.19	355.76
384.39	383.85
384.58	428.32
384.78	383.85
384.97	308.95
385.17	383.85
385.36	379.17
385.56	372.15
385.75	407.25
385.95	344.06
386.14	447.04
386.34	456.40
386.53	414.27
386.72	367.46
386.92	358.10
387.11	423.64
387.31	437.68
387.50	383.85
387.70	409.59
387.89	425.98
388.09	447.04
388.28	479.81
388.48	538.32
388.67	440.02
388.86	428.32
389.06	524.28
389.25	449.38
389.45	463.43
389.64	416.62
389.84	463.43
390.03	531.30
390.22	538.32
390.42	468.11
390.61	475.13
390.81	524.28
391.00	526.62
391.19	566.41
391.39	585.13
391.58	533.64
391.78	535.98
391.97	540.66
392.16	395.55
392.36	580.45
392.55	503.22
392.75	496.19
392.94	552.37
393.13	543.00
393.33	587.47
393.52	610.88
393.71	531.30
393.91	573.43
394.10	547.69
394.29	592.16
394.49	517.26
394.68	528.96
394.88	657.69
395.07	571.09
395.26	650.67
395.46	627.26
395.65	594.50
395.84	582.79
396.04	688.12
396.23	667.05
396.42	667.05
396.62	653.01
396.81	685.78
397.00	641.31
397.19	662.37
397.39	681.10
397.58	692.80
397.77	702.16
397.97	653.01
398.16	695.14
398.35	786.42
398.55	596.84
398.74	723.23
398.93	788.76
399.12	692.80
399.32	681.10
399.51	723.23
399.70	718.54
399.90	753.65
400.09	716.20
400.28	779.40
400.47	725.57
400.67	737.27
400.86	795.78
401.05	798.12
401.24	793.44
401.44	821.53
401.63	791.10
401.82	821.53
402.01	802.80
402.21	896.43
402.40	802.80
402.59	837.91
402.78	851.96
402.97	896.43
403.17	851.96
403.36	922.17
403.55	889.40
403.74	912.81
403.93	957.28
404.13	959.62
404.32	854.30
404.51	903.45
404.70	912.81
404.89	880.04
405.09	891.74
405.28	898.77
405.47	1001.75
405.66	978.34
405.85	976.00
406.05	980.68
406.24	994.73
406.43	1069.62
406.62	999.41
406.81	1100.05
407.00	987.71
407.20	1036.86
407.39	1088.35
407.58	1093.03
407.77	1149.20
407.96	1064.94
408.15	1109.41
408.34	1020.47
408.54	1100.05
408.73	1144.52
408.92	1179.63
409.11	1109.41
409.30	1116.44
409.49	1156.22
409.68	1069.62
409.87	1118.78
410.07	1238.14
410.26	1268.57
410.45	1184.31
410.64	1207.72
410.83	1245.16
411.02	1266.23
411.21	1291.98
411.40	1261.55
411.59	1263.89
411.78	1275.59
411.98	1282.61
412.17	1348.15
412.36	1235.80
412.55	1383.26
412.74	1355.17
412.93	1401.98
413.12	1387.94
413.31	1404.32
413.50	1341.13
413.69	1455.81
413.88	1465.18
414.07	1533.05
414.26	1465.18
414.45	1439.43
414.64	1493.26
414.83	1542.41
415.02	1519.01
415.22	1598.59
415.41	1542.41
415.60	1579.86
415.79	1605.61
415.98	1533.05
416.17	1551.78
416.36	1556.46
416.55	1586.88
416.74	1575.18
416.93	1584.54
417.12	1624.33
417.31	1633.69
417.50	1633.69
417.69	1713.27
417.88	1748.38
418.07	1710.93
418.26	1661.78
418.45	1694.55
418.64	1907.54
418.83	1872.43
419.02	1750.72
419.21	1844.34
419.39	1792.85
419.58	1879.45
419.77	1849.02
419.96	1921.58
420.15	1884.13
420.34	1888.81
420.53	1844.34
420.72	1853.70
420.91	1975.41
421.10	1970.73
421.29	1963.71
421.48	1909.88
421.67	1975.41
421.86	1994.14
422.05	1996.48
422.24	1949.67
422.43	1998.82
422.61	1973.07
422.80	2104.14
422.99	1963.71
423.18	2022.22
423.37	2160.31
423.56	2062.01
423.75	2071.37
423.94	1785.83
424.13	1837.32
424.32	1860.73
424.50	2010.52
424.69	2029.24
424.88	2083.08
425.07	2003.50
425.26	1940.30
425.45	1996.48
425.64	1973.07
425.83	1987.11
426.01	1966.05
426.20	2029.24
426.39	2106.48
426.58	2050.31
426.77	2045.63
426.96	2111.16
427.15	2038.61
427.33	2183.72
427.52	2010.52
427.71	2188.40
427.90	2120.53
428.09	2190.74
428.28	2256.28
428.46	2228.19
428.65	2195.42
428.84	2335.85
429.03	2183.72
429.22	2246.91
429.40	2225.85
429.59	2228.19
429.78	2174.36
429.97	2113.50
430.16	2188.40
430.34	2361.60
430.53	2284.36
430.72	2429.48
430.91	2286.70
431.10	2347.56
431.28	2385.01
431.47	2424.80
431.66	2356.92
431.85	2340.54
432.03	2370.96
432.22	2565.23
432.41	2286.70
432.60	2429.48
432.79	2532.46
432.97	2478.63
433.16	2541.82
433.35	2485.65
433.54	2532.46
433.72	2452.88
433.91	2513.74
434.10	2485.65
434.28	2588.63
434.47	2452.88
434.66	2548.84
434.85	2537.14
435.03	2562.89
435.22	2588.63
435.41	2635.44
435.59	2672.89
435.78	2703.32
435.97	2551.18
436.16	2708.00
436.34	2738.43
436.53	2656.51
436.72	2759.49
436.90	2661.19
437.09	2764.17
437.28	2708.00
437.46	2766.51
437.65	2869.50
437.84	2869.50
438.02	2878.86
438.21	2813.32
438.40	2764.17
438.58	2895.24
438.77	3047.38
438.96	2913.97
439.14	2939.71
439.33	2986.52
439.52	3007.59
439.70	2862.48
439.89	3091.85
440.08	3110.57
440.26	3122.27
440.45	3157.38
440.63	3080.14
440.82	3258.03
441.01	3143.34
441.19	3155.04
441.38	3297.81
441.57	3229.94
441.75	3152.70
441.94	3304.84
442.12	3309.52
442.31	3353.99
442.50	3417.18
442.68	3274.41
442.87	3391.44
443.05	3199.51
443.24	3475.70
443.43	3424.20
443.61	3384.41
443.80	3531.87
443.98	3335.26
444.17	3218.24
444.35	3410.16
444.54	3456.97
444.73	3454.63
444.91	3517.83
445.10	3417.18
445.28	3489.74
445.47	3288.45
445.65	3499.10
445.84	3524.85
446.02	3489.74
446.21	3480.38
446.39	3344.63
446.58	3552.93
446.77	3541.23
446.95	3508.46
447.14	3550.59
447.32	3445.27
447.51	3513.14
447.69	3529.53
447.88	3548.25
448.06	3485.06
448.25	3449.95
448.43	3585.70
448.62	3611.45
448.80	3529.53
448.99	3609.11
449.17	3641.87
449.36	3623.15
449.54	3538.89
449.73	3660.60
449.91	3847.84
450.10	3712.09
450.28	3810.39
450.46	3775.28
450.65	3843.16
450.83	3726.13
451.02	3812.73
451.20	3754.22
451.39	3871.25
451.57	3775.28
451.76	3784.65
451.94	3875.93
452.13	3831.46
452.31	3829.12
452.49	3779.97
452.68	3899.33
452.86	3796.35
453.05	3964.87
453.23	3889.97
453.42	3992.95
453.60	3758.90
453.78	4018.70
453.97	3985.93
454.15	4051.47
454.34	3946.14
454.52	4016.36
454.70	4091.26
454.89	3932.10
455.07	4018.70
455.26	4109.98
455.44	4126.36
455.62	4053.81
455.81	4170.83
455.99	4219.99
456.17	4215.30
456.36	4154.45
456.54	4135.73
456.73	4271.48
456.91	4498.51
457.09	4348.72
457.28	4367.44
457.46	4369.78
457.64	4397.87
457.83	4407.23
458.01	4234.03
458.19	4435.32
458.38	4468.08
458.56	4510.21
458.74	4423.61
458.93	4660.01
459.11	4475.10
459.29	4496.17
459.48	4540.64
459.66	4414.25
459.84	4580.43
460.03	4638.94
460.21	4596.81
460.39	4498.51
460.57	4599.15
460.76	4692.77
460.94	4624.90
461.12	4638.94
461.31	4767.67
461.49	4645.96
461.67	4690.43
461.85	4898.74
462.04	4812.14
462.22	4924.49
462.40	4917.47
462.59	4692.77
462.77	4840.23
462.95	4770.01
463.13	4854.27
463.32	4755.97
463.50	4870.65
463.68	4823.84
463.86	4861.29
464.05	4882.36
464.23	4957.25
464.41	5006.41
464.59	4830.87
464.78	4943.21
464.96	5029.81
465.14	4786.40
465.32	5177.26
465.50	5011.09
465.69	5100.03
465.87	5043.85
466.05	4971.30
466.23	5064.92
466.41	5121.09
466.60	5277.91
466.78	4980.66
466.96	5074.28
467.14	5085.98
467.32	5242.80
467.51	5252.16
467.69	4891.72
467.87	5170.24
468.05	5240.46
468.23	5132.79
468.41	5095.35
468.60	5303.65
468.78	5268.55
468.96	5329.40
469.14	5305.99
469.32	5242.80
469.50	5085.98
469.69	5448.77
469.87	5408.98
470.05	5369.19
470.23	5401.96
470.41	5500.26
470.59	5401.96
470.77	5453.45
470.95	5589.20
471.14	5612.60
471.32	5446.43
471.50	5827.93
471.68	5605.58
471.86	5706.23
472.04	5664.10
472.22	5813.89
472.40	5607.92
472.58	5804.53
472.77	5851.34
472.95	5771.76
473.13	5867.72
473.31	5769.42
473.49	5947.30
473.67	5884.11
473.85	6010.50
474.03	6078.37
474.21	6104.12
474.39	6242.21
474.57	6150.93
474.75	6265.61
474.93	6099.44
475.12	6111.14
475.30	6251.57
475.48	6246.89
475.66	6221.14
475.84	6349.87
476.02	6546.48
476.20	6401.37
476.38	6366.26
476.56	6530.09
476.74	6450.52
476.92	6541.80
477.10	6658.82
477.28	6731.38
477.46	6759.47
477.64	6857.77
477.82	7030.97
478.00	6953.73
478.18	7173.74
478.36	7019.27
478.54	7122.25
478.72	7229.91
478.90	7213.53
479.08	7318.86
479.26	7269.70
479.44	7332.90
479.62	7309.49
479.80	7524.82
479.98	7683.98
480.16	7578.65
480.34	7566.95
480.52	7700.36
480.70	7826.75
480.88	7662.91
481.06	7761.22
481.24	7765.90
481.41	7782.28
481.59	7950.80
481.77	8334.65
481.95	8166.13
482.13	8067.83
482.31	8121.66
482.49	8262.09
482.67	8348.69
482.85	8514.87
483.03	8475.08
483.21	8437.63
483.39	8814.46
483.57	8725.52
483.74	8498.49
483.92	8908.08
484.10	8807.44
484.28	9132.77
484.46	9221.71
484.64	9146.81
484.82	8978.30
485.00	9184.26
485.18	9432.36
485.35	9549.39
485.53	9364.48
485.71	9423.00
485.89	10033.88
486.07	9558.75
486.25	9724.93
486.43	9909.83
486.61	9823.23
486.78	9870.04
486.96	9926.21
487.14	10104.09
487.32	10186.01
487.50	10363.89
487.68	10403.68
487.85	10242.18
488.03	10567.52
488.21	10714.97
488.39	10712.63
488.57	10878.81
488.75	10590.92
488.92	11080.10
489.10	11236.91
489.28	11033.29
489.46	11332.87
489.64	11054.35
489.81	11515.44
489.99	11461.60
490.17	11442.88
490.35	11658.21
490.53	11653.53
490.70	11578.63
490.88	11576.29
491.06	11850.13
491.24	11793.96
491.41	11850.13
491.59	12290.15
491.77	12283.13
491.95	12259.73
492.13	12266.75
492.30	12226.96
492.48	12519.53
492.66	12365.05
492.84	12400.16
493.01	12531.23
493.19	12624.85
493.37	12739.54
493.54	13069.55
493.72	12760.60
493.90	13048.49
494.08	13219.35
494.25	13317.65
494.43	13083.59
494.61	13296.58
494.79	13523.62
494.96	13406.59
495.14	13458.08
495.32	13507.23
495.49	13750.65
495.67	13647.66
495.85	13846.61
496.02	13973.00
496.20	14155.56
496.38	13902.78
496.55	14415.36
496.73	14537.07
496.91	14228.12
497.09	14516.00
497.26	14504.30
497.44	14518.34
497.62	14490.26
497.79	14796.87
497.97	14530.05
498.14	14747.72
498.32	14906.87
498.50	15087.09
498.67	15227.53
498.85	15124.54
499.03	15253.27
499.20	15239.23
499.38	14993.47
499.56	15400.72
499.73	15489.67
499.91	15683.93
500.08	15510.73
500.26	15330.51
500.44	15632.44
500.61	15662.86
500.79	15349.23
500.97	15946.07
501.14	15903.94
501.32	15929.69
501.49	16276.09
501.67	15920.32
501.84	16027.99
502.02	16308.85
502.20	16341.62
502.37	16297.15
502.55	16161.40
502.72	16386.09
502.90	16400.13
503.07	16395.45
503.25	16477.37
503.43	16444.60
503.60	16936.12
503.78	16788.66
503.95	16908.03
504.13	16800.37
504.30	16676.32
504.48	16812.07
504.65	16950.16
504.83	17198.26
505.01	17319.96
505.18	17163.15
505.36	17469.76
505.53	17069.53
505.71	17296.56
505.88	17352.73
506.06	17303.58
506.23	17467.42
506.41	17401.88
506.58	17453.37
506.76	17607.85
506.93	17769.35
507.11	17495.50
507.28	17741.26
507.46	17865.31
507.63	17642.96
507.81	18155.54
507.98	18033.83
508.16	17998.72
508.33	17923.82
508.50	18293.63
508.68	18054.89
508.85	18216.39
509.03	18499.59
509.20	18129.79
509.38	18391.93
509.55	18576.83
509.73	18202.35
509.90	18766.42
510.08	18544.06
510.25	18579.17
510.42	19047.28
510.60	18972.38
510.77	18857.70
510.95	19073.03
511.12	18878.76
511.30	18558.11
511.47	19000.47
511.64	19154.94
511.82	19089.41
511.99	19255.59
512.17	19311.76
512.34	19332.82
512.51	19225.16
512.69	19276.65
512.86	19655.82
513.04	19665.18
513.21	19728.38
513.38	19927.32
513.56	19784.55
513.73	19936.68
513.90	19391.34
514.08	19676.88
514.25	20091.16
514.43	19744.76
514.60	19882.85
514.77	20168.40
514.95	20128.61
515.12	20130.95
515.29	19807.95
515.47	20191.80
515.64	20460.96
515.81	20238.61
515.99	20418.83
516.16	20617.78
516.33	20402.45
516.51	20482.03
516.68	20467.98
516.85	20556.93
517.03	20673.95
517.20	20879.92
517.37	20781.62
517.54	20828.43
517.72	20924.39
517.89	20680.97
518.06	21043.76
518.24	20959.50
518.41	20994.61
518.58	21097.59
518.75	20893.96
518.93	21303.56
519.10	20875.24
519.27	21064.82
519.45	20849.49
519.62	21287.17
519.79	21160.78
519.96	21458.03
520.14	21834.86
520.31	21483.78
520.48	21319.94
520.65	21661.66
520.83	21612.51
521.00	21764.64
521.17	21474.42
521.34	21783.37
521.52	21846.56
521.69	21387.82
521.86	22211.68
522.03	21970.61
522.20	22281.90
522.38	22075.93
522.55	22244.45
522.72	22326.37
522.89	22031.46
523.07	22466.80
523.24	22520.63
523.41	22242.11
523.58	22085.30
523.75	22258.49
523.92	22319.35
524.10	22295.94
524.27	22609.58
524.44	22675.11
524.61	22640.00
524.78	22827.24
524.96	23016.83
525.13	23110.45
525.30	22789.80
525.47	22703.20
525.64	22955.97
525.81	23021.51
525.98	23009.81
526.16	23023.85
526.33	22939.59
526.50	23318.76
526.67	22890.44
526.84	23110.45
527.01	23117.47
527.18	23108.11
527.36	23447.49
527.53	23920.28
527.70	23480.25
527.87	23573.88
528.04	23651.11
528.21	23693.24
528.38	23601.96
528.55	23470.89
528.72	23616.01
528.89	23983.47
529.07	23711.97
529.24	23875.80
529.41	23714.31
529.58	23662.82
529.75	23901.55
529.92	23775.16
530.09	23922.62
530.26	23789.20
530.43	23896.87
530.60	24161.35
530.77	23754.10
530.94	24292.42
531.11	24056.03
531.28	24421.15
531.46	24269.01
531.63	24608.39
531.80	24367.32
531.97	24496.05
532.14	24575.62
532.31	24439.87
532.48	24617.75
532.65	24381.36
532.82	24130.92
532.99	24388.38
533.16	24673.93
533.33	24802.66
533.50	24982.88
533.67	24753.51
533.84	24636.48
534.01	24444.56
534.18	24587.33
534.35	24669.25
534.52	24664.57
534.69	25179.48
534.86	24996.92
535.03	24786.27
535.20	24769.89
535.37	25230.98
535.54	25252.04
535.71	24783.93
535.88	25055.43
536.05	25104.59
536.22	25333.96
536.38	25099.90
536.55	25025.01
536.72	25291.83
536.89	24999.26
537.06	25481.41
537.23	25675.68
537.40	25493.12
537.57	25275.45
537.74	25420.56
537.91	25912.07
538.08	25804.41
538.25	25127.99
538.42	25848.88
538.59	25958.88
538.75	25528.22
538.92	25476.73
539.09	25701.42
539.26	25858.24
539.43	25738.87
539.60	26080.59
539.77	25802.07
539.94	25661.63
540.11	25696.74
540.28	25783.34
540.44	25998.67
540.61	25919.09
540.78	25830.15
540.95	25876.96
541.12	25886.32
541.29	26162.51
541.46	26284.22
541.62	26270.17
541.79	26026.76
541.96	25949.52
542.13	26218.68
542.30	26618.91
542.47	26609.55
542.63	26263.15
542.80	26436.35
542.97	26747.64
543.14	26698.49
543.31	26630.62
543.48	26551.04
543.64	27072.98
543.81	27166.60
543.98	27049.57
544.15	26965.31
544.32	27084.68
544.48	27428.74
544.65	26969.99
544.82	27040.21
544.99	26754.66
545.16	26888.07
545.32	26969.99
545.49	26972.33
545.66	27115.11
545.83	27353.84
546.00	27091.70
546.16	27063.61
546.33	27061.27
546.50	26927.86
546.67	26939.57
546.83	26827.22
547.00	27175.96
547.17	27391.29
547.34	27576.19
547.50	27356.18
547.67	27405.33
547.84	27744.71
548.00	27461.51
548.17	27522.36
548.34	27276.60
548.51	27463.85
548.67	27981.10
548.84	27543.42
549.01	27775.14
549.18	27683.86
549.34	27885.14
549.51	27536.40
549.68	27859.40
549.84	27772.80
550.01	27435.76
550.18	27847.69
550.34	27522.36
550.51	27866.42
550.68	27779.82
550.84	27330.44
551.01	27800.88
551.18	27749.39
551.34	27674.49
551.51	27917.91
551.68	28163.67
551.84	27536.40
552.01	28016.21
552.18	28339.21
552.34	28084.09
552.51	28070.04
552.68	27903.87
552.84	28044.30
553.01	28339.21
553.18	28297.08
553.34	28194.09
553.51	28093.45
553.67	28489.00
553.84	28755.82
554.01	28526.45
554.17	28329.84
554.34	28123.88
554.51	28713.69
554.67	28685.61
554.84	28156.64
555.00	28252.61
555.17	28402.40
555.33	28631.77
555.50	28444.53
555.67	28599.01
555.83	28594.32
556.00	28561.56
556.16	28882.21
556.33	28694.97
556.50	28397.72
556.66	29113.92
556.83	28596.67
556.99	28999.24
557.16	28678.58
557.32	28896.25
557.49	28875.19
557.65	28809.65
557.82	28783.91
557.98	28872.85
558.15	28725.39
558.32	28643.48
558.48	28971.15
558.65	28856.46
558.81	29191.16
558.98	28790.93
559.14	29380.74
559.31	28886.89
559.47	28758.16
559.64	28999.24
559.80	29352.66
559.97	29345.64
560.13	28985.19
560.30	29167.76
560.46	28994.56
560.63	29259.04
560.79	29263.72
560.96	29521.18
561.12	29219.25
561.29	29212.23
561.45	29170.10
561.61	29769.27
561.78	29270.74
561.94	29116.26
562.11	29546.92
562.27	29165.42
562.44	29177.12
562.60	29001.58
562.77	29385.43
562.93	29170.10
563.10	29488.41
563.26	29434.58
563.42	29996.31
563.59	29589.05
563.75	29455.64
563.92	29546.92
564.08	29158.39
564.24	29167.76
564.41	29132.65
564.57	29699.06
564.74	29565.65
564.90	29584.37
565.07	29914.39
565.23	29614.80
565.39	29415.85
565.56	29804.38
565.72	29453.30
565.88	29544.58
566.05	29701.40
566.21	29392.45
566.38	29481.39
566.54	29516.50
566.70	29521.18
566.87	29823.11
567.03	29521.18
567.19	30113.33
567.36	30211.64
567.52	29633.52
567.68	29659.27
567.85	29734.17
568.01	30059.50
568.17	29977.58
568.34	29879.28
568.50	29811.40
568.66	29687.36
568.83	30022.05
568.99	29895.66
569.15	29975.24
569.32	29759.91
569.48	29287.12
569.64	29551.60
569.81	29895.66
569.97	30181.21
570.13	30106.31
570.30	29425.22
570.46	30340.36
570.62	30192.91
570.78	29764.59
570.95	29717.78
571.11	29993.97
571.27	29806.72
571.43	29738.85
571.60	29731.83
571.76	29975.24
571.92	30085.25
572.09	29876.94
572.25	29933.11
572.41	30071.20
572.57	30071.20
572.74	30078.22
572.90	30068.86
573.06	29975.24
573.22	29893.32
573.38	30153.12
573.55	29926.09
573.71	30321.64
573.87	30265.47
574.03	30314.62
574.20	30096.95
574.36	29530.54
574.52	29979.92
574.68	29951.84
574.84	30125.04
575.01	30195.25
575.17	30466.75
575.33	30115.67
575.49	30277.17
575.65	30242.06
575.82	30267.81
575.98	30237.38
576.14	30328.66
576.30	30005.67
576.46	29909.71
576.62	30293.55
576.79	30094.61
576.95	30115.67
577.11	30459.73
577.27	30071.20
577.43	30232.70
577.59	30293.55
577.75	30321.64
577.92	29905.02
578.08	30237.38
578.24	29912.05
578.40	30146.10
578.56	30129.72
578.72	30225.68
578.88	30199.93
579.04	30583.78
579.21	30546.33
579.37	29909.71
579.53	30565.06
579.69	29773.95
579.85	30323.98
580.01	29830.13
580.17	29951.84
580.33	30031.41
580.49	30216.32
580.65	30471.43
580.82	30139.08
580.98	30445.69
581.14	29795.02
581.30	30731.23
581.46	30429.30
581.62	30202.27
581.78	30125.04
581.94	30288.87
582.10	29998.65
582.26	30176.53
582.42	30438.67
582.58	30408.24
582.74	30518.25
582.90	30345.05
583.06	30410.58
583.22	30143.76
583.38	30602.50
583.54	30249.08
583.70	30298.23
583.86	30558.03
584.02	30441.01
584.18	30705.49
584.34	30209.29
584.50	30611.87
584.66	30445.69
584.82	30075.88
584.98	30532.29
585.14	30415.26
585.30	30096.95
585.46	30366.11
585.62	30384.83
585.78	30368.45
585.94	30307.60
586.10	30555.69
586.26	30148.44
586.42	30796.77
586.58	30525.27
586.74	30293.55
586.90	30462.07
587.06	30143.76
587.22	30305.26
587.38	30223.34
587.54	30565.06
587.70	30869.33
587.86	30363.77
588.02	30749.96
588.18	31236.79
588.34	30817.83
588.49	30808.47
588.65	30499.52
588.81	30551.01
588.97	30754.64
589.13	30735.92
589.29	30281.85
589.45	30499.52
589.61	30785.07
589.77	30682.08
589.93	30838.90
590.08	31002.74
590.24	31037.84
590.40	30712.51
590.56	30792.09
590.72	30216.32
590.88	30066.52
591.04	30492.50
591.20	30621.23
591.35	30918.48
591.51	31276.58
591.67	30937.20
591.83	31084.65
591.99	30869.33
