SpectraSuite Data File
++++++++++++++++++++++++++++++++++++
Date: Fri Oct 18 13:58:08 GMT-05:00 2013
User: bianchi
Dark Spectrum Present: No
Reference Spectrum Present: No
Number of Sampled Component Spectra: 1
Spectrometers: USB2+H05261
Integration Time (usec): 50000 (USB2+H05261)
Spectra Averaged: 1 (USB2+H05261)
Boxcar Smoothing: 0 (USB2+H05261)
Correct for Electrical Dark: No (USB2+H05261)
Strobe/Lamp Enabled: No (USB2+H05261)
Correct for Detector Non-linearity: No (USB2+H05261)
Correct for Stray Light: No (USB2+H05261)
Number of Pixels in Processed Spectrum: 2048
>>>>>Begin Processed Spectral Data<<<<<
365.73	0.00
365.92	0.00
366.12	0.00
366.32	0.00
366.52	0.00
366.72	0.00
366.91	0.00
367.11	0.00
367.31	0.00
367.51	0.00
367.70	0.00
367.90	0.00
368.10	0.00
368.30	0.00
368.49	0.00
368.69	0.00
368.89	0.00
369.09	0.00
369.28	0.00
369.48	0.00
369.68	0.00
369.87	0.00
370.07	0.00
370.27	0.00
370.47	0.00
370.66	51.49
370.86	91.28
371.06	147.45
371.25	147.45
371.45	81.92
371.65	175.54
371.84	222.35
372.04	124.05
372.24	152.13
372.44	170.86
372.63	196.60
372.83	187.24
373.03	112.35
373.22	191.92
373.42	177.88
373.62	283.20
373.81	262.14
374.01	259.80
374.21	231.71
374.40	203.63
374.60	241.08
374.79	182.56
374.99	177.88
375.19	264.48
375.38	285.55
375.58	292.57
375.78	231.71
375.97	248.10
376.17	266.82
376.37	285.55
376.56	250.44
376.76	266.82
376.95	304.27
377.15	290.23
377.35	285.55
377.54	290.23
377.74	224.69
377.93	264.48
378.13	245.76
378.33	259.80
378.52	294.91
378.72	308.95
378.91	388.53
379.11	334.70
379.31	301.93
379.50	283.20
379.70	379.17
379.89	351.08
380.09	339.38
380.28	285.55
380.48	339.38
380.68	262.14
380.87	297.25
381.07	280.86
381.26	283.20
381.46	304.27
381.65	325.33
381.85	369.80
382.04	367.46
382.24	299.59
382.43	313.63
382.63	355.76
382.83	341.72
383.02	386.19
383.22	372.15
383.41	404.91
383.61	355.76
383.80	383.85
384.00	320.65
384.19	330.02
384.39	332.36
384.58	365.12
384.78	390.87
384.97	313.63
385.17	330.02
385.36	355.76
385.56	397.89
385.75	390.87
385.95	362.78
386.14	388.53
386.34	393.21
386.53	344.06
386.72	362.78
386.92	545.34
387.11	430.66
387.31	379.17
387.50	407.25
387.70	486.83
387.89	416.62
388.09	428.32
388.28	470.45
388.48	463.43
388.67	435.34
388.86	461.09
389.06	526.62
389.25	477.47
389.45	421.30
389.64	435.34
389.84	470.45
390.03	519.60
390.22	491.51
390.42	461.09
390.61	550.03
390.81	482.15
391.00	475.13
391.19	545.34
391.39	496.19
391.58	531.30
391.78	489.17
391.97	458.74
392.16	440.02
392.36	645.99
392.55	517.26
392.75	580.45
392.94	507.90
393.13	596.84
393.33	566.41
393.52	559.39
393.71	543.00
393.91	613.22
394.10	606.20
394.29	543.00
394.49	594.50
394.68	580.45
394.88	603.86
395.07	671.73
395.26	657.69
395.46	575.77
395.65	636.63
395.84	610.88
396.04	603.86
396.23	662.37
396.42	603.86
396.62	730.25
396.81	603.86
397.00	645.99
397.19	730.25
397.39	624.92
397.58	650.67
397.77	786.42
397.97	716.20
398.16	725.57
398.35	702.16
398.55	638.97
398.74	660.03
398.93	690.46
399.12	676.41
399.32	690.46
399.51	718.54
399.70	849.61
399.90	730.25
400.09	788.76
400.28	858.98
400.47	765.36
400.67	763.01
400.86	725.57
401.05	814.51
401.24	781.74
401.44	877.70
401.63	823.87
401.82	952.60
402.01	809.83
402.21	844.93
402.40	835.57
402.59	854.30
402.78	837.91
402.97	903.45
403.17	910.47
403.36	875.36
403.55	884.72
403.74	901.11
403.93	866.00
404.13	926.85
404.32	964.30
404.51	966.64
404.70	1011.11
404.89	866.00
405.09	1039.20
405.28	983.02
405.47	1001.75
405.66	924.51
405.85	1008.77
406.05	1029.84
406.24	1064.94
406.43	1034.52
406.62	910.47
406.81	1095.37
407.00	1057.92
407.20	1095.37
407.39	961.96
407.58	1071.97
407.77	1081.33
407.96	1109.41
408.15	1128.14
408.34	1015.79
408.54	976.00
408.73	1156.22
408.92	1111.75
409.11	1088.35
409.30	1153.88
409.49	1128.14
409.68	1177.29
409.87	1167.93
410.07	1174.95
410.26	1067.28
410.45	1167.93
410.64	1139.84
410.83	1179.63
411.02	1240.48
411.21	1221.76
411.40	1196.01
411.59	1385.60
411.78	1315.38
411.98	1294.32
412.17	1254.53
412.36	1287.29
412.55	1291.98
412.74	1263.89
412.93	1409.00
413.12	1357.51
413.31	1444.11
413.50	1315.38
413.69	1441.77
413.88	1488.58
414.07	1444.11
414.26	1441.77
414.45	1451.13
414.64	1401.98
414.83	1579.86
415.02	1643.06
415.22	1624.33
415.41	1633.69
415.60	1486.24
415.79	1582.20
415.98	1643.06
416.17	1596.25
416.36	1610.29
416.55	1610.29
416.74	1654.76
416.93	1612.63
417.12	1736.68
417.31	1678.16
417.50	1636.03
417.69	1802.21
417.88	1661.78
418.07	1781.15
418.26	1692.21
418.45	1806.89
418.64	1802.21
418.83	1785.83
419.02	1748.38
419.21	1816.26
419.39	1849.02
419.58	1783.49
419.77	1914.56
419.96	1757.74
420.15	1844.34
420.34	1921.58
420.53	1926.26
420.72	1959.03
420.91	1825.62
421.10	1877.11
421.29	1970.73
421.48	1907.54
421.67	1916.90
421.86	2026.90
422.05	2001.16
422.24	1984.77
422.43	1982.43
422.61	2059.67
422.80	2024.56
422.99	2005.84
423.18	1956.69
423.37	2047.97
423.56	1944.99
423.75	2036.27
423.94	1916.90
424.13	1940.30
424.32	1947.33
424.50	2143.93
424.69	2150.95
424.88	2062.01
425.07	2085.42
425.26	2141.59
425.45	1919.24
425.64	2029.24
425.83	1907.54
426.01	2157.97
426.20	2038.61
426.39	2036.27
426.58	2073.71
426.77	2043.29
426.96	2209.47
427.15	2080.74
427.33	2200.10
427.52	2078.40
427.71	2146.27
427.90	2118.18
428.09	2188.40
428.28	2181.38
428.46	2167.34
428.65	2230.53
428.84	2249.25
429.03	2237.55
429.22	2204.78
429.40	2249.25
429.59	2319.47
429.78	2221.17
429.97	2143.93
430.16	2211.81
430.34	2352.24
430.53	2401.39
430.72	2406.07
430.91	2380.32
431.10	2183.72
431.28	2305.43
431.47	2406.07
431.66	2436.50
431.85	2338.20
432.03	2487.99
432.22	2476.29
432.41	2462.24
432.60	2485.65
432.79	2483.31
432.97	2408.41
433.16	2413.09
433.35	2457.56
433.54	2417.77
433.72	2466.92
433.91	2558.21
434.10	2450.54
434.28	2518.42
434.47	2448.20
434.66	2630.76
434.85	2712.68
435.03	2630.76
435.22	2579.27
435.41	2724.38
435.59	2579.27
435.78	2682.25
435.97	2815.66
436.16	2764.17
436.34	2803.96
436.53	2794.60
436.72	2740.77
436.90	2771.19
437.09	2745.45
437.28	2834.39
437.46	2733.75
437.65	2738.43
437.84	2708.00
438.02	2818.00
438.21	2731.41
438.40	2665.87
438.58	2897.58
438.77	2939.71
438.96	2960.78
439.14	2920.99
439.33	2963.12
439.52	3045.04
439.70	2885.88
439.89	3133.98
440.08	2974.82
440.26	3157.38
440.45	3087.17
440.63	3157.38
440.82	3136.32
441.01	3040.36
441.19	3108.23
441.38	3138.66
441.57	3155.04
441.75	3375.05
441.94	3358.67
442.12	3332.92
442.31	3349.31
442.50	3375.05
442.68	3349.31
442.87	3300.16
443.05	3445.27
443.24	3578.68
443.43	3410.16
443.61	3405.48
443.80	3447.61
443.98	3421.86
444.17	3290.79
444.35	3468.67
444.54	3454.63
444.73	3368.03
444.91	3562.30
445.10	3627.83
445.28	3349.31
445.47	3485.06
445.65	3412.50
445.84	3410.16
446.02	3658.26
446.21	3410.16
446.39	3510.80
446.58	3620.81
446.77	3431.23
446.95	3440.59
447.14	3562.30
447.32	3630.17
447.51	3405.48
447.69	3667.62
447.88	3513.14
448.06	3597.40
448.25	3372.71
448.43	3602.08
448.62	3482.72
448.80	3442.93
448.99	3569.32
449.17	3730.81
449.36	3578.68
449.54	3761.24
449.73	3728.47
449.91	3861.88
450.10	3782.31
450.28	3716.77
450.46	3913.38
450.65	3763.58
450.83	3847.84
451.02	3791.67
451.20	3932.10
451.39	3843.16
451.57	3955.51
451.76	3803.37
451.94	3840.82
452.13	3854.86
452.31	3810.39
452.49	3744.86
452.68	3861.88
452.86	3985.93
453.05	3999.98
453.23	4121.68
453.42	3866.56
453.60	3885.29
453.78	3988.27
453.97	3908.69
454.15	3948.48
454.34	4002.32
454.52	4135.73
454.70	4030.40
454.89	3974.23
455.07	4117.00
455.26	4124.02
455.44	4102.96
455.62	4135.73
455.81	4088.92
455.99	4243.39
456.17	4152.11
456.36	4173.18
456.54	4184.88
456.73	4304.25
456.91	4512.55
457.09	4238.71
457.28	4348.72
457.46	4409.57
457.64	4423.61
457.83	4369.78
458.01	4348.72
458.19	4578.09
458.38	4498.51
458.56	4645.96
458.74	4575.75
458.93	4526.60
459.11	4524.26
459.29	4524.26
459.48	4547.66
459.66	4421.27
459.84	4573.41
460.03	4603.83
460.21	4697.46
460.39	4610.86
460.57	4774.69
460.76	4608.51
460.94	4657.67
461.12	4681.07
461.31	4674.05
461.49	4573.41
461.67	4615.54
461.85	4873.00
462.04	4671.71
462.22	5137.48
462.40	4894.06
462.59	4760.65
462.77	4667.03
462.95	4849.59
463.13	4788.74
463.32	4898.74
463.50	4884.70
463.68	4910.44
463.86	4912.78
464.05	4915.12
464.23	4887.04
464.41	4957.25
464.59	4798.10
464.78	4957.25
464.96	4992.36
465.14	4936.19
465.32	5186.63
465.50	5132.79
465.69	5235.78
465.87	4961.94
466.05	5043.85
466.23	5090.67
466.41	5050.88
466.60	5198.33
466.78	5118.75
466.96	5125.77
467.14	5163.22
467.32	5203.01
467.51	5266.21
467.69	5214.71
467.87	5104.71
468.05	5261.52
468.23	5245.14
468.41	5029.81
468.60	5130.45
468.78	5315.36
468.96	5320.04
469.14	5357.49
469.32	5338.76
469.50	5158.54
469.69	5521.32
469.87	5453.45
470.05	5455.79
470.23	5327.06
470.41	5385.57
470.59	5643.03
470.77	5486.22
470.95	5500.26
471.14	5558.77
471.32	5516.64
471.50	5743.67
471.68	5689.84
471.86	5657.07
472.04	5600.90
472.22	5963.68
472.40	5621.97
472.58	5734.31
472.77	5699.20
472.95	5888.79
473.13	6085.39
473.31	5954.32
473.49	5872.40
473.67	5951.98
473.85	6040.92
474.03	6113.48
474.21	6246.89
474.39	6272.64
474.57	6204.76
474.75	6289.02
474.93	6160.29
475.12	6204.76
475.30	6326.47
475.48	6090.07
475.66	6340.51
475.84	6422.43
476.02	6392.00
476.20	6370.94
476.38	6604.99
476.56	6480.94
476.74	6689.25
476.92	6595.63
477.10	6574.56
477.28	6822.66
477.46	6700.95
477.64	6733.72
477.82	6913.94
478.00	7094.16
478.18	7126.93
478.36	6949.05
478.54	7087.14
478.72	7150.34
478.90	7246.30
479.08	7208.85
479.26	7136.29
479.44	7316.51
479.62	7595.04
479.80	7382.05
479.98	7377.37
480.16	7658.23
480.34	7606.74
480.52	7829.09
480.70	7662.91
480.88	7744.83
481.06	7754.19
481.24	7723.77
481.41	7908.67
481.59	8081.87
481.77	8119.32
481.95	8107.62
482.13	8423.59
482.31	8229.32
482.49	8393.16
482.67	8395.50
482.85	8390.82
483.03	8524.23
483.21	8702.11
483.39	8610.83
483.57	8617.85
483.74	8718.50
483.92	8947.87
484.10	8901.06
484.28	9057.87
484.46	9128.09
484.64	9301.29
484.82	9151.49
485.00	9142.13
485.18	9233.41
485.35	9540.02
485.53	9446.40
485.71	9479.17
485.89	9795.14
486.07	9619.60
486.25	9626.62
486.43	9764.72
486.61	9750.67
486.78	10078.35
486.96	9987.07
487.14	10193.03
487.32	10326.44
487.50	10335.81
487.68	10296.02
487.85	10445.81
488.03	10630.71
488.21	10913.92
488.39	10913.92
488.57	10733.70
488.75	10824.98
488.92	11112.86
489.10	11040.31
489.28	11098.82
489.46	11178.40
489.64	11059.03
489.81	11597.35
489.99	11241.59
490.17	11485.01
490.35	11510.75
490.53	11534.16
490.70	11578.63
490.88	11646.51
491.06	11927.37
491.24	11644.17
491.41	11995.25
491.59	12301.86
491.77	12086.53
491.95	12114.61
492.13	12224.62
492.30	12339.30
492.48	12453.99
492.66	12547.61
492.84	12510.16
493.01	12746.56
493.19	12692.73
493.37	12989.97
493.54	12856.56
493.72	13071.89
493.90	13109.34
494.08	13151.47
494.25	13224.03
494.43	13263.82
494.61	13359.78
494.79	13511.91
494.96	13497.87
495.14	13579.79
495.32	13614.90
495.49	13755.33
495.67	13638.30
495.85	13921.51
496.02	14092.37
496.20	14228.12
496.38	14171.94
496.55	14176.62
496.73	14427.06
496.91	14546.43
497.09	14366.21
497.26	14764.10
497.44	14305.35
497.62	14569.83
497.79	14939.64
497.97	14806.23
498.14	14822.61
498.32	15260.29
498.50	14995.81
498.67	15206.46
498.85	15386.68
499.03	14965.39
499.20	15122.20
499.38	15407.75
499.56	15391.36
499.73	15503.71
499.91	15688.61
500.08	15489.67
500.26	15232.21
500.44	15550.52
500.61	15847.77
500.79	15822.02
500.97	15964.79
501.14	15990.54
501.32	15929.69
501.49	16065.44
501.67	16025.65
501.84	16119.27
502.02	16063.10
502.20	16231.62
502.37	16528.86
502.55	16374.39
502.72	15971.82
502.90	16402.47
503.07	16482.05
503.25	16325.24
503.43	16650.57
503.60	16891.65
503.78	16807.39
503.95	17205.28
504.13	17074.21
504.30	16891.65
504.48	16751.21
504.65	16943.14
504.83	17074.21
505.01	17025.06
505.18	17486.14
505.36	17298.90
505.53	17331.67
505.71	17165.49
505.88	17149.11
506.06	17146.76
506.23	17296.56
506.41	17556.36
506.58	17596.15
506.76	17930.84
506.93	17614.87
507.11	17617.21
507.28	17998.72
507.46	17717.86
507.63	17982.34
507.81	18078.30
507.98	17795.09
508.16	18120.43
508.33	18185.96
508.50	18164.90
508.68	18244.48
508.85	18457.46
509.03	18352.14
509.20	18593.22
509.38	18375.55
509.55	18747.69
509.73	18455.12
509.90	18813.23
510.08	18635.35
510.25	18616.62
510.42	18637.69
510.60	18995.79
510.77	19023.87
510.95	18803.86
511.12	18869.40
511.30	19021.53
511.47	19236.86
511.64	19412.40
511.82	19206.44
511.99	19283.67
512.17	19499.00
512.34	19506.02
512.51	19632.41
512.69	19419.42
512.86	19358.57
513.04	19599.65
513.21	19627.73
513.38	19630.07
513.56	19800.93
513.73	19695.61
513.90	19676.88
514.08	19693.27
514.25	19819.66
514.43	20023.28
514.60	20137.97
514.77	19639.44
514.95	20255.00
515.12	19569.22
515.29	20245.63
515.47	20369.68
515.64	20304.15
515.81	20456.28
515.99	20559.27
516.16	20496.07
516.33	20542.88
516.51	20783.96
516.68	20386.07
516.85	20872.90
517.03	20479.69
517.20	20613.10
517.37	20872.90
517.54	20690.34
517.72	21139.72
517.89	20884.60
518.06	21018.01
518.24	20835.45
518.41	21195.89
518.58	20959.50
518.75	21130.36
518.93	21331.64
519.10	21003.97
519.27	21352.71
519.45	20891.62
519.62	21242.70
519.79	21085.89
519.96	21298.88
520.14	21322.28
520.31	21350.37
520.48	21968.27
520.65	21633.57
520.83	21769.32
521.00	21734.21
521.17	21549.31
521.34	21579.74
521.52	21603.14
521.69	21546.97
521.86	22022.10
522.03	22176.58
522.20	22036.14
522.38	22143.81
522.55	22045.51
522.72	22197.64
522.89	22197.64
523.07	22567.45
523.24	22579.15
523.41	22569.79
523.58	21998.70
523.75	22555.74
523.92	22490.21
524.10	22515.95
524.27	22635.32
524.44	22455.10
524.61	22918.53
524.78	22750.01
524.96	22836.61
525.13	22902.14
525.30	22768.73
525.47	22841.29
525.64	23215.77
525.81	23335.14
525.98	23136.20
526.16	23094.07
526.33	22998.10
526.50	23379.61
526.67	23103.43
526.84	23445.15
527.01	23089.38
527.18	23431.10
527.36	23543.45
527.53	23496.64
527.70	23351.52
527.87	23828.99
528.04	23576.22
528.21	23398.34
528.38	23419.40
528.55	23564.51
528.72	23583.24
528.89	23903.89
529.07	23686.22
529.24	23459.19
529.41	24126.24
529.58	23655.79
529.75	23805.59
529.92	23601.96
530.09	23960.06
530.26	23847.72
530.43	24205.82
530.60	24123.90
530.77	23913.25
530.94	24168.37
531.11	24269.01
531.28	24093.47
531.46	24201.14
531.63	24409.45
531.80	24098.16
531.97	24694.99
532.14	24540.52
532.31	24322.85
532.48	24151.99
532.65	24474.98
532.82	24379.02
532.99	24563.92
533.16	24379.02
533.33	24697.33
533.50	25020.33
533.67	24662.22
533.84	24538.18
534.01	24968.84
534.18	24615.41
534.35	25083.52
534.52	24697.33
534.69	25261.40
534.86	25195.87
535.03	24893.94
535.20	25099.90
535.37	24924.36
535.54	25266.08
535.71	24987.56
535.88	25046.07
536.05	25434.60
536.22	25436.94
536.38	25118.63
536.55	25137.35
536.72	25394.81
536.89	25280.13
537.06	25329.28
537.23	25570.35
537.40	25345.66
537.57	25263.74
537.74	25640.57
537.91	25834.83
538.08	25722.49
538.25	25699.08
538.42	25266.08
538.59	25933.14
538.75	25364.39
538.92	26054.84
539.09	26059.52
539.26	25668.66
539.43	25820.79
539.60	25923.77
539.77	25708.44
539.94	26054.84
540.11	25612.48
540.28	25862.92
540.44	26167.19
540.61	26050.16
540.78	26064.21
540.95	25860.58
541.12	26164.85
541.29	26113.36
541.46	26047.82
541.62	26291.24
541.79	26387.20
541.96	25893.35
542.13	26314.64
542.30	26300.60
542.47	26513.59
542.63	26534.65
542.80	26796.79
542.97	26700.83
543.14	26703.17
543.31	26396.56
543.48	26827.22
543.64	26752.32
543.81	26759.34
543.98	27335.12
544.15	27016.80
544.32	27276.60
544.48	27101.06
544.65	26937.23
544.82	27171.28
544.99	26867.01
545.16	26918.50
545.32	27292.99
545.49	27344.48
545.66	27047.23
545.83	27541.08
546.00	27321.07
546.16	27117.45
546.33	27094.04
546.50	26801.47
546.67	27197.02
546.83	27047.23
547.00	27297.67
547.17	27248.52
547.34	27283.62
547.50	27349.16
547.67	27765.78
547.84	27716.62
548.00	27725.99
548.17	27704.92
548.34	27618.32
548.51	27843.01
548.67	27637.05
548.84	27903.87
549.01	27498.95
549.18	27639.39
549.34	27513.00
549.51	28048.98
549.68	27623.00
549.84	27349.16
550.01	27974.08
550.18	27527.04
550.34	27838.33
550.51	27812.59
550.68	27695.56
550.84	27651.09
551.01	27906.21
551.18	27906.21
551.34	27875.78
551.51	28058.34
551.68	27936.63
551.84	27878.12
552.01	28290.06
552.18	28201.11
552.34	28367.29
552.51	28357.93
552.68	28519.43
552.84	28140.26
553.01	28065.36
553.18	28180.05
553.34	28283.03
553.51	28479.64
553.67	28748.80
553.84	28613.05
554.01	28313.46
554.17	28409.42
554.34	28355.59
554.51	28114.52
554.67	28514.75
554.84	28847.10
555.00	28142.60
555.17	28811.99
555.33	28746.46
555.50	28713.69
555.67	28472.62
555.83	28566.24
556.00	28449.21
556.16	28622.41
556.33	28774.55
556.50	28524.11
556.66	29120.95
556.83	28685.61
556.99	28985.19
557.16	29153.71
557.32	29144.35
557.49	28875.19
557.65	28584.96
557.82	28879.87
557.98	28938.38
558.15	29153.71
558.32	29268.40
558.48	29268.40
558.65	28840.08
558.81	29188.82
558.98	29214.57
559.14	29123.29
559.31	29057.75
559.47	29127.97
559.64	29095.20
559.80	29399.47
559.97	28959.45
560.13	28973.49
560.30	29523.52
560.46	29076.48
560.63	29724.80
560.79	29085.84
560.96	29282.44
561.12	29252.02
561.29	28961.79
561.45	29132.65
561.61	29254.36
561.78	29413.51
561.94	29326.91
562.11	29219.25
562.27	29315.21
562.44	29624.16
562.60	29261.38
562.77	29282.44
562.93	29441.60
563.10	29647.57
563.26	29340.96
563.42	29797.36
563.59	29546.92
563.75	29731.83
563.92	29385.43
564.08	29565.65
564.24	29586.71
564.41	29237.97
564.57	29663.95
564.74	29947.15
564.90	29436.92
565.07	29706.08
565.23	29797.36
565.39	29699.06
565.56	29352.66
565.72	29219.25
565.88	29315.21
566.05	29539.90
566.21	29666.29
566.38	29720.12
566.54	29626.50
566.70	29834.81
566.87	29696.72
567.03	29998.65
567.19	30316.96
567.36	29813.74
567.52	29617.14
567.68	29979.92
567.85	29593.73
568.01	29802.04
568.17	29991.62
568.34	29961.20
568.50	29956.52
568.66	30045.46
568.83	29799.70
568.99	29820.77
569.15	30096.95
569.32	29729.48
569.48	29708.42
569.64	30087.59
569.81	29853.53
569.97	30038.44
570.13	29865.24
570.30	30071.20
570.46	30054.82
570.62	30293.55
570.78	29802.04
570.95	30162.48
571.11	29638.20
571.27	29963.54
571.43	29986.94
571.60	29930.77
571.76	30033.75
571.92	30197.59
572.09	29996.31
572.25	30162.48
572.41	30326.32
572.57	30235.04
572.74	30010.35
572.90	30103.97
573.06	29935.45
573.22	30113.33
573.38	29879.28
573.55	30249.08
573.71	30150.78
573.87	30586.12
574.03	30211.64
574.20	30445.69
574.36	30101.63
574.52	30213.98
574.68	29944.81
574.84	30520.59
575.01	30216.32
575.17	30349.73
575.33	29713.10
575.49	29958.86
575.65	30272.49
575.82	30593.14
575.98	30068.86
576.14	30188.23
576.30	30139.08
576.46	30164.82
576.62	30080.56
576.79	30267.81
576.95	30206.95
577.11	30251.42
577.27	30328.66
577.43	30501.86
577.59	30274.83
577.75	30082.91
577.92	30361.43
578.08	30031.41
578.24	30260.79
578.40	30164.82
578.56	30218.66
578.72	30206.95
578.88	30288.87
579.04	30342.70
579.21	30473.78
579.37	30298.23
579.53	30272.49
579.69	30396.54
579.85	30422.28
580.01	30342.70
580.17	30218.66
580.33	30506.54
580.49	30433.99
580.65	30611.87
580.82	30419.94
580.98	30452.71
581.14	30639.95
581.30	30733.57
581.46	30487.82
581.62	30560.37
581.78	30185.89
581.94	30597.82
582.10	30225.68
582.26	30232.70
582.42	30396.54
582.58	30567.40
582.74	30417.60
582.90	30309.94
583.06	30349.73
583.22	30377.81
583.38	30586.12
583.54	30506.54
583.70	30274.83
583.86	30043.12
584.02	30387.18
584.18	30782.73
584.34	30527.61
584.50	30457.39
584.66	30162.48
584.82	30534.63
584.98	30522.93
585.14	30352.07
585.30	30059.50
585.46	30513.56
585.62	30487.82
585.78	30511.22
585.94	30139.08
586.10	30756.98
586.26	30726.55
586.42	31147.85
586.58	30843.58
586.74	30668.04
586.90	30141.42
587.06	30354.41
587.22	30712.51
587.38	30221.00
587.54	30827.20
587.70	30899.75
587.86	30801.45
588.02	31009.76
588.18	30761.66
588.34	30433.99
588.49	30632.93
588.65	30651.66
588.81	30389.52
588.97	30457.39
589.13	29907.37
589.29	30253.76
589.45	30728.89
589.61	30976.99
589.77	31138.49
589.93	30939.54
590.08	31117.42
590.24	31063.59
590.40	31021.46
590.56	30845.92
590.72	30960.61
590.88	30799.11
591.04	30349.73
591.20	31016.78
591.35	31248.49
591.51	31152.53
591.67	31161.89
591.83	31239.13
591.99	30785.07
