SpectraSuite Data File
++++++++++++++++++++++++++++++++++++
Date: Fri Oct 18 13:58:29 GMT-05:00 2013
User: bianchi
Dark Spectrum Present: No
Reference Spectrum Present: No
Number of Sampled Component Spectra: 1
Spectrometers: USB2+H05261
Integration Time (usec): 50000 (USB2+H05261)
Spectra Averaged: 1 (USB2+H05261)
Boxcar Smoothing: 0 (USB2+H05261)
Correct for Electrical Dark: No (USB2+H05261)
Strobe/Lamp Enabled: No (USB2+H05261)
Correct for Detector Non-linearity: No (USB2+H05261)
Correct for Stray Light: No (USB2+H05261)
Number of Pixels in Processed Spectrum: 2048
>>>>>Begin Processed Spectral Data<<<<<
365.73	0.00
365.92	0.00
366.12	0.00
366.32	0.00
366.52	0.00
366.72	0.00
366.91	0.00
367.11	0.00
367.31	0.00
367.51	0.00
367.70	0.00
367.90	0.00
368.10	0.00
368.30	0.00
368.49	0.00
368.69	0.00
368.89	0.00
369.09	0.00
369.28	0.00
369.48	0.00
369.68	0.00
369.87	0.00
370.07	0.00
370.27	0.00
370.47	0.00
370.66	95.96
370.86	91.28
371.06	110.01
371.25	135.75
371.45	112.35
371.65	168.52
371.84	114.69
372.04	227.03
372.24	215.33
372.44	222.35
372.63	128.73
372.83	166.18
373.03	156.82
373.22	170.86
373.42	131.07
373.62	241.08
373.81	163.84
374.01	184.90
374.21	255.12
374.40	222.35
374.60	262.14
374.79	187.24
374.99	273.84
375.19	243.42
375.38	210.65
375.58	264.48
375.78	238.73
375.97	294.91
376.17	210.65
376.37	259.80
376.56	196.60
376.76	173.20
376.95	304.27
377.15	269.16
377.35	224.69
377.54	266.82
377.74	234.05
377.93	262.14
378.13	280.86
378.33	276.18
378.52	325.33
378.72	404.91
378.91	245.76
379.11	297.25
379.31	311.29
379.50	236.39
379.70	346.40
379.89	325.33
380.09	252.78
380.28	238.73
380.48	243.42
380.68	234.05
380.87	297.25
381.07	351.08
381.26	341.72
381.46	320.65
381.65	362.78
381.85	365.12
382.04	299.59
382.24	332.36
382.43	358.10
382.63	379.17
382.83	327.68
383.02	402.57
383.22	306.61
383.41	365.12
383.61	318.31
383.80	325.33
384.00	322.99
384.19	383.85
384.39	407.25
384.58	301.93
384.78	404.91
384.97	339.38
385.17	353.42
385.36	315.97
385.56	362.78
385.75	313.63
385.95	407.25
386.14	409.59
386.34	437.68
386.53	285.55
386.72	423.64
386.92	411.93
387.11	437.68
387.31	477.47
387.50	433.00
387.70	402.57
387.89	327.68
388.09	435.34
388.28	425.98
388.48	440.02
388.67	503.22
388.86	418.96
389.06	496.19
389.25	498.53
389.45	449.38
389.64	475.13
389.84	531.30
390.03	507.90
390.22	423.64
390.42	458.74
390.61	440.02
390.81	547.69
391.00	477.47
391.19	514.92
391.39	475.13
391.58	491.51
391.78	561.73
391.97	559.39
392.16	599.18
392.36	585.13
392.55	531.30
392.75	554.71
392.94	505.56
393.13	491.51
393.33	505.56
393.52	603.86
393.71	514.92
393.91	575.77
394.10	547.69
394.29	451.72
394.49	559.39
394.68	540.66
394.88	550.03
395.07	599.18
395.26	592.16
395.46	585.13
395.65	568.75
395.84	669.39
396.04	603.86
396.23	592.16
396.42	627.26
396.62	662.37
396.81	622.58
397.00	699.82
397.19	697.48
397.39	655.35
397.58	664.71
397.77	704.50
397.97	617.90
398.16	643.65
398.35	669.39
398.55	690.46
398.74	788.76
398.93	725.57
399.12	690.46
399.32	786.42
399.51	763.01
399.70	720.88
399.90	725.57
400.09	753.65
400.28	676.41
400.47	706.84
400.67	685.78
400.86	709.18
401.05	767.70
401.24	786.42
401.44	730.25
401.63	725.57
401.82	805.14
402.01	828.55
402.21	821.53
402.40	823.87
402.59	858.98
402.78	863.66
402.97	821.53
403.17	847.27
403.36	793.44
403.55	870.68
403.74	847.27
403.93	870.68
404.13	880.04
404.32	919.83
404.51	968.98
404.70	1032.18
404.89	924.51
405.09	891.74
405.28	926.85
405.47	940.90
405.66	992.39
405.85	961.96
406.05	938.55
406.24	912.81
406.43	1013.45
406.62	973.66
406.81	1078.99
407.00	880.04
407.20	966.64
407.39	971.32
407.58	1018.13
407.77	1125.80
407.96	1034.52
408.15	1083.67
408.34	1053.24
408.54	1062.60
408.73	1055.58
408.92	1039.20
409.11	1022.81
409.30	1109.41
409.49	1057.92
409.68	1132.82
409.87	1139.84
410.07	1144.52
410.26	1093.03
410.45	1093.03
410.64	1158.57
410.83	1121.12
411.02	1291.98
411.21	1224.10
411.40	1240.48
411.59	1221.76
411.78	1210.06
411.98	1186.65
412.17	1303.68
412.36	1142.18
412.55	1348.15
412.74	1299.00
412.93	1327.08
413.12	1273.25
413.31	1444.11
413.50	1364.53
413.69	1322.40
413.88	1446.45
414.07	1430.07
414.26	1474.54
414.45	1387.94
414.64	1490.92
414.83	1460.49
415.02	1558.80
415.22	1509.65
415.41	1528.37
415.60	1551.78
415.79	1589.22
415.98	1621.99
416.17	1563.48
416.36	1488.58
416.55	1689.87
416.74	1610.29
416.93	1607.95
417.12	1568.16
417.31	1701.57
417.50	1540.07
417.69	1701.57
417.88	1668.80
418.07	1689.87
418.26	1666.46
418.45	1647.74
418.64	1694.55
418.83	1795.19
419.02	1846.68
419.21	1727.32
419.39	1851.36
419.58	1884.13
419.77	1764.76
419.96	1802.21
420.15	1898.17
420.34	1849.02
420.53	1689.87
420.72	1842.00
420.91	1947.33
421.10	1825.62
421.29	2036.27
421.48	1944.99
421.67	1891.15
421.86	1952.01
422.05	1947.33
422.24	1926.26
422.43	1982.43
422.61	1902.86
422.80	1916.90
422.99	1930.94
423.18	1989.46
423.37	2078.40
423.56	1984.77
423.75	2043.29
423.94	1930.94
424.13	1947.33
424.32	1804.55
424.50	2043.29
424.69	2047.97
424.88	2047.97
425.07	1980.09
425.26	1933.28
425.45	1954.35
425.64	2071.37
425.83	2087.76
426.01	2157.97
426.20	2050.31
426.39	2024.56
426.58	1984.77
426.77	2120.53
426.96	2057.33
427.15	2148.61
427.33	2024.56
427.52	2022.22
427.71	2132.23
427.90	2057.33
428.09	2249.25
428.28	2062.01
428.46	2235.21
428.65	2195.42
428.84	2085.42
429.03	2221.17
429.22	2062.01
429.40	2239.89
429.59	2225.85
429.78	2118.18
429.97	2179.04
430.16	2090.10
430.34	2305.43
430.53	2235.21
430.72	2356.92
430.91	2223.51
431.10	2310.11
431.28	2328.83
431.47	2356.92
431.66	2455.22
431.85	2225.85
432.03	2434.16
432.22	2560.55
432.41	2410.75
432.60	2441.18
432.79	2394.37
432.97	2333.51
433.16	2394.37
433.35	2396.71
433.54	2389.69
433.72	2410.75
433.91	2502.03
434.10	2539.48
434.28	2530.12
434.47	2516.08
434.66	2672.89
434.85	2586.29
435.03	2609.70
435.22	2609.70
435.41	2675.23
435.59	2555.86
435.78	2565.23
435.97	2672.89
436.16	2602.68
436.34	2672.89
436.53	2626.08
436.72	2675.23
436.90	2628.42
437.09	2649.49
437.28	2651.83
437.46	2637.78
437.65	2684.59
437.84	2761.83
438.02	2752.47
438.21	2848.43
438.40	2715.02
438.58	2923.33
438.77	2766.51
438.96	2876.52
439.14	2862.48
439.33	2853.11
439.52	2895.24
439.70	3021.63
439.89	2981.84
440.08	3021.63
440.26	3061.42
440.45	3124.62
440.63	3110.57
440.82	3126.96
441.01	3122.27
441.19	3108.23
441.38	3141.00
441.57	3122.27
441.75	3185.47
441.94	3176.11
442.12	3309.52
442.31	3344.63
442.50	3108.23
442.68	3243.98
442.87	3258.03
443.05	3173.77
443.24	3370.37
443.43	3290.79
443.61	3335.26
443.80	3375.05
443.98	3267.39
444.17	3112.91
444.35	3372.71
444.54	3339.94
444.73	3323.56
444.91	3316.54
445.10	3379.73
445.28	3414.84
445.47	3370.37
445.65	3370.37
445.84	3379.73
446.02	3426.54
446.21	3384.41
446.39	3428.88
446.58	3438.25
446.77	3339.94
446.95	3389.10
447.14	3438.25
447.32	3595.06
447.51	3480.38
447.69	3485.06
447.88	3639.53
448.06	3557.61
448.25	3503.78
448.43	3508.46
448.62	3548.25
448.80	3372.71
448.99	3494.42
449.17	3393.78
449.36	3604.42
449.54	3550.59
449.73	3686.34
449.91	3599.74
450.10	3719.11
450.28	3707.41
450.46	3712.09
450.65	3772.94
450.83	3641.87
451.02	3651.24
451.20	3709.75
451.39	3798.69
451.57	3714.43
451.76	3740.18
451.94	3857.20
452.13	3948.48
452.31	3836.14
452.49	3796.35
452.68	3878.27
452.86	3808.05
453.05	3716.77
453.23	3899.33
453.42	3819.75
453.60	3723.79
453.78	3845.50
453.97	3798.69
454.15	3838.48
454.34	3941.46
454.52	4037.42
454.70	4028.06
454.89	3899.33
455.07	3967.21
455.26	4102.96
455.44	4053.81
455.62	3955.51
455.81	4095.94
455.99	4067.85
456.17	4121.68
456.36	4142.75
456.54	4170.83
456.73	4051.47
456.91	4234.03
457.09	4229.35
457.28	4351.06
457.46	4177.86
457.64	4344.03
457.83	4203.60
458.01	4308.93
458.19	4447.02
458.38	4348.72
458.56	4315.95
458.74	4337.01
458.93	4414.25
459.11	4365.10
459.29	4320.63
459.48	4542.98
459.66	4395.53
459.84	4638.94
460.03	4545.32
460.21	4447.02
460.39	4531.28
460.57	4517.23
460.76	4510.21
460.94	4339.35
461.12	4582.77
461.31	4517.23
461.49	4510.21
461.67	4510.21
461.85	4746.61
462.04	4805.12
462.22	4760.65
462.40	4784.06
462.59	4835.55
462.77	4636.60
462.95	4891.72
463.13	4723.20
463.32	4610.86
463.50	4765.33
463.68	4777.03
463.86	4882.36
464.05	4697.46
464.23	4727.88
464.41	4840.23
464.59	4734.90
464.78	4891.72
464.96	4826.18
465.14	4830.87
465.32	4798.10
465.50	4903.42
465.69	4917.47
465.87	4873.00
466.05	4751.29
466.23	5004.07
466.41	4924.49
466.60	5193.65
466.78	5029.81
466.96	5055.56
467.14	4968.96
467.32	5020.45
467.51	5163.22
467.69	5078.96
467.87	4938.53
468.05	5046.20
468.23	5104.71
468.41	4961.94
468.60	5018.11
468.78	5149.18
468.96	5205.35
469.14	5263.86
469.32	5308.34
469.50	5217.05
469.69	5228.76
469.87	5451.11
470.05	5214.71
470.23	5336.42
470.41	5144.50
470.59	5441.75
470.77	5296.63
470.95	5460.47
471.14	5565.79
471.32	5331.74
471.50	5624.31
471.68	5476.85
471.86	5476.85
472.04	5554.09
472.22	5696.86
472.40	5610.26
472.58	5624.31
472.77	5762.40
472.95	5816.23
473.13	5905.17
473.31	5617.29
473.49	5839.64
473.67	5907.51
473.85	5806.87
474.03	6024.54
474.21	5771.76
474.39	6045.60
474.57	6029.22
474.75	5968.37
474.93	6001.13
475.12	6047.94
475.30	6162.63
475.48	6024.54
475.66	6043.26
475.84	6129.86
476.02	6293.70
476.20	6345.19
476.38	6221.14
476.56	6530.09
476.74	6511.37
476.92	6410.73
477.10	6492.65
477.28	6558.18
477.46	6637.76
477.64	6747.76
477.82	6546.48
478.00	6911.60
478.18	6932.67
478.36	6974.80
478.54	7030.97
478.72	6911.60
478.90	7108.21
479.08	7005.22
479.26	7183.10
479.44	7265.02
479.62	7180.76
479.80	7344.60
479.98	7330.56
480.16	7375.03
480.34	7375.03
480.52	7683.98
480.70	7595.04
480.88	7517.80
481.06	7742.49
481.24	7503.76
481.41	7737.81
481.59	7803.35
481.77	7847.82
481.95	7873.56
482.13	7829.09
482.31	7833.77
482.49	8065.49
482.67	8400.18
482.85	8100.59
483.03	8369.76
483.21	8369.76
483.39	8475.08
483.57	8493.80
483.74	8571.04
483.92	8549.98
484.10	8559.34
484.28	8917.44
484.46	8929.14
484.64	8959.57
484.82	8966.59
485.00	9130.43
485.18	9015.74
485.35	9144.47
485.53	9275.54
485.71	9446.40
485.89	9600.88
486.07	9317.67
486.25	9380.87
486.43	9467.47
486.61	9652.37
486.78	9797.48
486.96	9743.65
487.14	9893.44
487.32	9895.78
487.50	9921.53
487.68	10136.86
487.85	10303.04
488.03	10427.09
488.21	10614.33
488.39	10389.64
488.57	10434.11
488.75	10471.56
488.92	10724.33
489.10	10768.80
489.28	10810.93
489.46	10913.92
489.64	11173.72
489.81	11140.95
489.99	11232.23
490.17	11129.25
490.35	11117.54
490.53	11314.15
490.70	11403.09
490.88	11494.37
491.06	11700.34
491.24	11550.54
491.41	11618.42
491.59	11676.93
491.77	11925.03
491.95	12046.74
492.13	12028.01
492.30	12241.00
492.48	12152.06
492.66	12196.53
492.84	12273.77
493.01	12587.40
493.19	12559.31
493.37	12678.68
493.54	12781.67
493.72	12524.21
493.90	12545.27
494.08	13015.72
494.25	13156.15
494.43	13102.32
494.61	13027.42
494.79	12879.97
494.96	13160.83
495.14	13160.83
495.32	13518.93
495.49	13217.01
495.67	13556.38
495.85	13516.59
496.02	13965.98
496.20	13806.82
496.38	13706.18
496.55	14010.45
496.73	14012.79
496.91	14083.00
497.09	14335.78
497.26	14075.98
497.44	14085.34
497.62	14003.43
497.79	14232.80
497.97	14380.25
498.14	14300.67
498.32	14881.13
498.50	14621.33
498.67	15075.39
498.85	14839.00
499.03	14803.89
499.20	14618.99
499.38	15012.20
499.56	14876.44
499.73	15035.60
499.91	15377.32
500.08	15449.88
500.26	15035.60
500.44	15183.06
500.61	15021.56
500.79	15499.03
500.97	15419.45
501.14	15606.69
501.32	15749.46
501.49	15480.30
501.67	15477.96
501.84	15733.08
502.02	15580.95
502.20	15716.70
502.37	15953.09
502.55	15920.32
502.72	15875.85
502.90	16006.92
503.07	16208.21
503.25	16142.67
503.43	16084.16
503.60	16276.09
503.78	16486.73
503.95	16332.26
504.13	16383.75
504.30	16456.31
504.48	16334.60
504.65	16409.50
504.83	16629.51
505.01	16762.92
505.18	16776.96
505.36	16961.86
505.53	16893.99
505.71	16968.88
505.88	16959.52
506.06	16826.11
506.23	17153.79
506.41	17020.38
506.58	17432.31
506.76	17319.96
506.93	17139.74
507.11	17170.17
507.28	17083.57
507.46	17444.01
507.63	17413.59
507.81	17685.09
507.98	17364.43
508.16	17493.16
508.33	17816.16
508.50	17727.22
508.68	17858.29
508.85	18108.72
509.03	17865.31
509.20	17797.43
509.38	18338.10
509.55	18150.85
509.73	18183.62
509.90	17926.16
510.08	18054.89
510.25	18181.28
510.42	18396.61
510.60	18347.46
510.77	18403.63
510.95	18609.60
511.12	18136.81
511.30	18558.11
511.47	18436.40
511.64	18780.46
511.82	18614.28
511.99	18450.44
512.17	18937.27
512.34	18838.97
512.51	18965.36
512.69	18967.70
512.86	18948.98
513.04	18998.13
513.21	18869.40
513.38	18946.64
513.56	19552.84
513.73	19496.66
513.90	19339.85
514.08	19283.67
514.25	19339.85
514.43	19625.39
514.60	19632.41
514.77	19728.38
514.95	19903.92
515.12	19789.23
515.29	19604.33
515.47	20100.52
515.64	19791.57
515.81	19440.49
515.99	20212.87
516.16	20243.29
516.33	19962.43
516.51	20163.72
516.68	20168.40
516.85	19992.86
517.03	20109.88
517.20	20304.15
517.37	20189.46
517.54	20388.41
517.72	20313.51
517.89	20100.52
518.06	20355.64
518.24	20592.03
518.41	20280.74
518.58	20648.21
518.75	20577.99
518.93	20545.22
519.10	20926.73
519.27	20685.65
519.45	20758.21
519.62	21076.52
519.79	20718.42
519.96	20910.35
520.14	20868.22
520.31	21125.68
520.48	21020.35
520.65	21083.55
520.83	21170.15
521.00	21032.05
521.17	21123.33
521.34	21200.57
521.52	21425.26
521.69	21556.33
521.86	21453.35
522.03	21394.84
522.20	21474.42
522.38	21488.46
522.55	21626.55
522.72	21357.39
522.89	21439.31
523.07	21905.07
523.24	21682.72
523.41	21895.71
523.58	21591.44
523.75	21710.81
523.92	21757.62
524.10	21692.08
524.27	22122.74
524.44	22148.49
524.61	22347.44
524.78	22225.73
524.96	22078.27
525.13	22431.69
525.30	21923.80
525.47	22218.71
525.64	22375.52
525.81	22452.76
525.98	22759.37
526.16	22501.91
526.33	22422.33
526.50	22384.88
526.67	22501.91
526.84	22700.86
527.01	22530.00
527.18	22909.16
527.36	22843.63
527.53	22874.06
527.70	23082.36
527.87	22939.59
528.04	22649.36
528.21	23054.28
528.38	22923.21
528.55	22845.97
528.72	22794.48
528.89	23070.66
529.07	23037.89
529.24	23171.30
529.41	23075.34
529.58	22857.67
529.75	23267.27
529.92	23197.05
530.09	23246.20
530.26	23552.81
530.43	23248.54
530.60	23199.39
530.77	23199.39
530.94	23491.96
531.11	23887.51
531.28	23599.62
531.46	23403.02
531.63	23660.48
531.80	23714.31
531.97	24027.94
532.14	24067.73
532.31	23658.14
532.48	24056.03
532.65	23955.38
532.82	23807.93
532.99	23786.86
533.16	23625.37
533.33	24217.52
533.50	24439.87
533.67	24058.37
533.84	24184.76
534.01	23854.74
534.18	23508.34
534.35	24166.03
534.52	24189.44
534.69	24166.03
534.86	24229.23
535.03	24386.04
535.20	24561.58
535.37	24437.53
535.54	24528.81
535.71	24381.36
535.88	24271.36
536.05	24535.84
536.22	24467.96
536.38	24690.31
536.55	25181.82
536.72	24797.98
536.89	24322.85
537.06	24732.44
537.23	24510.09
537.40	24573.28
537.57	24678.61
537.74	24769.89
537.91	24922.02
538.08	24755.85
538.25	24903.30
538.42	25097.56
538.59	24982.88
538.75	24704.35
538.92	24950.11
539.09	25081.18
539.26	25135.01
539.43	25209.91
539.60	25383.11
539.77	24861.17
539.94	25369.07
540.11	25160.76
540.28	24966.49
540.44	25120.97
540.61	25263.74
540.78	24980.54
540.95	25544.61
541.12	25420.56
541.29	25434.60
541.46	25291.83
541.62	25296.51
541.79	25591.42
541.96	25130.33
542.13	25179.48
542.30	25144.38
542.47	26111.02
542.63	25963.56
542.80	25656.95
542.97	25752.91
543.14	25972.92
543.31	25537.59
543.48	25628.87
543.64	26085.27
543.81	26272.51
543.98	26085.27
544.15	25727.17
544.32	25937.82
544.48	26719.56
544.65	26071.23
544.82	26169.53
544.99	26024.42
545.16	25986.97
545.32	26024.42
545.49	26499.55
545.66	26319.32
545.83	26511.25
546.00	26265.49
546.16	26501.89
546.33	26513.59
546.50	26096.97
546.67	26405.92
546.83	26328.69
547.00	26785.09
547.17	26792.11
547.34	26424.65
547.50	26656.36
547.67	26831.90
547.84	26806.16
548.00	26878.71
548.17	27056.59
548.34	26705.51
548.51	27285.97
548.67	27040.21
548.84	26895.10
549.01	27009.78
549.18	26838.92
549.34	27056.59
549.51	26473.80
549.68	26962.97
549.84	26925.52
550.01	26822.54
550.18	27033.19
550.34	27103.40
550.51	26916.16
550.68	27431.08
550.84	27129.15
551.01	26857.65
551.18	26874.03
551.34	26972.33
551.51	27180.64
551.68	27164.26
551.84	27548.11
552.01	27440.44
552.18	27115.11
552.34	27339.80
552.51	27693.22
552.68	27042.55
552.84	27367.88
553.01	27323.41
553.18	27421.72
553.34	27793.86
553.51	27391.29
553.67	27779.82
553.84	27468.53
554.01	27828.97
554.17	27704.92
554.34	28081.75
554.51	27552.79
554.67	27421.72
554.84	27754.07
555.00	27873.44
555.17	27828.97
555.33	27812.59
555.50	27601.94
555.67	27971.74
555.83	27693.22
556.00	28130.90
556.16	27894.50
556.33	27599.60
556.50	27737.69
556.66	28187.07
556.83	27548.11
556.99	28402.40
557.16	28140.26
557.32	28599.01
557.49	28018.55
557.65	28027.92
557.82	28053.66
557.98	28013.87
558.15	28390.70
558.32	28198.77
558.48	28158.99
558.65	28545.17
558.81	27887.48
558.98	28180.05
559.14	28601.35
559.31	28266.65
559.47	28325.16
559.64	28290.06
559.80	28306.44
559.97	28224.52
560.13	28371.97
560.30	28432.83
560.46	28587.30
560.63	28243.24
560.79	28259.63
560.96	28498.36
561.12	28648.16
561.29	28210.48
561.45	28219.84
561.61	28531.13
561.78	28730.08
561.94	28648.16
562.11	28538.15
562.27	28727.74
562.44	28655.18
562.60	28446.87
562.77	28437.51
562.93	28645.82
563.10	29006.26
563.26	28353.25
563.42	28980.51
563.59	28657.52
563.75	28718.37
563.92	28774.55
564.08	28308.78
564.24	28582.62
564.41	28563.90
564.57	28379.00
564.74	28636.45
564.90	28634.11
565.07	28793.27
565.23	28802.63
565.39	28652.84
565.56	28587.30
565.72	28573.26
565.88	28664.54
566.05	28711.35
566.21	28629.43
566.38	28989.88
566.54	28954.77
566.70	29280.10
566.87	28676.24
567.03	29118.60
567.19	28945.41
567.36	28971.15
567.52	28575.60
567.68	28758.16
567.85	28830.72
568.01	29078.82
568.17	28931.36
568.34	28748.80
568.50	29060.09
568.66	29104.56
568.83	29174.78
568.99	29064.77
569.15	28854.12
569.32	28851.78
569.48	28723.05
569.64	28931.36
569.81	28978.17
569.97	29212.23
570.13	29347.98
570.30	28907.96
570.46	28973.49
570.62	29067.11
570.78	28879.87
570.95	29039.03
571.11	29191.16
571.27	28657.52
571.43	28725.39
571.60	29397.13
571.76	29275.42
571.92	28952.43
572.09	29163.08
572.25	29385.43
572.41	29401.81
572.57	29074.13
572.74	29376.06
572.90	28830.72
573.06	28914.98
573.22	29518.84
573.38	29399.47
573.55	29500.11
573.71	29228.61
573.87	29134.99
574.03	29357.34
574.20	28615.39
574.36	29113.92
574.52	28819.02
574.68	29060.09
574.84	29134.99
575.01	29357.34
575.17	29085.84
575.33	29261.38
575.49	29170.10
575.65	29296.49
575.82	29284.78
575.98	29177.12
576.14	29593.73
576.30	29284.78
576.46	29048.39
576.62	29053.07
576.79	29518.84
576.95	29553.94
577.11	29256.70
577.27	29816.08
577.43	29450.96
577.59	29390.11
577.75	29350.32
577.92	29244.99
578.08	29219.25
578.24	29528.20
578.40	29474.37
578.56	29656.93
578.72	29668.63
578.88	29694.38
579.04	29851.19
579.21	29298.83
579.37	29397.13
579.53	29685.01
579.69	29001.58
579.85	29134.99
580.01	29029.66
580.17	29352.66
580.33	29193.50
580.49	29631.18
580.65	29518.84
580.82	29788.00
580.98	29539.90
581.14	29425.22
581.30	29708.42
581.46	29450.96
581.62	29163.08
581.78	29434.58
581.94	29415.85
582.10	29137.33
582.26	29661.61
582.42	29626.50
582.58	29591.39
582.74	29809.06
582.90	29448.62
583.06	29340.96
583.22	29926.09
583.38	29563.31
583.54	29619.48
583.70	29469.69
583.86	29567.99
584.02	29352.66
584.18	29481.39
584.34	30118.01
584.50	30000.99
584.66	29537.56
584.82	29582.03
584.98	29488.41
585.14	29514.16
585.30	29060.09
585.46	29235.63
585.62	29488.41
585.78	29612.46
585.94	29254.36
586.10	29570.33
586.26	29572.67
586.42	29535.22
586.58	29839.49
586.74	29406.49
586.90	29338.62
587.06	29266.06
587.22	29280.10
587.38	29696.72
587.54	29928.43
587.70	30164.82
587.86	29731.83
588.02	29986.94
588.18	29731.83
588.34	29649.91
588.49	30029.07
588.65	29268.40
588.81	29642.88
588.97	29656.93
589.13	29614.80
589.29	29785.66
589.45	29734.17
589.61	29919.07
589.77	30167.16
589.93	29750.55
590.08	30190.57
590.24	29811.40
590.40	30059.50
590.56	29883.96
590.72	29493.09
590.88	29495.43
591.04	29998.65
591.20	30178.87
591.35	29972.90
591.51	30221.00
591.67	29928.43
591.83	30347.39
591.99	30115.67
