SpectraSuite Data File
++++++++++++++++++++++++++++++++++++
Date: Fri Oct 18 13:58:05 GMT-05:00 2013
User: bianchi
Dark Spectrum Present: No
Reference Spectrum Present: No
Number of Sampled Component Spectra: 1
Spectrometers: USB2+H05261
Integration Time (usec): 50000 (USB2+H05261)
Spectra Averaged: 1 (USB2+H05261)
Boxcar Smoothing: 0 (USB2+H05261)
Correct for Electrical Dark: No (USB2+H05261)
Strobe/Lamp Enabled: No (USB2+H05261)
Correct for Detector Non-linearity: No (USB2+H05261)
Correct for Stray Light: No (USB2+H05261)
Number of Pixels in Processed Spectrum: 2048
>>>>>Begin Processed Spectral Data<<<<<
365.73	0.00
365.92	0.00
366.12	0.00
366.32	0.00
366.52	0.00
366.72	0.00
366.91	0.00
367.11	0.00
367.31	0.00
367.51	0.00
367.70	0.00
367.90	0.00
368.10	0.00
368.30	0.00
368.49	0.00
368.69	0.00
368.89	0.00
369.09	0.00
369.28	0.00
369.48	0.00
369.68	0.00
369.87	0.00
370.07	0.00
370.27	0.00
370.47	0.00
370.66	102.98
370.86	39.79
371.06	105.32
371.25	149.79
371.45	154.48
371.65	163.84
371.84	112.35
372.04	72.56
372.24	128.73
372.44	194.26
372.63	212.99
372.83	152.13
373.03	142.77
373.22	229.37
373.42	227.03
373.62	180.22
373.81	189.58
374.01	294.91
374.21	325.33
374.40	264.48
374.60	276.18
374.79	203.63
374.99	245.76
375.19	198.95
375.38	271.50
375.58	257.46
375.78	205.97
375.97	248.10
376.17	320.65
376.37	325.33
376.56	257.46
376.76	304.27
376.95	320.65
377.15	201.29
377.35	273.84
377.54	252.78
377.74	318.31
377.93	266.82
378.13	236.39
378.33	320.65
378.52	229.37
378.72	344.06
378.91	351.08
379.11	290.23
379.31	180.22
379.50	280.86
379.70	372.15
379.89	360.44
380.09	301.93
380.28	334.70
380.48	365.12
380.68	243.42
380.87	346.40
381.07	397.89
381.26	362.78
381.46	311.29
381.65	327.68
381.85	337.04
382.04	374.49
382.24	386.19
382.43	276.18
382.63	358.10
382.83	346.40
383.02	404.91
383.22	365.12
383.41	341.72
383.61	395.55
383.80	428.32
384.00	379.17
384.19	330.02
384.39	367.46
384.58	374.49
384.78	416.62
384.97	341.72
385.17	395.55
385.36	388.53
385.56	386.19
385.75	454.06
385.95	388.53
386.14	400.23
386.34	332.36
386.53	437.68
386.72	468.11
386.92	458.74
387.11	545.34
387.31	482.15
387.50	456.40
387.70	404.91
387.89	449.38
388.09	365.12
388.28	454.06
388.48	386.19
388.67	479.81
388.86	433.00
389.06	395.55
389.25	458.74
389.45	416.62
389.64	491.51
389.84	507.90
390.03	475.13
390.22	507.90
390.42	528.96
390.61	547.69
390.81	463.43
391.00	493.85
391.19	428.32
391.39	538.32
391.58	491.51
391.78	571.09
391.97	594.50
392.16	571.09
392.36	559.39
392.55	596.84
392.75	603.86
392.94	557.05
393.13	550.03
393.33	620.24
393.52	554.71
393.71	566.41
393.91	653.01
394.10	596.84
394.29	636.63
394.49	596.84
394.68	636.63
394.88	674.07
395.07	638.97
395.26	645.99
395.46	615.56
395.65	645.99
395.84	709.18
396.04	674.07
396.23	631.94
396.42	575.77
396.62	662.37
396.81	727.91
397.00	638.97
397.19	622.58
397.39	664.71
397.58	667.05
397.77	713.86
397.97	765.36
398.16	720.88
398.35	765.36
398.55	718.54
398.74	713.86
398.93	763.01
399.12	723.23
399.32	809.83
399.51	765.36
399.70	702.16
399.90	763.01
400.09	786.42
400.28	826.21
400.47	779.40
400.67	770.04
400.86	814.51
401.05	821.53
401.24	896.43
401.44	835.57
401.63	821.53
401.82	868.34
402.01	828.55
402.21	858.98
402.40	880.04
402.59	805.14
402.78	926.85
402.97	1013.45
403.17	903.45
403.36	901.11
403.55	924.51
403.74	856.64
403.93	894.08
404.13	1027.50
404.32	929.19
404.51	896.43
404.70	922.17
404.89	961.96
405.09	938.55
405.28	947.92
405.47	954.94
405.66	1013.45
405.85	936.21
406.05	915.15
406.24	978.34
406.43	1001.75
406.62	1039.20
406.81	1036.86
407.00	1050.90
407.20	1022.81
407.39	1102.39
407.58	1130.48
407.77	1062.60
407.96	1034.52
408.15	1064.94
408.34	1240.48
408.54	1071.97
408.73	1118.78
408.92	1200.69
409.11	1097.71
409.30	1203.04
409.49	1153.88
409.68	1238.14
409.87	1275.59
410.07	1261.55
410.26	1231.12
410.45	1214.74
410.64	1167.93
410.83	1238.14
411.02	1121.12
411.21	1245.16
411.40	1284.95
411.59	1224.10
411.78	1338.79
411.98	1336.45
412.17	1350.49
412.36	1348.15
412.55	1409.00
412.74	1458.15
412.93	1411.34
413.12	1397.30
413.31	1409.00
413.50	1364.53
413.69	1320.06
413.88	1453.47
414.07	1465.18
414.26	1434.75
414.45	1453.47
414.64	1504.96
414.83	1526.03
415.02	1533.05
415.22	1521.35
415.41	1713.27
415.60	1589.22
415.79	1568.16
415.98	1495.60
416.17	1579.86
416.36	1736.68
416.55	1685.19
416.74	1666.46
416.93	1661.78
417.12	1671.14
417.31	1748.38
417.50	1739.02
417.69	1818.60
417.88	1830.30
418.07	1816.26
418.26	1661.78
418.45	1753.06
418.64	1837.32
418.83	1856.04
419.02	1778.81
419.21	1888.81
419.39	1930.94
419.58	1781.15
419.77	1830.30
419.96	1860.73
420.15	1916.90
420.34	1994.14
420.53	1893.49
420.72	1966.05
420.91	1900.52
421.10	1982.43
421.29	2045.63
421.48	1921.58
421.67	2069.03
421.86	1926.26
422.05	2090.10
422.24	1949.67
422.43	2080.74
422.61	2064.35
422.80	2045.63
422.99	1977.75
423.18	2113.50
423.37	2022.22
423.56	2115.84
423.75	1998.82
423.94	2012.86
424.13	1961.37
424.32	1928.60
424.50	2090.10
424.69	2083.08
424.88	2136.91
425.07	2092.44
425.26	2001.16
425.45	2047.97
425.64	2069.03
425.83	2087.76
426.01	2085.42
426.20	2036.27
426.39	2040.95
426.58	2059.67
426.77	2129.89
426.96	2078.40
427.15	2179.04
427.33	2193.08
427.52	2209.47
427.71	2232.87
427.90	2298.41
428.09	2298.41
428.28	2174.36
428.46	2169.68
428.65	2179.04
428.84	2272.66
429.03	2326.49
429.22	2146.27
429.40	2303.09
429.59	2326.49
429.78	2218.83
429.97	2172.02
430.16	2139.25
430.34	2300.75
430.53	2436.50
430.72	2424.80
430.91	2221.17
431.10	2207.13
431.28	2417.77
431.47	2380.32
431.66	2520.76
431.85	2415.43
432.03	2511.39
432.22	2459.90
432.41	2469.27
432.60	2466.92
432.79	2473.95
432.97	2450.54
433.16	2441.18
433.35	2579.27
433.54	2560.55
433.72	2651.83
433.91	2565.23
434.10	2640.12
434.28	2551.18
434.47	2583.95
434.66	2698.64
434.85	2752.47
435.03	2684.59
435.22	2700.98
435.41	2710.34
435.59	2654.17
435.78	2607.36
435.97	2682.25
436.16	2759.49
436.34	2820.35
436.53	2792.26
436.72	2813.32
436.90	2836.73
437.09	2813.32
437.28	2810.98
437.46	2897.58
437.65	2773.53
437.84	2829.71
438.02	2768.85
438.21	2782.90
438.40	2806.30
438.58	2883.54
438.77	2928.01
438.96	3033.33
439.14	2991.20
439.33	2981.84
439.52	3068.44
439.70	3108.23
439.89	3066.10
440.08	2984.18
440.26	3155.04
440.45	3143.34
440.63	3131.64
440.82	3169.09
441.01	3173.77
441.19	3183.13
441.38	3307.18
441.57	3286.11
441.75	3283.77
441.94	3316.54
442.12	3407.82
442.31	3393.78
442.50	3344.63
442.68	3361.01
442.87	3405.48
443.05	3414.84
443.24	3447.61
443.43	3396.12
443.61	3389.10
443.80	3522.51
443.98	3431.23
444.17	3290.79
444.35	3583.36
444.54	3571.66
444.73	3410.16
444.91	3487.40
445.10	3468.67
445.28	3435.91
445.47	3538.89
445.65	3557.61
445.84	3602.08
446.02	3541.23
446.21	3541.23
446.39	3414.84
446.58	3655.92
446.77	3655.92
446.95	3520.17
447.14	3538.89
447.32	3529.53
447.51	3569.32
447.69	3606.77
447.88	3571.66
448.06	3655.92
448.25	3712.09
448.43	3770.60
448.62	3618.47
448.80	3712.09
448.99	3705.07
449.17	3531.87
449.36	3616.13
449.54	3740.18
449.73	3826.78
449.91	3826.78
450.10	3672.30
450.28	3796.35
450.46	3852.52
450.65	3866.56
450.83	3723.79
451.02	3882.95
451.20	3885.29
451.39	3889.97
451.57	3882.95
451.76	3838.48
451.94	3812.73
452.13	3957.85
452.31	4028.06
452.49	3791.67
452.68	4004.66
452.86	3911.04
453.05	4039.76
453.23	3934.44
453.42	4030.40
453.60	3922.74
453.78	3950.82
453.97	3997.64
454.15	3971.89
454.34	4007.00
454.52	4210.62
454.70	4016.36
454.89	4262.12
455.07	4086.58
455.26	4168.49
455.44	4203.60
455.62	4222.33
455.81	4081.89
455.99	4215.30
456.17	4173.18
456.36	4475.10
456.54	4411.91
456.73	4236.37
456.91	4320.63
457.09	4388.50
457.28	4440.00
457.46	4421.27
457.64	4451.70
457.83	4397.87
458.01	4397.87
458.19	4484.47
458.38	4353.40
458.56	4521.92
458.74	4510.21
458.93	4346.37
459.11	4564.04
459.29	4606.17
459.48	4664.69
459.66	4681.07
459.84	4622.56
460.03	4582.77
460.21	4608.51
460.39	4622.56
460.57	4711.50
460.76	4695.11
460.94	4699.80
461.12	4784.06
461.31	4674.05
461.49	4645.96
461.67	4734.90
461.85	4805.12
462.04	4786.40
462.22	5107.05
462.40	4933.85
462.59	4851.93
462.77	4809.80
462.95	4992.36
463.13	4926.83
463.32	5083.64
463.50	4947.89
463.68	5069.60
463.86	4997.04
464.05	4901.08
464.23	5022.79
464.41	5027.47
464.59	4802.78
464.78	5130.45
464.96	5041.51
465.14	4980.66
465.32	5163.22
465.50	5181.95
465.69	5242.80
465.87	5001.72
466.05	5245.14
466.23	5067.26
466.41	5289.61
466.60	5345.78
466.78	5184.29
466.96	5071.94
467.14	5242.80
467.32	5294.29
467.51	5217.05
467.69	5329.40
467.87	5341.10
468.05	5235.78
468.23	5462.81
468.41	5144.50
468.60	5425.36
468.78	5305.99
468.96	5289.61
469.14	5446.43
469.32	5369.19
469.50	5315.36
469.69	5516.64
469.87	5605.58
470.05	5584.52
470.23	5526.00
470.41	5640.69
470.59	5570.48
470.77	5565.79
470.95	5582.18
471.14	5783.46
471.32	5540.05
471.50	5692.18
471.68	5750.70
471.86	5682.82
472.04	5849.00
472.22	5884.11
472.40	5729.63
472.58	5888.79
472.77	5949.64
472.95	6045.60
473.13	6282.00
473.31	5977.73
473.49	5820.91
473.67	6059.65
473.85	6097.10
474.03	6246.89
474.21	6162.63
474.39	6260.93
474.57	6279.66
474.75	6384.98
474.93	6408.39
475.12	6171.99
475.30	6438.81
475.48	6375.62
475.66	6492.65
475.84	6476.26
476.02	6595.63
476.20	6700.95
476.38	6530.09
476.56	6801.60
476.74	6970.12
476.92	6782.87
477.10	6799.26
477.28	6675.21
477.46	7070.76
477.64	6881.18
477.82	6993.52
478.00	7138.63
478.18	7255.66
478.36	7227.57
478.54	7393.75
478.72	7157.36
478.90	7342.26
479.08	7227.57
479.26	7569.29
479.44	7473.33
479.62	7335.24
479.80	7625.47
479.98	7723.77
480.16	7728.45
480.34	7805.69
480.52	7744.83
480.70	8100.59
480.88	7817.39
481.06	7967.18
481.24	8138.04
481.41	8002.29
481.59	8138.04
481.77	8255.07
481.95	8339.33
482.13	8336.99
482.31	8329.97
482.49	8346.35
482.67	8578.06
482.85	8683.39
483.03	8758.28
483.21	8870.63
483.39	8772.33
483.57	8692.75
483.74	9013.40
483.92	8966.59
484.10	8961.91
484.28	9207.67
484.46	9451.08
484.64	9170.22
484.82	9355.12
485.00	9266.18
485.18	9488.53
485.35	9661.73
485.53	9682.80
485.71	9832.59
485.89	9804.50
486.07	9867.70
486.25	9764.72
486.43	9846.63
486.61	10068.98
486.78	10162.61
486.96	10244.52
487.14	10431.77
487.32	10237.50
487.50	10492.62
487.68	10494.96
487.85	10609.65
488.03	10714.97
488.21	10824.98
488.39	10731.36
488.57	11012.22
488.75	11087.12
488.92	11201.80
489.10	11091.80
489.28	11232.23
489.46	11550.54
489.64	11375.00
489.81	11541.18
489.99	11585.65
490.17	11768.21
490.35	11922.69
490.53	12154.40
490.70	11791.62
490.88	11812.68
491.06	12210.57
491.24	12028.01
491.41	12430.59
491.59	12121.63
491.77	12376.75
491.95	12425.90
492.13	12578.04
492.30	12786.35
492.48	12725.49
492.66	12793.37
492.84	12924.44
493.01	13095.30
493.19	12947.84
493.37	13116.36
493.54	12964.23
493.72	13160.83
493.90	13146.79
494.08	13387.86
494.25	13289.56
494.43	13511.91
494.61	13521.27
494.79	13851.29
494.96	13642.98
495.14	13724.90
495.32	13891.08
495.49	14010.45
495.67	14258.54
495.85	14443.45
496.02	14005.77
496.20	14333.44
496.38	14410.68
496.55	14450.47
496.73	14677.50
496.91	14523.02
497.09	14436.42
497.26	14993.47
497.44	14775.80
497.62	15082.41
497.79	14925.60
497.97	15005.17
498.14	15204.12
498.32	15400.72
498.50	15426.47
498.67	15311.78
498.85	15286.04
499.03	15587.97
499.20	15470.94
499.38	15653.50
499.56	15431.15
499.73	15648.82
499.91	15882.88
500.08	15950.75
500.26	15641.80
500.44	15665.21
500.61	16245.66
500.79	16112.25
500.97	16332.26
501.14	16198.85
501.32	16374.39
501.49	16365.03
501.67	16374.39
501.84	16128.63
502.02	16451.63
502.20	16725.47
502.37	16706.74
502.55	16732.49
502.72	16835.47
502.90	16655.25
503.07	16793.34
503.25	16833.13
503.43	16699.72
503.60	16943.14
503.78	16847.18
503.95	17013.35
504.13	16959.52
504.30	17167.83
504.48	17160.81
504.65	17425.29
504.83	17610.19
505.01	17544.66
505.18	17326.99
505.36	17949.57
505.53	17383.16
505.71	17600.83
505.88	17738.92
506.06	17701.47
506.23	18024.47
506.41	17933.18
506.58	18235.11
506.76	18335.76
506.93	17905.10
507.11	17998.72
507.28	17919.14
507.46	18118.09
507.63	18572.15
507.81	18506.62
507.98	18230.43
508.16	18548.75
508.33	18434.06
508.50	18621.30
508.68	18558.11
508.85	18831.95
509.03	18675.13
509.20	18642.37
509.38	19007.49
509.55	18988.77
509.73	18768.76
509.90	18878.76
510.08	19204.10
510.25	19176.01
510.42	19103.45
510.60	19190.05
510.77	19253.25
510.95	19192.39
511.12	19234.52
511.30	19398.36
511.47	19232.18
511.64	19403.04
511.82	19611.35
511.99	19337.51
512.17	19985.83
512.34	19967.11
512.51	19548.15
512.69	19749.44
512.86	19770.51
513.04	20053.71
513.21	20173.08
513.38	20198.82
513.56	20346.28
513.73	19910.94
513.90	19985.83
514.08	20034.99
514.25	20547.56
514.43	20650.55
514.60	20432.88
514.77	20360.32
514.95	20734.81
515.12	20484.37
515.29	20196.48
515.47	20727.78
515.64	20521.82
515.81	20587.35
515.99	20870.56
516.16	20732.47
516.33	20741.83
516.51	21221.64
516.68	20875.24
516.85	20816.72
517.03	21095.25
517.20	20966.52
517.37	21170.15
517.54	21432.29
517.72	21397.18
517.89	21097.59
518.06	21228.66
518.24	21263.77
518.41	21443.99
518.58	21542.29
518.75	21289.51
518.93	21577.40
519.10	21628.89
519.27	21799.75
519.45	21867.63
519.62	21432.29
519.79	21621.87
519.96	21420.58
520.14	22024.44
520.31	22001.04
520.48	21989.33
520.65	22089.98
520.83	22202.32
521.00	22478.50
521.17	21982.31
521.34	22092.32
521.52	22223.39
521.69	22415.31
521.86	22604.89
522.03	22494.89
522.20	22284.24
522.38	22485.53
522.55	22597.87
522.72	22759.37
522.89	22677.45
523.07	22801.50
523.24	23033.21
523.41	23026.19
523.58	22703.20
523.75	22677.45
523.92	22452.76
524.10	22874.06
524.27	22780.43
524.44	23300.03
524.61	22883.42
524.78	23379.61
524.96	23278.97
525.13	23257.90
525.30	23438.12
525.47	23356.21
525.64	23332.80
525.81	23606.64
525.98	23807.93
526.16	23772.82
526.33	23669.84
526.50	24065.39
526.67	23396.00
526.84	23845.38
527.01	23552.81
527.18	23807.93
527.36	24053.69
527.53	23861.76
527.70	24287.74
527.87	23992.83
528.04	23903.89
528.21	24030.28
528.38	23899.21
528.55	24332.21
528.72	23943.68
528.89	24222.20
529.07	24231.57
529.24	24137.94
529.41	24332.21
529.58	24393.06
529.75	24119.22
529.92	24051.34
530.09	24299.44
530.26	24435.19
530.43	24592.01
530.60	24079.43
530.77	24350.93
530.94	24814.36
531.11	24322.85
531.28	24570.94
531.46	24739.46
531.63	25010.96
531.80	24819.04
531.97	24940.75
532.14	25048.41
532.31	24968.84
532.48	24617.75
532.65	24898.62
532.82	24561.58
532.99	25001.60
533.16	25333.96
533.33	25191.19
533.50	25179.48
533.67	25406.52
533.84	25064.80
534.01	25088.20
534.18	25003.94
534.35	25235.66
534.52	25446.30
534.69	25310.55
534.86	25537.59
535.03	25343.32
535.20	25738.87
535.37	25696.74
535.54	25535.24
535.71	25713.13
535.88	25546.95
536.05	25481.41
536.22	25909.73
536.38	25792.70
536.55	25839.51
536.72	25956.54
536.89	25720.15
537.06	26010.37
537.23	26202.30
537.40	26216.34
537.57	26085.27
537.74	25872.28
537.91	26108.68
538.08	26015.05
538.25	26059.52
538.42	26405.92
538.59	26340.39
538.75	25986.97
538.92	26366.13
539.09	26237.41
539.26	26321.66
539.43	26457.42
539.60	26267.83
539.77	26576.78
539.94	26478.48
540.11	26565.08
540.28	26663.38
540.44	26434.01
540.61	26417.63
540.78	26356.77
540.95	26333.37
541.12	26967.65
541.29	26677.43
541.46	26974.67
541.62	26705.51
541.79	26845.94
541.96	26618.91
542.13	26623.59
542.30	26988.72
542.47	27047.23
542.63	26822.54
542.80	27449.80
542.97	27005.10
543.14	27147.87
543.31	27332.78
543.48	27178.30
543.64	27503.64
543.81	27438.10
543.98	27529.38
544.15	27431.08
544.32	27618.32
544.48	27491.93
544.65	27300.01
544.82	27679.18
544.99	27019.14
545.16	27370.22
545.32	27384.27
545.49	27763.43
545.66	27960.04
545.83	28004.51
546.00	27814.93
546.16	27798.54
546.33	27566.83
546.50	27597.26
546.67	27447.46
546.83	27269.58
547.00	27831.31
547.17	27784.50
547.34	27835.99
547.50	28226.86
547.67	28196.43
547.84	27999.83
548.00	28245.58
548.17	28257.29
548.34	28056.00
548.51	28411.76
548.67	28341.55
548.84	28423.47
549.01	28327.50
549.18	28219.84
549.34	28477.30
549.51	28432.83
549.68	28327.50
549.84	28552.20
550.01	27812.59
550.18	28018.55
550.34	28517.09
550.51	28437.51
550.68	28704.33
550.84	28400.06
551.01	28591.98
551.18	28570.92
551.34	28610.71
551.51	28615.39
551.68	28748.80
551.84	28407.08
552.01	28353.25
552.18	28842.42
552.34	28835.40
552.51	28982.85
552.68	28847.10
552.84	28599.01
553.01	28662.20
553.18	28730.08
553.34	28739.44
553.51	28898.59
553.67	29305.85
553.84	29237.97
554.01	29193.50
554.17	29085.84
554.34	28709.01
554.51	28725.39
554.67	28891.57
554.84	29338.62
555.00	29284.78
555.17	29436.92
555.33	29219.25
555.50	29301.17
555.67	29446.28
555.83	29563.31
556.00	29481.39
556.16	29579.69
556.33	29205.20
556.50	29518.84
556.66	29347.98
556.83	29523.52
556.99	29860.55
557.16	29799.70
557.32	29441.60
557.49	29949.50
557.65	29092.86
557.82	29474.37
557.98	28914.98
558.15	29305.85
558.32	30026.73
558.48	29188.82
558.65	29898.00
558.81	29893.32
558.98	29865.24
559.14	29701.40
559.31	29621.82
559.47	29874.60
559.64	29755.23
559.80	29638.20
559.97	30157.80
560.13	29820.77
560.30	30075.88
560.46	29802.04
560.63	29858.21
560.79	30223.34
560.96	29549.26
561.12	29965.88
561.29	29738.85
561.45	29862.90
561.61	30270.15
561.78	30080.56
561.94	29905.02
562.11	30356.75
562.27	29666.29
562.44	29654.59
562.60	30251.42
562.77	29827.79
562.93	29780.98
563.10	30473.78
563.26	29874.60
563.42	30005.67
563.59	30178.87
563.75	30061.84
563.92	30338.02
564.08	29841.83
564.24	30508.88
564.41	29820.77
564.57	30167.16
564.74	30148.44
564.90	30389.52
565.07	30232.70
565.23	29954.18
565.39	30466.75
565.56	30429.30
565.72	29984.60
565.88	30391.86
566.05	30412.92
566.21	30099.29
566.38	30593.14
566.54	30216.32
566.70	30057.16
566.87	30742.94
567.03	30361.43
567.19	30646.97
567.36	30562.72
567.52	30106.31
567.68	30515.90
567.85	30595.48
568.01	30087.59
568.17	30380.15
568.34	30368.45
568.50	30644.63
568.66	30717.19
568.83	30817.83
568.99	30677.40
569.15	30525.27
569.32	30132.06
569.48	30089.93
569.64	30698.47
569.81	30529.95
569.97	30368.45
570.13	30885.71
570.30	30569.74
570.46	30480.80
570.62	30576.76
570.78	30639.95
570.95	30469.09
571.11	30724.21
571.27	30742.94
571.43	30621.23
571.60	30888.05
571.76	30518.25
571.92	30888.05
572.09	30366.11
572.25	30766.34
572.41	30789.75
572.57	30551.01
572.74	30946.56
572.90	30682.08
573.06	30878.69
573.22	30764.00
573.38	30616.55
573.55	30796.77
573.71	31070.61
573.87	31335.09
574.03	30740.60
574.20	31318.71
574.36	30628.25
574.52	30590.80
574.68	30457.39
574.84	30527.61
575.01	30778.04
575.17	30735.92
575.33	30696.13
575.49	30749.96
575.65	30934.86
575.82	31140.83
575.98	30967.63
576.14	30618.89
576.30	30761.66
576.46	31054.23
576.62	30649.32
576.79	30541.65
576.95	31000.40
577.11	31037.84
577.27	30782.73
577.43	31016.78
577.59	31084.65
577.75	30859.96
577.92	30827.20
578.08	30981.67
578.24	30883.37
578.40	30766.34
578.56	30923.16
578.72	30848.26
578.88	31349.14
579.04	31058.91
579.21	30911.46
579.37	31105.72
579.53	31431.05
579.69	30738.26
579.85	30916.14
580.01	30553.35
580.17	31063.59
580.33	30998.06
580.49	31012.10
580.65	30993.37
580.82	31419.35
580.98	30969.97
581.14	31171.25
581.30	31246.15
581.46	30813.15
581.62	30696.13
581.78	30986.35
581.94	31192.32
582.10	30815.49
582.26	30911.46
582.42	31164.23
582.58	31012.10
582.74	31239.13
582.90	31178.28
583.06	30991.03
583.22	30721.87
583.38	31201.68
583.54	31094.02
583.70	30764.00
583.86	31091.68
584.02	31138.49
584.18	31360.84
584.34	31311.69
584.50	31047.21
584.66	31112.74
584.82	30637.61
584.98	31456.80
585.14	31136.15
585.30	30829.54
585.46	31204.02
585.62	30778.04
585.78	31367.86
585.94	31227.43
586.10	31157.21
586.26	31281.26
586.42	31601.91
586.58	31243.81
586.74	31197.00
586.90	30988.69
587.06	31098.70
587.22	31054.23
587.38	30969.97
587.54	31173.60
587.70	31473.18
587.86	31250.83
588.02	31288.28
588.18	31817.24
588.34	31566.81
588.49	30803.79
588.65	31019.12
588.81	31264.88
588.97	31337.43
589.13	31412.33
589.29	31000.40
589.45	31402.97
589.61	32041.93
589.77	31543.40
589.93	31508.29
590.08	31400.63
590.24	31625.32
590.40	31669.79
590.56	31592.55
590.72	31812.56
590.88	31447.44
591.04	31679.15
591.20	31473.18
591.35	31468.50
591.51	31751.71
591.67	31978.74
591.83	31854.69
