SpectraSuite Data File
++++++++++++++++++++++++++++++++++++
Date: Fri Oct 18 13:57:53 GMT-05:00 2013
User: bianchi
Dark Spectrum Present: No
Reference Spectrum Present: No
Number of Sampled Component Spectra: 1
Spectrometers: USB2+H05261
Integration Time (usec): 50000 (USB2+H05261)
Spectra Averaged: 1 (USB2+H05261)
Boxcar Smoothing: 0 (USB2+H05261)
Correct for Electrical Dark: No (USB2+H05261)
Strobe/Lamp Enabled: No (USB2+H05261)
Correct for Detector Non-linearity: No (USB2+H05261)
Correct for Stray Light: No (USB2+H05261)
Number of Pixels in Processed Spectrum: 2048
>>>>>Begin Processed Spectral Data<<<<<
365.73	46.81
365.92	46.81
366.12	46.81
366.32	0.00
366.52	0.00
366.72	0.00
366.91	0.00
367.11	0.00
367.31	0.00
367.51	0.00
367.70	0.00
367.90	0.00
368.10	0.00
368.30	0.00
368.49	0.00
368.69	0.00
368.89	0.00
369.09	0.00
369.28	0.00
369.48	0.00
369.68	0.00
369.87	0.00
370.07	0.00
370.27	0.00
370.47	0.00
370.66	58.51
370.86	79.58
371.06	180.22
371.25	126.39
371.45	133.41
371.65	210.65
371.84	208.31
372.04	112.35
372.24	175.54
372.44	217.67
372.63	243.42
372.83	191.92
373.03	198.95
373.22	208.31
373.42	203.63
373.62	187.24
373.81	138.09
374.01	245.76
374.21	273.84
374.40	234.05
374.60	255.12
374.79	245.76
374.99	243.42
375.19	255.12
375.38	198.95
375.58	238.73
375.78	308.95
375.97	304.27
376.17	294.91
376.37	220.01
376.56	285.55
376.76	311.29
376.95	304.27
377.15	245.76
377.35	252.78
377.54	346.40
377.74	304.27
377.93	273.84
378.13	231.71
378.33	238.73
378.52	283.20
378.72	297.25
378.91	297.25
379.11	227.03
379.31	299.59
379.50	304.27
379.70	308.95
379.89	348.74
380.09	229.37
380.28	241.08
380.48	266.82
380.68	409.59
380.87	269.16
381.07	313.63
381.26	264.48
381.46	374.49
381.65	278.52
381.85	325.33
382.04	414.27
382.24	330.02
382.43	367.46
382.63	276.18
382.83	330.02
383.02	449.38
383.22	383.85
383.41	383.85
383.61	348.74
383.80	423.64
384.00	358.10
384.19	348.74
384.39	383.85
384.58	402.57
384.78	425.98
384.97	395.55
385.17	428.32
385.36	339.38
385.56	402.57
385.75	404.91
385.95	407.25
386.14	402.57
386.34	468.11
386.53	444.70
386.72	463.43
386.92	416.62
387.11	484.49
387.31	451.72
387.50	451.72
387.70	423.64
387.89	444.70
388.09	414.27
388.28	414.27
388.48	449.38
388.67	433.00
388.86	418.96
389.06	465.77
389.25	479.81
389.45	472.79
389.64	442.36
389.84	472.79
390.03	477.47
390.22	505.56
390.42	444.70
390.61	493.85
390.81	505.56
391.00	512.58
391.19	524.28
391.39	493.85
391.58	538.32
391.78	582.79
391.97	557.05
392.16	505.56
392.36	608.54
392.55	559.39
392.75	533.64
392.94	664.71
393.13	498.53
393.33	578.11
393.52	524.28
393.71	620.24
393.91	650.67
394.10	608.54
394.29	601.52
394.49	624.92
394.68	575.77
394.88	627.26
395.07	540.66
395.26	617.90
395.46	620.24
395.65	692.80
395.84	676.41
396.04	594.50
396.23	692.80
396.42	617.90
396.62	669.39
396.81	592.16
397.00	704.50
397.19	667.05
397.39	617.90
397.58	805.14
397.77	620.24
397.97	645.99
398.16	657.69
398.35	727.91
398.55	681.10
398.74	720.88
398.93	795.78
399.12	723.23
399.32	692.80
399.51	777.06
399.70	774.72
399.90	765.36
400.09	753.65
400.28	774.72
400.47	767.70
400.67	819.19
400.86	793.44
401.05	748.97
401.24	854.30
401.44	905.79
401.63	858.98
401.82	784.08
402.01	877.70
402.21	854.30
402.40	863.66
402.59	816.85
402.78	828.55
402.97	938.55
403.17	870.68
403.36	809.83
403.55	940.90
403.74	844.93
403.93	917.49
404.13	837.91
404.32	971.32
404.51	931.53
404.70	1032.18
404.89	978.34
405.09	992.39
405.28	973.66
405.47	954.94
405.66	973.66
405.85	1004.09
406.05	961.96
406.24	954.94
406.43	1071.97
406.62	1041.54
406.81	1053.24
407.00	1013.45
407.20	940.90
407.39	1004.09
407.58	1088.35
407.77	1125.80
407.96	1118.78
408.15	1130.48
408.34	1123.46
408.54	1186.65
408.73	1139.84
408.92	1116.44
409.11	1104.73
409.30	1104.73
409.49	1086.01
409.68	1221.76
409.87	1100.05
410.07	1207.72
410.26	1196.01
410.45	1207.72
410.64	1167.93
410.83	1217.08
411.02	1308.36
411.21	1289.64
411.40	1327.08
411.59	1341.13
411.78	1270.91
411.98	1294.32
412.17	1282.61
412.36	1380.92
412.55	1310.70
412.74	1416.02
412.93	1472.20
413.12	1373.89
413.31	1453.47
413.50	1462.83
413.69	1465.18
413.88	1572.84
414.07	1448.79
414.26	1455.81
414.45	1416.02
414.64	1399.64
414.83	1540.07
415.02	1577.52
415.22	1509.65
415.41	1650.08
415.60	1612.63
415.79	1706.25
415.98	1682.85
416.17	1696.89
416.36	1624.33
416.55	1624.33
416.74	1607.95
416.93	1734.34
417.12	1661.78
417.31	1755.40
417.50	1762.42
417.69	1696.89
417.88	1696.89
418.07	1823.28
418.26	1713.27
418.45	1797.53
418.64	1804.55
418.83	1755.40
419.02	1830.30
419.21	1785.83
419.39	1834.98
419.58	1907.54
419.77	1799.87
419.96	1879.45
420.15	1898.17
420.34	1851.36
420.53	1832.64
420.72	1914.56
420.91	1987.11
421.10	2017.54
421.29	2033.93
421.48	2012.86
421.67	1980.09
421.86	1944.99
422.05	1959.03
422.24	1923.92
422.43	1975.41
422.61	2101.80
422.80	2069.03
422.99	2064.35
423.18	2054.99
423.37	2038.61
423.56	1987.11
423.75	2057.33
423.94	1961.37
424.13	1856.04
424.32	2012.86
424.50	2076.06
424.69	2076.06
424.88	2090.10
425.07	2113.50
425.26	2073.71
425.45	2052.65
425.64	2111.16
425.83	2071.37
426.01	2286.70
426.20	2012.86
426.39	2017.54
426.58	2115.84
426.77	2045.63
426.96	2183.72
427.15	2188.40
427.33	2230.53
427.52	2036.27
427.71	2146.27
427.90	2221.17
428.09	2228.19
428.28	2228.19
428.46	2326.49
428.65	2176.70
428.84	2260.96
429.03	2328.83
429.22	2127.55
429.40	2340.54
429.59	2296.07
429.78	2139.25
429.97	2186.06
430.16	2286.70
430.34	2335.85
430.53	2326.49
430.72	2354.58
430.91	2263.30
431.10	2347.56
431.28	2385.01
431.47	2471.61
431.66	2354.58
431.85	2417.77
432.03	2567.57
432.22	2609.70
432.41	2389.69
432.60	2436.50
432.79	2518.42
432.97	2555.86
433.16	2438.84
433.35	2480.97
433.54	2459.90
433.72	2480.97
433.91	2628.42
434.10	2609.70
434.28	2605.02
434.47	2588.63
434.66	2614.38
434.85	2656.51
435.03	2693.96
435.22	2593.31
435.41	2743.11
435.59	2567.57
435.78	2731.41
435.97	2738.43
436.16	2675.23
436.34	2691.62
436.53	2794.60
436.72	2717.36
436.90	2846.09
437.09	2855.45
437.28	2785.24
437.46	2731.41
437.65	2822.69
437.84	2871.84
438.02	2853.11
438.21	2801.62
438.40	2729.06
438.58	3063.76
438.77	2895.24
438.96	2995.89
439.14	2946.73
439.33	3056.74
439.52	3056.74
439.70	3042.70
439.89	3164.40
440.08	3084.83
440.26	2965.46
440.45	3155.04
440.63	3148.02
440.82	3269.73
441.01	3131.64
441.19	3211.22
441.38	3281.43
441.57	3251.00
441.75	3386.76
441.94	3258.03
442.12	3391.44
442.31	3358.67
442.50	3337.60
442.68	3279.09
442.87	3496.76
443.05	3382.07
443.24	3351.65
443.43	3452.29
443.61	3522.51
443.80	3569.32
443.98	3548.25
444.17	3337.60
444.35	3508.46
444.54	3501.44
444.73	3447.61
444.91	3501.44
445.10	3435.91
445.28	3421.86
445.47	3480.38
445.65	3583.36
445.84	3569.32
446.02	3520.17
446.21	3438.25
446.39	3534.21
446.58	3674.64
446.77	3548.25
446.95	3463.99
447.14	3494.42
447.32	3576.34
447.51	3590.38
447.69	3613.79
447.88	3627.83
448.06	3655.92
448.25	3503.78
448.43	3658.26
448.62	3613.79
448.80	3648.90
448.99	3737.84
449.17	3648.90
449.36	3595.06
449.54	3681.66
449.73	3721.45
449.91	3836.14
450.10	3794.01
450.28	3786.99
450.46	3662.94
450.65	3775.28
450.83	3744.86
451.02	3861.88
451.20	3939.12
451.39	3939.12
451.57	3894.65
451.76	3838.48
451.94	3911.04
452.13	3896.99
452.31	3871.25
452.49	3976.57
452.68	3735.50
452.86	3887.63
453.05	4030.40
453.23	3896.99
453.42	3868.91
453.60	4079.55
453.78	4053.81
453.97	3997.64
454.15	4030.40
454.34	3988.27
454.52	4081.89
454.70	4107.64
454.89	4105.30
455.07	4098.28
455.26	4217.65
455.44	4255.09
455.62	4231.69
455.81	4088.92
455.99	4219.99
456.17	4074.87
456.36	4229.35
456.54	4252.75
456.73	4369.78
456.91	4482.13
457.09	4430.63
457.28	4411.91
457.46	4362.76
457.64	4414.25
457.83	4414.25
458.01	4416.59
458.19	4388.50
458.38	4440.00
458.56	4486.81
458.74	4575.75
458.93	4603.83
459.11	4599.15
459.29	4685.75
459.48	4498.51
459.66	4648.30
459.84	4606.17
460.03	4559.36
460.21	4671.71
460.39	4594.47
460.57	4610.86
460.76	4805.12
460.94	4709.16
461.12	4739.58
461.31	4798.10
461.49	4664.69
461.67	4706.82
461.85	4746.61
462.04	4657.67
462.22	4994.70
462.40	4784.06
462.59	4851.93
462.77	4779.37
462.95	4819.16
463.13	4889.38
463.32	4933.85
463.50	4936.19
463.68	4847.25
463.86	5018.11
464.05	4964.28
464.23	5116.41
464.41	4931.51
464.59	4863.63
464.78	4966.62
464.96	5102.37
465.14	4917.47
465.32	5027.47
465.50	5067.26
465.69	5111.73
465.87	4894.06
466.05	4992.36
466.23	5128.11
466.41	5111.73
466.60	5200.67
466.78	5151.52
466.96	5104.71
467.14	5097.69
467.32	5195.99
467.51	5233.44
467.69	5142.16
467.87	5322.38
468.05	5488.56
468.23	5167.90
468.41	5203.01
468.60	5217.05
468.78	5355.15
468.96	5200.67
469.14	5474.51
469.32	5593.88
469.50	5284.93
469.69	5453.45
469.87	5451.11
470.05	5533.03
470.23	5392.59
470.41	5572.82
470.59	5591.54
470.77	5614.95
470.95	5479.19
471.14	5603.24
471.32	5598.56
471.50	5736.65
471.68	5729.63
471.86	5741.33
472.04	5736.65
472.22	5738.99
472.40	5640.69
472.58	5851.34
472.77	5895.81
472.95	5944.96
473.13	6050.28
473.31	5970.71
473.49	5825.59
473.67	6022.20
473.85	6066.67
474.03	6059.65
474.21	6092.41
474.39	6174.33
474.57	6143.91
474.75	6324.13
474.93	6335.83
475.12	6375.62
475.30	6406.05
475.48	6438.81
475.66	6368.60
475.84	6373.28
476.02	6434.13
476.20	6338.17
476.38	6595.63
476.56	6483.28
476.74	6642.44
476.92	6932.67
477.10	6633.08
477.28	6764.15
477.46	6855.43
477.64	6775.85
477.82	6757.13
478.00	7087.14
478.18	7194.81
478.36	6972.46
478.54	7152.68
478.72	7176.08
478.90	7323.54
479.08	7309.49
479.26	7363.33
479.44	7492.05
479.62	7569.29
479.80	7463.97
479.98	7613.76
480.16	7669.94
480.34	7801.01
480.52	7892.29
480.70	7782.28
480.88	7857.18
481.06	7775.26
481.24	7885.26
481.41	8028.04
481.59	8042.08
481.77	8222.30
481.95	8212.94
482.13	8212.94
482.31	8245.71
482.49	8547.64
482.67	8379.12
482.85	8435.29
483.03	8662.32
483.21	8730.20
483.39	8746.58
483.57	8847.22
483.74	8847.22
483.92	8945.53
484.10	9001.70
484.28	9011.06
484.46	9359.80
484.64	9448.74
484.82	9336.40
485.00	9378.53
485.18	9451.08
485.35	9509.60
485.53	9479.17
485.71	9617.26
485.89	9872.38
486.07	9647.69
486.25	9682.80
486.43	9851.31
486.61	10003.45
486.78	10054.94
486.96	10092.39
487.14	10366.23
487.32	10399.00
487.50	10331.12
487.68	10300.70
487.85	10600.29
488.03	10630.71
488.21	10714.97
488.39	10808.59
488.57	11000.52
488.75	10956.05
488.92	11082.44
489.10	10967.75
489.28	11215.85
489.46	11218.19
489.64	11309.47
489.81	11414.79
489.99	11592.67
490.17	11613.74
490.35	11775.24
490.53	11908.65
490.70	11889.92
490.88	11721.40
491.06	12018.65
491.24	11690.98
491.41	12063.12
491.59	12236.32
491.77	12334.62
491.95	12685.70
492.13	12585.06
492.30	12306.54
492.48	12472.71
492.66	12765.28
492.84	12676.34
493.01	13048.49
493.19	12952.52
493.37	12952.52
493.54	13008.70
493.72	13303.60
493.90	13032.10
494.08	13252.11
494.25	13469.78
494.43	13462.76
494.61	13614.90
494.79	13554.04
494.96	13579.79
495.14	13530.64
495.32	13951.93
495.49	14078.32
495.67	13914.48
495.85	14045.55
496.02	14195.35
496.20	14443.45
496.38	14288.97
496.55	14408.34
496.73	14396.64
496.91	14169.60
497.09	14452.81
497.26	14593.24
497.44	14675.16
497.62	14574.52
497.79	14867.08
497.97	14642.39
498.14	14862.40
498.32	15171.35
498.50	15358.60
498.67	15131.56
498.85	15073.05
499.03	15147.95
499.20	15463.92
499.38	15166.67
499.56	15215.82
499.73	15676.91
499.91	15782.23
500.08	15932.03
500.26	15810.32
500.44	15990.54
500.61	16009.26
500.79	15714.36
500.97	16229.27
501.14	16276.09
501.32	15997.56
501.49	16037.35
501.67	16332.26
501.84	16100.55
502.02	16491.41
502.20	16573.33
502.37	16760.58
502.55	16322.90
502.72	16573.33
502.90	16622.48
503.07	16512.48
503.25	16568.65
503.43	16732.49
503.60	16905.69
503.78	17029.74
503.95	17067.19
504.13	16678.66
504.30	17099.95
504.48	17090.59
504.65	17015.69
504.83	17212.30
505.01	17432.31
505.18	17418.27
505.36	17436.99
505.53	17088.25
505.71	17638.28
505.88	17607.85
506.06	17338.69
506.23	17935.53
506.41	17383.16
506.58	17673.39
506.76	17649.98
506.93	17736.58
507.11	17893.40
507.28	17893.40
507.46	18178.94
507.63	18118.09
507.81	18195.32
507.98	18251.50
508.16	18614.28
508.33	18012.76
508.50	18647.05
508.68	18558.11
508.85	18628.32
509.03	18249.16
509.20	18719.60
509.38	18984.09
509.55	18850.67
509.73	18771.10
509.90	18698.54
510.08	18581.51
510.25	18824.93
510.42	19084.73
510.60	18778.12
510.77	19119.84
510.95	19183.03
511.12	18932.59
511.30	19028.56
511.47	19271.97
511.64	19489.64
511.82	19510.71
511.99	19236.86
512.17	19440.49
512.34	19618.37
512.51	19674.54
512.69	19658.16
512.86	19660.50
513.04	19943.70
513.21	19704.97
513.38	19772.85
513.56	19939.02
513.73	20011.58
513.90	19990.52
514.08	19899.23
514.25	20329.89
514.43	20456.28
514.60	20177.76
514.77	20252.66
514.95	20561.61
515.12	20049.03
515.29	20229.25
515.47	20084.14
515.64	20575.65
515.81	20472.67
515.99	20730.12
516.16	20924.39
516.33	20767.57
516.51	20746.51
516.68	20769.91
516.85	20980.56
517.03	21013.33
517.20	21142.06
517.37	21308.24
517.54	21238.02
517.72	21163.12
517.89	21053.12
518.06	21097.59
518.24	21401.86
518.41	21205.25
518.58	21284.83
518.75	21301.22
518.93	21661.66
519.10	21380.79
519.27	21696.77
519.45	21429.94
519.62	21954.22
519.79	21451.01
519.96	21621.87
520.14	21884.01
520.31	21406.54
520.48	21975.29
520.65	21638.25
520.83	21933.16
521.00	22068.91
521.17	21977.63
521.34	21544.63
521.52	21958.91
521.69	22010.40
521.86	22141.47
522.03	22548.72
522.20	22272.54
522.38	22153.17
522.55	22188.28
522.72	22429.35
522.89	22504.25
523.07	22693.83
523.24	22862.35
523.41	22764.05
523.58	22675.11
523.75	22773.41
523.92	22401.27
524.10	23084.70
524.27	22611.92
524.44	23239.18
524.61	23264.92
524.78	23199.39
524.96	22792.14
525.13	23063.64
525.30	23337.48
525.47	23087.04
525.64	23365.57
525.81	23215.77
525.98	23590.26
526.16	23353.87
526.33	23506.00
526.50	23534.09
526.67	23204.07
526.84	23278.97
527.01	23503.66
527.18	23428.76
527.36	23726.01
527.53	23550.47
527.70	24126.24
527.87	24051.34
528.04	23590.26
528.21	23707.29
528.38	23875.80
528.55	23765.80
528.72	23885.17
528.89	23850.06
529.07	23653.45
529.24	24095.82
529.41	24147.31
529.58	24114.54
529.75	23976.45
529.92	23887.51
530.09	24297.10
530.26	23978.79
530.43	24428.17
530.60	24194.12
530.77	24423.49
530.94	24493.71
531.11	24599.03
531.28	24430.51
531.46	24807.34
531.63	24404.77
531.80	24650.52
531.97	24783.93
532.14	24737.12
532.31	24769.89
532.48	24449.24
532.65	24938.41
532.82	24390.72
532.99	24910.32
533.16	24833.08
533.33	24992.24
533.50	24905.64
533.67	24886.92
533.84	24851.81
534.01	24812.02
534.18	24907.98
534.35	25095.22
534.52	25076.50
534.69	25373.75
534.86	25015.65
535.03	25308.21
535.20	25259.06
535.37	25568.01
535.54	25647.59
535.71	25127.99
535.88	25263.74
536.05	25488.43
536.22	25907.39
536.38	25598.44
536.55	25537.59
536.72	25502.48
536.89	25348.00
537.06	25577.37
537.23	25846.54
537.40	25441.62
537.57	25476.73
537.74	25830.15
537.91	26005.69
538.08	25909.73
538.25	25699.08
538.42	25975.27
538.59	25663.97
538.75	25947.18
538.92	25907.39
539.09	26033.78
539.26	25923.77
539.43	26024.42
539.60	26368.48
539.77	26008.03
539.94	26033.78
540.11	26176.55
540.28	26342.73
540.44	26373.16
540.61	26314.64
540.78	26434.01
540.95	26309.96
541.12	26305.28
541.29	26270.17
541.46	26419.97
541.62	26199.96
541.79	26735.94
541.96	26309.96
542.13	26529.97
542.30	26359.11
542.47	26902.12
542.63	27056.59
542.80	26911.48
542.97	26948.93
543.14	26712.53
543.31	26960.63
543.48	26829.56
543.64	27051.91
543.81	27550.45
543.98	26888.07
544.15	27023.83
544.32	27091.70
544.48	27494.27
544.65	27082.34
544.82	27070.64
544.99	26810.84
545.16	27082.34
545.32	27108.08
545.49	27632.36
545.66	27723.65
545.83	27278.94
546.00	27517.68
546.16	27803.22
546.33	27262.56
546.50	27206.39
546.67	27557.47
546.83	27096.38
547.00	27676.83
547.17	27749.39
547.34	27789.18
547.50	27541.08
547.67	28079.41
547.84	27733.01
548.00	27545.76
548.17	28013.87
548.34	27716.62
548.51	27894.50
548.67	27915.57
548.84	27833.65
549.01	27634.71
549.18	27651.09
549.34	28058.34
549.51	27969.40
549.68	28166.01
549.84	28107.49
550.01	28027.92
550.18	28137.92
550.34	27910.89
550.51	28570.92
550.68	28390.70
550.84	27700.24
551.01	28383.68
551.18	28128.56
551.34	27946.00
551.51	28563.90
551.68	28301.76
551.84	28166.01
552.01	28430.49
552.18	28360.27
552.34	28772.21
552.51	28781.57
552.68	28161.33
552.84	28456.23
553.01	28587.30
553.18	28460.91
553.34	28580.28
553.51	28875.19
553.67	28687.95
553.84	28753.48
554.01	28636.45
554.17	28460.91
554.34	28781.57
554.51	28797.95
554.67	28861.15
554.84	28669.22
555.00	28858.81
555.17	28797.95
555.33	28800.29
555.50	29001.58
555.67	28573.26
555.83	29139.67
556.00	29228.61
556.16	29373.72
556.33	28882.21
556.50	29064.77
556.66	29340.96
556.83	29195.84
556.99	29343.30
557.16	29310.53
557.32	28940.72
557.49	29252.02
557.65	28940.72
557.82	29244.99
557.98	29041.37
558.15	29469.69
558.32	29420.53
558.48	29462.66
558.65	29376.06
558.81	29582.03
558.98	29507.13
559.14	29125.63
559.31	29282.44
559.47	29624.16
559.64	29273.08
559.80	29500.11
559.97	29530.54
560.13	29429.90
560.30	29670.97
560.46	29652.25
560.63	29699.06
560.79	29790.34
560.96	29738.85
561.12	29729.48
561.29	29462.66
561.45	29628.84
561.61	29813.74
561.78	29830.13
561.94	29563.31
562.11	29617.14
562.27	29598.41
562.44	29652.25
562.60	29731.83
562.77	29345.64
562.93	29369.04
563.10	29638.20
563.26	29799.70
563.42	29830.13
563.59	29626.50
563.75	29900.34
563.92	29951.84
564.08	29750.55
564.24	29851.19
564.41	29759.91
564.57	30085.25
564.74	29909.71
564.90	29804.38
565.07	29806.72
565.23	30171.85
565.39	29900.34
565.56	30078.22
565.72	30181.21
565.88	30225.68
566.05	29633.52
566.21	30106.31
566.38	30052.48
566.54	29916.73
566.70	30221.00
566.87	30333.34
567.03	30052.48
567.19	29944.81
567.36	30462.07
567.52	29907.37
567.68	30164.82
567.85	29998.65
568.01	29874.60
568.17	30274.83
568.34	30438.67
568.50	30286.53
568.66	30342.70
568.83	30349.73
568.99	30312.28
569.15	30148.44
569.32	30043.12
569.48	30286.53
569.64	30431.65
569.81	30136.74
569.97	30286.53
570.13	29909.71
570.30	30478.46
570.46	30693.79
570.62	30284.19
570.78	29975.24
570.95	30134.40
571.11	30572.08
571.27	29979.92
571.43	30202.27
571.60	30228.02
571.76	30127.38
571.92	30445.69
572.09	30925.50
572.25	30260.79
572.41	30433.99
572.57	30508.88
572.74	30171.85
572.90	30061.84
573.06	30167.16
573.22	30443.35
573.38	30536.97
573.55	30085.25
573.71	30801.45
573.87	30518.25
574.03	30466.75
574.20	30562.72
574.36	30279.51
574.52	30569.74
574.68	30572.08
574.84	30572.08
575.01	30717.19
575.17	30726.55
575.33	30726.55
575.49	30492.50
575.65	30897.41
575.82	30939.54
575.98	30661.02
576.14	30398.88
576.30	30639.95
576.46	30778.04
576.62	30639.95
576.79	30576.76
576.95	30333.34
577.11	30644.63
577.27	30553.35
577.43	30684.42
577.59	30871.67
577.75	30672.72
577.92	30511.22
578.08	30113.33
578.24	30441.01
578.40	30543.99
578.56	30733.57
578.72	30717.19
578.88	31016.78
579.04	31105.72
579.21	30398.88
579.37	30593.14
579.53	31079.97
579.69	31115.08
579.85	30501.86
580.01	30675.06
580.17	30565.06
580.33	30654.00
580.49	30684.42
580.65	30485.48
580.82	30724.21
580.98	30684.42
581.14	30621.23
581.30	30911.46
581.46	30843.58
581.62	30455.05
581.78	30265.47
581.94	30902.09
582.10	30670.38
582.26	30658.68
582.42	30611.87
582.58	30906.77
582.74	31084.65
582.90	30817.83
583.06	30815.49
583.22	30689.10
583.38	30904.43
583.54	30249.08
583.70	30487.82
583.86	30609.53
584.02	30445.69
584.18	31065.93
584.34	30859.96
584.50	30876.35
584.66	30897.41
584.82	30464.41
584.98	30796.77
585.14	30576.76
585.30	30548.67
585.46	30672.72
585.62	30874.01
585.78	30920.82
585.94	30696.13
586.10	30803.79
586.26	30668.04
586.42	31225.09
586.58	31491.91
586.74	30981.67
586.90	30794.43
587.06	30771.02
587.22	30808.47
587.38	30974.65
587.54	31103.38
587.70	30948.90
587.86	31094.02
588.02	31084.65
588.18	31096.36
588.34	31498.93
588.49	31185.30
588.65	30740.60
588.81	30967.63
588.97	30948.90
589.13	31082.31
589.29	30611.87
589.45	31182.96
589.61	31283.60
589.77	31178.28
589.93	31503.61
590.08	31042.53
590.24	31201.68
590.40	32009.17
590.56	31140.83
590.72	31227.43
590.88	31023.80
591.04	31087.00
591.20	31358.50
591.35	31597.23
591.51	31550.42
591.67	31323.39
591.83	31161.89
