SpectraSuite Data File
++++++++++++++++++++++++++++++++++++
Date: Fri Oct 18 13:58:32 GMT-05:00 2013
User: bianchi
Dark Spectrum Present: No
Reference Spectrum Present: No
Number of Sampled Component Spectra: 1
Spectrometers: USB2+H05261
Integration Time (usec): 50000 (USB2+H05261)
Spectra Averaged: 1 (USB2+H05261)
Boxcar Smoothing: 0 (USB2+H05261)
Correct for Electrical Dark: No (USB2+H05261)
Strobe/Lamp Enabled: No (USB2+H05261)
Correct for Detector Non-linearity: No (USB2+H05261)
Correct for Stray Light: No (USB2+H05261)
Number of Pixels in Processed Spectrum: 2048
>>>>>Begin Processed Spectral Data<<<<<
365.73	0.00
365.92	0.00
366.12	0.00
366.32	0.00
366.52	0.00
366.72	0.00
366.91	0.00
367.11	0.00
367.31	0.00
367.51	0.00
367.70	0.00
367.90	0.00
368.10	0.00
368.30	0.00
368.49	0.00
368.69	0.00
368.89	0.00
369.09	0.00
369.28	0.00
369.48	0.00
369.68	0.00
369.87	0.00
370.07	0.00
370.27	0.00
370.47	0.00
370.66	77.24
370.86	35.11
371.06	88.94
371.25	154.48
371.45	163.84
371.65	107.66
371.84	88.94
372.04	128.73
372.24	184.90
372.44	126.39
372.63	168.52
372.83	210.65
373.03	208.31
373.22	203.63
373.42	205.97
373.62	203.63
373.81	215.33
374.01	250.44
374.21	212.99
374.40	278.52
374.60	269.16
374.79	257.46
374.99	210.65
375.19	308.95
375.38	264.48
375.58	255.12
375.78	297.25
375.97	287.89
376.17	266.82
376.37	220.01
376.56	241.08
376.76	201.29
376.95	234.05
377.15	306.61
377.35	273.84
377.54	283.20
377.74	238.73
377.93	250.44
378.13	241.08
378.33	339.38
378.52	269.16
378.72	306.61
378.91	325.33
379.11	215.33
379.31	344.06
379.50	264.48
379.70	355.76
379.89	299.59
380.09	252.78
380.28	313.63
380.48	330.02
380.68	210.65
380.87	283.20
381.07	362.78
381.26	362.78
381.46	383.85
381.65	304.27
381.85	287.89
382.04	299.59
382.24	360.44
382.43	322.99
382.63	330.02
382.83	358.10
383.02	339.38
383.22	330.02
383.41	325.33
383.61	297.25
383.80	325.33
384.00	404.91
384.19	390.87
384.39	332.36
384.58	337.04
384.78	425.98
384.97	383.85
385.17	388.53
385.36	304.27
385.56	322.99
385.75	400.23
385.95	372.15
386.14	339.38
386.34	411.93
386.53	400.23
386.72	437.68
386.92	339.38
387.11	404.91
387.31	433.00
387.50	360.44
387.70	332.36
387.89	416.62
388.09	369.80
388.28	423.64
388.48	461.09
388.67	437.68
388.86	433.00
389.06	447.04
389.25	430.66
389.45	332.36
389.64	393.21
389.84	486.83
390.03	524.28
390.22	456.40
390.42	533.64
390.61	442.36
390.81	493.85
391.00	468.11
391.19	477.47
391.39	533.64
391.58	603.86
391.78	472.79
391.97	512.58
392.16	470.45
392.36	519.60
392.55	552.37
392.75	592.16
392.94	514.92
393.13	557.05
393.33	463.43
393.52	528.96
393.71	587.47
393.91	610.88
394.10	531.30
394.29	535.98
394.49	564.07
394.68	589.82
394.88	531.30
395.07	526.62
395.26	634.29
395.46	660.03
395.65	613.22
395.84	573.43
396.04	608.54
396.23	641.31
396.42	533.64
396.62	603.86
396.81	657.69
397.00	681.10
397.19	648.33
397.39	716.20
397.58	699.82
397.77	706.84
397.97	599.18
398.16	681.10
398.35	657.69
398.55	716.20
398.74	674.07
398.93	716.20
399.12	734.93
399.32	725.57
399.51	653.01
399.70	737.27
399.90	681.10
400.09	767.70
400.28	779.40
400.47	718.54
400.67	821.53
400.86	753.65
401.05	826.21
401.24	667.05
401.44	781.74
401.63	765.36
401.82	840.25
402.01	828.55
402.21	791.10
402.40	784.08
402.59	763.01
402.78	851.96
402.97	849.61
403.17	910.47
403.36	870.68
403.55	823.87
403.74	905.79
403.93	854.30
404.13	884.72
404.32	844.93
404.51	924.51
404.70	936.21
404.89	833.23
405.09	985.37
405.28	884.72
405.47	823.87
405.66	983.02
405.85	950.26
406.05	959.62
406.24	1013.45
406.43	971.32
406.62	978.34
406.81	1090.69
407.00	1069.62
407.20	933.87
407.39	992.39
407.58	912.81
407.77	1011.11
407.96	961.96
408.15	1034.52
408.34	1029.84
408.54	1057.92
408.73	1062.60
408.92	1109.41
409.11	1158.57
409.30	1167.93
409.49	1109.41
409.68	1050.90
409.87	1107.07
410.07	1170.27
410.26	1064.94
410.45	1188.99
410.64	1104.73
410.83	1174.95
411.02	1235.80
411.21	1221.76
411.40	1284.95
411.59	1284.95
411.78	1172.61
411.98	1210.06
412.17	1179.63
412.36	1146.86
412.55	1273.25
412.74	1313.04
412.93	1355.17
413.12	1371.55
413.31	1425.39
413.50	1259.21
413.69	1401.98
413.88	1383.26
414.07	1383.26
414.26	1551.78
414.45	1411.34
414.64	1411.34
414.83	1446.45
415.02	1514.33
415.22	1483.90
415.41	1631.35
415.60	1516.67
415.79	1565.82
415.98	1523.69
416.17	1664.12
416.36	1586.88
416.55	1598.59
416.74	1673.48
416.93	1544.75
417.12	1643.06
417.31	1652.42
417.50	1645.40
417.69	1755.40
417.88	1760.08
418.07	1659.44
418.26	1668.80
418.45	1732.00
418.64	1818.60
418.83	1715.61
419.02	1813.92
419.21	1755.40
419.39	1771.79
419.58	1671.14
419.77	1837.32
419.96	1675.82
420.15	1980.09
420.34	1818.60
420.53	1877.11
420.72	1827.96
420.91	1914.56
421.10	1839.66
421.29	1839.66
421.48	1902.86
421.67	1973.07
421.86	1916.90
422.05	1942.64
422.24	1991.80
422.43	1998.82
422.61	1982.43
422.80	2092.44
422.99	2010.52
423.18	2003.50
423.37	2071.37
423.56	2057.33
423.75	1991.80
423.94	1959.03
424.13	1856.04
424.32	1849.02
424.50	2054.99
424.69	2115.84
424.88	2026.90
425.07	2080.74
425.26	1942.64
425.45	2106.48
425.64	1837.32
425.83	1907.54
426.01	2052.65
426.20	2045.63
426.39	2054.99
426.58	1968.39
426.77	2003.50
426.96	1954.35
427.15	2129.89
427.33	2183.72
427.52	2132.23
427.71	2129.89
427.90	2141.59
428.09	2211.81
428.28	2169.68
428.46	2160.31
428.65	2157.97
428.84	2263.30
429.03	2223.51
429.22	2153.29
429.40	2223.51
429.59	2251.60
429.78	2064.35
429.97	2097.12
430.16	2167.34
430.34	2279.68
430.53	2263.30
430.72	2263.30
430.91	2342.88
431.10	2249.25
431.28	2275.00
431.47	2333.51
431.66	2443.52
431.85	2296.07
432.03	2338.20
432.22	2431.82
432.41	2434.16
432.60	2331.17
432.79	2387.35
432.97	2523.10
433.16	2389.69
433.35	2352.24
433.54	2401.39
433.72	2452.88
433.91	2609.70
434.10	2490.33
434.28	2396.71
434.47	2569.91
434.66	2567.57
434.85	2576.93
435.03	2499.69
435.22	2581.61
435.41	2621.40
435.59	2661.19
435.78	2686.94
435.97	2628.42
436.16	2614.38
436.34	2583.95
436.53	2637.78
436.72	2689.28
436.90	2595.65
437.09	2670.55
437.28	2612.04
437.46	2738.43
437.65	2698.64
437.84	2698.64
438.02	2675.23
438.21	2705.66
438.40	2712.68
438.58	2754.81
438.77	2951.42
438.96	2862.48
439.14	2789.92
439.33	2892.90
439.52	2857.79
439.70	2949.08
439.89	2925.67
440.08	2972.48
440.26	3012.27
440.45	3192.49
440.63	3002.91
440.82	3155.04
441.01	3033.33
441.19	3141.00
441.38	3038.02
441.57	3052.06
441.75	3094.19
441.94	3227.60
442.12	3229.94
442.31	3361.01
442.50	3251.00
442.68	3199.51
442.87	3225.26
443.05	3344.63
443.24	3361.01
443.43	3248.66
443.61	3311.86
443.80	3372.71
443.98	3307.18
444.17	3148.02
444.35	3424.20
444.54	3487.40
444.73	3412.50
444.91	3471.01
445.10	3442.93
445.28	3316.54
445.47	3332.92
445.65	3485.06
445.84	3349.31
446.02	3459.31
446.21	3473.36
446.39	3365.69
446.58	3391.44
446.77	3510.80
446.95	3274.41
447.14	3534.21
447.32	3452.29
447.51	3466.33
447.69	3456.97
447.88	3618.47
448.06	3545.91
448.25	3396.12
448.43	3564.64
448.62	3543.57
448.80	3456.97
448.99	3534.21
449.17	3620.81
449.36	3566.98
449.54	3492.08
449.73	3637.19
449.91	3585.70
450.10	3655.92
450.28	3665.28
450.46	3658.26
450.65	3744.86
450.83	3691.02
451.02	3611.45
451.20	3786.99
451.39	3747.20
451.57	3719.11
451.76	3686.34
451.94	3761.24
452.13	3871.25
452.31	3754.22
452.49	3599.74
452.68	3859.54
452.86	3775.28
453.05	3803.37
453.23	3964.87
453.42	3702.73
453.60	3845.50
453.78	3990.61
453.97	3882.95
454.15	4009.34
454.34	3880.61
454.52	4072.53
454.70	3985.93
454.89	3911.04
455.07	3831.46
455.26	3913.38
455.44	4072.53
455.62	3927.42
455.81	3967.21
455.99	4007.00
456.17	4135.73
456.36	4203.60
456.54	4084.23
456.73	4086.58
456.91	4365.10
457.09	4088.92
457.28	4383.82
457.46	4215.30
457.64	4297.22
457.83	4449.36
458.01	4212.96
458.19	4379.14
458.38	4290.20
458.56	4423.61
458.74	4210.62
458.93	4315.95
459.11	4463.40
459.29	4498.51
459.48	4318.29
459.66	4521.92
459.84	4531.28
460.03	4559.36
460.21	4566.39
460.39	4519.57
460.57	4393.19
460.76	4444.68
460.94	4580.43
461.12	4454.04
461.31	4437.66
461.49	4568.73
461.67	4458.72
461.85	4547.66
462.04	4683.41
462.22	4779.37
462.40	4655.33
462.59	4688.09
462.77	4634.26
462.95	4870.65
463.13	4716.18
463.32	4704.48
463.50	4856.61
463.68	4835.55
463.86	4688.09
464.05	4608.51
464.23	4849.59
464.41	4933.85
464.59	4770.01
464.78	4945.55
464.96	4645.96
465.14	4870.65
465.32	4933.85
465.50	4933.85
465.69	4873.00
465.87	4919.81
466.05	5064.92
466.23	4975.98
466.41	5027.47
466.60	5008.75
466.78	5025.13
466.96	4880.02
467.14	4933.85
467.32	5015.77
467.51	5076.62
467.69	4877.68
467.87	4990.02
468.05	5062.58
468.23	5046.20
468.41	4990.02
468.60	5167.90
468.78	5165.56
468.96	5184.29
469.14	5334.08
469.32	5130.45
469.50	5057.90
469.69	5261.52
469.87	5331.74
470.05	5336.42
470.23	5313.02
470.41	5291.95
470.59	5313.02
470.77	5334.08
470.95	5411.32
471.14	5481.53
471.32	5458.13
471.50	5441.75
471.68	5355.15
471.86	5509.62
472.04	5516.64
472.22	5647.71
472.40	5486.22
472.58	5746.02
472.77	5813.89
472.95	5645.37
473.13	5769.42
473.31	5638.35
473.49	5673.46
473.67	5813.89
473.85	5834.96
474.03	5912.19
474.21	5898.15
474.39	5907.51
474.57	6047.94
474.75	6160.29
474.93	6200.08
475.12	6017.52
475.30	6120.50
475.48	6171.99
475.66	6157.95
475.84	6223.48
476.02	6335.83
476.20	6188.38
476.38	6614.35
476.56	6499.67
476.74	6588.61
476.92	6399.02
477.10	6473.92
477.28	6490.31
477.46	6642.44
477.64	6656.48
477.82	6782.87
478.00	6780.53
478.18	6780.53
478.36	6988.84
478.54	6949.05
478.72	7164.38
478.90	6998.20
479.08	7103.53
479.26	7222.89
479.44	7290.77
479.62	7199.49
479.80	7473.33
479.98	7332.90
480.16	7438.22
480.34	7241.62
480.52	7456.95
480.70	7506.10
480.88	7274.38
481.06	7829.09
481.24	7419.50
481.41	7630.15
481.59	7754.19
481.77	7808.03
481.95	8074.85
482.13	8028.04
482.31	8002.29
482.49	8315.92
482.67	8102.93
482.85	8301.88
483.03	8465.72
483.21	8603.81
483.39	8395.50
483.57	8425.93
483.74	8549.98
483.92	8725.52
484.10	8514.87
484.28	8823.82
484.46	8931.48
484.64	8943.19
484.82	8884.67
485.00	8992.34
485.18	9242.78
485.35	9235.75
485.53	9343.42
485.71	9226.39
485.89	9549.39
486.07	9406.61
486.25	9448.74
486.43	9549.39
486.61	9596.20
486.78	9804.50
486.96	9865.36
487.14	10141.54
487.32	9994.09
487.50	9996.43
487.68	10181.33
487.85	10338.15
488.03	10359.21
488.21	10651.78
488.39	10382.62
488.57	10600.29
488.75	10354.53
488.92	10843.70
489.10	10745.40
489.28	10768.80
489.46	11222.87
489.64	10991.16
489.81	11061.37
489.99	11234.57
490.17	11206.48
490.35	11391.39
490.53	11606.72
490.70	11524.80
490.88	11485.01
491.06	11662.89
491.24	11550.54
491.41	11576.29
491.59	11791.62
491.77	11808.00
491.95	12081.85
492.13	12077.16
492.30	12112.27
492.48	11957.80
492.66	12072.48
492.84	12212.92
493.01	12238.66
493.19	12442.29
493.37	12812.09
493.54	12507.82
493.72	12753.58
493.90	12800.39
494.08	13135.09
494.25	12891.67
494.43	13039.12
494.61	13268.50
494.79	13088.28
494.96	13121.04
495.14	12924.44
495.32	13444.04
495.49	13074.23
495.67	13212.32
495.85	13366.80
496.02	13771.71
496.20	13472.12
496.38	13816.18
496.55	13839.59
496.73	14279.61
496.91	13954.27
497.09	14134.50
497.26	14382.59
497.44	14085.34
497.62	14293.65
497.79	14644.73
497.97	14611.96
498.14	14466.85
498.32	14626.01
498.50	14668.14
498.67	14766.44
498.85	14768.78
499.03	14956.02
499.20	14714.95
499.38	14939.64
499.56	14930.28
499.73	15056.67
499.91	15150.29
500.08	15398.38
500.26	15005.17
500.44	15222.84
500.61	15360.94
500.79	14972.41
500.97	15358.60
501.14	15602.01
501.32	15492.01
501.49	15571.58
501.67	15641.80
501.84	15889.90
502.02	15531.80
502.20	15887.56
502.37	16032.67
502.55	16107.57
502.72	15819.68
502.90	15939.05
503.07	15742.44
503.25	16327.58
503.43	16217.57
503.60	16189.49
503.78	16208.21
503.95	16271.40
504.13	16233.96
504.30	16465.67
504.48	16299.49
504.65	16137.99
504.83	16610.78
505.01	16809.73
505.18	17015.69
505.36	16954.84
505.53	16713.77
505.71	16781.64
505.88	16762.92
506.06	17132.72
506.23	17233.36
506.41	17296.56
506.58	16931.44
506.76	17158.47
506.93	17444.01
507.11	17057.82
507.28	17139.74
507.46	17219.32
507.63	17132.72
507.81	17563.38
507.98	17486.14
508.16	17289.54
508.33	17619.55
508.50	17701.47
508.68	17619.55
508.85	17776.37
509.03	17727.22
509.20	17895.74
509.38	17980.00
509.55	18057.23
509.73	18424.70
509.90	18003.40
510.08	17865.31
510.25	18281.92
510.42	18078.30
510.60	18239.79
510.77	18679.82
510.95	18703.22
511.12	18307.67
511.30	18471.51
511.47	18555.77
511.64	18384.91
511.82	18691.52
511.99	18782.80
512.17	18754.71
512.34	18780.46
512.51	18719.60
512.69	18991.11
512.86	18703.22
513.04	19199.41
513.21	19220.48
513.38	19232.18
513.56	19529.43
513.73	19456.87
513.90	19323.46
514.08	19023.87
514.25	19051.96
514.43	19585.60
514.60	19281.33
514.77	19199.41
514.95	19461.55
515.12	19620.71
515.29	19859.45
515.47	19599.65
515.64	19948.39
515.81	19342.19
515.99	20210.53
516.16	20060.73
516.33	20255.00
516.51	20098.18
516.68	19805.61
516.85	19967.11
517.03	19889.87
517.20	20276.06
517.37	20278.40
517.54	20400.11
517.72	20428.20
517.89	20376.70
518.06	20306.49
518.24	20545.22
518.41	20475.01
518.58	20467.98
518.75	20325.21
518.93	20737.15
519.10	20762.89
519.27	20739.49
519.45	20723.10
519.62	20645.87
519.79	20622.46
519.96	21015.67
520.14	20615.44
520.31	20868.22
520.48	21336.32
520.65	20966.52
520.83	20952.48
521.00	21228.66
521.17	21221.64
521.34	21352.71
521.52	21193.55
521.69	21429.94
521.86	21125.68
522.03	21455.69
522.20	21568.04
522.38	21715.49
522.55	21727.19
522.72	21724.85
522.89	21563.36
523.07	21621.87
523.24	21619.53
523.41	21673.36
523.58	21837.20
523.75	21762.30
523.92	21652.30
524.10	21600.80
524.27	21930.82
524.44	21937.84
524.61	22134.45
524.78	22508.93
524.96	22267.86
525.13	22146.15
525.30	22111.04
525.47	22249.13
525.64	22022.10
525.81	22286.58
525.98	22291.26
526.16	22387.22
526.33	22331.05
526.50	22794.48
526.67	22544.04
526.84	22569.79
527.01	22354.46
527.18	22764.05
527.36	22600.21
527.53	22700.86
527.70	23194.71
527.87	23112.79
528.04	22782.77
528.21	22771.07
528.38	23124.49
528.55	23159.60
528.72	22918.53
528.89	23035.55
529.07	23075.34
529.24	23033.21
529.41	23433.44
529.58	23318.76
529.75	23101.09
529.92	23318.76
530.09	23091.73
530.26	23407.70
530.43	23412.38
530.60	23080.02
530.77	23372.59
530.94	23370.25
531.11	23215.77
531.28	23522.38
531.46	23833.68
531.63	23601.96
531.80	23894.53
531.97	23934.32
532.14	23800.91
532.31	23747.08
532.48	23623.03
532.65	23875.80
532.82	23726.01
532.99	23604.30
533.16	24100.50
533.33	23836.02
533.50	24238.59
533.67	24259.65
533.84	23840.70
534.01	23988.15
534.18	24159.01
534.35	24240.93
534.52	24084.11
534.69	24489.03
534.86	24505.41
535.03	24175.39
535.20	24430.51
535.37	24318.17
535.54	24355.61
535.71	24079.43
535.88	24060.71
536.05	24479.66
536.22	24568.60
536.38	24479.66
536.55	24575.62
536.72	24507.75
536.89	24638.82
537.06	24540.52
537.23	24868.19
537.40	24664.57
537.57	24861.17
537.74	24582.65
537.91	24685.63
538.08	25127.99
538.25	24847.13
538.42	25006.28
538.59	25020.33
538.75	24706.70
538.92	25092.88
539.09	25025.01
539.26	24898.62
539.43	24748.82
539.60	25034.37
539.77	24805.00
539.94	25366.73
540.11	24959.47
540.28	25207.57
540.44	25275.45
540.61	24980.54
540.78	25216.93
540.95	25165.44
541.12	25151.40
541.29	25158.42
541.46	25378.43
541.62	25343.32
541.79	25411.20
541.96	25109.27
542.13	25149.06
542.30	25322.26
542.47	25450.99
542.63	26075.91
542.80	25699.08
542.97	25928.45
543.14	25701.42
543.31	25731.85
543.48	25982.29
543.64	26242.09
543.81	25879.30
543.98	26195.28
544.15	26064.21
544.32	25972.92
544.48	26221.02
544.65	26188.25
544.82	26232.72
544.99	25963.56
545.16	26239.75
545.32	25914.41
545.49	26256.13
545.66	26211.66
545.83	26668.06
546.00	26527.63
546.16	26445.71
546.33	26532.31
546.50	26061.87
546.67	26443.37
546.83	26298.26
547.00	26492.52
547.17	26764.03
547.34	26256.13
547.50	26831.90
547.67	26916.16
547.84	26831.90
548.00	26920.84
548.17	26647.00
548.34	26616.57
548.51	27035.53
548.67	26738.28
548.84	26670.40
549.01	26675.09
549.18	26532.31
549.34	26412.95
549.51	26941.91
549.68	26979.36
549.84	26780.41
550.01	27129.15
550.18	26553.38
550.34	27260.22
550.51	26965.31
550.68	26948.93
550.84	26497.20
551.01	26740.62
551.18	26864.67
551.34	26780.41
551.51	26595.51
551.68	27229.79
551.84	27192.34
552.01	27122.13
552.18	27578.53
552.34	27089.36
552.51	27454.48
552.68	27297.67
552.84	27246.18
553.01	27505.98
553.18	27138.51
553.34	27580.87
553.51	27461.51
553.67	27531.72
553.84	27747.05
554.01	27793.86
554.17	27871.10
554.34	27861.74
554.51	27601.94
554.67	27660.45
554.84	27711.94
555.00	27491.93
555.17	27768.12
555.33	27845.35
555.50	28060.68
555.67	27541.08
555.83	27702.58
556.00	27618.32
556.16	28034.94
556.33	27662.79
556.50	27716.62
556.66	27931.95
556.83	27880.46
556.99	28233.88
557.16	28339.21
557.32	28041.96
557.49	28261.97
557.65	27723.65
557.82	27831.31
557.98	27826.63
558.15	28119.20
558.32	27953.02
558.48	28189.41
558.65	28620.07
558.81	28170.69
558.98	28362.61
559.14	28224.52
559.31	27983.44
559.47	28435.17
559.64	28135.58
559.80	28268.99
559.97	28285.37
560.13	27857.06
560.30	28086.43
560.46	28467.94
560.63	27962.38
560.79	28294.74
560.96	28390.70
561.12	28336.87
561.29	28467.94
561.45	28299.42
561.61	28521.77
561.78	28615.39
561.94	28388.36
562.11	28348.57
562.27	28781.57
562.44	28327.50
562.60	28512.41
562.77	28477.30
562.93	28397.72
563.10	28929.02
563.26	28386.02
563.42	28907.96
563.59	28538.15
563.75	28369.63
563.92	28451.55
564.08	28683.27
564.24	28521.77
564.41	28411.76
564.57	28666.88
564.74	28432.83
564.90	28393.04
565.07	28793.27
565.23	28379.00
565.39	28584.96
565.56	28599.01
565.72	28620.07
565.88	28615.39
566.05	28652.84
566.21	28690.29
566.38	28952.43
566.54	28570.92
566.70	29134.99
566.87	28978.17
567.03	28877.53
567.19	28903.28
567.36	28914.98
567.52	28854.12
567.68	29039.03
567.85	28790.93
568.01	28694.97
568.17	29041.37
568.34	28776.89
568.50	28931.36
568.66	28800.29
568.83	29298.83
568.99	28811.99
569.15	28847.10
569.32	28631.77
569.48	28922.00
569.64	28790.93
569.81	29027.32
569.97	28861.15
570.13	29177.12
570.30	28884.55
570.46	29027.32
570.62	29081.16
570.78	29160.73
570.95	28734.76
571.11	28889.23
571.27	28893.91
571.43	28989.88
571.60	29090.52
571.76	28744.12
571.92	29275.42
572.09	29240.31
572.25	29043.71
572.41	29106.90
572.57	29160.73
572.74	29198.18
572.90	28807.31
573.06	28959.45
573.22	28725.39
573.38	29317.55
573.55	28863.49
573.71	29362.02
573.87	29134.99
574.03	29015.62
574.20	29247.33
574.36	29034.35
574.52	29387.77
574.68	29053.07
574.84	28994.56
575.01	29305.85
575.17	29266.06
575.33	28802.63
575.49	29090.52
575.65	29181.80
575.82	29064.77
575.98	29469.69
576.14	29385.43
576.30	29034.35
576.46	29273.08
576.62	29240.31
576.79	29280.10
576.95	29420.53
577.11	29149.03
577.27	29296.49
577.43	29191.16
577.59	29408.83
577.75	29310.53
577.92	28659.86
578.08	29408.83
578.24	28933.70
578.40	29235.63
578.56	29139.67
578.72	29134.99
578.88	29549.26
579.04	29713.10
579.21	29324.57
579.37	29413.51
579.53	29481.39
579.69	29132.65
579.85	29212.23
580.01	29331.59
580.17	29022.64
580.33	29188.82
580.49	29287.12
580.65	29254.36
580.82	29830.13
580.98	29303.51
581.14	29205.20
581.30	29439.26
581.46	29465.00
581.62	29198.18
581.78	29252.02
581.94	29324.57
582.10	29221.59
582.26	29460.32
582.42	29209.89
582.58	29483.73
582.74	29280.10
582.90	29612.46
583.06	29598.41
583.22	29537.56
583.38	29303.51
583.54	29476.71
583.70	29078.82
583.86	29703.74
584.02	29535.22
584.18	29745.87
584.34	29567.99
584.50	29771.61
584.66	29362.02
584.82	29277.76
584.98	29053.07
585.14	29914.39
585.30	29401.81
585.46	29177.12
585.62	29092.86
585.78	29404.15
585.94	29230.95
586.10	29308.19
586.26	29394.79
586.42	29577.35
586.58	29446.28
586.74	29511.81
586.90	29167.76
587.06	29345.64
587.22	29230.95
587.38	29392.45
587.54	29879.28
587.70	29692.04
587.86	29450.96
588.02	30005.67
588.18	29696.72
588.34	29626.50
588.49	29500.11
588.65	29237.97
588.81	29619.48
588.97	29720.12
589.13	29383.09
589.29	29530.54
589.45	29603.10
589.61	29776.30
589.77	30022.05
589.93	29907.37
590.08	30043.12
590.24	29876.94
590.40	29682.67
590.56	29982.26
590.72	29488.41
590.88	29504.79
591.04	29539.90
591.20	30211.64
591.35	30176.53
591.51	30209.29
591.67	30080.56
591.83	30148.44
591.99	29748.21
