SpectraSuite Data File
++++++++++++++++++++++++++++++++++++
Date: Fri Oct 18 13:57:59 GMT-05:00 2013
User: bianchi
Dark Spectrum Present: No
Reference Spectrum Present: No
Number of Sampled Component Spectra: 1
Spectrometers: USB2+H05261
Integration Time (usec): 50000 (USB2+H05261)
Spectra Averaged: 1 (USB2+H05261)
Boxcar Smoothing: 0 (USB2+H05261)
Correct for Electrical Dark: No (USB2+H05261)
Strobe/Lamp Enabled: No (USB2+H05261)
Correct for Detector Non-linearity: No (USB2+H05261)
Correct for Stray Light: No (USB2+H05261)
Number of Pixels in Processed Spectrum: 2048
>>>>>Begin Processed Spectral Data<<<<<
365.73	0.00
365.92	0.00
366.12	0.00
366.32	0.00
366.52	0.00
366.72	0.00
366.91	0.00
367.11	0.00
367.31	0.00
367.51	0.00
367.70	0.00
367.90	0.00
368.10	0.00
368.30	0.00
368.49	0.00
368.69	0.00
368.89	0.00
369.09	0.00
369.28	0.00
369.48	0.00
369.68	0.00
369.87	0.00
370.07	0.00
370.27	0.00
370.47	0.00
370.66	42.13
370.86	114.69
371.06	140.43
371.25	217.67
371.45	140.43
371.65	212.99
371.84	67.88
372.04	147.45
372.24	105.32
372.44	121.71
372.63	100.64
372.83	264.48
373.03	236.39
373.22	227.03
373.42	217.67
373.62	114.69
373.81	283.20
374.01	203.63
374.21	187.24
374.40	196.60
374.60	227.03
374.79	173.20
374.99	205.97
375.19	315.97
375.38	201.29
375.58	212.99
375.78	330.02
375.97	285.55
376.17	348.74
376.37	276.18
376.56	231.71
376.76	215.33
376.95	257.46
377.15	278.52
377.35	287.89
377.54	313.63
377.74	208.31
377.93	234.05
378.13	308.95
378.33	360.44
378.52	264.48
378.72	318.31
378.91	255.12
379.11	297.25
379.31	238.73
379.50	294.91
379.70	322.99
379.89	297.25
380.09	374.49
380.28	339.38
380.48	266.82
380.68	311.29
380.87	257.46
381.07	280.86
381.26	304.27
381.46	301.93
381.65	330.02
381.85	358.10
382.04	276.18
382.24	330.02
382.43	355.76
382.63	332.36
382.83	297.25
383.02	381.51
383.22	374.49
383.41	388.53
383.61	362.78
383.80	425.98
384.00	393.21
384.19	365.12
384.39	327.68
384.58	372.15
384.78	477.47
384.97	463.43
385.17	381.51
385.36	294.91
385.56	379.17
385.75	416.62
385.95	397.89
386.14	407.25
386.34	337.04
386.53	435.34
386.72	341.72
386.92	402.57
387.11	428.32
387.31	381.51
387.50	428.32
387.70	463.43
387.89	390.87
388.09	430.66
388.28	423.64
388.48	400.23
388.67	444.70
388.86	430.66
389.06	493.85
389.25	547.69
389.45	440.02
389.64	505.56
389.84	447.04
390.03	468.11
390.22	454.06
390.42	554.71
390.61	566.41
390.81	545.34
391.00	470.45
391.19	528.96
391.39	512.58
391.58	528.96
391.78	500.87
391.97	550.03
392.16	545.34
392.36	531.30
392.55	601.52
392.75	519.60
392.94	463.43
393.13	552.37
393.33	545.34
393.52	538.32
393.71	543.00
393.91	671.73
394.10	533.64
394.29	601.52
394.49	524.28
394.68	547.69
394.88	622.58
395.07	589.82
395.26	622.58
395.46	585.13
395.65	683.44
395.84	559.39
396.04	613.22
396.23	678.76
396.42	559.39
396.62	746.63
396.81	643.65
397.00	676.41
397.19	657.69
397.39	676.41
397.58	685.78
397.77	641.31
397.97	723.23
398.16	695.14
398.35	695.14
398.55	685.78
398.74	730.25
398.93	772.38
399.12	786.42
399.32	786.42
399.51	697.48
399.70	791.10
399.90	758.33
400.09	805.14
400.28	741.95
400.47	648.33
400.67	798.12
400.86	798.12
401.05	805.14
401.24	802.80
401.44	898.77
401.63	774.72
401.82	784.08
402.01	816.85
402.21	807.48
402.40	800.46
402.59	760.67
402.78	896.43
402.97	882.38
403.17	842.59
403.36	863.66
403.55	880.04
403.74	880.04
403.93	987.71
404.13	919.83
404.32	880.04
404.51	828.55
404.70	933.87
404.89	999.41
405.09	1097.71
405.28	971.32
405.47	987.71
405.66	931.53
405.85	936.21
406.05	1055.58
406.24	1008.77
406.43	1034.52
406.62	1100.05
406.81	1071.97
407.00	987.71
407.20	983.02
407.39	1076.65
407.58	1100.05
407.77	1107.07
407.96	1116.44
408.15	1083.67
408.34	1144.52
408.54	1118.78
408.73	1170.27
408.92	1153.88
409.11	1118.78
409.30	1167.93
409.49	1118.78
409.68	1214.74
409.87	1205.38
410.07	1198.35
410.26	1210.06
410.45	1221.76
410.64	1212.40
410.83	1193.67
411.02	1245.16
411.21	1301.34
411.40	1273.25
411.59	1331.76
411.78	1352.83
411.98	1254.53
412.17	1299.00
412.36	1320.06
412.55	1329.42
412.74	1366.87
412.93	1437.09
413.12	1355.17
413.31	1465.18
413.50	1373.89
413.69	1425.39
413.88	1542.41
414.07	1439.43
414.26	1483.90
414.45	1495.60
414.64	1514.33
414.83	1523.69
415.02	1563.48
415.22	1462.83
415.41	1483.90
415.60	1593.90
415.79	1643.06
415.98	1593.90
416.17	1664.12
416.36	1514.33
416.55	1652.42
416.74	1699.23
416.93	1671.14
417.12	1680.50
417.31	1706.25
417.50	1682.85
417.69	1657.10
417.88	1753.06
418.07	1802.21
418.26	1806.89
418.45	1785.83
418.64	1813.92
418.83	1928.60
419.02	1865.41
419.21	1879.45
419.39	1863.07
419.58	1867.75
419.77	1757.74
419.96	1914.56
420.15	2001.16
420.34	1893.49
420.53	1898.17
420.72	1975.41
420.91	1893.49
421.10	2059.67
421.29	1956.69
421.48	1820.94
421.67	1916.90
421.86	1973.07
422.05	1975.41
422.24	1884.13
422.43	2024.56
422.61	2092.44
422.80	2092.44
422.99	2073.71
423.18	2050.31
423.37	2113.50
423.56	2047.97
423.75	2040.95
423.94	2033.93
424.13	1907.54
424.32	1914.56
424.50	2033.93
424.69	2172.02
424.88	2092.44
425.07	2071.37
425.26	2024.56
425.45	2141.59
425.64	2047.97
425.83	2071.37
426.01	2141.59
426.20	2104.14
426.39	2024.56
426.58	1998.82
426.77	2132.23
426.96	2235.21
427.15	2139.25
427.33	2111.16
427.52	2183.72
427.71	2162.66
427.90	2218.83
428.09	2207.13
428.28	2232.87
428.46	2134.57
428.65	2270.32
428.84	2291.38
429.03	2317.13
429.22	2202.44
429.40	2403.73
429.59	2370.96
429.78	2216.49
429.97	2244.57
430.16	2228.19
430.34	2370.96
430.53	2256.28
430.72	2462.24
430.91	2417.77
431.10	2307.77
431.28	2385.01
431.47	2450.54
431.66	2490.33
431.85	2448.20
432.03	2459.90
432.22	2499.69
432.41	2455.22
432.60	2448.20
432.79	2469.27
432.97	2464.58
433.16	2525.44
433.35	2544.16
433.54	2527.78
433.72	2593.31
433.91	2539.48
434.10	2511.39
434.28	2495.01
434.47	2607.36
434.66	2530.12
434.85	2607.36
435.03	2590.97
435.22	2644.81
435.41	2703.32
435.59	2677.57
435.78	2773.53
435.97	2693.96
436.16	2775.88
436.34	2787.58
436.53	2661.19
436.72	2801.62
436.90	2789.92
437.09	2869.50
437.28	2736.09
437.46	2696.30
437.65	2754.81
437.84	2818.00
438.02	2871.84
438.21	2888.22
438.40	2895.24
438.58	2911.63
438.77	3000.57
438.96	2991.20
439.14	2984.18
439.33	3007.59
439.52	2993.55
439.70	3126.96
439.89	3143.34
440.08	3061.42
440.26	2946.73
440.45	2998.23
440.63	3169.09
440.82	3171.43
441.01	3122.27
441.19	3239.30
441.38	3229.94
441.57	3370.37
441.75	3435.91
441.94	3391.44
442.12	3276.75
442.31	3475.70
442.50	3276.75
442.68	3283.77
442.87	3428.88
443.05	3452.29
443.24	3344.63
443.43	3370.37
443.61	3588.04
443.80	3501.44
443.98	3316.54
444.17	3407.82
444.35	3424.20
444.54	3468.67
444.73	3517.83
444.91	3510.80
445.10	3522.51
445.28	3545.91
445.47	3471.01
445.65	3485.06
445.84	3531.87
446.02	3595.06
446.21	3447.61
446.39	3569.32
446.58	3566.98
446.77	3569.32
446.95	3412.50
447.14	3559.95
447.32	3538.89
447.51	3583.36
447.69	3581.02
447.88	3651.24
448.06	3604.42
448.25	3574.00
448.43	3648.90
448.62	3393.78
448.80	3431.23
448.99	3702.73
449.17	3583.36
449.36	3581.02
449.54	3740.18
449.73	3723.79
449.91	3721.45
450.10	3672.30
450.28	3803.37
450.46	3948.48
450.65	3824.44
450.83	3812.73
451.02	3882.95
451.20	3765.92
451.39	3892.31
451.57	3878.27
451.76	3840.82
451.94	3871.25
452.13	3859.54
452.31	3960.19
452.49	3836.14
452.68	3861.88
452.86	3868.91
453.05	4091.26
453.23	4138.07
453.42	4077.21
453.60	3894.65
453.78	3962.53
453.97	3948.48
454.15	4023.38
454.34	4004.66
454.52	4035.08
454.70	4114.66
454.89	4081.89
455.07	3985.93
455.26	4065.51
455.44	4014.02
455.62	4065.51
455.81	4039.76
455.99	4269.14
456.17	4219.99
456.36	4229.35
456.54	4332.33
456.73	4393.19
456.91	4540.64
457.09	4353.40
457.28	4425.95
457.46	4294.88
457.64	4447.02
457.83	4432.97
458.01	4402.55
458.19	4603.83
458.38	4402.55
458.56	4568.73
458.74	4493.83
458.93	4491.49
459.11	4592.13
459.29	4395.53
459.48	4744.27
459.66	4521.92
459.84	4629.58
460.03	4751.29
460.21	4573.41
460.39	4723.20
460.57	4627.24
460.76	4573.41
460.94	4847.25
461.12	4828.53
461.31	4739.58
461.49	4823.84
461.67	4667.03
461.85	4788.74
462.04	4779.37
462.22	5057.90
462.40	4718.52
462.59	4912.78
462.77	4788.74
462.95	4936.19
463.13	4931.51
463.32	4957.25
463.50	4880.02
463.68	5100.03
463.86	5022.79
464.05	4819.16
464.23	4926.83
464.41	5011.09
464.59	4992.36
464.78	4901.08
464.96	4924.49
465.14	4903.42
465.32	4980.66
465.50	5064.92
465.69	5118.75
465.87	5200.67
466.05	5114.07
466.23	5090.67
466.41	4983.00
466.60	5345.78
466.78	5102.37
466.96	5107.05
467.14	5018.11
467.32	5156.20
467.51	5305.99
467.69	5165.56
467.87	5289.61
468.05	5355.15
468.23	5261.52
468.41	5210.03
468.60	5420.68
468.78	5474.51
468.96	5273.23
469.14	5315.36
469.32	5423.02
469.50	5465.15
469.69	5385.57
469.87	5509.62
470.05	5490.90
470.23	5530.69
470.41	5589.20
470.59	5465.15
470.77	5516.64
470.95	5682.82
471.14	5727.29
471.32	5535.37
471.50	5947.30
471.68	5671.12
471.86	5626.65
472.04	5767.08
472.22	5839.64
472.40	5717.93
472.58	5884.11
472.77	5987.09
472.95	6015.18
473.13	5996.45
473.31	5912.19
473.49	5970.71
473.67	5923.90
473.85	6279.66
474.03	6106.46
474.21	6059.65
474.39	6171.99
474.57	6214.12
474.75	6347.53
474.93	6298.38
475.12	6345.19
475.30	6204.76
475.48	6298.38
475.66	6338.17
475.84	6361.58
476.02	6506.69
476.20	6457.54
476.38	6485.62
476.56	6623.72
476.74	6614.35
476.92	6754.79
477.10	6630.74
477.28	6703.29
477.46	6801.60
477.64	6850.75
477.82	7033.31
478.00	7047.35
478.18	7035.65
478.36	7185.44
478.54	7253.32
478.72	7288.43
478.90	7487.37
479.08	7318.86
479.26	7407.80
479.44	7592.70
479.62	7578.65
479.80	7620.78
479.98	7569.29
480.16	7737.81
480.34	7653.55
480.52	7588.02
480.70	7756.54
480.88	7798.66
481.06	7735.47
481.24	7894.63
481.41	8152.09
481.59	8229.32
481.77	8201.24
481.95	8187.19
482.13	8390.82
482.31	8285.50
482.49	8395.50
482.67	8475.08
482.85	8571.04
483.03	8526.57
483.21	8573.38
483.39	8716.16
483.57	8587.43
483.74	8816.80
483.92	8879.99
484.10	8910.42
484.28	9210.01
484.46	9303.63
484.64	9373.85
484.82	9177.24
485.00	9390.23
485.18	9404.27
485.35	9614.92
485.53	9376.19
485.71	9720.24
485.89	9799.82
486.07	9731.95
486.25	9621.94
486.43	9956.64
486.61	9872.38
486.78	9998.77
486.96	9980.04
487.14	10328.78
487.32	10424.75
487.50	10523.05
487.68	10324.10
487.85	10621.35
488.03	10754.76
488.21	10712.63
488.39	10839.02
488.57	11012.22
488.75	10953.71
488.92	11019.24
489.10	11105.84
489.28	11147.97
489.46	11480.33
489.64	11316.49
489.81	11709.70
489.99	11351.60
490.17	11515.44
490.35	11974.18
490.53	11665.23
490.70	11864.18
490.88	11761.19
491.06	12149.72
491.24	12081.85
491.41	11978.86
491.59	12241.00
491.77	12093.55
491.95	12451.65
492.13	12418.88
492.30	12369.73
492.48	12510.16
492.66	12580.38
492.84	12739.54
493.01	12842.52
493.19	12905.71
493.37	12978.27
493.54	13076.57
493.72	13200.62
493.90	12877.63
494.08	13083.59
494.25	13516.59
494.43	13451.06
494.61	13572.77
494.79	13710.86
494.96	13537.66
495.14	13762.35
495.32	13858.31
495.49	14001.08
495.67	14059.60
495.85	14162.58
496.02	14391.95
496.20	14209.39
496.38	14071.30
496.55	14118.11
496.73	14513.66
496.91	14171.94
497.09	14637.71
497.26	14530.05
497.44	14714.95
497.62	14764.10
497.79	15218.16
497.97	14677.50
498.14	15103.48
498.32	15169.01
498.50	15042.62
498.67	15248.59
498.85	15143.27
499.03	15506.05
499.20	15332.85
499.38	15206.46
499.56	15733.08
499.73	15613.71
499.91	15562.22
500.08	15999.90
500.26	15772.87
500.44	15777.55
500.61	15803.30
500.79	15960.11
500.97	15840.75
501.14	16067.78
501.32	16318.22
501.49	16224.59
501.67	15845.43
501.84	16205.87
502.02	16404.81
502.20	16755.90
502.37	16655.25
502.55	16376.73
502.72	16741.85
502.90	16793.34
503.07	16372.05
503.25	16706.74
503.43	16748.87
503.60	17151.45
503.78	17118.68
503.95	17032.08
504.13	16896.33
504.30	17139.74
504.48	17135.06
504.65	16989.95
504.83	17331.67
505.01	17640.62
505.18	17366.78
505.36	17404.22
505.53	17193.58
505.71	17572.74
505.88	17607.85
506.06	17659.34
506.23	17673.39
506.41	17563.38
506.58	17661.68
506.76	17511.89
506.93	17774.03
507.11	17734.24
507.28	17909.78
507.46	18064.25
507.63	17921.48
507.81	18384.91
507.98	18094.68
508.16	18441.08
508.33	18221.07
508.50	18249.16
508.68	18082.98
508.85	18551.09
509.03	18747.69
509.20	18555.77
509.38	18815.57
509.55	18895.14
509.73	18948.98
509.90	18705.56
510.08	18848.33
510.25	18831.95
510.42	19073.03
510.60	19154.94
510.77	19248.57
510.95	19208.78
511.12	18977.06
511.30	19229.84
511.47	19278.99
511.64	19412.40
511.82	19473.26
511.99	19421.77
512.17	19662.84
512.34	19569.22
512.51	19676.88
512.69	19639.44
512.86	19995.20
513.04	19943.70
513.21	19969.45
513.38	19866.47
513.56	20175.42
513.73	20020.94
513.90	20006.90
514.08	19681.56
514.25	19833.70
514.43	20245.63
514.60	20262.02
514.77	20297.13
514.95	20336.91
515.12	19990.52
515.29	20290.10
515.47	20662.25
515.64	20390.75
515.81	20592.03
515.99	20458.62
516.16	20776.94
516.33	20711.40
516.51	20875.24
516.68	20875.24
516.85	20709.06
517.03	21022.69
517.20	20910.35
517.37	20823.75
517.54	20945.45
517.72	21312.92
517.89	20994.61
518.06	21263.77
518.24	21238.02
518.41	21331.64
518.58	21345.69
518.75	21413.56
518.93	21282.49
519.10	21376.11
519.27	21680.38
519.45	21446.33
519.62	21387.82
519.79	21528.25
519.96	21397.18
520.14	21507.18
520.31	21507.18
520.48	21682.72
520.65	21694.43
520.83	22120.40
521.00	21694.43
521.17	21881.67
521.34	21972.95
521.52	21958.91
521.69	21972.95
521.86	22286.58
522.03	22473.82
522.20	22324.03
522.38	22352.12
522.55	22424.67
522.72	22710.22
522.89	22288.92
523.07	22595.53
523.24	22424.67
523.41	22618.94
523.58	22658.73
523.75	22787.46
523.92	22562.76
524.10	22752.35
524.27	22895.12
524.44	22810.86
524.61	22967.68
524.78	23166.62
524.96	23058.96
525.13	22944.27
525.30	23070.66
525.47	22764.05
525.64	23049.60
525.81	23077.68
525.98	23410.04
526.16	23353.87
526.33	23552.81
526.50	23295.35
526.67	23173.64
526.84	23498.98
527.01	23655.79
527.18	23496.64
527.36	23641.75
527.53	23840.70
527.70	24030.28
527.87	23660.48
528.04	23784.52
528.21	23988.15
528.38	23828.99
528.55	23948.36
528.72	23290.67
528.89	23866.44
529.07	23786.86
529.24	24276.04
529.41	23990.49
529.58	24006.87
529.75	24137.94
529.92	24137.94
530.09	24130.92
530.26	24474.98
530.43	24512.43
530.60	24013.90
530.77	24086.45
530.94	24561.58
531.11	24353.27
531.28	24435.19
531.46	24528.81
531.63	24542.86
531.80	24402.43
531.97	24734.78
532.14	24886.92
532.31	24496.05
532.48	24393.06
532.65	24842.45
532.82	24615.41
532.99	24922.02
533.16	24725.42
533.33	24900.96
533.50	25132.67
533.67	25256.72
533.84	24877.55
534.01	24973.52
534.18	24912.66
534.35	25151.40
534.52	25071.82
534.69	25317.57
534.86	25458.01
535.03	24978.20
535.20	25212.25
535.37	25528.22
535.54	25247.36
535.71	25348.00
535.88	25469.71
536.05	25104.59
536.22	25481.41
536.38	26003.35
536.55	25687.38
536.72	25804.41
536.89	25500.14
537.06	25645.25
537.23	25933.14
537.40	25736.53
537.57	25614.82
537.74	25935.48
537.91	25905.05
538.08	26008.03
538.25	25621.84
538.42	25916.75
538.59	25687.38
538.75	25816.11
538.92	25912.07
539.09	25783.34
539.26	26045.48
539.43	26309.96
539.60	26242.09
539.77	25942.50
539.94	26335.71
540.11	26148.46
540.28	25965.90
540.44	26059.52
540.61	26485.50
540.78	26293.58
540.95	26284.22
541.12	26658.70
541.29	26232.72
541.46	26450.39
541.62	26195.28
541.79	26504.23
541.96	26462.10
542.13	26279.54
542.30	26253.79
542.47	26602.53
542.63	26897.44
542.80	26469.12
542.97	26962.97
543.14	27253.20
543.31	26897.44
543.48	26960.63
543.64	27117.45
543.81	27353.84
543.98	27337.46
544.15	27215.75
544.32	27517.68
544.48	27709.60
544.65	27187.66
544.82	27257.88
544.99	27435.76
545.16	27342.14
545.32	27292.99
545.49	27658.11
545.66	27428.74
545.83	27257.88
546.00	27215.75
546.16	27674.49
546.33	26967.65
546.50	27260.22
546.67	27475.55
546.83	27035.53
547.00	27035.53
547.17	27222.77
547.34	27623.00
547.50	27690.88
547.67	27978.76
547.84	27831.31
548.00	27871.10
548.17	27725.99
548.34	28102.81
548.51	27929.61
548.67	28112.17
548.84	27744.71
549.01	27756.41
549.18	27892.16
549.34	27812.59
549.51	27931.95
549.68	28357.93
549.84	27838.33
550.01	28252.61
550.18	28257.29
550.34	28084.09
550.51	28222.18
550.68	28112.17
550.84	28093.45
551.01	28191.75
551.18	27995.15
551.34	27957.70
551.51	28577.94
551.68	28458.57
551.84	28383.68
552.01	28278.35
552.18	28744.12
552.34	28659.86
552.51	28868.17
552.68	28287.71
552.84	28259.63
553.01	28528.79
553.18	28510.07
553.34	28849.44
553.51	28545.17
553.67	28907.96
553.84	29156.05
554.01	28819.02
554.17	29057.75
554.34	28739.44
554.51	28655.18
554.67	29099.88
554.84	28744.12
555.00	28840.08
555.17	28891.57
555.33	28514.75
555.50	28847.10
555.67	28645.82
555.83	29095.20
556.00	29006.26
556.16	29233.29
556.33	29254.36
556.50	28837.74
556.66	29092.86
556.83	29343.30
556.99	29357.34
557.16	29481.39
557.32	29413.51
557.49	29462.66
557.65	29097.54
557.82	28903.28
557.98	28968.81
558.15	29078.82
558.32	29465.00
558.48	29298.83
558.65	29369.04
558.81	29191.16
558.98	29214.57
559.14	29289.46
559.31	29493.09
559.47	29256.70
559.64	29624.16
559.80	29256.70
559.97	29593.73
560.13	29434.58
560.30	29467.34
560.46	29755.23
560.63	29268.40
560.79	29743.53
560.96	29855.87
561.12	29385.43
561.29	29481.39
561.45	29638.20
561.61	30125.04
561.78	29745.87
561.94	29748.21
562.11	29823.11
562.27	29322.23
562.44	29888.64
562.60	29497.77
562.77	29605.44
562.93	29525.86
563.10	30012.69
563.26	29692.04
563.42	30082.91
563.59	29883.96
563.75	29701.40
563.92	29486.07
564.08	30171.85
564.24	29635.86
564.41	29968.22
564.57	29399.47
564.74	29715.44
564.90	29860.55
565.07	29771.61
565.23	30242.06
565.39	29792.68
565.56	29811.40
565.72	29792.68
565.88	29811.40
566.05	29818.42
566.21	29724.80
566.38	30040.78
566.54	29839.49
566.70	30253.76
566.87	30192.91
567.03	30352.07
567.19	30642.29
567.36	30323.98
567.52	30197.59
567.68	30068.86
567.85	29914.39
568.01	30293.55
568.17	30178.87
568.34	30506.54
568.50	30539.31
568.66	30288.87
568.83	30277.17
568.99	30492.50
569.15	30349.73
569.32	30295.89
569.48	29928.43
569.64	30302.92
569.81	30300.58
569.97	30401.22
570.13	30373.13
570.30	29916.73
570.46	30099.29
570.62	30506.54
570.78	29942.47
570.95	30087.59
571.11	30342.70
571.27	30110.99
571.43	30221.00
571.60	30567.40
571.76	30192.91
571.92	30213.98
572.09	30375.47
572.25	30429.30
572.41	30546.33
572.57	30408.24
572.74	30431.65
572.90	30197.59
573.06	30279.51
573.22	30230.36
573.38	30270.15
573.55	30405.90
573.71	30909.11
573.87	30686.76
574.03	30295.89
574.20	30448.03
574.36	30274.83
574.52	30476.12
574.68	30319.30
574.84	30857.62
575.01	30625.91
575.17	30417.60
575.33	30621.23
575.49	30569.74
575.65	30656.34
575.82	30331.00
575.98	30529.95
576.14	30298.23
576.30	30635.27
576.46	30316.96
576.62	30768.68
576.79	30483.14
576.95	30253.76
577.11	30572.08
577.27	30621.23
577.43	30719.53
577.59	30424.62
577.75	30513.56
577.92	30668.04
578.08	30338.02
578.24	30244.40
578.40	30370.79
578.56	30890.39
578.72	31002.74
578.88	30803.79
579.04	30895.07
579.21	30466.75
579.37	30920.82
579.53	30813.15
579.69	30443.35
579.85	30558.03
580.01	30759.32
580.17	30298.23
580.33	30623.57
580.49	30466.75
580.65	30773.36
580.82	30637.61
580.98	30838.90
581.14	30888.05
581.30	30668.04
581.46	30260.79
581.62	30471.43
581.78	30321.64
581.94	30588.46
582.10	30513.56
582.26	30801.45
582.42	30726.55
582.58	31061.25
582.74	30654.00
582.90	30452.71
583.06	31150.19
583.22	30342.70
583.38	30668.04
583.54	31096.36
583.70	30733.57
583.86	30752.30
584.02	30644.63
584.18	30883.37
584.34	30927.84
584.50	30862.30
584.66	30967.63
584.82	30824.86
584.98	30876.35
585.14	30857.62
585.30	30242.06
585.46	30705.49
585.62	30452.71
585.78	30534.63
585.94	31328.07
586.10	30782.73
586.26	30801.45
586.42	31068.27
586.58	31112.74
586.74	31049.55
586.90	30525.27
587.06	30333.34
587.22	30600.16
587.38	30707.83
587.54	31150.19
587.70	31182.96
587.86	30934.86
588.02	31079.97
588.18	31351.48
588.34	30824.86
588.49	30801.45
588.65	30719.53
588.81	30841.24
588.97	31042.53
589.13	31035.50
589.29	30946.56
589.45	30939.54
589.61	31136.15
589.77	31409.99
589.93	31180.62
590.08	31304.67
590.24	31211.04
590.40	30815.49
590.56	31281.26
590.72	30883.37
590.88	30866.98
591.04	31222.75
591.20	31168.91
591.35	31154.87
591.51	31559.78
591.67	31452.12
591.83	31405.31
591.99	31522.34
