SpectraSuite Data File
++++++++++++++++++++++++++++++++++++
Date: Fri Oct 18 13:57:59 GMT-05:00 2013
User: bianchi
Dark Spectrum Present: No
Reference Spectrum Present: No
Number of Sampled Component Spectra: 1
Spectrometers: USB2+H05261
Integration Time (usec): 50000 (USB2+H05261)
Spectra Averaged: 1 (USB2+H05261)
Boxcar Smoothing: 0 (USB2+H05261)
Correct for Electrical Dark: No (USB2+H05261)
Strobe/Lamp Enabled: No (USB2+H05261)
Correct for Detector Non-linearity: No (USB2+H05261)
Correct for Stray Light: No (USB2+H05261)
Number of Pixels in Processed Spectrum: 2048
>>>>>Begin Processed Spectral Data<<<<<
365.73	0.00
365.92	0.00
366.12	0.00
366.32	0.00
366.52	0.00
366.72	0.00
366.91	0.00
367.11	0.00
367.31	0.00
367.51	0.00
367.70	0.00
367.90	0.00
368.10	0.00
368.30	0.00
368.49	0.00
368.69	0.00
368.89	0.00
369.09	0.00
369.28	0.00
369.48	0.00
369.68	0.00
369.87	0.00
370.07	0.00
370.27	0.00
370.47	0.00
370.66	58.51
370.86	105.32
371.06	168.52
371.25	128.73
371.45	100.64
371.65	95.96
371.84	100.64
372.04	173.20
372.24	210.65
372.44	105.32
372.63	224.69
372.83	194.26
373.03	182.56
373.22	177.88
373.42	205.97
373.62	220.01
373.81	175.54
374.01	224.69
374.21	266.82
374.40	168.52
374.60	259.80
374.79	248.10
374.99	210.65
375.19	234.05
375.38	205.97
375.58	290.23
375.78	245.76
375.97	334.70
376.17	236.39
376.37	287.89
376.56	266.82
376.76	231.71
376.95	290.23
377.15	262.14
377.35	248.10
377.54	257.46
377.74	271.50
377.93	248.10
378.13	283.20
378.33	266.82
378.52	292.57
378.72	224.69
378.91	273.84
379.11	205.97
379.31	236.39
379.50	262.14
379.70	358.10
379.89	348.74
380.09	280.86
380.28	245.76
380.48	299.59
380.68	341.72
380.87	290.23
381.07	344.06
381.26	269.16
381.46	306.61
381.65	337.04
381.85	304.27
382.04	269.16
382.24	409.59
382.43	400.23
382.63	386.19
382.83	397.89
383.02	421.30
383.22	402.57
383.41	297.25
383.61	308.95
383.80	325.33
384.00	402.57
384.19	393.21
384.39	325.33
384.58	444.70
384.78	353.42
384.97	428.32
385.17	353.42
385.36	414.27
385.56	421.30
385.75	341.72
385.95	428.32
386.14	379.17
386.34	433.00
386.53	390.87
386.72	454.06
386.92	440.02
387.11	416.62
387.31	425.98
387.50	409.59
387.70	400.23
387.89	449.38
388.09	428.32
388.28	514.92
388.48	442.36
388.67	470.45
388.86	461.09
389.06	465.77
389.25	451.72
389.45	458.74
389.64	458.74
389.84	414.27
390.03	465.77
390.22	531.30
390.42	517.26
390.61	547.69
390.81	514.92
391.00	498.53
391.19	587.47
391.39	479.81
391.58	575.77
391.78	543.00
391.97	575.77
392.16	585.13
392.36	566.41
392.55	561.73
392.75	517.26
392.94	603.86
393.13	596.84
393.33	545.34
393.52	510.24
393.71	535.98
393.91	610.88
394.10	596.84
394.29	543.00
394.49	603.86
394.68	631.94
394.88	620.24
395.07	552.37
395.26	727.91
395.46	610.88
395.65	685.78
395.84	690.46
396.04	629.60
396.23	629.60
396.42	603.86
396.62	538.32
396.81	636.63
397.00	624.92
397.19	732.59
397.39	716.20
397.58	730.25
397.77	739.61
397.97	711.52
398.16	713.86
398.35	692.80
398.55	723.23
398.74	709.18
398.93	746.63
399.12	772.38
399.32	645.99
399.51	788.76
399.70	777.06
399.90	662.37
400.09	781.74
400.28	800.46
400.47	739.61
400.67	695.14
400.86	758.33
401.05	755.99
401.24	826.21
401.44	842.59
401.63	755.99
401.82	795.78
402.01	828.55
402.21	854.30
402.40	830.89
402.59	812.17
402.78	795.78
402.97	844.93
403.17	809.83
403.36	901.11
403.55	833.23
403.74	898.77
403.93	842.59
404.13	898.77
404.32	1011.11
404.51	912.81
404.70	999.41
404.89	922.17
405.09	971.32
405.28	936.21
405.47	976.00
405.66	954.94
405.85	994.73
406.05	983.02
406.24	973.66
406.43	971.32
406.62	1020.47
406.81	1111.75
407.00	945.58
407.20	1083.67
407.39	1050.90
407.58	1053.24
407.77	1018.13
407.96	1090.69
408.15	1132.82
408.34	1100.05
408.54	1053.24
408.73	1039.20
408.92	1149.20
409.11	1193.67
409.30	1142.18
409.49	1240.48
409.68	1139.84
409.87	1167.93
410.07	1207.72
410.26	1191.33
410.45	1188.99
410.64	1203.04
410.83	1196.01
411.02	1217.08
411.21	1268.57
411.40	1341.13
411.59	1345.81
411.78	1273.25
411.98	1331.76
412.17	1280.27
412.36	1310.70
412.55	1317.72
412.74	1458.15
412.93	1465.18
413.12	1425.39
413.31	1385.60
413.50	1416.02
413.69	1493.26
413.88	1432.41
414.07	1427.73
414.26	1448.79
414.45	1401.98
414.64	1486.24
414.83	1446.45
415.02	1577.52
415.22	1575.18
415.41	1640.72
415.60	1596.25
415.79	1582.20
415.98	1584.54
416.17	1565.82
416.36	1640.72
416.55	1605.61
416.74	1710.93
416.93	1617.31
417.12	1741.36
417.31	1612.63
417.50	1666.46
417.69	1767.10
417.88	1743.70
418.07	1710.93
418.26	1842.00
418.45	1802.21
418.64	1877.11
418.83	1783.49
419.02	1949.67
419.21	1870.09
419.39	1771.79
419.58	1799.87
419.77	1802.21
419.96	1849.02
420.15	1959.03
420.34	1849.02
420.53	1970.73
420.72	1888.81
420.91	1902.86
421.10	1914.56
421.29	2057.33
421.48	1879.45
421.67	1980.09
421.86	1872.43
422.05	1966.05
422.24	1975.41
422.43	1996.48
422.61	2026.90
422.80	2090.10
422.99	2001.16
423.18	2097.12
423.37	2026.90
423.56	2059.67
423.75	2029.24
423.94	2033.93
424.13	1867.75
424.32	1984.77
424.50	2083.08
424.69	2076.06
424.88	2127.55
425.07	2062.01
425.26	2143.93
425.45	2176.70
425.64	2104.14
425.83	2024.56
426.01	2120.53
426.20	2045.63
426.39	2019.88
426.58	2080.74
426.77	2165.00
426.96	2136.91
427.15	2045.63
427.33	2237.55
427.52	2125.21
427.71	2242.23
427.90	2153.29
428.09	2202.44
428.28	2193.08
428.46	2190.74
428.65	2122.87
428.84	2312.45
429.03	2314.79
429.22	2209.47
429.40	2286.70
429.59	2293.72
429.78	2228.19
429.97	2211.81
430.16	2275.00
430.34	2424.80
430.53	2478.63
430.72	2401.39
430.91	2214.15
431.10	2305.43
431.28	2333.51
431.47	2392.03
431.66	2356.92
431.85	2303.09
432.03	2551.18
432.22	2574.59
432.41	2459.90
432.60	2471.61
432.79	2525.44
432.97	2450.54
433.16	2415.43
433.35	2473.95
433.54	2490.33
433.72	2581.61
433.91	2497.35
434.10	2534.80
434.28	2455.22
434.47	2567.57
434.66	2602.68
434.85	2717.36
435.03	2705.66
435.22	2679.91
435.41	2764.17
435.59	2700.98
435.78	2600.34
435.97	2649.49
436.16	2712.68
436.34	2745.45
436.53	2733.75
436.72	2869.50
436.90	2644.81
437.09	2803.96
437.28	2656.51
437.46	2740.77
437.65	2909.29
437.84	2740.77
438.02	2691.62
438.21	2869.50
438.40	2759.49
438.58	2935.03
438.77	3012.27
438.96	2853.11
439.14	2942.05
439.33	3028.65
439.52	3141.00
439.70	2979.50
439.89	3070.78
440.08	3052.06
440.26	3016.95
440.45	3103.55
440.63	3077.80
440.82	3169.09
441.01	3213.56
441.19	3159.72
441.38	3173.77
441.57	3398.46
441.75	3141.00
441.94	3258.03
442.12	3295.47
442.31	3361.01
442.50	3258.03
442.68	3421.86
442.87	3412.50
443.05	3438.25
443.24	3489.74
443.43	3447.61
443.61	3403.14
443.80	3576.34
443.98	3541.23
444.17	3332.92
444.35	3475.70
444.54	3452.29
444.73	3438.25
444.91	3555.27
445.10	3440.59
445.28	3517.83
445.47	3407.82
445.65	3463.99
445.84	3454.63
446.02	3566.98
446.21	3543.57
446.39	3552.93
446.58	3604.42
446.77	3639.53
446.95	3466.33
447.14	3485.06
447.32	3613.79
447.51	3520.17
447.69	3700.39
447.88	3625.49
448.06	3590.38
448.25	3485.06
448.43	3574.00
448.62	3562.30
448.80	3585.70
448.99	3595.06
449.17	3754.22
449.36	3801.03
449.54	3625.49
449.73	3751.88
449.91	3850.18
450.10	3861.88
450.28	3819.75
450.46	3796.35
450.65	3794.01
450.83	3758.90
451.02	3733.15
451.20	3833.80
451.39	3953.16
451.57	3899.33
451.76	3775.28
451.94	3892.31
452.13	3948.48
452.31	4100.62
452.49	3843.16
452.68	3847.84
452.86	4042.11
453.05	3948.48
453.23	4049.13
453.42	3995.29
453.60	3976.57
453.78	4084.23
453.97	3992.95
454.15	3978.91
454.34	3918.06
454.52	4086.58
454.70	4117.00
454.89	4175.52
455.07	4138.07
455.26	4163.81
455.44	4081.89
455.62	4177.86
455.81	4149.77
455.99	4259.78
456.17	4138.07
456.36	4191.90
456.54	4166.15
456.73	4182.54
456.91	4479.79
457.09	4379.14
457.28	4557.02
457.46	4360.42
457.64	4496.17
457.83	4484.47
458.01	4407.23
458.19	4482.13
458.38	4390.84
458.56	4582.77
458.74	4575.75
458.93	4484.47
459.11	4344.03
459.29	4566.39
459.48	4606.17
459.66	4615.54
459.84	4674.05
460.03	4737.24
460.21	4634.26
460.39	4662.35
460.57	4746.61
460.76	4725.54
460.94	4730.22
461.12	4727.88
461.31	4669.37
461.49	4603.83
461.67	4971.30
461.85	4903.42
462.04	4863.63
462.22	5111.73
462.40	4868.31
462.59	4725.54
462.77	4762.99
462.95	5025.13
463.13	4931.51
463.32	4854.27
463.50	4968.96
463.68	4966.62
463.86	4905.76
464.05	4919.81
464.23	4781.71
464.41	5177.26
464.59	5093.01
464.78	5057.90
464.96	5121.09
465.14	4959.60
465.32	5174.92
465.50	5172.58
465.69	4966.62
465.87	5027.47
466.05	5067.26
466.23	5076.62
466.41	5158.54
466.60	5231.10
466.78	5095.35
466.96	5179.61
467.14	5156.20
467.32	5214.71
467.51	5245.14
467.69	5252.16
467.87	5160.88
468.05	5303.65
468.23	5366.85
468.41	5369.19
468.60	5231.10
468.78	5322.38
468.96	5242.80
469.14	5411.32
469.32	5500.26
469.50	5327.06
469.69	5481.53
469.87	5645.37
470.05	5621.97
470.23	5385.57
470.41	5708.57
470.59	5547.07
470.77	5572.82
470.95	5631.33
471.14	5724.95
471.32	5774.10
471.50	5935.60
471.68	5844.32
471.86	5579.84
472.04	5762.40
472.22	5928.58
472.40	5795.17
472.58	5954.32
472.77	5757.72
472.95	5973.05
473.13	6197.74
473.31	6052.63
473.49	5748.36
473.67	5921.56
473.85	5902.83
474.03	6141.57
474.21	6162.63
474.39	6179.01
474.57	6174.33
474.75	6270.30
474.93	6277.32
475.12	6326.47
475.30	6249.23
475.48	6520.73
475.66	6420.09
475.84	6326.47
476.02	6298.38
476.20	6537.12
476.38	6590.95
476.56	6663.51
476.74	6661.16
476.92	6698.61
477.10	6675.21
477.28	6920.96
477.46	6867.13
477.64	6864.79
477.82	7028.63
478.00	7227.57
478.18	7000.54
478.36	7349.28
478.54	7356.30
478.72	7073.10
478.90	7283.75
479.08	7442.90
479.26	7382.05
479.44	7377.37
479.62	7641.85
479.80	7351.62
479.98	7527.16
480.16	7782.28
480.34	7707.38
480.52	7693.34
480.70	7709.72
480.88	7871.22
481.06	7737.81
481.24	7875.90
481.41	8044.42
481.59	7955.48
481.77	8138.04
481.95	8250.39
482.13	8313.58
482.31	8201.24
482.49	8418.91
482.67	8489.12
482.85	8774.67
483.03	8645.94
483.21	8711.47
483.39	8568.70
483.57	8732.54
483.74	8805.10
483.92	8695.09
484.10	8863.61
484.28	9137.45
484.46	9132.77
484.64	9334.06
484.82	9172.56
485.00	9411.29
485.18	9441.72
485.35	9745.99
485.53	9591.52
485.71	9619.60
485.89	9736.63
486.07	9790.46
486.25	9825.57
486.43	9830.25
486.61	9839.61
486.78	9977.70
486.96	10197.71
487.14	10253.89
487.32	10202.40
487.50	10333.47
487.68	10509.01
487.85	10551.14
488.03	10579.22
488.21	10822.64
488.39	10775.83
488.57	10946.69
488.75	10918.60
488.92	11126.91
489.10	11201.80
489.28	11325.85
489.46	11367.98
489.64	11473.31
489.81	11473.31
489.99	11597.35
490.17	11667.57
490.35	11770.55
490.53	11800.98
490.70	11946.09
490.88	11756.51
491.06	11882.90
491.24	11899.28
491.41	12004.61
491.59	11999.93
491.77	12409.52
491.95	12304.20
492.13	12407.18
492.30	12594.42
492.48	12657.62
492.66	12601.44
492.84	12599.10
493.01	12624.85
493.19	13095.30
493.37	13095.30
493.54	13083.59
493.72	13495.53
493.90	13118.70
494.08	13359.78
494.25	13341.05
494.43	13486.17
494.61	13521.27
494.79	13858.31
494.96	13556.38
495.14	13624.26
495.32	13867.67
495.49	13914.48
495.67	13963.64
495.85	14127.47
496.02	14162.58
496.20	14235.14
496.38	14265.57
496.55	14195.35
496.73	14726.65
496.91	14335.78
497.09	14583.88
497.26	14860.06
497.44	14628.35
497.62	14956.02
497.79	14803.89
497.97	15030.92
498.14	15332.85
498.32	15089.43
498.50	15208.80
498.67	15419.45
498.85	15222.84
499.03	15623.08
499.20	15426.47
499.38	15431.15
499.56	15550.52
499.73	15552.86
499.91	15723.72
500.08	15609.03
500.26	15651.16
500.44	15555.20
500.61	15796.28
500.79	15903.94
500.97	15978.84
501.14	16128.63
501.32	16582.70
501.49	16334.60
501.67	15807.98
501.84	16046.71
502.02	16280.77
502.20	16500.78
502.37	16652.91
502.55	16751.21
502.72	16685.68
502.90	16470.35
503.07	16629.51
503.25	16702.06
503.43	16606.10
503.60	16964.20
503.78	16940.80
503.95	16774.62
504.13	17041.44
504.30	16980.59
504.48	17027.40
504.65	17128.04
504.83	17191.23
505.01	17551.68
505.18	17219.32
505.36	17633.60
505.53	17544.66
505.71	17472.10
505.88	17462.74
506.06	17329.33
506.23	17914.46
506.41	17692.11
506.58	17717.86
506.76	17839.56
506.93	17930.84
507.11	17764.67
507.28	18029.15
507.46	17987.02
507.63	17935.53
507.81	18277.24
507.98	17994.04
508.16	18228.09
508.33	18279.58
508.50	18251.50
508.68	18380.23
508.85	18508.96
509.03	18380.23
509.20	18829.61
509.38	18845.99
509.55	18888.12
509.73	18927.91
509.90	18747.69
510.08	18918.55
510.25	19225.16
510.42	19030.90
510.60	19367.93
510.77	19342.19
510.95	19286.01
511.12	18956.00
511.30	18757.05
511.47	19171.33
511.64	19091.75
511.82	19337.51
511.99	19578.58
512.17	19726.04
512.34	19309.42
512.51	19653.48
512.69	19419.42
512.86	19527.09
513.04	20023.28
513.21	19871.15
513.38	19974.13
513.56	19964.77
513.73	19857.10
513.90	19960.09
514.08	19962.43
514.25	20107.54
514.43	20116.90
514.60	20224.57
514.77	20196.48
514.95	20650.55
515.12	20266.70
515.29	20327.55
515.47	20587.35
515.64	20638.84
515.81	20432.88
515.99	20664.59
516.16	20613.10
516.33	20734.81
516.51	21235.68
516.68	20575.65
516.85	21043.76
517.03	21050.78
517.20	21018.01
517.37	21046.10
517.54	20936.09
517.72	21048.44
517.89	20903.32
518.06	21247.38
518.24	21532.93
518.41	21029.71
518.58	21151.42
518.75	21404.20
518.93	21631.23
519.10	21355.05
519.27	21640.59
519.45	21336.32
519.62	21261.43
519.79	21553.99
519.96	21319.94
520.14	21757.62
520.31	22033.80
520.48	22118.06
520.65	21876.99
520.83	21879.33
521.00	21933.16
521.17	21851.24
521.34	22120.40
521.52	22305.31
521.69	22246.79
521.86	22181.26
522.03	22684.47
522.20	22094.66
522.38	22513.61
522.55	22242.11
522.72	22539.36
522.89	22654.05
523.07	22621.28
523.24	22504.25
523.41	22647.02
523.58	22614.26
523.75	22731.28
523.92	22668.09
524.10	22513.61
524.27	22768.73
524.44	22888.10
524.61	22796.82
524.78	23122.15
524.96	22965.34
525.13	22925.55
525.30	23126.83
525.47	23070.66
525.64	23007.47
525.81	23178.33
525.98	23452.17
526.16	23323.44
526.33	23456.85
526.50	23400.68
526.67	23496.64
526.84	23580.90
527.01	23316.42
527.18	23386.63
527.36	23697.92
527.53	23821.97
527.70	23819.63
527.87	23784.52
528.04	23599.62
528.21	24063.05
528.38	23688.56
528.55	24013.90
528.72	23939.00
528.89	24091.13
529.07	23772.82
529.24	24027.94
529.41	24107.52
529.58	23950.70
529.75	24119.22
529.92	24233.91
530.09	24013.90
530.26	24147.31
530.43	24690.31
530.60	24261.99
530.77	24388.38
530.94	24582.65
531.11	24430.51
531.28	24746.48
531.46	24360.30
531.63	24753.51
531.80	24596.69
531.97	24470.30
532.14	24596.69
532.31	24362.64
532.48	25130.33
532.65	25069.48
532.82	24638.82
532.99	24830.74
533.16	24582.65
533.33	24699.67
533.50	25053.09
533.67	24926.71
533.84	24929.05
534.01	24769.89
534.18	24830.74
534.35	25053.09
534.52	24947.77
534.69	25497.80
534.86	25401.83
535.03	25233.32
535.20	25230.98
535.37	25378.43
535.54	25048.41
535.71	25249.70
535.88	25483.75
536.05	25390.13
536.22	25724.83
536.38	25589.08
536.55	25809.09
536.72	25340.98
536.89	25376.09
537.06	25659.29
537.23	25811.43
537.40	25626.53
537.57	25633.55
537.74	25624.18
537.91	26078.25
538.08	25701.42
538.25	25692.06
538.42	26008.03
538.59	26209.32
538.75	25649.93
538.92	25834.83
539.09	26057.18
539.26	25619.50
539.43	25642.91
539.60	26345.07
539.77	26263.15
539.94	25895.69
540.11	26239.75
540.28	25998.67
540.44	25951.86
540.61	26115.70
540.78	25970.58
540.95	26316.98
541.12	26345.07
541.29	26614.23
541.46	26338.05
541.62	26370.82
541.79	26370.82
541.96	26190.59
542.13	26422.31
542.30	26822.54
542.47	26551.04
542.63	26984.04
542.80	26654.02
542.97	26948.93
543.14	27098.72
543.31	27042.55
543.48	27175.96
543.64	27267.24
543.81	27019.14
543.98	27255.54
544.15	27166.60
544.32	27393.63
544.48	27248.52
544.65	27241.50
544.82	27232.13
544.99	27206.39
545.16	27325.75
545.32	27051.91
545.49	27503.64
545.66	27578.53
545.83	27419.38
546.00	27711.94
546.16	27337.46
546.33	27623.00
546.50	27400.65
546.67	27470.87
546.83	27742.37
547.00	27615.98
547.17	27672.15
547.34	27433.42
547.50	27807.90
547.67	28030.26
547.84	27819.61
548.00	27711.94
548.17	28039.62
548.34	27501.29
548.51	28070.04
548.67	28137.92
548.84	27814.93
549.01	27763.43
549.18	27894.50
549.34	27899.19
549.51	28126.22
549.68	28086.43
549.84	28102.81
550.01	27838.33
550.18	27733.01
550.34	28421.13
550.51	28336.87
550.68	28863.49
550.84	28383.68
551.01	28421.13
551.18	27885.14
551.34	28236.22
551.51	28126.22
551.68	28231.54
551.84	28252.61
552.01	28463.25
552.18	28730.08
552.34	28428.15
552.51	28374.31
552.68	28542.83
552.84	28577.94
553.01	28503.04
553.18	28786.25
553.34	28971.15
553.51	29008.60
553.67	28615.39
553.84	28713.69
554.01	28470.28
554.17	28945.41
554.34	28919.66
554.51	28467.94
554.67	29055.41
554.84	28760.50
555.00	29174.78
555.17	28662.20
555.33	29193.50
555.50	29120.95
555.67	28882.21
555.83	28987.53
556.00	28847.10
556.16	29280.10
556.33	29118.60
556.50	29160.73
556.66	29317.55
556.83	28973.49
556.99	29048.39
557.16	29457.98
557.32	29340.96
557.49	29003.92
557.65	28964.13
557.82	29252.02
557.98	29024.98
558.15	29275.42
558.32	29216.91
558.48	29289.46
558.65	29734.17
558.81	29722.46
558.98	29345.64
559.14	29387.77
559.31	29273.08
559.47	28989.88
559.64	29287.12
559.80	29745.87
559.97	29584.37
560.13	29453.30
560.30	29886.30
560.46	29338.62
560.63	29577.35
560.79	29759.91
560.96	29385.43
561.12	29685.01
561.29	29577.35
561.45	29378.40
561.61	29652.25
561.78	29640.54
561.94	30005.67
562.11	29757.57
562.27	29972.90
562.44	29465.00
562.60	29687.36
562.77	29589.05
562.93	29771.61
563.10	29532.88
563.26	29663.95
563.42	29806.72
563.59	30476.12
563.75	30213.98
563.92	30010.35
564.08	29905.02
564.24	29879.28
564.41	29869.92
564.57	29832.47
564.74	29902.68
564.90	30136.74
565.07	29874.60
565.23	30092.27
565.39	29881.62
565.56	29696.72
565.72	30190.57
565.88	29652.25
566.05	29628.84
566.21	30398.88
566.38	30092.27
566.54	29986.94
566.70	29818.42
566.87	30363.77
567.03	30469.09
567.19	30188.23
567.36	30436.33
567.52	29743.53
567.68	30473.78
567.85	29912.05
568.01	30230.36
568.17	30209.29
568.34	30211.64
568.50	30314.62
568.66	30391.86
568.83	30345.05
568.99	30171.85
569.15	30316.96
569.32	30047.80
569.48	30256.11
569.64	30274.83
569.81	30433.99
569.97	30363.77
570.13	30345.05
570.30	30270.15
570.46	30150.78
570.62	30501.86
570.78	30536.97
570.95	30487.82
571.11	30590.80
571.27	29984.60
571.43	29928.43
571.60	30253.76
571.76	30190.57
571.92	30118.01
572.09	30551.01
572.25	30354.41
572.41	30288.87
572.57	30558.03
572.74	30279.51
572.90	30033.75
573.06	30403.56
573.22	30284.19
573.38	30490.16
573.55	30286.53
573.71	30593.14
573.87	30614.21
574.03	30403.56
574.20	30504.20
574.36	30663.36
574.52	30656.34
574.68	30536.97
574.84	30513.56
575.01	30600.16
575.17	30553.35
575.33	30293.55
575.49	30164.82
575.65	30756.98
575.82	30794.43
575.98	30525.27
576.14	30658.68
576.30	30384.83
576.46	30403.56
576.62	30171.85
576.79	30682.08
576.95	30403.56
577.11	30780.39
577.27	30700.81
577.43	30700.81
577.59	30281.85
577.75	30515.90
577.92	30143.76
578.08	30595.48
578.24	30302.92
578.40	30698.47
578.56	31180.62
578.72	30799.11
578.88	30824.86
579.04	30986.35
579.21	30778.04
579.37	30993.37
579.53	30543.99
579.69	30558.03
579.85	30644.63
580.01	30604.84
580.17	30361.43
580.33	30773.36
580.49	30630.59
580.65	30916.14
580.82	30904.43
580.98	30675.06
581.14	30295.89
581.30	30771.02
581.46	30656.34
581.62	30543.99
581.78	30836.56
581.94	30932.52
582.10	30705.49
582.26	31014.44
582.42	30492.50
582.58	30951.24
582.74	30609.53
582.90	30490.16
583.06	30785.07
583.22	30249.08
583.38	30874.01
583.54	30436.33
583.70	30654.00
583.86	30670.38
584.02	30560.37
584.18	30855.28
584.34	30862.30
584.50	30602.50
584.66	30782.73
584.82	30405.90
584.98	30976.99
585.14	30565.06
585.30	30483.14
585.46	30628.25
585.62	30595.48
585.78	30855.28
585.94	30700.81
586.10	30785.07
586.26	30881.03
586.42	30984.01
586.58	30911.46
586.74	30302.92
586.90	30536.97
587.06	30492.50
587.22	31101.04
587.38	30792.09
587.54	31178.28
587.70	30913.80
587.86	31021.46
588.02	31175.94
588.18	31178.28
588.34	31005.08
588.49	31002.74
588.65	30967.63
588.81	30890.39
588.97	30864.64
589.13	30764.00
589.29	31199.34
589.45	31030.82
589.61	31014.44
589.77	30965.29
589.93	30806.13
590.08	30979.33
590.24	31232.11
590.40	31630.00
590.56	31360.84
590.72	31262.54
590.88	30717.19
591.04	31110.40
591.20	31232.11
591.35	31257.85
591.51	31424.03
591.67	31442.76
591.83	31442.76
591.99	30962.95
