SpectraSuite Data File
++++++++++++++++++++++++++++++++++++
Date: Fri Oct 18 13:58:41 GMT-05:00 2013
User: bianchi
Dark Spectrum Present: No
Reference Spectrum Present: No
Number of Sampled Component Spectra: 1
Spectrometers: USB2+H05261
Integration Time (usec): 50000 (USB2+H05261)
Spectra Averaged: 1 (USB2+H05261)
Boxcar Smoothing: 0 (USB2+H05261)
Correct for Electrical Dark: No (USB2+H05261)
Strobe/Lamp Enabled: No (USB2+H05261)
Correct for Detector Non-linearity: No (USB2+H05261)
Correct for Stray Light: No (USB2+H05261)
Number of Pixels in Processed Spectrum: 2048
>>>>>Begin Processed Spectral Data<<<<<
365.73	0.00
365.92	0.00
366.12	0.00
366.32	0.00
366.52	0.00
366.72	0.00
366.91	0.00
367.11	0.00
367.31	0.00
367.51	0.00
367.70	0.00
367.90	0.00
368.10	0.00
368.30	0.00
368.49	0.00
368.69	0.00
368.89	0.00
369.09	0.00
369.28	0.00
369.48	0.00
369.68	0.00
369.87	0.00
370.07	0.00
370.27	0.00
370.47	0.00
370.66	44.47
370.86	86.60
371.06	70.22
371.25	147.45
371.45	107.66
371.65	138.09
371.84	126.39
372.04	152.13
372.24	191.92
372.44	194.26
372.63	236.39
372.83	175.54
373.03	175.54
373.22	156.82
373.42	222.35
373.62	147.45
373.81	283.20
374.01	231.71
374.21	210.65
374.40	243.42
374.60	243.42
374.79	276.18
374.99	290.23
375.19	212.99
375.38	311.29
375.58	236.39
375.78	327.68
375.97	248.10
376.17	332.36
376.37	276.18
376.56	255.12
376.76	224.69
376.95	280.86
377.15	280.86
377.35	276.18
377.54	287.89
377.74	280.86
377.93	320.65
378.13	278.52
378.33	259.80
378.52	273.84
378.72	278.52
378.91	264.48
379.11	262.14
379.31	325.33
379.50	255.12
379.70	320.65
379.89	318.31
380.09	250.44
380.28	264.48
380.48	299.59
380.68	397.89
380.87	341.72
381.07	320.65
381.26	325.33
381.46	283.20
381.65	334.70
381.85	376.83
382.04	287.89
382.24	315.97
382.43	358.10
382.63	315.97
382.83	301.93
383.02	386.19
383.22	409.59
383.41	353.42
383.61	304.27
383.80	383.85
384.00	334.70
384.19	327.68
384.39	369.80
384.58	348.74
384.78	346.40
384.97	348.74
385.17	390.87
385.36	425.98
385.56	383.85
385.75	341.72
385.95	346.40
386.14	425.98
386.34	374.49
386.53	407.25
386.72	456.40
386.92	456.40
387.11	348.74
387.31	376.83
387.50	496.19
387.70	418.96
387.89	388.53
388.09	484.49
388.28	416.62
388.48	465.77
388.67	500.87
388.86	468.11
389.06	428.32
389.25	437.68
389.45	521.94
389.64	498.53
389.84	463.43
390.03	489.17
390.22	505.56
390.42	454.06
390.61	465.77
390.81	447.04
391.00	496.19
391.19	482.15
391.39	498.53
391.58	521.94
391.78	489.17
391.97	514.92
392.16	510.24
392.36	554.71
392.55	500.87
392.75	608.54
392.94	613.22
393.13	592.16
393.33	531.30
393.52	571.09
393.71	622.58
393.91	557.05
394.10	524.28
394.29	538.32
394.49	615.56
394.68	582.79
394.88	615.56
395.07	629.60
395.26	655.35
395.46	550.03
395.65	636.63
395.84	638.97
396.04	664.71
396.23	720.88
396.42	667.05
396.62	629.60
396.81	636.63
397.00	676.41
397.19	645.99
397.39	657.69
397.58	716.20
397.77	697.48
397.97	643.65
398.16	678.76
398.35	648.33
398.55	737.27
398.74	653.01
398.93	753.65
399.12	643.65
399.32	770.04
399.51	627.26
399.70	720.88
399.90	755.99
400.09	772.38
400.28	697.48
400.47	704.50
400.67	765.36
400.86	744.29
401.05	725.57
401.24	784.08
401.44	779.40
401.63	805.14
401.82	779.40
402.01	793.44
402.21	847.27
402.40	746.63
402.59	842.59
402.78	833.23
402.97	795.78
403.17	833.23
403.36	842.59
403.55	919.83
403.74	896.43
403.93	898.77
404.13	940.90
404.32	912.81
404.51	924.51
404.70	987.71
404.89	898.77
405.09	983.02
405.28	945.58
405.47	894.08
405.66	828.55
405.85	877.70
406.05	1008.77
406.24	990.05
406.43	1029.84
406.62	889.40
406.81	1008.77
407.00	980.68
407.20	943.24
407.39	1004.09
407.58	1135.16
407.77	1097.71
407.96	1069.62
408.15	1053.24
408.34	1011.11
408.54	1046.22
408.73	1036.86
408.92	1036.86
409.11	1160.91
409.30	1069.62
409.49	1135.16
409.68	1151.54
409.87	1167.93
410.07	1205.38
410.26	1177.29
410.45	1224.10
410.64	1114.10
410.83	1198.35
411.02	1242.82
411.21	1256.87
411.40	1261.55
411.59	1231.12
411.78	1324.74
411.98	1224.10
412.17	1287.29
412.36	1383.26
412.55	1284.95
412.74	1273.25
412.93	1313.04
413.12	1371.55
413.31	1446.45
413.50	1366.87
413.69	1352.83
413.88	1533.05
414.07	1331.76
414.26	1481.56
414.45	1586.88
414.64	1530.71
414.83	1458.15
415.02	1465.18
415.22	1568.16
415.41	1516.67
415.60	1605.61
415.79	1495.60
415.98	1547.09
416.17	1540.07
416.36	1488.58
416.55	1640.72
416.74	1668.80
416.93	1593.90
417.12	1643.06
417.31	1753.06
417.50	1659.44
417.69	1736.68
417.88	1701.57
418.07	1734.34
418.26	1621.99
418.45	1781.15
418.64	1844.34
418.83	1783.49
419.02	1785.83
419.21	1797.53
419.39	1837.32
419.58	1860.73
419.77	1797.53
419.96	1923.92
420.15	1820.94
420.34	1898.17
420.53	1753.06
420.72	1771.79
420.91	1895.83
421.10	1968.39
421.29	1935.62
421.48	1856.04
421.67	1902.86
421.86	1900.52
422.05	1935.62
422.24	1942.64
422.43	1898.17
422.61	1980.09
422.80	1977.75
422.99	2029.24
423.18	2087.76
423.37	2008.18
423.56	1980.09
423.75	1942.64
423.94	1930.94
424.13	2019.88
424.32	1973.07
424.50	1998.82
424.69	2059.67
424.88	2026.90
425.07	1984.77
425.26	2003.50
425.45	1975.41
425.64	1956.69
425.83	1884.13
426.01	2076.06
426.20	2043.29
426.39	2080.74
426.58	2054.99
426.77	2026.90
426.96	2223.51
427.15	2118.18
427.33	2083.08
427.52	2167.34
427.71	2232.87
427.90	2162.66
428.09	2200.10
428.28	2277.34
428.46	2120.53
428.65	2190.74
428.84	2225.85
429.03	2232.87
429.22	2150.95
429.40	2235.21
429.59	2406.07
429.78	1912.22
429.97	2179.04
430.16	2286.70
430.34	2307.77
430.53	2389.69
430.72	2286.70
430.91	2319.47
431.10	2239.89
431.28	2265.64
431.47	2265.64
431.66	2349.90
431.85	2363.94
432.03	2581.61
432.22	2392.03
432.41	2403.73
432.60	2534.80
432.79	2455.22
432.97	2373.30
433.16	2452.88
433.35	2471.61
433.54	2396.71
433.72	2417.77
433.91	2473.95
434.10	2471.61
434.28	2511.39
434.47	2436.50
434.66	2576.93
434.85	2668.21
435.03	2560.55
435.22	2499.69
435.41	2700.98
435.59	2579.27
435.78	2553.52
435.97	2567.57
436.16	2567.57
436.34	2562.89
436.53	2686.94
436.72	2787.58
436.90	2562.89
437.09	2745.45
437.28	2698.64
437.46	2689.28
437.65	2743.11
437.84	2736.09
438.02	2846.09
438.21	2640.12
438.40	2761.83
438.58	2843.75
438.77	2813.32
438.96	2829.71
439.14	3035.67
439.33	3005.25
439.52	2935.03
439.70	2949.08
439.89	3047.38
440.08	3112.91
440.26	3101.21
440.45	3012.27
440.63	2991.20
440.82	3255.69
441.01	3096.53
441.19	3112.91
441.38	3178.45
441.57	3185.47
441.75	3239.30
441.94	3122.27
442.12	3349.31
442.31	3384.41
442.50	3267.39
442.68	3272.07
442.87	3309.52
443.05	3309.52
443.24	3213.56
443.43	3410.16
443.61	3316.54
443.80	3543.57
443.98	3286.11
444.17	3222.92
444.35	3304.84
444.54	3449.95
444.73	3482.72
444.91	3410.16
445.10	3410.16
445.28	3396.12
445.47	3400.80
445.65	3473.36
445.84	3461.65
446.02	3438.25
446.21	3251.00
446.39	3543.57
446.58	3524.85
446.77	3548.25
446.95	3627.83
447.14	3534.21
447.32	3501.44
447.51	3585.70
447.69	3471.01
447.88	3611.45
448.06	3534.21
448.25	3431.23
448.43	3482.72
448.62	3501.44
448.80	3557.61
448.99	3768.26
449.17	3475.70
449.36	3499.10
449.54	3627.83
449.73	3641.87
449.91	3611.45
450.10	3688.68
450.28	3775.28
450.46	3658.26
450.65	3716.77
450.83	3817.41
451.02	3756.56
451.20	3695.71
451.39	3864.22
451.57	3709.75
451.76	3791.67
451.94	3794.01
452.13	3868.91
452.31	3904.01
452.49	3681.66
452.68	3824.44
452.86	3822.09
453.05	3953.16
453.23	4044.45
453.42	3868.91
453.60	3889.97
453.78	3852.52
453.97	3796.35
454.15	3866.56
454.34	4007.00
454.52	3978.91
454.70	3854.86
454.89	3878.27
455.07	4018.70
455.26	4173.18
455.44	4049.13
455.62	4117.00
455.81	3971.89
455.99	4049.13
456.17	4152.11
456.36	4217.65
456.54	4184.88
456.73	4166.15
456.91	4248.07
457.09	4180.20
457.28	4423.61
457.46	4292.54
457.64	4299.56
457.83	4306.59
458.01	4376.80
458.19	4395.53
458.38	4409.57
458.56	4355.74
458.74	4379.14
458.93	4306.59
459.11	4395.53
459.29	4425.95
459.48	4430.63
459.66	4292.54
459.84	4531.28
460.03	4620.22
460.21	4507.87
460.39	4535.96
460.57	4517.23
460.76	4538.30
460.94	4727.88
461.12	4533.62
461.31	4610.86
461.49	4660.01
461.67	4540.64
461.85	4697.46
462.04	4748.95
462.22	4774.69
462.40	4755.97
462.59	4650.64
462.77	4662.35
462.95	4695.11
463.13	4821.50
463.32	4858.95
463.50	4791.08
463.68	4968.96
463.86	4997.04
464.05	4842.57
464.23	4767.67
464.41	4903.42
464.59	4851.93
464.78	4798.10
464.96	4943.21
465.14	4791.08
465.32	4903.42
465.50	5046.20
465.69	5046.20
465.87	5004.07
466.05	4966.62
466.23	4950.23
466.41	5053.22
466.60	5142.16
466.78	4919.81
466.96	4978.32
467.14	4891.72
467.32	5167.90
467.51	5224.08
467.69	4975.98
467.87	5132.79
468.05	5217.05
468.23	5071.94
468.41	5128.11
468.60	5165.56
468.78	5359.83
468.96	5170.24
469.14	5184.29
469.32	5221.74
469.50	5245.14
469.69	5324.72
469.87	5310.68
470.05	5437.06
470.23	5526.00
470.41	5408.98
470.59	5448.77
470.77	5451.11
470.95	5509.62
471.14	5591.54
471.32	5427.70
471.50	5561.11
471.68	5401.96
471.86	5561.11
472.04	5575.16
472.22	5820.91
472.40	5666.44
472.58	5802.19
472.77	5696.86
472.95	5809.21
473.13	5856.02
473.31	5675.80
473.49	5760.06
473.67	5797.51
473.85	5975.39
474.03	5984.75
474.21	5827.93
474.39	6153.27
474.57	6239.87
474.75	6111.14
474.93	6139.23
475.12	6223.48
475.30	6204.76
475.48	6293.70
475.66	6211.78
475.84	6132.20
476.02	6286.68
476.20	6314.77
476.38	6282.00
476.56	6590.95
476.74	6530.09
476.92	6494.99
477.10	6616.69
477.28	6722.02
477.46	6532.44
477.64	6539.46
477.82	6817.98
478.00	6850.75
478.18	6892.88
478.36	6972.46
478.54	7012.24
478.72	6895.22
478.90	7005.22
479.08	6995.86
479.26	7311.83
479.44	7281.41
479.62	7197.15
479.80	7311.83
479.98	7417.16
480.16	7581.00
480.34	7410.14
480.52	7632.49
480.70	7775.26
480.88	7676.96
481.06	7695.68
481.24	7808.03
481.41	7836.11
481.59	7836.11
481.77	7971.86
481.95	8037.40
482.13	8070.17
482.31	8145.06
482.49	8105.28
482.67	8205.92
482.85	8304.22
483.03	8449.33
483.21	8650.62
483.39	8608.49
483.57	8454.02
483.74	8690.41
483.92	8774.67
484.10	8727.86
484.28	8875.31
484.46	8940.85
484.64	9011.06
484.82	8849.57
485.00	8968.93
485.18	9415.98
485.35	9231.07
485.53	9336.40
485.71	9305.97
485.89	9624.28
486.07	9439.38
486.25	9565.77
486.43	9575.13
486.61	9715.56
486.78	9685.14
486.96	9937.91
487.14	10186.01
487.32	10057.28
487.50	10080.69
487.68	10019.83
487.85	10361.55
488.03	10480.92
488.21	10516.03
488.39	10509.01
488.57	10721.99
488.75	10560.50
488.92	10911.58
489.10	10895.19
489.28	10923.28
489.46	10832.00
489.64	10857.75
489.81	11295.43
489.99	11286.06
490.17	11384.37
490.35	11382.03
490.53	11604.38
490.70	11550.54
490.88	11772.89
491.06	11637.14
491.24	11627.78
491.41	11845.45
491.59	11873.54
491.77	11962.48
491.95	12086.53
492.13	11997.59
492.30	12051.42
492.48	12320.58
492.66	12470.37
492.84	12292.49
493.01	12641.23
493.19	12505.48
493.37	12751.24
493.54	12510.16
493.72	12556.97
493.90	12774.64
494.08	12835.50
494.25	12971.25
494.43	13146.79
494.61	13158.49
494.79	13343.39
494.96	13277.86
495.14	13373.82
495.32	13563.40
495.49	13612.56
495.67	13551.70
495.85	13692.13
496.02	13923.85
496.20	13778.73
496.38	13909.80
496.55	14036.19
496.73	14160.24
496.91	14054.92
497.09	14026.83
497.26	14279.61
497.44	13982.36
497.62	14366.21
497.79	14413.02
497.97	14303.01
498.14	14733.67
498.32	14839.00
498.50	14775.80
498.67	14836.66
498.85	14874.10
499.03	15133.90
499.20	14878.79
499.38	14895.17
499.56	15183.06
499.73	15180.71
499.91	15342.21
500.08	15274.34
500.26	15288.38
500.44	15227.53
500.61	15300.08
500.79	15515.41
500.97	15871.17
501.14	15770.53
501.32	15782.23
501.49	15864.15
501.67	15618.39
501.84	15978.84
502.02	15585.63
502.20	15810.32
502.37	16191.83
502.55	16121.61
502.72	16215.23
502.90	16229.27
503.07	16067.78
503.25	16465.67
503.43	16191.83
503.60	16379.07
503.78	16411.84
503.95	16315.87
504.13	16570.99
504.30	16585.04
504.48	16493.76
504.65	17041.44
504.83	16919.73
505.01	16987.61
505.18	17156.13
505.36	16947.82
505.53	16842.50
505.71	16954.84
505.88	17057.82
506.06	17006.33
506.23	17195.92
506.41	17259.11
506.58	17481.46
506.76	17422.95
506.93	17366.78
507.11	17219.32
507.28	17380.82
507.46	17741.26
507.63	17891.06
507.81	17891.06
507.98	17804.46
508.16	17757.64
508.33	17689.77
508.50	17923.82
508.68	17893.40
508.85	18090.00
509.03	18125.11
509.20	18314.69
509.38	18228.09
509.55	18335.76
509.73	18394.27
509.90	18398.95
510.08	18464.49
510.25	18230.43
510.42	18579.17
510.60	18864.72
510.77	18473.85
510.95	18813.23
511.12	18834.29
511.30	18515.98
511.47	18876.42
511.64	18850.67
511.82	18902.17
511.99	18719.60
512.17	18934.93
512.34	19030.90
512.51	19126.86
512.69	19154.94
512.86	18953.66
513.04	19140.90
513.21	19255.59
513.38	19541.13
513.56	19236.86
513.73	19412.40
513.90	19283.67
514.08	19592.62
514.25	19609.01
514.43	19311.76
514.60	19735.40
514.77	19721.35
514.95	20077.12
515.12	19892.21
515.29	20042.01
515.47	20058.39
515.64	19878.17
515.81	20016.26
515.99	19852.42
516.16	20299.47
516.33	20500.75
516.51	20451.60
516.68	19850.08
516.85	20137.97
517.03	20617.78
517.20	20130.95
517.37	20400.11
517.54	20292.44
517.72	20629.48
517.89	20250.32
518.06	20341.60
518.24	20514.80
518.41	20428.20
518.58	20908.01
518.75	20460.96
518.93	20954.82
519.10	20732.47
519.27	20762.89
519.45	20952.48
519.62	20938.43
519.79	20952.48
519.96	21137.38
520.14	21448.67
520.31	20840.13
520.48	21682.72
520.65	21156.10
520.83	21432.29
521.00	21303.56
521.17	21472.07
521.34	21273.13
521.52	21579.74
521.69	21656.98
521.86	21694.43
522.03	21888.69
522.20	21474.42
522.38	21956.57
522.55	22008.06
522.72	22003.38
522.89	21603.14
523.07	22008.06
523.24	21748.26
523.41	22141.47
523.58	22019.76
523.75	22111.04
523.92	22080.61
524.10	22143.81
524.27	22115.72
524.44	22492.55
524.61	22511.27
524.78	22419.99
524.96	22562.76
525.13	22642.34
525.30	22324.03
525.47	22340.41
525.64	22384.88
525.81	22361.48
525.98	22848.31
526.16	22878.74
526.33	22909.16
526.50	23056.62
526.67	22548.72
526.84	22871.72
527.01	22670.43
527.18	23138.54
527.36	22733.62
527.53	23070.66
527.70	23295.35
527.87	23257.90
528.04	22885.76
528.21	22955.97
528.38	22970.02
528.55	23342.16
528.72	23520.04
528.89	23281.31
529.07	23253.22
529.24	23264.92
529.41	23831.33
529.58	23122.15
529.75	23288.33
529.92	23377.27
530.09	23578.56
530.26	23838.36
530.43	23770.48
530.60	23506.00
530.77	23662.82
530.94	23613.66
531.11	23711.97
531.28	23751.76
531.46	23814.95
531.63	23620.69
531.80	23936.66
531.97	24259.65
532.14	23868.78
532.31	23922.62
532.48	23955.38
532.65	24226.89
532.82	23976.45
532.99	23754.10
533.16	24159.01
533.33	24301.78
533.50	24425.83
533.67	24762.87
533.84	24142.63
534.01	24617.75
534.18	24453.92
534.35	24556.90
534.52	24610.73
534.69	24657.54
534.86	24517.11
535.03	24730.10
535.20	24339.23
535.37	24716.06
535.54	24886.92
535.71	24306.46
535.88	24264.33
536.05	24828.40
536.22	24929.05
536.38	24870.53
536.55	24786.27
536.72	25097.56
536.89	24931.39
537.06	24835.42
537.23	25015.65
537.40	24931.39
537.57	25039.05
537.74	25209.91
537.91	25392.47
538.08	25355.02
538.25	25097.56
538.42	25537.59
538.59	25116.29
538.75	24889.26
538.92	25057.78
539.09	25160.76
539.26	25472.05
539.43	25429.92
539.60	25376.09
539.77	25275.45
539.94	25565.67
540.11	25343.32
540.28	25553.97
540.44	25617.16
540.61	25443.96
540.78	25343.32
540.95	25586.74
541.12	25558.65
541.29	25486.09
541.46	25584.40
541.62	25862.92
541.79	25795.04
541.96	25465.03
542.13	25846.54
542.30	25811.43
542.47	26024.42
542.63	26103.99
542.80	26302.94
542.97	25790.36
543.14	26342.73
543.31	26099.31
543.48	26089.95
543.64	26438.69
543.81	26265.49
543.98	26384.86
544.15	26405.92
544.32	26494.86
544.48	26906.80
544.65	26375.50
544.82	26380.18
544.99	26403.58
545.16	26609.55
545.32	26480.82
545.49	26672.74
545.66	26780.41
545.83	26789.77
546.00	26792.11
546.16	26883.39
546.33	26506.57
546.50	26658.70
546.67	26555.72
546.83	26403.58
547.00	26562.74
547.17	26691.47
547.34	26651.68
547.50	27040.21
547.67	27164.26
547.84	27063.61
548.00	27194.68
548.17	27302.35
548.34	26895.10
548.51	27187.66
548.67	27154.90
548.84	27112.77
549.01	26867.01
549.18	27421.72
549.34	27143.19
549.51	27255.54
549.68	27215.75
549.84	27215.75
550.01	27042.55
550.18	27292.99
550.34	27590.24
550.51	27459.16
550.68	27615.98
550.84	27051.91
551.01	27541.08
551.18	27646.41
551.34	27239.15
551.51	27498.95
551.68	28056.00
551.84	27637.05
552.01	27520.02
552.18	27669.81
552.34	27639.39
552.51	27697.90
552.68	27807.90
552.84	27161.92
553.01	28156.64
553.18	27817.27
553.34	27606.62
553.51	27763.43
553.67	27889.82
553.84	27927.27
554.01	27824.29
554.17	28102.81
554.34	28058.34
554.51	27700.24
554.67	27892.16
554.84	27807.90
555.00	28051.32
555.17	28219.84
555.33	28446.87
555.50	27906.21
555.67	28098.13
555.83	28006.85
556.00	27920.25
556.16	28105.15
556.33	28393.04
556.50	27840.67
556.66	28608.37
556.83	28306.44
556.99	28346.23
557.16	28425.81
557.32	28446.87
557.49	28554.54
557.65	28320.48
557.82	27901.53
557.98	28088.77
558.15	28629.43
558.32	28453.89
558.48	28683.27
558.65	28456.23
558.81	28673.90
558.98	28734.76
559.14	28713.69
559.31	28355.59
559.47	28285.37
559.64	28538.15
559.80	28727.74
559.97	28694.97
560.13	29015.62
560.30	28751.14
560.46	28496.02
560.63	28601.35
560.79	28573.26
560.96	29003.92
561.12	28727.74
561.29	28357.93
561.45	28737.10
561.61	28678.58
561.78	28828.38
561.94	28751.14
562.11	28938.38
562.27	28730.08
562.44	28603.69
562.60	28957.11
562.77	28701.99
562.93	28650.50
563.10	28940.72
563.26	28758.16
563.42	29376.06
563.59	28957.11
563.75	29132.65
563.92	28987.53
564.08	29060.09
564.24	29032.00
564.41	29252.02
564.57	28575.60
564.74	29008.60
564.90	29029.66
565.07	29113.92
565.23	28933.70
565.39	28936.04
565.56	29326.91
565.72	29177.12
565.88	29142.01
566.05	29111.58
566.21	28959.45
566.38	28680.92
566.54	29200.52
566.70	29195.84
566.87	29560.97
567.03	29537.56
567.19	29364.36
567.36	29191.16
567.52	28828.38
567.68	29099.88
567.85	29036.69
568.01	29385.43
568.17	29053.07
568.34	29371.38
568.50	29490.75
568.66	29502.45
568.83	29149.03
568.99	29347.98
569.15	29479.05
569.32	29273.08
569.48	29275.42
569.64	29383.09
569.81	29209.89
569.97	29514.16
570.13	29095.20
570.30	29481.39
570.46	29422.87
570.62	29479.05
570.78	29387.77
570.95	29350.32
571.11	29422.87
571.27	29097.54
571.43	28999.24
571.60	29717.78
571.76	29563.31
571.92	29310.53
572.09	29479.05
572.25	29429.90
572.41	29769.27
572.57	29666.29
572.74	29469.69
572.90	29153.71
573.06	29579.69
573.22	29457.98
573.38	29448.62
573.55	29596.07
573.71	29579.69
573.87	29881.62
574.03	29481.39
574.20	29420.53
574.36	29448.62
574.52	29357.34
574.68	29443.94
574.84	29593.73
575.01	29689.70
575.17	29364.36
575.33	29572.67
575.49	29619.48
575.65	29867.58
575.82	29567.99
575.98	29689.70
576.14	29570.33
576.30	29624.16
576.46	29729.48
576.62	29509.47
576.79	29347.98
576.95	29546.92
577.11	29722.46
577.27	29603.10
577.43	29661.61
577.59	29970.56
577.75	29572.67
577.92	29237.97
578.08	29036.69
578.24	29656.93
578.40	29654.59
578.56	29610.12
578.72	30054.82
578.88	29872.26
579.04	30073.54
579.21	29909.71
579.37	29589.05
579.53	29792.68
579.69	28971.15
579.85	29851.19
580.01	29273.08
580.17	29628.84
580.33	29277.76
580.49	29479.05
580.65	29612.46
580.82	29795.02
580.98	29689.70
581.14	29991.62
581.30	30146.10
581.46	29750.55
581.62	29916.73
581.78	29523.52
581.94	29766.93
582.10	29717.78
582.26	29656.93
582.42	29722.46
582.58	29652.25
582.74	29656.93
582.90	29734.17
583.06	29865.24
583.22	29935.45
583.38	29682.67
583.54	29640.54
583.70	29642.88
583.86	29783.32
584.02	29886.30
584.18	29799.70
584.34	29804.38
584.50	29500.11
584.66	30050.14
584.82	29586.71
584.98	29954.18
585.14	29628.84
585.30	29450.96
585.46	29979.92
585.62	29376.06
585.78	29823.11
585.94	29567.99
586.10	29834.81
586.26	29942.47
586.42	29593.73
586.58	30218.66
586.74	29811.40
586.90	29834.81
587.06	29628.84
587.22	30064.18
587.38	29839.49
587.54	30185.89
587.70	30045.46
587.86	29865.24
588.02	30300.58
588.18	30263.13
588.34	30279.51
588.49	29816.08
588.65	29727.14
588.81	30125.04
588.97	29834.81
589.13	29862.90
589.29	29919.07
589.45	30316.96
589.61	30134.40
589.77	30419.94
589.93	30052.48
590.08	30239.72
590.24	30375.47
590.40	30331.00
590.56	30192.91
590.72	30562.72
590.88	29991.62
591.04	29949.50
591.20	29942.47
591.35	30284.19
591.51	30508.88
591.67	30527.61
591.83	30405.90
591.99	30338.02
