SpectraSuite Data File
++++++++++++++++++++++++++++++++++++
Date: Fri Oct 18 13:57:54 GMT-05:00 2013
User: bianchi
Dark Spectrum Present: No
Reference Spectrum Present: No
Number of Sampled Component Spectra: 1
Spectrometers: USB2+H05261
Integration Time (usec): 50000 (USB2+H05261)
Spectra Averaged: 1 (USB2+H05261)
Boxcar Smoothing: 0 (USB2+H05261)
Correct for Electrical Dark: No (USB2+H05261)
Strobe/Lamp Enabled: No (USB2+H05261)
Correct for Detector Non-linearity: No (USB2+H05261)
Correct for Stray Light: No (USB2+H05261)
Number of Pixels in Processed Spectrum: 2048
>>>>>Begin Processed Spectral Data<<<<<
365.73	0.00
365.92	0.00
366.12	0.00
366.32	0.00
366.52	0.00
366.72	0.00
366.91	0.00
367.11	0.00
367.31	0.00
367.51	0.00
367.70	0.00
367.90	0.00
368.10	0.00
368.30	0.00
368.49	0.00
368.69	0.00
368.89	0.00
369.09	0.00
369.28	0.00
369.48	0.00
369.68	0.00
369.87	0.00
370.07	0.00
370.27	0.00
370.47	0.00
370.66	163.84
370.86	114.69
371.06	126.39
371.25	88.94
371.45	112.35
371.65	168.52
371.84	168.52
372.04	117.03
372.24	205.97
372.44	238.73
372.63	212.99
372.83	196.60
373.03	212.99
373.22	163.84
373.42	203.63
373.62	166.18
373.81	182.56
374.01	245.76
374.21	269.16
374.40	231.71
374.60	306.61
374.79	187.24
374.99	252.78
375.19	285.55
375.38	196.60
375.58	208.31
375.78	264.48
375.97	290.23
376.17	264.48
376.37	245.76
376.56	227.03
376.76	287.89
376.95	238.73
377.15	313.63
377.35	287.89
377.54	287.89
377.74	315.97
377.93	353.42
378.13	273.84
378.33	304.27
378.52	292.57
378.72	318.31
378.91	287.89
379.11	245.76
379.31	315.97
379.50	318.31
379.70	290.23
379.89	311.29
380.09	348.74
380.28	320.65
380.48	330.02
380.68	348.74
380.87	297.25
381.07	229.37
381.26	308.95
381.46	332.36
381.65	386.19
381.85	287.89
382.04	393.21
382.24	311.29
382.43	360.44
382.63	322.99
382.83	339.38
383.02	346.40
383.22	344.06
383.41	341.72
383.61	325.33
383.80	383.85
384.00	327.68
384.19	383.85
384.39	365.12
384.58	390.87
384.78	388.53
384.97	388.53
385.17	397.89
385.36	360.44
385.56	444.70
385.75	421.30
385.95	414.27
386.14	374.49
386.34	348.74
386.53	383.85
386.72	400.23
386.92	465.77
387.11	468.11
387.31	451.72
387.50	447.04
387.70	482.15
387.89	386.19
388.09	409.59
388.28	486.83
388.48	465.77
388.67	435.34
388.86	491.51
389.06	468.11
389.25	479.81
389.45	528.96
389.64	505.56
389.84	451.72
390.03	538.32
390.22	498.53
390.42	512.58
390.61	550.03
390.81	484.49
391.00	454.06
391.19	535.98
391.39	498.53
391.58	507.90
391.78	514.92
391.97	545.34
392.16	540.66
392.36	596.84
392.55	533.64
392.75	566.41
392.94	615.56
393.13	575.77
393.33	638.97
393.52	517.26
393.71	657.69
393.91	547.69
394.10	638.97
394.29	620.24
394.49	613.22
394.68	629.60
394.88	596.84
395.07	669.39
395.26	641.31
395.46	627.26
395.65	683.44
395.84	638.97
396.04	674.07
396.23	711.52
396.42	653.01
396.62	711.52
396.81	629.60
397.00	638.97
397.19	643.65
397.39	629.60
397.58	643.65
397.77	779.40
397.97	650.67
398.16	695.14
398.35	636.63
398.55	648.33
398.74	706.84
398.93	765.36
399.12	788.76
399.32	800.46
399.51	835.57
399.70	758.33
399.90	681.10
400.09	800.46
400.28	847.27
400.47	737.27
400.67	866.00
400.86	858.98
401.05	802.80
401.24	751.31
401.44	858.98
401.63	814.51
401.82	828.55
402.01	840.25
402.21	800.46
402.40	800.46
402.59	821.53
402.78	847.27
402.97	905.79
403.17	849.61
403.36	882.38
403.55	938.55
403.74	830.89
403.93	887.06
404.13	976.00
404.32	896.43
404.51	889.40
404.70	994.73
404.89	978.34
405.09	966.64
405.28	1008.77
405.47	903.45
405.66	964.30
405.85	1018.13
406.05	961.96
406.24	1018.13
406.43	1032.18
406.62	1071.97
406.81	1071.97
407.00	1034.52
407.20	976.00
407.39	1001.75
407.58	1210.06
407.77	1116.44
407.96	1062.60
408.15	1074.31
408.34	1074.31
408.54	1008.77
408.73	1039.20
408.92	1207.72
409.11	1114.10
409.30	1188.99
409.49	1135.16
409.68	1184.31
409.87	1172.61
410.07	1235.80
410.26	1224.10
410.45	1174.95
410.64	1221.76
410.83	1350.49
411.02	1268.57
411.21	1219.42
411.40	1291.98
411.59	1275.59
411.78	1331.76
411.98	1270.91
412.17	1329.42
412.36	1350.49
412.55	1294.32
412.74	1357.51
412.93	1394.96
413.12	1392.62
413.31	1528.37
413.50	1462.83
413.69	1362.19
413.88	1465.18
414.07	1460.49
414.26	1434.75
414.45	1474.54
414.64	1582.20
414.83	1509.65
415.02	1556.46
415.22	1551.78
415.41	1626.67
415.60	1603.27
415.79	1530.71
415.98	1685.19
416.17	1514.33
416.36	1640.72
416.55	1650.08
416.74	1706.25
416.93	1692.21
417.12	1774.13
417.31	1734.34
417.50	1673.48
417.69	1790.51
417.88	1804.55
418.07	1799.87
418.26	1851.36
418.45	1790.51
418.64	1863.07
418.83	1708.59
419.02	1849.02
419.21	1849.02
419.39	1954.35
419.58	1928.60
419.77	1856.04
419.96	1921.58
420.15	1900.52
420.34	1919.24
420.53	1949.67
420.72	1963.71
420.91	1930.94
421.10	1937.96
421.29	2010.52
421.48	1846.68
421.67	1930.94
421.86	1998.82
422.05	1928.60
422.24	1935.62
422.43	1909.88
422.61	2033.93
422.80	2008.18
422.99	2090.10
423.18	2054.99
423.37	2113.50
423.56	2157.97
423.75	2045.63
423.94	1968.39
424.13	1930.94
424.32	1987.11
424.50	2101.80
424.69	2099.46
424.88	2207.13
425.07	2083.08
425.26	2092.44
425.45	2094.78
425.64	2143.93
425.83	2017.54
426.01	2118.18
426.20	2146.27
426.39	2012.86
426.58	2087.76
426.77	2181.38
426.96	2188.40
427.15	2160.31
427.33	2183.72
427.52	2197.76
427.71	2141.59
427.90	2193.08
428.09	2211.81
428.28	2319.47
428.46	2136.91
428.65	2305.43
428.84	2204.78
429.03	2249.25
429.22	2282.02
429.40	2340.54
429.59	2331.17
429.78	2232.87
429.97	2272.66
430.16	2345.22
430.34	2279.68
430.53	2331.17
430.72	2408.41
430.91	2331.17
431.10	2333.51
431.28	2359.26
431.47	2429.48
431.66	2399.05
431.85	2401.39
432.03	2431.82
432.22	2532.46
432.41	2410.75
432.60	2485.65
432.79	2523.10
432.97	2626.08
433.16	2530.12
433.35	2579.27
433.54	2621.40
433.72	2509.05
433.91	2558.21
434.10	2476.29
434.28	2471.61
434.47	2609.70
434.66	2595.65
434.85	2719.70
435.03	2766.51
435.22	2682.25
435.41	2715.02
435.59	2684.59
435.78	2766.51
435.97	2862.48
436.16	2637.78
436.34	2698.64
436.53	2689.28
436.72	2829.71
436.90	2684.59
437.09	2874.18
437.28	2684.59
437.46	2775.88
437.65	2855.45
437.84	2918.65
438.02	2888.22
438.21	2867.16
438.40	2848.43
438.58	3019.29
438.77	3016.95
438.96	2860.13
439.14	3091.85
439.33	2984.18
439.52	3119.93
439.70	2986.52
439.89	3159.72
440.08	3176.11
440.26	3054.40
440.45	3066.10
440.63	3176.11
440.82	3353.99
441.01	3129.30
441.19	3253.34
441.38	3267.39
441.57	3267.39
441.75	3255.69
441.94	3328.24
442.12	3382.07
442.31	3419.52
442.50	3468.67
442.68	3478.04
442.87	3403.14
443.05	3346.97
443.24	3475.70
443.43	3466.33
443.61	3480.38
443.80	3517.83
443.98	3543.57
444.17	3363.35
444.35	3386.76
444.54	3510.80
444.73	3471.01
444.91	3461.65
445.10	3531.87
445.28	3531.87
445.47	3489.74
445.65	3576.34
445.84	3627.83
446.02	3627.83
446.21	3494.42
446.39	3634.85
446.58	3574.00
446.77	3609.11
446.95	3492.08
447.14	3548.25
447.32	3576.34
447.51	3609.11
447.69	3520.17
447.88	3578.68
448.06	3691.02
448.25	3672.30
448.43	3756.56
448.62	3667.62
448.80	3698.05
448.99	3555.27
449.17	3529.53
449.36	3798.69
449.54	3754.22
449.73	3810.39
449.91	3962.53
450.10	3772.94
450.28	3894.65
450.46	3817.41
450.65	3861.88
450.83	3857.20
451.02	3859.54
451.20	3927.42
451.39	3997.64
451.57	3824.44
451.76	3819.75
451.94	4016.36
452.13	3992.95
452.31	3815.07
452.49	3899.33
452.68	3997.64
452.86	4023.38
453.05	4154.45
453.23	3983.59
453.42	3843.16
453.60	3918.06
453.78	3948.48
453.97	4009.34
454.15	3971.89
454.34	3960.19
454.52	4032.74
454.70	4255.09
454.89	4280.84
455.07	4140.41
455.26	4264.46
455.44	4177.86
455.62	4182.54
455.81	4072.53
455.99	4304.25
456.17	4133.39
456.36	4376.80
456.54	4484.47
456.73	4360.42
456.91	4379.14
457.09	4418.93
457.28	4409.57
457.46	4456.38
457.64	4594.47
457.83	4428.29
458.01	4315.95
458.19	4461.06
458.38	4561.70
458.56	4648.30
458.74	4470.42
458.93	4587.45
459.11	4571.07
459.29	4718.52
459.48	4669.37
459.66	4627.24
459.84	4760.65
460.03	4781.71
460.21	4643.62
460.39	4594.47
460.57	4641.28
460.76	4739.58
460.94	4650.64
461.12	4826.18
461.31	4788.74
461.49	4807.46
461.67	4741.93
461.85	4915.12
462.04	4903.42
462.22	5200.67
462.40	4844.91
462.59	4983.00
462.77	4880.02
462.95	5076.62
463.13	4910.44
463.32	5004.07
463.50	5039.17
463.68	4961.94
463.86	4945.55
464.05	5050.88
464.23	4964.28
464.41	4985.34
464.59	4926.83
464.78	5153.86
464.96	5083.64
465.14	5055.56
465.32	5116.41
465.50	5334.08
465.69	5130.45
465.87	5282.59
466.05	5095.35
466.23	5149.18
466.41	5144.50
466.60	5343.44
466.78	5256.84
466.96	5053.22
467.14	5287.27
467.32	5245.14
467.51	5313.02
467.69	5039.17
467.87	5268.55
468.05	5371.53
468.23	5284.93
468.41	5303.65
468.60	5387.91
468.78	5504.94
468.96	5317.70
469.14	5481.53
469.32	5586.86
469.50	5418.34
469.69	5451.11
469.87	5467.49
470.05	5617.29
470.23	5577.50
470.41	5753.04
470.59	5600.90
470.77	5453.45
470.95	5647.71
471.14	5584.52
471.32	5589.20
471.50	5722.61
471.68	5865.38
471.86	5949.64
472.04	5785.80
472.22	5874.74
472.40	5832.62
472.58	6008.16
472.77	6008.16
472.95	5823.25
473.13	6167.31
473.31	5895.81
473.49	6108.80
473.67	6017.52
473.85	5909.85
474.03	6282.00
474.21	6155.61
474.39	6340.51
474.57	6260.93
474.75	6293.70
474.93	6380.30
475.12	6183.70
475.30	6464.56
475.48	6237.53
475.66	6553.50
475.84	6324.13
476.02	6359.24
476.20	6363.92
476.38	6700.95
476.56	6733.72
476.74	6789.89
476.92	6651.80
477.10	6843.73
477.28	6958.41
477.46	6895.22
477.64	6906.92
477.82	7101.19
478.00	7164.38
478.18	7171.40
478.36	7150.34
478.54	7222.89
478.72	7213.53
478.90	7412.48
479.08	7194.81
479.26	7372.69
479.44	7475.67
479.62	7470.99
479.80	7623.12
479.98	7698.02
480.16	7868.88
480.34	7878.24
480.52	7728.45
480.70	7929.74
480.88	7754.19
481.06	7918.03
481.24	7971.86
481.41	8095.91
481.59	8138.04
481.77	8285.50
481.95	8224.64
482.13	8421.25
482.31	8189.53
482.49	8615.51
482.67	8507.85
482.85	8849.57
483.03	8681.05
483.21	8835.52
483.39	9027.45
483.57	9008.72
483.74	8966.59
483.92	8887.01
484.10	8929.14
484.28	9132.77
484.46	9289.59
484.64	9315.33
484.82	9322.35
485.00	9305.97
485.18	9516.62
485.35	9570.45
485.53	9745.99
485.71	9760.03
485.89	9870.04
486.07	9853.66
486.25	9818.55
486.43	9865.36
486.61	9909.83
486.78	10148.56
486.96	10260.91
487.14	10534.75
487.32	10373.25
487.50	10504.32
487.68	10567.52
487.85	10452.83
488.03	10724.33
488.21	10768.80
488.39	10611.99
488.57	10850.72
488.75	11005.20
488.92	11234.57
489.10	11215.85
489.28	11255.64
489.46	11489.69
489.64	11396.07
489.81	11489.69
489.99	11569.27
490.17	11754.17
490.35	11843.11
490.53	11723.74
490.70	11847.79
490.88	12121.63
491.06	12287.81
491.24	11995.25
491.41	12262.07
491.59	12400.16
491.77	12535.91
491.95	12575.70
492.13	12741.88
492.30	12760.60
492.48	12718.47
492.66	12603.78
492.84	12491.44
493.01	13217.01
493.19	12882.31
493.37	13074.23
493.54	13284.88
493.72	13380.84
493.90	13099.98
494.08	13460.42
494.25	13455.74
494.43	13699.16
494.61	13757.67
494.79	13860.65
494.96	13846.61
495.14	13818.52
495.32	13928.53
495.49	13982.36
495.67	14005.77
495.85	14094.71
496.02	14001.08
496.20	14499.62
496.38	14258.54
496.55	14270.25
496.73	14647.07
496.91	14293.65
497.09	14806.23
497.26	14785.16
497.44	14944.32
497.62	14743.03
497.79	14937.30
497.97	14801.55
498.14	15398.38
498.32	15115.18
498.50	15571.58
498.67	15412.43
498.85	15501.37
499.03	15477.96
499.20	15412.43
499.38	15648.82
499.56	15517.75
499.73	15798.62
499.91	15896.92
500.08	15817.34
500.26	15922.66
500.44	16065.44
500.61	16116.93
500.79	15829.04
500.97	16140.33
501.14	16493.76
501.32	16320.56
501.49	16140.33
501.67	16194.17
501.84	16346.30
502.02	16327.58
502.20	16751.21
502.37	16915.05
502.55	16641.21
502.72	16886.97
502.90	17085.91
503.07	16863.56
503.25	16676.32
503.43	16744.19
503.60	16788.66
503.78	17336.35
503.95	17294.22
504.13	17055.48
504.30	17015.69
504.48	17064.85
504.65	17434.65
504.83	17619.55
505.01	17607.85
505.18	17502.53
505.36	17476.78
505.53	17537.63
505.71	17596.15
505.88	17736.58
506.06	17584.44
506.23	17783.39
506.41	17855.95
506.58	17898.08
506.76	18050.21
506.93	18232.77
507.11	17921.48
507.28	18197.67
507.46	18169.58
507.63	18260.86
507.81	18743.01
507.98	18305.33
508.16	18597.90
508.33	18347.46
508.50	18363.84
508.68	18728.97
508.85	18754.71
509.03	18513.64
509.20	18876.42
509.38	19037.92
509.55	19049.62
509.73	19000.47
509.90	19005.15
510.08	18981.74
510.25	18829.61
510.42	19173.67
510.60	19641.78
510.77	19178.35
510.95	19190.05
511.12	19150.26
511.30	19339.85
511.47	19503.68
511.64	19470.92
511.82	19414.74
511.99	19751.78
512.17	19861.79
512.34	19634.75
512.51	20229.25
512.69	19658.16
512.86	19894.55
513.04	20063.07
513.21	20123.93
513.38	19988.18
513.56	20098.18
513.73	20156.69
513.90	20109.88
514.08	19924.98
514.25	20507.77
514.43	20367.34
514.60	20608.42
514.77	20456.28
514.95	20503.09
515.12	20573.31
515.29	20706.72
515.47	20603.74
515.64	20706.72
515.81	20725.44
515.99	20400.11
516.16	21172.49
516.33	20924.39
516.51	21247.38
516.68	20790.98
516.85	20851.83
517.03	21235.68
517.20	21078.86
517.37	20947.79
517.54	21181.85
517.72	21280.15
517.89	21235.68
518.06	21446.33
518.24	21394.84
518.41	21209.93
518.58	21565.70
518.75	21525.91
518.93	21916.78
519.10	21404.20
519.27	21902.73
519.45	21575.06
519.62	21734.21
519.79	21818.47
519.96	21612.51
520.14	21891.03
520.31	21956.57
520.48	22190.62
520.65	22099.34
520.83	22160.19
521.00	22139.13
521.17	22082.95
521.34	21970.61
521.52	22293.60
521.69	22546.38
521.86	22375.52
522.03	22508.93
522.20	22494.89
522.38	22647.02
522.55	22405.95
522.72	22789.80
522.89	22464.46
523.07	22841.29
523.24	23068.32
523.41	23211.09
523.58	22710.22
523.75	23173.64
523.92	22998.10
524.10	22888.10
524.27	23328.12
524.44	23300.03
524.61	23351.52
524.78	23293.01
524.96	23398.34
525.13	23309.40
525.30	23360.89
525.47	23435.78
525.64	23246.20
525.81	23541.11
525.98	23697.92
526.16	22939.59
526.33	23744.73
526.50	23756.44
526.67	23969.43
526.84	23449.83
527.01	23529.41
527.18	23349.18
527.36	23625.37
527.53	24163.69
527.70	23833.68
527.87	24320.51
528.04	23995.17
528.21	24161.35
528.38	23988.15
528.55	24194.12
528.72	24100.50
528.89	24418.81
529.07	24285.40
529.24	24140.29
529.41	24341.57
529.58	24306.46
529.75	23997.51
529.92	24620.10
530.09	24205.82
530.26	24470.30
530.43	24617.75
530.60	24327.53
530.77	24493.71
530.94	24470.30
531.11	24276.04
531.28	24538.18
531.46	24765.21
531.63	25057.78
531.80	24683.29
531.97	25008.62
532.14	24987.56
532.31	25085.86
532.48	24535.84
532.65	25036.71
532.82	24769.89
532.99	24634.14
533.16	24910.32
533.33	25263.74
533.50	25516.52
533.67	25181.82
533.84	25245.02
534.01	25139.69
534.18	25170.12
534.35	25458.01
534.52	25376.09
534.69	25750.57
534.86	25993.99
535.03	25436.94
535.20	25142.03
535.37	25951.86
535.54	25355.02
535.71	25390.13
535.88	25631.21
536.05	25734.19
536.22	25750.57
536.38	25970.58
536.55	25731.85
536.72	25731.85
536.89	25919.09
537.06	25895.69
537.23	26054.84
537.40	25734.19
537.57	25961.22
537.74	25869.94
537.91	26534.65
538.08	26335.71
538.25	25998.67
538.42	26176.55
538.59	26057.18
538.75	26054.84
538.92	26206.98
539.09	26223.36
539.26	26410.60
539.43	26705.51
539.60	26235.06
539.77	26221.02
539.94	26499.55
540.11	26536.99
540.28	26267.83
540.44	26705.51
540.61	26824.88
540.78	26518.27
540.95	26553.38
541.12	26824.88
541.29	26668.06
541.46	26450.39
541.62	26316.98
541.79	26632.96
541.96	26600.19
542.13	26754.66
542.30	26796.79
542.47	26969.99
542.63	27229.79
542.80	27185.32
542.97	27250.86
543.14	27194.68
543.31	26843.60
543.48	27030.85
543.64	27594.92
543.81	27440.44
543.98	27452.14
544.15	27625.34
544.32	27587.89
544.48	27129.15
544.65	27414.69
544.82	27807.90
544.99	27398.31
545.16	27784.50
545.32	27309.37
545.49	28311.12
545.66	27725.99
545.83	27770.46
546.00	27665.13
546.16	27594.92
546.33	27527.04
546.50	27344.48
546.67	28222.18
546.83	27402.99
547.00	27662.79
547.17	27417.04
547.34	27899.19
547.50	27667.47
547.67	27789.18
547.84	28322.82
548.00	28182.39
548.17	28531.13
548.34	28285.37
548.51	28240.90
548.67	28133.24
548.84	28210.48
549.01	28435.17
549.18	28037.28
549.34	28121.54
549.51	28383.68
549.68	28388.36
549.84	28329.84
550.01	28453.89
550.18	28369.63
550.34	28212.82
550.51	28615.39
550.68	28559.22
550.84	28538.15
551.01	28713.69
551.18	28367.29
551.34	28645.82
551.51	28425.81
551.68	28306.44
551.84	29130.31
552.01	28627.09
552.18	28914.98
552.34	28926.68
552.51	28959.45
552.68	28950.09
552.84	29036.69
553.01	29067.11
553.18	28725.39
553.34	29055.41
553.51	28842.42
553.67	29010.94
553.84	29076.48
554.01	29027.32
554.17	28985.19
554.34	29055.41
554.51	28975.83
554.67	28940.72
554.84	29254.36
555.00	29507.13
555.17	29479.05
555.33	29511.81
555.50	29404.15
555.67	29420.53
555.83	28975.83
556.00	29507.13
556.16	29357.34
556.33	29174.78
556.50	29228.61
556.66	29528.20
556.83	29228.61
556.99	29333.93
557.16	29600.76
557.32	29888.64
557.49	29710.76
557.65	29591.39
557.82	29172.44
557.98	29371.38
558.15	29565.65
558.32	29610.12
558.48	29617.14
558.65	29935.45
558.81	29797.36
558.98	29663.95
559.14	29575.01
559.31	29752.89
559.47	29472.03
559.64	29542.24
559.80	29689.70
559.97	30040.78
560.13	30096.95
560.30	30162.48
560.46	29851.19
560.63	29734.17
560.79	29736.51
560.96	29921.41
561.12	29914.39
561.29	29694.38
561.45	29823.11
561.61	30139.08
561.78	30047.80
561.94	30178.87
562.11	30223.34
562.27	29479.05
562.44	29729.48
562.60	29830.13
562.77	30031.41
562.93	29788.00
563.10	30197.59
563.26	29954.18
563.42	30204.61
563.59	29996.31
563.75	30150.78
563.92	30176.53
564.08	30375.47
564.24	30120.35
564.41	30033.75
564.57	30331.00
564.74	30363.77
564.90	30576.76
565.07	30321.64
565.23	30616.55
565.39	30277.17
565.56	30291.21
565.72	30581.44
565.88	30368.45
566.05	30155.46
566.21	30464.41
566.38	30235.04
566.54	30387.18
566.70	30342.70
566.87	30646.97
567.03	30366.11
567.19	30972.31
567.36	30586.12
567.52	30476.12
567.68	30349.73
567.85	30515.90
568.01	30668.04
568.17	30155.46
568.34	30911.46
568.50	30909.11
568.66	30691.44
568.83	30478.46
568.99	30553.35
569.15	30579.10
569.32	30459.73
569.48	30328.66
569.64	30560.37
569.81	31171.25
569.97	30675.06
570.13	30827.20
570.30	30258.45
570.46	30684.42
570.62	30705.49
570.78	30672.72
570.95	30543.99
571.11	30707.83
571.27	30373.13
571.43	30761.66
571.60	30630.59
571.76	30611.87
571.92	30934.86
572.09	30689.10
572.25	31077.63
572.41	30501.86
572.57	30658.68
572.74	30976.99
572.90	30356.75
573.06	30810.81
573.22	30834.22
573.38	30583.78
573.55	30625.91
573.71	31138.49
573.87	31281.26
574.03	30782.73
574.20	30775.70
574.36	30396.54
574.52	30752.30
574.68	30986.35
574.84	30925.50
575.01	30565.06
575.17	30913.80
575.33	31229.77
575.49	30991.03
575.65	30874.01
575.82	31051.89
575.98	30656.34
576.14	30462.07
576.30	30974.65
576.46	30988.69
576.62	30710.17
576.79	30787.41
576.95	30892.73
577.11	31164.23
577.27	31035.50
577.43	31206.36
577.59	31253.17
577.75	30515.90
577.92	30899.75
578.08	30679.74
578.24	31065.93
578.40	31283.60
578.56	31009.76
578.72	30773.36
578.88	31253.17
579.04	31262.54
579.21	31122.10
579.37	31115.08
579.53	31173.60
579.69	30728.89
579.85	30890.39
580.01	31019.12
580.17	30890.39
580.33	30951.24
580.49	30902.09
580.65	31337.43
580.82	31204.02
580.98	31035.50
581.14	31164.23
581.30	30869.33
581.46	30719.53
581.62	31321.05
581.78	31082.31
581.94	31049.55
582.10	31309.35
582.26	31063.59
582.42	31154.87
582.58	31391.26
582.74	31145.51
582.90	31440.42
583.06	31335.09
583.22	31236.79
583.38	31204.02
583.54	31475.52
583.70	30920.82
583.86	31335.09
584.02	30773.36
584.18	31304.67
584.34	31386.58
584.50	31590.21
584.66	31466.16
584.82	30747.62
584.98	31145.51
585.14	31026.14
585.30	31007.42
585.46	30958.27
585.62	30672.72
585.78	30843.58
585.94	30700.81
586.10	31175.94
586.26	31185.30
586.42	31683.83
586.58	31143.17
586.74	31421.69
586.90	30644.63
587.06	31042.53
587.22	31323.39
587.38	30850.60
587.54	31316.37
587.70	31477.86
587.86	31391.26
588.02	31405.31
588.18	31821.92
588.34	31559.78
588.49	31583.19
588.65	31124.44
588.81	31276.58
588.97	31339.77
589.13	31349.14
589.29	31215.72
589.45	31758.73
589.61	31732.98
589.77	31761.07
589.93	31356.16
590.08	31456.80
590.24	31658.09
590.40	31620.64
590.56	31679.15
590.72	31264.88
590.88	31428.71
591.04	31531.70
591.20	31704.90
591.35	31662.77
591.51	31824.26
591.67	31653.40
591.83	31999.80
