SpectraSuite Data File
++++++++++++++++++++++++++++++++++++
Date: Fri Oct 18 13:58:41 GMT-05:00 2013
User: bianchi
Dark Spectrum Present: No
Reference Spectrum Present: No
Number of Sampled Component Spectra: 1
Spectrometers: USB2+H05261
Integration Time (usec): 50000 (USB2+H05261)
Spectra Averaged: 1 (USB2+H05261)
Boxcar Smoothing: 0 (USB2+H05261)
Correct for Electrical Dark: No (USB2+H05261)
Strobe/Lamp Enabled: No (USB2+H05261)
Correct for Detector Non-linearity: No (USB2+H05261)
Correct for Stray Light: No (USB2+H05261)
Number of Pixels in Processed Spectrum: 2048
>>>>>Begin Processed Spectral Data<<<<<
365.73	0.00
365.92	0.00
366.12	0.00
366.32	0.00
366.52	0.00
366.72	0.00
366.91	0.00
367.11	0.00
367.31	0.00
367.51	0.00
367.70	0.00
367.90	0.00
368.10	0.00
368.30	0.00
368.49	0.00
368.69	0.00
368.89	0.00
369.09	0.00
369.28	0.00
369.48	0.00
369.68	0.00
369.87	0.00
370.07	0.00
370.27	0.00
370.47	0.00
370.66	46.81
370.86	149.79
371.06	159.16
371.25	217.67
371.45	126.39
371.65	180.22
371.84	140.43
372.04	133.41
372.24	168.52
372.44	220.01
372.63	168.52
372.83	189.58
373.03	131.07
373.22	201.29
373.42	131.07
373.62	145.11
373.81	238.73
374.01	250.44
374.21	276.18
374.40	196.60
374.60	227.03
374.79	241.08
374.99	280.86
375.19	243.42
375.38	271.50
375.58	173.20
375.78	252.78
375.97	245.76
376.17	308.95
376.37	283.20
376.56	245.76
376.76	301.93
376.95	290.23
377.15	210.65
377.35	266.82
377.54	280.86
377.74	325.33
377.93	276.18
378.13	344.06
378.33	287.89
378.52	313.63
378.72	191.92
378.91	285.55
379.11	297.25
379.31	299.59
379.50	351.08
379.70	283.20
379.89	376.83
380.09	234.05
380.28	348.74
380.48	280.86
380.68	278.52
380.87	248.10
381.07	355.76
381.26	278.52
381.46	334.70
381.65	374.49
381.85	306.61
382.04	322.99
382.24	383.85
382.43	442.36
382.63	301.93
382.83	339.38
383.02	287.89
383.22	355.76
383.41	339.38
383.61	411.93
383.80	372.15
384.00	346.40
384.19	381.51
384.39	414.27
384.58	374.49
384.78	409.59
384.97	390.87
385.17	330.02
385.36	365.12
385.56	327.68
385.75	367.46
385.95	423.64
386.14	416.62
386.34	381.51
386.53	269.16
386.72	402.57
386.92	374.49
387.11	351.08
387.31	437.68
387.50	411.93
387.70	402.57
387.89	360.44
388.09	414.27
388.28	440.02
388.48	472.79
388.67	458.74
388.86	461.09
389.06	367.46
389.25	526.62
389.45	400.23
389.64	414.27
389.84	372.15
390.03	510.24
390.22	486.83
390.42	519.60
390.61	423.64
390.81	482.15
391.00	554.71
391.19	547.69
391.39	514.92
391.58	489.17
391.78	540.66
391.97	521.94
392.16	496.19
392.36	547.69
392.55	510.24
392.75	550.03
392.94	580.45
393.13	624.92
393.33	526.62
393.52	571.09
393.71	498.53
393.91	620.24
394.10	620.24
394.29	641.31
394.49	627.26
394.68	627.26
394.88	578.11
395.07	734.93
395.26	627.26
395.46	617.90
395.65	676.41
395.84	592.16
396.04	664.71
396.23	578.11
396.42	596.84
396.62	538.32
396.81	601.52
397.00	603.86
397.19	636.63
397.39	664.71
397.58	638.97
397.77	669.39
397.97	615.56
398.16	681.10
398.35	718.54
398.55	645.99
398.74	706.84
398.93	734.93
399.12	709.18
399.32	748.97
399.51	732.59
399.70	854.30
399.90	697.48
400.09	758.33
400.28	706.84
400.47	772.38
400.67	760.67
400.86	784.08
401.05	795.78
401.24	861.32
401.44	884.72
401.63	816.85
401.82	781.74
402.01	830.89
402.21	844.93
402.40	861.32
402.59	781.74
402.78	868.34
402.97	788.76
403.17	807.48
403.36	849.61
403.55	866.00
403.74	880.04
403.93	896.43
404.13	929.19
404.32	887.06
404.51	866.00
404.70	894.08
404.89	884.72
405.09	947.92
405.28	1006.43
405.47	957.28
405.66	978.34
405.85	1025.15
406.05	997.07
406.24	1006.43
406.43	954.94
406.62	938.55
406.81	1027.50
407.00	964.30
407.20	1036.86
407.39	940.90
407.58	1104.73
407.77	1088.35
407.96	1130.48
408.15	1025.15
408.34	1111.75
408.54	1055.58
408.73	1078.99
408.92	1029.84
409.11	1137.50
409.30	1123.46
409.49	1128.14
409.68	1156.22
409.87	1198.35
410.07	1172.61
410.26	1153.88
410.45	1240.48
410.64	1217.08
410.83	1210.06
411.02	1238.14
411.21	1165.59
411.40	1116.44
411.59	1238.14
411.78	1331.76
411.98	1252.19
412.17	1275.59
412.36	1268.57
412.55	1231.12
412.74	1336.45
412.93	1315.38
413.12	1240.48
413.31	1350.49
413.50	1273.25
413.69	1455.81
413.88	1322.40
414.07	1364.53
414.26	1404.32
414.45	1451.13
414.64	1465.18
414.83	1411.34
415.02	1425.39
415.22	1504.96
415.41	1448.79
415.60	1610.29
415.79	1441.77
415.98	1624.33
416.17	1645.40
416.36	1577.52
416.55	1650.08
416.74	1605.61
416.93	1556.46
417.12	1654.76
417.31	1715.61
417.50	1708.59
417.69	1708.59
417.88	1689.87
418.07	1727.32
418.26	1755.40
418.45	1774.13
418.64	1877.11
418.83	1767.10
419.02	1860.73
419.21	1783.49
419.39	1844.34
419.58	1762.42
419.77	1849.02
419.96	1877.11
420.15	1942.64
420.34	1900.52
420.53	1806.89
420.72	1973.07
420.91	1968.39
421.10	1944.99
421.29	2029.24
421.48	1877.11
421.67	1942.64
421.86	1884.13
422.05	1966.05
422.24	2017.54
422.43	2052.65
422.61	2001.16
422.80	1984.77
422.99	2106.48
423.18	2069.03
423.37	2078.40
423.56	2076.06
423.75	1970.73
423.94	2059.67
424.13	2022.22
424.32	1935.62
424.50	1959.03
424.69	2139.25
424.88	2083.08
425.07	2059.67
425.26	1926.26
425.45	1966.05
425.64	1973.07
425.83	1888.81
426.01	2012.86
426.20	2005.84
426.39	2012.86
426.58	1975.41
426.77	1930.94
426.96	2001.16
427.15	2120.53
427.33	2080.74
427.52	2209.47
427.71	2125.21
427.90	2202.44
428.09	2129.89
428.28	2202.44
428.46	2265.64
428.65	2256.28
428.84	2263.30
429.03	2167.34
429.22	2232.87
429.40	2286.70
429.59	2307.77
429.78	2195.42
429.97	2150.95
430.16	2237.55
430.34	2279.68
430.53	2333.51
430.72	2242.23
430.91	2279.68
431.10	2321.81
431.28	2296.07
431.47	2389.69
431.66	2296.07
431.85	2251.60
432.03	2424.80
432.22	2520.76
432.41	2473.95
432.60	2392.03
432.79	2312.45
432.97	2511.39
433.16	2551.18
433.35	2541.82
433.54	2513.74
433.72	2572.25
433.91	2490.33
434.10	2387.35
434.28	2473.95
434.47	2476.29
434.66	2455.22
434.85	2523.10
435.03	2644.81
435.22	2483.31
435.41	2682.25
435.59	2619.06
435.78	2562.89
435.97	2590.97
436.16	2689.28
436.34	2619.06
436.53	2605.02
436.72	2843.75
436.90	2537.14
437.09	2689.28
437.28	2724.38
437.46	2789.92
437.65	2729.06
437.84	2708.00
438.02	2743.11
438.21	2757.15
438.40	2757.15
438.58	2841.41
438.77	2864.82
438.96	2778.22
439.14	2897.58
439.33	2906.95
439.52	2860.13
439.70	3035.67
439.89	3101.21
440.08	3059.08
440.26	3077.80
440.45	3059.08
440.63	3082.49
440.82	3190.15
441.01	3187.81
441.19	3133.98
441.38	3185.47
441.57	3236.96
441.75	3253.34
441.94	3314.20
442.12	3239.30
442.31	3405.48
442.50	3272.07
442.68	3290.79
442.87	3379.73
443.05	3372.71
443.24	3332.92
443.43	3311.86
443.61	3295.47
443.80	3517.83
443.98	3449.95
444.17	3248.66
444.35	3337.60
444.54	3379.73
444.73	3344.63
444.91	3335.26
445.10	3480.38
445.28	3503.78
445.47	3424.20
445.65	3293.13
445.84	3494.42
446.02	3389.10
446.21	3365.69
446.39	3466.33
446.58	3578.68
446.77	3588.04
446.95	3475.70
447.14	3510.80
447.32	3461.65
447.51	3552.93
447.69	3538.89
447.88	3562.30
448.06	3574.00
448.25	3452.29
448.43	3489.74
448.62	3613.79
448.80	3501.44
448.99	3489.74
449.17	3637.19
449.36	3585.70
449.54	3545.91
449.73	3714.43
449.91	3777.62
450.10	3805.71
450.28	3754.22
450.46	3620.81
450.65	3812.73
450.83	3749.54
451.02	3679.32
451.20	3829.12
451.39	3749.54
451.57	3721.45
451.76	3735.50
451.94	3934.44
452.13	3882.95
452.31	3761.24
452.49	3674.64
452.68	3934.44
452.86	3819.75
453.05	3786.99
453.23	3904.01
453.42	3882.95
453.60	3899.33
453.78	3915.72
453.97	3969.55
454.15	3796.35
454.34	3847.84
454.52	3847.84
454.70	4081.89
454.89	3999.98
455.07	4079.55
455.26	4131.05
455.44	4147.43
455.62	4102.96
455.81	4159.13
455.99	4145.09
456.17	4032.74
456.36	4098.28
456.54	4133.39
456.73	4095.94
456.91	4285.52
457.09	4219.99
457.28	4264.46
457.46	4325.31
457.64	4315.95
457.83	4372.12
458.01	4238.71
458.19	4484.47
458.38	4449.36
458.56	4465.74
458.74	4421.27
458.93	4383.82
459.11	4341.69
459.29	4414.25
459.48	4580.43
459.66	4437.66
459.84	4674.05
460.03	4650.64
460.21	4416.59
460.39	4500.85
460.57	4456.38
460.76	4606.17
460.94	4627.24
461.12	4617.88
461.31	4547.66
461.49	4503.19
461.67	4456.38
461.85	4765.33
462.04	4631.92
462.22	4727.88
462.40	4793.42
462.59	4753.63
462.77	4844.91
462.95	4863.63
463.13	4844.91
463.32	4849.59
463.50	4889.38
463.68	4835.55
463.86	4954.91
464.05	4931.51
464.23	4896.40
464.41	4858.95
464.59	4795.76
464.78	4950.23
464.96	4823.84
465.14	4821.50
465.32	5081.30
465.50	5083.64
465.69	4992.36
465.87	4945.55
466.05	5062.58
466.23	4952.57
466.41	4922.15
466.60	5078.96
466.78	5050.88
466.96	5128.11
467.14	4990.02
467.32	5018.11
467.51	5242.80
467.69	5104.71
467.87	5095.35
468.05	5261.52
468.23	5142.16
468.41	5184.29
468.60	5116.41
468.78	5481.53
468.96	5081.30
469.14	5256.84
469.32	5280.25
469.50	5139.82
469.69	5320.04
469.87	5338.76
470.05	5413.66
470.23	5540.05
470.41	5301.31
470.59	5313.02
470.77	5453.45
470.95	5509.62
471.14	5582.18
471.32	5497.92
471.50	5528.35
471.68	5657.07
471.86	5500.26
472.04	5671.12
472.22	5811.55
472.40	5734.31
472.58	5731.97
472.77	5717.93
472.95	5912.19
473.13	6061.99
473.31	5703.89
473.49	5823.25
473.67	5743.67
473.85	5860.70
474.03	6087.73
474.21	5923.90
474.39	6190.72
474.57	5930.92
474.75	6141.57
474.93	5996.45
475.12	6108.80
475.30	6164.97
475.48	6108.80
475.66	6342.85
475.84	6190.72
476.02	6420.09
476.20	6207.10
476.38	6466.90
476.56	6612.01
476.74	6502.01
476.92	6539.46
477.10	6670.53
477.28	6672.87
477.46	6675.21
477.64	6609.67
477.82	6832.02
478.00	7047.35
478.18	6946.71
478.36	7117.57
478.54	6993.52
478.72	6927.99
478.90	6974.80
479.08	7094.16
479.26	7030.97
479.44	7241.62
479.62	7286.09
479.80	7452.27
479.98	7550.57
480.16	7489.71
480.34	7695.68
480.52	7538.87
480.70	7541.21
480.88	7644.19
481.06	7611.42
481.24	7660.57
481.41	7892.29
481.59	8025.70
481.77	7948.46
481.95	8013.99
482.13	8058.46
482.31	7948.46
482.49	8215.28
482.67	8133.36
482.85	8465.72
483.03	8264.43
483.21	8470.40
483.39	8505.51
483.57	8446.99
483.74	8730.20
483.92	8835.52
484.10	8596.79
484.28	8908.08
484.46	9104.68
484.64	9114.05
484.82	8769.99
485.00	9004.04
485.18	9130.43
485.35	9357.46
485.53	9280.22
485.71	9345.76
485.89	9549.39
486.07	9439.38
486.25	9591.52
486.43	9425.34
486.61	9923.87
486.78	9944.94
486.96	9783.44
487.14	9881.74
487.32	10162.61
487.50	10113.45
487.68	10178.99
487.85	10232.82
488.03	10429.43
488.21	10663.48
488.39	10513.69
488.57	10810.93
488.75	10604.97
488.92	10827.32
489.10	10918.60
489.28	10981.79
489.46	10944.34
489.64	10960.73
489.81	11187.76
489.99	11197.12
490.17	11480.33
490.35	11424.15
490.53	11290.74
490.70	11515.44
490.88	11679.27
491.06	11475.65
491.24	11639.48
491.41	11463.94
491.59	12100.57
491.77	11946.09
491.95	12100.57
492.13	12269.09
492.30	12245.68
492.48	12138.02
492.66	12320.58
492.84	12365.05
493.01	12643.57
493.19	12676.34
493.37	12580.38
493.54	12519.53
493.72	12659.96
493.90	12594.42
494.08	12917.42
494.25	13116.36
494.43	13226.37
494.61	13090.62
494.79	13338.71
494.96	13373.82
495.14	13544.68
495.32	13345.73
495.49	13507.23
495.67	13776.39
495.85	13956.61
496.02	13788.10
496.20	13767.03
496.38	13944.91
496.55	13764.69
496.73	13973.00
496.91	14068.96
497.09	14068.96
497.26	14389.61
497.44	14295.99
497.62	14190.67
497.79	14635.37
497.97	14429.40
498.14	14691.54
498.32	14906.87
498.50	14684.52
498.67	14939.64
498.85	15002.83
499.03	15061.35
499.20	14834.32
499.38	15314.13
499.56	15281.36
499.73	15351.57
499.91	15103.48
500.08	15496.69
500.26	15288.38
500.44	15597.33
500.61	15550.52
500.79	15272.00
500.97	15592.65
501.14	15524.77
501.32	15597.33
501.49	15723.72
501.67	15674.57
501.84	15873.51
502.02	16084.16
502.20	16027.99
502.37	16159.06
502.55	16105.23
502.72	16187.14
502.90	16060.76
503.07	16154.38
503.25	16386.09
503.43	16308.85
503.60	16561.63
503.78	16783.98
503.95	16383.75
504.13	16580.36
504.30	16631.85
504.48	16210.55
504.65	16884.62
504.83	16807.39
505.01	17015.69
505.18	16781.64
505.36	16793.34
505.53	17048.46
505.71	17298.90
505.88	17095.27
506.06	16840.15
506.23	17296.56
506.41	17163.15
506.58	17607.85
506.76	17331.67
506.93	17305.92
507.11	17462.74
507.28	17455.72
507.46	17352.73
507.63	17563.38
507.81	17984.68
507.98	17490.82
508.16	17579.76
508.33	17659.34
508.50	17603.17
508.68	17600.83
508.85	17881.69
509.03	17771.69
509.20	18235.11
509.38	18167.24
509.55	18064.25
509.73	18209.37
509.90	18066.60
510.08	18476.19
510.25	18380.23
510.42	18321.71
510.60	18469.17
510.77	18555.77
510.95	18588.53
511.12	18499.59
511.30	18581.51
511.47	18689.18
511.64	18906.85
511.82	18827.27
511.99	18817.91
512.17	19218.14
512.34	18948.98
512.51	19012.17
512.69	19192.39
512.86	19082.39
513.04	19384.32
513.21	19243.88
513.38	19316.44
513.56	19562.20
513.73	19297.72
513.90	19587.94
514.08	19396.02
514.25	19623.05
514.43	19740.08
514.60	19482.62
514.77	19583.26
514.95	19910.94
515.12	19913.28
515.29	19564.54
515.47	19955.41
515.64	19946.05
515.81	20198.82
515.99	19948.39
516.16	20451.60
516.33	19957.75
516.51	20489.05
516.68	20367.34
516.85	20060.73
517.03	20196.48
517.20	20666.93
517.37	20793.32
517.54	20601.40
517.72	20376.70
517.89	20350.96
518.06	20908.01
518.24	20734.81
518.41	20528.84
518.58	20760.55
518.75	20678.63
518.93	21074.18
519.10	21067.16
519.27	21186.53
519.45	20566.29
519.62	20982.90
519.79	20945.45
519.96	20798.00
520.14	21324.62
520.31	21092.91
520.48	21242.70
520.65	21273.13
520.83	21390.16
521.00	21474.42
521.17	21298.88
521.34	21067.16
521.52	21425.26
521.69	21427.60
521.86	21460.37
522.03	21687.40
522.20	21937.84
522.38	21832.52
522.55	22061.89
522.72	21853.58
522.89	21429.94
523.07	22277.22
523.24	22071.25
523.41	21975.29
523.58	21940.18
523.75	21949.54
523.92	21951.88
524.10	22082.95
524.27	22228.07
524.44	22593.19
524.61	22396.59
524.78	22553.40
524.96	22398.93
525.13	22560.42
525.30	22499.57
525.47	22024.44
525.64	22284.24
525.81	22480.85
525.98	22483.19
526.16	22588.51
526.33	22637.66
526.50	23096.41
526.67	22497.23
526.84	23166.62
527.01	22333.39
527.18	22810.86
527.36	23073.00
527.53	22953.63
527.70	23438.12
527.87	23232.16
528.04	23180.67
528.21	23332.80
528.38	23166.62
528.55	23339.82
528.72	22527.66
528.89	23555.15
529.07	23391.31
529.24	23438.12
529.41	23501.32
529.58	23442.81
529.75	23749.42
529.92	23349.18
530.09	23571.54
530.26	23718.99
530.43	23634.73
530.60	23435.78
530.77	23597.28
530.94	23484.94
531.11	23545.79
531.28	23557.49
531.46	23833.68
531.63	23838.36
531.80	24168.37
531.97	23850.06
532.14	24334.55
532.31	24084.11
532.48	23843.04
532.65	24203.48
532.82	23985.81
532.99	24332.21
533.16	23971.77
533.33	24397.74
533.50	24526.47
533.67	24130.92
533.84	24107.52
534.01	24315.83
534.18	23990.49
534.35	24496.05
534.52	24166.03
534.69	24608.39
534.86	24947.77
535.03	24484.34
535.20	24460.94
535.37	24826.06
535.54	24800.32
535.71	24280.72
535.88	24512.43
536.05	24655.20
536.22	25092.88
536.38	24868.19
536.55	24858.83
536.72	25013.31
536.89	25048.41
537.06	24922.02
537.23	25142.03
537.40	25132.67
537.57	25076.50
537.74	24849.47
537.91	25418.22
538.08	25392.47
538.25	25355.02
538.42	25291.83
538.59	25362.04
538.75	25088.20
538.92	25411.20
539.09	25570.35
539.26	25238.00
539.43	25394.81
539.60	25132.67
539.77	25465.03
539.94	25511.84
540.11	25352.68
540.28	25329.28
540.44	25158.42
540.61	25549.29
540.78	25387.79
540.95	25427.58
541.12	25846.54
541.29	25572.69
541.46	25446.30
541.62	25532.90
541.79	25294.17
541.96	25816.11
542.13	25806.75
542.30	26225.70
542.47	26033.78
542.63	26012.71
542.80	25989.31
542.97	26209.32
543.14	26146.12
543.31	26085.27
543.48	26101.65
543.64	26518.27
543.81	26415.29
543.98	26565.08
544.15	26202.30
544.32	26757.00
544.48	26728.92
544.65	26513.59
544.82	26272.51
544.99	26120.38
545.16	26352.09
545.32	26457.42
545.49	26494.86
545.66	26785.09
545.83	26614.23
546.00	26572.10
546.16	26324.01
546.33	26441.03
546.50	26438.69
546.67	26838.92
546.83	26354.43
547.00	26916.16
547.17	26962.97
547.34	26785.09
547.50	26906.80
547.67	27232.13
547.84	26717.22
548.00	27124.47
548.17	27274.26
548.34	26593.17
548.51	27173.62
548.67	27468.53
548.84	27199.37
549.01	27491.93
549.18	27283.62
549.34	26803.82
549.51	27225.11
549.68	27278.94
549.84	27201.71
550.01	27400.65
550.18	27330.44
550.34	27056.59
550.51	27292.99
550.68	27304.69
550.84	27271.92
551.01	27508.32
551.18	27405.33
551.34	27276.60
551.51	27325.75
551.68	27374.91
551.84	27627.68
552.01	27566.83
552.18	27777.48
552.34	27185.32
552.51	27702.58
552.68	27857.06
552.84	27466.19
553.01	27735.35
553.18	27672.15
553.34	27725.99
553.51	27861.74
553.67	28226.86
553.84	27917.91
554.01	27917.91
554.17	28025.57
554.34	28130.90
554.51	27765.78
554.67	28091.11
554.84	27908.55
555.00	28449.21
555.17	27791.52
555.33	27938.97
555.50	28067.70
555.67	28065.36
555.83	28063.02
556.00	27721.30
556.16	28556.88
556.33	28070.04
556.50	28037.28
556.66	28505.38
556.83	28023.23
556.99	28283.03
557.16	28311.12
557.32	28205.80
557.49	28247.93
557.65	28470.28
557.82	28278.35
557.98	28369.63
558.15	28477.30
558.32	28594.32
558.48	28442.19
558.65	28776.89
558.81	28467.94
558.98	28549.85
559.14	28397.72
559.31	28652.84
559.47	28173.03
559.64	28531.13
559.80	28453.89
559.97	28484.32
560.13	28664.54
560.30	28643.48
560.46	28996.90
560.63	28875.19
560.79	28701.99
560.96	28664.54
561.12	28727.74
561.29	28655.18
561.45	28755.82
561.61	28849.44
561.78	28999.24
561.94	28849.44
562.11	28830.72
562.27	28835.40
562.44	28638.80
562.60	28676.24
562.77	29036.69
562.93	28514.75
563.10	28989.88
563.26	28727.74
563.42	29022.64
563.59	28971.15
563.75	29024.98
563.92	29404.15
564.08	28659.86
564.24	29032.00
564.41	28390.70
564.57	28793.27
564.74	29024.98
564.90	29069.45
565.07	28989.88
565.23	29036.69
565.39	29418.19
565.56	29228.61
565.72	29099.88
565.88	29376.06
566.05	29041.37
566.21	29259.04
566.38	29422.87
566.54	29261.38
566.70	29310.53
566.87	29310.53
567.03	29443.94
567.19	29385.43
567.36	29347.98
567.52	29483.73
567.68	29212.23
567.85	29015.62
568.01	29362.02
568.17	29118.60
568.34	29603.10
568.50	29603.10
568.66	29343.30
568.83	29455.64
568.99	28971.15
569.15	29467.34
569.32	29343.30
569.48	29064.77
569.64	29256.70
569.81	29266.06
569.97	29071.79
570.13	29338.62
570.30	29172.44
570.46	29460.32
570.62	29191.16
570.78	29053.07
570.95	29270.74
571.11	29212.23
571.27	29064.77
571.43	29102.22
571.60	29535.22
571.76	29329.25
571.92	29619.48
572.09	29682.67
572.25	29521.18
572.41	29551.60
572.57	29387.77
572.74	29757.57
572.90	29158.39
573.06	29333.93
573.22	29376.06
573.38	29612.46
573.55	29310.53
573.71	29961.20
573.87	29804.38
574.03	29528.20
574.20	29460.32
574.36	29633.52
574.52	29928.43
574.68	29364.36
574.84	29413.51
575.01	29607.78
575.17	28992.22
575.33	29317.55
575.49	29383.09
575.65	29280.10
575.82	29303.51
575.98	29432.24
576.14	29883.96
576.30	29486.07
576.46	29795.02
576.62	29579.69
576.79	29582.03
576.95	29434.58
577.11	29593.73
577.27	29586.71
577.43	29539.90
577.59	29549.26
577.75	29542.24
577.92	29380.74
578.08	29530.54
578.24	29455.64
578.40	29769.27
578.56	29776.30
578.72	29701.40
578.88	30125.04
579.04	29577.35
579.21	29881.62
579.37	29937.79
579.53	30010.35
579.69	29188.82
579.85	29930.77
580.01	29301.17
580.17	29340.96
580.33	29242.65
580.49	29855.87
580.65	29769.27
580.82	30143.76
580.98	29907.37
581.14	29544.58
581.30	29914.39
581.46	29874.60
581.62	29476.71
581.78	29706.08
581.94	29523.52
582.10	29432.24
582.26	29780.98
582.42	29638.20
582.58	29916.73
582.74	29628.84
582.90	29996.31
583.06	29792.68
583.22	29355.00
583.38	29598.41
583.54	30230.36
583.70	29645.23
583.86	29495.43
584.02	29687.36
584.18	30036.09
584.34	30082.91
584.50	30492.50
584.66	29872.26
584.82	29582.03
584.98	29633.52
585.14	30003.33
585.30	29572.67
585.46	29649.91
585.62	29563.31
585.78	29635.86
585.94	29584.37
586.10	29848.85
586.26	30246.74
586.42	29799.70
586.58	29907.37
586.74	29979.92
586.90	29937.79
587.06	30082.91
587.22	29572.67
587.38	29715.44
587.54	30155.46
587.70	30251.42
587.86	30094.61
588.02	30188.23
588.18	30632.93
588.34	29956.52
588.49	30312.28
588.65	29493.09
588.81	29532.88
588.97	29811.40
589.13	29759.91
589.29	29883.96
589.45	30110.99
589.61	29853.53
589.77	30403.56
589.93	30103.97
590.08	30368.45
590.24	30480.80
590.40	30352.07
590.56	30225.68
590.72	30356.75
590.88	29682.67
591.04	30319.30
591.20	30424.62
591.35	30040.78
591.51	30223.34
591.67	30281.85
591.83	30501.86
591.99	29998.65
