SpectraSuite Data File
++++++++++++++++++++++++++++++++++++
Date: Fri Oct 18 13:58:21 GMT-05:00 2013
User: bianchi
Dark Spectrum Present: No
Reference Spectrum Present: No
Number of Sampled Component Spectra: 1
Spectrometers: USB2+H05261
Integration Time (usec): 50000 (USB2+H05261)
Spectra Averaged: 1 (USB2+H05261)
Boxcar Smoothing: 0 (USB2+H05261)
Correct for Electrical Dark: No (USB2+H05261)
Strobe/Lamp Enabled: No (USB2+H05261)
Correct for Detector Non-linearity: No (USB2+H05261)
Correct for Stray Light: No (USB2+H05261)
Number of Pixels in Processed Spectrum: 2048
>>>>>Begin Processed Spectral Data<<<<<
365.73	0.00
365.92	0.00
366.12	0.00
366.32	0.00
366.52	0.00
366.72	0.00
366.91	0.00
367.11	0.00
367.31	0.00
367.51	0.00
367.70	0.00
367.90	0.00
368.10	0.00
368.30	0.00
368.49	0.00
368.69	0.00
368.89	0.00
369.09	0.00
369.28	0.00
369.48	0.00
369.68	0.00
369.87	0.00
370.07	0.00
370.27	0.00
370.47	0.00
370.66	117.03
370.86	98.30
371.06	205.97
371.25	173.20
371.45	119.37
371.65	100.64
371.84	77.24
372.04	154.48
372.24	131.07
372.44	177.88
372.63	149.79
372.83	238.73
373.03	102.98
373.22	248.10
373.42	203.63
373.62	187.24
373.81	245.76
374.01	201.29
374.21	257.46
374.40	210.65
374.60	255.12
374.79	292.57
374.99	215.33
375.19	227.03
375.38	212.99
375.58	215.33
375.78	231.71
375.97	273.84
376.17	264.48
376.37	278.52
376.56	259.80
376.76	362.78
376.95	299.59
377.15	304.27
377.35	276.18
377.54	210.65
377.74	234.05
377.93	294.91
378.13	322.99
378.33	241.08
378.52	252.78
378.72	301.93
378.91	304.27
379.11	236.39
379.31	217.67
379.50	238.73
379.70	234.05
379.89	250.44
380.09	278.52
380.28	327.68
380.48	294.91
380.68	320.65
380.87	243.42
381.07	322.99
381.26	301.93
381.46	327.68
381.65	297.25
381.85	245.76
382.04	287.89
382.24	348.74
382.43	351.08
382.63	297.25
382.83	311.29
383.02	397.89
383.22	393.21
383.41	320.65
383.61	404.91
383.80	330.02
384.00	372.15
384.19	353.42
384.39	341.72
384.58	418.96
384.78	411.93
384.97	395.55
385.17	360.44
385.36	379.17
385.56	348.74
385.75	332.36
385.95	388.53
386.14	367.46
386.34	360.44
386.53	327.68
386.72	346.40
386.92	482.15
387.11	379.17
387.31	425.98
387.50	346.40
387.70	444.70
387.89	428.32
388.09	425.98
388.28	531.30
388.48	421.30
388.67	472.79
388.86	444.70
389.06	521.94
389.25	407.25
389.45	458.74
389.64	416.62
389.84	589.82
390.03	444.70
390.22	461.09
390.42	381.51
390.61	470.45
390.81	411.93
391.00	514.92
391.19	514.92
391.39	505.56
391.58	468.11
391.78	543.00
391.97	594.50
392.16	472.79
392.36	526.62
392.55	505.56
392.75	526.62
392.94	475.13
393.13	512.58
393.33	564.07
393.52	587.47
393.71	575.77
393.91	582.79
394.10	582.79
394.29	568.75
394.49	528.96
394.68	543.00
394.88	599.18
395.07	606.20
395.26	550.03
395.46	550.03
395.65	718.54
395.84	613.22
396.04	538.32
396.23	599.18
396.42	596.84
396.62	713.86
396.81	585.13
397.00	627.26
397.19	617.90
397.39	653.01
397.58	634.29
397.77	669.39
397.97	655.35
398.16	720.88
398.35	751.31
398.55	650.67
398.74	699.82
398.93	676.41
399.12	671.73
399.32	697.48
399.51	716.20
399.70	683.44
399.90	746.63
400.09	760.67
400.28	821.53
400.47	739.61
400.67	767.70
400.86	858.98
401.05	779.40
401.24	777.06
401.44	847.27
401.63	772.38
401.82	812.17
402.01	791.10
402.21	795.78
402.40	889.40
402.59	788.76
402.78	851.96
402.97	889.40
403.17	784.08
403.36	840.25
403.55	926.85
403.74	873.02
403.93	777.06
404.13	896.43
404.32	891.74
404.51	875.36
404.70	901.11
404.89	919.83
405.09	945.58
405.28	919.83
405.47	894.08
405.66	901.11
405.85	961.96
406.05	880.04
406.24	908.13
406.43	957.28
406.62	912.81
406.81	999.41
407.00	964.30
407.20	971.32
407.39	1041.54
407.58	1020.47
407.77	1011.11
407.96	1064.94
408.15	1029.84
408.34	1029.84
408.54	1071.97
408.73	1174.95
408.92	1029.84
409.11	1125.80
409.30	1153.88
409.49	1041.54
409.68	1078.99
409.87	1179.63
410.07	1247.51
410.26	1151.54
410.45	1137.50
410.64	1172.61
410.83	1158.57
411.02	1256.87
411.21	1210.06
411.40	1231.12
411.59	1280.27
411.78	1188.99
411.98	1238.14
412.17	1315.38
412.36	1275.59
412.55	1275.59
412.74	1427.73
412.93	1390.28
413.12	1273.25
413.31	1308.36
413.50	1317.72
413.69	1355.17
413.88	1369.21
414.07	1497.94
414.26	1479.22
414.45	1441.77
414.64	1383.26
414.83	1490.92
415.02	1465.18
415.22	1394.96
415.41	1521.35
415.60	1572.84
415.79	1565.82
415.98	1596.25
416.17	1640.72
416.36	1584.54
416.55	1481.56
416.74	1720.29
416.93	1636.03
417.12	1621.99
417.31	1661.78
417.50	1715.61
417.69	1640.72
417.88	1687.53
418.07	1680.50
418.26	1692.21
418.45	1732.00
418.64	1813.92
418.83	1776.47
419.02	1785.83
419.21	1790.51
419.39	1806.89
419.58	1851.36
419.77	1727.32
419.96	1853.70
420.15	1867.75
420.34	1909.88
420.53	1879.45
420.72	1944.99
420.91	1909.88
421.10	2010.52
421.29	1905.20
421.48	1926.26
421.67	1989.46
421.86	1891.15
422.05	1909.88
422.24	1916.90
422.43	1886.47
422.61	1982.43
422.80	1959.03
422.99	1940.30
423.18	1933.28
423.37	2003.50
423.56	2043.29
423.75	1961.37
423.94	1989.46
424.13	1778.81
424.32	1919.24
424.50	1902.86
424.69	2031.58
424.88	2062.01
425.07	1881.79
425.26	1935.62
425.45	1982.43
425.64	2019.88
425.83	2001.16
426.01	2083.08
426.20	2085.42
426.39	1984.77
426.58	2054.99
426.77	2062.01
426.96	2036.27
427.15	2050.31
427.33	2153.29
427.52	2111.16
427.71	2073.71
427.90	2071.37
428.09	2216.49
428.28	2134.57
428.46	2157.97
428.65	2139.25
428.84	2129.89
429.03	2265.64
429.22	2216.49
429.40	2225.85
429.59	2296.07
429.78	2143.93
429.97	2054.99
430.16	2157.97
430.34	2324.15
430.53	2317.13
430.72	2406.07
430.91	2197.76
431.10	2289.04
431.28	2221.17
431.47	2249.25
431.66	2410.75
431.85	2394.37
432.03	2347.56
432.22	2361.60
432.41	2392.03
432.60	2293.72
432.79	2305.43
432.97	2490.33
433.16	2548.84
433.35	2434.16
433.54	2394.37
433.72	2511.39
433.91	2509.05
434.10	2502.03
434.28	2487.99
434.47	2523.10
434.66	2600.34
434.85	2607.36
435.03	2548.84
435.22	2520.76
435.41	2649.49
435.59	2583.95
435.78	2644.81
435.97	2593.31
436.16	2586.29
436.34	2595.65
436.53	2698.64
436.72	2780.56
436.90	2588.63
437.09	2661.19
437.28	2729.06
437.46	2717.36
437.65	2677.57
437.84	2834.39
438.02	2712.68
438.21	2857.79
438.40	2860.13
438.58	2731.41
438.77	2775.88
438.96	2951.42
439.14	2918.65
439.33	2963.12
439.52	2827.37
439.70	2885.88
439.89	3005.25
440.08	2986.52
440.26	3009.93
440.45	3042.70
440.63	2930.35
440.82	3084.83
441.01	3077.80
441.19	3009.93
441.38	3129.30
441.57	3173.77
441.75	3180.79
441.94	3232.28
442.12	3201.85
442.31	3265.05
442.50	3410.16
442.68	3208.87
442.87	3229.94
443.05	3290.79
443.24	3363.35
443.43	3410.16
443.61	3353.99
443.80	3375.05
443.98	3194.83
444.17	3255.69
444.35	3400.80
444.54	3260.37
444.73	3302.50
444.91	3288.45
445.10	3368.03
445.28	3426.54
445.47	3398.46
445.65	3358.67
445.84	3454.63
446.02	3496.76
446.21	3403.14
446.39	3431.23
446.58	3433.57
446.77	3496.76
446.95	3433.57
447.14	3499.10
447.32	3440.59
447.51	3421.86
447.69	3440.59
447.88	3424.20
448.06	3555.27
448.25	3471.01
448.43	3562.30
448.62	3508.46
448.80	3552.93
448.99	3623.15
449.17	3543.57
449.36	3555.27
449.54	3714.43
449.73	3655.92
449.91	3646.55
450.10	3651.24
450.28	3819.75
450.46	3595.06
450.65	3700.39
450.83	3726.13
451.02	3742.52
451.20	3655.92
451.39	3719.11
451.57	3676.98
451.76	3651.24
451.94	3726.13
452.13	3929.76
452.31	3873.59
452.49	3655.92
452.68	3742.52
452.86	3868.91
453.05	3819.75
453.23	3831.46
453.42	3721.45
453.60	3852.52
453.78	3812.73
453.97	3798.69
454.15	3845.50
454.34	3927.42
454.52	4007.00
454.70	3981.25
454.89	3854.86
455.07	4067.85
455.26	4037.42
455.44	4189.56
455.62	4044.45
455.81	3896.99
455.99	4161.47
456.17	3974.23
456.36	3885.29
456.54	4117.00
456.73	4198.92
456.91	4161.47
457.09	4250.41
457.28	4250.41
457.46	4138.07
457.64	4315.95
457.83	4346.37
458.01	4131.05
458.19	4489.15
458.38	4175.52
458.56	4339.35
458.74	4318.29
458.93	4311.27
459.11	4454.04
459.29	4362.76
459.48	4533.62
459.66	4390.84
459.84	4648.30
460.03	4606.17
460.21	4400.21
460.39	4505.53
460.57	4470.42
460.76	4524.26
460.94	4531.28
461.12	4568.73
461.31	4353.40
461.49	4465.74
461.67	4463.40
461.85	4690.43
462.04	4552.34
462.22	4793.42
462.40	4702.14
462.59	4713.84
462.77	4643.62
462.95	4533.62
463.13	4655.33
463.32	4863.63
463.50	4610.86
463.68	4702.14
463.86	4809.80
464.05	4863.63
464.23	4865.97
464.41	4809.80
464.59	4697.46
464.78	5022.79
464.96	4788.74
465.14	4812.14
465.32	4987.68
465.50	5008.75
465.69	5018.11
465.87	4954.91
466.05	4997.04
466.23	4943.21
466.41	5095.35
466.60	5088.32
466.78	4926.83
466.96	4971.30
467.14	4987.68
467.32	5025.13
467.51	5160.88
467.69	4983.00
467.87	5057.90
468.05	5083.64
468.23	4814.48
468.41	5184.29
468.60	5069.60
468.78	5116.41
468.96	5039.17
469.14	5088.32
469.32	5240.46
469.50	5036.83
469.69	5132.79
469.87	5170.24
470.05	5338.76
470.23	5301.31
470.41	5249.82
470.59	5334.08
470.77	5451.11
470.95	5467.49
471.14	5390.25
471.32	5488.56
471.50	5675.80
471.68	5518.98
471.86	5439.40
472.04	5441.75
472.22	5537.71
472.40	5598.56
472.58	5741.33
472.77	5820.91
472.95	5568.13
473.13	5743.67
473.31	5785.80
473.49	5851.34
473.67	5891.13
473.85	5907.51
474.03	5907.51
474.21	5949.64
474.39	6076.03
474.57	6029.22
474.75	6125.18
474.93	6017.52
475.12	5980.07
475.30	6069.01
475.48	6038.58
475.66	6085.39
475.84	6045.60
476.02	6232.85
476.20	6258.59
476.38	6389.66
476.56	6588.61
476.74	6473.92
476.92	6541.80
477.10	6473.92
477.28	6612.01
477.46	6396.68
477.64	6581.59
477.82	6626.06
478.00	6759.47
478.18	6832.02
478.36	6853.09
478.54	6965.43
478.72	7021.61
478.90	6984.16
479.08	7204.17
479.26	7183.10
479.44	7293.11
479.62	7089.48
479.80	7375.03
479.98	7150.34
480.16	7414.82
480.34	7337.58
480.52	7485.03
480.70	7384.39
480.88	7606.74
481.06	7557.59
481.24	7606.74
481.41	7857.18
481.59	7789.30
481.77	7798.66
481.95	7887.61
482.13	7925.05
482.31	7976.55
482.49	8257.41
482.67	8210.60
482.85	8341.67
483.03	8234.00
483.21	8500.83
483.39	8322.94
483.57	8374.44
483.74	8594.45
483.92	8573.38
484.10	8477.42
484.28	8837.86
484.46	9011.06
484.64	8877.65
484.82	8842.54
485.00	9048.51
485.18	9343.42
485.35	9184.26
485.53	9004.04
485.71	9345.76
485.89	9413.63
486.07	9455.76
486.25	9355.12
486.43	9462.79
486.61	9654.71
486.78	9678.12
486.96	9720.24
487.14	9806.84
487.32	9870.04
487.50	10155.58
487.68	9968.34
487.85	10202.40
488.03	10235.16
488.21	10541.77
488.39	10518.37
488.57	10399.00
488.75	10604.97
488.92	10670.50
489.10	10600.29
489.28	10857.75
489.46	10839.02
489.64	10920.94
489.81	11370.32
489.99	11112.86
490.17	11014.56
490.35	11082.44
490.53	11286.06
490.70	11407.77
490.88	11435.86
491.06	11407.77
491.24	11683.95
491.41	11688.64
491.59	11695.66
491.77	11798.64
491.95	11997.59
492.13	11920.35
492.30	12311.22
492.48	11950.78
492.66	12091.21
492.84	11953.12
493.01	12416.54
493.19	12173.13
493.37	12418.88
493.54	12608.47
493.72	12603.78
493.90	12645.91
494.08	12556.97
494.25	12685.70
494.43	12882.31
494.61	13060.19
494.79	12989.97
494.96	13076.57
495.14	13289.56
495.32	13319.99
495.49	13486.17
495.67	13434.68
495.85	13441.70
496.02	13792.78
496.20	13830.23
496.38	13687.45
496.55	13949.59
496.73	13994.06
496.91	14003.43
497.09	13907.46
497.26	14015.13
497.44	14001.08
497.62	14171.94
497.79	14260.88
497.97	14288.97
498.14	14672.82
498.32	14689.20
498.50	14389.61
498.67	14771.12
498.85	14705.59
499.03	14960.70
499.20	14614.30
499.38	14827.29
499.56	14792.19
499.73	14857.72
499.91	15091.77
500.08	15283.70
500.26	15061.35
500.44	15131.56
500.61	15510.73
500.79	15180.71
500.97	15417.11
501.14	15566.90
501.32	15831.38
501.49	15639.46
501.67	15641.80
501.84	15683.93
502.02	15885.22
502.20	15880.53
502.37	15922.66
502.55	16013.95
502.72	15831.38
502.90	15789.25
503.07	15901.60
503.25	16020.97
503.43	16292.47
503.60	16540.57
503.78	16343.96
503.95	16255.02
504.13	16353.32
504.30	16184.80
504.48	16402.47
504.65	16762.92
504.83	16821.43
505.01	16690.36
505.18	16692.70
505.36	16985.27
505.53	16980.59
505.71	16573.33
505.88	16879.94
506.06	17022.72
506.23	17081.23
506.41	16940.80
506.58	17165.49
506.76	17123.36
506.93	17408.90
507.11	17085.91
507.28	17352.73
507.46	17348.05
507.63	17502.53
507.81	17334.01
507.98	17607.85
508.16	17640.62
508.33	17554.02
508.50	17729.56
508.68	17645.30
508.85	17956.59
509.03	17991.70
509.20	17820.84
509.38	17982.34
509.55	18288.95
509.73	17963.61
509.90	18319.37
510.08	18120.43
510.25	17769.35
510.42	18321.71
510.60	18347.46
510.77	18572.15
510.95	18616.62
511.12	18480.87
511.30	18380.23
511.47	18398.95
511.64	18724.29
511.82	18541.72
511.99	18553.43
512.17	18775.78
512.34	18717.26
512.51	18904.51
512.69	18813.23
512.86	18728.97
513.04	19152.60
513.21	19058.98
513.38	19391.34
513.56	19374.95
513.73	18965.36
513.90	19098.77
514.08	19215.80
514.25	19304.74
514.43	19695.61
514.60	19374.95
514.77	19576.24
514.95	19604.33
515.12	19688.59
515.29	19770.51
515.47	19541.13
515.64	19932.00
515.81	19711.99
515.99	19873.49
516.16	19613.69
516.33	19974.13
516.51	19997.54
516.68	20018.60
516.85	19953.07
517.03	20285.42
517.20	20517.14
517.37	20374.36
517.54	20432.88
517.72	20472.67
517.89	19953.07
518.06	20423.51
518.24	20329.89
518.41	20655.23
518.58	20465.64
518.75	20301.81
518.93	20727.78
519.10	20596.71
519.27	20702.04
519.45	20713.74
519.62	20959.50
519.79	20453.94
519.96	20992.26
520.14	20950.14
520.31	20762.89
520.48	21069.50
520.65	20975.88
520.83	21106.95
521.00	21186.53
521.17	21123.33
521.34	20751.19
521.52	21273.13
521.69	21303.56
521.86	21476.76
522.03	21706.13
522.20	21570.38
522.38	21123.33
522.55	21385.47
522.72	21348.03
522.89	21448.67
523.07	21729.53
523.24	21699.11
523.41	21785.71
523.58	21584.42
523.75	22230.41
523.92	21708.47
524.10	21713.15
524.27	22113.38
524.44	22106.36
524.61	22321.69
524.78	22068.91
524.96	22195.30
525.13	22036.14
525.30	22225.73
525.47	22141.47
525.64	22548.72
525.81	22522.98
525.98	22792.14
526.16	22473.82
526.33	22483.19
526.50	22689.15
526.67	22419.99
526.84	22377.86
527.01	22497.23
527.18	22604.89
527.36	22537.02
527.53	22104.02
527.70	22831.93
527.87	22955.97
528.04	22537.02
528.21	23005.13
528.38	22827.24
528.55	23101.09
528.72	23098.75
528.89	23213.43
529.07	23049.60
529.24	23166.62
529.41	23040.23
529.58	23204.07
529.75	23552.81
529.92	23229.82
530.09	23297.69
530.26	23709.63
530.43	23358.55
530.60	23260.24
530.77	23405.36
530.94	23536.43
531.11	23442.81
531.28	23515.36
531.46	23508.34
531.63	23768.14
531.80	23709.63
531.97	23836.02
532.14	23955.38
532.31	23697.92
532.48	23747.08
532.65	24084.11
532.82	23468.55
532.99	23843.04
533.16	23674.52
533.33	23885.17
533.50	24137.94
533.67	24219.86
533.84	24123.90
534.01	24224.54
534.18	23742.39
534.35	24290.08
534.52	24348.59
534.69	24451.58
534.86	24215.18
535.03	24624.78
535.20	24549.88
535.37	24620.10
535.54	24566.26
535.71	24276.04
535.88	24535.84
536.05	24393.06
536.22	24568.60
536.38	24702.01
536.55	24390.72
536.72	24643.50
536.89	24226.89
537.06	24723.08
537.23	24875.21
537.40	24577.97
537.57	24966.49
537.74	24844.79
537.91	25226.29
538.08	24755.85
538.25	25116.29
538.42	24833.08
538.59	24615.41
538.75	24877.55
538.92	24587.33
539.09	24741.80
539.26	25132.67
539.43	25123.31
539.60	25160.76
539.77	25467.37
539.94	24917.34
540.11	25057.78
540.28	25312.89
540.44	25434.60
540.61	24938.41
540.78	24999.26
540.95	25453.33
541.12	25326.94
541.29	25186.50
541.46	25301.19
541.62	25329.28
541.79	25397.15
541.96	25090.54
542.13	25238.00
542.30	25357.36
542.47	25516.52
542.63	25598.44
542.80	25820.79
542.97	26033.78
543.14	25844.20
543.31	25893.35
543.48	26003.35
543.64	26216.34
543.81	25942.50
543.98	26040.80
544.15	26391.88
544.32	26284.22
544.48	26324.01
544.65	26176.55
544.82	26391.88
544.99	26003.35
545.16	26134.42
545.32	26139.10
545.49	26216.34
545.66	26469.12
545.83	26586.15
546.00	26686.79
546.16	26434.01
546.33	26157.83
546.50	25912.07
546.67	26209.32
546.83	26181.23
547.00	26586.15
547.17	26586.15
547.34	26696.15
547.50	26785.09
547.67	26787.43
547.84	26520.61
548.00	26799.13
548.17	27070.64
548.34	26867.01
548.51	26862.33
548.67	27054.25
548.84	27147.87
549.01	26998.08
549.18	26724.24
549.34	26981.70
549.51	26876.37
549.68	27138.51
549.84	26876.37
550.01	26813.18
550.18	26541.68
550.34	27101.06
550.51	27089.36
550.68	27236.81
550.84	26815.52
551.01	27213.41
551.18	26827.22
551.34	27009.78
551.51	27227.45
551.68	27339.80
551.84	27164.26
552.01	27257.88
552.18	27218.09
552.34	27105.74
552.51	27491.93
552.68	27468.53
552.84	27220.43
553.01	27545.76
553.18	27264.90
553.34	27873.44
553.51	27431.08
553.67	27707.26
553.84	27737.69
554.01	27639.39
554.17	27637.05
554.34	27346.82
554.51	27459.16
554.67	27962.38
554.84	27810.25
555.00	27489.59
555.17	27651.09
555.33	27513.00
555.50	27557.47
555.67	27562.15
555.83	27445.12
556.00	27697.90
556.16	28016.21
556.33	27531.72
556.50	27613.64
556.66	28074.73
556.83	27868.76
556.99	28290.06
557.16	28257.29
557.32	28098.13
557.49	28240.90
557.65	27655.77
557.82	28011.53
557.98	27826.63
558.15	28395.38
558.32	27976.42
558.48	27924.93
558.65	28231.54
558.81	28123.88
558.98	27995.15
559.14	28271.33
559.31	28215.16
559.47	27922.59
559.64	28521.77
559.80	28325.16
559.97	28299.42
560.13	28116.86
560.30	28306.44
560.46	28573.26
560.63	28341.55
560.79	28175.37
560.96	28362.61
561.12	28231.54
561.29	28222.18
561.45	28386.02
561.61	28664.54
561.78	28613.05
561.94	28584.96
562.11	28622.41
562.27	28858.81
562.44	28631.77
562.60	28676.24
562.77	28240.90
562.93	28507.72
563.10	28652.84
563.26	28512.41
563.42	28776.89
563.59	28659.86
563.75	28790.93
563.92	28631.77
564.08	28587.30
564.24	28409.42
564.41	28575.60
564.57	28631.77
564.74	28170.69
564.90	28671.56
565.07	28762.84
565.23	28842.42
565.39	29022.64
565.56	28821.36
565.72	28563.90
565.88	28835.40
566.05	28716.03
566.21	28524.11
566.38	28797.95
566.54	28847.10
566.70	29048.39
566.87	29139.67
567.03	28739.44
567.19	29322.23
567.36	28929.02
567.52	28554.54
567.68	28849.44
567.85	28685.61
568.01	29102.22
568.17	28706.67
568.34	28905.62
568.50	28814.34
568.66	29015.62
568.83	28891.57
568.99	29249.67
569.15	29226.27
569.32	28718.37
569.48	28872.85
569.64	28868.17
569.81	29230.95
569.97	29095.20
570.13	29060.09
570.30	28690.29
570.46	29163.08
570.62	28945.41
570.78	29015.62
570.95	28657.52
571.11	29273.08
571.27	28664.54
571.43	29116.26
571.60	29043.71
571.76	29039.03
571.92	29132.65
572.09	29523.52
572.25	29102.22
572.41	29032.00
572.57	29373.72
572.74	28875.19
572.90	29373.72
573.06	29036.69
573.22	28914.98
573.38	29006.26
573.55	29303.51
573.71	29287.12
573.87	29069.45
574.03	28980.51
574.20	29120.95
574.36	29151.37
574.52	29324.57
574.68	29252.02
574.84	29167.76
575.01	29439.26
575.17	29193.50
575.33	29177.12
575.49	29233.29
575.65	29446.28
575.82	28996.90
575.98	29390.11
576.14	29212.23
576.30	29130.31
576.46	29343.30
576.62	29432.24
576.79	29055.41
576.95	29200.52
577.11	29443.94
577.27	29563.31
577.43	29291.80
577.59	29223.93
577.75	29221.59
577.92	28919.66
578.08	28924.34
578.24	29235.63
578.40	29195.84
578.56	29631.18
578.72	29270.74
578.88	29116.26
579.04	29376.06
579.21	29558.63
579.37	29439.26
579.53	29357.34
579.69	29200.52
579.85	29319.89
580.01	29223.93
580.17	29404.15
580.33	29207.55
580.49	29228.61
580.65	29429.90
580.82	29266.06
580.98	29516.50
581.14	29254.36
581.30	29483.73
581.46	29179.46
581.62	29378.40
581.78	29055.41
581.94	29369.04
582.10	29479.05
582.26	29523.52
582.42	29322.23
582.58	29607.78
582.74	29207.55
582.90	29420.53
583.06	29806.72
583.22	29596.07
583.38	29427.56
583.54	29198.18
583.70	29677.99
583.86	29282.44
584.02	29226.27
584.18	29638.20
584.34	29937.79
584.50	29820.77
584.66	29479.05
584.82	29298.83
584.98	29259.04
585.14	29560.97
585.30	29411.17
585.46	29113.92
585.62	29263.72
585.78	29369.04
585.94	29490.75
586.10	29738.85
586.26	29706.08
586.42	29567.99
586.58	29518.84
586.74	29275.42
586.90	29142.01
587.06	29387.77
587.22	29539.90
587.38	29476.71
587.54	29584.37
587.70	30005.67
587.86	29685.01
588.02	29479.05
588.18	29914.39
588.34	29535.22
588.49	29549.26
588.65	29338.62
588.81	29462.66
588.97	29820.77
589.13	29626.50
589.29	29537.56
589.45	29549.26
589.61	29846.51
589.77	29502.45
589.93	29989.28
590.08	29851.19
590.24	29853.53
590.40	29834.81
590.56	29825.45
590.72	29862.90
590.88	29153.71
591.04	29359.68
591.20	29820.77
591.35	29790.34
591.51	30033.75
591.67	29888.64
591.83	29898.00
591.99	29942.47
