SpectraSuite Data File
++++++++++++++++++++++++++++++++++++
Date: Fri Oct 18 13:58:00 GMT-05:00 2013
User: bianchi
Dark Spectrum Present: No
Reference Spectrum Present: No
Number of Sampled Component Spectra: 1
Spectrometers: USB2+H05261
Integration Time (usec): 50000 (USB2+H05261)
Spectra Averaged: 1 (USB2+H05261)
Boxcar Smoothing: 0 (USB2+H05261)
Correct for Electrical Dark: No (USB2+H05261)
Strobe/Lamp Enabled: No (USB2+H05261)
Correct for Detector Non-linearity: No (USB2+H05261)
Correct for Stray Light: No (USB2+H05261)
Number of Pixels in Processed Spectrum: 2048
>>>>>Begin Processed Spectral Data<<<<<
365.73	0.00
365.92	0.00
366.12	0.00
366.32	0.00
366.52	0.00
366.72	0.00
366.91	0.00
367.11	0.00
367.31	0.00
367.51	0.00
367.70	0.00
367.90	0.00
368.10	0.00
368.30	0.00
368.49	0.00
368.69	0.00
368.89	0.00
369.09	0.00
369.28	0.00
369.48	0.00
369.68	0.00
369.87	0.00
370.07	0.00
370.27	0.00
370.47	0.00
370.66	74.90
370.86	119.37
371.06	117.03
371.25	107.66
371.45	154.48
371.65	121.71
371.84	88.94
372.04	201.29
372.24	215.33
372.44	175.54
372.63	177.88
372.83	255.12
373.03	201.29
373.22	187.24
373.42	161.50
373.62	196.60
373.81	208.31
374.01	187.24
374.21	262.14
374.40	154.48
374.60	255.12
374.79	210.65
374.99	217.67
375.19	215.33
375.38	159.16
375.58	266.82
375.78	220.01
375.97	313.63
376.17	276.18
376.37	189.58
376.56	222.35
376.76	290.23
376.95	222.35
377.15	224.69
377.35	264.48
377.54	304.27
377.74	266.82
377.93	255.12
378.13	308.95
378.33	334.70
378.52	327.68
378.72	220.01
378.91	297.25
379.11	257.46
379.31	257.46
379.50	264.48
379.70	355.76
379.89	320.65
380.09	299.59
380.28	315.97
380.48	301.93
380.68	243.42
380.87	278.52
381.07	332.36
381.26	294.91
381.46	332.36
381.65	369.80
381.85	383.85
382.04	299.59
382.24	372.15
382.43	388.53
382.63	320.65
382.83	355.76
383.02	327.68
383.22	327.68
383.41	404.91
383.61	297.25
383.80	322.99
384.00	379.17
384.19	383.85
384.39	433.00
384.58	355.76
384.78	355.76
384.97	372.15
385.17	351.08
385.36	374.49
385.56	344.06
385.75	402.57
385.95	458.74
386.14	414.27
386.34	463.43
386.53	358.10
386.72	430.66
386.92	454.06
387.11	498.53
387.31	442.36
387.50	376.83
387.70	440.02
387.89	440.02
388.09	444.70
388.28	418.96
388.48	437.68
388.67	472.79
388.86	428.32
389.06	325.33
389.25	456.40
389.45	454.06
389.64	477.47
389.84	442.36
390.03	430.66
390.22	535.98
390.42	512.58
390.61	468.11
390.81	505.56
391.00	498.53
391.19	503.22
391.39	507.90
391.58	503.22
391.78	463.43
391.97	477.47
392.16	517.26
392.36	601.52
392.55	554.71
392.75	571.09
392.94	573.43
393.13	575.77
393.33	507.90
393.52	517.26
393.71	613.22
393.91	622.58
394.10	568.75
394.29	561.73
394.49	606.20
394.68	613.22
394.88	543.00
395.07	554.71
395.26	575.77
395.46	571.09
395.65	585.13
395.84	622.58
396.04	662.37
396.23	716.20
396.42	685.78
396.62	645.99
396.81	706.84
397.00	648.33
397.19	730.25
397.39	669.39
397.58	641.31
397.77	730.25
397.97	582.79
398.16	704.50
398.35	685.78
398.55	723.23
398.74	692.80
398.93	711.52
399.12	671.73
399.32	695.14
399.51	674.07
399.70	802.80
399.90	725.57
400.09	805.14
400.28	720.88
400.47	711.52
400.67	795.78
400.86	755.99
401.05	791.10
401.24	706.84
401.44	826.21
401.63	760.67
401.82	898.77
402.01	868.34
402.21	894.08
402.40	823.87
402.59	779.40
402.78	755.99
402.97	807.48
403.17	821.53
403.36	805.14
403.55	851.96
403.74	889.40
403.93	922.17
404.13	903.45
404.32	884.72
404.51	826.21
404.70	950.26
404.89	947.92
405.09	1006.43
405.28	997.07
405.47	957.28
405.66	894.08
405.85	894.08
406.05	961.96
406.24	1013.45
406.43	933.87
406.62	1055.58
406.81	1027.50
407.00	1149.20
407.20	1062.60
407.39	992.39
407.58	1055.58
407.77	1032.18
407.96	973.66
408.15	1032.18
408.34	1078.99
408.54	1102.39
408.73	1095.37
408.92	1139.84
409.11	1034.52
409.30	1160.91
409.49	1083.67
409.68	1093.03
409.87	1116.44
410.07	1191.33
410.26	1179.63
410.45	1221.76
410.64	1210.06
410.83	1219.42
411.02	1270.91
411.21	1373.89
411.40	1233.46
411.59	1329.42
411.78	1226.44
411.98	1203.04
412.17	1317.72
412.36	1210.06
412.55	1373.89
412.74	1394.96
412.93	1385.60
413.12	1418.36
413.31	1488.58
413.50	1345.81
413.69	1376.24
413.88	1448.79
414.07	1502.62
414.26	1479.22
414.45	1409.00
414.64	1504.96
414.83	1511.99
415.02	1521.35
415.22	1638.38
415.41	1544.75
415.60	1511.99
415.79	1633.69
415.98	1556.46
416.17	1607.95
416.36	1654.76
416.55	1563.48
416.74	1598.59
416.93	1521.35
417.12	1703.91
417.31	1757.74
417.50	1657.10
417.69	1720.29
417.88	1830.30
418.07	1816.26
418.26	1762.42
418.45	1760.08
418.64	1799.87
418.83	1771.79
419.02	1724.97
419.21	1879.45
419.39	1860.73
419.58	1825.62
419.77	1844.34
419.96	1991.80
420.15	1935.62
420.34	1928.60
420.53	1753.06
420.72	1874.77
420.91	1916.90
421.10	1998.82
421.29	1961.37
421.48	1977.75
421.67	1982.43
421.86	1968.39
422.05	1961.37
422.24	2024.56
422.43	1891.15
422.61	1935.62
422.80	1966.05
422.99	1977.75
423.18	1970.73
423.37	2038.61
423.56	2031.58
423.75	1973.07
423.94	1905.20
424.13	1816.26
424.32	1870.09
424.50	2071.37
424.69	2064.35
424.88	2125.21
425.07	2115.84
425.26	2066.69
425.45	2038.61
425.64	2019.88
425.83	2019.88
426.01	2097.12
426.20	2010.52
426.39	2153.29
426.58	2073.71
426.77	2045.63
426.96	2195.42
427.15	2122.87
427.33	2101.80
427.52	2099.46
427.71	2155.63
427.90	2157.97
428.09	2223.51
428.28	2179.04
428.46	2207.13
428.65	2176.70
428.84	2345.22
429.03	2211.81
429.22	2115.84
429.40	2160.31
429.59	2347.56
429.78	2193.08
429.97	2104.14
430.16	2193.08
430.34	2260.96
430.53	2319.47
430.72	2401.39
430.91	2366.28
431.10	2296.07
431.28	2370.96
431.47	2422.45
431.66	2424.80
431.85	2335.85
432.03	2392.03
432.22	2462.24
432.41	2387.35
432.60	2413.09
432.79	2370.96
432.97	2298.41
433.16	2537.14
433.35	2443.52
433.54	2443.52
433.72	2473.95
433.91	2518.42
434.10	2462.24
434.28	2420.11
434.47	2616.72
434.66	2574.59
434.85	2548.84
435.03	2621.40
435.22	2541.82
435.41	2719.70
435.59	2567.57
435.78	2612.04
435.97	2607.36
436.16	2789.92
436.34	2633.10
436.53	2724.38
436.72	2878.86
436.90	2712.68
437.09	2768.85
437.28	2740.77
437.46	2752.47
437.65	2743.11
437.84	2803.96
438.02	2729.06
438.21	2698.64
438.40	2724.38
438.58	2920.99
438.77	2836.73
438.96	2768.85
439.14	2818.00
439.33	2951.42
439.52	3002.91
439.70	2932.69
439.89	3035.67
440.08	3021.63
440.26	2984.18
440.45	3115.25
440.63	2942.05
440.82	3138.66
441.01	3201.85
441.19	3131.64
441.38	3129.30
441.57	3164.40
441.75	3192.49
441.94	3321.22
442.12	3201.85
442.31	3433.57
442.50	3417.18
442.68	3342.28
442.87	3358.67
443.05	3323.56
443.24	3377.39
443.43	3421.86
443.61	3538.89
443.80	3471.01
443.98	3346.97
444.17	3159.72
444.35	3363.35
444.54	3524.85
444.73	3433.57
444.91	3246.32
445.10	3428.88
445.28	3478.04
445.47	3403.14
445.65	3454.63
445.84	3599.74
446.02	3461.65
446.21	3487.40
446.39	3574.00
446.58	3524.85
446.77	3417.18
446.95	3485.06
447.14	3616.13
447.32	3398.46
447.51	3616.13
447.69	3412.50
447.88	3482.72
448.06	3606.77
448.25	3585.70
448.43	3559.95
448.62	3569.32
448.80	3419.52
448.99	3611.45
449.17	3597.40
449.36	3576.34
449.54	3737.84
449.73	3801.03
449.91	3784.65
450.10	3730.81
450.28	3967.21
450.46	3847.84
450.65	3798.69
450.83	3672.30
451.02	3691.02
451.20	3770.60
451.39	3918.06
451.57	3758.90
451.76	3833.80
451.94	3779.97
452.13	3887.63
452.31	3950.82
452.49	3892.31
452.68	3913.38
452.86	3794.01
453.05	3908.69
453.23	4007.00
453.42	3920.40
453.60	3915.72
453.78	3901.67
453.97	3854.86
454.15	3955.51
454.34	4023.38
454.52	4007.00
454.70	4049.13
454.89	3964.87
455.07	3990.61
455.26	4095.94
455.44	4074.87
455.62	4119.34
455.81	4002.32
455.99	4142.75
456.17	4046.79
456.36	4142.75
456.54	4212.96
456.73	4205.94
456.91	4245.73
457.09	4264.46
457.28	4395.53
457.46	4243.39
457.64	4449.36
457.83	4381.48
458.01	4320.63
458.19	4435.32
458.38	4402.55
458.56	4465.74
458.74	4421.27
458.93	4507.87
459.11	4517.23
459.29	4444.68
459.48	4390.84
459.66	4348.72
459.84	4456.38
460.03	4622.56
460.21	4472.76
460.39	4554.68
460.57	4545.32
460.76	4664.69
460.94	4575.75
461.12	4594.47
461.31	4517.23
461.49	4545.32
461.67	4660.01
461.85	4784.06
462.04	4690.43
462.22	5015.77
462.40	4603.83
462.59	4641.28
462.77	4702.14
462.95	4727.88
463.13	4739.58
463.32	4840.23
463.50	4720.86
463.68	4798.10
463.86	4952.57
464.05	4765.33
464.23	4788.74
464.41	4968.96
464.59	4983.00
464.78	5111.73
464.96	4987.68
465.14	4873.00
465.32	5015.77
465.50	5076.62
465.69	5198.33
465.87	5032.15
466.05	4887.04
466.23	5069.60
466.41	4992.36
466.60	5146.84
466.78	5020.45
466.96	5088.32
467.14	4903.42
467.32	5123.43
467.51	5067.26
467.69	5121.09
467.87	5107.05
468.05	5266.21
468.23	5081.30
468.41	5130.45
468.60	5085.98
468.78	5303.65
468.96	5359.83
469.14	5226.42
469.32	5301.31
469.50	5090.67
469.69	5420.68
469.87	5432.38
470.05	5589.20
470.23	5502.60
470.41	5572.82
470.59	5596.22
470.77	5474.51
470.95	5413.66
471.14	5493.24
471.32	5399.62
471.50	5720.27
471.68	5568.13
471.86	5502.60
472.04	5682.82
472.22	5715.59
472.40	5650.05
472.58	5633.67
472.77	5643.03
472.95	5846.66
473.13	6015.18
473.31	5701.54
473.49	5802.19
473.67	5825.59
473.85	5975.39
474.03	5956.66
474.21	6026.88
474.39	6026.88
474.57	6153.27
474.75	6099.44
474.93	6221.14
475.12	6164.97
475.30	6277.32
475.48	6277.32
475.66	6230.51
475.84	6279.66
476.02	6384.98
476.20	6443.49
476.38	6530.09
476.56	6551.16
476.74	6691.59
476.92	6464.56
477.10	6637.76
477.28	6799.26
477.46	6640.10
477.64	6792.23
477.82	6808.62
478.00	7045.01
478.18	6878.83
478.36	7002.88
478.54	6927.99
478.72	7133.95
478.90	7194.81
479.08	7122.25
479.26	7190.13
479.44	7229.91
479.62	7225.23
479.80	7478.01
479.98	7667.60
480.16	7485.03
480.34	7726.11
480.52	7543.55
480.70	7606.74
480.88	7592.70
481.06	7777.60
481.24	7552.91
481.41	7829.09
481.59	8039.74
481.77	7957.82
481.95	8210.60
482.13	8105.28
482.31	7920.37
482.49	8124.00
482.67	8215.28
482.85	8439.97
483.03	8446.99
483.21	8641.26
483.39	8524.23
483.57	8428.27
483.74	8655.30
483.92	8877.65
484.10	8779.35
484.28	8807.44
484.46	9029.79
484.64	9043.83
484.82	9188.94
485.00	9029.79
485.18	9327.03
485.35	9303.63
485.53	9441.72
485.71	9624.28
485.89	9612.58
486.07	9577.47
486.25	9418.32
486.43	9654.71
486.61	9893.44
486.78	10031.54
486.96	10176.65
487.14	10047.92
487.32	10181.33
487.50	10246.87
487.68	10572.20
487.85	10303.04
488.03	10375.59
488.21	10771.15
488.39	10832.00
488.57	10832.00
488.75	10541.77
488.92	10789.87
489.10	10860.09
489.28	10991.16
489.46	10876.47
489.64	11035.63
489.81	11157.33
489.99	11351.60
490.17	11393.73
490.35	11660.55
490.53	11700.34
490.70	11620.76
490.88	11681.61
491.06	11770.55
491.24	11798.64
491.41	11859.49
491.59	11948.43
491.77	12006.95
491.95	12475.06
492.13	12278.45
492.30	12479.74
492.48	12353.35
492.66	12315.90
492.84	12713.79
493.01	12594.42
493.19	12601.44
493.37	12842.52
493.54	12851.88
493.72	12786.35
493.90	12776.98
494.08	13107.00
494.25	13011.04
494.43	13287.22
494.61	13174.88
494.79	13497.87
494.96	13362.12
495.14	13434.68
495.32	13579.79
495.49	13399.57
495.67	13661.71
495.85	13799.80
496.02	14300.67
496.20	13848.95
496.38	13991.72
496.55	14031.51
496.73	14134.50
496.91	14181.31
497.09	14356.85
497.26	14497.28
497.44	14324.08
497.62	14328.76
497.79	14555.79
497.97	14593.24
498.14	14972.41
498.32	14686.86
498.50	14885.81
498.67	15138.58
498.85	14808.57
499.03	14963.04
499.20	14967.73
499.38	15267.31
499.56	15215.82
499.73	15349.23
499.91	15389.02
500.08	15414.77
500.26	15737.76
500.44	15398.38
500.61	15531.80
500.79	15669.89
500.97	15908.62
501.14	15789.25
501.32	15878.19
501.49	15906.28
501.67	15955.43
501.84	15744.78
502.02	16025.65
502.20	16114.59
502.37	16292.47
502.55	16470.35
502.72	16491.41
502.90	16540.57
503.07	16318.22
503.25	16416.52
503.43	16444.60
503.60	16746.53
503.78	16395.45
503.95	16594.40
504.13	16613.12
504.30	16748.87
504.48	16620.14
504.65	16753.55
504.83	16746.53
505.01	16957.18
505.18	16809.73
505.36	17319.96
505.53	17076.55
505.71	17025.06
505.88	17132.72
506.06	16980.59
506.23	17319.96
506.41	17359.75
506.58	17500.19
506.76	17598.49
506.93	17678.07
507.11	17500.19
507.28	17406.56
507.46	17490.82
507.63	17369.12
507.81	17865.31
507.98	17673.39
508.16	17767.01
508.33	18040.85
508.50	17825.52
508.68	18017.44
508.85	18045.53
509.03	18258.52
509.20	18129.79
509.38	18611.94
509.55	18361.50
509.73	18661.09
509.90	18494.91
510.08	18192.98
510.25	18513.64
510.42	18607.26
510.60	18867.06
510.77	18747.69
510.95	18703.22
511.12	18644.71
511.30	18799.18
511.47	19033.24
511.64	19051.96
511.82	18918.55
511.99	18890.46
512.17	19438.15
512.34	19257.93
512.51	19283.67
512.69	19126.86
512.86	19295.38
513.04	19545.81
513.21	19616.03
513.38	19538.79
513.56	19381.98
513.73	19573.90
513.90	19510.71
514.08	19742.42
514.25	19754.12
514.43	19669.86
514.60	19852.42
514.77	19892.21
514.95	20049.03
515.12	20004.56
515.29	19845.40
515.47	20109.88
515.64	20081.80
515.81	20255.00
515.99	20343.94
516.16	20505.43
516.33	20257.34
516.51	20318.19
516.68	20180.10
516.85	20430.54
517.03	20512.46
517.20	20664.59
517.37	20641.18
517.54	20322.87
517.72	20673.95
517.89	20987.58
518.06	20416.49
518.24	20833.11
518.41	20842.47
518.58	20823.75
518.75	20961.84
518.93	21130.36
519.10	20917.37
519.27	21193.55
519.45	21319.94
519.62	21633.57
519.79	21158.44
519.96	21104.61
520.14	21537.61
520.31	21472.07
520.48	21163.12
520.65	21259.09
520.83	21467.39
521.00	21514.20
521.17	21310.58
521.34	21443.99
521.52	21685.06
521.69	21759.96
521.86	21694.43
522.03	21886.35
522.20	22190.62
522.38	21963.59
522.55	22057.21
522.72	22157.85
522.89	21771.66
523.07	22211.68
523.24	22075.93
523.41	22148.49
523.58	21979.97
523.75	22394.25
523.92	22305.31
524.10	22263.18
524.27	22455.10
524.44	22520.63
524.61	22742.99
524.78	22649.36
524.96	22429.35
525.13	23073.00
525.30	22328.71
525.47	22455.10
525.64	22569.79
525.81	22663.41
525.98	22422.33
526.16	22651.70
526.33	22911.50
526.50	22899.80
526.67	22899.80
526.84	22759.37
527.01	22824.90
527.18	23255.56
527.36	23096.41
527.53	23278.97
527.70	23274.29
527.87	23407.70
528.04	23300.03
528.21	23239.18
528.38	23271.95
528.55	23587.92
528.72	23386.63
528.89	23564.51
529.07	23466.21
529.24	23447.49
529.41	23447.49
529.58	23419.40
529.75	23686.22
529.92	23803.25
530.09	23662.82
530.26	23789.20
530.43	23871.12
530.60	23662.82
530.77	23442.81
530.94	23929.64
531.11	23791.55
531.28	23997.51
531.46	23772.82
531.63	23840.70
531.80	24367.32
531.97	24091.13
532.14	24254.97
532.31	24109.86
532.48	24215.18
532.65	24374.34
532.82	24283.06
532.99	23955.38
533.16	24336.89
533.33	24360.30
533.50	24706.70
533.67	24694.99
533.84	24533.50
534.01	24411.79
534.18	24507.75
534.35	24584.99
534.52	24922.02
534.69	24496.05
534.86	24814.36
535.03	24559.24
535.20	24418.81
535.37	25153.74
535.54	24907.98
535.71	25010.96
535.88	24837.76
536.05	24865.85
536.22	24755.85
536.38	25008.62
536.55	25074.16
536.72	25198.21
536.89	25118.63
537.06	25179.48
537.23	25106.93
537.40	25116.29
537.57	25329.28
537.74	25301.19
537.91	25610.14
538.08	25586.74
538.25	25188.85
538.42	25340.98
538.59	25661.63
538.75	25296.51
538.92	25537.59
539.09	25556.31
539.26	25429.92
539.43	25450.99
539.60	25834.83
539.77	25736.53
539.94	25495.46
540.11	25776.32
540.28	25596.10
540.44	25961.22
540.61	26068.89
540.78	25673.34
540.95	25891.01
541.12	25266.08
541.29	25736.53
541.46	26080.59
541.62	25930.80
541.79	25827.81
541.96	25310.55
542.13	25935.48
542.30	26017.40
542.47	26298.26
542.63	26239.75
542.80	26302.94
542.97	26614.23
543.14	26771.05
543.31	26328.69
543.48	26682.11
543.64	26724.24
543.81	26731.26
543.98	26768.71
544.15	26808.50
544.32	26410.60
544.48	27037.87
544.65	26363.79
544.82	26525.29
544.99	26703.17
545.16	26951.27
545.32	26852.97
545.49	26733.60
545.66	26948.93
545.83	26876.37
546.00	27152.55
546.16	27110.43
546.33	27061.27
546.50	26656.36
546.67	27080.00
546.83	26639.98
547.00	27166.60
547.17	27108.08
547.34	26932.54
547.50	27161.92
547.67	27400.65
547.84	27197.02
548.00	26841.26
548.17	27133.83
548.34	27166.60
548.51	27084.68
548.67	27276.60
548.84	27641.73
549.01	27447.46
549.18	27356.18
549.34	27239.15
549.51	27520.02
549.68	27253.20
549.84	27365.54
550.01	27786.84
550.18	27360.86
550.34	27501.29
550.51	27957.70
550.68	27721.30
550.84	27527.04
551.01	27697.90
551.18	27693.22
551.34	27459.16
551.51	27924.93
551.68	27941.32
551.84	27615.98
552.01	27819.61
552.18	27779.82
552.34	27812.59
552.51	28053.66
552.68	27461.51
552.84	28102.81
553.01	28287.71
553.18	27566.83
553.34	27971.74
553.51	28070.04
553.67	28301.76
553.84	28334.53
554.01	27955.36
554.17	28343.89
554.34	28290.06
554.51	28247.93
554.67	28477.30
554.84	28231.54
555.00	28081.75
555.17	28318.14
555.33	28236.22
555.50	28116.86
555.67	27871.10
555.83	28158.99
556.00	28088.77
556.16	28596.67
556.33	28430.49
556.50	28243.24
556.66	28156.64
556.83	28407.08
556.99	28517.09
557.16	28720.71
557.32	28706.67
557.49	28669.22
557.65	28210.48
557.82	28734.76
557.98	28912.64
558.15	28519.43
558.32	28847.10
558.48	28489.00
558.65	29013.28
558.81	29181.80
558.98	28924.34
559.14	28835.40
559.31	28720.71
559.47	28886.89
559.64	28519.43
559.80	28360.27
559.97	28797.95
560.13	28739.44
560.30	28877.53
560.46	28872.85
560.63	28936.04
560.79	29050.73
560.96	29127.97
561.12	29010.94
561.29	29055.41
561.45	29034.35
561.61	29170.10
561.78	29069.45
561.94	28966.47
562.11	29572.67
562.27	29130.31
562.44	29146.69
562.60	29057.75
562.77	29118.60
562.93	29242.65
563.10	29277.76
563.26	29170.10
563.42	29570.33
563.59	29170.10
563.75	29048.39
563.92	29284.78
564.08	28697.31
564.24	29364.36
564.41	29453.30
564.57	29156.05
564.74	29174.78
564.90	29483.73
565.07	29062.43
565.23	29355.00
565.39	29429.90
565.56	29455.64
565.72	29235.63
565.88	29411.17
566.05	29205.20
566.21	29343.30
566.38	29497.77
566.54	29338.62
566.70	29736.51
566.87	29558.63
567.03	29570.33
567.19	29752.89
567.36	29654.59
567.52	29366.70
567.68	29551.60
567.85	29223.93
568.01	29500.11
568.17	29329.25
568.34	29848.85
568.50	29890.98
568.66	29497.77
568.83	29317.55
568.99	29472.03
569.15	29490.75
569.32	29677.99
569.48	29724.80
569.64	29546.92
569.81	29287.12
569.97	29502.45
570.13	29972.90
570.30	29296.49
570.46	30085.25
570.62	29930.77
570.78	29472.03
570.95	29490.75
571.11	29479.05
571.27	29788.00
571.43	29434.58
571.60	29603.10
571.76	29497.77
571.92	30052.48
572.09	29816.08
572.25	30096.95
572.41	29572.67
572.57	29582.03
572.74	29965.88
572.90	29312.87
573.06	29579.69
573.22	29408.83
573.38	29839.49
573.55	29935.45
573.71	29858.21
573.87	29954.18
574.03	30005.67
574.20	29813.74
574.36	29846.51
574.52	29708.42
574.68	29802.04
574.84	30038.44
575.01	30122.69
575.17	29949.50
575.33	30162.48
575.49	29785.66
575.65	30043.12
575.82	30199.93
575.98	30150.78
576.14	29792.68
576.30	30265.47
576.46	30000.99
576.62	29680.33
576.79	29778.64
576.95	30038.44
577.11	29846.51
577.27	29818.42
577.43	30265.47
577.59	30017.37
577.75	30148.44
577.92	29811.40
578.08	29619.48
578.24	29809.06
578.40	29883.96
578.56	30380.15
578.72	30054.82
578.88	29996.31
579.04	30122.69
579.21	29832.47
579.37	29949.50
579.53	30396.54
579.69	29682.67
579.85	30050.14
580.01	29844.17
580.17	29839.49
580.33	29825.45
580.49	29977.58
580.65	30033.75
580.82	29743.53
580.98	29869.92
581.14	29771.61
581.30	30342.70
581.46	29876.94
581.62	29933.11
581.78	29848.85
581.94	29921.41
582.10	29692.04
582.26	29979.92
582.42	29949.50
582.58	30010.35
582.74	30415.26
582.90	30415.26
583.06	30331.00
583.22	30181.21
583.38	30160.14
583.54	30059.50
583.70	29876.94
583.86	30134.40
584.02	29785.66
584.18	30164.82
584.34	30291.21
584.50	30417.60
584.66	30312.28
584.82	30078.22
584.98	29862.90
585.14	30590.80
585.30	30286.53
585.46	30127.38
585.62	29249.67
585.78	30291.21
585.94	29982.26
586.10	30094.61
586.26	30181.21
586.42	30359.09
586.58	30335.68
586.74	30085.25
586.90	30043.12
587.06	30176.53
587.22	30188.23
587.38	30309.94
587.54	29970.56
587.70	30349.73
587.86	30525.27
588.02	30553.35
588.18	30426.96
588.34	30085.25
588.49	30572.08
588.65	30101.63
588.81	29898.00
588.97	30029.07
589.13	30340.36
589.29	30307.60
589.45	30408.24
589.61	30838.90
589.77	30384.83
589.93	30441.01
590.08	30202.27
590.24	30529.95
590.40	30377.81
590.56	30328.66
590.72	30066.52
590.88	30312.28
591.04	30595.48
591.20	30536.97
591.35	30796.77
591.51	30644.63
591.67	30780.39
591.83	30937.20
591.99	30590.80
