SpectraSuite Data File
++++++++++++++++++++++++++++++++++++
Date: Fri Oct 18 13:58:00 GMT-05:00 2013
User: bianchi
Dark Spectrum Present: No
Reference Spectrum Present: No
Number of Sampled Component Spectra: 1
Spectrometers: USB2+H05261
Integration Time (usec): 50000 (USB2+H05261)
Spectra Averaged: 1 (USB2+H05261)
Boxcar Smoothing: 0 (USB2+H05261)
Correct for Electrical Dark: No (USB2+H05261)
Strobe/Lamp Enabled: No (USB2+H05261)
Correct for Detector Non-linearity: No (USB2+H05261)
Correct for Stray Light: No (USB2+H05261)
Number of Pixels in Processed Spectrum: 2048
>>>>>Begin Processed Spectral Data<<<<<
365.73	0.00
365.92	0.00
366.12	0.00
366.32	0.00
366.52	0.00
366.72	0.00
366.91	0.00
367.11	0.00
367.31	0.00
367.51	0.00
367.70	0.00
367.90	0.00
368.10	0.00
368.30	0.00
368.49	0.00
368.69	0.00
368.89	0.00
369.09	0.00
369.28	0.00
369.48	0.00
369.68	0.00
369.87	0.00
370.07	0.00
370.27	0.00
370.47	0.00
370.66	51.49
370.86	117.03
371.06	105.32
371.25	124.05
371.45	112.35
371.65	166.18
371.84	194.26
372.04	163.84
372.24	198.95
372.44	215.33
372.63	177.88
372.83	191.92
373.03	215.33
373.22	177.88
373.42	224.69
373.62	229.37
373.81	241.08
374.01	250.44
374.21	187.24
374.40	201.29
374.60	287.89
374.79	238.73
374.99	231.71
375.19	205.97
375.38	264.48
375.58	163.84
375.78	271.50
375.97	245.76
376.17	257.46
376.37	243.42
376.56	227.03
376.76	273.84
376.95	227.03
377.15	241.08
377.35	262.14
377.54	271.50
377.74	266.82
377.93	290.23
378.13	304.27
378.33	252.78
378.52	273.84
378.72	222.35
378.91	234.05
379.11	308.95
379.31	234.05
379.50	355.76
379.70	315.97
379.89	341.72
380.09	283.20
380.28	264.48
380.48	320.65
380.68	308.95
380.87	311.29
381.07	344.06
381.26	327.68
381.46	215.33
381.65	290.23
381.85	217.67
382.04	372.15
382.24	283.20
382.43	308.95
382.63	262.14
382.83	353.42
383.02	348.74
383.22	264.48
383.41	355.76
383.61	362.78
383.80	381.51
384.00	290.23
384.19	390.87
384.39	418.96
384.58	381.51
384.78	341.72
384.97	372.15
385.17	404.91
385.36	400.23
385.56	402.57
385.75	355.76
385.95	330.02
386.14	376.83
386.34	315.97
386.53	479.81
386.72	451.72
386.92	437.68
387.11	442.36
387.31	510.24
387.50	437.68
387.70	393.21
387.89	437.68
388.09	407.25
388.28	397.89
388.48	402.57
388.67	472.79
388.86	430.66
389.06	449.38
389.25	517.26
389.45	447.04
389.64	454.06
389.84	514.92
390.03	519.60
390.22	503.22
390.42	465.77
390.61	440.02
390.81	517.26
391.00	470.45
391.19	505.56
391.39	470.45
391.58	543.00
391.78	503.22
391.97	517.26
392.16	456.40
392.36	564.07
392.55	517.26
392.75	554.71
392.94	545.34
393.13	547.69
393.33	599.18
393.52	531.30
393.71	540.66
393.91	540.66
394.10	578.11
394.29	575.77
394.49	613.22
394.68	535.98
394.88	571.09
395.07	608.54
395.26	514.92
395.46	662.37
395.65	653.01
395.84	571.09
396.04	676.41
396.23	627.26
396.42	683.44
396.62	655.35
396.81	606.20
397.00	550.03
397.19	655.35
397.39	638.97
397.58	629.60
397.77	608.54
397.97	767.70
398.16	674.07
398.35	662.37
398.55	622.58
398.74	704.50
398.93	706.84
399.12	781.74
399.32	718.54
399.51	664.71
399.70	718.54
399.90	669.39
400.09	819.19
400.28	814.51
400.47	751.31
400.67	744.29
400.86	765.36
401.05	751.31
401.24	844.93
401.44	828.55
401.63	882.38
401.82	833.23
402.01	774.72
402.21	877.70
402.40	784.08
402.59	765.36
402.78	826.21
402.97	926.85
403.17	861.32
403.36	851.96
403.55	863.66
403.74	896.43
403.93	884.72
404.13	959.62
404.32	983.02
404.51	931.53
404.70	809.83
404.89	882.38
405.09	961.96
405.28	997.07
405.47	931.53
405.66	931.53
405.85	971.32
406.05	992.39
406.24	1001.75
406.43	926.85
406.62	940.90
406.81	952.60
407.00	1025.15
407.20	1060.26
407.39	1095.37
407.58	1104.73
407.77	1107.07
407.96	1060.26
408.15	1057.92
408.34	1020.47
408.54	1093.03
408.73	1207.72
408.92	1118.78
409.11	1057.92
409.30	1156.22
409.49	1093.03
409.68	1163.25
409.87	1135.16
410.07	1254.53
410.26	1217.08
410.45	1235.80
410.64	1139.84
410.83	1191.33
411.02	1235.80
411.21	1186.65
411.40	1207.72
411.59	1247.51
411.78	1214.74
411.98	1317.72
412.17	1369.21
412.36	1301.34
412.55	1341.13
412.74	1238.14
412.93	1437.09
413.12	1418.36
413.31	1296.66
413.50	1240.48
413.69	1448.79
413.88	1448.79
414.07	1401.98
414.26	1338.79
414.45	1549.43
414.64	1544.75
414.83	1413.68
415.02	1493.26
415.22	1535.39
415.41	1582.20
415.60	1448.79
415.79	1556.46
415.98	1650.08
416.17	1441.77
416.36	1652.42
416.55	1591.56
416.74	1638.38
416.93	1626.67
417.12	1696.89
417.31	1654.76
417.50	1657.10
417.69	1689.87
417.88	1657.10
418.07	1724.97
418.26	1739.02
418.45	1701.57
418.64	1853.70
418.83	1856.04
419.02	1820.94
419.21	1837.32
419.39	1879.45
419.58	1760.08
419.77	1834.98
419.96	1940.30
420.15	1846.68
420.34	1825.62
420.53	1959.03
420.72	1984.77
420.91	1874.77
421.10	1827.96
421.29	1933.28
421.48	1867.75
421.67	2043.29
421.86	1937.96
422.05	2010.52
422.24	1961.37
422.43	1980.09
422.61	1907.54
422.80	1973.07
422.99	2057.33
423.18	2139.25
423.37	2092.44
423.56	1956.69
423.75	2036.27
423.94	2008.18
424.13	1827.96
424.32	1907.54
424.50	1954.35
424.69	2036.27
424.88	2090.10
425.07	2129.89
425.26	1893.49
425.45	2001.16
425.64	2040.95
425.83	1947.33
426.01	2108.82
426.20	1942.64
426.39	1949.67
426.58	2111.16
426.77	1980.09
426.96	2092.44
427.15	2111.16
427.33	2099.46
427.52	2099.46
427.71	2183.72
427.90	2181.38
428.09	2174.36
428.28	2101.80
428.46	2197.76
428.65	2246.91
428.84	2122.87
429.03	2270.32
429.22	2129.89
429.40	2270.32
429.59	2127.55
429.78	2249.25
429.97	2033.93
430.16	2162.66
430.34	2284.36
430.53	2312.45
430.72	2242.23
430.91	2328.83
431.10	2424.80
431.28	2392.03
431.47	2403.73
431.66	2431.82
431.85	2272.66
432.03	2492.67
432.22	2471.61
432.41	2382.67
432.60	2476.29
432.79	2310.11
432.97	2520.76
433.16	2471.61
433.35	2478.63
433.54	2502.03
433.72	2602.68
433.91	2469.27
434.10	2558.21
434.28	2462.24
434.47	2696.30
434.66	2527.78
434.85	2637.78
435.03	2392.03
435.22	2572.25
435.41	2658.85
435.59	2787.58
435.78	2619.06
435.97	2656.51
436.16	2708.00
436.34	2509.05
436.53	2623.74
436.72	2677.57
436.90	2560.55
437.09	2693.96
437.28	2733.75
437.46	2693.96
437.65	2682.25
437.84	2785.24
438.02	2745.45
438.21	2658.85
438.40	2782.90
438.58	2822.69
438.77	2993.55
438.96	2874.18
439.14	3023.97
439.33	2920.99
439.52	2979.50
439.70	2974.82
439.89	2981.84
440.08	2977.16
440.26	3176.11
440.45	3136.32
440.63	3103.55
440.82	3131.64
441.01	3000.57
441.19	3122.27
441.38	3098.87
441.57	3222.92
441.75	3183.13
441.94	3255.69
442.12	3220.58
442.31	3346.97
442.50	3119.93
442.68	3332.92
442.87	3222.92
443.05	3375.05
443.24	3391.44
443.43	3377.39
443.61	3304.84
443.80	3466.33
443.98	3377.39
444.17	3150.36
444.35	3428.88
444.54	3396.12
444.73	3384.41
444.91	3407.82
445.10	3513.14
445.28	3286.11
445.47	3375.05
445.65	3466.33
445.84	3552.93
446.02	3548.25
446.21	3346.97
446.39	3513.14
446.58	3597.40
446.77	3440.59
446.95	3393.78
447.14	3473.36
447.32	3564.64
447.51	3375.05
447.69	3517.83
447.88	3442.93
448.06	3438.25
448.25	3466.33
448.43	3426.54
448.62	3566.98
448.80	3641.87
448.99	3475.70
449.17	3634.85
449.36	3454.63
449.54	3604.42
449.73	3639.53
449.91	3693.37
450.10	3756.56
450.28	3840.82
450.46	3648.90
450.65	3639.53
450.83	3735.50
451.02	3716.77
451.20	3854.86
451.39	3756.56
451.57	3770.60
451.76	3679.32
451.94	3620.81
452.13	3854.86
452.31	3868.91
452.49	3765.92
452.68	3861.88
452.86	3971.89
453.05	3892.31
453.23	4049.13
453.42	3822.09
453.60	3775.28
453.78	3880.61
453.97	3779.97
454.15	4042.11
454.34	3927.42
454.52	3934.44
454.70	3990.61
454.89	4112.32
455.07	3833.80
455.26	4016.36
455.44	3985.93
455.62	4250.41
455.81	3960.19
455.99	4077.21
456.17	4074.87
456.36	4175.52
456.54	4152.11
456.73	4297.22
456.91	4423.61
457.09	4191.90
457.28	4390.84
457.46	4238.71
457.64	4374.46
457.83	4266.80
458.01	4304.25
458.19	4393.19
458.38	4203.60
458.56	4423.61
458.74	4278.50
458.93	4365.10
459.11	4514.89
459.29	4482.13
459.48	4383.82
459.66	4337.01
459.84	4400.21
460.03	4531.28
460.21	4512.55
460.39	4535.96
460.57	4458.72
460.76	4697.46
460.94	4489.15
461.12	4566.39
461.31	4500.85
461.49	4582.77
461.67	4454.04
461.85	4702.14
462.04	4671.71
462.22	4997.04
462.40	4718.52
462.59	4702.14
462.77	4634.26
462.95	4940.87
463.13	4711.50
463.32	4706.82
463.50	4870.65
463.68	4762.99
463.86	4889.38
464.05	4856.61
464.23	4840.23
464.41	4758.31
464.59	4793.42
464.78	4788.74
464.96	4922.15
465.14	4861.29
465.32	4999.38
465.50	5102.37
465.69	5043.85
465.87	4961.94
466.05	5055.56
466.23	5050.88
466.41	4987.68
466.60	5097.69
466.78	4894.06
466.96	5008.75
467.14	5018.11
467.32	5090.67
467.51	5076.62
467.69	5020.45
467.87	5160.88
468.05	5249.82
468.23	5067.26
468.41	5240.46
468.60	5149.18
468.78	5144.50
468.96	5123.43
469.14	5195.99
469.32	5233.44
469.50	5093.01
469.69	5219.39
469.87	5514.30
470.05	5406.64
470.23	5373.87
470.41	5345.78
470.59	5268.55
470.77	5376.21
470.95	5352.81
471.14	5416.00
471.32	5437.06
471.50	5535.37
471.68	5575.16
471.86	5451.11
472.04	5462.81
472.22	5785.80
472.40	5668.78
472.58	5724.95
472.77	5685.16
472.95	5860.70
473.13	5919.21
473.31	5769.42
473.49	5671.12
473.67	5846.66
473.85	5916.87
474.03	5837.30
474.21	5982.41
474.39	6057.31
474.57	6108.80
474.75	6197.74
474.93	6195.40
475.12	6155.61
475.30	6340.51
475.48	6071.35
475.66	6272.64
475.84	6176.67
476.02	6401.37
476.20	6349.87
476.38	6384.98
476.56	6715.00
476.74	6518.39
476.92	6473.92
477.10	6525.41
477.28	6663.51
477.46	6698.61
477.64	6565.20
477.82	6691.59
478.00	7030.97
478.18	6773.51
478.36	6974.80
478.54	7019.27
478.72	7007.56
478.90	7026.29
479.08	7243.96
479.26	7063.74
479.44	7087.14
479.62	7148.00
479.80	7363.33
479.98	7379.71
480.16	7543.55
480.34	7396.09
480.52	7721.43
480.70	7707.38
480.88	7435.88
481.06	7700.36
481.24	7456.95
481.41	7611.42
481.59	7899.31
481.77	7946.12
481.95	7983.57
482.13	8072.51
482.31	7943.78
482.49	8271.45
482.67	8133.36
482.85	8276.13
483.03	8290.18
483.21	8568.70
483.39	8573.38
483.57	8549.98
483.74	8671.68
483.92	8690.41
484.10	8592.11
484.28	8861.27
484.46	8936.17
484.64	9156.18
484.82	9022.77
485.00	9111.71
485.18	9186.60
485.35	9235.75
485.53	9418.32
485.71	9408.95
485.89	9591.52
486.07	9507.26
486.25	9593.86
486.43	9415.98
486.61	9769.40
486.78	9919.19
486.96	9888.76
487.14	10200.05
487.32	9902.81
487.50	10176.65
487.68	10045.58
487.85	10408.36
488.03	10340.49
488.21	10434.11
488.39	10537.09
488.57	10501.98
488.75	10705.61
488.92	10782.85
489.10	10918.60
489.28	10724.33
489.46	11143.29
489.64	11033.29
489.81	11171.38
489.99	11276.70
490.17	11403.09
490.35	11337.56
490.53	11405.43
490.70	11700.34
490.88	11632.46
491.06	11564.59
491.24	11384.37
491.41	11873.54
491.59	11967.16
491.77	12046.74
491.95	12072.48
492.13	12058.44
492.30	12182.49
492.48	12112.27
492.66	12156.74
492.84	12088.87
493.01	12449.31
493.19	12613.15
493.37	12753.58
493.54	12489.10
493.72	12727.83
493.90	12652.94
494.08	12980.61
494.25	13004.02
494.43	13071.89
494.61	13090.62
494.79	13294.24
494.96	13289.56
495.14	13404.25
495.32	13413.61
495.49	13425.31
495.67	13504.89
495.85	13717.88
496.02	13785.76
496.20	13600.85
496.38	13963.64
496.55	13804.48
496.73	14115.77
496.91	14061.94
497.09	14457.49
497.26	14113.43
497.44	14265.57
497.62	14363.87
497.79	14415.36
497.97	14525.36
498.14	14586.22
498.32	14745.38
498.50	14705.59
498.67	14705.59
498.85	14932.62
499.03	14829.63
499.20	15129.22
499.38	14846.02
499.56	15037.94
499.73	15070.71
499.91	15286.04
500.08	15637.12
500.26	15211.14
500.44	15389.02
500.61	15482.64
500.79	15592.65
500.97	15580.95
501.14	15623.08
501.32	15527.11
501.49	15611.37
501.67	15522.43
501.84	15978.84
502.02	15807.98
502.20	16154.38
502.37	15988.20
502.55	15779.89
502.72	16030.33
502.90	16177.78
503.07	16070.12
503.25	16294.81
503.43	16058.42
503.60	16470.35
503.78	16517.16
503.95	16407.16
504.13	16570.99
504.30	16697.38
504.48	16248.00
504.65	16655.25
504.83	16826.11
505.01	16884.62
505.18	16898.67
505.36	16992.29
505.53	16702.06
505.71	17036.76
505.88	17097.61
506.06	16978.25
506.23	17326.99
506.41	17170.17
506.58	17448.69
506.76	17207.62
506.93	17598.49
507.11	17282.52
507.28	17371.46
507.46	17586.79
507.63	17539.97
507.81	17488.48
507.98	17668.70
508.16	17825.52
508.33	17666.36
508.50	17989.36
508.68	17778.71
508.85	18200.01
509.03	17769.35
509.20	18134.47
509.38	18221.07
509.55	18148.51
509.73	18244.48
509.90	18263.20
510.08	18075.96
510.25	18324.05
510.42	18284.26
510.60	18523.00
510.77	18272.56
510.95	18750.03
511.12	18750.03
511.30	18878.76
511.47	18513.64
511.64	18651.73
511.82	18953.66
511.99	18895.14
512.17	19136.22
512.34	19037.92
512.51	19229.84
512.69	19197.07
512.86	19089.41
513.04	19482.62
513.21	19557.52
513.38	19445.17
513.56	19365.59
513.73	19122.18
513.90	19400.70
514.08	19241.54
514.25	19648.80
514.43	19576.24
514.60	19728.38
514.77	19803.27
514.95	20095.84
515.12	19777.53
515.29	19669.86
515.47	19908.60
515.64	20208.19
515.81	19939.02
515.99	19955.41
516.16	20297.13
516.33	20229.25
516.51	20189.46
516.68	20259.68
516.85	20367.34
517.03	20418.83
517.20	20327.55
517.37	20243.29
517.54	20130.95
517.72	20613.10
517.89	20365.00
518.06	20472.67
518.24	20435.22
518.41	20407.13
518.58	20669.27
518.75	20627.14
518.93	20772.25
519.10	20922.05
519.27	20992.26
519.45	20931.41
519.62	20989.92
519.79	20856.51
519.96	20900.98
520.14	21057.80
520.31	21020.35
520.48	21329.30
520.65	21118.65
520.83	21205.25
521.00	21172.49
521.17	21411.22
521.34	21050.78
521.52	21446.33
521.69	21678.04
521.86	21591.44
522.03	21706.13
522.20	21689.74
522.38	22040.82
522.55	21827.84
522.72	21811.45
522.89	22214.02
523.07	22075.93
523.24	21891.03
523.41	22136.79
523.58	22031.46
523.75	22195.30
523.92	21745.92
524.10	22237.43
524.27	22412.97
524.44	22331.05
524.61	22387.22
524.78	22363.82
524.96	22450.42
525.13	22370.84
525.30	22490.21
525.47	22455.10
525.64	22457.44
525.81	22572.13
525.98	22728.94
526.16	23070.66
526.33	23016.83
526.50	22911.50
526.67	22445.74
526.84	22618.94
527.01	22710.22
527.18	22796.82
527.36	22895.12
527.53	23037.89
527.70	23356.21
527.87	23171.30
528.04	23171.30
528.21	23101.09
528.38	23199.39
528.55	23044.91
528.72	23482.59
528.89	23096.41
529.07	23164.28
529.24	23281.31
529.41	23232.16
529.58	23321.10
529.75	23332.80
529.92	23594.94
530.09	23470.89
530.26	23501.32
530.43	23939.00
530.60	23590.26
530.77	23723.67
530.94	23747.08
531.11	23817.29
531.28	23749.42
531.46	23667.50
531.63	24098.16
531.80	23836.02
531.97	24133.26
532.14	24379.02
532.31	23791.55
532.48	24114.54
532.65	24320.51
532.82	24032.62
532.99	24049.00
533.16	24044.32
533.33	24435.19
533.50	24470.30
533.67	24322.85
533.84	24130.92
534.01	24409.45
534.18	24474.98
534.35	24266.67
534.52	24208.16
534.69	24917.34
534.86	24596.69
535.03	24950.11
535.20	24669.25
535.37	24453.92
535.54	24460.94
535.71	24414.13
535.88	24486.68
536.05	24613.07
536.22	24900.96
536.38	24662.22
536.55	24907.98
536.72	24842.45
536.89	24814.36
537.06	24741.80
537.23	24870.53
537.40	25125.65
537.57	24690.31
537.74	24671.59
537.91	25282.47
538.08	24907.98
538.25	25036.71
538.42	24879.89
538.59	25490.77
538.75	24891.60
538.92	25280.13
539.09	25479.07
539.26	25109.27
539.43	25467.37
539.60	25645.25
539.77	25167.78
539.94	25338.64
540.11	25647.59
540.28	25577.37
540.44	25558.65
540.61	25476.73
540.78	25544.61
540.95	25750.57
541.12	25546.95
541.29	25350.34
541.46	25837.17
541.62	25827.81
541.79	25626.53
541.96	25406.52
542.13	25497.80
542.30	25472.05
542.47	26082.93
542.63	25996.33
542.80	26150.81
542.97	26113.36
543.14	26199.96
543.31	26134.42
543.48	25895.69
543.64	26462.10
543.81	26148.46
543.98	26534.65
544.15	26513.59
544.32	26377.84
544.48	26553.38
544.65	26548.70
544.82	26316.98
544.99	26576.78
545.16	26656.36
545.32	26424.65
545.49	26602.53
545.66	26565.08
545.83	26972.33
546.00	26810.84
546.16	26621.25
546.33	26536.99
546.50	26197.62
546.67	26806.16
546.83	26513.59
547.00	26801.47
547.17	26623.59
547.34	26951.27
547.50	26930.20
547.67	27101.06
547.84	26920.84
548.00	26867.01
548.17	27129.15
548.34	26972.33
548.51	27281.28
548.67	27077.66
548.84	26953.61
549.01	27171.28
549.18	27019.14
549.34	27213.41
549.51	27260.22
549.68	27047.23
549.84	27101.06
550.01	27318.73
550.18	27058.93
550.34	27133.83
550.51	27356.18
550.68	27360.86
550.84	26778.07
551.01	27648.75
551.18	26939.57
551.34	27358.52
551.51	27414.69
551.68	27414.69
551.84	27779.82
552.01	27896.85
552.18	27637.05
552.34	27700.24
552.51	27714.28
552.68	27494.27
552.84	27421.72
553.01	27690.88
553.18	27615.98
553.34	27859.40
553.51	27461.51
553.67	27807.90
553.84	28074.73
554.01	27754.07
554.17	27922.59
554.34	27894.50
554.51	27971.74
554.67	28247.93
554.84	27859.40
555.00	28088.77
555.17	28018.55
555.33	28084.09
555.50	27929.61
555.67	27950.68
555.83	28229.20
556.00	28137.92
556.16	28652.84
556.33	28357.93
556.50	28060.68
556.66	28240.90
556.83	28313.46
556.99	28751.14
557.16	28184.73
557.32	28386.02
557.49	28411.76
557.65	28278.35
557.82	28194.09
557.98	28280.69
558.15	28292.40
558.32	28268.99
558.48	28093.45
558.65	28680.92
558.81	28474.96
558.98	28467.94
559.14	28620.07
559.31	28479.64
559.47	28098.13
559.64	28271.33
559.80	28819.02
559.97	28531.13
560.13	28519.43
560.30	28517.09
560.46	29036.69
560.63	28875.19
560.79	28542.83
560.96	28596.67
561.12	28484.32
561.29	28465.60
561.45	28566.24
561.61	28718.37
561.78	28685.61
561.94	28893.91
562.11	29106.90
562.27	28877.53
562.44	28786.25
562.60	28748.80
562.77	28816.68
562.93	28804.97
563.10	29104.56
563.26	28877.53
563.42	29130.31
563.59	28987.53
563.75	28538.15
563.92	29134.99
564.08	28613.05
564.24	28947.75
564.41	28945.41
564.57	28914.98
564.74	29291.80
564.90	29001.58
565.07	29163.08
565.23	29123.29
565.39	28968.81
565.56	29359.68
565.72	29296.49
565.88	29223.93
566.05	29254.36
566.21	29067.11
566.38	29336.27
566.54	28933.70
566.70	29191.16
566.87	29663.95
567.03	29212.23
567.19	29301.17
567.36	29310.53
567.52	29371.38
567.68	29369.04
567.85	28952.43
568.01	29228.61
568.17	29326.91
568.34	29422.87
568.50	29209.89
568.66	29446.28
568.83	29125.63
568.99	29355.00
569.15	29284.78
569.32	29036.69
569.48	28975.83
569.64	28905.62
569.81	29284.78
569.97	29418.19
570.13	29703.74
570.30	29418.19
570.46	29387.77
570.62	29434.58
570.78	29083.50
570.95	28922.00
571.11	29060.09
571.27	29242.65
571.43	29118.60
571.60	29153.71
571.76	29294.14
571.92	29233.29
572.09	29303.51
572.25	29516.50
572.41	29605.44
572.57	29673.31
572.74	29680.33
572.90	29364.36
573.06	29270.74
573.22	29502.45
573.38	29406.49
573.55	29483.73
573.71	29816.08
573.87	29539.90
574.03	29589.05
574.20	29717.78
574.36	29336.27
574.52	29631.18
574.68	29532.88
574.84	29663.95
575.01	29830.13
575.17	29282.44
575.33	29448.62
575.49	29537.56
575.65	29495.43
575.82	29722.46
575.98	29408.83
576.14	29816.08
576.30	29315.21
576.46	29565.65
576.62	29448.62
576.79	29820.77
576.95	29530.54
577.11	29589.05
577.27	29469.69
577.43	29879.28
577.59	29750.55
577.75	29621.82
577.92	29270.74
578.08	29362.02
578.24	29188.82
578.40	29563.31
578.56	29738.85
578.72	29685.01
578.88	29724.80
579.04	29923.75
579.21	29532.88
579.37	29993.97
579.53	29790.34
579.69	29914.39
579.85	29865.24
580.01	29216.91
580.17	29516.50
580.33	29855.87
580.49	29495.43
580.65	29876.94
580.82	29514.16
580.98	29694.38
581.14	30073.54
581.30	29773.95
581.46	29879.28
581.62	29500.11
581.78	29769.27
581.94	29654.59
582.10	29572.67
582.26	29654.59
582.42	29809.06
582.58	29797.36
582.74	29816.08
582.90	29893.32
583.06	29855.87
583.22	29413.51
583.38	29635.86
583.54	29759.91
583.70	29659.27
583.86	29692.04
584.02	29797.36
584.18	30356.75
584.34	29963.54
584.50	30127.38
584.66	29696.72
584.82	29652.25
584.98	29888.64
585.14	29804.38
585.30	29839.49
585.46	29582.03
585.62	29912.05
585.78	30120.35
585.94	30139.08
586.10	30008.01
586.26	29825.45
586.42	30022.05
586.58	29933.11
586.74	29834.81
586.90	29724.80
587.06	29788.00
587.22	30012.69
587.38	29605.44
587.54	29802.04
587.70	29851.19
587.86	29596.07
588.02	30321.64
588.18	30291.21
588.34	30148.44
588.49	30010.35
588.65	29972.90
588.81	30256.11
588.97	30204.61
589.13	29717.78
589.29	29963.54
589.45	30122.69
589.61	30103.97
589.77	30054.82
589.93	30242.06
590.08	30450.37
590.24	30342.70
590.40	30646.97
590.56	29998.65
590.72	29921.41
590.88	30038.44
591.04	30258.45
591.20	30174.19
591.35	30314.62
591.51	30455.05
591.67	30614.21
591.83	30464.41
591.99	30110.99
