SpectraSuite Data File
++++++++++++++++++++++++++++++++++++
Date: Fri Oct 18 13:57:53 GMT-05:00 2013
User: bianchi
Dark Spectrum Present: No
Reference Spectrum Present: No
Number of Sampled Component Spectra: 1
Spectrometers: USB2+H05261
Integration Time (usec): 50000 (USB2+H05261)
Spectra Averaged: 1 (USB2+H05261)
Boxcar Smoothing: 0 (USB2+H05261)
Correct for Electrical Dark: No (USB2+H05261)
Strobe/Lamp Enabled: No (USB2+H05261)
Correct for Detector Non-linearity: No (USB2+H05261)
Correct for Stray Light: No (USB2+H05261)
Number of Pixels in Processed Spectrum: 2048
>>>>>Begin Processed Spectral Data<<<<<
365.73	0.00
365.92	0.00
366.12	0.00
366.32	0.00
366.52	0.00
366.72	0.00
366.91	0.00
367.11	0.00
367.31	0.00
367.51	0.00
367.70	0.00
367.90	0.00
368.10	0.00
368.30	0.00
368.49	0.00
368.69	0.00
368.89	0.00
369.09	0.00
369.28	0.00
369.48	0.00
369.68	0.00
369.87	0.00
370.07	0.00
370.27	0.00
370.47	0.00
370.66	117.03
370.86	152.13
371.06	131.07
371.25	180.22
371.45	79.58
371.65	110.01
371.84	208.31
372.04	166.18
372.24	212.99
372.44	175.54
372.63	175.54
372.83	198.95
373.03	210.65
373.22	250.44
373.42	215.33
373.62	236.39
373.81	248.10
374.01	304.27
374.21	257.46
374.40	266.82
374.60	203.63
374.79	283.20
374.99	278.52
375.19	205.97
375.38	273.84
375.58	252.78
375.78	332.36
375.97	217.67
376.17	271.50
376.37	299.59
376.56	222.35
376.76	208.31
376.95	290.23
377.15	341.72
377.35	332.36
377.54	184.90
377.74	252.78
377.93	257.46
378.13	313.63
378.33	262.14
378.52	184.90
378.72	290.23
378.91	236.39
379.11	299.59
379.31	283.20
379.50	397.89
379.70	313.63
379.89	297.25
380.09	423.64
380.28	292.57
380.48	360.44
380.68	248.10
380.87	280.86
381.07	397.89
381.26	290.23
381.46	283.20
381.65	348.74
381.85	341.72
382.04	365.12
382.24	381.51
382.43	376.83
382.63	362.78
382.83	311.29
383.02	369.80
383.22	346.40
383.41	390.87
383.61	369.80
383.80	395.55
384.00	407.25
384.19	287.89
384.39	454.06
384.58	383.85
384.78	369.80
384.97	372.15
385.17	395.55
385.36	421.30
385.56	402.57
385.75	362.78
385.95	388.53
386.14	449.38
386.34	397.89
386.53	379.17
386.72	423.64
386.92	414.27
387.11	341.72
387.31	367.46
387.50	381.51
387.70	390.87
387.89	456.40
388.09	444.70
388.28	386.19
388.48	411.93
388.67	404.91
388.86	428.32
389.06	531.30
389.25	477.47
389.45	585.13
389.64	454.06
389.84	486.83
390.03	496.19
390.22	524.28
390.42	496.19
390.61	472.79
390.81	491.51
391.00	500.87
391.19	503.22
391.39	578.11
391.58	411.93
391.78	496.19
391.97	528.96
392.16	458.74
392.36	540.66
392.55	564.07
392.75	585.13
392.94	503.22
393.13	533.64
393.33	585.13
393.52	507.90
393.71	606.20
393.91	503.22
394.10	573.43
394.29	613.22
394.49	535.98
394.68	540.66
394.88	641.31
395.07	573.43
395.26	631.94
395.46	641.31
395.65	711.52
395.84	643.65
396.04	697.48
396.23	641.31
396.42	615.56
396.62	622.58
396.81	613.22
397.00	685.78
397.19	767.70
397.39	650.67
397.58	704.50
397.77	617.90
397.97	631.94
398.16	702.16
398.35	730.25
398.55	763.01
398.74	737.27
398.93	718.54
399.12	695.14
399.32	727.91
399.51	599.18
399.70	884.72
399.90	711.52
400.09	791.10
400.28	800.46
400.47	863.66
400.67	774.72
400.86	795.78
401.05	791.10
401.24	730.25
401.44	816.85
401.63	861.32
401.82	821.53
402.01	779.40
402.21	833.23
402.40	830.89
402.59	807.48
402.78	866.00
402.97	894.08
403.17	847.27
403.36	830.89
403.55	884.72
403.74	919.83
403.93	915.15
404.13	863.66
404.32	849.61
404.51	887.06
404.70	957.28
404.89	894.08
405.09	943.24
405.28	933.87
405.47	1041.54
405.66	978.34
405.85	952.60
406.05	940.90
406.24	966.64
406.43	1022.81
406.62	1057.92
406.81	1053.24
407.00	1011.11
407.20	1029.84
407.39	990.05
407.58	1069.62
407.77	1046.22
407.96	1004.09
408.15	1053.24
408.34	1086.01
408.54	1048.56
408.73	1135.16
408.92	1196.01
409.11	1235.80
409.30	1238.14
409.49	1153.88
409.68	1102.39
409.87	1114.10
410.07	1203.04
410.26	1219.42
410.45	1210.06
410.64	1149.20
410.83	1240.48
411.02	1153.88
411.21	1200.69
411.40	1273.25
411.59	1252.19
411.78	1266.23
411.98	1291.98
412.17	1327.08
412.36	1296.66
412.55	1249.85
412.74	1338.79
412.93	1434.75
413.12	1303.68
413.31	1401.98
413.50	1390.28
413.69	1472.20
413.88	1465.18
414.07	1380.92
414.26	1465.18
414.45	1341.13
414.64	1458.15
414.83	1526.03
415.02	1570.50
415.22	1441.77
415.41	1493.26
415.60	1572.84
415.79	1605.61
415.98	1589.22
416.17	1638.38
416.36	1540.07
416.55	1614.97
416.74	1657.10
416.93	1652.42
417.12	1596.25
417.31	1638.38
417.50	1640.72
417.69	1650.08
417.88	1746.04
418.07	1654.76
418.26	1809.23
418.45	1748.38
418.64	1956.69
418.83	1820.94
419.02	1856.04
419.21	1811.57
419.39	1827.96
419.58	1846.68
419.77	1809.23
419.96	1849.02
420.15	1884.13
420.34	1909.88
420.53	1823.28
420.72	1884.13
420.91	2010.52
421.10	1935.62
421.29	1982.43
421.48	1956.69
421.67	1933.28
421.86	1968.39
422.05	1914.56
422.24	2024.56
422.43	1966.05
422.61	1973.07
422.80	1926.26
422.99	1947.33
423.18	2001.16
423.37	2040.95
423.56	2026.90
423.75	2176.70
423.94	2001.16
424.13	1832.64
424.32	1970.73
424.50	2083.08
424.69	1998.82
424.88	2094.78
425.07	2078.40
425.26	1949.67
425.45	2085.42
425.64	1966.05
425.83	2047.97
426.01	2073.71
426.20	2094.78
426.39	2125.21
426.58	1975.41
426.77	2136.91
426.96	2176.70
427.15	2099.46
427.33	2115.84
427.52	2045.63
427.71	2239.89
427.90	2195.42
428.09	2167.34
428.28	2272.66
428.46	2186.06
428.65	2289.04
428.84	2181.38
429.03	2314.79
429.22	2174.36
429.40	2235.21
429.59	2179.04
429.78	2214.15
429.97	2118.18
430.16	2251.60
430.34	2338.20
430.53	2420.11
430.72	2326.49
430.91	2370.96
431.10	2312.45
431.28	2272.66
431.47	2415.43
431.66	2469.27
431.85	2361.60
432.03	2356.92
432.22	2492.67
432.41	2333.51
432.60	2476.29
432.79	2452.88
432.97	2560.55
433.16	2469.27
433.35	2452.88
433.54	2478.63
433.72	2626.08
433.91	2480.97
434.10	2562.89
434.28	2614.38
434.47	2576.93
434.66	2588.63
434.85	2635.44
435.03	2658.85
435.22	2738.43
435.41	2686.94
435.59	2672.89
435.78	2712.68
435.97	2686.94
436.16	2736.09
436.34	2686.94
436.53	2785.24
436.72	2722.04
436.90	2778.22
437.09	2822.69
437.28	2799.28
437.46	2722.04
437.65	2731.41
437.84	2691.62
438.02	2693.96
438.21	2789.92
438.40	2782.90
438.58	3016.95
438.77	2942.05
438.96	2899.92
439.14	2937.37
439.33	2995.89
439.52	3155.04
439.70	3049.72
439.89	2979.50
440.08	3108.23
440.26	3108.23
440.45	3096.53
440.63	3129.30
440.82	3166.74
441.01	3220.58
441.19	3117.59
441.38	3344.63
441.57	3316.54
441.75	3239.30
441.94	3133.98
442.12	3309.52
442.31	3471.01
442.50	3267.39
442.68	3489.74
442.87	3346.97
443.05	3365.69
443.24	3442.93
443.43	3356.33
443.61	3597.40
443.80	3644.21
443.98	3428.88
444.17	3363.35
444.35	3506.12
444.54	3445.27
444.73	3456.97
444.91	3379.73
445.10	3494.42
445.28	3559.95
445.47	3466.33
445.65	3548.25
445.84	3529.53
446.02	3686.34
446.21	3487.40
446.39	3555.27
446.58	3623.15
446.77	3456.97
446.95	3426.54
447.14	3536.55
447.32	3569.32
447.51	3637.19
447.69	3581.02
447.88	3597.40
448.06	3574.00
448.25	3501.44
448.43	3616.13
448.62	3604.42
448.80	3658.26
448.99	3686.34
449.17	3723.79
449.36	3620.81
449.54	3555.27
449.73	3681.66
449.91	3574.00
450.10	3789.33
450.28	3721.45
450.46	3857.20
450.65	3889.97
450.83	3824.44
451.02	3751.88
451.20	3824.44
451.39	3859.54
451.57	3875.93
451.76	3854.86
451.94	3906.35
452.13	3981.25
452.31	3859.54
452.49	3922.74
452.68	3943.80
452.86	4046.79
453.05	3911.04
453.23	3920.40
453.42	3901.67
453.60	3913.38
453.78	4060.83
453.97	3932.10
454.15	3974.23
454.34	4011.68
454.52	4119.34
454.70	3929.76
454.89	4124.02
455.07	3906.35
455.26	4049.13
455.44	4074.87
455.62	4102.96
455.81	4147.43
455.99	4227.01
456.17	4278.50
456.36	4156.79
456.54	4292.54
456.73	4322.97
456.91	4290.20
457.09	4362.76
457.28	4491.49
457.46	4344.03
457.64	4287.86
457.83	4360.42
458.01	4383.82
458.19	4486.81
458.38	4379.14
458.56	4477.44
458.74	4456.38
458.93	4440.00
459.11	4496.17
459.29	4482.13
459.48	4617.88
459.66	4414.25
459.84	4461.06
460.03	4629.58
460.21	4498.51
460.39	4629.58
460.57	4660.01
460.76	4688.09
460.94	4777.03
461.12	4615.54
461.31	4620.22
461.49	4657.67
461.67	4641.28
461.85	4805.12
462.04	4727.88
462.22	5032.15
462.40	4688.09
462.59	4835.55
462.77	4858.95
462.95	4697.46
463.13	4816.82
463.32	4964.28
463.50	4784.06
463.68	5107.05
463.86	4842.57
464.05	4945.55
464.23	4964.28
464.41	5053.22
464.59	4938.53
464.78	5067.26
464.96	4990.02
465.14	4978.32
465.32	5121.09
465.50	5125.77
465.69	5125.77
465.87	4990.02
466.05	5095.35
466.23	4975.98
466.41	5139.82
466.60	5245.14
466.78	5128.11
466.96	5085.98
467.14	5053.22
467.32	5235.78
467.51	5298.97
467.69	4952.57
467.87	5153.86
468.05	5172.58
468.23	5242.80
468.41	5027.47
468.60	5210.03
468.78	5298.97
468.96	5114.07
469.14	5479.19
469.32	5371.53
469.50	5179.61
469.69	5226.42
469.87	5535.37
470.05	5355.15
470.23	5514.30
470.41	5385.57
470.59	5563.45
470.77	5551.75
470.95	5565.79
471.14	5671.12
471.32	5547.07
471.50	5680.48
471.68	5802.19
471.86	5827.93
472.04	5874.74
472.22	5846.66
472.40	5771.76
472.58	5781.12
472.77	5895.81
472.95	5982.41
473.13	6036.24
473.31	5902.83
473.49	5902.83
473.67	5996.45
473.85	6003.47
474.03	6080.71
474.21	6061.99
474.39	6274.98
474.57	6155.61
474.75	6223.48
474.93	6270.30
475.12	6200.08
475.30	6417.75
475.48	6176.67
475.66	6384.98
475.84	6200.08
476.02	6436.47
476.20	6366.26
476.38	6551.16
476.56	6656.48
476.74	6789.89
476.92	6740.74
477.10	6420.09
477.28	6729.04
477.46	6726.70
477.64	6815.64
477.82	6825.00
478.00	7110.55
478.18	6766.49
478.36	7138.63
478.54	7372.69
478.72	7358.64
478.90	7222.89
479.08	7309.49
479.26	7309.49
479.44	7286.09
479.62	7459.29
479.80	7445.24
479.98	7461.63
480.16	7735.47
480.34	7705.04
480.52	7765.90
480.70	7922.71
480.88	7674.62
481.06	7812.71
481.24	7803.35
481.41	7859.52
481.59	8035.06
481.77	8149.75
481.95	8119.32
482.13	8166.13
482.31	8114.64
482.49	8353.37
482.67	8355.71
482.85	8449.33
483.03	8496.14
483.21	8538.27
483.39	8739.56
483.57	8554.66
483.74	8809.78
483.92	8706.79
484.10	8887.01
484.28	9032.13
484.46	9184.26
484.64	9371.50
484.82	9277.88
485.00	9219.37
485.18	9434.70
485.35	9600.88
485.53	9577.47
485.71	9591.52
485.89	9743.65
486.07	9804.50
486.25	9717.90
486.43	9879.40
486.61	9874.72
486.78	10143.88
486.96	10087.71
487.14	10200.05
487.32	10230.48
487.50	10265.59
487.68	10317.08
487.85	10527.73
488.03	10544.11
488.21	10810.93
488.39	10829.66
488.57	10710.29
488.75	10855.40
488.92	10888.17
489.10	11019.24
489.28	11250.96
489.46	11351.60
489.64	11281.38
489.81	11461.60
489.99	11412.45
490.17	11265.00
490.35	11815.02
490.53	11517.78
490.70	11660.55
490.88	11786.94
491.06	11887.58
491.24	11840.77
491.41	12030.35
491.59	12159.08
491.77	12107.59
491.95	12248.02
492.13	12320.58
492.30	12545.27
492.48	12629.53
492.66	12585.06
492.84	12652.94
493.01	12879.97
493.19	12730.17
493.37	12980.61
493.54	12936.14
493.72	13043.81
493.90	13076.57
494.08	13350.42
494.25	13226.37
494.43	13383.18
494.61	13570.43
494.79	13404.25
494.96	13764.69
495.14	13589.15
495.32	13802.14
495.49	13806.82
495.67	13722.56
495.85	13909.80
496.02	14420.04
496.20	13963.64
496.38	14417.70
496.55	14230.46
496.73	14579.20
496.91	14553.45
497.09	14602.60
497.26	14721.97
497.44	14675.16
497.62	14778.14
497.79	14991.13
497.97	14773.46
498.14	15080.07
498.32	14867.08
498.50	15164.33
498.67	15414.77
498.85	15260.29
499.03	15396.04
499.20	15382.00
499.38	15456.90
499.56	15349.23
499.73	15496.69
499.91	15597.33
500.08	15824.36
500.26	15545.84
500.44	15665.21
500.61	16011.60
500.79	15824.36
500.97	15871.17
501.14	15850.11
501.32	16175.44
501.49	15941.39
501.67	16130.97
501.84	16035.01
502.02	16283.11
502.20	16325.24
502.37	16299.49
502.55	16353.32
502.72	16624.83
502.90	16704.40
503.07	16126.29
503.25	16772.28
503.43	16769.94
503.60	16608.44
503.78	16769.94
503.95	16886.97
504.13	17006.33
504.30	17015.69
504.48	17064.85
504.65	17137.40
504.83	17109.32
505.01	17554.02
505.18	17256.77
505.36	17617.21
505.53	17380.82
505.71	17287.20
505.88	17469.76
506.06	17579.76
506.23	17589.13
506.41	17507.21
506.58	18057.23
506.76	17980.00
506.93	17893.40
507.11	17490.82
507.28	18040.85
507.46	17886.37
507.63	17977.65
507.81	18263.20
507.98	18031.49
508.16	18181.28
508.33	18218.73
508.50	18239.79
508.68	18150.85
508.85	18441.08
509.03	18291.29
509.20	18237.45
509.38	18520.66
509.55	18553.43
509.73	18602.58
509.90	18663.43
510.08	18813.23
510.25	18714.92
510.42	19040.26
510.60	18822.59
510.77	19187.71
510.95	18918.55
511.12	19199.41
511.30	19080.05
511.47	19314.10
511.64	19033.24
511.82	19726.04
511.99	19140.90
512.17	19414.74
512.34	19396.02
512.51	19222.82
512.69	19721.35
512.86	19648.80
513.04	19609.01
513.21	19836.04
513.38	19697.95
513.56	19887.53
513.73	19826.68
513.90	20182.44
514.08	19433.47
514.25	19892.21
514.43	19882.85
514.60	20161.37
514.77	20306.49
514.95	19967.11
515.12	20475.01
515.29	20067.75
515.47	20098.18
515.64	20222.23
515.81	20201.16
515.99	20395.43
516.16	20655.23
516.33	20718.42
516.51	20470.33
516.68	20585.01
516.85	20592.03
517.03	20645.87
517.20	20533.52
517.37	20989.92
517.54	20854.17
517.72	21050.78
517.89	21064.82
518.06	21018.01
518.24	20842.47
518.41	20999.29
518.58	21092.91
518.75	20982.90
518.93	21296.53
519.10	21341.00
519.27	21390.16
519.45	21451.01
519.62	21366.75
519.79	21441.65
519.96	21502.50
520.14	21350.37
520.31	21422.92
520.48	21692.08
520.65	21589.10
520.83	21907.41
521.00	21846.56
521.17	21434.63
521.34	21827.84
521.52	22019.76
521.69	22225.73
521.86	21893.37
522.03	22031.46
522.20	22328.71
522.38	22209.34
522.55	21965.93
522.72	22448.08
522.89	22328.71
523.07	22300.62
523.24	22356.80
523.41	22541.70
523.58	22251.47
523.75	22747.67
523.92	22555.74
524.10	22611.92
524.27	22813.20
524.44	22838.95
524.61	23033.21
524.78	23047.26
524.96	22878.74
525.13	22740.64
525.30	22845.97
525.47	22782.77
525.64	22731.28
525.81	23248.54
525.98	23316.42
526.16	23161.94
526.33	23131.51
526.50	23337.48
526.67	23108.11
526.84	23349.18
527.01	23014.49
527.18	23405.36
527.36	23597.28
527.53	23534.09
527.70	23651.11
527.87	23981.13
528.04	23550.47
528.21	23552.81
528.38	23857.08
528.55	23889.85
528.72	23704.95
528.89	23796.23
529.07	23859.42
529.24	24212.84
529.41	23917.93
529.58	23931.98
529.75	24020.92
529.92	24135.60
530.09	23948.36
530.26	24100.50
530.43	24173.05
530.60	24357.96
530.77	24690.31
530.94	24381.36
531.11	24339.23
531.28	24151.99
531.46	24116.88
531.63	24477.32
531.80	24725.42
531.97	24470.30
532.14	24599.03
532.31	24257.31
532.48	24423.49
532.65	24800.32
532.82	24404.77
532.99	24505.41
533.16	24704.35
533.33	24685.63
533.50	25223.95
533.67	24900.96
533.84	25001.60
534.01	24814.36
534.18	24797.98
534.35	25160.76
534.52	24952.45
534.69	25205.23
534.86	25275.45
535.03	24954.79
535.20	24947.77
535.37	25191.19
535.54	25205.23
535.71	25067.14
535.88	25160.76
536.05	25081.18
536.22	25170.12
536.38	25348.00
536.55	25788.02
536.72	25525.88
536.89	25596.10
537.06	25465.03
537.23	25425.24
537.40	25329.28
537.57	25333.96
537.74	25956.54
537.91	25434.60
538.08	25851.22
538.25	25516.52
538.42	25949.52
538.59	25954.20
538.75	25846.54
538.92	25771.64
539.09	26038.46
539.26	25879.30
539.43	26153.15
539.60	26141.44
539.77	26080.59
539.94	26574.44
540.11	25891.01
540.28	26214.00
540.44	26204.64
540.61	25996.33
540.78	26394.22
540.95	26204.64
541.12	26092.29
541.29	26125.06
541.46	26438.69
541.62	26515.93
541.79	26377.84
541.96	25991.65
542.13	26293.58
542.30	26452.73
542.47	26867.01
542.63	26712.53
542.80	26548.70
542.97	26836.58
543.14	26609.55
543.31	26752.32
543.48	26672.74
543.64	26913.82
543.81	27070.64
543.98	27459.16
544.15	27082.34
544.32	27084.68
544.48	27194.68
544.65	26859.99
544.82	26911.48
544.99	26747.64
545.16	27206.39
545.32	26614.23
545.49	27433.42
545.66	27440.44
545.83	27381.93
546.00	27410.01
546.16	27452.14
546.33	27028.51
546.50	27112.77
546.67	27531.72
546.83	27002.76
547.00	27424.06
547.17	27395.97
547.34	27365.54
547.50	27552.79
547.67	27796.20
547.84	27737.69
548.00	27480.23
548.17	27714.28
548.34	27728.33
548.51	27723.65
548.67	27875.78
548.84	27828.97
549.01	27665.13
549.18	27587.89
549.34	27913.23
549.51	27545.76
549.68	28128.56
549.84	27934.29
550.01	28084.09
550.18	27931.95
550.34	28238.56
550.51	28100.47
550.68	28325.16
550.84	27936.63
551.01	27974.08
551.18	27676.83
551.34	27723.65
551.51	28027.92
551.68	28147.28
551.84	28332.18
552.01	28435.17
552.18	28332.18
552.34	28369.63
552.51	28460.91
552.68	28496.02
552.84	27967.06
553.01	28697.31
553.18	28599.01
553.34	28624.75
553.51	28428.15
553.67	28648.16
553.84	28652.84
554.01	28479.64
554.17	28514.75
554.34	28498.36
554.51	28755.82
554.67	28746.46
554.84	28573.26
555.00	28893.91
555.17	28601.35
555.33	28692.63
555.50	28645.82
555.67	28945.41
555.83	28694.97
556.00	28961.79
556.16	29118.60
556.33	28957.11
556.50	28884.55
556.66	28943.06
556.83	28914.98
556.99	29142.01
557.16	29036.69
557.32	28940.72
557.49	29132.65
557.65	28559.22
557.82	29228.61
557.98	29146.69
558.15	29144.35
558.32	28828.38
558.48	29099.88
558.65	29242.65
558.81	28900.94
558.98	29350.32
559.14	29446.28
559.31	29020.30
559.47	29436.92
559.64	29074.13
559.80	29640.54
559.97	29345.64
560.13	29312.87
560.30	29186.48
560.46	29465.00
560.63	29259.04
560.79	29862.90
560.96	29369.04
561.12	29181.80
561.29	29291.80
561.45	29570.33
561.61	29575.01
561.78	29596.07
561.94	29572.67
562.11	29549.26
562.27	29661.61
562.44	29797.36
562.60	29378.40
562.77	29366.70
562.93	29553.94
563.10	29912.05
563.26	29619.48
563.42	29905.02
563.59	29551.60
563.75	29670.97
563.92	29617.14
564.08	29443.94
564.24	29635.86
564.41	29577.35
564.57	29703.74
564.74	29582.03
564.90	29589.05
565.07	30047.80
565.23	29619.48
565.39	29909.71
565.56	29926.09
565.72	29577.35
565.88	29537.56
566.05	29600.76
566.21	29465.00
566.38	29778.64
566.54	29769.27
566.70	29993.97
566.87	30211.64
567.03	29977.58
567.19	30225.68
567.36	30089.93
567.52	29977.58
567.68	30012.69
567.85	30033.75
568.01	30059.50
568.17	30005.67
568.34	30314.62
568.50	30110.99
568.66	30331.00
568.83	29916.73
568.99	30197.59
569.15	30005.67
569.32	30000.99
569.48	30000.99
569.64	30221.00
569.81	30092.27
569.97	30012.69
570.13	30054.82
570.30	30040.78
570.46	30000.99
570.62	30118.01
570.78	30265.47
570.95	30047.80
571.11	30066.52
571.27	29944.81
571.43	30150.78
571.60	30230.36
571.76	30150.78
571.92	30462.07
572.09	30445.69
572.25	30136.74
572.41	30314.62
572.57	30134.40
572.74	30394.20
572.90	30050.14
573.06	30026.73
573.22	30281.85
573.38	30218.66
573.55	30143.76
573.71	30785.07
573.87	30424.62
574.03	30361.43
574.20	30221.00
574.36	30146.10
574.52	30534.63
574.68	30555.69
574.84	30366.11
575.01	30188.23
575.17	30199.93
575.33	30331.00
575.49	30176.53
575.65	30183.55
575.82	30551.01
575.98	30176.53
576.14	30485.48
576.30	30597.82
576.46	30190.57
576.62	30122.69
576.79	30307.60
576.95	30202.27
577.11	30464.41
577.27	30794.43
577.43	30604.84
577.59	30345.05
577.75	30515.90
577.92	30291.21
578.08	30754.64
578.24	30359.09
578.40	30263.13
578.56	30614.21
578.72	30438.67
578.88	30787.41
579.04	30426.96
579.21	30323.98
579.37	30773.36
579.53	30972.31
579.69	30342.70
579.85	30616.55
580.01	30352.07
580.17	30237.38
580.33	29881.62
580.49	30780.39
580.65	30635.27
580.82	30555.69
580.98	30560.37
581.14	30878.69
581.30	30480.80
581.46	30366.11
581.62	30349.73
581.78	30087.59
581.94	30071.20
582.10	30422.28
582.26	30518.25
582.42	30539.31
582.58	30801.45
582.74	31000.40
582.90	30754.64
583.06	30852.94
583.22	30665.70
583.38	30394.20
583.54	30279.51
583.70	30611.87
583.86	30703.15
584.02	30478.46
584.18	31054.23
584.34	30518.25
584.50	30672.72
584.66	30405.90
584.82	30359.09
584.98	30719.53
585.14	30771.02
585.30	30176.53
585.46	30618.89
585.62	30340.36
585.78	30520.59
585.94	30607.19
586.10	30590.80
586.26	30925.50
586.42	30501.86
586.58	30995.71
586.74	30698.47
586.90	30689.10
587.06	30473.78
587.22	30661.02
587.38	30466.75
587.54	30581.44
587.70	30969.97
587.86	30822.51
588.02	30714.85
588.18	31405.31
588.34	30752.30
588.49	30838.90
588.65	30714.85
588.81	30705.49
588.97	30588.46
589.13	30543.99
589.29	30485.48
589.45	30593.14
589.61	31014.44
589.77	31152.53
589.93	30738.26
590.08	31007.42
590.24	30834.22
590.40	30735.92
590.56	31133.81
590.72	30885.71
590.88	30623.57
591.04	30984.01
591.20	31136.15
591.35	31211.04
591.51	31548.08
591.67	31332.75
591.83	31180.62
591.99	31307.01
