SpectraSuite Data File
++++++++++++++++++++++++++++++++++++
Date: Fri Oct 18 13:58:20 GMT-05:00 2013
User: bianchi
Dark Spectrum Present: No
Reference Spectrum Present: No
Number of Sampled Component Spectra: 1
Spectrometers: USB2+H05261
Integration Time (usec): 50000 (USB2+H05261)
Spectra Averaged: 1 (USB2+H05261)
Boxcar Smoothing: 0 (USB2+H05261)
Correct for Electrical Dark: No (USB2+H05261)
Strobe/Lamp Enabled: No (USB2+H05261)
Correct for Detector Non-linearity: No (USB2+H05261)
Correct for Stray Light: No (USB2+H05261)
Number of Pixels in Processed Spectrum: 2048
>>>>>Begin Processed Spectral Data<<<<<
365.73	0.00
365.92	0.00
366.12	0.00
366.32	0.00
366.52	0.00
366.72	0.00
366.91	0.00
367.11	0.00
367.31	0.00
367.51	0.00
367.70	0.00
367.90	0.00
368.10	0.00
368.30	0.00
368.49	0.00
368.69	0.00
368.89	0.00
369.09	0.00
369.28	0.00
369.48	0.00
369.68	0.00
369.87	0.00
370.07	0.00
370.27	0.00
370.47	0.00
370.66	56.17
370.86	91.28
371.06	107.66
371.25	173.20
371.45	149.79
371.65	140.43
371.84	142.77
372.04	180.22
372.24	201.29
372.44	147.45
372.63	229.37
372.83	187.24
373.03	168.52
373.22	210.65
373.42	222.35
373.62	217.67
373.81	208.31
374.01	271.50
374.21	271.50
374.40	250.44
374.60	301.93
374.79	266.82
374.99	266.82
375.19	210.65
375.38	212.99
375.58	301.93
375.78	278.52
375.97	252.78
376.17	292.57
376.37	220.01
376.56	269.16
376.76	257.46
376.95	290.23
377.15	255.12
377.35	245.76
377.54	318.31
377.74	255.12
377.93	245.76
378.13	234.05
378.33	297.25
378.52	334.70
378.72	346.40
378.91	276.18
379.11	266.82
379.31	287.89
379.50	271.50
379.70	273.84
379.89	278.52
380.09	362.78
380.28	301.93
380.48	273.84
380.68	304.27
380.87	294.91
381.07	374.49
381.26	330.02
381.46	278.52
381.65	311.29
381.85	334.70
382.04	273.84
382.24	353.42
382.43	369.80
382.63	421.30
382.83	365.12
383.02	372.15
383.22	381.51
383.41	238.73
383.61	362.78
383.80	301.93
384.00	369.80
384.19	278.52
384.39	299.59
384.58	318.31
384.78	374.49
384.97	390.87
385.17	390.87
385.36	313.63
385.56	351.08
385.75	386.19
385.95	414.27
386.14	358.10
386.34	402.57
386.53	407.25
386.72	381.51
386.92	451.72
387.11	444.70
387.31	400.23
387.50	416.62
387.70	367.46
387.89	444.70
388.09	454.06
388.28	414.27
388.48	306.61
388.67	472.79
388.86	372.15
389.06	486.83
389.25	425.98
389.45	447.04
389.64	386.19
389.84	411.93
390.03	440.02
390.22	461.09
390.42	514.92
390.61	458.74
390.81	430.66
391.00	463.43
391.19	528.96
391.39	493.85
391.58	433.00
391.78	540.66
391.97	526.62
392.16	479.81
392.36	566.41
392.55	477.47
392.75	573.43
392.94	477.47
393.13	559.39
393.33	559.39
393.52	503.22
393.71	543.00
393.91	540.66
394.10	587.47
394.29	594.50
394.49	561.73
394.68	641.31
394.88	575.77
395.07	613.22
395.26	671.73
395.46	603.86
395.65	582.79
395.84	578.11
396.04	678.76
396.23	653.01
396.42	575.77
396.62	636.63
396.81	627.26
397.00	653.01
397.19	599.18
397.39	620.24
397.58	636.63
397.77	589.82
397.97	627.26
398.16	620.24
398.35	739.61
398.55	674.07
398.74	704.50
398.93	795.78
399.12	737.27
399.32	784.08
399.51	720.88
399.70	695.14
399.90	723.23
400.09	842.59
400.28	779.40
400.47	814.51
400.67	791.10
400.86	758.33
401.05	755.99
401.24	828.55
401.44	809.83
401.63	798.12
401.82	807.48
402.01	781.74
402.21	919.83
402.40	748.97
402.59	823.87
402.78	819.19
402.97	830.89
403.17	835.57
403.36	833.23
403.55	919.83
403.74	894.08
403.93	866.00
404.13	922.17
404.32	887.06
404.51	835.57
404.70	926.85
404.89	870.68
405.09	997.07
405.28	931.53
405.47	882.38
405.66	973.66
405.85	992.39
406.05	1022.81
406.24	940.90
406.43	983.02
406.62	1088.35
406.81	1142.18
407.00	908.13
407.20	1008.77
407.39	919.83
407.58	1081.33
407.77	997.07
407.96	1022.81
408.15	1013.45
408.34	1067.28
408.54	1053.24
408.73	1132.82
408.92	1139.84
409.11	1074.31
409.30	1123.46
409.49	1184.31
409.68	1191.33
409.87	1109.41
410.07	1090.69
410.26	1149.20
410.45	1163.25
410.64	1071.97
410.83	1259.21
411.02	1249.85
411.21	1268.57
411.40	1217.08
411.59	1310.70
411.78	1170.27
411.98	1254.53
412.17	1245.16
412.36	1191.33
412.55	1303.68
412.74	1324.74
412.93	1418.36
413.12	1315.38
413.31	1334.11
413.50	1432.41
413.69	1390.28
413.88	1516.67
414.07	1397.30
414.26	1462.83
414.45	1521.35
414.64	1390.28
414.83	1462.83
415.02	1469.86
415.22	1486.24
415.41	1530.71
415.60	1589.22
415.79	1502.62
415.98	1526.03
416.17	1577.52
416.36	1558.80
416.55	1596.25
416.74	1685.19
416.93	1636.03
417.12	1717.95
417.31	1696.89
417.50	1659.44
417.69	1675.82
417.88	1664.12
418.07	1732.00
418.26	1708.59
418.45	1732.00
418.64	1853.70
418.83	1762.42
419.02	1753.06
419.21	1856.04
419.39	1919.24
419.58	1865.41
419.77	1783.49
419.96	1795.19
420.15	1790.51
420.34	1809.23
420.53	1923.92
420.72	1863.07
420.91	1940.30
421.10	1926.26
421.29	1996.48
421.48	1930.94
421.67	1893.49
421.86	2003.50
422.05	1952.01
422.24	2012.86
422.43	1970.73
422.61	2010.52
422.80	1942.64
422.99	2050.31
423.18	1968.39
423.37	2010.52
423.56	1952.01
423.75	2047.97
423.94	1966.05
424.13	1844.34
424.32	1947.33
424.50	2090.10
424.69	2087.76
424.88	2104.14
425.07	2106.48
425.26	1968.39
425.45	1937.96
425.64	2076.06
425.83	2050.31
426.01	2057.33
426.20	2054.99
426.39	2008.18
426.58	2050.31
426.77	2090.10
426.96	2146.27
427.15	2108.82
427.33	2001.16
427.52	2099.46
427.71	2167.34
427.90	2125.21
428.09	2155.63
428.28	2181.38
428.46	2176.70
428.65	2228.19
428.84	2209.47
429.03	2310.11
429.22	2141.59
429.40	2225.85
429.59	2284.36
429.78	2207.13
429.97	2204.78
430.16	2200.10
430.34	2246.91
430.53	2361.60
430.72	2347.56
430.91	2253.94
431.10	2340.54
431.28	2253.94
431.47	2232.87
431.66	2441.18
431.85	2401.39
432.03	2363.94
432.22	2368.62
432.41	2394.37
432.60	2399.05
432.79	2370.96
432.97	2410.75
433.16	2462.24
433.35	2406.07
433.54	2459.90
433.72	2427.14
433.91	2499.69
434.10	2530.12
434.28	2457.56
434.47	2541.82
434.66	2471.61
434.85	2569.91
435.03	2619.06
435.22	2607.36
435.41	2656.51
435.59	2630.76
435.78	2764.17
435.97	2579.27
436.16	2602.68
436.34	2579.27
436.53	2658.85
436.72	2670.55
436.90	2689.28
437.09	2738.43
437.28	2621.40
437.46	2703.32
437.65	2705.66
437.84	2867.16
438.02	2651.83
438.21	2649.49
438.40	2736.09
438.58	2796.94
438.77	2991.20
438.96	2832.05
439.14	2935.03
439.33	3049.72
439.52	2913.97
439.70	2888.22
439.89	2888.22
440.08	3026.31
440.26	3045.04
440.45	3033.33
440.63	3047.38
440.82	3070.78
441.01	3077.80
441.19	3157.38
441.38	3171.43
441.57	3155.04
441.75	3232.28
441.94	3272.07
442.12	3363.35
442.31	3307.18
442.50	3208.87
442.68	3328.24
442.87	3286.11
443.05	3368.03
443.24	3391.44
443.43	3358.67
443.61	3356.33
443.80	3330.58
443.98	3243.98
444.17	3255.69
444.35	3438.25
444.54	3384.41
444.73	3344.63
444.91	3396.12
445.10	3447.61
445.28	3480.38
445.47	3435.91
445.65	3382.07
445.84	3527.19
446.02	3442.93
446.21	3428.88
446.39	3449.95
446.58	3475.70
446.77	3438.25
446.95	3480.38
447.14	3564.64
447.32	3473.36
447.51	3574.00
447.69	3428.88
447.88	3522.51
448.06	3562.30
448.25	3419.52
448.43	3555.27
448.62	3421.86
448.80	3529.53
448.99	3623.15
449.17	3599.74
449.36	3569.32
449.54	3730.81
449.73	3791.67
449.91	3770.60
450.10	3756.56
450.28	3674.64
450.46	3728.47
450.65	3810.39
450.83	3798.69
451.02	3735.50
451.20	3700.39
451.39	3831.46
451.57	3805.71
451.76	3651.24
451.94	3796.35
452.13	3815.07
452.31	3801.03
452.49	3817.41
452.68	3878.27
452.86	3749.54
453.05	3929.76
453.23	3775.28
453.42	3866.56
453.60	3843.16
453.78	3803.37
453.97	3786.99
454.15	3932.10
454.34	3885.29
454.52	3962.53
454.70	3885.29
454.89	4042.11
455.07	4032.74
455.26	3981.25
455.44	4152.11
455.62	4147.43
455.81	4025.72
455.99	4121.68
456.17	4147.43
456.36	4114.66
456.54	4170.83
456.73	4119.34
456.91	4229.35
457.09	4318.29
457.28	4234.03
457.46	4072.53
457.64	4292.54
457.83	4344.03
458.01	4128.70
458.19	4311.27
458.38	4360.42
458.56	4437.66
458.74	4421.27
458.93	4461.06
459.11	4308.93
459.29	4430.63
459.48	4367.44
459.66	4367.44
459.84	4662.35
460.03	4568.73
460.21	4531.28
460.39	4608.51
460.57	4634.26
460.76	4489.15
460.94	4587.45
461.12	4580.43
461.31	4526.60
461.49	4678.73
461.67	4388.50
461.85	4903.42
462.04	4828.53
462.22	5008.75
462.40	4746.61
462.59	4770.01
462.77	4758.31
462.95	4849.59
463.13	4645.96
463.32	4711.50
463.50	4805.12
463.68	4858.95
463.86	4809.80
464.05	4809.80
464.23	4828.53
464.41	4826.18
464.59	4739.58
464.78	5078.96
464.96	4847.25
465.14	4823.84
465.32	4905.76
465.50	4924.49
465.69	4971.30
465.87	5081.30
466.05	4940.87
466.23	5050.88
466.41	4922.15
466.60	5156.20
466.78	5071.94
466.96	5090.67
467.14	5081.30
467.32	5011.09
467.51	5095.35
467.69	5001.72
467.87	5011.09
468.05	5135.14
468.23	5160.88
468.41	5029.81
468.60	5132.79
468.78	5200.67
468.96	5093.01
469.14	5294.29
469.32	5263.86
469.50	5214.71
469.69	5275.57
469.87	5430.04
470.05	5268.55
470.23	5504.94
470.41	5406.64
470.59	5493.24
470.77	5504.94
470.95	5483.88
471.14	5603.24
471.32	5336.42
471.50	5563.45
471.68	5556.43
471.86	5533.03
472.04	5619.63
472.22	5802.19
472.40	5614.95
472.58	5764.74
472.77	5886.45
472.95	5837.30
473.13	6099.44
473.31	5870.06
473.49	5795.17
473.67	5738.99
473.85	5923.90
474.03	5888.79
474.21	6043.26
474.39	6087.73
474.57	6033.90
474.75	6071.35
474.93	6277.32
475.12	6267.95
475.30	6092.41
475.48	6282.00
475.66	6188.38
475.84	6188.38
476.02	6466.90
476.20	6452.86
476.38	6511.37
476.56	6480.94
476.74	6583.93
476.92	6328.81
477.10	6555.84
477.28	6663.51
477.46	6595.63
477.64	6700.95
477.82	6782.87
478.00	6925.65
478.18	6822.66
478.36	6825.00
478.54	7000.54
478.72	7045.01
478.90	7140.97
479.08	7211.19
479.26	7087.14
479.44	7520.14
479.62	7461.63
479.80	7466.31
479.98	7405.46
480.16	7520.14
480.34	7559.93
480.52	7545.89
480.70	7646.53
480.88	7489.71
481.06	7599.72
481.24	7707.38
481.41	7730.79
481.59	8042.08
481.77	8035.06
481.95	7936.76
482.13	8100.59
482.31	8184.85
482.49	8229.32
482.67	8166.13
482.85	8320.60
483.03	8657.64
483.21	8599.13
483.39	8685.73
483.57	8669.34
483.74	8662.32
483.92	8641.26
484.10	8603.81
484.28	8762.97
484.46	9067.24
484.64	9301.29
484.82	9025.11
485.00	9221.71
485.18	9308.31
485.35	9366.82
485.53	9296.61
485.71	9603.22
485.89	9451.08
486.07	9652.37
486.25	9715.56
486.43	9502.58
486.61	9771.74
486.78	9771.74
486.96	9755.35
487.14	9926.21
487.32	9973.02
487.50	10270.27
487.68	10303.04
487.85	10310.06
488.03	10523.05
488.21	10593.26
488.39	10621.35
488.57	10548.79
488.75	10478.58
488.92	10899.87
489.10	10832.00
489.28	11030.94
489.46	11091.80
489.64	11110.52
489.81	11211.17
489.99	11426.50
490.17	11016.90
490.35	11304.79
490.53	11431.18
490.70	11585.65
490.88	11452.24
491.06	11651.19
491.24	11660.55
491.41	11679.27
491.59	11700.34
491.77	12112.27
491.95	11894.60
492.13	12131.00
492.30	12259.73
492.48	12453.99
492.66	12039.72
492.84	12482.08
493.01	12641.23
493.19	12657.62
493.37	12610.81
493.54	12692.73
493.72	12856.56
493.90	12683.36
494.08	12973.59
494.25	13006.36
494.43	13025.08
494.61	13132.75
494.79	13357.44
494.96	13504.89
495.14	13355.10
495.32	13558.72
495.49	13647.66
495.67	13437.02
495.85	13745.97
496.02	13769.37
496.20	13891.08
496.38	13764.69
496.55	13937.89
496.73	14036.19
496.91	14200.03
497.09	14125.13
497.26	14494.94
497.44	14366.21
497.62	14396.64
497.79	14576.86
497.97	14780.48
498.14	14848.36
498.32	14963.04
498.50	14934.96
498.67	15417.11
498.85	14768.78
499.03	14885.81
499.20	14909.21
499.38	14853.04
499.56	15161.99
499.73	15283.70
499.91	15250.93
500.08	15389.02
500.26	15232.21
500.44	15517.75
500.61	15480.30
500.79	15461.58
500.97	15620.74
501.14	15784.57
501.32	15812.66
501.49	15688.61
501.67	15815.00
501.84	16049.05
502.02	15594.99
502.20	16149.70
502.37	16051.39
502.55	16203.53
502.72	16051.39
502.90	15999.90
503.07	16159.06
503.25	16468.01
503.43	16437.58
503.60	16432.90
503.78	16500.78
503.95	16472.69
504.13	16451.63
504.30	16613.12
504.48	16629.51
504.65	16732.49
504.83	16982.93
505.01	16791.00
505.18	17233.36
505.36	17341.03
505.53	16966.54
505.71	17076.55
505.88	16816.75
506.06	17022.72
506.23	16971.22
506.41	17565.72
506.58	17291.88
506.76	17465.08
506.93	17193.58
507.11	17034.42
507.28	17263.79
507.46	17804.46
507.63	17558.70
507.81	17544.66
507.98	17743.60
508.16	17741.26
508.33	17680.41
508.50	17888.71
508.68	17795.09
508.85	18153.20
509.03	18178.94
509.20	18352.14
509.38	18345.12
509.55	18221.07
509.73	18354.48
509.90	17926.16
510.08	18092.34
510.25	18211.71
510.42	18202.35
510.60	18857.70
510.77	18853.02
510.95	19040.26
511.12	18420.02
511.30	18689.18
511.47	18822.59
511.64	18890.46
511.82	18836.63
511.99	18927.91
512.17	19194.73
512.34	19096.43
512.51	19161.97
512.69	19183.03
512.86	19080.05
513.04	19484.96
513.21	19499.00
513.38	19403.04
513.56	19566.88
513.73	19295.38
513.90	19456.87
514.08	19276.65
514.25	19440.49
514.43	19730.72
514.60	19946.05
514.77	19711.99
514.95	19796.25
515.12	19674.54
515.29	19812.63
515.47	20107.54
515.64	19957.75
515.81	19833.70
515.99	19784.55
516.16	20376.70
516.33	20287.76
516.51	20194.14
516.68	20240.95
516.85	20467.98
517.03	20751.19
517.20	20467.98
517.37	20709.06
517.54	20505.43
517.72	20365.00
517.89	20475.01
518.06	20540.54
518.24	20563.95
518.41	20662.25
518.58	20992.26
518.75	20556.93
518.93	21209.93
519.10	20688.00
519.27	20945.45
519.45	20929.07
519.62	21273.13
519.79	21034.39
519.96	21078.86
520.14	21181.85
520.31	21111.63
520.48	21523.57
520.65	21319.94
520.83	21441.65
521.00	21123.33
521.17	21301.22
521.34	21511.86
521.52	21392.50
521.69	21535.27
521.86	21851.24
522.03	21589.10
522.20	21575.06
522.38	21886.35
522.55	21649.96
522.72	22097.00
522.89	21841.88
523.07	22235.09
523.24	22050.19
523.41	21893.37
523.58	22125.08
523.75	22225.73
523.92	21553.99
524.10	22078.27
524.27	22003.38
524.44	22412.97
524.61	22574.47
524.78	22328.71
524.96	22422.33
525.13	22340.41
525.30	22263.18
525.47	22471.48
525.64	22253.81
525.81	22780.43
525.98	22843.63
526.16	22700.86
526.33	22824.90
526.50	23101.09
526.67	22953.63
526.84	22955.97
527.01	22735.96
527.18	22862.35
527.36	23246.20
527.53	22752.35
527.70	23147.90
527.87	23213.43
528.04	22986.40
528.21	22874.06
528.38	23147.90
528.55	23332.80
528.72	23283.65
528.89	23594.94
529.07	23459.19
529.24	23459.19
529.41	23695.58
529.58	23538.77
529.75	23442.81
529.92	23616.01
530.09	23454.51
530.26	23498.98
530.43	23770.48
530.60	23468.55
530.77	23658.14
530.94	23962.40
531.11	23871.12
531.28	23627.71
531.46	23630.05
531.63	23981.13
531.80	24053.69
531.97	24077.09
532.14	24123.90
532.31	24126.24
532.48	23981.13
532.65	24292.42
532.82	23782.18
532.99	23983.47
533.16	24025.60
533.33	24528.81
533.50	24418.81
533.67	24315.83
533.84	24173.05
534.01	24301.78
534.18	24102.84
534.35	24613.07
534.52	24261.99
534.69	24577.97
534.86	24505.41
535.03	24442.21
535.20	24559.24
535.37	24835.42
535.54	24847.13
535.71	24662.22
535.88	24556.90
536.05	24982.88
536.22	25001.60
536.38	25064.80
536.55	25120.97
536.72	25172.46
536.89	24760.53
537.06	24805.00
537.23	25088.20
537.40	24907.98
537.57	24716.06
537.74	25446.30
537.91	25296.51
538.08	25362.04
538.25	24898.62
538.42	25242.68
538.59	25165.44
538.75	25186.50
538.92	24971.18
539.09	25591.42
539.26	25111.61
539.43	25266.08
539.60	25198.21
539.77	25486.09
539.94	25532.90
540.11	25743.55
540.28	25809.09
540.44	25661.63
540.61	25497.80
540.78	25495.46
540.95	25694.40
541.12	25640.57
541.29	25624.18
541.46	25617.16
541.62	25577.37
541.79	25865.26
541.96	25472.05
542.13	25738.87
542.30	25502.48
542.47	25671.00
542.63	26071.23
542.80	26157.83
542.97	26162.51
543.14	26225.70
543.31	26436.35
543.48	26146.12
543.64	26712.53
543.81	26742.96
543.98	26476.14
544.15	26335.71
544.32	26405.92
544.48	26611.89
544.65	26335.71
544.82	26658.70
544.99	25928.45
545.16	26766.37
545.32	26466.78
545.49	26508.91
545.66	26768.71
545.83	26991.06
546.00	26731.26
546.16	26525.29
546.33	26764.03
546.50	26492.52
546.67	26691.47
546.83	26389.54
547.00	26986.38
547.17	27220.43
547.34	26946.59
547.50	26897.44
547.67	27173.62
547.84	27307.03
548.00	27405.33
548.17	27328.10
548.34	26773.39
548.51	27325.75
548.67	27140.85
548.84	27042.55
549.01	27260.22
549.18	27161.92
549.34	26857.65
549.51	27510.66
549.68	27037.87
549.84	27339.80
550.01	27257.88
550.18	27548.11
550.34	27505.98
550.51	27260.22
550.68	27487.25
550.84	27103.40
551.01	27400.65
551.18	27475.55
551.34	27402.99
551.51	27569.17
551.68	27419.38
551.84	27978.76
552.01	27690.88
552.18	27700.24
552.34	27594.92
552.51	27402.99
552.68	27428.74
552.84	27817.27
553.01	27665.13
553.18	27655.77
553.34	28060.68
553.51	27990.47
553.67	27695.56
553.84	28034.94
554.01	28030.26
554.17	28037.28
554.34	27955.36
554.51	27716.62
554.67	28229.20
554.84	27903.87
555.00	27857.06
555.17	27913.23
555.33	28065.36
555.50	28486.66
555.67	28060.68
555.83	27931.95
556.00	28383.68
556.16	28187.07
556.33	28011.53
556.50	28271.33
556.66	28718.37
556.83	28407.08
556.99	28472.62
557.16	27906.21
557.32	28393.04
557.49	28524.11
557.65	28332.18
557.82	28458.57
557.98	28034.94
558.15	28290.06
558.32	28767.52
558.48	28531.13
558.65	28458.57
558.81	28603.69
558.98	28519.43
559.14	28456.23
559.31	28531.13
559.47	28634.11
559.64	28587.30
559.80	28636.45
559.97	28865.83
560.13	28545.17
560.30	28755.82
560.46	28966.47
560.63	28226.86
560.79	28584.96
560.96	28842.42
561.12	28538.15
561.29	28350.91
561.45	28776.89
561.61	28840.08
561.78	28996.90
561.94	28856.46
562.11	28830.72
562.27	28849.44
562.44	28589.64
562.60	28690.29
562.77	28709.01
562.93	28751.14
563.10	29146.69
563.26	28664.54
563.42	29053.07
563.59	28737.10
563.75	28826.04
563.92	28847.10
564.08	28854.12
564.24	28868.17
564.41	28751.14
564.57	28811.99
564.74	28917.32
564.90	29062.43
565.07	29212.23
565.23	29439.26
565.39	28982.85
565.56	29259.04
565.72	29048.39
565.88	28809.65
566.05	28819.02
566.21	29008.60
566.38	29013.28
566.54	29006.26
566.70	29165.42
566.87	29230.95
567.03	29385.43
567.19	29631.18
567.36	29488.41
567.52	29050.73
567.68	29179.46
567.85	29249.67
568.01	29401.81
568.17	28952.43
568.34	29137.33
568.50	29209.89
568.66	29198.18
568.83	29511.81
568.99	29198.18
569.15	29303.51
569.32	29298.83
569.48	28835.40
569.64	29261.38
569.81	29521.18
569.97	29549.26
570.13	29668.63
570.30	29151.37
570.46	29509.47
570.62	29457.98
570.78	29308.19
570.95	29635.86
571.11	29493.09
571.27	29329.25
571.43	29230.95
571.60	28938.38
571.76	29446.28
571.92	29575.01
572.09	29736.51
572.25	29549.26
572.41	29371.38
572.57	29558.63
572.74	29551.60
572.90	29277.76
573.06	29434.58
573.22	29120.95
573.38	29596.07
573.55	29434.58
573.71	30192.91
573.87	29785.66
574.03	29539.90
574.20	29446.28
574.36	29455.64
574.52	29357.34
574.68	29069.45
574.84	29694.38
575.01	29457.98
575.17	29670.97
575.33	29373.72
575.49	29827.79
575.65	29469.69
575.82	29696.72
575.98	29287.12
576.14	29607.78
576.30	29963.54
576.46	29261.38
576.62	29308.19
576.79	29685.01
576.95	29371.38
577.11	29280.10
577.27	30223.34
577.43	29926.09
577.59	30122.69
577.75	29628.84
577.92	29537.56
578.08	29455.64
578.24	29542.24
578.40	29977.58
578.56	29532.88
578.72	29572.67
578.88	29649.91
579.04	29776.30
579.21	29729.48
579.37	30031.41
579.53	29593.73
579.69	29734.17
579.85	29429.90
580.01	29968.22
580.17	29465.00
580.33	29441.60
580.49	29584.37
580.65	29883.96
580.82	29944.81
580.98	30017.37
581.14	29820.77
581.30	29668.63
581.46	29399.47
581.62	29902.68
581.78	29359.68
581.94	29542.24
582.10	29586.71
582.26	29795.02
582.42	29933.11
582.58	30043.12
582.74	29677.99
582.90	29883.96
583.06	30071.20
583.22	30054.82
583.38	29907.37
583.54	29958.86
583.70	30040.78
583.86	29575.01
584.02	29785.66
584.18	29694.38
584.34	30181.21
584.50	30087.59
584.66	29701.40
584.82	29570.33
584.98	30080.56
585.14	29603.10
585.30	29596.07
585.46	29944.81
585.62	30022.05
585.78	29965.88
585.94	29893.32
586.10	29500.11
586.26	30277.17
586.42	29823.11
586.58	29844.17
586.74	29935.45
586.90	29575.01
587.06	29764.59
587.22	29483.73
587.38	29958.86
587.54	30129.72
587.70	30417.60
587.86	29902.68
588.02	30108.65
588.18	30396.54
588.34	30307.60
588.49	29837.15
588.65	30010.35
588.81	30075.88
588.97	30228.02
589.13	29900.34
589.29	30183.55
589.45	29675.65
589.61	29998.65
589.77	30391.86
589.93	30066.52
590.08	30426.96
590.24	30316.96
590.40	30225.68
590.56	30389.52
590.72	30148.44
590.88	29832.47
591.04	30110.99
591.20	30235.04
591.35	30508.88
591.51	30417.60
591.67	30457.39
591.83	30703.15
591.99	30382.49
