SpectraSuite Data File
++++++++++++++++++++++++++++++++++++
Date: Fri Oct 18 13:58:38 GMT-05:00 2013
User: bianchi
Dark Spectrum Present: No
Reference Spectrum Present: No
Number of Sampled Component Spectra: 1
Spectrometers: USB2+H05261
Integration Time (usec): 50000 (USB2+H05261)
Spectra Averaged: 1 (USB2+H05261)
Boxcar Smoothing: 0 (USB2+H05261)
Correct for Electrical Dark: No (USB2+H05261)
Strobe/Lamp Enabled: No (USB2+H05261)
Correct for Detector Non-linearity: No (USB2+H05261)
Correct for Stray Light: No (USB2+H05261)
Number of Pixels in Processed Spectrum: 2048
>>>>>Begin Processed Spectral Data<<<<<
365.73	0.00
365.92	0.00
366.12	0.00
366.32	0.00
366.52	0.00
366.72	0.00
366.91	0.00
367.11	0.00
367.31	0.00
367.51	0.00
367.70	0.00
367.90	0.00
368.10	0.00
368.30	0.00
368.49	0.00
368.69	0.00
368.89	0.00
369.09	0.00
369.28	0.00
369.48	0.00
369.68	0.00
369.87	0.00
370.07	0.00
370.27	0.00
370.47	0.00
370.66	86.60
370.86	18.72
371.06	128.73
371.25	196.60
371.45	107.66
371.65	133.41
371.84	88.94
372.04	121.71
372.24	191.92
372.44	128.73
372.63	248.10
372.83	271.50
373.03	215.33
373.22	166.18
373.42	159.16
373.62	201.29
373.81	252.78
374.01	222.35
374.21	210.65
374.40	210.65
374.60	201.29
374.79	215.33
374.99	201.29
375.19	241.08
375.38	180.22
375.58	222.35
375.78	264.48
375.97	287.89
376.17	264.48
376.37	278.52
376.56	273.84
376.76	201.29
376.95	252.78
377.15	308.95
377.35	290.23
377.54	194.26
377.74	337.04
377.93	301.93
378.13	264.48
378.33	255.12
378.52	212.99
378.72	332.36
378.91	259.80
379.11	278.52
379.31	257.46
379.50	320.65
379.70	306.61
379.89	308.95
380.09	276.18
380.28	322.99
380.48	353.42
380.68	229.37
380.87	334.70
381.07	308.95
381.26	390.87
381.46	341.72
381.65	325.33
381.85	273.84
382.04	344.06
382.24	304.27
382.43	393.21
382.63	353.42
382.83	367.46
383.02	372.15
383.22	337.04
383.41	327.68
383.61	381.51
383.80	341.72
384.00	418.96
384.19	367.46
384.39	404.91
384.58	376.83
384.78	390.87
384.97	344.06
385.17	409.59
385.36	346.40
385.56	404.91
385.75	379.17
385.95	386.19
386.14	355.76
386.34	386.19
386.53	353.42
386.72	449.38
386.92	458.74
387.11	379.17
387.31	484.49
387.50	388.53
387.70	416.62
387.89	365.12
388.09	421.30
388.28	423.64
388.48	440.02
388.67	437.68
388.86	512.58
389.06	425.98
389.25	411.93
389.45	496.19
389.64	461.09
389.84	421.30
390.03	489.17
390.22	533.64
390.42	428.32
390.61	498.53
390.81	498.53
391.00	475.13
391.19	521.94
391.39	449.38
391.58	540.66
391.78	526.62
391.97	475.13
392.16	456.40
392.36	582.79
392.55	538.32
392.75	554.71
392.94	538.32
393.13	573.43
393.33	631.94
393.52	578.11
393.71	587.47
393.91	547.69
394.10	580.45
394.29	664.71
394.49	571.09
394.68	564.07
394.88	533.64
395.07	636.63
395.26	578.11
395.46	566.41
395.65	559.39
395.84	559.39
396.04	683.44
396.23	592.16
396.42	667.05
396.62	631.94
396.81	669.39
397.00	636.63
397.19	582.79
397.39	664.71
397.58	758.33
397.77	704.50
397.97	650.67
398.16	774.72
398.35	645.99
398.55	662.37
398.74	660.03
398.93	660.03
399.12	674.07
399.32	746.63
399.51	767.70
399.70	800.46
399.90	732.59
400.09	732.59
400.28	760.67
400.47	683.44
400.67	809.83
400.86	816.85
401.05	770.04
401.24	763.01
401.44	844.93
401.63	802.80
401.82	800.46
402.01	805.14
402.21	938.55
402.40	847.27
402.59	777.06
402.78	774.72
402.97	978.34
403.17	957.28
403.36	889.40
403.55	861.32
403.74	880.04
403.93	875.36
404.13	903.45
404.32	919.83
404.51	873.02
404.70	896.43
404.89	896.43
405.09	943.24
405.28	978.34
405.47	922.17
405.66	931.53
405.85	954.94
406.05	1004.09
406.24	966.64
406.43	999.41
406.62	1107.07
406.81	1086.01
407.00	1013.45
407.20	915.15
407.39	978.34
407.58	1057.92
407.77	983.02
407.96	1006.43
408.15	1057.92
408.34	1053.24
408.54	1071.97
408.73	1039.20
408.92	1022.81
409.11	1060.26
409.30	1146.86
409.49	1188.99
409.68	1139.84
409.87	1142.18
410.07	1163.25
410.26	1149.20
410.45	1179.63
410.64	1146.86
410.83	1156.22
411.02	1228.78
411.21	1256.87
411.40	1193.67
411.59	1266.23
411.78	1256.87
411.98	1224.10
412.17	1174.95
412.36	1160.91
412.55	1181.97
412.74	1306.02
412.93	1369.21
413.12	1350.49
413.31	1432.41
413.50	1327.08
413.69	1455.81
413.88	1472.20
414.07	1383.26
414.26	1523.69
414.45	1387.94
414.64	1519.01
414.83	1551.78
415.02	1565.82
415.22	1472.20
415.41	1488.58
415.60	1521.35
415.79	1495.60
415.98	1509.65
416.17	1561.14
416.36	1502.62
416.55	1671.14
416.74	1668.80
416.93	1624.33
417.12	1629.01
417.31	1715.61
417.50	1668.80
417.69	1661.78
417.88	1769.44
418.07	1792.85
418.26	1685.19
418.45	1668.80
418.64	1785.83
418.83	1788.17
419.02	1781.15
419.21	1837.32
419.39	1743.70
419.58	1762.42
419.77	1895.83
419.96	1827.96
420.15	1734.34
420.34	1933.28
420.53	1940.30
420.72	1947.33
420.91	1975.41
421.10	1987.11
421.29	1930.94
421.48	1858.39
421.67	1884.13
421.86	1942.64
422.05	1905.20
422.24	2003.50
422.43	1966.05
422.61	2001.16
422.80	1982.43
422.99	2052.65
423.18	2005.84
423.37	2003.50
423.56	2001.16
423.75	2120.53
423.94	1933.28
424.13	1757.74
424.32	1942.64
424.50	2076.06
424.69	2066.69
424.88	2059.67
425.07	1998.82
425.26	2024.56
425.45	1926.26
425.64	2104.14
425.83	1987.11
426.01	2099.46
426.20	2108.82
426.39	2155.63
426.58	2134.57
426.77	2031.58
426.96	2106.48
427.15	2132.23
427.33	2066.69
427.52	2104.14
427.71	2228.19
427.90	2141.59
428.09	2181.38
428.28	2270.32
428.46	2228.19
428.65	2237.55
428.84	2279.68
429.03	2239.89
429.22	2197.76
429.40	2218.83
429.59	2195.42
429.78	2221.17
429.97	2139.25
430.16	2207.13
430.34	2263.30
430.53	2256.28
430.72	2282.02
430.91	2253.94
431.10	2359.26
431.28	2239.89
431.47	2347.56
431.66	2443.52
431.85	2338.20
432.03	2452.88
432.22	2553.52
432.41	2457.56
432.60	2497.35
432.79	2363.94
432.97	2480.97
433.16	2487.99
433.35	2289.04
433.54	2424.80
433.72	2469.27
433.91	2410.75
434.10	2408.41
434.28	2516.08
434.47	2553.52
434.66	2445.86
434.85	2534.80
435.03	2612.04
435.22	2665.87
435.41	2642.46
435.59	2684.59
435.78	2640.12
435.97	2602.68
436.16	2675.23
436.34	2548.84
436.53	2745.45
436.72	2731.41
436.90	2689.28
437.09	2658.85
437.28	2705.66
437.46	2846.09
437.65	2614.38
437.84	2773.53
438.02	2551.18
438.21	2841.41
438.40	2789.92
438.58	2902.26
438.77	3009.93
438.96	2794.60
439.14	2916.31
439.33	3023.97
439.52	2984.18
439.70	3040.36
439.89	3171.43
440.08	3169.09
440.26	3014.61
440.45	3117.59
440.63	3045.04
440.82	3180.79
441.01	2977.16
441.19	3087.17
441.38	3080.14
441.57	3274.41
441.75	3246.32
441.94	3234.62
442.12	3274.41
442.31	3267.39
442.50	3363.35
442.68	3353.99
442.87	3325.90
443.05	3339.94
443.24	3351.65
443.43	3332.92
443.61	3461.65
443.80	3454.63
443.98	3220.58
444.17	3260.37
444.35	3440.59
444.54	3461.65
444.73	3342.28
444.91	3400.80
445.10	3309.52
445.28	3447.61
445.47	3471.01
445.65	3410.16
445.84	3438.25
446.02	3428.88
446.21	3419.52
446.39	3452.29
446.58	3559.95
446.77	3520.17
446.95	3473.36
447.14	3494.42
447.32	3644.21
447.51	3543.57
447.69	3442.93
447.88	3585.70
448.06	3606.77
448.25	3487.40
448.43	3475.70
448.62	3590.38
448.80	3447.61
448.99	3576.34
449.17	3665.28
449.36	3515.48
449.54	3541.23
449.73	3651.24
449.91	3672.30
450.10	3641.87
450.28	3637.19
450.46	3716.77
450.65	3817.41
450.83	3679.32
451.02	3854.86
451.20	3829.12
451.39	3833.80
451.57	3681.66
451.76	3794.01
451.94	3784.65
452.13	3873.59
452.31	3882.95
452.49	3866.56
452.68	3857.20
452.86	3859.54
453.05	3845.50
453.23	3822.09
453.42	3815.07
453.60	3742.52
453.78	3962.53
453.97	3777.62
454.15	3873.59
454.34	3772.94
454.52	3971.89
454.70	3911.04
454.89	4053.81
455.07	4030.40
455.26	3985.93
455.44	4145.09
455.62	3969.55
455.81	4079.55
455.99	4023.38
456.17	4147.43
456.36	4308.93
456.54	4219.99
456.73	4138.07
456.91	4290.20
457.09	4273.82
457.28	4374.46
457.46	4341.69
457.64	4360.42
457.83	4358.08
458.01	4198.92
458.19	4444.68
458.38	4376.80
458.56	4381.48
458.74	4318.29
458.93	4428.29
459.11	4414.25
459.29	4449.36
459.48	4507.87
459.66	4374.46
459.84	4559.36
460.03	4681.07
460.21	4550.00
460.39	4486.81
460.57	4477.44
460.76	4650.64
460.94	4568.73
461.12	4559.36
461.31	4704.48
461.49	4603.83
461.67	4741.93
461.85	4814.48
462.04	4631.92
462.22	4697.46
462.40	4791.08
462.59	4755.97
462.77	4791.08
462.95	4762.99
463.13	4699.80
463.32	4812.14
463.50	4751.29
463.68	4809.80
463.86	4873.00
464.05	4748.95
464.23	4664.69
464.41	4947.89
464.59	4678.73
464.78	4943.21
464.96	4987.68
465.14	4903.42
465.32	4873.00
465.50	4980.66
465.69	4847.25
465.87	5036.83
466.05	5027.47
466.23	5015.77
466.41	4966.62
466.60	5160.88
466.78	5013.43
466.96	5022.79
467.14	5093.01
467.32	5151.52
467.51	5128.11
467.69	5043.85
467.87	5095.35
468.05	5132.79
468.23	5128.11
468.41	5118.75
468.60	5242.80
468.78	5287.27
468.96	4999.38
469.14	5270.89
469.32	5305.99
469.50	5179.61
469.69	5291.95
469.87	5425.36
470.05	5305.99
470.23	5624.31
470.41	5481.53
470.59	5373.87
470.77	5451.11
470.95	5516.64
471.14	5530.69
471.32	5427.70
471.50	5540.05
471.68	5430.04
471.86	5558.77
472.04	5628.99
472.22	5942.62
472.40	5572.82
472.58	5692.18
472.77	5802.19
472.95	5776.44
473.13	5940.28
473.31	5804.53
473.49	5898.15
473.67	5837.30
473.85	5996.45
474.03	5844.32
474.21	5954.32
474.39	5996.45
474.57	5966.03
474.75	6104.12
474.93	6120.50
475.12	6164.97
475.30	6249.23
475.48	6253.91
475.66	6279.66
475.84	6352.21
476.02	6396.68
476.20	6366.26
476.38	6469.24
476.56	6504.35
476.74	6406.05
476.92	6504.35
477.10	6642.44
477.28	6609.67
477.46	6736.06
477.64	6612.01
477.82	6846.07
478.00	6883.52
478.18	6881.18
478.36	6881.18
478.54	7110.55
478.72	7082.46
478.90	7199.49
479.08	7253.32
479.26	7353.96
479.44	7152.68
479.62	7405.46
479.80	7314.17
479.98	7405.46
480.16	7466.31
480.34	7431.20
480.52	7751.85
480.70	7543.55
480.88	7564.61
481.06	7691.00
481.24	7627.81
481.41	7775.26
481.59	8044.42
481.77	7913.35
481.95	8173.15
482.13	8072.51
482.31	8105.28
482.49	8252.73
482.67	8236.35
482.85	8437.63
483.03	8393.16
483.21	8545.30
483.39	8603.81
483.57	8439.97
483.74	8568.70
483.92	8725.52
484.10	8674.03
484.28	8741.90
484.46	8879.99
484.64	9036.81
484.82	8940.85
485.00	9022.77
485.18	9170.22
485.35	9479.17
485.53	9427.68
485.71	9558.75
485.89	9467.47
486.07	9572.79
486.25	9568.11
486.43	9638.33
486.61	9823.23
486.78	9788.12
486.96	10078.35
487.14	10148.56
487.32	10097.07
487.50	9970.68
487.68	10246.87
487.85	10286.65
488.03	10181.33
488.21	10523.05
488.39	10700.93
488.57	10537.09
488.75	10597.95
488.92	10684.55
489.10	10897.53
489.28	10913.92
489.46	11112.86
489.64	10925.62
489.81	11052.01
489.99	11199.46
490.17	11248.61
490.35	11494.37
490.53	11456.92
490.70	11576.29
490.88	11665.23
491.06	11482.67
491.24	11632.46
491.41	11925.03
491.59	12013.97
491.77	12009.29
491.95	12241.00
492.13	12208.23
492.30	12184.83
492.48	12147.38
492.66	12241.00
492.84	12376.75
493.01	12512.50
493.19	12603.78
493.37	12725.49
493.54	12833.16
493.72	12882.31
493.90	12765.28
494.08	12996.99
494.25	13338.71
494.43	13099.98
494.61	13104.66
494.79	13224.03
494.96	13186.58
495.14	13172.54
495.32	13554.04
495.49	13444.04
495.67	13678.09
495.85	13724.90
496.02	13769.37
496.20	13664.05
496.38	13837.25
496.55	13802.14
496.73	14059.60
496.91	13987.04
497.09	14438.76
497.26	14223.44
497.44	14221.10
497.62	14422.38
497.79	14689.20
497.97	14455.15
498.14	14899.85
498.32	14766.44
498.50	14831.97
498.67	14712.61
498.85	14967.73
499.03	15098.80
499.20	14923.26
499.38	15297.74
499.56	15089.43
499.73	15449.88
499.91	15351.57
500.08	15316.47
500.26	15082.41
500.44	15573.92
500.61	15290.72
500.79	15449.88
500.97	15679.25
501.14	15723.72
501.32	15859.47
501.49	15609.03
501.67	15690.95
501.84	15910.96
502.02	15934.37
502.20	16149.70
502.37	16154.38
502.55	16025.65
502.72	16142.67
502.90	16243.32
503.07	16159.06
503.25	16039.69
503.43	16313.53
503.60	16713.77
503.78	16617.80
503.95	16580.36
504.13	16629.51
504.30	16594.40
504.48	16734.83
504.65	16425.88
504.83	16741.85
505.01	17200.60
505.18	16746.53
505.36	16912.71
505.53	16975.91
505.71	17064.85
505.88	17092.93
506.06	16961.86
506.23	17099.95
506.41	17104.64
506.58	17371.46
506.76	17453.37
506.93	17469.76
507.11	17245.07
507.28	17284.86
507.46	17439.33
507.63	17476.78
507.81	17692.11
507.98	17675.73
508.16	17869.99
508.33	17970.63
508.50	17823.18
508.68	17980.00
508.85	17996.38
509.03	18209.37
509.20	18394.27
509.38	18052.55
509.55	18101.70
509.73	18314.69
509.90	18335.76
510.08	18265.54
510.25	18202.35
510.42	18527.68
510.60	18616.62
510.77	18789.82
510.95	18740.67
511.12	18373.21
511.30	18658.75
511.47	18743.01
511.64	18902.17
511.82	18932.59
511.99	18991.11
512.17	19049.62
512.34	19063.66
512.51	18932.59
512.69	18857.70
512.86	19159.63
513.04	19531.77
513.21	19152.60
513.38	19295.38
513.56	19339.85
513.73	19417.08
513.90	19599.65
514.08	19487.30
514.25	19660.50
514.43	19941.36
514.60	19812.63
514.77	20034.99
514.95	19695.61
515.12	19880.51
515.29	19896.89
515.47	20091.16
515.64	19871.15
515.81	19934.34
515.99	20357.98
516.16	20240.95
516.33	20486.71
516.51	20582.67
516.68	19964.77
516.85	20077.12
517.03	20224.57
517.20	20467.98
517.37	20645.87
517.54	20617.78
517.72	20554.58
517.89	20624.80
518.06	20751.19
518.24	20582.67
518.41	20627.14
518.58	20971.20
518.75	20781.62
518.93	20858.85
519.10	20746.51
519.27	21163.12
519.45	21095.25
519.62	21010.99
519.79	20549.90
519.96	21076.52
520.14	21282.49
520.31	21289.51
520.48	21083.55
520.65	21652.30
520.83	20989.92
521.00	21497.82
521.17	21406.54
521.34	21336.32
521.52	21263.77
521.69	21439.31
521.86	21319.94
522.03	21900.39
522.20	21769.32
522.38	21942.52
522.55	21720.17
522.72	21949.54
522.89	21848.90
523.07	21771.66
523.24	22232.75
523.41	21942.52
523.58	21841.88
523.75	22085.30
523.92	21930.82
524.10	22064.23
524.27	22366.16
524.44	22160.19
524.61	22632.98
524.78	22277.22
524.96	22457.44
525.13	22504.25
525.30	22459.78
525.47	22253.81
525.64	22476.16
525.81	22635.32
525.98	23094.07
526.16	22651.70
526.33	22312.33
526.50	23178.33
526.67	22815.54
526.84	22651.70
527.01	22864.69
527.18	22860.01
527.36	23040.23
527.53	23021.51
527.70	23477.91
527.87	23503.66
528.04	23026.19
528.21	23171.30
528.38	23215.77
528.55	23229.82
528.72	23370.25
528.89	23365.57
529.07	23105.77
529.24	23328.12
529.41	23431.10
529.58	23463.87
529.75	23459.19
529.92	23545.79
530.09	23213.43
530.26	23433.44
530.43	23503.66
530.60	23681.54
530.77	23585.58
530.94	23730.69
531.11	23342.16
531.28	23775.16
531.46	23962.40
531.63	23674.52
531.80	24027.94
531.97	23915.59
532.14	24180.07
532.31	24287.74
532.48	23791.55
532.65	24294.76
532.82	24072.41
532.99	23927.30
533.16	24229.23
533.33	24542.86
533.50	24552.22
533.67	24484.34
533.84	24032.62
534.01	24109.86
534.18	24294.76
534.35	24664.57
534.52	24390.72
534.69	24617.75
534.86	24727.76
535.03	24261.99
535.20	24765.21
535.37	24917.34
535.54	24669.25
535.71	24318.17
535.88	24482.00
536.05	24362.64
536.22	25050.75
536.38	25076.50
536.55	25151.40
536.72	25303.53
536.89	24758.19
537.06	24819.04
537.23	25144.38
537.40	25067.14
537.57	24996.92
537.74	25125.65
537.91	25575.03
538.08	25474.39
538.25	25216.93
538.42	25221.61
538.59	25238.00
538.75	25090.54
538.92	25266.08
539.09	25420.56
539.26	25530.56
539.43	25720.15
539.60	25579.71
539.77	25085.86
539.94	25809.09
540.11	25535.24
540.28	25502.48
540.44	25600.78
540.61	25935.48
540.78	25563.33
540.95	25270.76
541.12	25900.37
541.29	25572.69
541.46	25514.18
541.62	25902.71
541.79	25689.72
541.96	25649.93
542.13	25673.34
542.30	25956.54
542.47	25855.90
542.63	25991.65
542.80	26321.66
542.97	25996.33
543.14	26279.54
543.31	26214.00
543.48	25986.97
543.64	26597.85
543.81	26476.14
543.98	26672.74
544.15	26223.36
544.32	26417.63
544.48	26764.03
544.65	26419.97
544.82	26426.99
544.99	26298.26
545.16	26380.18
545.32	26551.04
545.49	26799.13
545.66	26845.94
545.83	26726.58
546.00	26721.90
546.16	26918.50
546.33	26419.97
546.50	26335.71
546.67	26731.26
546.83	26548.70
547.00	26920.84
547.17	26906.80
547.34	26710.19
547.50	26979.36
547.67	27180.64
547.84	27080.00
548.00	27461.51
548.17	27145.53
548.34	27080.00
548.51	27115.11
548.67	27344.48
548.84	27152.55
549.01	27337.46
549.18	27412.35
549.34	27143.19
549.51	27133.83
549.68	27117.45
549.84	27344.48
550.01	27309.37
550.18	27056.59
550.34	27185.32
550.51	27419.38
550.68	27819.61
550.84	27126.81
551.01	27372.57
551.18	27384.27
551.34	27147.87
551.51	27730.67
551.68	27360.86
551.84	27449.80
552.01	27576.19
552.18	27697.90
552.34	27763.43
552.51	27583.21
552.68	27793.86
552.84	27714.28
553.01	28095.79
553.18	27737.69
553.34	27861.74
553.51	27651.09
553.67	28128.56
553.84	28271.33
554.01	27934.29
554.17	28067.70
554.34	27740.03
554.51	28032.60
554.67	28357.93
554.84	28119.20
555.00	27843.01
555.17	28474.96
555.33	28149.62
555.50	28030.26
555.67	28051.32
555.83	28168.35
556.00	28133.24
556.16	28084.09
556.33	28264.31
556.50	28147.28
556.66	28261.97
556.83	28034.94
556.99	28472.62
557.16	28821.36
557.32	28013.87
557.49	28584.96
557.65	28236.22
557.82	28095.79
557.98	28437.51
558.15	28189.41
558.32	28423.47
558.48	28641.14
558.65	28580.28
558.81	28723.05
558.98	28472.62
559.14	28526.45
559.31	28393.04
559.47	28762.84
559.64	28547.51
559.80	28919.66
559.97	28865.83
560.13	28584.96
560.30	28166.01
560.46	28587.30
560.63	28386.02
560.79	28622.41
560.96	28783.91
561.12	28680.92
561.29	29060.09
561.45	28912.64
561.61	28982.85
561.78	28875.19
561.94	28919.66
562.11	28786.25
562.27	28994.56
562.44	28589.64
562.60	28704.33
562.77	28610.71
562.93	28606.03
563.10	28865.83
563.26	29125.63
563.42	29289.46
563.59	29202.86
563.75	29118.60
563.92	29235.63
564.08	28704.33
564.24	28959.45
564.41	28662.20
564.57	28814.34
564.74	29181.80
564.90	29142.01
565.07	28975.83
565.23	29502.45
565.39	29160.73
565.56	29156.05
565.72	29160.73
565.88	29582.03
566.05	28950.09
566.21	28914.98
566.38	28868.17
566.54	29186.48
566.70	29193.50
566.87	29230.95
567.03	29305.85
567.19	29490.75
567.36	29247.33
567.52	29378.40
567.68	29586.71
567.85	29034.35
568.01	29287.12
568.17	29048.39
568.34	29434.58
568.50	29359.68
568.66	29439.26
568.83	29457.98
568.99	29364.36
569.15	29252.02
569.32	29270.74
569.48	29099.88
569.64	29214.57
569.81	29392.45
569.97	29420.53
570.13	29390.11
570.30	29193.50
570.46	29593.73
570.62	29191.16
570.78	29289.46
570.95	29418.19
571.11	29584.37
571.27	29284.78
571.43	29713.10
571.60	29376.06
571.76	29277.76
571.92	29401.81
572.09	29673.31
572.25	29916.73
572.41	29355.00
572.57	29640.54
572.74	29670.97
572.90	29523.52
573.06	29537.56
573.22	29521.18
573.38	29668.63
573.55	29408.83
573.71	29729.48
573.87	29649.91
574.03	29567.99
574.20	29607.78
574.36	29600.76
574.52	29530.54
574.68	29528.20
574.84	29460.32
575.01	29504.79
575.17	29792.68
575.33	29586.71
575.49	29818.42
575.65	29635.86
575.82	29666.29
575.98	29593.73
576.14	29467.34
576.30	29575.01
576.46	29727.14
576.62	29680.33
576.79	29624.16
576.95	29675.65
577.11	29848.85
577.27	29972.90
577.43	29883.96
577.59	30120.35
577.75	29722.46
577.92	29432.24
578.08	29355.00
578.24	29528.20
578.40	29731.83
578.56	30054.82
578.72	29565.65
578.88	29736.51
579.04	29940.13
579.21	29720.12
579.37	29677.99
579.53	29855.87
579.69	29509.47
579.85	29504.79
580.01	29507.13
580.17	29773.95
580.33	29701.40
580.49	29965.88
580.65	29958.86
580.82	29766.93
580.98	29825.45
581.14	29795.02
581.30	29919.07
581.46	29710.76
581.62	29717.78
581.78	29900.34
581.94	29633.52
582.10	29851.19
582.26	29986.94
582.42	29642.88
582.58	30171.85
582.74	29933.11
582.90	29802.04
583.06	29902.68
583.22	29750.55
583.38	29876.94
583.54	29893.32
583.70	30040.78
583.86	29422.87
584.02	29809.06
584.18	30293.55
584.34	30450.37
584.50	30005.67
584.66	29839.49
584.82	30057.16
584.98	29869.92
585.14	29507.13
585.30	29362.02
585.46	30157.80
585.62	29397.13
585.78	30047.80
585.94	29626.50
586.10	29930.77
586.26	30118.01
586.42	30099.29
586.58	30082.91
586.74	29525.86
586.90	29898.00
587.06	29528.20
587.22	29713.10
587.38	29673.31
587.54	29846.51
587.70	30387.18
587.86	29722.46
588.02	30078.22
588.18	30305.26
588.34	30232.70
588.49	30300.58
588.65	29876.94
588.81	29841.83
588.97	30239.72
589.13	30108.65
589.29	30019.71
589.45	30085.25
589.61	30265.47
589.77	30120.35
589.93	30314.62
590.08	30171.85
590.24	30127.38
590.40	30417.60
590.56	30082.91
590.72	30286.53
590.88	30169.51
591.04	30546.33
591.20	30567.40
591.35	30249.08
591.51	30705.49
591.67	30532.29
591.83	30759.32
591.99	30267.81
