SpectraSuite Data File
++++++++++++++++++++++++++++++++++++
Date: Fri Oct 18 13:58:19 GMT-05:00 2013
User: bianchi
Dark Spectrum Present: No
Reference Spectrum Present: No
Number of Sampled Component Spectra: 1
Spectrometers: USB2+H05261
Integration Time (usec): 50000 (USB2+H05261)
Spectra Averaged: 1 (USB2+H05261)
Boxcar Smoothing: 0 (USB2+H05261)
Correct for Electrical Dark: No (USB2+H05261)
Strobe/Lamp Enabled: No (USB2+H05261)
Correct for Detector Non-linearity: No (USB2+H05261)
Correct for Stray Light: No (USB2+H05261)
Number of Pixels in Processed Spectrum: 2048
>>>>>Begin Processed Spectral Data<<<<<
365.73	0.00
365.92	0.00
366.12	0.00
366.32	0.00
366.52	0.00
366.72	0.00
366.91	0.00
367.11	0.00
367.31	0.00
367.51	0.00
367.70	0.00
367.90	0.00
368.10	0.00
368.30	0.00
368.49	0.00
368.69	0.00
368.89	0.00
369.09	0.00
369.28	0.00
369.48	0.00
369.68	0.00
369.87	0.00
370.07	0.00
370.27	0.00
370.47	0.00
370.66	77.24
370.86	79.58
371.06	112.35
371.25	182.56
371.45	145.11
371.65	159.16
371.84	142.77
372.04	154.48
372.24	234.05
372.44	173.20
372.63	212.99
372.83	196.60
373.03	262.14
373.22	177.88
373.42	173.20
373.62	210.65
373.81	224.69
374.01	238.73
374.21	271.50
374.40	210.65
374.60	280.86
374.79	255.12
374.99	262.14
375.19	264.48
375.38	231.71
375.58	269.16
375.78	217.67
375.97	383.85
376.17	259.80
376.37	280.86
376.56	217.67
376.76	280.86
376.95	229.37
377.15	266.82
377.35	301.93
377.54	241.08
377.74	266.82
377.93	306.61
378.13	201.29
378.33	278.52
378.52	276.18
378.72	276.18
378.91	252.78
379.11	264.48
379.31	339.38
379.50	322.99
379.70	287.89
379.89	341.72
380.09	353.42
380.28	348.74
380.48	290.23
380.68	280.86
380.87	271.50
381.07	355.76
381.26	341.72
381.46	341.72
381.65	311.29
381.85	311.29
382.04	306.61
382.24	360.44
382.43	348.74
382.63	376.83
382.83	292.57
383.02	344.06
383.22	416.62
383.41	444.70
383.61	369.80
383.80	341.72
384.00	395.55
384.19	322.99
384.39	346.40
384.58	294.91
384.78	287.89
384.97	425.98
385.17	383.85
385.36	402.57
385.56	402.57
385.75	374.49
385.95	414.27
386.14	386.19
386.34	407.25
386.53	418.96
386.72	416.62
386.92	372.15
387.11	353.42
387.31	425.98
387.50	421.30
387.70	337.04
387.89	456.40
388.09	503.22
388.28	435.34
388.48	437.68
388.67	458.74
388.86	372.15
389.06	489.17
389.25	491.51
389.45	498.53
389.64	543.00
389.84	596.84
390.03	491.51
390.22	454.06
390.42	557.05
390.61	550.03
390.81	554.71
391.00	578.11
391.19	482.15
391.39	554.71
391.58	547.69
391.78	636.63
391.97	552.37
392.16	498.53
392.36	477.47
392.55	573.43
392.75	517.26
392.94	578.11
393.13	514.92
393.33	500.87
393.52	566.41
393.71	631.94
393.91	631.94
394.10	512.58
394.29	554.71
394.49	528.96
394.68	568.75
394.88	519.60
395.07	695.14
395.26	622.58
395.46	580.45
395.65	667.05
395.84	575.77
396.04	702.16
396.23	706.84
396.42	664.71
396.62	662.37
396.81	641.31
397.00	622.58
397.19	746.63
397.39	643.65
397.58	650.67
397.77	697.48
397.97	718.54
398.16	711.52
398.35	697.48
398.55	732.59
398.74	676.41
398.93	674.07
399.12	713.86
399.32	713.86
399.51	821.53
399.70	767.70
399.90	767.70
400.09	786.42
400.28	770.04
400.47	676.41
400.67	772.38
400.86	767.70
401.05	802.80
401.24	781.74
401.44	875.36
401.63	765.36
401.82	866.00
402.01	779.40
402.21	809.83
402.40	795.78
402.59	875.36
402.78	844.93
402.97	915.15
403.17	887.06
403.36	863.66
403.55	847.27
403.74	894.08
403.93	905.79
404.13	961.96
404.32	896.43
404.51	856.64
404.70	912.81
404.89	912.81
405.09	999.41
405.28	919.83
405.47	849.61
405.66	896.43
405.85	1008.77
406.05	868.34
406.24	945.58
406.43	1013.45
406.62	1064.94
406.81	1062.60
407.00	943.24
407.20	980.68
407.39	1022.81
407.58	1001.75
407.77	1074.31
407.96	1146.86
408.15	1057.92
408.34	1118.78
408.54	1013.45
408.73	1149.20
408.92	1149.20
409.11	1130.48
409.30	1048.56
409.49	1174.95
409.68	1086.01
409.87	1198.35
410.07	1121.12
410.26	1186.65
410.45	1224.10
410.64	1174.95
410.83	1214.74
411.02	1128.14
411.21	1235.80
411.40	1245.16
411.59	1266.23
411.78	1299.00
411.98	1270.91
412.17	1203.04
412.36	1397.30
412.55	1385.60
412.74	1317.72
412.93	1357.51
413.12	1320.06
413.31	1366.87
413.50	1348.15
413.69	1366.87
413.88	1554.12
414.07	1437.09
414.26	1409.00
414.45	1446.45
414.64	1495.60
414.83	1533.05
415.02	1451.13
415.22	1554.12
415.41	1537.73
415.60	1614.97
415.79	1626.67
415.98	1547.09
416.17	1561.14
416.36	1535.39
416.55	1432.41
416.74	1629.01
416.93	1661.78
417.12	1659.44
417.31	1568.16
417.50	1603.27
417.69	1813.92
417.88	1764.76
418.07	1802.21
418.26	1785.83
418.45	1734.34
418.64	1804.55
418.83	1727.32
419.02	1746.04
419.21	1870.09
419.39	1764.76
419.58	1774.13
419.77	1741.36
419.96	1919.24
420.15	1907.54
420.34	1825.62
420.53	1820.94
420.72	1898.17
420.91	1823.28
421.10	1954.35
421.29	1956.69
421.48	1846.68
421.67	2045.63
421.86	1914.56
422.05	1933.28
422.24	1930.94
422.43	2008.18
422.61	1966.05
422.80	2080.74
422.99	2015.20
423.18	2040.95
423.37	1970.73
423.56	2054.99
423.75	2040.95
423.94	1970.73
424.13	1818.60
424.32	1914.56
424.50	2029.24
424.69	1949.67
424.88	1996.48
425.07	2026.90
425.26	2097.12
425.45	2085.42
425.64	2031.58
425.83	2062.01
426.01	2059.67
426.20	2003.50
426.39	1989.46
426.58	1937.96
426.77	2111.16
426.96	2153.29
427.15	1949.67
427.33	2167.34
427.52	2214.15
427.71	2150.95
427.90	2265.64
428.09	2300.75
428.28	2136.91
428.46	2134.57
428.65	2324.15
428.84	2228.19
429.03	2410.75
429.22	2214.15
429.40	2319.47
429.59	2246.91
429.78	2087.76
429.97	2165.00
430.16	2246.91
430.34	2354.58
430.53	2286.70
430.72	2342.88
430.91	2303.09
431.10	2333.51
431.28	2328.83
431.47	2406.07
431.66	2354.58
431.85	2548.84
432.03	2385.01
432.22	2359.26
432.41	2406.07
432.60	2342.88
432.79	2394.37
432.97	2471.61
433.16	2480.97
433.35	2399.05
433.54	2630.76
433.72	2630.76
433.91	2551.18
434.10	2609.70
434.28	2480.97
434.47	2572.25
434.66	2525.44
434.85	2705.66
435.03	2429.48
435.22	2679.91
435.41	2588.63
435.59	2581.61
435.78	2637.78
435.97	2663.53
436.16	2677.57
436.34	2583.95
436.53	2780.56
436.72	2759.49
436.90	2829.71
437.09	2808.64
437.28	2626.08
437.46	2750.13
437.65	2759.49
437.84	2773.53
438.02	2822.69
438.21	2766.51
438.40	2799.28
438.58	2860.13
438.77	2977.16
438.96	2937.37
439.14	2935.03
439.33	2944.39
439.52	3077.80
439.70	3063.76
439.89	3089.51
440.08	2958.44
440.26	2995.89
440.45	3040.36
440.63	3148.02
440.82	3192.49
441.01	3089.51
441.19	3105.89
441.38	2991.20
441.57	3208.87
441.75	3300.16
441.94	3389.10
442.12	3267.39
442.31	3279.09
442.50	3351.65
442.68	3220.58
442.87	3267.39
443.05	3332.92
443.24	3356.33
443.43	3431.23
443.61	3391.44
443.80	3288.45
443.98	3396.12
444.17	3304.84
444.35	3445.27
444.54	3454.63
444.73	3452.29
444.91	3417.18
445.10	3414.84
445.28	3517.83
445.47	3351.65
445.65	3522.51
445.84	3611.45
446.02	3510.80
446.21	3475.70
446.39	3522.51
446.58	3538.89
446.77	3471.01
446.95	3524.85
447.14	3356.33
447.32	3597.40
447.51	3564.64
447.69	3452.29
447.88	3569.32
448.06	3667.62
448.25	3454.63
448.43	3569.32
448.62	3669.96
448.80	3590.38
448.99	3742.52
449.17	3639.53
449.36	3616.13
449.54	3747.20
449.73	3637.19
449.91	3616.13
450.10	3674.64
450.28	3674.64
450.46	3789.33
450.65	3749.54
450.83	3875.93
451.02	3861.88
451.20	4011.68
451.39	3772.94
451.57	3845.50
451.76	3751.88
451.94	3854.86
452.13	3911.04
452.31	3999.98
452.49	3751.88
452.68	3871.25
452.86	3854.86
453.05	3824.44
453.23	3983.59
453.42	3847.84
453.60	3899.33
453.78	3894.65
453.97	3723.79
454.15	3770.60
454.34	3997.64
454.52	4161.47
454.70	3932.10
454.89	4098.28
455.07	3873.59
455.26	3988.27
455.44	4009.34
455.62	4140.41
455.81	4032.74
455.99	4184.88
456.17	4109.98
456.36	4184.88
456.54	4037.42
456.73	4304.25
456.91	4299.56
457.09	4311.27
457.28	4493.83
457.46	4334.67
457.64	4430.63
457.83	4432.97
458.01	4322.97
458.19	4379.14
458.38	4381.48
458.56	4547.66
458.74	4374.46
458.93	4397.87
459.11	4454.04
459.29	4470.42
459.48	4622.56
459.66	4482.13
459.84	4533.62
460.03	4550.00
460.21	4435.32
460.39	4444.68
460.57	4575.75
460.76	4552.34
460.94	4615.54
461.12	4613.20
461.31	4606.17
461.49	4575.75
461.67	4594.47
461.85	4645.96
462.04	4798.10
462.22	5137.48
462.40	4884.70
462.59	4699.80
462.77	4615.54
462.95	4772.35
463.13	4823.84
463.32	4814.48
463.50	4814.48
463.68	4910.44
463.86	4905.76
464.05	4887.04
464.23	4751.29
464.41	4882.36
464.59	4753.63
464.78	4964.28
464.96	4971.30
465.14	4912.78
465.32	5015.77
465.50	5163.22
465.69	5181.95
465.87	5022.79
466.05	5008.75
466.23	5011.09
466.41	5004.07
466.60	5200.67
466.78	5050.88
466.96	5193.65
467.14	5252.16
467.32	5151.52
467.51	5221.74
467.69	4922.15
467.87	5107.05
468.05	5266.21
468.23	5163.22
468.41	5186.63
468.60	5263.86
468.78	5153.86
468.96	5214.71
469.14	5406.64
469.32	5366.85
469.50	5221.74
469.69	5401.96
469.87	5355.15
470.05	5423.02
470.23	5516.64
470.41	5408.98
470.59	5465.15
470.77	5568.13
470.95	5575.16
471.14	5465.15
471.32	5331.74
471.50	5540.05
471.68	5692.18
471.86	5696.86
472.04	5692.18
472.22	5905.17
472.40	5675.80
472.58	5638.35
472.77	5682.82
472.95	5722.61
473.13	5933.26
473.31	6010.50
473.49	5818.57
473.67	5809.21
473.85	5998.79
474.03	6057.31
474.21	6010.50
474.39	5994.11
474.57	6181.35
474.75	6242.21
474.93	6197.74
475.12	6277.32
475.30	6373.28
475.48	6193.06
475.66	6403.71
475.84	6328.81
476.02	6492.65
476.20	6363.92
476.38	6572.22
476.56	6719.68
476.74	6523.07
476.92	6581.59
477.10	6607.33
477.28	6731.38
477.46	6656.48
477.64	6670.53
477.82	7005.22
478.00	7040.33
478.18	6913.94
478.36	6986.50
478.54	7206.51
478.72	7152.68
478.90	7112.89
479.08	7332.90
479.26	7297.79
479.44	7286.09
479.62	7456.95
479.80	7424.18
479.98	7545.89
480.16	7588.02
480.34	7588.02
480.52	7698.02
480.70	7611.42
480.88	7683.98
481.06	7742.49
481.24	7857.18
481.41	7735.47
481.59	7875.90
481.77	8084.21
481.95	8187.19
482.13	8215.28
482.31	8194.22
482.49	8351.03
482.67	8416.57
482.85	8472.74
483.03	8631.90
483.21	8573.38
483.39	8657.64
483.57	8631.90
483.74	8723.18
483.92	8650.62
484.10	8613.17
484.28	8985.32
484.46	9167.88
484.64	9254.48
484.82	9095.32
485.00	9123.41
485.18	9397.25
485.35	9383.21
485.53	9364.48
485.71	9385.55
485.89	9774.08
486.07	9598.54
486.25	9509.60
486.43	9713.22
486.61	9717.90
486.78	10031.54
486.96	10115.80
487.14	10277.29
487.32	10188.35
487.50	10045.58
487.68	10202.40
487.85	10504.32
488.03	10745.40
488.21	10583.90
488.39	10537.09
488.57	10888.17
488.75	10661.14
488.92	11075.42
489.10	10960.73
489.28	10981.79
489.46	10958.39
489.64	10956.05
489.81	11122.23
489.99	11332.87
490.17	11349.26
490.35	11393.73
490.53	11580.97
490.70	11988.22
490.88	11721.40
491.06	11623.10
491.24	11836.09
491.41	12114.61
491.59	12114.61
491.77	11791.62
491.95	12264.41
492.13	12105.25
492.30	12346.33
492.48	12367.39
492.66	12437.61
492.84	12498.46
493.01	12439.95
493.19	12545.27
493.37	12744.22
493.54	13102.32
493.72	13107.00
493.90	12924.44
494.08	13275.52
494.25	13097.64
494.43	13224.03
494.61	13291.90
494.79	13249.77
494.96	13451.06
495.14	13593.83
495.32	13549.36
495.49	13603.19
495.67	13631.28
495.85	13914.48
496.02	14153.22
496.20	14178.97
496.38	14071.30
496.55	13996.40
496.73	14356.85
496.91	14389.61
497.09	14513.66
497.26	14237.48
497.44	14335.78
497.62	14303.01
497.79	14459.83
497.97	14551.11
498.14	14850.70
498.32	14941.98
498.50	14899.85
498.67	15080.07
498.85	15201.78
499.03	15136.24
499.20	14965.39
499.38	15152.63
499.56	15360.94
499.73	15253.27
499.91	15452.22
500.08	15580.95
500.26	15220.50
500.44	15824.36
500.61	15740.10
500.79	15716.70
500.97	15882.88
501.14	16191.83
501.32	15978.84
501.49	16023.31
501.67	15892.24
501.84	15953.09
502.02	16023.31
502.20	15967.13
502.37	16191.83
502.55	16306.51
502.72	16348.64
502.90	16355.66
503.07	16243.32
503.25	16613.12
503.43	16666.95
503.60	16566.31
503.78	16388.43
503.95	16648.23
504.13	16559.29
504.30	16908.03
504.48	16514.82
504.65	16877.60
504.83	16840.15
505.01	17282.52
505.18	17167.83
505.36	17394.86
505.53	17462.74
505.71	17149.11
505.88	17057.82
506.06	17146.76
506.23	17291.88
506.41	17570.40
506.58	17767.01
506.76	17453.37
506.93	17647.64
507.11	17481.46
507.28	17738.92
507.46	17371.46
507.63	17886.37
507.81	18178.94
507.98	17757.64
508.16	17764.67
508.33	18050.21
508.50	18176.60
508.68	18270.22
508.85	18668.11
509.03	18115.75
509.20	17994.04
509.38	18537.04
509.55	18750.03
509.73	18298.31
509.90	18422.36
510.08	18546.40
510.25	18745.35
510.42	18581.51
510.60	18738.33
510.77	18897.49
510.95	18841.31
511.12	18867.06
511.30	18958.34
511.47	18778.12
511.64	19178.35
511.82	19346.87
511.99	19082.39
512.17	19143.24
512.34	19330.48
512.51	19300.06
512.69	19199.41
512.86	19293.04
513.04	19550.49
513.21	19803.27
513.38	19714.33
513.56	19297.72
513.73	19700.29
513.90	20063.07
514.08	19559.86
514.25	19812.63
514.43	19875.83
514.60	19946.05
514.77	20037.33
514.95	20044.35
515.12	20116.90
515.29	20093.50
515.47	20163.72
515.64	20049.03
515.81	20360.32
515.99	20556.93
516.16	20540.54
516.33	20484.37
516.51	20372.02
516.68	20163.72
516.85	20269.04
517.03	20732.47
517.20	20688.00
517.37	20704.38
517.54	20622.46
517.72	20931.41
517.89	20683.31
518.06	20547.56
518.24	20905.66
518.41	20430.54
518.58	20765.23
518.75	20936.09
518.93	21003.97
519.10	21041.42
519.27	21167.80
519.45	21078.86
519.62	21364.41
519.79	21301.22
519.96	21479.10
520.14	21727.19
520.31	21542.29
520.48	21799.75
520.65	21661.66
520.83	21963.59
521.00	21605.49
521.17	21575.06
521.34	21310.58
521.52	21710.81
521.69	21902.73
521.86	21893.37
522.03	22029.12
522.20	22061.89
522.38	22059.55
522.55	22167.21
522.72	21699.11
522.89	21874.65
523.07	22705.54
523.24	22249.13
523.41	22258.49
523.58	22363.82
523.75	22405.95
523.92	22085.30
524.10	22356.80
524.27	22412.97
524.44	22656.39
524.61	22714.90
524.78	22782.77
524.96	22422.33
525.13	22665.75
525.30	22513.61
525.47	23030.87
525.64	22923.21
525.81	22808.52
525.98	22979.38
526.16	23047.26
526.33	22717.24
526.50	22944.27
526.67	22836.61
526.84	22817.88
527.01	22773.41
527.18	23122.15
527.36	23290.67
527.53	23278.97
527.70	23213.43
527.87	23297.69
528.04	23084.70
528.21	23475.57
528.38	23475.57
528.55	23501.32
528.72	23440.47
528.89	23559.83
529.07	23585.58
529.24	23461.53
529.41	23646.43
529.58	23653.45
529.75	23805.59
529.92	23562.17
530.09	24009.22
530.26	23915.59
530.43	24233.91
530.60	24020.92
530.77	23812.61
530.94	23777.50
531.11	24133.26
531.28	24034.96
531.46	23847.72
531.63	24133.26
531.80	23889.85
531.97	24407.11
532.14	24657.54
532.31	24299.44
532.48	24350.93
532.65	24362.64
532.82	24400.08
532.99	24592.01
533.16	24528.81
533.33	24797.98
533.50	24240.93
533.67	24692.65
533.84	24606.05
534.01	24264.33
534.18	24521.79
534.35	24706.70
534.52	24444.56
534.69	24931.39
534.86	24889.26
535.03	24739.46
535.20	24807.34
535.37	24685.63
535.54	24826.06
535.71	24725.42
535.88	25046.07
536.05	24884.58
536.22	25153.74
536.38	25067.14
536.55	24947.77
536.72	25392.47
536.89	24694.99
537.06	25186.50
537.23	25369.07
537.40	25397.15
537.57	25125.65
537.74	25102.25
537.91	25259.06
538.08	25401.83
538.25	25205.23
538.42	25537.59
538.59	25572.69
538.75	25305.87
538.92	25331.62
539.09	25762.28
539.26	25593.76
539.43	25565.67
539.60	25425.24
539.77	25654.61
539.94	25493.12
540.11	25497.80
540.28	25628.87
540.44	25521.20
540.61	25626.53
540.78	25823.13
540.95	25586.74
541.12	25972.92
541.29	26120.38
541.46	25944.84
541.62	25865.26
541.79	25951.86
541.96	25869.94
542.13	25947.18
542.30	25839.51
542.47	26677.43
542.63	26183.57
542.80	26452.73
542.97	26426.99
543.14	26501.89
543.31	26637.64
543.48	26600.19
543.64	26443.37
543.81	26569.76
543.98	26642.32
544.15	26682.11
544.32	26881.05
544.48	26906.80
544.65	26834.24
544.82	26586.15
544.99	26504.23
545.16	26714.87
545.32	26607.21
545.49	27037.87
545.66	27098.72
545.83	26902.12
546.00	27229.79
546.16	26764.03
546.33	26867.01
546.50	26560.40
546.67	26958.29
546.83	26888.07
547.00	27197.02
547.17	26810.84
547.34	26658.70
547.50	27246.18
547.67	27419.38
547.84	27424.06
548.00	26913.82
548.17	27604.28
548.34	27108.08
548.51	27552.79
548.67	27421.72
548.84	27374.91
549.01	27379.59
549.18	27627.68
549.34	27126.81
549.51	27344.48
549.68	27393.63
549.84	27660.45
550.01	27538.74
550.18	27274.26
550.34	27814.93
550.51	27686.20
550.68	27639.39
550.84	27571.51
551.01	27702.58
551.18	27924.93
551.34	27498.95
551.51	27587.89
551.68	27908.55
551.84	27908.55
552.01	27934.29
552.18	28095.79
552.34	28002.17
552.51	28018.55
552.68	27981.10
552.84	28044.30
553.01	28025.57
553.18	27534.06
553.34	28161.33
553.51	28102.81
553.67	28353.25
553.84	28379.00
554.01	28390.70
554.17	27784.50
554.34	28027.92
554.51	28247.93
554.67	28339.21
554.84	28128.56
555.00	28137.92
555.17	28254.95
555.33	28460.91
555.50	28142.60
555.67	28266.65
555.83	28044.30
556.00	28119.20
556.16	28650.50
556.33	28360.27
556.50	28617.73
556.66	28957.11
556.83	28634.11
556.99	28755.82
557.16	28393.04
557.32	28617.73
557.49	28683.27
557.65	28758.16
557.82	28503.04
557.98	28467.94
558.15	28573.26
558.32	29163.08
558.48	28575.60
558.65	28952.43
558.81	29298.83
558.98	28463.25
559.14	28814.34
559.31	28945.41
559.47	28652.84
559.64	29226.27
559.80	29020.30
559.97	28943.06
560.13	28987.53
560.30	28828.38
560.46	28980.51
560.63	29076.48
560.79	28662.20
560.96	29322.23
561.12	28833.06
561.29	29200.52
561.45	29434.58
561.61	29142.01
561.78	29277.76
561.94	29205.20
562.11	28945.41
562.27	29263.72
562.44	29188.82
562.60	28957.11
562.77	29263.72
562.93	29179.46
563.10	29228.61
563.26	29455.64
563.42	29366.70
563.59	29476.71
563.75	29179.46
563.92	29511.81
564.08	29118.60
564.24	29036.69
564.41	28893.91
564.57	29102.22
564.74	29149.03
564.90	29563.31
565.07	29326.91
565.23	29256.70
565.39	29345.64
565.56	29525.86
565.72	29387.77
565.88	29493.09
566.05	29497.77
566.21	29624.16
566.38	29596.07
566.54	29572.67
566.70	29888.64
566.87	29724.80
567.03	29399.47
567.19	29797.36
567.36	29549.26
567.52	29640.54
567.68	29539.90
567.85	29542.24
568.01	29415.85
568.17	29429.90
568.34	29830.13
568.50	29717.78
568.66	29687.36
568.83	29937.79
568.99	29116.26
569.15	29624.16
569.32	29528.20
569.48	29525.86
569.64	30094.61
569.81	29736.51
569.97	29734.17
570.13	29907.37
570.30	29525.86
570.46	29560.97
570.62	29785.66
570.78	29776.30
570.95	29900.34
571.11	29357.34
571.27	29624.16
571.43	29748.21
571.60	29717.78
571.76	29642.88
571.92	29832.47
572.09	30043.12
572.25	29682.67
572.41	29656.93
572.57	29689.70
572.74	30052.48
572.90	29731.83
573.06	29486.07
573.22	29593.73
573.38	29965.88
573.55	29937.79
573.71	30015.03
573.87	29830.13
574.03	29687.36
574.20	30092.27
574.36	29905.02
574.52	29502.45
574.68	29839.49
574.84	29696.72
575.01	29788.00
575.17	29926.09
575.33	29710.76
575.49	29916.73
575.65	30452.71
575.82	30038.44
575.98	30003.33
576.14	29813.74
576.30	29825.45
576.46	30000.99
576.62	29879.28
576.79	30122.69
576.95	30012.69
577.11	30003.33
577.27	30127.38
577.43	30206.95
577.59	29879.28
577.75	29909.71
577.92	29830.13
578.08	29832.47
578.24	29818.42
578.40	29886.30
578.56	30057.16
578.72	29914.39
578.88	30150.78
579.04	30110.99
579.21	30110.99
579.37	30160.14
579.53	29993.97
579.69	30022.05
579.85	29907.37
580.01	30094.61
580.17	29762.25
580.33	29813.74
580.49	30000.99
580.65	30405.90
580.82	30316.96
580.98	30082.91
581.14	29748.21
581.30	30361.43
581.46	29991.62
581.62	30073.54
581.78	29624.16
581.94	30267.81
582.10	30120.35
582.26	30424.62
582.42	30115.67
582.58	30548.67
582.74	30312.28
582.90	30157.80
583.06	30263.13
583.22	29902.68
583.38	30087.59
583.54	29926.09
583.70	30073.54
583.86	30469.09
584.02	29795.02
584.18	30672.72
584.34	30412.92
584.50	30307.60
584.66	29811.40
584.82	30122.69
584.98	30464.41
585.14	30008.01
585.30	30125.04
585.46	30281.85
585.62	29872.26
585.78	30328.66
585.94	29998.65
586.10	29923.75
586.26	30499.52
586.42	30188.23
586.58	30047.80
586.74	30075.88
586.90	30361.43
587.06	30075.88
587.22	29839.49
587.38	30134.40
587.54	30169.51
587.70	30441.01
587.86	30401.22
588.02	30663.36
588.18	30462.07
588.34	30455.05
588.49	30616.55
588.65	30134.40
588.81	30174.19
588.97	30000.99
589.13	30742.94
589.29	30108.65
589.45	30433.99
589.61	30396.54
589.77	30527.61
589.93	30693.79
590.08	30679.74
590.24	31072.95
590.40	30981.67
590.56	30546.33
590.72	30438.67
590.88	30485.48
591.04	30281.85
591.20	30845.92
591.35	30581.44
591.51	31044.87
591.67	30721.87
591.83	30464.41
591.99	30934.86
