SpectraSuite Data File
++++++++++++++++++++++++++++++++++++
Date: Fri Oct 18 13:58:30 GMT-05:00 2013
User: bianchi
Dark Spectrum Present: No
Reference Spectrum Present: No
Number of Sampled Component Spectra: 1
Spectrometers: USB2+H05261
Integration Time (usec): 50000 (USB2+H05261)
Spectra Averaged: 1 (USB2+H05261)
Boxcar Smoothing: 0 (USB2+H05261)
Correct for Electrical Dark: No (USB2+H05261)
Strobe/Lamp Enabled: No (USB2+H05261)
Correct for Detector Non-linearity: No (USB2+H05261)
Correct for Stray Light: No (USB2+H05261)
Number of Pixels in Processed Spectrum: 2048
>>>>>Begin Processed Spectral Data<<<<<
365.73	4.68
365.92	4.68
366.12	4.68
366.32	0.00
366.52	0.00
366.72	0.00
366.91	0.00
367.11	0.00
367.31	0.00
367.51	0.00
367.70	0.00
367.90	0.00
368.10	0.00
368.30	0.00
368.49	0.00
368.69	0.00
368.89	0.00
369.09	0.00
369.28	0.00
369.48	0.00
369.68	0.00
369.87	0.00
370.07	0.00
370.27	0.00
370.47	0.00
370.66	30.43
370.86	91.28
371.06	117.03
371.25	220.01
371.45	147.45
371.65	159.16
371.84	93.62
372.04	98.30
372.24	154.48
372.44	140.43
372.63	124.05
372.83	173.20
373.03	180.22
373.22	201.29
373.42	238.73
373.62	236.39
373.81	255.12
374.01	208.31
374.21	264.48
374.40	212.99
374.60	234.05
374.79	210.65
374.99	273.84
375.19	280.86
375.38	159.16
375.58	283.20
375.78	252.78
375.97	198.95
376.17	266.82
376.37	236.39
376.56	264.48
376.76	210.65
376.95	243.42
377.15	245.76
377.35	334.70
377.54	238.73
377.74	222.35
377.93	313.63
378.13	273.84
378.33	243.42
378.52	259.80
378.72	283.20
378.91	266.82
379.11	231.71
379.31	297.25
379.50	208.31
379.70	294.91
379.89	294.91
380.09	351.08
380.28	229.37
380.48	325.33
380.68	250.44
380.87	255.12
381.07	353.42
381.26	283.20
381.46	245.76
381.65	358.10
381.85	245.76
382.04	339.38
382.24	285.55
382.43	257.46
382.63	269.16
382.83	318.31
383.02	306.61
383.22	360.44
383.41	313.63
383.61	365.12
383.80	381.51
384.00	304.27
384.19	402.57
384.39	388.53
384.58	358.10
384.78	388.53
384.97	372.15
385.17	402.57
385.36	360.44
385.56	416.62
385.75	390.87
385.95	367.46
386.14	369.80
386.34	402.57
386.53	339.38
386.72	409.59
386.92	393.21
387.11	440.02
387.31	400.23
387.50	379.17
387.70	409.59
387.89	348.74
388.09	430.66
388.28	304.27
388.48	479.81
388.67	440.02
388.86	486.83
389.06	493.85
389.25	400.23
389.45	484.49
389.64	425.98
389.84	435.34
390.03	458.74
390.22	472.79
390.42	477.47
390.61	493.85
390.81	491.51
391.00	456.40
391.19	496.19
391.39	472.79
391.58	414.27
391.78	468.11
391.97	421.30
392.16	390.87
392.36	524.28
392.55	512.58
392.75	449.38
392.94	503.22
393.13	533.64
393.33	421.30
393.52	526.62
393.71	589.82
393.91	578.11
394.10	543.00
394.29	554.71
394.49	550.03
394.68	608.54
394.88	615.56
395.07	634.29
395.26	624.92
395.46	589.82
395.65	662.37
395.84	599.18
396.04	622.58
396.23	557.05
396.42	631.94
396.62	533.64
396.81	634.29
397.00	622.58
397.19	702.16
397.39	650.67
397.58	608.54
397.77	554.71
397.97	660.03
398.16	720.88
398.35	589.82
398.55	690.46
398.74	709.18
398.93	753.65
399.12	683.44
399.32	603.86
399.51	690.46
399.70	711.52
399.90	802.80
400.09	753.65
400.28	758.33
400.47	748.97
400.67	732.59
400.86	697.48
401.05	748.97
401.24	716.20
401.44	755.99
401.63	814.51
401.82	795.78
402.01	837.91
402.21	727.91
402.40	791.10
402.59	779.40
402.78	702.16
402.97	758.33
403.17	866.00
403.36	842.59
403.55	898.77
403.74	826.21
403.93	882.38
404.13	912.81
404.32	732.59
404.51	873.02
404.70	933.87
404.89	915.15
405.09	849.61
405.28	828.55
405.47	891.74
405.66	957.28
405.85	983.02
406.05	926.85
406.24	891.74
406.43	964.30
406.62	966.64
406.81	1060.26
407.00	994.73
407.20	957.28
407.39	866.00
407.58	992.39
407.77	992.39
407.96	1039.20
408.15	1095.37
408.34	1034.52
408.54	1118.78
408.73	1111.75
408.92	1039.20
409.11	1090.69
409.30	1076.65
409.49	1118.78
409.68	1020.47
409.87	1081.33
410.07	1100.05
410.26	1139.84
410.45	1041.54
410.64	1071.97
410.83	1224.10
411.02	1238.14
411.21	1221.76
411.40	1142.18
411.59	1249.85
411.78	1210.06
411.98	1228.78
412.17	1266.23
412.36	1282.61
412.55	1322.40
412.74	1266.23
412.93	1336.45
413.12	1385.60
413.31	1392.62
413.50	1322.40
413.69	1373.89
413.88	1341.13
414.07	1488.58
414.26	1474.54
414.45	1427.73
414.64	1348.15
414.83	1474.54
415.02	1380.92
415.22	1458.15
415.41	1563.48
415.60	1495.60
415.79	1591.56
415.98	1472.20
416.17	1537.73
416.36	1446.45
416.55	1584.54
416.74	1519.01
416.93	1483.90
417.12	1710.93
417.31	1664.12
417.50	1675.82
417.69	1774.13
417.88	1722.63
418.07	1699.23
418.26	1671.14
418.45	1699.23
418.64	1710.93
418.83	1790.51
419.02	1708.59
419.21	1806.89
419.39	1739.02
419.58	1638.38
419.77	1741.36
419.96	1842.00
420.15	1846.68
420.34	1739.02
420.53	1867.75
420.72	1820.94
420.91	1919.24
421.10	1907.54
421.29	1923.92
421.48	1834.98
421.67	1966.05
421.86	1877.11
422.05	1963.71
422.24	1949.67
422.43	1872.43
422.61	1935.62
422.80	1900.52
422.99	1937.96
423.18	1959.03
423.37	2108.82
423.56	1959.03
423.75	1996.48
423.94	1849.02
424.13	1888.81
424.32	1940.30
424.50	1959.03
424.69	2005.84
424.88	2031.58
425.07	1968.39
425.26	1970.73
425.45	1919.24
425.64	2019.88
425.83	1961.37
426.01	2047.97
426.20	2033.93
426.39	2008.18
426.58	1968.39
426.77	1937.96
426.96	2122.87
427.15	2050.31
427.33	2069.03
427.52	2043.29
427.71	2036.27
427.90	2050.31
428.09	2066.69
428.28	2113.50
428.46	2211.81
428.65	2146.27
428.84	2230.53
429.03	2143.93
429.22	2099.46
429.40	2195.42
429.59	2216.49
429.78	2150.95
429.97	2148.61
430.16	2085.42
430.34	2193.08
430.53	2275.00
430.72	2272.66
430.91	2246.91
431.10	2153.29
431.28	2321.81
431.47	2349.90
431.66	2345.22
431.85	2256.28
432.03	2387.35
432.22	2478.63
432.41	2228.19
432.60	2452.88
432.79	2408.41
432.97	2338.20
433.16	2443.52
433.35	2511.39
433.54	2377.98
433.72	2370.96
433.91	2375.64
434.10	2483.31
434.28	2399.05
434.47	2429.48
434.66	2527.78
434.85	2420.11
435.03	2614.38
435.22	2668.21
435.41	2612.04
435.59	2462.24
435.78	2534.80
435.97	2438.84
436.16	2534.80
436.34	2576.93
436.53	2492.67
436.72	2682.25
436.90	2569.91
437.09	2736.09
437.28	2626.08
437.46	2637.78
437.65	2710.34
437.84	2867.16
438.02	2658.85
438.21	2719.70
438.40	2778.22
438.58	2799.28
438.77	2775.88
438.96	2848.43
439.14	2808.64
439.33	2801.62
439.52	2860.13
439.70	2864.82
439.89	2979.50
440.08	2949.08
440.26	2937.37
440.45	2942.05
440.63	2956.10
440.82	3061.42
441.01	3009.93
441.19	3002.91
441.38	3115.25
441.57	3178.45
441.75	3211.22
441.94	2981.84
442.12	3143.34
442.31	3232.28
442.50	3260.37
442.68	3124.62
442.87	3229.94
443.05	3269.73
443.24	3262.71
443.43	3279.09
443.61	3335.26
443.80	3349.31
443.98	3260.37
444.17	3178.45
444.35	3286.11
444.54	3358.67
444.73	3454.63
444.91	3452.29
445.10	3330.58
445.28	3356.33
445.47	3222.92
445.65	3279.09
445.84	3332.92
446.02	3463.99
446.21	3459.31
446.39	3328.24
446.58	3424.20
446.77	3407.82
446.95	3323.56
447.14	3384.41
447.32	3513.14
447.51	3391.44
447.69	3400.80
447.88	3524.85
448.06	3377.39
448.25	3361.01
448.43	3485.06
448.62	3389.10
448.80	3435.91
448.99	3566.98
449.17	3471.01
449.36	3473.36
449.54	3442.93
449.73	3564.64
449.91	3590.38
450.10	3627.83
450.28	3611.45
450.46	3648.90
450.65	3651.24
450.83	3674.64
451.02	3712.09
451.20	3719.11
451.39	3672.30
451.57	3688.68
451.76	3691.02
451.94	3744.86
452.13	3707.41
452.31	3681.66
452.49	3634.85
452.68	3716.77
452.86	3782.31
453.05	3927.42
453.23	3873.59
453.42	3772.94
453.60	3772.94
453.78	3824.44
453.97	3817.41
454.15	3936.78
454.34	3892.31
454.52	3798.69
454.70	3904.01
454.89	3768.26
455.07	3946.14
455.26	3866.56
455.44	4028.06
455.62	4084.23
455.81	3969.55
455.99	4109.98
456.17	3957.85
456.36	3915.72
456.54	3983.59
456.73	4086.58
456.91	4280.84
457.09	4194.24
457.28	4241.05
457.46	4044.45
457.64	4294.88
457.83	4257.43
458.01	4177.86
458.19	4278.50
458.38	4243.39
458.56	4390.84
458.74	4168.49
458.93	4325.31
459.11	4238.71
459.29	4222.33
459.48	4365.10
459.66	4273.82
459.84	4454.04
460.03	4521.92
460.21	4379.14
460.39	4578.09
460.57	4360.42
460.76	4617.88
460.94	4566.39
461.12	4479.79
461.31	4472.76
461.49	4517.23
461.67	4365.10
461.85	4437.66
462.04	4535.96
462.22	4575.75
462.40	4601.49
462.59	4692.77
462.77	4695.11
462.95	4753.63
463.13	4622.56
463.32	4580.43
463.50	4585.11
463.68	4793.42
463.86	4772.35
464.05	4816.82
464.23	4706.82
464.41	4880.02
464.59	4781.71
464.78	4870.65
464.96	4788.74
465.14	4662.35
465.32	4880.02
465.50	4762.99
465.69	4854.27
465.87	4856.61
466.05	4856.61
466.23	4903.42
466.41	4842.57
466.60	5062.58
466.78	4889.38
466.96	4961.94
467.14	4854.27
467.32	4833.21
467.51	4929.17
467.69	4779.37
467.87	5046.20
468.05	4943.21
468.23	4870.65
468.41	5041.51
468.60	4978.32
468.78	5076.62
468.96	5102.37
469.14	5203.01
469.32	5114.07
469.50	4875.34
469.69	5130.45
469.87	5212.37
470.05	5266.21
470.23	5177.26
470.41	5313.02
470.59	5408.98
470.77	5142.16
470.95	5317.70
471.14	5394.93
471.32	5259.18
471.50	5575.16
471.68	5474.51
471.86	5542.39
472.04	5523.66
472.22	5526.00
472.40	5575.16
472.58	5738.99
472.77	5575.16
472.95	5736.65
473.13	5837.30
473.31	5734.31
473.49	5666.44
473.67	5467.49
473.85	5710.91
474.03	6043.26
474.21	5961.34
474.39	5797.51
474.57	5865.38
474.75	6150.93
474.93	6120.50
475.12	6040.92
475.30	6071.35
475.48	5935.60
475.66	6080.71
475.84	6125.18
476.02	6108.80
476.20	6239.87
476.38	6251.57
476.56	6396.68
476.74	6429.45
476.92	6476.26
477.10	6342.85
477.28	6445.84
477.46	6373.28
477.64	6553.50
477.82	6787.55
478.00	6970.12
478.18	6686.91
478.36	6712.66
478.54	7082.46
478.72	6984.16
478.90	6853.09
479.08	6995.86
479.26	6998.20
479.44	7063.74
479.62	7042.67
479.80	7234.60
479.98	7262.68
480.16	7307.15
480.34	7393.75
480.52	7452.27
480.70	7541.21
480.88	7293.11
481.06	7487.37
481.24	7433.54
481.41	7494.40
481.59	7751.85
481.77	7782.28
481.95	7669.94
482.13	7698.02
482.31	7733.13
482.49	7967.18
482.67	7922.71
482.85	8116.98
483.03	8339.33
483.21	8369.76
483.39	8243.37
483.57	8154.43
483.74	8519.55
483.92	8351.03
484.10	8547.64
484.28	8681.05
484.46	8720.84
484.64	9022.77
484.82	8762.97
485.00	8842.54
485.18	8992.34
485.35	9090.64
485.53	9202.99
485.71	9130.43
485.89	9497.89
486.07	9413.63
486.25	9242.78
486.43	9397.25
486.61	9551.73
486.78	9521.30
486.96	9633.64
487.14	9657.05
487.32	9495.55
487.50	9720.24
487.68	10108.77
487.85	10157.92
488.03	10225.80
488.21	10289.00
488.39	10272.61
488.57	10389.64
488.75	10363.89
488.92	10506.66
489.10	10801.57
489.28	10855.40
489.46	10956.05
489.64	10729.02
489.81	10892.85
489.99	11126.91
490.17	11066.05
490.35	10951.37
490.53	11314.15
490.70	11164.36
490.88	11346.92
491.06	11246.27
491.24	11293.08
491.41	11302.45
491.59	11702.68
491.77	11651.19
491.95	11726.08
492.13	11859.49
492.30	12006.95
492.48	11744.81
492.66	12049.08
492.84	12020.99
493.01	12224.62
493.19	12173.13
493.37	12425.90
493.54	12496.12
493.72	12491.44
493.90	12397.82
494.08	12409.52
494.25	12725.49
494.43	12875.29
494.61	13018.06
494.79	13053.17
494.96	12980.61
495.14	13114.02
495.32	13039.12
495.49	13226.37
495.67	13287.22
495.85	13453.40
496.02	13659.37
496.20	13596.17
496.38	13568.09
496.55	13469.78
496.73	13902.78
496.91	13696.82
497.09	13893.42
497.26	13757.67
497.44	13930.87
497.62	14146.20
497.79	14422.38
497.97	14272.59
498.14	14576.86
498.32	14413.02
498.50	14347.48
498.67	14724.31
498.85	14422.38
499.03	14581.54
499.20	14661.12
499.38	14719.63
499.56	14560.47
499.73	14932.62
499.91	14834.32
500.08	14963.04
500.26	14644.73
500.44	15117.52
500.61	15349.23
500.79	15136.24
500.97	15161.99
501.14	15344.55
501.32	15456.90
501.49	15279.02
501.67	15169.01
501.84	15307.10
502.02	15489.67
502.20	15468.60
502.37	15716.70
502.55	15620.74
502.72	15630.10
502.90	15882.88
503.07	15697.97
503.25	15796.28
503.43	15913.30
503.60	15880.53
503.78	16147.36
503.95	16095.86
504.13	16283.11
504.30	16306.51
504.48	16329.92
504.65	16484.39
504.83	16650.57
505.01	16535.88
505.18	16442.26
505.36	16755.90
505.53	16346.30
505.71	16678.66
505.88	16737.17
506.06	16786.32
506.23	16982.93
506.41	16966.54
506.58	17022.72
506.76	17043.78
506.93	17053.14
507.11	16851.86
507.28	16987.61
507.46	17247.41
507.63	17334.01
507.81	17397.20
507.98	17076.55
508.16	17050.80
508.33	17200.60
508.50	17362.09
508.68	17598.49
508.85	17493.16
509.03	17678.07
509.20	17874.67
509.38	17745.94
509.55	17965.95
509.73	18059.57
509.90	18066.60
510.08	17972.97
510.25	18045.53
510.42	18059.57
510.60	18359.16
510.77	18228.09
510.95	18354.48
511.12	18026.81
511.30	18066.60
511.47	18249.16
511.64	18331.08
511.82	18665.77
511.99	18628.32
512.17	18518.32
512.34	18696.20
512.51	18595.56
512.69	18597.90
512.86	18841.31
513.04	18679.82
513.21	19183.03
513.38	18775.78
513.56	19014.51
513.73	18806.20
513.90	19051.96
514.08	18977.06
514.25	18946.64
514.43	19073.03
514.60	19314.10
514.77	19297.72
514.95	19290.70
515.12	19119.84
515.29	19428.79
515.47	19606.67
515.64	19484.96
515.81	19578.58
515.99	19735.40
516.16	19667.52
516.33	19644.12
516.51	19627.73
516.68	19871.15
516.85	19494.32
517.03	19903.92
517.20	19932.00
517.37	20315.85
517.54	19770.51
517.72	20217.55
517.89	20112.22
518.06	20226.91
518.24	20240.95
518.41	20070.09
518.58	20545.22
518.75	20528.84
518.93	20299.47
519.10	20339.26
519.27	20559.27
519.45	20257.34
519.62	20697.36
519.79	20332.23
519.96	20535.86
520.14	20631.82
520.31	20826.09
520.48	20931.41
520.65	20559.27
520.83	20865.88
521.00	20924.39
521.17	20856.51
521.34	20978.22
521.52	20905.66
521.69	20823.75
521.86	20926.73
522.03	21174.83
522.20	21097.59
522.38	21319.94
522.55	21359.73
522.72	21163.12
522.89	21238.02
523.07	21895.71
523.24	21572.72
523.41	21584.42
523.58	21345.69
523.75	21408.88
523.92	21483.78
524.10	21259.09
524.27	21584.42
524.44	21820.81
524.61	21860.60
524.78	21738.90
524.96	21734.21
525.13	21809.11
525.30	21888.69
525.47	21825.50
525.64	21881.67
525.81	22153.17
525.98	22602.55
526.16	22438.72
526.33	22171.89
526.50	22581.49
526.67	21984.65
526.84	22071.25
527.01	22031.46
527.18	22001.04
527.36	22508.93
527.53	22684.47
527.70	22782.77
527.87	22490.21
528.04	22581.49
528.21	22871.72
528.38	22548.72
528.55	22607.23
528.72	22792.14
528.89	22918.53
529.07	22696.17
529.24	22647.02
529.41	22974.70
529.58	22452.76
529.75	22539.36
529.92	22916.19
530.09	22960.66
530.26	23194.71
530.43	22904.48
530.60	23084.70
530.77	22731.28
530.94	23440.47
531.11	22974.70
531.28	23131.51
531.46	23234.50
531.63	22984.06
531.80	23314.08
531.97	23618.35
532.14	23222.80
532.31	23524.72
532.48	23690.90
532.65	23449.83
532.82	23501.32
532.99	23473.23
533.16	23370.25
533.33	23688.56
533.50	23833.68
533.67	23866.44
533.84	23674.52
534.01	23931.98
534.18	23316.42
534.35	23934.32
534.52	24002.19
534.69	24056.03
534.86	24149.65
535.03	23594.94
535.20	24105.18
535.37	23967.09
535.54	24252.63
535.71	23733.03
535.88	24224.54
536.05	23728.35
536.22	24395.40
536.38	24510.09
536.55	24458.60
536.72	24711.38
536.89	24233.91
537.06	24416.47
537.23	24404.77
537.40	24233.91
537.57	24486.68
537.74	24374.34
537.91	24549.88
538.08	24367.32
538.25	23992.83
538.42	24535.84
538.59	24570.94
538.75	24739.46
538.92	24755.85
539.09	24463.28
539.26	24608.39
539.43	24889.26
539.60	24582.65
539.77	25039.05
539.94	24830.74
540.11	24669.25
540.28	24732.44
540.44	24854.15
540.61	25006.28
540.78	25099.90
540.95	25113.95
541.12	24716.06
541.29	24996.92
541.46	25174.80
541.62	25013.31
541.79	25329.28
541.96	24737.12
542.13	24833.08
542.30	25184.16
542.47	25565.67
542.63	25343.32
542.80	25362.04
542.97	25666.31
543.14	25443.96
543.31	25287.15
543.48	25741.21
543.64	25759.94
543.81	25692.06
543.98	25474.39
544.15	25724.83
544.32	25825.47
544.48	25710.78
544.65	25631.21
544.82	25582.06
544.99	25685.04
545.16	25832.49
545.32	25968.24
545.49	26316.98
545.66	26185.91
545.83	26115.70
546.00	26157.83
546.16	26045.48
546.33	25895.69
546.50	25905.05
546.67	26148.46
546.83	25458.01
547.00	26082.93
547.17	26178.89
547.34	26312.30
547.50	26424.65
547.67	26476.14
547.84	26448.05
548.00	26281.88
548.17	26394.22
548.34	26136.76
548.51	26698.49
548.67	26562.74
548.84	26761.69
549.01	26389.54
549.18	26352.09
549.34	26485.50
549.51	26199.96
549.68	26728.92
549.84	26534.65
550.01	26686.79
550.18	26677.43
550.34	26796.79
550.51	26775.73
550.68	26920.84
550.84	26614.23
551.01	26857.65
551.18	26548.70
551.34	26600.19
551.51	26682.11
551.68	26918.50
551.84	26824.88
552.01	27150.21
552.18	27016.80
552.34	26815.52
552.51	27211.07
552.68	26855.31
552.84	26757.00
553.01	26789.77
553.18	26813.18
553.34	27077.66
553.51	27311.71
553.67	26731.26
553.84	27321.07
554.01	27229.79
554.17	27400.65
554.34	27417.04
554.51	27190.00
554.67	27082.34
554.84	27229.79
555.00	27159.58
555.17	26890.41
555.33	27264.90
555.50	27229.79
555.67	27087.02
555.83	27007.44
556.00	27316.39
556.16	27470.87
556.33	27075.32
556.50	27412.35
556.66	27393.63
556.83	27374.91
556.99	27807.90
557.16	27971.74
557.32	27634.71
557.49	27974.08
557.65	27634.71
557.82	27407.67
557.98	27810.25
558.15	27985.79
558.32	27786.84
558.48	27796.20
558.65	28072.39
558.81	28027.92
558.98	27744.71
559.14	27854.72
559.31	27723.65
559.47	27955.36
559.64	27983.44
559.80	27749.39
559.97	27824.29
560.13	28009.19
560.30	27714.28
560.46	27634.71
560.63	27953.02
560.79	27913.23
560.96	27953.02
561.12	27688.54
561.29	27564.49
561.45	27950.68
561.61	27887.48
561.78	27999.83
561.94	28198.77
562.11	27789.18
562.27	28194.09
562.44	28088.77
562.60	28048.98
562.77	27840.67
562.93	27847.69
563.10	28198.77
563.26	28109.83
563.42	28261.97
563.59	28250.27
563.75	28095.79
563.92	28144.94
564.08	27922.59
564.24	28507.72
564.41	28011.53
564.57	27976.42
564.74	28135.58
564.90	28158.99
565.07	28243.24
565.23	28435.17
565.39	28460.91
565.56	28552.20
565.72	28273.67
565.88	28126.22
566.05	28489.00
566.21	28025.57
566.38	28278.35
566.54	28477.30
566.70	28718.37
566.87	28573.26
567.03	28662.20
567.19	28414.10
567.36	28432.83
567.52	28575.60
567.68	28339.21
567.85	28566.24
568.01	28657.52
568.17	28158.99
568.34	28697.31
568.50	28514.75
568.66	28734.76
568.83	28563.90
568.99	28837.74
569.15	28231.54
569.32	28334.53
569.48	28163.67
569.64	28552.20
569.81	28622.41
569.97	29001.58
570.13	28992.22
570.30	28814.34
570.46	28723.05
570.62	28725.39
570.78	28507.72
570.95	28631.77
571.11	28835.40
571.27	28474.96
571.43	28599.01
571.60	28851.78
571.76	28435.17
571.92	28397.72
572.09	28790.93
572.25	28687.95
572.41	28917.32
572.57	28444.53
572.74	28699.65
572.90	28472.62
573.06	28772.21
573.22	28554.54
573.38	28624.75
573.55	28793.27
573.71	28826.04
573.87	28795.61
574.03	28790.93
574.20	29043.71
574.36	28559.22
574.52	28790.93
574.68	28617.73
574.84	28790.93
575.01	28713.69
575.17	28861.15
575.33	28858.81
575.49	28828.38
575.65	28966.47
575.82	28776.89
575.98	28903.28
576.14	28868.17
576.30	28568.58
576.46	28453.89
576.62	28804.97
576.79	29069.45
576.95	28823.70
577.11	29249.67
577.27	28966.47
577.43	28971.15
577.59	28828.38
577.75	28739.44
577.92	28734.76
578.08	28486.66
578.24	28814.34
578.40	28292.40
578.56	28561.56
578.72	29024.98
578.88	28849.44
579.04	28987.53
579.21	28673.90
579.37	28830.72
579.53	28788.59
579.69	28891.57
579.85	28875.19
580.01	29153.71
580.17	28973.49
580.33	28989.88
580.49	28872.85
580.65	29088.18
580.82	28924.34
580.98	29156.05
581.14	29123.29
581.30	28802.63
581.46	28706.67
581.62	29179.46
581.78	28807.31
581.94	29017.96
582.10	28599.01
582.26	29198.18
582.42	28898.59
582.58	29069.45
582.74	29022.64
582.90	28858.81
583.06	28872.85
583.22	28858.81
583.38	28943.06
583.54	28966.47
583.70	28889.23
583.86	28992.22
584.02	28804.97
584.18	29017.96
584.34	29134.99
584.50	29266.06
584.66	28851.78
584.82	28781.57
584.98	29050.73
585.14	28907.96
585.30	28666.88
585.46	29146.69
585.62	28690.29
585.78	29481.39
585.94	28615.39
586.10	28931.36
586.26	28851.78
586.42	29612.46
586.58	29467.34
586.74	29266.06
586.90	28741.78
587.06	28783.91
587.22	29102.22
587.38	29013.28
587.54	29010.94
587.70	29158.39
587.86	29338.62
588.02	29242.65
588.18	29455.64
588.34	29273.08
588.49	29432.24
588.65	29216.91
588.81	28994.56
588.97	28844.76
589.13	29120.95
589.29	29083.50
589.45	29443.94
589.61	29493.09
589.77	29436.92
589.93	29411.17
590.08	29427.56
590.24	29350.32
590.40	29071.79
590.56	29195.84
590.72	29050.73
590.88	29411.17
591.04	29483.73
591.20	29326.91
591.35	29685.01
591.51	29507.13
591.67	29631.18
591.83	29558.63
591.99	29343.30
