SpectraSuite Data File
++++++++++++++++++++++++++++++++++++
Date: Fri Oct 18 13:58:01 GMT-05:00 2013
User: bianchi
Dark Spectrum Present: No
Reference Spectrum Present: No
Number of Sampled Component Spectra: 1
Spectrometers: USB2+H05261
Integration Time (usec): 50000 (USB2+H05261)
Spectra Averaged: 1 (USB2+H05261)
Boxcar Smoothing: 0 (USB2+H05261)
Correct for Electrical Dark: No (USB2+H05261)
Strobe/Lamp Enabled: No (USB2+H05261)
Correct for Detector Non-linearity: No (USB2+H05261)
Correct for Stray Light: No (USB2+H05261)
Number of Pixels in Processed Spectrum: 2048
>>>>>Begin Processed Spectral Data<<<<<
365.73	0.00
365.92	0.00
366.12	0.00
366.32	0.00
366.52	0.00
366.72	0.00
366.91	0.00
367.11	0.00
367.31	0.00
367.51	0.00
367.70	0.00
367.90	0.00
368.10	0.00
368.30	0.00
368.49	0.00
368.69	0.00
368.89	0.00
369.09	0.00
369.28	0.00
369.48	0.00
369.68	0.00
369.87	0.00
370.07	0.00
370.27	0.00
370.47	0.00
370.66	131.07
370.86	93.62
371.06	72.56
371.25	121.71
371.45	140.43
371.65	170.86
371.84	147.45
372.04	119.37
372.24	133.41
372.44	198.95
372.63	208.31
372.83	243.42
373.03	163.84
373.22	205.97
373.42	243.42
373.62	208.31
373.81	205.97
374.01	191.92
374.21	351.08
374.40	194.26
374.60	180.22
374.79	250.44
374.99	271.50
375.19	229.37
375.38	250.44
375.58	250.44
375.78	231.71
375.97	231.71
376.17	311.29
376.37	287.89
376.56	215.33
376.76	262.14
376.95	196.60
377.15	238.73
377.35	301.93
377.54	320.65
377.74	292.57
377.93	259.80
378.13	231.71
378.33	278.52
378.52	311.29
378.72	257.46
378.91	308.95
379.11	255.12
379.31	236.39
379.50	299.59
379.70	313.63
379.89	351.08
380.09	304.27
380.28	327.68
380.48	313.63
380.68	255.12
380.87	259.80
381.07	327.68
381.26	294.91
381.46	337.04
381.65	421.30
381.85	308.95
382.04	322.99
382.24	322.99
382.43	278.52
382.63	404.91
382.83	416.62
383.02	320.65
383.22	334.70
383.41	430.66
383.61	341.72
383.80	308.95
384.00	280.86
384.19	325.33
384.39	339.38
384.58	381.51
384.78	379.17
384.97	456.40
385.17	433.00
385.36	351.08
385.56	397.89
385.75	442.36
385.95	393.21
386.14	402.57
386.34	437.68
386.53	425.98
386.72	468.11
386.92	381.51
387.11	407.25
387.31	486.83
387.50	411.93
387.70	330.02
387.89	454.06
388.09	299.59
388.28	458.74
388.48	383.85
388.67	407.25
388.86	486.83
389.06	498.53
389.25	475.13
389.45	440.02
389.64	484.49
389.84	484.49
390.03	479.81
390.22	437.68
390.42	575.77
390.61	531.30
390.81	430.66
391.00	578.11
391.19	498.53
391.39	489.17
391.58	554.71
391.78	580.45
391.97	470.45
392.16	505.56
392.36	603.86
392.55	559.39
392.75	594.50
392.94	479.81
393.13	573.43
393.33	592.16
393.52	547.69
393.71	601.52
393.91	575.77
394.10	613.22
394.29	564.07
394.49	657.69
394.68	669.39
394.88	580.45
395.07	599.18
395.26	601.52
395.46	582.79
395.65	629.60
395.84	627.26
396.04	631.94
396.23	664.71
396.42	575.77
396.62	676.41
396.81	706.84
397.00	655.35
397.19	657.69
397.39	746.63
397.58	690.46
397.77	737.27
397.97	660.03
398.16	667.05
398.35	683.44
398.55	641.31
398.74	709.18
398.93	711.52
399.12	697.48
399.32	692.80
399.51	683.44
399.70	770.04
399.90	786.42
400.09	653.01
400.28	746.63
400.47	793.44
400.67	772.38
400.86	744.29
401.05	748.97
401.24	828.55
401.44	730.25
401.63	854.30
401.82	828.55
402.01	798.12
402.21	823.87
402.40	833.23
402.59	840.25
402.78	695.14
402.97	805.14
403.17	863.66
403.36	870.68
403.55	908.13
403.74	919.83
403.93	966.64
404.13	870.68
404.32	816.85
404.51	938.55
404.70	933.87
404.89	922.17
405.09	905.79
405.28	924.51
405.47	926.85
405.66	957.28
405.85	1013.45
406.05	1008.77
406.24	908.13
406.43	1039.20
406.62	985.37
406.81	997.07
407.00	1008.77
407.20	983.02
407.39	1004.09
407.58	1086.01
407.77	1013.45
407.96	1046.22
408.15	1123.46
408.34	1074.31
408.54	1177.29
408.73	1071.97
408.92	1111.75
409.11	1036.86
409.30	1095.37
409.49	1158.57
409.68	1097.71
409.87	1165.59
410.07	1235.80
410.26	1219.42
410.45	1130.48
410.64	1146.86
410.83	1224.10
411.02	1282.61
411.21	1273.25
411.40	1270.91
411.59	1273.25
411.78	1327.08
411.98	1341.13
412.17	1268.57
412.36	1341.13
412.55	1406.66
412.74	1378.58
412.93	1352.83
413.12	1287.29
413.31	1423.05
413.50	1331.76
413.69	1420.71
413.88	1413.68
414.07	1390.28
414.26	1446.45
414.45	1401.98
414.64	1425.39
414.83	1533.05
415.02	1458.15
415.22	1540.07
415.41	1483.90
415.60	1521.35
415.79	1584.54
415.98	1626.67
416.17	1547.09
416.36	1654.76
416.55	1636.03
416.74	1729.66
416.93	1633.69
417.12	1638.38
417.31	1600.93
417.50	1633.69
417.69	1717.95
417.88	1748.38
418.07	1771.79
418.26	1774.13
418.45	1715.61
418.64	1832.64
418.83	1802.21
419.02	1724.97
419.21	1907.54
419.39	1818.60
419.58	1713.27
419.77	1811.57
419.96	1898.17
420.15	1902.86
420.34	1916.90
420.53	1853.70
420.72	1900.52
420.91	1886.47
421.10	1975.41
421.29	1989.46
421.48	1977.75
421.67	1994.14
421.86	1930.94
422.05	1909.88
422.24	1987.11
422.43	1975.41
422.61	1952.01
422.80	2024.56
422.99	1842.00
423.18	1930.94
423.37	2022.22
423.56	2024.56
423.75	1975.41
423.94	1947.33
424.13	1874.77
424.32	1902.86
424.50	2022.22
424.69	2239.89
424.88	2078.40
425.07	2059.67
425.26	2083.08
425.45	1900.52
425.64	2069.03
425.83	2010.52
426.01	2010.52
426.20	2024.56
426.39	2012.86
426.58	2108.82
426.77	2010.52
426.96	2125.21
427.15	2172.02
427.33	2094.78
427.52	2136.91
427.71	2083.08
427.90	2176.70
428.09	2263.30
428.28	2181.38
428.46	2214.15
428.65	2165.00
428.84	2298.41
429.03	2389.69
429.22	2218.83
429.40	2188.40
429.59	2253.94
429.78	2193.08
429.97	2181.38
430.16	2244.57
430.34	2305.43
430.53	2251.60
430.72	2385.01
430.91	2403.73
431.10	2312.45
431.28	2373.30
431.47	2420.11
431.66	2455.22
431.85	2340.54
432.03	2422.45
432.22	2368.62
432.41	2410.75
432.60	2417.77
432.79	2464.58
432.97	2525.44
433.16	2532.46
433.35	2487.99
433.54	2476.29
433.72	2516.08
433.91	2455.22
434.10	2562.89
434.28	2436.50
434.47	2469.27
434.66	2551.18
434.85	2539.48
435.03	2637.78
435.22	2511.39
435.41	2612.04
435.59	2541.82
435.78	2642.46
435.97	2651.83
436.16	2649.49
436.34	2785.24
436.53	2661.19
436.72	2736.09
436.90	2759.49
437.09	2832.05
437.28	2677.57
437.46	2633.10
437.65	2803.96
437.84	2677.57
438.02	2829.71
438.21	2815.66
438.40	2848.43
438.58	2895.24
438.77	3014.61
438.96	2801.62
439.14	2862.48
439.33	2939.71
439.52	2953.76
439.70	3012.27
439.89	3023.97
440.08	3089.51
440.26	2909.29
440.45	3007.59
440.63	3117.59
440.82	3059.08
441.01	3038.02
441.19	3208.87
441.38	3194.83
441.57	3192.49
441.75	3164.40
441.94	3368.03
442.12	3307.18
442.31	3253.34
442.50	3229.94
442.68	3241.64
442.87	3372.71
443.05	3407.82
443.24	3379.73
443.43	3384.41
443.61	3501.44
443.80	3637.19
443.98	3353.99
444.17	3243.98
444.35	3393.78
444.54	3517.83
444.73	3372.71
444.91	3466.33
445.10	3534.21
445.28	3377.39
445.47	3363.35
445.65	3405.48
445.84	3571.66
446.02	3574.00
446.21	3478.04
446.39	3503.78
446.58	3578.68
446.77	3417.18
446.95	3445.27
447.14	3534.21
447.32	3578.68
447.51	3463.99
447.69	3440.59
447.88	3524.85
448.06	3421.86
448.25	3576.34
448.43	3506.12
448.62	3599.74
448.80	3578.68
448.99	3730.81
449.17	3625.49
449.36	3590.38
449.54	3756.56
449.73	3798.69
449.91	3712.09
450.10	3618.47
450.28	3749.54
450.46	3667.62
450.65	3686.34
450.83	3911.04
451.02	3922.74
451.20	3744.86
451.39	3852.52
451.57	3700.39
451.76	3716.77
451.94	3896.99
452.13	3817.41
452.31	3796.35
452.49	3770.60
452.68	3789.33
452.86	3887.63
453.05	3892.31
453.23	4072.53
453.42	3878.27
453.60	3681.66
453.78	3932.10
453.97	3871.25
454.15	4102.96
454.34	3955.51
454.52	3962.53
454.70	4042.11
454.89	4056.15
455.07	4091.26
455.26	4175.52
455.44	4177.86
455.62	4084.23
455.81	4163.81
455.99	4152.11
456.17	4032.74
456.36	4149.77
456.54	4154.45
456.73	4245.73
456.91	4479.79
457.09	4170.83
457.28	4496.17
457.46	4280.84
457.64	4390.84
457.83	4337.01
458.01	4252.75
458.19	4290.20
458.38	4266.80
458.56	4610.86
458.74	4442.34
458.93	4409.57
459.11	4388.50
459.29	4418.93
459.48	4552.34
459.66	4503.19
459.84	4493.83
460.03	4578.09
460.21	4622.56
460.39	4465.74
460.57	4561.70
460.76	4554.68
460.94	4585.11
461.12	4643.62
461.31	4713.84
461.49	4589.79
461.67	4760.65
461.85	4823.84
462.04	4765.33
462.22	4887.04
462.40	4641.28
462.59	4917.47
462.77	4828.53
462.95	4770.01
463.13	4690.43
463.32	4746.61
463.50	4805.12
463.68	4961.94
463.86	4889.38
464.05	4912.78
464.23	4896.40
464.41	5011.09
464.59	4802.78
464.78	4992.36
464.96	5018.11
465.14	4922.15
465.32	4905.76
465.50	5032.15
465.69	5041.51
465.87	4844.91
466.05	4975.98
466.23	4947.89
466.41	5006.41
466.60	5174.92
466.78	5022.79
466.96	5025.13
467.14	5018.11
467.32	5006.41
467.51	5266.21
467.69	4997.04
467.87	5336.42
468.05	5348.12
468.23	5048.54
468.41	5163.22
468.60	5097.69
468.78	5249.82
468.96	5205.35
469.14	5465.15
469.32	5343.44
469.50	5085.98
469.69	5469.83
469.87	5572.82
470.05	5509.62
470.23	5439.40
470.41	5565.79
470.59	5458.13
470.77	5434.72
470.95	5469.83
471.14	5556.43
471.32	5437.06
471.50	5673.46
471.68	5636.01
471.86	5647.71
472.04	5668.78
472.22	5757.72
472.40	5582.18
472.58	5860.70
472.77	5767.08
472.95	5865.38
473.13	6071.35
473.31	5825.59
473.49	5694.52
473.67	5982.41
473.85	5954.32
474.03	5895.81
474.21	6024.54
474.39	6080.71
474.57	6183.70
474.75	6136.88
474.93	6338.17
475.12	6071.35
475.30	6200.08
475.48	6193.06
475.66	6209.44
475.84	6307.74
476.02	6410.73
476.20	6279.66
476.38	6511.37
476.56	6597.97
476.74	6644.78
476.92	6616.69
477.10	6490.31
477.28	6686.91
477.46	6502.01
477.64	6705.63
477.82	6857.77
478.00	7169.06
478.18	7091.82
478.36	7052.03
478.54	7208.85
478.72	6944.37
478.90	6984.16
479.08	7213.53
479.26	7260.34
479.44	7213.53
479.62	7290.77
479.80	7496.74
479.98	7391.41
480.16	7683.98
480.34	7559.93
480.52	7702.70
480.70	7843.14
480.88	7653.55
481.06	7810.37
481.24	7791.64
481.41	7847.82
481.59	8105.28
481.77	8114.64
481.95	7866.54
482.13	8170.81
482.31	8128.68
482.49	8386.14
482.67	8292.52
482.85	8287.84
483.03	8514.87
483.21	8542.96
483.39	8592.11
483.57	8454.02
483.74	8622.53
483.92	8580.40
484.10	8734.88
484.28	8994.68
484.46	8999.36
484.64	9334.06
484.82	8821.48
485.00	8971.27
485.18	9252.14
485.35	9343.42
485.53	9364.48
485.71	9231.07
485.89	9589.17
486.07	9743.65
486.25	9591.52
486.43	9675.77
486.61	9694.50
486.78	9720.24
486.96	10251.55
487.14	10099.41
487.32	9958.98
487.50	10256.23
487.68	10476.24
487.85	10406.02
488.03	10394.32
488.21	10593.26
488.39	10527.73
488.57	10686.89
488.75	10551.14
488.92	10993.50
489.10	11077.76
489.28	11080.10
489.46	11028.60
489.64	10951.37
489.81	11276.70
489.99	11426.50
490.17	11384.37
490.35	11332.87
490.53	11445.22
490.70	11644.17
490.88	11808.00
491.06	11941.41
491.24	11899.28
491.41	11903.96
491.59	11843.11
491.77	12067.80
491.95	12191.85
492.13	12343.99
492.30	12341.64
492.48	12388.46
492.66	12395.48
492.84	12451.65
493.01	12519.53
493.19	12617.83
493.37	12776.98
493.54	12847.20
493.72	12819.11
493.90	12982.95
494.08	12985.29
494.25	13137.43
494.43	13261.48
494.61	13261.48
494.79	13427.65
494.96	13256.79
495.14	13352.76
495.32	13727.24
495.49	13760.01
495.67	13909.80
495.85	13958.96
496.02	13841.93
496.20	13977.68
496.38	13947.25
496.55	13841.93
496.73	14202.37
496.91	14354.51
497.09	14408.34
497.26	14604.94
497.44	14260.88
497.62	14356.85
497.79	14918.57
497.97	14588.56
498.14	14941.98
498.32	14949.00
498.50	14820.27
498.67	15262.63
498.85	14918.57
499.03	14839.00
499.20	15103.48
499.38	15152.63
499.56	15077.73
499.73	15417.11
499.91	15644.14
500.08	15639.46
500.26	15204.12
500.44	15150.29
500.61	15506.05
500.79	15445.20
500.97	15901.60
501.14	15925.00
501.32	15597.33
501.49	16032.67
501.67	15957.77
501.84	15763.51
502.02	16030.33
502.20	16341.62
502.37	16285.45
502.55	16273.74
502.72	16580.36
502.90	16313.53
503.07	16208.21
503.25	16287.79
503.43	16552.27
503.60	16442.26
503.78	16744.19
503.95	16512.48
504.13	16322.90
504.30	16739.51
504.48	16875.26
504.65	16669.30
504.83	17114.00
505.01	17036.76
505.18	17064.85
505.36	17202.94
505.53	16968.88
505.71	16896.33
505.88	17102.29
506.06	16954.84
506.23	17432.31
506.41	17429.97
506.58	17551.68
506.76	17446.35
506.93	17415.93
507.11	17472.10
507.28	17600.83
507.46	17736.58
507.63	17888.71
507.81	18012.76
507.98	17895.74
508.16	17673.39
508.33	17678.07
508.50	18054.89
508.68	17977.65
508.85	18216.39
509.03	18162.56
509.20	18253.84
509.38	18586.19
509.55	18176.60
509.73	18450.44
509.90	18574.49
510.08	18441.08
510.25	18431.72
510.42	18476.19
510.60	18712.58
510.77	18700.88
510.95	18845.99
511.12	18595.56
511.30	18883.44
511.47	19028.56
511.64	19051.96
511.82	18932.59
511.99	18918.55
512.17	19033.24
512.34	19225.16
512.51	19276.65
512.69	19262.61
512.86	19396.02
513.04	19515.39
513.21	19660.50
513.38	19599.65
513.56	19695.61
513.73	19403.04
513.90	19597.31
514.08	19506.02
514.25	19756.46
514.43	19955.41
514.60	19765.82
514.77	19906.26
514.95	19922.64
515.12	20009.24
515.29	19798.59
515.47	20027.96
515.64	20121.59
515.81	20030.30
515.99	20098.18
516.16	20585.01
516.33	20367.34
516.51	20790.98
516.68	20519.48
516.85	20189.46
517.03	20346.28
517.20	20683.31
517.37	20339.26
517.54	20779.28
517.72	20877.58
517.89	20727.78
518.06	20620.12
518.24	20713.74
518.41	20922.05
518.58	20781.62
518.75	20893.96
518.93	21125.68
519.10	21029.71
519.27	21462.71
519.45	20912.69
519.62	21186.53
519.79	20989.92
519.96	21486.12
520.14	21092.91
520.31	21308.24
520.48	21671.02
520.65	21455.69
520.83	21673.36
521.00	21771.66
521.17	21528.25
521.34	21500.16
521.52	21724.85
521.69	21521.23
521.86	21848.90
522.03	21923.80
522.20	22171.89
522.38	22054.87
522.55	21968.27
522.72	22022.10
522.89	21972.95
523.07	22122.74
523.24	22143.81
523.41	22141.47
523.58	22169.55
523.75	22368.50
523.92	22190.62
524.10	22230.41
524.27	22527.66
524.44	22672.77
524.61	22876.40
524.78	22340.41
524.96	22558.08
525.13	22654.05
525.30	22256.15
525.47	22621.28
525.64	22628.30
525.81	23019.17
525.98	22764.05
526.16	23023.85
526.33	22719.58
526.50	23552.81
526.67	22850.65
526.84	22897.46
527.01	23033.21
527.18	23241.52
527.36	23152.58
527.53	23517.70
527.70	23557.49
527.87	23271.95
528.04	23180.67
528.21	23470.89
528.38	23285.99
528.55	23524.72
528.72	23566.85
528.89	23648.77
529.07	23653.45
529.24	23456.85
529.41	23672.18
529.58	23922.62
529.75	23592.60
529.92	23922.62
530.09	23459.19
530.26	23667.50
530.43	23995.17
530.60	23990.49
530.77	23756.44
530.94	23690.90
531.11	23948.36
531.28	24102.84
531.46	23894.53
531.63	24308.80
531.80	24376.68
531.97	24336.89
532.14	24390.72
532.31	24163.69
532.48	24149.65
532.65	24020.92
532.82	24414.13
532.99	24034.96
533.16	24147.31
533.33	24580.31
533.50	24453.92
533.67	24631.80
533.84	24423.49
534.01	24484.34
534.18	24327.53
534.35	24713.72
534.52	24339.23
534.69	24339.23
534.86	24924.36
535.03	25247.36
535.20	24830.74
535.37	24451.58
535.54	24687.97
535.71	24947.77
535.88	24929.05
536.05	24973.52
536.22	25268.42
536.38	25289.49
536.55	25109.27
536.72	25245.02
536.89	24915.00
537.06	25181.82
537.23	25120.97
537.40	25205.23
537.57	25408.86
537.74	25371.41
537.91	25799.73
538.08	25383.11
538.25	25181.82
538.42	25186.50
538.59	25441.62
538.75	25376.09
538.92	25390.13
539.09	25411.20
539.26	25443.96
539.43	26029.10
539.60	25940.16
539.77	26136.76
539.94	25418.22
540.11	25752.91
540.28	25748.23
540.44	25598.44
540.61	25816.11
540.78	25523.54
540.95	25844.20
541.12	25869.94
541.29	25621.84
541.46	25984.63
541.62	25584.40
541.79	25589.08
541.96	25825.47
542.13	25750.57
542.30	25979.95
542.47	26487.84
542.63	26499.55
542.80	26485.50
542.97	26380.18
543.14	26806.16
543.31	26155.49
543.48	26099.31
543.64	26551.04
543.81	26904.46
543.98	26689.13
544.15	26436.35
544.32	26696.15
544.48	26986.38
544.65	27037.87
544.82	26668.06
544.99	26661.04
545.16	26944.25
545.32	26764.03
545.49	26705.51
545.66	27089.36
545.83	26555.72
546.00	27122.13
546.16	26560.40
546.33	26785.09
546.50	26675.09
546.67	27131.49
546.83	26764.03
547.00	26974.67
547.17	26876.37
547.34	27194.68
547.50	27159.58
547.67	27337.46
547.84	27161.92
548.00	27171.28
548.17	27510.66
548.34	27101.06
548.51	27386.61
548.67	27597.26
548.84	27297.67
549.01	27400.65
549.18	27498.95
549.34	27534.06
549.51	27257.88
549.68	27372.57
549.84	27213.41
550.01	27655.77
550.18	27597.26
550.34	27494.27
550.51	27613.64
550.68	27791.52
550.84	27693.22
551.01	27917.91
551.18	27936.63
551.34	27665.13
551.51	27550.45
551.68	27718.96
551.84	28004.51
552.01	27548.11
552.18	27976.42
552.34	27964.72
552.51	27950.68
552.68	27789.18
552.84	27576.19
553.01	28023.23
553.18	27967.06
553.34	28056.00
553.51	28023.23
553.67	27936.63
553.84	28425.81
554.01	28350.91
554.17	28528.79
554.34	28334.53
554.51	28011.53
554.67	28039.62
554.84	28367.29
555.00	28278.35
555.17	27814.93
555.33	28390.70
555.50	28460.91
555.67	28259.63
555.83	28819.02
556.00	28245.58
556.16	28652.84
556.33	28386.02
556.50	28299.42
556.66	28641.14
556.83	28407.08
556.99	28575.60
557.16	29111.58
557.32	28734.76
557.49	28638.80
557.65	28542.83
557.82	28376.66
557.98	28355.59
558.15	28627.09
558.32	28833.06
558.48	28741.78
558.65	28685.61
558.81	28669.22
558.98	28765.18
559.14	28732.42
559.31	28629.43
559.47	28657.52
559.64	28704.33
559.80	29022.64
559.97	29039.03
560.13	28868.17
560.30	29027.32
560.46	29266.06
560.63	28964.13
560.79	28879.87
560.96	29120.95
561.12	28830.72
561.29	29418.19
561.45	28900.94
561.61	29230.95
561.78	29331.59
561.94	29055.41
562.11	29425.22
562.27	29240.31
562.44	29104.56
562.60	29380.74
562.77	28807.31
562.93	28863.49
563.10	29383.09
563.26	29195.84
563.42	29472.03
563.59	29156.05
563.75	29422.87
563.92	29242.65
564.08	28870.51
564.24	29418.19
564.41	29340.96
564.57	28980.51
564.74	28945.41
564.90	29476.71
565.07	29214.57
565.23	29586.71
565.39	29312.87
565.56	29399.47
565.72	29483.73
565.88	29350.32
566.05	29244.99
566.21	29223.93
566.38	29242.65
566.54	29359.68
566.70	29427.56
566.87	29717.78
567.03	29788.00
567.19	29682.67
567.36	29654.59
567.52	29401.81
567.68	29385.43
567.85	29174.78
568.01	29488.41
568.17	29418.19
568.34	29886.30
568.50	29769.27
568.66	29439.26
568.83	29820.77
568.99	29544.58
569.15	29467.34
569.32	29851.19
569.48	29422.87
569.64	29521.18
569.81	29593.73
569.97	29638.20
570.13	29607.78
570.30	29259.04
570.46	29818.42
570.62	29738.85
570.78	29490.75
570.95	29600.76
571.11	29734.17
571.27	29750.55
571.43	29996.31
571.60	29766.93
571.76	29497.77
571.92	29837.15
572.09	29869.92
572.25	29422.87
572.41	29237.97
572.57	29530.54
572.74	29813.74
572.90	29778.64
573.06	29741.19
573.22	29434.58
573.38	30008.01
573.55	29596.07
573.71	30314.62
573.87	30047.80
574.03	30033.75
574.20	29586.71
574.36	29633.52
574.52	29600.76
574.68	29921.41
574.84	29766.93
575.01	29830.13
575.17	30141.42
575.33	29628.84
575.49	29951.84
575.65	29898.00
575.82	29944.81
575.98	30096.95
576.14	29612.46
576.30	30085.25
576.46	29804.38
576.62	29495.43
576.79	29780.98
576.95	29750.55
577.11	30054.82
577.27	29900.34
577.43	29965.88
577.59	29790.34
577.75	30082.91
577.92	29645.23
578.08	29755.23
578.24	29825.45
578.40	29912.05
578.56	29890.98
578.72	29586.71
578.88	30185.89
579.04	30185.89
579.21	30103.97
579.37	30197.59
579.53	30045.46
579.69	29797.36
579.85	30314.62
580.01	30225.68
580.17	29572.67
580.33	29326.91
580.49	30183.55
580.65	30237.38
580.82	29963.54
580.98	30089.93
581.14	29860.55
581.30	30328.66
581.46	29797.36
581.62	29951.84
581.78	29993.97
581.94	29509.47
582.10	29773.95
582.26	29731.83
582.42	29963.54
582.58	30541.65
582.74	30195.25
582.90	30244.40
583.06	29982.26
583.22	30106.31
583.38	30120.35
583.54	30309.94
583.70	30216.32
583.86	30441.01
584.02	29633.52
584.18	30403.56
584.34	30820.17
584.50	29986.94
584.66	30672.72
584.82	30328.66
584.98	30047.80
585.14	30029.07
585.30	29699.06
585.46	30464.41
585.62	29694.38
585.78	30015.03
585.94	30071.20
586.10	30167.16
586.26	30408.24
586.42	30462.07
586.58	30473.78
586.74	30136.74
586.90	30005.67
587.06	29895.66
587.22	30096.95
587.38	30213.98
587.54	30394.20
587.70	30611.87
587.86	30340.36
588.02	30462.07
588.18	30581.44
588.34	30167.16
588.49	30099.29
588.65	30265.47
588.81	30120.35
588.97	30410.58
589.13	30398.88
589.29	30122.69
589.45	30501.86
589.61	30363.77
589.77	30925.50
589.93	30417.60
590.08	30511.22
590.24	30693.79
590.40	30728.89
590.56	30588.46
590.72	30352.07
590.88	30331.00
591.04	30239.72
591.20	30740.60
591.35	30499.52
591.51	30838.90
591.67	30782.73
591.83	30597.82
591.99	30843.58
