SpectraSuite Data File
++++++++++++++++++++++++++++++++++++
Date: Fri Oct 18 13:58:39 GMT-05:00 2013
User: bianchi
Dark Spectrum Present: No
Reference Spectrum Present: No
Number of Sampled Component Spectra: 1
Spectrometers: USB2+H05261
Integration Time (usec): 50000 (USB2+H05261)
Spectra Averaged: 1 (USB2+H05261)
Boxcar Smoothing: 0 (USB2+H05261)
Correct for Electrical Dark: No (USB2+H05261)
Strobe/Lamp Enabled: No (USB2+H05261)
Correct for Detector Non-linearity: No (USB2+H05261)
Correct for Stray Light: No (USB2+H05261)
Number of Pixels in Processed Spectrum: 2048
>>>>>Begin Processed Spectral Data<<<<<
365.73	0.00
365.92	0.00
366.12	0.00
366.32	0.00
366.52	0.00
366.72	0.00
366.91	0.00
367.11	0.00
367.31	0.00
367.51	0.00
367.70	0.00
367.90	0.00
368.10	0.00
368.30	0.00
368.49	0.00
368.69	0.00
368.89	0.00
369.09	0.00
369.28	0.00
369.48	0.00
369.68	0.00
369.87	0.00
370.07	0.00
370.27	0.00
370.47	0.00
370.66	159.16
370.86	149.79
371.06	147.45
371.25	227.03
371.45	180.22
371.65	184.90
371.84	138.09
372.04	98.30
372.24	180.22
372.44	138.09
372.63	217.67
372.83	248.10
373.03	159.16
373.22	180.22
373.42	145.11
373.62	236.39
373.81	255.12
374.01	182.56
374.21	229.37
374.40	271.50
374.60	175.54
374.79	252.78
374.99	266.82
375.19	283.20
375.38	234.05
375.58	245.76
375.78	248.10
375.97	280.86
376.17	205.97
376.37	301.93
376.56	287.89
376.76	304.27
376.95	248.10
377.15	306.61
377.35	229.37
377.54	220.01
377.74	280.86
377.93	334.70
378.13	304.27
378.33	276.18
378.52	259.80
378.72	271.50
378.91	283.20
379.11	285.55
379.31	346.40
379.50	276.18
379.70	250.44
379.89	301.93
380.09	332.36
380.28	276.18
380.48	276.18
380.68	224.69
380.87	292.57
381.07	287.89
381.26	252.78
381.46	327.68
381.65	255.12
381.85	257.46
382.04	306.61
382.24	327.68
382.43	367.46
382.63	304.27
382.83	318.31
383.02	330.02
383.22	355.76
383.41	292.57
383.61	301.93
383.80	386.19
384.00	456.40
384.19	393.21
384.39	353.42
384.58	407.25
384.78	348.74
384.97	421.30
385.17	411.93
385.36	367.46
385.56	409.59
385.75	330.02
385.95	395.55
386.14	407.25
386.34	353.42
386.53	435.34
386.72	372.15
386.92	416.62
387.11	386.19
387.31	458.74
387.50	425.98
387.70	383.85
387.89	404.91
388.09	404.91
388.28	428.32
388.48	423.64
388.67	500.87
388.86	503.22
389.06	430.66
389.25	463.43
389.45	491.51
389.64	486.83
389.84	514.92
390.03	500.87
390.22	475.13
390.42	470.45
390.61	524.28
390.81	500.87
391.00	447.04
391.19	482.15
391.39	550.03
391.58	496.19
391.78	552.37
391.97	454.06
392.16	575.77
392.36	463.43
392.55	578.11
392.75	620.24
392.94	458.74
393.13	596.84
393.33	585.13
393.52	526.62
393.71	557.05
393.91	557.05
394.10	521.94
394.29	533.64
394.49	507.90
394.68	528.96
394.88	636.63
395.07	594.50
395.26	561.73
395.46	613.22
395.65	596.84
395.84	671.73
396.04	716.20
396.23	641.31
396.42	587.47
396.62	638.97
396.81	753.65
397.00	617.90
397.19	699.82
397.39	650.67
397.58	660.03
397.77	723.23
397.97	631.94
398.16	641.31
398.35	699.82
398.55	725.57
398.74	695.14
398.93	748.97
399.12	638.97
399.32	669.39
399.51	758.33
399.70	774.72
399.90	667.05
400.09	755.99
400.28	702.16
400.47	777.06
400.67	723.23
400.86	798.12
401.05	819.19
401.24	807.48
401.44	851.96
401.63	847.27
401.82	833.23
402.01	835.57
402.21	784.08
402.40	889.40
402.59	800.46
402.78	819.19
402.97	793.44
403.17	931.53
403.36	847.27
403.55	847.27
403.74	858.98
403.93	882.38
404.13	837.91
404.32	957.28
404.51	924.51
404.70	938.55
404.89	929.19
405.09	1027.50
405.28	863.66
405.47	908.13
405.66	1011.11
405.85	947.92
406.05	873.02
406.24	901.11
406.43	940.90
406.62	976.00
406.81	1020.47
407.00	1006.43
407.20	931.53
407.39	875.36
407.58	976.00
407.77	1078.99
407.96	1062.60
408.15	1015.79
408.34	978.34
408.54	1029.84
408.73	1032.18
408.92	1039.20
409.11	1088.35
409.30	1036.86
409.49	1095.37
409.68	1179.63
409.87	1153.88
410.07	1174.95
410.26	1046.22
410.45	1205.38
410.64	1137.50
410.83	1238.14
411.02	1231.12
411.21	1240.48
411.40	1301.34
411.59	1252.19
411.78	1184.31
411.98	1212.40
412.17	1210.06
412.36	1259.21
412.55	1224.10
412.74	1373.89
412.93	1322.40
413.12	1359.85
413.31	1334.11
413.50	1369.21
413.69	1357.51
413.88	1397.30
414.07	1383.26
414.26	1378.58
414.45	1432.41
414.64	1502.62
414.83	1549.43
415.02	1497.94
415.22	1474.54
415.41	1572.84
415.60	1568.16
415.79	1444.11
415.98	1598.59
416.17	1631.35
416.36	1535.39
416.55	1671.14
416.74	1659.44
416.93	1621.99
417.12	1570.50
417.31	1689.87
417.50	1748.38
417.69	1724.97
417.88	1605.61
418.07	1696.89
418.26	1671.14
418.45	1708.59
418.64	1764.76
418.83	1813.92
419.02	1678.16
419.21	1851.36
419.39	1741.36
419.58	1795.19
419.77	1764.76
419.96	1930.94
420.15	1757.74
420.34	1867.75
420.53	1888.81
420.72	1844.34
420.91	1980.09
421.10	1879.45
421.29	2064.35
421.48	1888.81
421.67	1942.64
421.86	1926.26
422.05	1940.30
422.24	1863.07
422.43	1980.09
422.61	2005.84
422.80	1961.37
422.99	2073.71
423.18	2064.35
423.37	2108.82
423.56	2057.33
423.75	1991.80
423.94	1996.48
424.13	1708.59
424.32	1930.94
424.50	2038.61
424.69	2003.50
424.88	2099.46
425.07	2031.58
425.26	1987.11
425.45	2047.97
425.64	2047.97
425.83	2026.90
426.01	2066.69
426.20	2036.27
426.39	2040.95
426.58	2064.35
426.77	2129.89
426.96	2101.80
427.15	2111.16
427.33	2108.82
427.52	1980.09
427.71	2083.08
427.90	2244.57
428.09	2153.29
428.28	2223.51
428.46	2239.89
428.65	2193.08
428.84	2200.10
429.03	2148.61
429.22	2291.38
429.40	2253.94
429.59	2230.53
429.78	2207.13
429.97	2197.76
430.16	2101.80
430.34	2246.91
430.53	2352.24
430.72	2396.71
430.91	2333.51
431.10	2282.02
431.28	2424.80
431.47	2244.57
431.66	2427.14
431.85	2385.01
432.03	2406.07
432.22	2427.14
432.41	2457.56
432.60	2389.69
432.79	2340.54
432.97	2553.52
433.16	2396.71
433.35	2387.35
433.54	2424.80
433.72	2410.75
433.91	2415.43
434.10	2541.82
434.28	2478.63
434.47	2509.05
434.66	2539.48
434.85	2602.68
435.03	2710.34
435.22	2497.35
435.41	2637.78
435.59	2464.58
435.78	2642.46
435.97	2705.66
436.16	2654.17
436.34	2778.22
436.53	2733.75
436.72	2708.00
436.90	2663.53
437.09	2717.36
437.28	2605.02
437.46	2644.81
437.65	2712.68
437.84	2787.58
438.02	2715.02
438.21	2663.53
438.40	2768.85
438.58	2946.73
438.77	2935.03
438.96	2820.35
439.14	2874.18
439.33	2944.39
439.52	2857.79
439.70	2925.67
439.89	2953.76
440.08	2977.16
440.26	2883.54
440.45	3103.55
440.63	3045.04
440.82	3131.64
441.01	3141.00
441.19	3110.57
441.38	3152.70
441.57	3251.00
441.75	3185.47
441.94	3258.03
442.12	3262.71
442.31	3187.81
442.50	3265.05
442.68	3241.64
442.87	3246.32
443.05	3229.94
443.24	3398.46
443.43	3375.05
443.61	3382.07
443.80	3421.86
443.98	3283.77
444.17	3295.47
444.35	3407.82
444.54	3496.76
444.73	3370.37
444.91	3398.46
445.10	3452.29
445.28	3346.97
445.47	3349.31
445.65	3363.35
445.84	3344.63
446.02	3524.85
446.21	3475.70
446.39	3419.52
446.58	3419.52
446.77	3517.83
446.95	3293.13
447.14	3478.04
447.32	3414.84
447.51	3471.01
447.69	3501.44
447.88	3452.29
448.06	3447.61
448.25	3623.15
448.43	3524.85
448.62	3595.06
448.80	3489.74
448.99	3466.33
449.17	3552.93
449.36	3574.00
449.54	3606.77
449.73	3550.59
449.91	3688.68
450.10	3695.71
450.28	3625.49
450.46	3716.77
450.65	3744.86
450.83	3768.26
451.02	3765.92
451.20	3847.84
451.39	3796.35
451.57	3761.24
451.76	3648.90
451.94	3770.60
452.13	3857.20
452.31	3894.65
452.49	3721.45
452.68	3824.44
452.86	3730.81
453.05	4063.17
453.23	3908.69
453.42	3803.37
453.60	3733.15
453.78	3927.42
453.97	3925.08
454.15	3901.67
454.34	3889.97
454.52	3868.91
454.70	3873.59
454.89	3974.23
455.07	3873.59
455.26	4095.94
455.44	4070.19
455.62	3992.95
455.81	4074.87
455.99	4112.32
456.17	4044.45
456.36	4175.52
456.54	4198.92
456.73	4159.13
456.91	4376.80
457.09	4315.95
457.28	4322.97
457.46	4325.31
457.64	4252.75
457.83	4411.91
458.01	4210.62
458.19	4425.95
458.38	4381.48
458.56	4475.10
458.74	4304.25
458.93	4383.82
459.11	4432.97
459.29	4367.44
459.48	4475.10
459.66	4582.77
459.84	4365.10
460.03	4533.62
460.21	4482.13
460.39	4547.66
460.57	4416.59
460.76	4496.17
460.94	4655.33
461.12	4557.02
461.31	4737.24
461.49	4615.54
461.67	4617.88
461.85	4620.22
462.04	4688.09
462.22	4737.24
462.40	4667.03
462.59	4739.58
462.77	4753.63
462.95	4709.16
463.13	4741.93
463.32	4739.58
463.50	4741.93
463.68	4884.70
463.86	4865.97
464.05	4681.07
464.23	4767.67
464.41	4905.76
464.59	4812.14
464.78	4903.42
464.96	5029.81
465.14	4830.87
465.32	4938.53
465.50	4805.12
465.69	4966.62
465.87	4997.04
466.05	4915.12
466.23	4945.55
466.41	5050.88
466.60	5336.42
466.78	4957.25
466.96	5015.77
467.14	5006.41
467.32	5048.54
467.51	5153.86
467.69	4919.81
467.87	5104.71
468.05	5139.82
468.23	5111.73
468.41	5116.41
468.60	5156.20
468.78	5193.65
468.96	5149.18
469.14	5210.03
469.32	5298.97
469.50	5109.39
469.69	5308.34
469.87	5198.33
470.05	5472.17
470.23	5303.65
470.41	5254.50
470.59	5483.88
470.77	5305.99
470.95	5500.26
471.14	5493.24
471.32	5486.22
471.50	5565.79
471.68	5619.63
471.86	5493.24
472.04	5521.32
472.22	5762.40
472.40	5582.18
472.58	5582.18
472.77	5797.51
472.95	5839.64
473.13	5884.11
473.31	5776.44
473.49	5675.80
473.67	5738.99
473.85	5722.61
474.03	6104.12
474.21	5944.96
474.39	6050.28
474.57	6061.99
474.75	5966.03
474.93	6141.57
475.12	6179.01
475.30	6118.16
475.48	6190.72
475.66	6307.74
475.84	6090.07
476.02	6356.90
476.20	6347.53
476.38	6221.14
476.56	6490.31
476.74	6338.17
476.92	6565.20
477.10	6569.88
477.28	6792.23
477.46	6626.06
477.64	6703.29
477.82	6789.89
478.00	6909.26
478.18	6768.83
478.36	6998.20
478.54	6904.58
478.72	6897.56
478.90	6902.24
479.08	7190.13
479.26	7255.66
479.44	7328.22
479.62	7288.43
479.80	7129.27
479.98	7346.94
480.16	7396.09
480.34	7449.93
480.52	7606.74
480.70	7513.12
480.88	7564.61
481.06	7557.59
481.24	7665.25
481.41	7695.68
481.59	7854.84
481.77	7922.71
481.95	8049.10
482.13	7971.86
482.31	7983.57
482.49	8344.01
482.67	8124.00
482.85	8554.66
483.03	8402.52
483.21	8535.93
483.39	8564.02
483.57	8606.15
483.74	8549.98
483.92	8613.17
484.10	8592.11
484.28	8875.31
484.46	9020.42
484.64	8908.08
484.82	9011.06
485.00	9013.40
485.18	9146.81
485.35	9341.08
485.53	9158.52
485.71	9387.89
485.89	9614.92
486.07	9350.44
486.25	9537.68
486.43	9645.35
486.61	9715.56
486.78	9652.37
486.96	9921.53
487.14	9900.47
487.32	10064.30
487.50	10045.58
487.68	10171.97
487.85	10349.85
488.03	10169.63
488.21	10471.56
488.39	10399.00
488.57	10574.54
488.75	10579.22
488.92	10628.37
489.10	10874.13
489.28	10890.51
489.46	10909.24
489.64	10902.22
489.81	11314.15
489.99	11171.38
490.17	10965.41
490.35	11573.95
490.53	11311.81
490.70	11538.84
490.88	11466.28
491.06	11733.11
491.24	11545.86
491.41	11908.65
491.59	12028.01
491.77	11894.60
491.95	12020.99
492.13	12276.11
492.30	12159.08
492.48	12283.13
492.66	12215.26
492.84	12264.41
493.01	12444.63
493.19	12549.95
493.37	12482.08
493.54	12617.83
493.72	12800.39
493.90	12828.48
494.08	12994.65
494.25	13097.64
494.43	12917.42
494.61	12982.95
494.79	13125.72
494.96	13256.79
495.14	13336.37
495.32	13406.59
495.49	13287.22
495.67	13668.73
495.85	13720.22
496.02	13600.85
496.20	13600.85
496.38	13788.10
496.55	13785.76
496.73	14167.26
496.91	13963.64
497.09	13914.48
497.26	14012.79
497.44	14106.41
497.62	14267.91
497.79	14448.13
497.97	14356.85
498.14	14546.43
498.32	14810.91
498.50	14501.96
498.67	14824.95
498.85	14773.46
499.03	14752.40
499.20	14836.66
499.38	15096.46
499.56	15059.01
499.73	15384.34
499.91	15372.64
500.08	15538.82
500.26	15211.14
500.44	15367.96
500.61	15410.09
500.79	15190.08
500.97	15620.74
501.14	15651.16
501.32	15611.37
501.49	15885.22
501.67	15763.51
501.84	15875.85
502.02	15990.54
502.20	15857.13
502.37	16135.65
502.55	16266.72
502.72	15971.82
502.90	16306.51
503.07	15969.48
503.25	16238.64
503.43	16205.87
503.60	16187.14
503.78	16451.63
503.95	16652.91
504.13	16521.84
504.30	16379.07
504.48	16540.57
504.65	16828.45
504.83	16823.77
505.01	16950.16
505.18	16739.51
505.36	17114.00
505.53	16856.54
505.71	17170.17
505.88	16786.32
506.06	16669.30
506.23	17081.23
506.41	17383.16
506.58	17071.87
506.76	17397.20
506.93	17317.62
507.11	17334.01
507.28	17584.44
507.46	17429.97
507.63	17603.17
507.81	17680.41
507.98	17654.66
508.16	17743.60
508.33	17640.62
508.50	17607.85
508.68	18174.26
508.85	17912.12
509.03	17942.55
509.20	18064.25
509.38	18295.97
509.55	18190.64
509.73	18029.15
509.90	18258.52
510.08	18260.86
510.25	18218.73
510.42	18394.27
510.60	18754.71
510.77	18647.05
510.95	18630.66
511.12	18239.79
511.30	18345.12
511.47	18625.98
511.64	19073.03
511.82	18934.93
511.99	18967.70
512.17	19171.33
512.34	18979.40
512.51	19129.20
512.69	18904.51
512.86	19400.70
513.04	19082.39
513.21	19126.86
513.38	19618.37
513.56	19220.48
513.73	19185.37
513.90	19213.46
514.08	19517.73
514.25	19412.40
514.43	19637.09
514.60	19531.77
514.77	19655.82
514.95	20290.10
515.12	19932.00
515.29	19932.00
515.47	20011.58
515.64	19838.38
515.81	19854.76
515.99	20287.76
516.16	20287.76
516.33	20109.88
516.51	20372.02
516.68	19803.27
516.85	20320.53
517.03	20517.14
517.20	20336.91
517.37	20477.35
517.54	20673.95
517.72	20545.22
517.89	20411.81
518.06	20320.53
518.24	20599.05
518.41	20652.89
518.58	20535.86
518.75	20657.57
518.93	20947.79
519.10	20669.27
519.27	20573.31
519.45	20835.45
519.62	20872.90
519.79	20666.93
519.96	20954.82
520.14	21020.35
520.31	21277.81
520.48	21179.51
520.65	21481.44
520.83	21156.10
521.00	21834.86
521.17	21128.02
521.34	21214.62
521.52	21556.33
521.69	21436.97
521.86	21371.43
522.03	21556.33
522.20	21305.90
522.38	21675.70
522.55	21579.74
522.72	21682.72
522.89	21862.94
523.07	21994.01
523.24	21792.73
523.41	21874.65
523.58	21858.26
523.75	22300.62
523.92	21881.67
524.10	21687.40
524.27	22473.82
524.44	22291.26
524.61	22412.97
524.78	22618.94
524.96	22277.22
525.13	22324.03
525.30	22546.38
525.47	22286.58
525.64	22391.91
525.81	22359.14
525.98	22478.50
526.16	22431.69
526.33	22735.96
526.50	22799.16
526.67	22710.22
526.84	22640.00
527.01	22735.96
527.18	22665.75
527.36	22967.68
527.53	22965.34
527.70	23133.86
527.87	23009.81
528.04	23222.80
528.21	22850.65
528.38	23068.32
528.55	23021.51
528.72	22820.22
528.89	23461.53
529.07	23157.26
529.24	23035.55
529.41	23335.14
529.58	23283.65
529.75	23234.50
529.92	23131.51
530.09	23377.27
530.26	23573.88
530.43	23665.16
530.60	23644.09
530.77	23646.43
530.94	23374.93
531.11	23597.28
531.28	23309.40
531.46	23611.32
531.63	23765.80
531.80	23749.42
531.97	24018.58
532.14	24063.05
532.31	24151.99
532.48	23922.62
532.65	24025.60
532.82	23777.50
532.99	24140.29
533.16	23821.97
533.33	24212.84
533.50	24706.70
533.67	24376.68
533.84	24194.12
534.01	24280.72
534.18	24095.82
534.35	24278.38
534.52	24308.80
534.69	24559.24
534.86	24556.90
535.03	24226.89
535.20	24432.85
535.37	24615.41
535.54	24259.65
535.71	24451.58
535.88	24418.81
536.05	24151.99
536.22	24657.54
536.38	24702.01
536.55	24975.86
536.72	24720.74
536.89	24395.40
537.06	24517.11
537.23	25041.39
537.40	24474.98
537.57	24996.92
537.74	25181.82
537.91	25404.17
538.08	25252.04
538.25	24907.98
538.42	24875.21
538.59	25013.31
538.75	24833.08
538.92	25003.94
539.09	25226.29
539.26	24922.02
539.43	25378.43
539.60	25352.68
539.77	25394.81
539.94	25322.26
540.11	25483.75
540.28	25233.32
540.44	25495.46
540.61	25317.57
540.78	25046.07
540.95	25432.26
541.12	25551.63
541.29	25350.34
541.46	25666.31
541.62	25394.81
541.79	25635.89
541.96	25207.57
542.13	25525.88
542.30	25858.24
542.47	25755.26
542.63	25930.80
542.80	25921.43
542.97	26169.53
543.14	26139.10
543.31	26008.03
543.48	26162.51
543.64	26181.23
543.81	26380.18
543.98	26504.23
544.15	26356.77
544.32	26497.20
544.48	26541.68
544.65	26394.22
544.82	26485.50
544.99	26162.51
545.16	26277.19
545.32	26604.87
545.49	26799.13
545.66	27182.98
545.83	26630.62
546.00	26410.60
546.16	26527.63
546.33	26455.08
546.50	26190.59
546.67	26752.32
546.83	26274.85
547.00	26544.02
547.17	26663.38
547.34	26909.14
547.50	27021.48
547.67	26930.20
547.84	27009.78
548.00	26707.85
548.17	27241.50
548.34	26773.39
548.51	26969.99
548.67	27140.85
548.84	27154.90
549.01	26817.86
549.18	26981.70
549.34	26984.04
549.51	27033.19
549.68	27145.53
549.84	27119.79
550.01	27468.53
550.18	27044.89
550.34	27227.45
550.51	27468.53
550.68	27374.91
550.84	27143.19
551.01	27248.52
551.18	27063.61
551.34	27194.68
551.51	27227.45
551.68	27395.97
551.84	27576.19
552.01	27470.87
552.18	27775.14
552.34	27398.31
552.51	27651.09
552.68	27608.96
552.84	27281.28
553.01	28112.17
553.18	27625.34
553.34	28006.85
553.51	27552.79
553.67	27943.66
553.84	28149.62
554.01	27915.57
554.17	27803.22
554.34	27985.79
554.51	27683.86
554.67	28020.89
554.84	28276.01
555.00	27861.74
555.17	27707.26
555.33	27845.35
555.50	28203.46
555.67	28158.99
555.83	28023.23
556.00	28180.05
556.16	28327.50
556.33	28126.22
556.50	28212.82
556.66	28067.70
556.83	28112.17
556.99	28460.91
557.16	28313.46
557.32	28126.22
557.49	28552.20
557.65	28196.43
557.82	28189.41
557.98	28355.59
558.15	27992.81
558.32	28444.53
558.48	28386.02
558.65	28613.05
558.81	28409.42
558.98	28130.90
559.14	28240.90
559.31	28603.69
559.47	28369.63
559.64	28613.05
559.80	28173.03
559.97	28535.81
560.13	28311.12
560.30	28425.81
560.46	28535.81
560.63	28711.35
560.79	28135.58
560.96	28744.12
561.12	28563.90
561.29	28517.09
561.45	28599.01
561.61	28512.41
561.78	28678.58
561.94	28914.98
562.11	29020.30
562.27	28964.13
562.44	28840.08
562.60	28416.44
562.77	28489.00
562.93	28650.50
563.10	29039.03
563.26	28706.67
563.42	29027.32
563.59	29017.96
563.75	28886.89
563.92	29116.26
564.08	28620.07
564.24	28767.52
564.41	28570.92
564.57	28856.46
564.74	29003.92
564.90	29275.42
565.07	29067.11
565.23	29172.44
565.39	29116.26
565.56	29134.99
565.72	28711.35
565.88	28954.77
566.05	28783.91
566.21	29060.09
566.38	29158.39
566.54	29036.69
566.70	29170.10
566.87	29331.59
567.03	29083.50
567.19	29177.12
567.36	29216.91
567.52	29214.57
567.68	28999.24
567.85	29160.73
568.01	29046.05
568.17	29401.81
568.34	29275.42
568.50	28699.65
568.66	28922.00
568.83	29420.53
568.99	29134.99
569.15	29315.21
569.32	29020.30
569.48	29010.94
569.64	29085.84
569.81	29106.90
569.97	29130.31
570.13	29221.59
570.30	29350.32
570.46	29378.40
570.62	29465.00
570.78	29090.52
570.95	28772.21
571.11	29050.73
571.27	29146.69
571.43	29284.78
571.60	29235.63
571.76	29516.50
571.92	29390.11
572.09	29214.57
572.25	29472.03
572.41	29273.08
572.57	29116.26
572.74	29221.59
572.90	29319.89
573.06	29184.14
573.22	29242.65
573.38	29502.45
573.55	29617.14
573.71	29755.23
573.87	29380.74
574.03	29373.72
574.20	29252.02
574.36	29305.85
574.52	29219.25
574.68	29565.65
574.84	29259.04
575.01	29589.05
575.17	29649.91
575.33	29198.18
575.49	29446.28
575.65	29483.73
575.82	29663.95
575.98	29453.30
576.14	29551.60
576.30	29572.67
576.46	29577.35
576.62	29305.85
576.79	29729.48
576.95	29448.62
577.11	29546.92
577.27	29830.13
577.43	29474.37
577.59	29432.24
577.75	29579.69
577.92	29429.90
578.08	29493.09
578.24	29514.16
578.40	29558.63
578.56	29582.03
578.72	29216.91
578.88	29834.81
579.04	29886.30
579.21	29652.25
579.37	29457.98
579.53	29537.56
579.69	29500.11
579.85	29436.92
580.01	29563.31
580.17	29158.39
580.33	29383.09
580.49	29502.45
580.65	29858.21
580.82	29764.59
580.98	29645.23
581.14	29701.40
581.30	29645.23
581.46	29469.69
581.62	29371.38
581.78	29376.06
581.94	29944.81
582.10	29310.53
582.26	29610.12
582.42	29738.85
582.58	29876.94
582.74	29635.86
582.90	29685.01
583.06	29792.68
583.22	29673.31
583.38	29511.81
583.54	29975.24
583.70	29336.27
583.86	29411.17
584.02	29092.86
584.18	29769.27
584.34	29703.74
584.50	29638.20
584.66	29792.68
584.82	29692.04
584.98	29448.62
585.14	29570.33
585.30	29282.44
585.46	29488.41
585.62	29441.60
585.78	29783.32
585.94	29542.24
586.10	29827.79
586.26	29692.04
586.42	30071.20
586.58	29780.98
586.74	29537.56
586.90	29483.73
587.06	29626.50
587.22	29706.08
587.38	29593.73
587.54	30141.42
587.70	29596.07
587.86	29912.05
588.02	29951.84
588.18	30010.35
588.34	29820.77
588.49	29645.23
588.65	29612.46
588.81	29511.81
588.97	29668.63
589.13	30197.59
589.29	29680.33
589.45	29619.48
589.61	30052.48
589.77	29928.43
589.93	30085.25
590.08	30176.53
590.24	30235.04
590.40	30235.04
590.56	30169.51
590.72	30026.73
590.88	29755.23
591.04	29935.45
591.20	30527.61
591.35	30342.70
591.51	30632.93
591.67	30249.08
591.83	30363.77
591.99	30031.41
