SpectraSuite Data File
++++++++++++++++++++++++++++++++++++
Date: Fri Oct 18 13:58:21 GMT-05:00 2013
User: bianchi
Dark Spectrum Present: No
Reference Spectrum Present: No
Number of Sampled Component Spectra: 1
Spectrometers: USB2+H05261
Integration Time (usec): 50000 (USB2+H05261)
Spectra Averaged: 1 (USB2+H05261)
Boxcar Smoothing: 0 (USB2+H05261)
Correct for Electrical Dark: No (USB2+H05261)
Strobe/Lamp Enabled: No (USB2+H05261)
Correct for Detector Non-linearity: No (USB2+H05261)
Correct for Stray Light: No (USB2+H05261)
Number of Pixels in Processed Spectrum: 2048
>>>>>Begin Processed Spectral Data<<<<<
365.73	0.00
365.92	0.00
366.12	0.00
366.32	0.00
366.52	0.00
366.72	0.00
366.91	0.00
367.11	0.00
367.31	0.00
367.51	0.00
367.70	0.00
367.90	0.00
368.10	0.00
368.30	0.00
368.49	0.00
368.69	0.00
368.89	0.00
369.09	0.00
369.28	0.00
369.48	0.00
369.68	0.00
369.87	0.00
370.07	0.00
370.27	0.00
370.47	0.00
370.66	53.83
370.86	124.05
371.06	95.96
371.25	196.60
371.45	177.88
371.65	180.22
371.84	107.66
372.04	170.86
372.24	124.05
372.44	222.35
372.63	128.73
372.83	217.67
373.03	163.84
373.22	236.39
373.42	217.67
373.62	217.67
373.81	194.26
374.01	212.99
374.21	315.97
374.40	173.20
374.60	290.23
374.79	266.82
374.99	208.31
375.19	229.37
375.38	170.86
375.58	222.35
375.78	276.18
375.97	287.89
376.17	330.02
376.37	285.55
376.56	280.86
376.76	252.78
376.95	280.86
377.15	285.55
377.35	212.99
377.54	285.55
377.74	339.38
377.93	191.92
378.13	208.31
378.33	313.63
378.52	337.04
378.72	351.08
378.91	283.20
379.11	248.10
379.31	290.23
379.50	283.20
379.70	322.99
379.89	262.14
380.09	337.04
380.28	322.99
380.48	332.36
380.68	299.59
380.87	252.78
381.07	285.55
381.26	255.12
381.46	325.33
381.65	341.72
381.85	383.85
382.04	320.65
382.24	243.42
382.43	318.31
382.63	287.89
382.83	306.61
383.02	341.72
383.22	400.23
383.41	346.40
383.61	362.78
383.80	351.08
384.00	381.51
384.19	344.06
384.39	433.00
384.58	397.89
384.78	320.65
384.97	423.64
385.17	451.72
385.36	444.70
385.56	353.42
385.75	334.70
385.95	423.64
386.14	325.33
386.34	407.25
386.53	334.70
386.72	430.66
386.92	465.77
387.11	330.02
387.31	400.23
387.50	330.02
387.70	388.53
387.89	458.74
388.09	388.53
388.28	416.62
388.48	421.30
388.67	442.36
388.86	404.91
389.06	451.72
389.25	465.77
389.45	519.60
389.64	505.56
389.84	447.04
390.03	472.79
390.22	540.66
390.42	416.62
390.61	554.71
390.81	491.51
391.00	540.66
391.19	440.02
391.39	477.47
391.58	449.38
391.78	482.15
391.97	521.94
392.16	528.96
392.36	641.31
392.55	587.47
392.75	578.11
392.94	468.11
393.13	580.45
393.33	470.45
393.52	514.92
393.71	519.60
393.91	514.92
394.10	496.19
394.29	514.92
394.49	589.82
394.68	641.31
394.88	624.92
395.07	636.63
395.26	568.75
395.46	507.90
395.65	589.82
395.84	557.05
396.04	648.33
396.23	645.99
396.42	601.52
396.62	676.41
396.81	676.41
397.00	592.16
397.19	706.84
397.39	730.25
397.58	655.35
397.77	613.22
397.97	739.61
398.16	730.25
398.35	662.37
398.55	685.78
398.74	727.91
398.93	657.69
399.12	718.54
399.32	671.73
399.51	713.86
399.70	753.65
399.90	725.57
400.09	765.36
400.28	753.65
400.47	702.16
400.67	856.64
400.86	676.41
401.05	765.36
401.24	704.50
401.44	772.38
401.63	842.59
401.82	800.46
402.01	753.65
402.21	744.29
402.40	737.27
402.59	784.08
402.78	814.51
402.97	802.80
403.17	875.36
403.36	849.61
403.55	966.64
403.74	837.91
403.93	905.79
404.13	903.45
404.32	880.04
404.51	894.08
404.70	992.39
404.89	924.51
405.09	966.64
405.28	940.90
405.47	877.70
405.66	1015.79
405.85	957.28
406.05	940.90
406.24	1008.77
406.43	1083.67
406.62	933.87
406.81	1097.71
407.00	997.07
407.20	985.37
407.39	997.07
407.58	1057.92
407.77	1055.58
407.96	1050.90
408.15	1076.65
408.34	1008.77
408.54	1008.77
408.73	1153.88
408.92	1069.62
409.11	1139.84
409.30	1172.61
409.49	1034.52
409.68	1067.28
409.87	1076.65
410.07	1196.01
410.26	1191.33
410.45	1256.87
410.64	1158.57
410.83	1179.63
411.02	1299.00
411.21	1273.25
411.40	1310.70
411.59	1179.63
411.78	1247.51
411.98	1299.00
412.17	1165.59
412.36	1252.19
412.55	1245.16
412.74	1380.92
412.93	1369.21
413.12	1327.08
413.31	1338.79
413.50	1460.49
413.69	1427.73
413.88	1423.05
414.07	1376.24
414.26	1331.76
414.45	1486.24
414.64	1437.09
414.83	1497.94
415.02	1547.09
415.22	1528.37
415.41	1521.35
415.60	1502.62
415.79	1472.20
415.98	1561.14
416.17	1640.72
416.36	1582.20
416.55	1582.20
416.74	1600.93
416.93	1561.14
417.12	1671.14
417.31	1727.32
417.50	1762.42
417.69	1694.55
417.88	1664.12
418.07	1741.36
418.26	1696.89
418.45	1710.93
418.64	1816.26
418.83	1783.49
419.02	1750.72
419.21	1703.91
419.39	1724.97
419.58	1839.66
419.77	1818.60
419.96	1881.79
420.15	1947.33
420.34	1788.17
420.53	1806.89
420.72	1769.44
420.91	1937.96
421.10	1928.60
421.29	1884.13
421.48	1984.77
421.67	2029.24
421.86	1944.99
422.05	1851.36
422.24	2010.52
422.43	1956.69
422.61	1884.13
422.80	1949.67
422.99	1944.99
423.18	2148.61
423.37	1975.41
423.56	2005.84
423.75	2001.16
423.94	1930.94
424.13	1732.00
424.32	1886.47
424.50	2026.90
424.69	2153.29
424.88	2005.84
425.07	1961.37
425.26	1912.22
425.45	2036.27
425.64	2022.22
425.83	2036.27
426.01	2017.54
426.20	2045.63
426.39	1975.41
426.58	2022.22
426.77	2174.36
426.96	2129.89
427.15	2097.12
427.33	2038.61
427.52	2186.06
427.71	2181.38
427.90	2186.06
428.09	2188.40
428.28	2118.18
428.46	2200.10
428.65	2293.72
428.84	2188.40
429.03	2307.77
429.22	2040.95
429.40	2256.28
429.59	2239.89
429.78	2174.36
429.97	2132.23
430.16	2235.21
430.34	2263.30
430.53	2352.24
430.72	2324.15
430.91	2373.30
431.10	2300.75
431.28	2293.72
431.47	2340.54
431.66	2410.75
431.85	2282.02
432.03	2401.39
432.22	2513.74
432.41	2424.80
432.60	2459.90
432.79	2406.07
432.97	2406.07
433.16	2464.58
433.35	2382.67
433.54	2466.92
433.72	2471.61
433.91	2420.11
434.10	2452.88
434.28	2471.61
434.47	2415.43
434.66	2555.86
434.85	2471.61
435.03	2619.06
435.22	2572.25
435.41	2693.96
435.59	2607.36
435.78	2654.17
435.97	2569.91
436.16	2747.79
436.34	2691.62
436.53	2698.64
436.72	2736.09
436.90	2700.98
437.09	2693.96
437.28	2637.78
437.46	2719.70
437.65	2850.77
437.84	2773.53
438.02	2703.32
438.21	2780.56
438.40	2878.86
438.58	2902.26
438.77	2836.73
438.96	2897.58
439.14	3014.61
439.33	2822.69
439.52	2906.95
439.70	3040.36
439.89	3042.70
440.08	3047.38
440.26	2944.39
440.45	3103.55
440.63	3124.62
440.82	3023.97
441.01	3117.59
441.19	3049.72
441.38	3150.36
441.57	3180.79
441.75	3112.91
441.94	3335.26
442.12	3246.32
442.31	3229.94
442.50	3225.26
442.68	3272.07
442.87	3337.60
443.05	3171.43
443.24	3478.04
443.43	3393.78
443.61	3435.91
443.80	3368.03
443.98	3251.00
444.17	3311.86
444.35	3396.12
444.54	3522.51
444.73	3361.01
444.91	3471.01
445.10	3396.12
445.28	3302.50
445.47	3391.44
445.65	3386.76
445.84	3421.86
446.02	3398.46
446.21	3316.54
446.39	3609.11
446.58	3442.93
446.77	3480.38
446.95	3410.16
447.14	3531.87
447.32	3487.40
447.51	3454.63
447.69	3562.30
447.88	3569.32
448.06	3527.19
448.25	3396.12
448.43	3543.57
448.62	3557.61
448.80	3456.97
448.99	3508.46
449.17	3428.88
449.36	3482.72
449.54	3623.15
449.73	3723.79
449.91	3693.37
450.10	3550.59
450.28	3833.80
450.46	3719.11
450.65	3571.66
450.83	3712.09
451.02	3662.94
451.20	3847.84
451.39	3812.73
451.57	3784.65
451.76	3705.07
451.94	3796.35
452.13	3948.48
452.31	3836.14
452.49	3761.24
452.68	3829.12
452.86	3810.39
453.05	3817.41
453.23	4067.85
453.42	3829.12
453.60	3801.03
453.78	3786.99
453.97	3817.41
454.15	3948.48
454.34	3850.18
454.52	3840.82
454.70	3950.82
454.89	4114.66
455.07	3997.64
455.26	4100.62
455.44	4065.51
455.62	4046.79
455.81	3964.87
455.99	4170.83
456.17	4077.21
456.36	4308.93
456.54	4194.24
456.73	4163.81
456.91	4266.80
457.09	4327.65
457.28	4306.59
457.46	4152.11
457.64	4379.14
457.83	4339.35
458.01	4229.35
458.19	4325.31
458.38	4245.73
458.56	4341.69
458.74	4374.46
458.93	4400.21
459.11	4416.59
459.29	4437.66
459.48	4557.02
459.66	4547.66
459.84	4507.87
460.03	4660.01
460.21	4629.58
460.39	4599.15
460.57	4440.00
460.76	4493.83
460.94	4613.20
461.12	4503.19
461.31	4638.94
461.49	4627.24
461.67	4645.96
461.85	4676.39
462.04	4573.41
462.22	4660.01
462.40	4613.20
462.59	4746.61
462.77	4861.29
462.95	4681.07
463.13	4620.22
463.32	4709.16
463.50	4727.88
463.68	4760.65
463.86	4814.48
464.05	4774.69
464.23	4765.33
464.41	4835.55
464.59	4882.36
464.78	4947.89
464.96	4812.14
465.14	4954.91
465.32	4884.70
465.50	4997.04
465.69	4924.49
465.87	4873.00
466.05	4837.89
466.23	5085.98
466.41	4940.87
466.60	5015.77
466.78	4809.80
466.96	4947.89
467.14	4896.40
467.32	5050.88
467.51	5081.30
467.69	4851.93
467.87	4945.55
468.05	5167.90
468.23	4997.04
468.41	4924.49
468.60	5076.62
468.78	5310.68
468.96	5156.20
469.14	5235.78
469.32	5198.33
469.50	5116.41
469.69	5350.46
469.87	5261.52
470.05	5380.89
470.23	5348.12
470.41	5437.06
470.59	5441.75
470.77	5238.12
470.95	5451.11
471.14	5387.91
471.32	5458.13
471.50	5593.88
471.68	5504.94
471.86	5556.43
472.04	5460.47
472.22	5731.97
472.40	5579.84
472.58	5579.84
472.77	5797.51
472.95	5792.83
473.13	5930.92
473.31	5556.43
473.49	5715.59
473.67	5846.66
473.85	5762.40
474.03	5989.43
474.21	5987.09
474.39	5914.53
474.57	6073.69
474.75	6003.47
474.93	6186.04
475.12	6010.50
475.30	6186.04
475.48	6120.50
475.66	6223.48
475.84	6263.27
476.02	6225.82
476.20	6132.20
476.38	6289.02
476.56	6530.09
476.74	6499.67
476.92	6487.96
477.10	6569.88
477.28	6626.06
477.46	6633.08
477.64	6658.82
477.82	6712.66
478.00	6871.81
478.18	6885.86
478.36	6878.83
478.54	7037.99
478.72	6881.18
478.90	7052.03
479.08	7140.97
479.26	7269.70
479.44	7171.40
479.62	7393.75
479.80	7265.02
479.98	7220.55
480.16	7438.22
480.34	7403.11
480.52	7569.29
480.70	7569.29
480.88	7550.57
481.06	7691.00
481.24	7597.38
481.41	7459.29
481.59	7824.41
481.77	7915.69
481.95	8112.30
482.13	7983.57
482.31	7985.91
482.49	8004.63
482.67	8161.45
482.85	8456.36
483.03	8566.36
483.21	8531.25
483.39	8638.92
483.57	8554.66
483.74	8627.21
483.92	8580.40
484.10	8835.52
484.28	8994.68
484.46	9097.66
484.64	9156.18
484.82	8784.03
485.00	9057.87
485.18	9156.18
485.35	9172.56
485.53	9102.34
485.71	9408.95
485.89	9596.20
486.07	9341.08
486.25	9614.92
486.43	9507.26
486.61	9568.11
486.78	9837.27
486.96	9846.63
487.14	9858.34
487.32	10031.54
487.50	10291.34
487.68	10097.07
487.85	10113.45
488.03	10340.49
488.21	10586.24
488.39	10537.09
488.57	10558.16
488.75	10541.77
488.92	10672.84
489.10	10829.66
489.28	10850.72
489.46	10630.71
489.64	11117.54
489.81	11101.16
489.99	11311.81
490.17	11166.70
490.35	11365.64
490.53	11328.19
490.70	11613.74
490.88	11515.44
491.06	11838.43
491.24	11695.66
491.41	11623.10
491.59	11775.24
491.77	11964.82
491.95	11899.28
492.13	12079.50
492.30	12142.70
492.48	12210.57
492.66	12180.15
492.84	11983.54
493.01	12620.17
493.19	12479.74
493.37	12741.88
493.54	12489.10
493.72	13013.38
493.90	12716.13
494.08	12791.03
494.25	12938.48
494.43	13083.59
494.61	13160.83
494.79	13114.02
494.96	13191.26
495.14	13200.62
495.32	13338.71
495.49	13642.98
495.67	13666.39
495.85	13671.07
496.02	13509.57
496.20	13895.76
496.38	13923.85
496.55	13888.74
496.73	14115.77
496.91	13811.50
497.09	14228.12
497.26	14593.24
497.44	14141.52
497.62	14354.51
497.79	14672.82
497.97	14429.40
498.14	14445.79
498.32	14918.57
498.50	14792.19
498.67	14860.06
498.85	14951.34
499.03	14843.68
499.20	14827.29
499.38	15014.54
499.56	15276.68
499.73	14956.02
499.91	15307.10
500.08	15328.17
500.26	14991.13
500.44	15466.26
500.61	15302.42
500.79	15412.43
500.97	15250.93
501.14	15536.48
501.32	15632.44
501.49	15850.11
501.67	15578.61
501.84	15786.91
502.02	15660.52
502.20	15936.71
502.37	16121.61
502.55	15920.32
502.72	15985.86
502.90	16152.04
503.07	16095.86
503.25	16304.17
503.43	16320.56
503.60	16411.84
503.78	16346.30
503.95	16407.16
504.13	16774.62
504.30	16566.31
504.48	16367.37
504.65	16805.05
504.83	16898.67
505.01	17043.78
505.18	17076.55
505.36	16896.33
505.53	16933.78
505.71	17022.72
505.88	17022.72
506.06	16971.22
506.23	17064.85
506.41	16910.37
506.58	17139.74
506.76	17130.38
506.93	17493.16
507.11	17352.73
507.28	17638.28
507.46	17366.78
507.63	17563.38
507.81	17465.08
507.98	17432.31
508.16	17729.56
508.33	17708.49
508.50	17792.75
508.68	17771.69
508.85	18097.02
509.03	18260.86
509.20	17930.84
509.38	18277.24
509.55	17956.59
509.73	18223.41
509.90	18225.75
510.08	18169.58
510.25	18373.21
510.42	18415.34
510.60	18581.51
510.77	18602.58
510.95	18572.15
511.12	18363.84
511.30	18532.36
511.47	18740.67
511.64	18855.36
511.82	19042.60
511.99	19058.98
512.17	18974.72
512.34	18923.23
512.51	18923.23
512.69	19000.47
512.86	19117.50
513.04	19346.87
513.21	19225.16
513.38	19133.88
513.56	19374.95
513.73	19171.33
513.90	19435.81
514.08	19363.25
514.25	19379.64
514.43	19681.56
514.60	19655.82
514.77	19435.81
514.95	19297.72
515.12	19606.67
515.29	19623.05
515.47	19889.87
515.64	20133.29
515.81	19861.79
515.99	20114.56
516.16	20397.77
516.33	20168.40
516.51	20327.55
516.68	20077.12
516.85	20250.32
517.03	20343.94
517.20	20247.97
517.37	20334.57
517.54	20538.20
517.72	20514.80
517.89	20294.79
518.06	20774.60
518.24	20477.35
518.41	20290.10
518.58	20299.47
518.75	20538.20
518.93	20847.15
519.10	20790.98
519.27	21013.33
519.45	20678.63
519.62	20849.49
519.79	21003.97
519.96	20709.06
520.14	21088.23
520.31	20996.95
520.48	21205.25
520.65	21284.83
520.83	21359.73
521.00	21233.34
521.17	21198.23
521.34	20889.28
521.52	21343.35
521.69	21490.80
521.86	21469.73
522.03	21369.09
522.20	21376.11
522.38	21685.06
522.55	21472.07
522.72	21687.40
522.89	21689.74
523.07	21771.66
523.24	21893.37
523.41	21979.97
523.58	21799.75
523.75	21977.63
523.92	22108.70
524.10	21771.66
524.27	22029.12
524.44	21923.80
524.61	22185.94
524.78	22249.13
524.96	22302.96
525.13	22045.51
525.30	22246.79
525.47	22384.88
525.64	22464.46
525.81	22459.78
525.98	22761.71
526.16	22696.17
526.33	22677.45
526.50	22738.30
526.67	22679.79
526.84	22799.16
527.01	22560.42
527.18	22546.38
527.36	22602.55
527.53	22864.69
527.70	23124.49
527.87	23152.58
528.04	22967.68
528.21	23396.00
528.38	22883.42
528.55	23192.37
528.72	22801.50
528.89	23110.45
529.07	23321.10
529.24	22855.33
529.41	23372.59
529.58	23150.24
529.75	23133.86
529.92	22981.72
530.09	23517.70
530.26	23290.67
530.43	23452.17
530.60	23295.35
530.77	23461.53
530.94	23506.00
531.11	23644.09
531.28	23810.27
531.46	23576.22
531.63	23939.00
531.80	24137.94
531.97	23819.63
532.14	23800.91
532.31	23831.33
532.48	23857.08
532.65	24144.97
532.82	23936.66
532.99	23948.36
533.16	23896.87
533.33	24215.18
533.50	24484.34
533.67	24353.27
533.84	23831.33
534.01	24257.31
534.18	23960.06
534.35	24240.93
534.52	24531.15
534.69	24552.22
534.86	24437.53
535.03	24243.27
535.20	24446.90
535.37	24276.04
535.54	24961.81
535.71	24514.77
535.88	24435.19
536.05	24596.69
536.22	24854.15
536.38	24711.38
536.55	24589.67
536.72	24802.66
536.89	24322.85
537.06	24474.98
537.23	24844.79
537.40	24360.30
537.57	25329.28
537.74	24821.38
537.91	24915.00
538.08	25446.30
538.25	24725.42
538.42	25017.99
538.59	25071.82
538.75	24994.58
538.92	25130.33
539.09	24933.73
539.26	25380.77
539.43	25549.29
539.60	25198.21
539.77	25088.20
539.94	25504.82
540.11	25273.10
540.28	25247.36
540.44	25357.36
540.61	25310.55
540.78	25427.58
540.95	25441.62
541.12	25352.68
541.29	25687.38
541.46	25633.55
541.62	25523.54
541.79	25577.37
541.96	25603.12
542.13	25795.04
542.30	25565.67
542.47	26270.17
542.63	26015.05
542.80	25535.24
542.97	25867.60
543.14	26155.49
543.31	26078.25
543.48	25888.67
543.64	26387.20
543.81	26417.63
543.98	26595.51
544.15	25881.64
544.32	26445.71
544.48	26775.73
544.65	26391.88
544.82	26492.52
544.99	26174.21
545.16	26534.65
545.32	26089.95
545.49	26551.04
545.66	26822.54
545.83	26567.42
546.00	26773.39
546.16	26396.56
546.33	26305.28
546.50	26356.77
546.67	26635.30
546.83	26590.83
547.00	26572.10
547.17	26551.04
547.34	26335.71
547.50	27115.11
547.67	27058.93
547.84	26670.40
548.00	26927.86
548.17	27140.85
548.34	26817.86
548.51	27009.78
548.67	26899.78
548.84	26883.39
549.01	27014.46
549.18	26602.53
549.34	26902.12
549.51	27063.61
549.68	27014.46
549.84	27161.92
550.01	26759.34
550.18	27143.19
550.34	26948.93
550.51	27367.88
550.68	27353.84
550.84	26815.52
551.01	27222.77
551.18	26749.98
551.34	27117.45
551.51	27388.95
551.68	27332.78
551.84	27604.28
552.01	27740.03
552.18	27325.75
552.34	27431.08
552.51	27494.27
552.68	27007.44
552.84	27325.75
553.01	27505.98
553.18	27311.71
553.34	27882.80
553.51	27763.43
553.67	27866.42
553.84	27845.35
554.01	27775.14
554.17	27957.70
554.34	27604.28
554.51	27473.21
554.67	27950.68
554.84	27730.67
555.00	27709.60
555.17	27793.86
555.33	27873.44
555.50	28166.01
555.67	28039.62
555.83	27910.89
556.00	28060.68
556.16	28261.97
556.33	28142.60
556.50	27587.89
556.66	28137.92
556.83	28189.41
556.99	28552.20
557.16	28048.98
557.32	28304.10
557.49	28140.26
557.65	27845.35
557.82	28011.53
557.98	28166.01
558.15	28397.72
558.32	28123.88
558.48	28290.06
558.65	28446.87
558.81	28144.94
558.98	28446.87
559.14	28175.37
559.31	28254.95
559.47	28315.80
559.64	28313.46
559.80	28315.80
559.97	28374.31
560.13	28224.52
560.30	28638.80
560.46	28676.24
560.63	28634.11
560.79	28828.38
560.96	28339.21
561.12	28254.95
561.29	28074.73
561.45	28444.53
561.61	28683.27
561.78	28748.80
561.94	28875.19
562.11	28783.91
562.27	28737.10
562.44	28423.47
562.60	28671.56
562.77	28428.15
562.93	28959.45
563.10	28898.59
563.26	28851.78
563.42	29170.10
563.59	28781.57
563.75	28748.80
563.92	29174.78
564.08	28704.33
564.24	28608.37
564.41	29099.88
564.57	28662.20
564.74	28701.99
564.90	28964.13
565.07	29039.03
565.23	28734.76
565.39	28849.44
565.56	28929.02
565.72	28725.39
565.88	29088.18
566.05	28673.90
566.21	29226.27
566.38	28929.02
566.54	29408.83
566.70	29160.73
566.87	28802.63
567.03	28704.33
567.19	28945.41
567.36	29029.66
567.52	29184.14
567.68	29181.80
567.85	28849.44
568.01	28992.22
568.17	28905.62
568.34	29010.94
568.50	29397.13
568.66	29181.80
568.83	29254.36
568.99	29186.48
569.15	29277.76
569.32	29338.62
569.48	29158.39
569.64	29181.80
569.81	28669.22
569.97	29193.50
570.13	29193.50
570.30	29111.58
570.46	29612.46
570.62	29247.33
570.78	29244.99
570.95	28603.69
571.11	29347.98
571.27	29060.09
571.43	29207.55
571.60	29134.99
571.76	29457.98
571.92	28978.17
572.09	29326.91
572.25	29355.00
572.41	29209.89
572.57	29446.28
572.74	29553.94
572.90	29127.97
573.06	29027.32
573.22	29558.63
573.38	29369.04
573.55	29326.91
573.71	29345.64
573.87	29652.25
574.03	29280.10
574.20	29376.06
574.36	29160.73
574.52	29338.62
574.68	29275.42
574.84	29240.31
575.01	29441.60
575.17	29521.18
575.33	29411.17
575.49	29390.11
575.65	29551.60
575.82	29439.26
575.98	29556.28
576.14	29369.04
576.30	29298.83
576.46	29642.88
576.62	29577.35
576.79	29509.47
576.95	29331.59
577.11	29720.12
577.27	29570.33
577.43	29385.43
577.59	29076.48
577.75	29457.98
577.92	29298.83
578.08	29146.69
578.24	29497.77
578.40	29228.61
578.56	29425.22
578.72	29315.21
578.88	29757.57
579.04	29940.13
579.21	29413.51
579.37	29799.70
579.53	29453.30
579.69	29493.09
579.85	29287.12
580.01	29312.87
580.17	29450.96
580.33	29263.72
580.49	29584.37
580.65	29670.97
580.82	29851.19
580.98	29682.67
581.14	29465.00
581.30	29624.16
581.46	29394.79
581.62	29340.96
581.78	29216.91
581.94	29598.41
582.10	29654.59
582.26	29205.20
582.42	29626.50
582.58	29727.14
582.74	30148.44
582.90	29677.99
583.06	29642.88
583.22	29399.47
583.38	29556.28
583.54	29549.26
583.70	29453.30
583.86	29944.81
584.02	29436.92
584.18	29624.16
584.34	29635.86
584.50	29928.43
584.66	29575.01
584.82	29289.46
584.98	29795.02
585.14	29820.77
585.30	29401.81
585.46	29347.98
585.62	29390.11
585.78	30057.16
585.94	29717.78
586.10	29549.26
586.26	29710.76
586.42	29778.64
586.58	29818.42
586.74	29628.84
586.90	30005.67
587.06	29268.40
587.22	29544.58
587.38	29872.26
587.54	29984.60
587.70	29757.57
587.86	29949.50
588.02	29921.41
588.18	29942.47
588.34	29694.38
588.49	29586.71
588.65	29792.68
588.81	29860.55
588.97	29818.42
589.13	29851.19
589.29	29607.78
589.45	30061.84
589.61	29933.11
589.77	29834.81
589.93	30270.15
590.08	29827.79
590.24	29977.58
590.40	30101.63
590.56	30094.61
590.72	29865.24
590.88	29649.91
591.04	29949.50
591.20	30293.55
591.35	30312.28
591.51	30443.35
591.67	30019.71
591.83	30415.26
591.99	30307.60
