SpectraSuite Data File
++++++++++++++++++++++++++++++++++++
Date: Fri Oct 18 13:58:18 GMT-05:00 2013
User: bianchi
Dark Spectrum Present: No
Reference Spectrum Present: No
Number of Sampled Component Spectra: 1
Spectrometers: USB2+H05261
Integration Time (usec): 50000 (USB2+H05261)
Spectra Averaged: 1 (USB2+H05261)
Boxcar Smoothing: 0 (USB2+H05261)
Correct for Electrical Dark: No (USB2+H05261)
Strobe/Lamp Enabled: No (USB2+H05261)
Correct for Detector Non-linearity: No (USB2+H05261)
Correct for Stray Light: No (USB2+H05261)
Number of Pixels in Processed Spectrum: 2048
>>>>>Begin Processed Spectral Data<<<<<
365.73	0.00
365.92	0.00
366.12	0.00
366.32	0.00
366.52	0.00
366.72	0.00
366.91	0.00
367.11	0.00
367.31	0.00
367.51	0.00
367.70	0.00
367.90	0.00
368.10	0.00
368.30	0.00
368.49	0.00
368.69	0.00
368.89	0.00
369.09	0.00
369.28	0.00
369.48	0.00
369.68	0.00
369.87	0.00
370.07	0.00
370.27	0.00
370.47	0.00
370.66	70.22
370.86	133.41
371.06	95.96
371.25	63.19
371.45	173.20
371.65	187.24
371.84	161.50
372.04	182.56
372.24	156.82
372.44	161.50
372.63	142.77
372.83	210.65
373.03	175.54
373.22	133.41
373.42	203.63
373.62	126.39
373.81	175.54
374.01	273.84
374.21	205.97
374.40	238.73
374.60	304.27
374.79	191.92
374.99	322.99
375.19	248.10
375.38	227.03
375.58	224.69
375.78	290.23
375.97	231.71
376.17	255.12
376.37	346.40
376.56	294.91
376.76	231.71
376.95	250.44
377.15	278.52
377.35	280.86
377.54	215.33
377.74	283.20
377.93	175.54
378.13	308.95
378.33	290.23
378.52	266.82
378.72	290.23
378.91	292.57
379.11	297.25
379.31	271.50
379.50	287.89
379.70	271.50
379.89	306.61
380.09	355.76
380.28	313.63
380.48	332.36
380.68	278.52
380.87	369.80
381.07	320.65
381.26	346.40
381.46	297.25
381.65	294.91
381.85	339.38
382.04	404.91
382.24	313.63
382.43	271.50
382.63	358.10
382.83	311.29
383.02	285.55
383.22	423.64
383.41	322.99
383.61	327.68
383.80	416.62
384.00	400.23
384.19	358.10
384.39	322.99
384.58	313.63
384.78	292.57
384.97	332.36
385.17	358.10
385.36	393.21
385.56	390.87
385.75	409.59
385.95	395.55
386.14	379.17
386.34	348.74
386.53	418.96
386.72	358.10
386.92	372.15
387.11	465.77
387.31	484.49
387.50	435.34
387.70	400.23
387.89	451.72
388.09	472.79
388.28	397.89
388.48	440.02
388.67	430.66
388.86	503.22
389.06	496.19
389.25	425.98
389.45	407.25
389.64	510.24
389.84	535.98
390.03	486.83
390.22	400.23
390.42	421.30
390.61	489.17
390.81	465.77
391.00	578.11
391.19	559.39
391.39	484.49
391.58	517.26
391.78	514.92
391.97	547.69
392.16	484.49
392.36	524.28
392.55	421.30
392.75	550.03
392.94	500.87
393.13	552.37
393.33	596.84
393.52	582.79
393.71	627.26
393.91	540.66
394.10	552.37
394.29	578.11
394.49	650.67
394.68	571.09
394.88	594.50
395.07	601.52
395.26	571.09
395.46	655.35
395.65	645.99
395.84	601.52
396.04	613.22
396.23	685.78
396.42	662.37
396.62	566.41
396.81	627.26
397.00	622.58
397.19	641.31
397.39	650.67
397.58	655.35
397.77	653.01
397.97	594.50
398.16	704.50
398.35	683.44
398.55	716.20
398.74	699.82
398.93	772.38
399.12	627.26
399.32	678.76
399.51	772.38
399.70	744.29
399.90	636.63
400.09	812.17
400.28	737.27
400.47	786.42
400.67	842.59
400.86	807.48
401.05	690.46
401.24	807.48
401.44	788.76
401.63	784.08
401.82	821.53
402.01	877.70
402.21	798.12
402.40	807.48
402.59	856.64
402.78	779.40
402.97	795.78
403.17	823.87
403.36	800.46
403.55	898.77
403.74	868.34
403.93	940.90
404.13	917.49
404.32	849.61
404.51	821.53
404.70	987.71
404.89	945.58
405.09	994.73
405.28	959.62
405.47	947.92
405.66	1078.99
405.85	978.34
406.05	1004.09
406.24	1039.20
406.43	957.28
406.62	1088.35
406.81	1076.65
407.00	1001.75
407.20	1015.79
407.39	1048.56
407.58	1036.86
407.77	1081.33
407.96	1109.41
408.15	1151.54
408.34	1074.31
408.54	1086.01
408.73	1064.94
408.92	1128.14
409.11	1090.69
409.30	1083.67
409.49	1184.31
409.68	1086.01
409.87	1233.46
410.07	1165.59
410.26	1121.12
410.45	1160.91
410.64	1172.61
410.83	1177.29
411.02	1207.72
411.21	1224.10
411.40	1224.10
411.59	1191.33
411.78	1256.87
411.98	1221.76
412.17	1378.58
412.36	1310.70
412.55	1394.96
412.74	1280.27
412.93	1369.21
413.12	1359.85
413.31	1350.49
413.50	1369.21
413.69	1462.83
413.88	1334.11
414.07	1488.58
414.26	1418.36
414.45	1444.11
414.64	1476.88
414.83	1511.99
415.02	1523.69
415.22	1586.88
415.41	1462.83
415.60	1582.20
415.79	1600.93
415.98	1495.60
416.17	1572.84
416.36	1610.29
416.55	1619.65
416.74	1657.10
416.93	1671.14
417.12	1654.76
417.31	1715.61
417.50	1727.32
417.69	1675.82
417.88	1748.38
418.07	1792.85
418.26	1811.57
418.45	1783.49
418.64	1799.87
418.83	1846.68
419.02	1865.41
419.21	1874.77
419.39	1753.06
419.58	1743.70
419.77	1877.11
419.96	1820.94
420.15	1839.66
420.34	1832.64
420.53	1809.23
420.72	2031.58
420.91	1940.30
421.10	1923.92
421.29	1867.75
421.48	1984.77
421.67	2033.93
421.86	1888.81
422.05	2071.37
422.24	1905.20
422.43	1980.09
422.61	1984.77
422.80	2038.61
422.99	2040.95
423.18	2073.71
423.37	2115.84
423.56	2022.22
423.75	1998.82
423.94	2118.18
424.13	1923.92
424.32	1846.68
424.50	2160.31
424.69	2071.37
424.88	1956.69
425.07	2033.93
425.26	1982.43
425.45	1996.48
425.64	2026.90
425.83	1987.11
426.01	2010.52
426.20	2003.50
426.39	2078.40
426.58	2092.44
426.77	1996.48
426.96	2122.87
427.15	2026.90
427.33	2101.80
427.52	2043.29
427.71	2094.78
427.90	2108.82
428.09	2193.08
428.28	2195.42
428.46	2202.44
428.65	2139.25
428.84	2190.74
429.03	2223.51
429.22	2115.84
429.40	2282.02
429.59	2298.41
429.78	2193.08
429.97	2127.55
430.16	2237.55
430.34	2214.15
430.53	2326.49
430.72	2368.62
430.91	2211.81
431.10	2387.35
431.28	2307.77
431.47	2265.64
431.66	2298.41
431.85	2396.71
432.03	2490.33
432.22	2520.76
432.41	2319.47
432.60	2483.31
432.79	2382.67
432.97	2455.22
433.16	2385.01
433.35	2429.48
433.54	2385.01
433.72	2544.16
433.91	2478.63
434.10	2530.12
434.28	2593.31
434.47	2534.80
434.66	2530.12
434.85	2520.76
435.03	2621.40
435.22	2595.65
435.41	2743.11
435.59	2633.10
435.78	2637.78
435.97	2642.46
436.16	2609.70
436.34	2626.08
436.53	2750.13
436.72	2677.57
436.90	2560.55
437.09	2703.32
437.28	2724.38
437.46	2747.79
437.65	2679.91
437.84	2792.26
438.02	2794.60
438.21	2862.48
438.40	2857.79
438.58	2895.24
438.77	2810.98
438.96	2841.41
439.14	2836.73
439.33	2906.95
439.52	3084.83
439.70	2993.55
439.89	2974.82
440.08	3033.33
440.26	3063.76
440.45	3054.40
440.63	3115.25
440.82	3066.10
441.01	3068.44
441.19	3157.38
441.38	3227.60
441.57	3304.84
441.75	3276.75
441.94	3084.83
442.12	3234.62
442.31	3335.26
442.50	3379.73
442.68	3286.11
442.87	3286.11
443.05	3356.33
443.24	3353.99
443.43	3335.26
443.61	3363.35
443.80	3611.45
443.98	3438.25
444.17	3197.17
444.35	3382.07
444.54	3356.33
444.73	3363.35
444.91	3386.76
445.10	3517.83
445.28	3433.57
445.47	3382.07
445.65	3522.51
445.84	3393.78
446.02	3515.48
446.21	3595.06
446.39	3513.14
446.58	3653.58
446.77	3531.87
446.95	3522.51
447.14	3534.21
447.32	3529.53
447.51	3454.63
447.69	3445.27
447.88	3564.64
448.06	3487.40
448.25	3435.91
448.43	3616.13
448.62	3433.57
448.80	3435.91
448.99	3485.06
449.17	3728.47
449.36	3686.34
449.54	3599.74
449.73	3709.75
449.91	3709.75
450.10	3667.62
450.28	3726.13
450.46	3707.41
450.65	3597.40
450.83	3660.60
451.02	3801.03
451.20	3819.75
451.39	3742.52
451.57	3737.84
451.76	3885.29
451.94	3744.86
452.13	3889.97
452.31	3758.90
452.49	3681.66
452.68	3967.21
452.86	3861.88
453.05	3749.54
453.23	3899.33
453.42	3875.93
453.60	3899.33
453.78	3840.82
453.97	3889.97
454.15	3892.31
454.34	3885.29
454.52	4067.85
454.70	4018.70
454.89	4030.40
455.07	4046.79
455.26	4035.08
455.44	4159.13
455.62	4086.58
455.81	4107.64
455.99	4093.60
456.17	4234.03
456.36	4184.88
456.54	4177.86
456.73	4262.12
456.91	4390.84
457.09	4386.16
457.28	4388.50
457.46	4217.65
457.64	4245.73
457.83	4301.90
458.01	4266.80
458.19	4269.14
458.38	4294.88
458.56	4238.71
458.74	4418.93
458.93	4334.67
459.11	4484.47
459.29	4334.67
459.48	4461.06
459.66	4610.86
459.84	4498.51
460.03	4592.13
460.21	4489.15
460.39	4608.51
460.57	4489.15
460.76	4692.77
460.94	4601.49
461.12	4608.51
461.31	4468.08
461.49	4472.76
461.67	4500.85
461.85	4688.09
462.04	4554.68
462.22	4847.25
462.40	4650.64
462.59	4631.92
462.77	4844.91
462.95	4826.18
463.13	4807.46
463.32	4809.80
463.50	4805.12
463.68	4814.48
463.86	4835.55
464.05	4814.48
464.23	4858.95
464.41	4901.08
464.59	4889.38
464.78	4940.87
464.96	4997.04
465.14	4997.04
465.32	4894.06
465.50	4994.70
465.69	4947.89
465.87	4875.34
466.05	5090.67
466.23	4849.59
466.41	5004.07
466.60	5303.65
466.78	4903.42
466.96	5027.47
467.14	5048.54
467.32	5240.46
467.51	5123.43
467.69	5083.64
467.87	5111.73
468.05	5069.60
468.23	5146.84
468.41	5013.43
468.60	5195.99
468.78	5210.03
468.96	5266.21
469.14	5294.29
469.32	5193.65
469.50	5184.29
469.69	5383.23
469.87	5432.38
470.05	5425.36
470.23	5474.51
470.41	5416.00
470.59	5423.02
470.77	5448.77
470.95	5430.04
471.14	5619.63
471.32	5493.24
471.50	5661.76
471.68	5593.88
471.86	5556.43
472.04	5654.73
472.22	5703.89
472.40	5448.77
472.58	5846.66
472.77	5640.69
472.95	5909.85
473.13	5881.77
473.31	5612.60
473.49	5867.72
473.67	5886.45
473.85	5884.11
474.03	5916.87
474.21	6010.50
474.39	6008.16
474.57	5994.11
474.75	6076.03
474.93	6078.37
475.12	6193.06
475.30	6176.67
475.48	6132.20
475.66	6272.64
475.84	6258.59
476.02	6403.71
476.20	6363.92
476.38	6502.01
476.56	6548.82
476.74	6476.26
476.92	6534.78
477.10	6438.81
477.28	6684.57
477.46	6569.88
477.64	6623.72
477.82	6630.74
478.00	6768.83
478.18	6871.81
478.36	6729.04
478.54	6974.80
478.72	7115.23
478.90	7122.25
479.08	7183.10
479.26	7269.70
479.44	7222.89
479.62	7171.40
479.80	7368.01
479.98	7417.16
480.16	7630.15
480.34	7637.17
480.52	7609.08
480.70	7744.83
480.88	7487.37
481.06	7618.44
481.24	7751.85
481.41	7613.76
481.59	7927.39
481.77	8102.93
481.95	8013.99
482.13	8128.68
482.31	8002.29
482.49	8264.43
482.67	8245.71
482.85	8444.65
483.03	8648.28
483.21	8608.49
483.39	8489.12
483.57	8547.64
483.74	8758.28
483.92	8741.90
484.10	8599.13
484.28	8713.81
484.46	9034.47
484.64	9076.60
484.82	9114.05
485.00	9013.40
485.18	9163.20
485.35	9317.67
485.53	9661.73
485.71	9430.02
485.89	9570.45
486.07	9603.22
486.25	9376.19
486.43	9619.60
486.61	9699.18
486.78	9720.24
486.96	10017.49
487.14	9963.66
487.32	9827.91
487.50	10080.69
487.68	10010.47
487.85	10384.96
488.03	10300.70
488.21	10574.54
488.39	10637.73
488.57	10633.05
488.75	10581.56
488.92	10731.36
489.10	10906.90
489.28	10780.51
489.46	11016.90
489.64	11019.24
489.81	11236.91
489.99	11225.21
490.17	11356.28
490.35	11489.69
490.53	11623.10
490.70	11550.54
490.88	11620.76
491.06	11676.93
491.24	11665.23
491.41	11625.44
491.59	11730.76
491.77	11880.56
491.95	12105.25
492.13	12152.06
492.30	12166.10
492.48	12278.45
492.66	12404.84
492.84	12414.20
493.01	12482.08
493.19	12500.80
493.37	12601.44
493.54	12578.04
493.72	12699.75
493.90	12634.21
494.08	12987.63
494.25	13231.05
494.43	13102.32
494.61	13172.54
494.79	13453.40
494.96	13303.60
495.14	13296.58
495.32	13432.33
495.49	13570.43
495.67	13511.91
495.85	13757.67
496.02	13734.26
496.20	13895.76
496.38	13977.68
496.55	13750.65
496.73	14295.99
496.91	14167.26
497.09	14059.60
497.26	14314.72
497.44	14061.94
497.62	14246.84
497.79	14342.80
497.97	14504.30
498.14	14459.83
498.32	14967.73
498.50	14761.76
498.67	14892.83
498.85	14642.39
499.03	15096.46
499.20	15080.07
499.38	15117.52
499.56	15143.27
499.73	15220.50
499.91	15346.89
500.08	15510.73
500.26	15103.48
500.44	15159.65
500.61	15192.42
500.79	15358.60
500.97	15492.01
501.14	15932.03
501.32	15871.17
501.49	15695.63
501.67	15730.74
501.84	15730.74
502.02	16027.99
502.20	15906.28
502.37	16177.78
502.55	16201.19
502.72	16009.26
502.90	16109.91
503.07	15824.36
503.25	16255.02
503.43	16189.49
503.60	16334.60
503.78	16489.07
503.95	16535.88
504.13	16538.23
504.30	16360.34
504.48	16423.54
504.65	16786.32
504.83	16898.67
505.01	16966.54
505.18	16814.41
505.36	16959.52
505.53	17111.66
505.71	17114.00
505.88	17027.40
506.06	16996.97
506.23	17074.21
506.41	17483.80
506.58	17338.69
506.76	17422.95
506.93	17741.26
507.11	17228.68
507.28	17355.07
507.46	17259.11
507.63	17514.23
507.81	17673.39
507.98	17764.67
508.16	18087.66
508.33	17516.57
508.50	18059.57
508.68	17832.54
508.85	17846.58
509.03	17699.13
509.20	18125.11
509.38	18160.22
509.55	18036.17
509.73	18178.94
509.90	18504.28
510.08	18328.74
510.25	18302.99
510.42	18752.37
510.60	18785.14
510.77	18703.22
510.95	18782.80
511.12	18618.96
511.30	18597.90
511.47	18897.49
511.64	18721.95
511.82	19014.51
511.99	18738.33
512.17	19075.37
512.34	19103.45
512.51	19269.63
512.69	18902.17
512.86	19122.18
513.04	19325.80
513.21	19339.85
513.38	19564.54
513.56	19761.14
513.73	19192.39
513.90	19609.01
514.08	19648.80
514.25	19489.64
514.43	19819.66
514.60	19777.53
514.77	19826.68
514.95	20013.92
515.12	19857.10
515.29	19674.54
515.47	20044.35
515.64	19908.60
515.81	19894.55
515.99	20467.98
516.16	20255.00
516.33	20032.65
516.51	20081.80
516.68	19978.81
516.85	20245.63
517.03	20423.51
517.20	20219.89
517.37	20205.84
517.54	20460.96
517.72	20465.64
517.89	20561.61
518.06	20428.20
518.24	20645.87
518.41	20709.06
518.58	20769.91
518.75	20779.28
518.93	20985.24
519.10	21069.50
519.27	20996.95
519.45	20613.10
519.62	21090.57
519.79	20826.09
519.96	20999.29
520.14	21163.12
520.31	21001.63
520.48	21179.51
520.65	21083.55
520.83	21083.55
521.00	21209.93
521.17	21202.91
521.34	21298.88
521.52	21443.99
521.69	21682.72
521.86	21341.00
522.03	21544.63
522.20	21481.44
522.38	21715.49
522.55	21846.56
522.72	21696.77
522.89	22040.82
523.07	22104.02
523.24	21844.22
523.41	22274.88
523.58	21778.68
523.75	22455.10
523.92	22127.42
524.10	21905.07
524.27	22267.86
524.44	22534.68
524.61	22930.23
524.78	22148.49
524.96	22548.72
525.13	22668.09
525.30	22197.64
525.47	22429.35
525.64	22373.18
525.81	22780.43
525.98	22675.11
526.16	22476.16
526.33	22794.48
526.50	22991.08
526.67	22878.74
526.84	22504.25
527.01	22499.57
527.18	22993.42
527.36	22951.29
527.53	22757.03
527.70	23384.29
527.87	23065.98
528.04	22951.29
528.21	22998.10
528.38	23084.70
528.55	23101.09
528.72	22977.04
528.89	23309.40
529.07	23253.22
529.24	23517.70
529.41	23623.03
529.58	23585.58
529.75	23487.28
529.92	23435.78
530.09	23386.63
530.26	23456.85
530.43	23641.75
530.60	23536.43
530.77	23805.59
530.94	23632.39
531.11	23941.34
531.28	23239.18
531.46	23754.10
531.63	23686.22
531.80	23756.44
531.97	23826.65
532.14	24119.22
532.31	23908.57
532.48	23850.06
532.65	24240.93
532.82	24184.76
532.99	24425.83
533.16	23889.85
533.33	24086.45
533.50	24470.30
533.67	24704.35
533.84	24154.33
534.01	24489.03
534.18	24184.76
534.35	24407.11
534.52	24414.13
534.69	24280.72
534.86	24453.92
535.03	24592.01
535.20	24439.87
535.37	24407.11
535.54	24416.47
535.71	24629.46
535.88	24624.78
536.05	24812.02
536.22	24566.26
536.38	25060.12
536.55	24900.96
536.72	25071.82
536.89	24652.86
537.06	24683.29
537.23	24936.07
537.40	24779.25
537.57	24945.43
537.74	25142.03
537.91	25195.87
538.08	25008.62
538.25	24996.92
538.42	25205.23
538.59	25362.04
538.75	25254.38
538.92	25181.82
539.09	25184.16
539.26	25532.90
539.43	25273.10
539.60	25565.67
539.77	25411.20
539.94	25537.59
540.11	25317.57
540.28	25378.43
540.44	25773.98
540.61	25699.08
540.78	25607.80
540.95	25781.00
541.12	25518.86
541.29	25671.00
541.46	25947.18
541.62	25905.05
541.79	25682.70
541.96	25153.74
542.13	25659.29
542.30	26249.11
542.47	25844.20
542.63	26223.36
542.80	26244.43
542.97	26054.84
543.14	26590.83
543.31	26022.08
543.48	26206.98
543.64	26586.15
543.81	26202.30
543.98	26590.83
544.15	27140.85
544.32	26738.28
544.48	26410.60
544.65	26380.18
544.82	26223.36
544.99	26202.30
545.16	26602.53
545.32	26431.67
545.49	26682.11
545.66	26838.92
545.83	26885.73
546.00	26843.60
546.16	26668.06
546.33	26295.92
546.50	26167.19
546.67	26757.00
546.83	26569.76
547.00	27040.21
547.17	27077.66
547.34	26831.90
547.50	27222.77
547.67	27227.45
547.84	27002.76
548.00	27002.76
548.17	27131.49
548.34	26951.27
548.51	27154.90
548.67	27342.14
548.84	27295.33
549.01	27269.58
549.18	27096.38
549.34	27206.39
549.51	27529.38
549.68	26995.74
549.84	27012.12
550.01	27304.69
550.18	27393.63
550.34	27402.99
550.51	27285.97
550.68	27513.00
550.84	27260.22
551.01	27290.65
551.18	27351.50
551.34	27573.85
551.51	27466.19
551.68	27337.46
551.84	27765.78
552.01	27517.68
552.18	27850.03
552.34	27676.83
552.51	27316.39
552.68	27676.83
552.84	27318.73
553.01	27850.03
553.18	27852.38
553.34	27648.75
553.51	27721.30
553.67	28306.44
553.84	28395.38
554.01	28325.16
554.17	28109.83
554.34	27747.05
554.51	27700.24
554.67	27779.82
554.84	28238.56
555.00	28381.34
555.17	28236.22
555.33	28025.57
555.50	27838.33
555.67	28226.86
555.83	27793.86
556.00	27936.63
556.16	28151.96
556.33	28114.52
556.50	28240.90
556.66	28521.77
556.83	28283.03
556.99	28584.96
557.16	28294.74
557.32	28472.62
557.49	28453.89
557.65	28072.39
557.82	28531.13
557.98	28360.27
558.15	28383.68
558.32	28479.64
558.48	28285.37
558.65	28863.49
558.81	28720.71
558.98	28917.32
559.14	28678.58
559.31	28311.12
559.47	28528.79
559.64	28554.54
559.80	28460.91
559.97	28910.30
560.13	28671.56
560.30	28627.09
560.46	28629.43
560.63	28725.39
560.79	28718.37
560.96	28898.59
561.12	28709.01
561.29	28645.82
561.45	29069.45
561.61	29015.62
561.78	28423.47
561.94	28877.53
562.11	28856.46
562.27	28823.70
562.44	28828.38
562.60	28341.55
562.77	28723.05
562.93	28790.93
563.10	28907.96
563.26	28538.15
563.42	29081.16
563.59	28905.62
563.75	29315.21
563.92	29158.39
564.08	28673.90
564.24	28947.75
564.41	28943.06
564.57	28699.65
564.74	29020.30
564.90	29076.48
565.07	29380.74
565.23	28994.56
565.39	29179.46
565.56	29153.71
565.72	29202.86
565.88	28975.83
566.05	29277.76
566.21	29085.84
566.38	28940.72
566.54	29362.02
566.70	29362.02
566.87	29593.73
567.03	29130.31
567.19	29434.58
567.36	29034.35
567.52	29577.35
567.68	29202.86
567.85	29078.82
568.01	28987.53
568.17	29046.05
568.34	29429.90
568.50	29160.73
568.66	29137.33
568.83	29535.22
568.99	29256.70
569.15	29502.45
569.32	29207.55
569.48	29078.82
569.64	29179.46
569.81	29450.96
569.97	29427.56
570.13	29509.47
570.30	29715.44
570.46	29221.59
570.62	29443.94
570.78	29422.87
570.95	29394.79
571.11	29567.99
571.27	29193.50
571.43	29408.83
571.60	29567.99
571.76	29359.68
571.92	29500.11
572.09	29329.25
572.25	29415.85
572.41	29858.21
572.57	29715.44
572.74	29776.30
572.90	29247.33
573.06	29720.12
573.22	29474.37
573.38	29228.61
573.55	29518.84
573.71	29855.87
573.87	29469.69
574.03	29289.46
574.20	29448.62
574.36	29460.32
574.52	29546.92
574.68	29537.56
574.84	29539.90
575.01	29736.51
575.17	29472.03
575.33	29530.54
575.49	29352.66
575.65	30005.67
575.82	29677.99
575.98	29612.46
576.14	29961.20
576.30	29809.06
576.46	29589.05
576.62	29378.40
576.79	29113.92
576.95	29624.16
577.11	29940.13
577.27	29575.01
577.43	29642.88
577.59	29575.01
577.75	29816.08
577.92	29507.13
578.08	29762.25
578.24	29413.51
578.40	29614.80
578.56	29567.99
578.72	29603.10
578.88	30038.44
579.04	29802.04
579.21	29567.99
579.37	29734.17
579.53	29764.59
579.69	29628.84
579.85	29453.30
580.01	29846.51
580.17	29638.20
580.33	29750.55
580.49	30155.46
580.65	29750.55
580.82	30129.72
580.98	29848.85
581.14	29832.47
581.30	29816.08
581.46	29797.36
581.62	29514.16
581.78	29717.78
581.94	29544.58
582.10	29673.31
582.26	29926.09
582.42	30181.21
582.58	29675.65
582.74	29926.09
582.90	29993.97
583.06	29795.02
583.22	29818.42
583.38	29638.20
583.54	29919.07
583.70	29591.39
583.86	29537.56
584.02	29741.19
584.18	30113.33
584.34	29832.47
584.50	29905.02
584.66	29773.95
584.82	30031.41
584.98	29851.19
585.14	29844.17
585.30	29872.26
585.46	29886.30
585.62	29795.02
585.78	29766.93
585.94	29722.46
586.10	29965.88
586.26	29490.75
586.42	30221.00
586.58	30094.61
586.74	29940.13
586.90	29909.71
587.06	30010.35
587.22	29642.88
587.38	29860.55
587.54	30146.10
587.70	30267.81
587.86	30078.22
588.02	30064.18
588.18	29986.94
588.34	30602.50
588.49	30286.53
588.65	30036.09
588.81	30000.99
588.97	29825.45
589.13	30038.44
589.29	29797.36
589.45	29996.31
589.61	29986.94
589.77	30331.00
589.93	30408.24
590.08	30705.49
590.24	30827.20
590.40	30188.23
590.56	30244.40
590.72	30164.82
590.88	29951.84
591.04	30361.43
591.20	30195.25
591.35	30314.62
591.51	30562.72
591.67	30354.41
591.83	30433.99
591.99	30604.84
