SpectraSuite Data File
++++++++++++++++++++++++++++++++++++
Date: Fri Oct 18 13:58:03 GMT-05:00 2013
User: bianchi
Dark Spectrum Present: No
Reference Spectrum Present: No
Number of Sampled Component Spectra: 1
Spectrometers: USB2+H05261
Integration Time (usec): 50000 (USB2+H05261)
Spectra Averaged: 1 (USB2+H05261)
Boxcar Smoothing: 0 (USB2+H05261)
Correct for Electrical Dark: No (USB2+H05261)
Strobe/Lamp Enabled: No (USB2+H05261)
Correct for Detector Non-linearity: No (USB2+H05261)
Correct for Stray Light: No (USB2+H05261)
Number of Pixels in Processed Spectrum: 2048
>>>>>Begin Processed Spectral Data<<<<<
365.73	0.00
365.92	0.00
366.12	0.00
366.32	0.00
366.52	0.00
366.72	0.00
366.91	0.00
367.11	0.00
367.31	0.00
367.51	0.00
367.70	0.00
367.90	0.00
368.10	0.00
368.30	0.00
368.49	0.00
368.69	0.00
368.89	0.00
369.09	0.00
369.28	0.00
369.48	0.00
369.68	0.00
369.87	0.00
370.07	0.00
370.27	0.00
370.47	0.00
370.66	14.04
370.86	154.48
371.06	128.73
371.25	154.48
371.45	117.03
371.65	170.86
371.84	177.88
372.04	159.16
372.24	149.79
372.44	140.43
372.63	166.18
372.83	189.58
373.03	142.77
373.22	121.71
373.42	231.71
373.62	205.97
373.81	205.97
374.01	250.44
374.21	280.86
374.40	285.55
374.60	285.55
374.79	201.29
374.99	241.08
375.19	229.37
375.38	194.26
375.58	194.26
375.78	236.39
375.97	208.31
376.17	341.72
376.37	241.08
376.56	318.31
376.76	238.73
376.95	264.48
377.15	245.76
377.35	262.14
377.54	278.52
377.74	198.95
377.93	311.29
378.13	308.95
378.33	301.93
378.52	266.82
378.72	264.48
378.91	259.80
379.11	262.14
379.31	264.48
379.50	262.14
379.70	355.76
379.89	285.55
380.09	243.42
380.28	311.29
380.48	332.36
380.68	304.27
380.87	322.99
381.07	320.65
381.26	318.31
381.46	374.49
381.65	334.70
381.85	383.85
382.04	355.76
382.24	353.42
382.43	348.74
382.63	337.04
382.83	381.51
383.02	397.89
383.22	379.17
383.41	381.51
383.61	416.62
383.80	409.59
384.00	353.42
384.19	301.93
384.39	311.29
384.58	374.49
384.78	423.64
384.97	447.04
385.17	393.21
385.36	318.31
385.56	470.45
385.75	468.11
385.95	407.25
386.14	360.44
386.34	372.15
386.53	400.23
386.72	423.64
386.92	430.66
387.11	388.53
387.31	461.09
387.50	416.62
387.70	372.15
387.89	379.17
388.09	421.30
388.28	465.77
388.48	440.02
388.67	521.94
388.86	440.02
389.06	430.66
389.25	510.24
389.45	489.17
389.64	433.00
389.84	507.90
390.03	475.13
390.22	465.77
390.42	407.25
390.61	358.10
390.81	411.93
391.00	512.58
391.19	526.62
391.39	442.36
391.58	552.37
391.78	540.66
391.97	573.43
392.16	599.18
392.36	566.41
392.55	599.18
392.75	521.94
392.94	585.13
393.13	664.71
393.33	526.62
393.52	566.41
393.71	538.32
393.91	599.18
394.10	550.03
394.29	561.73
394.49	620.24
394.68	578.11
394.88	566.41
395.07	613.22
395.26	496.19
395.46	547.69
395.65	664.71
395.84	634.29
396.04	685.78
396.23	711.52
396.42	664.71
396.62	720.88
396.81	566.41
397.00	755.99
397.19	732.59
397.39	744.29
397.58	634.29
397.77	636.63
397.97	627.26
398.16	716.20
398.35	667.05
398.55	669.39
398.74	704.50
398.93	669.39
399.12	678.76
399.32	716.20
399.51	695.14
399.70	746.63
399.90	816.85
400.09	791.10
400.28	880.04
400.47	770.04
400.67	765.36
400.86	777.06
401.05	774.72
401.24	777.06
401.44	788.76
401.63	821.53
401.82	725.57
402.01	861.32
402.21	781.74
402.40	821.53
402.59	849.61
402.78	833.23
402.97	877.70
403.17	842.59
403.36	875.36
403.55	908.13
403.74	896.43
403.93	917.49
404.13	802.80
404.32	938.55
404.51	973.66
404.70	931.53
404.89	976.00
405.09	983.02
405.28	896.43
405.47	812.17
405.66	1006.43
405.85	990.05
406.05	1025.15
406.24	938.55
406.43	983.02
406.62	1034.52
406.81	1022.81
407.00	1029.84
407.20	1055.58
407.39	980.68
407.58	1025.15
407.77	1034.52
407.96	1088.35
408.15	1081.33
408.34	1083.67
408.54	1116.44
408.73	1083.67
408.92	1027.50
409.11	1165.59
409.30	1064.94
409.49	1102.39
409.68	1184.31
409.87	1137.50
410.07	1149.20
410.26	1125.80
410.45	1191.33
410.64	1198.35
410.83	1214.74
411.02	1254.53
411.21	1238.14
411.40	1219.42
411.59	1329.42
411.78	1179.63
411.98	1170.27
412.17	1261.55
412.36	1317.72
412.55	1383.26
412.74	1299.00
412.93	1343.47
413.12	1362.19
413.31	1504.96
413.50	1397.30
413.69	1455.81
413.88	1411.34
414.07	1430.07
414.26	1462.83
414.45	1441.77
414.64	1469.86
414.83	1582.20
415.02	1502.62
415.22	1526.03
415.41	1523.69
415.60	1521.35
415.79	1614.97
415.98	1654.76
416.17	1645.40
416.36	1638.38
416.55	1612.63
416.74	1614.97
416.93	1584.54
417.12	1755.40
417.31	1713.27
417.50	1689.87
417.69	1741.36
417.88	1600.93
418.07	1713.27
418.26	1680.50
418.45	1750.72
418.64	1678.16
418.83	1839.66
419.02	1778.81
419.21	1767.10
419.39	1811.57
419.58	1872.43
419.77	1743.70
419.96	1825.62
420.15	1795.19
420.34	1799.87
420.53	1827.96
420.72	1998.82
420.91	2017.54
421.10	1912.22
421.29	1900.52
421.48	1886.47
421.67	2031.58
421.86	2005.84
422.05	1940.30
422.24	2001.16
422.43	2045.63
422.61	2108.82
422.80	1982.43
422.99	2019.88
423.18	2005.84
423.37	2054.99
423.56	2001.16
423.75	2045.63
423.94	2003.50
424.13	1907.54
424.32	1919.24
424.50	2104.14
424.69	1968.39
424.88	2005.84
425.07	2064.35
425.26	2031.58
425.45	1968.39
425.64	1998.82
425.83	1989.46
426.01	2031.58
426.20	2092.44
426.39	2172.02
426.58	1977.75
426.77	1998.82
426.96	2078.40
427.15	2183.72
427.33	2069.03
427.52	2193.08
427.71	2129.89
427.90	2143.93
428.09	2214.15
428.28	2115.84
428.46	2228.19
428.65	2188.40
428.84	2223.51
429.03	2232.87
429.22	2258.62
429.40	2157.97
429.59	2239.89
429.78	2223.51
429.97	2218.83
430.16	2230.53
430.34	2352.24
430.53	2300.75
430.72	2267.98
430.91	2256.28
431.10	2317.13
431.28	2380.32
431.47	2298.41
431.66	2562.89
431.85	2321.81
432.03	2466.92
432.22	2487.99
432.41	2455.22
432.60	2551.18
432.79	2469.27
432.97	2523.10
433.16	2462.24
433.35	2607.36
433.54	2436.50
433.72	2595.65
433.91	2420.11
434.10	2572.25
434.28	2450.54
434.47	2436.50
434.66	2588.63
434.85	2602.68
435.03	2595.65
435.22	2590.97
435.41	2675.23
435.59	2586.29
435.78	2682.25
435.97	2593.31
436.16	2670.55
436.34	2715.02
436.53	2712.68
436.72	2780.56
436.90	2698.64
437.09	2691.62
437.28	2726.72
437.46	2799.28
437.65	2780.56
437.84	2810.98
438.02	2729.06
438.21	2881.20
438.40	2743.11
438.58	2881.20
438.77	2949.08
438.96	2935.03
439.14	3002.91
439.33	2906.95
439.52	2937.37
439.70	3138.66
439.89	3019.29
440.08	3035.67
440.26	3073.12
440.45	3077.80
440.63	3108.23
440.82	3178.45
441.01	3077.80
441.19	3258.03
441.38	3204.19
441.57	3155.04
441.75	3272.07
441.94	3208.87
442.12	3384.41
442.31	3384.41
442.50	3353.99
442.68	3241.64
442.87	3435.91
443.05	3361.01
443.24	3452.29
443.43	3433.57
443.61	3337.60
443.80	3536.55
443.98	3391.44
444.17	3283.77
444.35	3552.93
444.54	3403.14
444.73	3459.31
444.91	3410.16
445.10	3405.48
445.28	3318.88
445.47	3424.20
445.65	3419.52
445.84	3538.89
446.02	3564.64
446.21	3454.63
446.39	3421.86
446.58	3478.04
446.77	3548.25
446.95	3538.89
447.14	3433.57
447.32	3454.63
447.51	3468.67
447.69	3684.00
447.88	3543.57
448.06	3541.23
448.25	3389.10
448.43	3592.72
448.62	3527.19
448.80	3559.95
448.99	3688.68
449.17	3545.91
449.36	3693.37
449.54	3499.10
449.73	3822.09
449.91	3684.00
450.10	3880.61
450.28	3838.48
450.46	3707.41
450.65	3674.64
450.83	3777.62
451.02	3723.79
451.20	3761.24
451.39	3908.69
451.57	3761.24
451.76	3810.39
451.94	3714.43
452.13	3868.91
452.31	3866.56
452.49	3871.25
452.68	3997.64
452.86	3850.18
453.05	3824.44
453.23	3939.12
453.42	3934.44
453.60	3859.54
453.78	3946.14
453.97	3920.40
454.15	4002.32
454.34	3829.12
454.52	4023.38
454.70	3969.55
454.89	4044.45
455.07	4084.23
455.26	4098.28
455.44	3950.82
455.62	3997.64
455.81	4126.36
455.99	4102.96
456.17	4187.22
456.36	4180.20
456.54	4234.03
456.73	4299.56
456.91	4477.44
457.09	4257.43
457.28	4259.78
457.46	4337.01
457.64	4425.95
457.83	4318.29
458.01	4390.84
458.19	4390.84
458.38	4332.33
458.56	4362.76
458.74	4510.21
458.93	4437.66
459.11	4552.34
459.29	4432.97
459.48	4617.88
459.66	4470.42
459.84	4561.70
460.03	4580.43
460.21	4540.64
460.39	4496.17
460.57	4482.13
460.76	4683.41
460.94	4695.11
461.12	4657.67
461.31	4606.17
461.49	4592.13
461.67	4660.01
461.85	4741.93
462.04	4683.41
462.22	4994.70
462.40	4760.65
462.59	4814.48
462.77	4814.48
462.95	4877.68
463.13	4793.42
463.32	4807.46
463.50	4891.72
463.68	4847.25
463.86	4870.65
464.05	4842.57
464.23	4877.68
464.41	4940.87
464.59	5011.09
464.78	5018.11
464.96	4919.81
465.14	4685.75
465.32	4908.10
465.50	4961.94
465.69	4973.64
465.87	5076.62
466.05	5090.67
466.23	4940.87
466.41	5123.43
466.60	5263.86
466.78	5151.52
466.96	5034.49
467.14	5149.18
467.32	5203.01
467.51	5296.63
467.69	5130.45
467.87	5078.96
468.05	5245.14
468.23	5093.01
468.41	5228.76
468.60	5156.20
468.78	5366.85
468.96	5125.77
469.14	5301.31
469.32	5336.42
469.50	5214.71
469.69	5338.76
469.87	5481.53
470.05	5469.83
470.23	5327.06
470.41	5488.56
470.59	5617.29
470.77	5497.92
470.95	5593.88
471.14	5591.54
471.32	5542.39
471.50	5631.33
471.68	5596.22
471.86	5643.03
472.04	5731.97
472.22	5905.17
472.40	5624.31
472.58	5682.82
472.77	5762.40
472.95	5830.27
473.13	6015.18
473.31	5853.68
473.49	5834.96
473.67	5757.72
473.85	5895.81
474.03	6038.58
474.21	5839.64
474.39	6179.01
474.57	6083.05
474.75	6340.51
474.93	6267.95
475.12	6118.16
475.30	6286.68
475.48	6200.08
475.66	6307.74
475.84	6328.81
476.02	6274.98
476.20	6455.20
476.38	6511.37
476.56	6703.29
476.74	6560.52
476.92	6588.61
477.10	6670.53
477.28	6707.98
477.46	6616.69
477.64	6682.23
477.82	6759.47
478.00	6995.86
478.18	6981.82
478.36	6986.50
478.54	6988.84
478.72	7213.53
478.90	7253.32
479.08	7332.90
479.26	7281.41
479.44	7428.86
479.62	7375.03
479.80	7470.99
479.98	7555.25
480.16	7653.55
480.34	7496.74
480.52	7520.14
480.70	7719.09
480.88	7709.72
481.06	7803.35
481.24	7632.49
481.41	7840.79
481.59	7969.52
481.77	8145.06
481.95	8168.47
482.13	8390.82
482.31	8133.36
482.49	8287.84
482.67	8308.90
482.85	8425.93
483.03	8538.27
483.21	8755.94
483.39	8861.27
483.57	8627.21
483.74	8622.53
483.92	8842.54
484.10	8826.16
484.28	9135.11
484.46	9125.75
484.64	9214.69
484.82	9116.39
485.00	8997.02
485.18	9624.28
485.35	9432.36
485.53	9329.38
485.71	9408.95
485.89	9755.35
486.07	9591.52
486.25	9610.24
486.43	9795.14
486.61	9841.95
486.78	9984.73
486.96	10092.39
487.14	10019.83
487.32	10118.14
487.50	10214.10
487.68	10251.55
487.85	10457.51
488.03	10630.71
488.21	10509.01
488.39	10771.15
488.57	10619.01
488.75	10778.17
488.92	10801.57
489.10	10979.45
489.28	11218.19
489.46	11260.32
489.64	11152.65
489.81	11307.13
489.99	11365.64
490.17	11454.58
490.35	11634.80
490.53	11527.14
490.70	11960.14
490.88	11630.12
491.06	11929.71
491.24	11744.81
491.41	11793.96
491.59	12077.16
491.77	12060.78
491.95	12365.05
492.13	12255.04
492.30	12271.43
492.48	12404.84
492.66	12381.43
492.84	12482.08
493.01	12779.32
493.19	12772.30
493.37	12739.54
493.54	12807.41
493.72	13074.23
493.90	13116.36
494.08	13202.96
494.25	13350.42
494.43	13074.23
494.61	13327.01
494.79	13387.86
494.96	13497.87
495.14	13490.85
495.32	13579.79
495.49	13860.65
495.67	13816.18
495.85	13905.12
496.02	13855.97
496.20	14150.88
496.38	14195.35
496.55	14146.20
496.73	14307.69
496.91	14431.74
497.09	14162.58
497.26	14448.13
497.44	14036.19
497.62	14714.95
497.79	14595.58
497.97	14593.24
498.14	15026.24
498.32	14853.04
498.50	14993.47
498.67	15059.01
498.85	15126.88
499.03	15136.24
499.20	15122.20
499.38	15349.23
499.56	15325.83
499.73	15440.51
499.91	15735.42
500.08	15723.72
500.26	15571.58
500.44	15550.52
500.61	15545.84
500.79	15627.76
500.97	15861.81
501.14	15934.37
501.32	16332.26
501.49	16011.60
501.67	15995.22
501.84	15803.30
502.02	16013.95
502.20	16156.72
502.37	16259.70
502.55	16348.64
502.72	16245.66
502.90	16407.16
503.07	16325.24
503.25	16400.13
503.43	16566.31
503.60	16552.27
503.78	16664.61
503.95	16753.55
504.13	16566.31
504.30	16779.30
504.48	16615.46
504.65	16999.31
504.83	16851.86
505.01	17434.65
505.18	17011.01
505.36	17226.34
505.53	17252.09
505.71	17350.39
505.88	17261.45
506.06	16954.84
506.23	17441.67
506.41	17579.76
506.58	17547.00
506.76	17664.02
506.93	17551.68
507.11	17516.57
507.28	17900.42
507.46	17708.49
507.63	17827.86
507.81	17860.63
507.98	17839.56
508.16	17774.03
508.33	18106.38
508.50	18001.06
508.68	17905.10
508.85	18464.49
509.03	18160.22
509.20	18427.04
509.38	18677.48
509.55	18658.75
509.73	18691.52
509.90	18530.02
510.08	18656.41
510.25	18710.24
510.42	18925.57
510.60	18810.89
510.77	18801.52
510.95	19033.24
511.12	18764.07
511.30	18956.00
511.47	18738.33
511.64	18981.74
511.82	19157.28
511.99	19108.13
512.17	19145.58
512.34	19122.18
512.51	19456.87
512.69	19239.20
512.86	19714.33
513.04	19456.87
513.21	19768.16
513.38	19693.27
513.56	19517.73
513.73	19681.56
513.90	19669.86
514.08	19676.88
514.25	19721.35
514.43	19800.93
514.60	19978.81
514.77	20067.75
514.95	20285.42
515.12	19843.06
515.29	20402.45
515.47	19985.83
515.64	20116.90
515.81	20180.10
515.99	20273.72
516.16	20634.16
516.33	20563.95
516.51	20535.86
516.68	20350.96
516.85	20470.33
517.03	20767.57
517.20	20702.04
517.37	20297.13
517.54	20933.75
517.72	20847.15
517.89	20680.97
518.06	20985.24
518.24	20585.01
518.41	20844.81
518.58	20903.32
518.75	20774.60
518.93	20847.15
519.10	20992.26
519.27	20964.18
519.45	21106.95
519.62	20947.79
519.79	21064.82
519.96	21151.42
520.14	21603.14
520.31	21219.30
520.48	21687.40
520.65	21598.46
520.83	21514.20
521.00	21425.26
521.17	21497.82
521.34	21493.14
521.52	21664.00
521.69	21813.79
521.86	21891.03
522.03	22003.38
522.20	21729.53
522.38	22075.93
522.55	21762.30
522.72	22305.31
522.89	22162.53
523.07	22473.82
523.24	22260.84
523.41	22295.94
523.58	22312.33
523.75	22630.64
523.92	22134.45
524.10	22464.46
524.27	22445.74
524.44	22412.97
524.61	22530.00
524.78	22717.24
524.96	22661.07
525.13	23075.34
525.30	22700.86
525.47	22883.42
525.64	22902.14
525.81	22998.10
525.98	23161.94
526.16	23330.46
526.33	23222.80
526.50	23307.05
526.67	22923.21
526.84	22979.38
527.01	23129.17
527.18	22930.23
527.36	23143.22
527.53	23606.64
527.70	23559.83
527.87	23604.30
528.04	23468.55
528.21	23477.91
528.38	23321.10
528.55	23484.94
528.72	23459.19
528.89	24011.56
529.07	23548.13
529.24	23433.44
529.41	23704.95
529.58	23800.91
529.75	23580.90
529.92	23672.18
530.09	23470.89
530.26	24058.37
530.43	23852.40
530.60	23798.57
530.77	23887.51
530.94	23931.98
531.11	23843.04
531.28	23906.23
531.46	23976.45
531.63	23941.34
531.80	24182.42
531.97	24168.37
532.14	24290.08
532.31	24191.78
532.48	24334.55
532.65	24311.14
532.82	24339.23
532.99	24224.54
533.16	24353.27
533.33	24596.69
533.50	24753.51
533.67	24671.59
533.84	24049.00
534.01	24603.71
534.18	24421.15
534.35	24758.19
534.52	24570.94
534.69	24816.70
534.86	24657.54
535.03	25118.63
535.20	24753.51
535.37	24711.38
535.54	25163.10
535.71	25048.41
535.88	25092.88
536.05	25191.19
536.22	25230.98
536.38	25455.67
536.55	25322.26
536.72	25181.82
536.89	24863.51
537.06	25378.43
537.23	25165.44
537.40	25411.20
537.57	25153.74
537.74	25483.75
537.91	25254.38
538.08	25745.89
538.25	25439.28
538.42	25516.52
538.59	25486.09
538.75	25422.90
538.92	25514.18
539.09	25600.78
539.26	25509.50
539.43	25795.04
539.60	25745.89
539.77	25949.52
539.94	25940.16
540.11	25883.98
540.28	25579.71
540.44	26099.31
540.61	25975.27
540.78	25607.80
540.95	25886.32
541.12	26183.57
541.29	25970.58
541.46	26085.27
541.62	25532.90
541.79	25933.14
541.96	25919.09
542.13	25804.41
542.30	26436.35
542.47	26345.07
542.63	26391.88
542.80	26539.33
542.97	26492.52
543.14	26246.77
543.31	26799.13
543.48	26567.42
543.64	26738.28
543.81	26920.84
543.98	26555.72
544.15	27161.92
544.32	26874.03
544.48	26859.99
544.65	26726.58
544.82	26785.09
544.99	26445.71
545.16	26679.77
545.32	26700.83
545.49	27386.61
545.66	27138.51
545.83	27154.90
546.00	27276.60
546.16	26581.46
546.33	26930.20
546.50	26859.99
546.67	27033.19
546.83	26874.03
547.00	27105.74
547.17	26934.88
547.34	27255.54
547.50	27262.56
547.67	27487.25
547.84	27332.78
548.00	27557.47
548.17	27662.79
548.34	27599.60
548.51	27580.87
548.67	27566.83
548.84	27552.79
549.01	27372.57
549.18	27393.63
549.34	27632.36
549.51	27255.54
549.68	27623.00
549.84	27655.77
550.01	27700.24
550.18	27337.46
550.34	27655.77
550.51	27756.41
550.68	28149.62
550.84	27435.76
551.01	27896.85
551.18	27866.42
551.34	27763.43
551.51	27819.61
551.68	27971.74
551.84	28346.23
552.01	27983.44
552.18	28144.94
552.34	27985.79
552.51	27871.10
552.68	28151.96
552.84	27992.81
553.01	28168.35
553.18	28112.17
553.34	28144.94
553.51	28374.31
553.67	27962.38
553.84	28533.47
554.01	28442.19
554.17	28245.58
554.34	28568.58
554.51	28166.01
554.67	28397.72
554.84	28355.59
555.00	28348.57
555.17	28254.95
555.33	28079.41
555.50	28573.26
555.67	28772.21
555.83	28362.61
556.00	28526.45
556.16	28769.86
556.33	28364.95
556.50	28720.71
556.66	28685.61
556.83	28175.37
556.99	28910.30
557.16	28807.31
557.32	29151.37
557.49	28620.07
557.65	28339.21
557.82	28807.31
557.98	28566.24
558.15	28400.06
558.32	28919.66
558.48	28882.21
558.65	29177.12
558.81	28774.55
558.98	28858.81
559.14	29095.20
559.31	28594.32
559.47	29034.35
559.64	28823.70
559.80	28929.02
559.97	29174.78
560.13	29036.69
560.30	29003.92
560.46	29357.34
560.63	29006.26
560.79	29472.03
560.96	29092.86
561.12	29083.50
561.29	29425.22
561.45	28936.04
561.61	28994.56
561.78	29502.45
561.94	29174.78
562.11	29371.38
562.27	29333.93
562.44	28945.41
562.60	29380.74
562.77	29237.97
562.93	29022.64
563.10	29687.36
563.26	29074.13
563.42	29301.17
563.59	29284.78
563.75	29118.60
563.92	29598.41
564.08	29254.36
564.24	29607.78
564.41	29280.10
564.57	29268.40
564.74	29219.25
564.90	29387.77
565.07	29558.63
565.23	29085.84
565.39	29443.94
565.56	29514.16
565.72	29343.30
565.88	29514.16
566.05	29537.56
566.21	29570.33
566.38	29542.24
566.54	29282.44
566.70	29654.59
566.87	29645.23
567.03	29378.40
567.19	30188.23
567.36	29689.70
567.52	29617.14
567.68	29951.84
567.85	29755.23
568.01	29745.87
568.17	29666.29
568.34	29851.19
568.50	30125.04
568.66	29752.89
568.83	29605.44
568.99	29619.48
569.15	29551.60
569.32	29750.55
569.48	29570.33
569.64	29951.84
569.81	30010.35
569.97	29851.19
570.13	29991.62
570.30	29914.39
570.46	29991.62
570.62	29905.02
570.78	29834.81
570.95	29706.08
571.11	29928.43
571.27	29509.47
571.43	29582.03
571.60	30099.29
571.76	30073.54
571.92	29862.90
572.09	29963.54
572.25	29795.02
572.41	30373.13
572.57	30141.42
572.74	30033.75
572.90	29813.74
573.06	29912.05
573.22	29551.60
573.38	29818.42
573.55	29834.81
573.71	30045.46
573.87	30349.73
574.03	29809.06
574.20	29797.36
574.36	29443.94
574.52	29961.20
574.68	29715.44
574.84	30099.29
575.01	29886.30
575.17	30022.05
575.33	30019.71
575.49	30089.93
575.65	30244.40
575.82	30426.96
575.98	29883.96
576.14	30340.36
576.30	30108.65
576.46	29689.70
576.62	30061.84
576.79	30539.31
576.95	30096.95
577.11	30342.70
577.27	29919.07
577.43	29998.65
577.59	30148.44
577.75	30258.45
577.92	30143.76
578.08	29933.11
578.24	29883.96
578.40	29963.54
578.56	30305.26
578.72	30047.80
578.88	30267.81
579.04	30672.72
579.21	30319.30
579.37	30302.92
579.53	30033.75
579.69	29879.28
579.85	30178.87
580.01	30438.67
580.17	30232.70
580.33	30230.36
580.49	30527.61
580.65	30532.29
580.82	30216.32
580.98	30185.89
581.14	30272.49
581.30	30387.18
581.46	30225.68
581.62	30195.25
581.78	29848.85
581.94	29972.90
582.10	30347.39
582.26	30108.65
582.42	30277.17
582.58	30483.14
582.74	30246.74
582.90	30284.19
583.06	30246.74
583.22	30228.02
583.38	30363.77
583.54	30045.46
583.70	30174.19
583.86	30373.13
584.02	30359.09
584.18	30733.57
584.34	30171.85
584.50	30277.17
584.66	30237.38
584.82	30129.72
584.98	30398.88
585.14	30087.59
585.30	29422.87
585.46	30197.59
585.62	30068.86
585.78	30279.51
585.94	30206.95
586.10	30668.04
586.26	30323.98
586.42	30572.08
586.58	30616.55
586.74	30288.87
586.90	30373.13
587.06	30274.83
587.22	30333.34
587.38	30199.93
587.54	30307.60
587.70	30263.13
587.86	30300.58
588.02	30782.73
588.18	30621.23
588.34	30431.65
588.49	30419.94
588.65	30764.00
588.81	30555.69
588.97	30380.15
589.13	30174.19
589.29	30312.28
589.45	30061.84
589.61	30515.90
589.77	30827.20
589.93	30881.03
590.08	30719.53
590.24	30630.59
590.40	30597.82
590.56	30749.96
590.72	30548.67
590.88	30300.58
591.04	30286.53
591.20	30539.31
591.35	31023.80
591.51	31005.08
591.67	30534.63
591.83	31131.47
591.99	30848.26
