SpectraSuite Data File
++++++++++++++++++++++++++++++++++++
Date: Fri Oct 18 13:58:05 GMT-05:00 2013
User: bianchi
Dark Spectrum Present: No
Reference Spectrum Present: No
Number of Sampled Component Spectra: 1
Spectrometers: USB2+H05261
Integration Time (usec): 50000 (USB2+H05261)
Spectra Averaged: 1 (USB2+H05261)
Boxcar Smoothing: 0 (USB2+H05261)
Correct for Electrical Dark: No (USB2+H05261)
Strobe/Lamp Enabled: No (USB2+H05261)
Correct for Detector Non-linearity: No (USB2+H05261)
Correct for Stray Light: No (USB2+H05261)
Number of Pixels in Processed Spectrum: 2048
>>>>>Begin Processed Spectral Data<<<<<
365.73	0.00
365.92	0.00
366.12	0.00
366.32	0.00
366.52	0.00
366.72	0.00
366.91	0.00
367.11	0.00
367.31	0.00
367.51	0.00
367.70	0.00
367.90	0.00
368.10	0.00
368.30	0.00
368.49	0.00
368.69	0.00
368.89	0.00
369.09	0.00
369.28	0.00
369.48	0.00
369.68	0.00
369.87	0.00
370.07	0.00
370.27	0.00
370.47	0.00
370.66	98.30
370.86	95.96
371.06	138.09
371.25	112.35
371.45	126.39
371.65	163.84
371.84	196.60
372.04	133.41
372.24	121.71
372.44	182.56
372.63	238.73
372.83	208.31
373.03	180.22
373.22	278.52
373.42	203.63
373.62	231.71
373.81	205.97
374.01	227.03
374.21	297.25
374.40	269.16
374.60	299.59
374.79	290.23
374.99	299.59
375.19	264.48
375.38	248.10
375.58	215.33
375.78	315.97
375.97	285.55
376.17	308.95
376.37	306.61
376.56	269.16
376.76	292.57
376.95	273.84
377.15	248.10
377.35	287.89
377.54	217.67
377.74	266.82
377.93	276.18
378.13	234.05
378.33	311.29
378.52	283.20
378.72	241.08
378.91	245.76
379.11	278.52
379.31	231.71
379.50	276.18
379.70	306.61
379.89	278.52
380.09	215.33
380.28	266.82
380.48	294.91
380.68	313.63
380.87	348.74
381.07	332.36
381.26	248.10
381.46	299.59
381.65	390.87
381.85	332.36
382.04	346.40
382.24	421.30
382.43	290.23
382.63	306.61
382.83	241.08
383.02	386.19
383.22	400.23
383.41	308.95
383.61	390.87
383.80	409.59
384.00	369.80
384.19	362.78
384.39	409.59
384.58	397.89
384.78	468.11
384.97	430.66
385.17	407.25
385.36	444.70
385.56	330.02
385.75	360.44
385.95	430.66
386.14	409.59
386.34	416.62
386.53	369.80
386.72	400.23
386.92	449.38
387.11	447.04
387.31	444.70
387.50	435.34
387.70	486.83
387.89	416.62
388.09	461.09
388.28	475.13
388.48	545.34
388.67	442.36
388.86	580.45
389.06	486.83
389.25	418.96
389.45	440.02
389.64	449.38
389.84	463.43
390.03	423.64
390.22	533.64
390.42	496.19
390.61	503.22
390.81	461.09
391.00	484.49
391.19	571.09
391.39	489.17
391.58	486.83
391.78	519.60
391.97	491.51
392.16	601.52
392.36	566.41
392.55	636.63
392.75	622.58
392.94	594.50
393.13	615.56
393.33	557.05
393.52	585.13
393.71	601.52
393.91	603.86
394.10	535.98
394.29	547.69
394.49	550.03
394.68	629.60
394.88	610.88
395.07	653.01
395.26	606.20
395.46	613.22
395.65	716.20
395.84	638.97
396.04	653.01
396.23	636.63
396.42	655.35
396.62	641.31
396.81	664.71
397.00	711.52
397.19	723.23
397.39	667.05
397.58	688.12
397.77	718.54
397.97	753.65
398.16	674.07
398.35	706.84
398.55	727.91
398.74	711.52
398.93	695.14
399.12	760.67
399.32	669.39
399.51	709.18
399.70	781.74
399.90	718.54
400.09	727.91
400.28	821.53
400.47	755.99
400.67	861.32
400.86	866.00
401.05	770.04
401.24	753.65
401.44	894.08
401.63	727.91
401.82	833.23
402.01	791.10
402.21	919.83
402.40	854.30
402.59	870.68
402.78	840.25
402.97	898.77
403.17	903.45
403.36	915.15
403.55	919.83
403.74	983.02
403.93	891.74
404.13	924.51
404.32	882.38
404.51	985.37
404.70	961.96
404.89	950.26
405.09	926.85
405.28	856.64
405.47	1034.52
405.66	992.39
405.85	990.05
406.05	983.02
406.24	997.07
406.43	1053.24
406.62	1043.88
406.81	1064.94
407.00	1156.22
407.20	1041.54
407.39	1132.82
407.58	1116.44
407.77	1043.88
407.96	1043.88
408.15	1118.78
408.34	1107.07
408.54	1165.59
408.73	1224.10
408.92	1095.37
409.11	1050.90
409.30	1149.20
409.49	1188.99
409.68	1174.95
409.87	1226.44
410.07	1378.58
410.26	1299.00
410.45	1224.10
410.64	1245.16
410.83	1284.95
411.02	1280.27
411.21	1259.21
411.40	1287.29
411.59	1275.59
411.78	1282.61
411.98	1299.00
412.17	1284.95
412.36	1401.98
412.55	1338.79
412.74	1380.92
412.93	1411.34
413.12	1322.40
413.31	1495.60
413.50	1432.41
413.69	1614.97
413.88	1554.12
414.07	1427.73
414.26	1439.43
414.45	1458.15
414.64	1493.26
414.83	1610.29
415.02	1568.16
415.22	1563.48
415.41	1565.82
415.60	1554.12
415.79	1596.25
415.98	1666.46
416.17	1657.10
416.36	1746.04
416.55	1629.01
416.74	1671.14
416.93	1682.85
417.12	1673.48
417.31	1692.21
417.50	1703.91
417.69	1884.13
417.88	1785.83
418.07	1774.13
418.26	1771.79
418.45	1832.64
418.64	1827.96
418.83	1867.75
419.02	1811.57
419.21	1877.11
419.39	1921.58
419.58	1778.81
419.77	1785.83
419.96	1923.92
420.15	1834.98
420.34	1933.28
420.53	2019.88
420.72	1937.96
420.91	1987.11
421.10	1944.99
421.29	2005.84
421.48	1888.81
421.67	1987.11
421.86	2003.50
422.05	1912.22
422.24	1900.52
422.43	2026.90
422.61	2022.22
422.80	2064.35
422.99	1959.03
423.18	2047.97
423.37	2101.80
423.56	2050.31
423.75	2059.67
423.94	2057.33
424.13	1879.45
424.32	1975.41
424.50	2134.57
424.69	2181.38
424.88	2080.74
425.07	2167.34
425.26	1947.33
425.45	2017.54
425.64	2120.53
425.83	2047.97
426.01	2083.08
426.20	1984.77
426.39	2083.08
426.58	2115.84
426.77	2066.69
426.96	2225.85
427.15	2136.91
427.33	2073.71
427.52	2143.93
427.71	2172.02
427.90	2235.21
428.09	2202.44
428.28	2172.02
428.46	2284.36
428.65	2382.67
428.84	2251.60
429.03	2324.15
429.22	2174.36
429.40	2209.47
429.59	2204.78
429.78	2230.53
429.97	2251.60
430.16	2263.30
430.34	2354.58
430.53	2506.71
430.72	2436.50
430.91	2319.47
431.10	2431.82
431.28	2476.29
431.47	2459.90
431.66	2555.86
431.85	2478.63
432.03	2523.10
432.22	2560.55
432.41	2476.29
432.60	2492.67
432.79	2448.20
432.97	2504.37
433.16	2553.52
433.35	2497.35
433.54	2708.00
433.72	2619.06
433.91	2616.72
434.10	2612.04
434.28	2534.80
434.47	2637.78
434.66	2754.81
434.85	2609.70
435.03	2588.63
435.22	2679.91
435.41	2740.77
435.59	2710.34
435.78	2649.49
435.97	2736.09
436.16	2691.62
436.34	2715.02
436.53	2733.75
436.72	2733.75
436.90	2593.31
437.09	2829.71
437.28	2815.66
437.46	2754.81
437.65	2759.49
437.84	2867.16
438.02	2829.71
438.21	2815.66
438.40	2785.24
438.58	2881.20
438.77	3026.31
438.96	3094.19
439.14	3096.53
439.33	3033.33
439.52	3061.42
439.70	3115.25
439.89	2939.71
440.08	3073.12
440.26	3091.85
440.45	3145.68
440.63	3143.34
440.82	3180.79
441.01	3255.69
441.19	3229.94
441.38	3241.64
441.57	3248.66
441.75	3232.28
441.94	3370.37
442.12	3290.79
442.31	3332.92
442.50	3492.08
442.68	3447.61
442.87	3435.91
443.05	3382.07
443.24	3513.14
443.43	3478.04
443.61	3445.27
443.80	3510.80
443.98	3487.40
444.17	3321.22
444.35	3403.14
444.54	3581.02
444.73	3578.68
444.91	3468.67
445.10	3471.01
445.28	3536.55
445.47	3485.06
445.65	3574.00
445.84	3618.47
446.02	3630.17
446.21	3595.06
446.39	3529.53
446.58	3681.66
446.77	3618.47
446.95	3578.68
447.14	3674.64
447.32	3648.90
447.51	3733.15
447.69	3571.66
447.88	3609.11
448.06	3541.23
448.25	3492.08
448.43	3695.71
448.62	3651.24
448.80	3632.51
448.99	3665.28
449.17	3768.26
449.36	3737.84
449.54	3782.31
449.73	3775.28
449.91	3815.07
450.10	3815.07
450.28	3824.44
450.46	3763.58
450.65	3765.92
450.83	3880.61
451.02	3824.44
451.20	3868.91
451.39	3913.38
451.57	3829.12
451.76	3901.67
451.94	3894.65
452.13	3894.65
452.31	3929.76
452.49	3831.46
452.68	4014.02
452.86	3932.10
453.05	4201.26
453.23	4065.51
453.42	3911.04
453.60	4072.53
453.78	3887.63
453.97	3999.98
454.15	4011.68
454.34	3908.69
454.52	4058.49
454.70	4145.09
454.89	4065.51
455.07	4077.21
455.26	4198.92
455.44	4081.89
455.62	4285.52
455.81	4367.44
455.99	4372.12
456.17	4264.46
456.36	4257.43
456.54	4365.10
456.73	4241.05
456.91	4339.35
457.09	4521.92
457.28	4440.00
457.46	4360.42
457.64	4400.21
457.83	4402.55
458.01	4372.12
458.19	4470.42
458.38	4432.97
458.56	4430.63
458.74	4545.32
458.93	4599.15
459.11	4521.92
459.29	4613.20
459.48	4442.34
459.66	4547.66
459.84	4645.96
460.03	4723.20
460.21	4709.16
460.39	4730.22
460.57	4610.86
460.76	4788.74
460.94	4697.46
461.12	4713.84
461.31	4765.33
461.49	4795.76
461.67	4758.31
461.85	4821.50
462.04	4880.02
462.22	5118.75
462.40	4922.15
462.59	4791.08
462.77	4910.44
462.95	5034.49
463.13	4905.76
463.32	5020.45
463.50	4940.87
463.68	4896.40
463.86	4887.04
464.05	4978.32
464.23	4891.72
464.41	5111.73
464.59	4973.64
464.78	5055.56
464.96	5050.88
465.14	5097.69
465.32	5177.26
465.50	4940.87
465.69	5174.92
465.87	5078.96
466.05	5123.43
466.23	5053.22
466.41	5151.52
466.60	5313.02
466.78	5277.91
466.96	5142.16
467.14	5156.20
467.32	5184.29
467.51	5322.38
467.69	5067.26
467.87	5210.03
468.05	5242.80
468.23	5125.77
468.41	5280.25
468.60	5423.02
468.78	5392.59
468.96	5444.09
469.14	5521.32
469.32	5504.94
469.50	5343.44
469.69	5455.79
469.87	5528.35
470.05	5664.10
470.23	5621.97
470.41	5650.05
470.59	5455.79
470.77	5441.75
470.95	5643.03
471.14	5738.99
471.32	5689.84
471.50	5654.73
471.68	5785.80
471.86	5891.13
472.04	5764.74
472.22	5825.59
472.40	5710.91
472.58	5867.72
472.77	5767.08
472.95	6029.22
473.13	6052.63
473.31	5799.85
473.49	6045.60
473.67	6003.47
473.85	6085.39
474.03	6265.61
474.21	6157.95
474.39	6106.46
474.57	6263.27
474.75	6340.51
474.93	6490.31
475.12	6143.91
475.30	6396.68
475.48	6459.88
475.66	6654.14
475.84	6466.90
476.02	6483.28
476.20	6604.99
476.38	6562.86
476.56	6766.49
476.74	6665.85
476.92	6555.84
477.10	6778.19
477.28	6904.58
477.46	6775.85
477.64	6923.30
477.82	6803.94
478.00	7117.57
478.18	6888.20
478.36	6949.05
478.54	7206.51
478.72	7335.24
478.90	7424.18
479.08	7438.22
479.26	7302.47
479.44	7463.97
479.62	7573.97
479.80	7576.31
479.98	7597.38
480.16	7761.22
480.34	7705.04
480.52	7775.26
480.70	7934.42
480.88	7894.63
481.06	8053.78
481.24	7857.18
481.41	8156.77
481.59	8128.68
481.77	8149.75
481.95	8198.90
482.13	8423.59
482.31	8315.92
482.49	8484.44
482.67	8507.85
482.85	8496.14
483.03	8699.77
483.21	8809.78
483.39	8847.22
483.57	8931.48
483.74	8936.17
483.92	9039.15
484.10	8854.25
484.28	9163.20
484.46	9298.95
484.64	9298.95
484.82	9231.07
485.00	9376.19
485.18	9584.49
485.35	9659.39
485.53	9710.88
485.71	9717.90
485.89	9778.76
486.07	10033.88
486.25	9853.66
486.43	10153.24
486.61	9980.04
486.78	10214.10
486.96	10008.13
487.14	10413.04
487.32	10441.13
487.50	10576.88
487.68	10321.76
487.85	10530.07
488.03	10658.80
488.21	10995.84
488.39	10874.13
488.57	11089.46
488.75	10906.90
488.92	11178.40
489.10	11150.31
489.28	11300.11
489.46	11309.47
489.64	11562.25
489.81	11716.72
489.99	11595.01
490.17	11609.06
490.35	11985.88
490.53	11768.21
490.70	12028.01
490.88	12028.01
491.06	12135.68
491.24	12180.15
491.41	12379.09
491.59	12472.71
491.77	12435.27
491.95	12479.74
492.13	12475.06
492.30	12994.65
492.48	12603.78
492.66	12709.11
492.84	12688.04
493.01	12898.69
493.19	13083.59
493.37	13209.98
493.54	13523.62
493.72	13074.23
493.90	13167.85
494.08	13434.68
494.25	13664.05
494.43	13593.83
494.61	13619.58
494.79	13603.19
494.96	13593.83
495.14	13654.69
495.32	14235.14
495.49	14120.45
495.67	14132.15
495.85	14080.66
496.02	14342.80
496.20	14342.80
496.38	14361.53
496.55	14237.48
496.73	14551.11
496.91	14841.34
497.09	14679.84
497.26	14857.72
497.44	14558.13
497.62	14771.12
497.79	14909.21
497.97	15019.22
498.14	15267.31
498.32	15264.97
498.50	15250.93
498.67	15562.22
498.85	15400.72
499.03	15424.13
499.20	15262.63
499.38	15587.97
499.56	15623.08
499.73	15566.90
499.91	15817.34
500.08	15805.64
500.26	15616.05
500.44	15967.13
500.61	16044.37
500.79	16002.24
500.97	16432.90
501.14	16521.84
501.32	16226.93
501.49	16229.27
501.67	16269.06
501.84	16676.32
502.02	16280.77
502.20	16500.78
502.37	16844.84
502.55	17036.76
502.72	16580.36
502.90	16641.21
503.07	16943.14
503.25	16685.68
503.43	16978.25
503.60	17085.91
503.78	17235.70
503.95	17001.65
504.13	17050.80
504.30	17123.36
504.48	16905.69
504.65	17514.23
504.83	17275.49
505.01	17757.64
505.18	17422.95
505.36	17687.43
505.53	17479.12
505.71	17736.58
505.88	17844.24
506.06	17703.81
506.23	17991.70
506.41	17914.46
506.58	17781.05
506.76	17666.36
506.93	18118.09
507.11	18022.12
507.28	18281.92
507.46	18174.26
507.63	18436.40
507.81	18415.34
507.98	18324.05
508.16	18391.93
508.33	18017.44
508.50	18389.59
508.68	18724.29
508.85	18623.64
509.03	18546.40
509.20	18829.61
509.38	18946.64
509.55	18850.67
509.73	19044.94
509.90	18958.34
510.08	18951.32
510.25	19108.13
510.42	19133.88
510.60	19449.85
510.77	19335.17
510.95	19325.80
511.12	19267.29
511.30	18897.49
511.47	19417.08
511.64	19770.51
511.82	19719.01
511.99	19569.22
512.17	19789.23
512.34	19337.51
512.51	19735.40
512.69	19733.06
512.86	19756.46
513.04	19768.16
513.21	20236.27
513.38	19915.62
513.56	20135.63
513.73	19880.51
513.90	19873.49
514.08	20044.35
514.25	20203.50
514.43	20273.72
514.60	20470.33
514.77	20402.45
514.95	20603.74
515.12	20416.49
515.29	20659.91
515.47	20903.32
515.64	21090.57
515.81	20416.49
515.99	20924.39
516.16	21158.44
516.33	20954.82
516.51	21228.66
516.68	20884.60
516.85	21142.06
517.03	21074.18
517.20	21195.89
517.37	21008.65
517.54	21088.23
517.72	21170.15
517.89	21305.90
518.06	21563.36
518.24	21350.37
518.41	21266.11
518.58	21331.64
518.75	21315.26
518.93	21556.33
519.10	21708.47
519.27	21696.77
519.45	21755.28
519.62	21584.42
519.79	21736.56
519.96	21521.23
520.14	21998.70
520.31	21561.02
520.48	22094.66
520.65	21989.33
520.83	21989.33
521.00	22340.41
521.17	22146.15
521.34	22036.14
521.52	22317.01
521.69	22544.04
521.86	22590.85
522.03	22820.22
522.20	22712.56
522.38	22735.96
522.55	22747.67
522.72	22490.21
522.89	22754.69
523.07	22677.45
523.24	22752.35
523.41	22752.35
523.58	22541.70
523.75	23175.98
523.92	22843.63
524.10	22686.81
524.27	22838.95
524.44	23002.78
524.61	23248.54
524.78	23531.75
524.96	23080.02
525.13	23138.54
525.30	23105.77
525.47	23550.47
525.64	23171.30
525.81	23463.87
525.98	23428.76
526.16	23726.01
526.33	23367.91
526.50	23704.95
526.67	23599.62
526.84	23653.45
527.01	23463.87
527.18	23625.37
527.36	23934.32
527.53	24233.91
527.70	24112.20
527.87	24018.58
528.04	23681.54
528.21	24142.63
528.38	23957.72
528.55	24156.67
528.72	23946.02
528.89	23915.59
529.07	24264.33
529.24	23981.13
529.41	24049.00
529.58	24343.91
529.75	24325.19
529.92	24140.29
530.09	24226.89
530.26	24219.86
530.43	24594.35
530.60	24702.01
530.77	24694.99
530.94	24851.81
531.11	24734.78
531.28	24797.98
531.46	24556.90
531.63	24842.45
531.80	24870.53
531.97	25083.52
532.14	24929.05
532.31	24835.42
532.48	24961.81
532.65	24940.75
532.82	25095.22
532.99	25474.39
533.16	24917.34
533.33	25331.62
533.50	25230.98
533.67	25371.41
533.84	24889.26
534.01	25348.00
534.18	25385.45
534.35	25153.74
534.52	25296.51
534.69	25256.72
534.86	25525.88
535.03	25324.60
535.20	25846.54
535.37	25591.42
535.54	25685.04
535.71	25376.09
535.88	25741.21
536.05	25535.24
536.22	25633.55
536.38	25816.11
536.55	25785.68
536.72	25649.93
536.89	26141.44
537.06	25785.68
537.23	26235.06
537.40	25895.69
537.57	25792.70
537.74	26082.93
537.91	26324.01
538.08	26022.08
538.25	26038.46
538.42	25879.30
538.59	26431.67
538.75	26157.83
538.92	26022.08
539.09	26120.38
539.26	26707.85
539.43	26380.18
539.60	26174.21
539.77	26274.85
539.94	26403.58
540.11	26501.89
540.28	26733.60
540.44	26324.01
540.61	26284.22
540.78	26820.20
540.95	26349.75
541.12	26766.37
541.29	26398.90
541.46	26843.60
541.62	26419.97
541.79	26649.34
541.96	26403.58
542.13	26771.05
542.30	26656.36
542.47	26728.92
542.63	26948.93
542.80	27211.07
542.97	27218.09
543.14	27054.25
543.31	27182.98
543.48	27314.05
543.64	27433.42
543.81	27318.73
543.98	27309.37
544.15	27697.90
544.32	27714.28
544.48	28013.87
544.65	27445.12
544.82	27496.61
544.99	27182.98
545.16	27604.28
545.32	27482.57
545.49	27730.67
545.66	27817.27
545.83	27583.21
546.00	27793.86
546.16	27449.80
546.33	27534.06
546.50	27688.54
546.67	27875.78
546.83	27665.13
547.00	27725.99
547.17	27754.07
547.34	28119.20
547.50	28336.87
547.67	28140.26
547.84	27910.89
548.00	28177.71
548.17	27859.40
548.34	27978.76
548.51	28212.82
548.67	27901.53
548.84	28559.22
549.01	28367.29
549.18	28460.91
549.34	28004.51
549.51	28620.07
549.68	28336.87
549.84	28327.50
550.01	28184.73
550.18	28505.38
550.34	28421.13
550.51	28390.70
550.68	28545.17
550.84	28301.76
551.01	28599.01
551.18	28568.58
551.34	28463.25
551.51	28156.64
551.68	28849.44
551.84	28444.53
552.01	28692.63
552.18	29055.41
552.34	28919.66
552.51	28821.36
552.68	28772.21
552.84	29092.86
553.01	28460.91
553.18	28687.95
553.34	28980.51
553.51	29081.16
553.67	28982.85
553.84	29050.73
554.01	28725.39
554.17	29095.20
554.34	29228.61
554.51	29146.69
554.67	29167.76
554.84	28828.38
555.00	29525.86
555.17	28987.53
555.33	28964.13
555.50	29504.79
555.67	29137.33
555.83	29298.83
556.00	29692.04
556.16	29546.92
556.33	29266.06
556.50	29350.32
556.66	29247.33
556.83	29165.42
556.99	29490.75
557.16	29755.23
557.32	29673.31
557.49	29401.81
557.65	29542.24
557.82	29263.72
557.98	29355.00
558.15	29099.88
558.32	29797.36
558.48	29474.37
558.65	29818.42
558.81	29249.67
558.98	29970.56
559.14	29652.25
559.31	29993.97
559.47	30043.12
559.64	29699.06
559.80	29652.25
559.97	29944.81
560.13	29900.34
560.30	29919.07
560.46	29912.05
560.63	30026.73
560.79	30132.06
560.96	30188.23
561.12	29457.98
561.29	29303.51
561.45	30052.48
561.61	30185.89
561.78	30094.61
561.94	30515.90
562.11	30181.21
562.27	29921.41
562.44	30335.68
562.60	30092.27
562.77	29914.39
562.93	29951.84
563.10	30022.05
563.26	30003.33
563.42	30267.81
563.59	30185.89
563.75	30522.93
563.92	30101.63
564.08	29881.62
564.24	30181.21
564.41	30204.61
564.57	29879.28
564.74	30094.61
564.90	30394.20
565.07	30438.67
565.23	30455.05
565.39	30204.61
565.56	30473.78
565.72	30298.23
565.88	30110.99
566.05	30092.27
566.21	30143.76
566.38	29996.31
566.54	30408.24
566.70	30618.89
566.87	30593.14
567.03	30136.74
567.19	30410.58
567.36	30646.97
567.52	30600.16
567.68	30391.86
567.85	30347.39
568.01	30431.65
568.17	30373.13
568.34	30497.18
568.50	30698.47
568.66	30567.40
568.83	30656.34
568.99	30352.07
569.15	30845.92
569.32	30487.82
569.48	30569.74
569.64	31030.82
569.81	30787.41
569.97	30663.36
570.13	30574.42
570.30	30455.05
570.46	30672.72
570.62	30539.31
570.78	30506.54
570.95	30356.75
571.11	30541.65
571.27	30321.64
571.43	30511.22
571.60	30778.04
571.76	30607.19
571.92	30679.74
572.09	30553.35
572.25	30586.12
572.41	30794.43
572.57	30806.13
572.74	30689.10
572.90	30850.60
573.06	30546.33
573.22	30864.64
573.38	30874.01
573.55	30618.89
573.71	30934.86
573.87	30824.86
574.03	30951.24
574.20	30583.78
574.36	30590.80
574.52	30548.67
574.68	30768.68
574.84	30960.61
575.01	30616.55
575.17	30698.47
575.33	31138.49
575.49	30654.00
575.65	30705.49
575.82	30969.97
575.98	31037.84
576.14	30738.26
576.30	30904.43
576.46	30756.98
576.62	30703.15
576.79	30934.86
576.95	30937.20
577.11	30771.02
577.27	31264.88
577.43	31314.03
577.59	31061.25
577.75	30890.39
577.92	30944.22
578.08	30838.90
578.24	30522.93
578.40	30958.27
578.56	31189.98
578.72	30944.22
578.88	31138.49
579.04	31030.82
579.21	30731.23
579.37	31033.16
579.53	31316.37
579.69	30740.60
579.85	30852.94
580.01	31117.42
580.17	30951.24
580.33	31002.74
580.49	31049.55
580.65	31435.74
580.82	31234.45
580.98	31173.60
581.14	31138.49
581.30	31424.03
581.46	30789.75
581.62	30726.55
581.78	30923.16
581.94	31033.16
582.10	30979.33
582.26	31147.85
582.42	30799.11
582.58	31405.31
582.74	30972.31
582.90	30668.04
583.06	31276.58
583.22	31194.66
583.38	31000.40
583.54	31023.80
583.70	31199.34
583.86	31166.57
584.02	30843.58
584.18	30974.65
584.34	31304.67
584.50	30895.07
584.66	31630.00
584.82	31246.15
584.98	31096.36
585.14	31131.47
585.30	30864.64
585.46	30944.22
585.62	31157.21
585.78	31105.72
585.94	30845.92
586.10	31292.96
586.26	31257.85
586.42	31143.17
586.58	31143.17
586.74	31241.47
586.90	30890.39
587.06	31145.51
587.22	31178.28
587.38	31290.62
587.54	31220.41
587.70	31314.03
587.86	31276.58
588.02	31803.20
588.18	31601.91
588.34	31386.58
588.49	31051.89
588.65	31096.36
588.81	31218.07
588.97	31585.53
589.13	30813.15
589.29	31267.22
589.45	31669.79
589.61	31325.73
589.77	31494.25
589.93	31892.14
590.08	31438.08
590.24	31620.64
590.40	31438.08
590.56	31557.44
590.72	31356.16
590.88	31599.57
591.04	31639.36
591.20	31587.87
591.35	31688.51
591.51	31952.99
591.67	31644.04
591.83	31978.74
