SpectraSuite Data File
++++++++++++++++++++++++++++++++++++
Date: Fri Oct 18 13:57:53 GMT-05:00 2013
User: bianchi
Dark Spectrum Present: No
Reference Spectrum Present: No
Number of Sampled Component Spectra: 1
Spectrometers: USB2+H05261
Integration Time (usec): 50000 (USB2+H05261)
Spectra Averaged: 1 (USB2+H05261)
Boxcar Smoothing: 0 (USB2+H05261)
Correct for Electrical Dark: No (USB2+H05261)
Strobe/Lamp Enabled: No (USB2+H05261)
Correct for Detector Non-linearity: No (USB2+H05261)
Correct for Stray Light: No (USB2+H05261)
Number of Pixels in Processed Spectrum: 2048
>>>>>Begin Processed Spectral Data<<<<<
365.73	0.00
365.92	0.00
366.12	0.00
366.32	0.00
366.52	0.00
366.72	0.00
366.91	0.00
367.11	0.00
367.31	0.00
367.51	0.00
367.70	0.00
367.90	0.00
368.10	0.00
368.30	0.00
368.49	0.00
368.69	0.00
368.89	0.00
369.09	0.00
369.28	0.00
369.48	0.00
369.68	0.00
369.87	0.00
370.07	0.00
370.27	0.00
370.47	0.00
370.66	14.04
370.86	100.64
371.06	145.11
371.25	154.48
371.45	107.66
371.65	184.90
371.84	168.52
372.04	210.65
372.24	163.84
372.44	121.71
372.63	177.88
372.83	243.42
373.03	278.52
373.22	191.92
373.42	182.56
373.62	205.97
373.81	159.16
374.01	217.67
374.21	191.92
374.40	222.35
374.60	236.39
374.79	285.55
374.99	276.18
375.19	241.08
375.38	238.73
375.58	255.12
375.78	259.80
375.97	273.84
376.17	294.91
376.37	266.82
376.56	344.06
376.76	325.33
376.95	280.86
377.15	299.59
377.35	304.27
377.54	245.76
377.74	229.37
377.93	262.14
378.13	276.18
378.33	341.72
378.52	231.71
378.72	252.78
378.91	339.38
379.11	257.46
379.31	269.16
379.50	318.31
379.70	250.44
379.89	313.63
380.09	348.74
380.28	292.57
380.48	362.78
380.68	313.63
380.87	259.80
381.07	273.84
381.26	372.15
381.46	294.91
381.65	355.76
381.85	339.38
382.04	339.38
382.24	393.21
382.43	271.50
382.63	320.65
382.83	330.02
383.02	381.51
383.22	411.93
383.41	327.68
383.61	360.44
383.80	320.65
384.00	381.51
384.19	365.12
384.39	416.62
384.58	402.57
384.78	400.23
384.97	400.23
385.17	425.98
385.36	325.33
385.56	449.38
385.75	381.51
385.95	397.89
386.14	395.55
386.34	409.59
386.53	437.68
386.72	425.98
386.92	454.06
387.11	379.17
387.31	475.13
387.50	315.97
387.70	393.21
387.89	390.87
388.09	418.96
388.28	421.30
388.48	423.64
388.67	524.28
388.86	510.24
389.06	402.57
389.25	393.21
389.45	463.43
389.64	482.15
389.84	454.06
390.03	458.74
390.22	500.87
390.42	456.40
390.61	479.81
390.81	500.87
391.00	433.00
391.19	564.07
391.39	479.81
391.58	477.47
391.78	517.26
391.97	545.34
392.16	557.05
392.36	568.75
392.55	554.71
392.75	535.98
392.94	500.87
393.13	580.45
393.33	498.53
393.52	641.31
393.71	566.41
393.91	566.41
394.10	627.26
394.29	594.50
394.49	566.41
394.68	631.94
394.88	587.47
395.07	643.65
395.26	566.41
395.46	557.05
395.65	554.71
395.84	678.76
396.04	667.05
396.23	624.92
396.42	678.76
396.62	660.03
396.81	645.99
397.00	702.16
397.19	648.33
397.39	737.27
397.58	645.99
397.77	681.10
397.97	669.39
398.16	648.33
398.35	627.26
398.55	690.46
398.74	760.67
398.93	755.99
399.12	664.71
399.32	746.63
399.51	690.46
399.70	716.20
399.90	711.52
400.09	746.63
400.28	788.76
400.47	737.27
400.67	800.46
400.86	774.72
401.05	777.06
401.24	777.06
401.44	781.74
401.63	812.17
401.82	863.66
402.01	861.32
402.21	882.38
402.40	943.24
402.59	851.96
402.78	837.91
402.97	873.02
403.17	849.61
403.36	943.24
403.55	802.80
403.74	887.06
403.93	870.68
404.13	961.96
404.32	861.32
404.51	903.45
404.70	1027.50
404.89	945.58
405.09	992.39
405.28	826.21
405.47	968.98
405.66	997.07
405.85	999.41
406.05	1060.26
406.24	1025.15
406.43	1006.43
406.62	1022.81
406.81	1022.81
407.00	954.94
407.20	976.00
407.39	1015.79
407.58	1053.24
407.77	1020.47
407.96	1013.45
408.15	1050.90
408.34	1043.88
408.54	1043.88
408.73	1078.99
408.92	1088.35
409.11	1057.92
409.30	1109.41
409.49	1153.88
409.68	1172.61
409.87	1167.93
410.07	1188.99
410.26	1153.88
410.45	1104.73
410.64	1200.69
410.83	1291.98
411.02	1174.95
411.21	1268.57
411.40	1259.21
411.59	1191.33
411.78	1320.06
411.98	1345.81
412.17	1266.23
412.36	1313.04
412.55	1296.66
412.74	1378.58
412.93	1355.17
413.12	1385.60
413.31	1434.75
413.50	1315.38
413.69	1406.66
413.88	1526.03
414.07	1401.98
414.26	1387.94
414.45	1432.41
414.64	1507.30
414.83	1486.24
415.02	1495.60
415.22	1579.86
415.41	1568.16
415.60	1575.18
415.79	1645.40
415.98	1563.48
416.17	1624.33
416.36	1666.46
416.55	1563.48
416.74	1636.03
416.93	1572.84
417.12	1732.00
417.31	1696.89
417.50	1825.62
417.69	1675.82
417.88	1689.87
418.07	1788.17
418.26	1809.23
418.45	1797.53
418.64	1792.85
418.83	1778.81
419.02	1778.81
419.21	1872.43
419.39	1827.96
419.58	1806.89
419.77	1816.26
419.96	1860.73
420.15	1860.73
420.34	1811.57
420.53	1797.53
420.72	1884.13
420.91	1867.75
421.10	1970.73
421.29	1935.62
421.48	1930.94
421.67	1942.64
421.86	1919.24
422.05	1970.73
422.24	1949.67
422.43	1891.15
422.61	1966.05
422.80	1994.14
422.99	2165.00
423.18	2118.18
423.37	2143.93
423.56	2113.50
423.75	2043.29
423.94	2045.63
424.13	1994.14
424.32	1884.13
424.50	1998.82
424.69	2045.63
424.88	2129.89
425.07	1994.14
425.26	2012.86
425.45	2012.86
425.64	1982.43
425.83	2076.06
426.01	2132.23
426.20	2059.67
426.39	2169.68
426.58	2172.02
426.77	2031.58
426.96	2120.53
427.15	2122.87
427.33	2256.28
427.52	2122.87
427.71	2172.02
427.90	2242.23
428.09	2195.42
428.28	2246.91
428.46	2174.36
428.65	2242.23
428.84	2317.13
429.03	2317.13
429.22	2242.23
429.40	2296.07
429.59	2249.25
429.78	2225.85
429.97	2174.36
430.16	2256.28
430.34	2349.90
430.53	2324.15
430.72	2338.20
430.91	2300.75
431.10	2235.21
431.28	2361.60
431.47	2504.37
431.66	2487.99
431.85	2385.01
432.03	2448.20
432.22	2455.22
432.41	2359.26
432.60	2574.59
432.79	2567.57
432.97	2452.88
433.16	2424.80
433.35	2497.35
433.54	2665.87
433.72	2375.64
433.91	2583.95
434.10	2588.63
434.28	2576.93
434.47	2623.74
434.66	2670.55
434.85	2759.49
435.03	2597.99
435.22	2656.51
435.41	2656.51
435.59	2675.23
435.78	2607.36
435.97	2628.42
436.16	2710.34
436.34	2630.76
436.53	2686.94
436.72	2768.85
436.90	2637.78
437.09	2799.28
437.28	2708.00
437.46	2773.53
437.65	2785.24
437.84	2864.82
438.02	2932.69
438.21	2719.70
438.40	2750.13
438.58	2930.35
438.77	3009.93
438.96	2925.67
439.14	2911.63
439.33	2988.86
439.52	2974.82
439.70	3035.67
439.89	3119.93
440.08	3047.38
440.26	3042.70
440.45	3136.32
440.63	3119.93
440.82	3197.17
441.01	3129.30
441.19	3201.85
441.38	3204.19
441.57	3185.47
441.75	3243.98
441.94	3255.69
442.12	3173.77
442.31	3337.60
442.50	3407.82
442.68	3265.05
442.87	3314.20
443.05	3428.88
443.24	3428.88
443.43	3445.27
443.61	3583.36
443.80	3463.99
443.98	3398.46
444.17	3276.75
444.35	3456.97
444.54	3522.51
444.73	3442.93
444.91	3510.80
445.10	3389.10
445.28	3510.80
445.47	3478.04
445.65	3543.57
445.84	3522.51
446.02	3478.04
446.21	3393.78
446.39	3590.38
446.58	3456.97
446.77	3555.27
446.95	3499.10
447.14	3524.85
447.32	3485.06
447.51	3571.66
447.69	3449.95
447.88	3552.93
448.06	3501.44
448.25	3538.89
448.43	3550.59
448.62	3473.36
448.80	3494.42
448.99	3634.85
449.17	3698.05
449.36	3569.32
449.54	3749.54
449.73	3644.21
449.91	3812.73
450.10	3798.69
450.28	3810.39
450.46	3784.65
450.65	3777.62
450.83	3997.64
451.02	3962.53
451.20	3789.33
451.39	3983.59
451.57	3761.24
451.76	3911.04
451.94	3784.65
452.13	4079.55
452.31	3826.78
452.49	3819.75
452.68	3934.44
452.86	4018.70
453.05	3906.35
453.23	4025.72
453.42	4009.34
453.60	3957.85
453.78	3997.64
453.97	4021.04
454.15	3992.95
454.34	3955.51
454.52	4187.22
454.70	4037.42
454.89	4077.21
455.07	4072.53
455.26	4140.41
455.44	4086.58
455.62	4107.64
455.81	4243.39
455.99	4252.75
456.17	4299.56
456.36	4147.43
456.54	4299.56
456.73	4369.78
456.91	4400.21
457.09	4257.43
457.28	4362.76
457.46	4381.48
457.64	4514.89
457.83	4344.03
458.01	4379.14
458.19	4423.61
458.38	4514.89
458.56	4531.28
458.74	4388.50
458.93	4547.66
459.11	4449.36
459.29	4500.85
459.48	4486.81
459.66	4479.79
459.84	4596.81
460.03	4470.42
460.21	4629.58
460.39	4685.75
460.57	4706.82
460.76	4664.69
460.94	4627.24
461.12	4734.90
461.31	4662.35
461.49	4678.73
461.67	4713.84
461.85	4833.21
462.04	4652.98
462.22	5015.77
462.40	4833.21
462.59	4734.90
462.77	4922.15
462.95	4854.27
463.13	4877.68
463.32	5064.92
463.50	5116.41
463.68	4985.34
463.86	4924.49
464.05	4849.59
464.23	4863.63
464.41	5025.13
464.59	4945.55
464.78	5095.35
464.96	4896.40
465.14	5046.20
465.32	5144.50
465.50	5015.77
465.69	5144.50
465.87	5055.56
466.05	4978.32
466.23	5151.52
466.41	5153.86
466.60	5268.55
466.78	5083.64
466.96	5247.48
467.14	5055.56
467.32	5090.67
467.51	5188.97
467.69	5041.51
467.87	5205.35
468.05	5268.55
468.23	5280.25
468.41	5270.89
468.60	5233.44
468.78	5327.06
468.96	5338.76
469.14	5465.15
469.32	5439.40
469.50	5317.70
469.69	5472.17
469.87	5448.77
470.05	5500.26
470.23	5565.79
470.41	5504.94
470.59	5490.90
470.77	5511.96
470.95	5451.11
471.14	5572.82
471.32	5444.09
471.50	5778.78
471.68	5701.54
471.86	5720.27
472.04	5781.12
472.22	5802.19
472.40	5757.72
472.58	5755.38
472.77	5755.38
472.95	5954.32
473.13	6139.23
473.31	5874.74
473.49	5809.21
473.67	5879.43
473.85	6038.58
474.03	6176.67
474.21	5874.74
474.39	6022.20
474.57	6038.58
474.75	6282.00
474.93	6356.90
475.12	6221.14
475.30	6413.07
475.48	6265.61
475.66	6289.02
475.84	6366.26
476.02	6478.60
476.20	6326.47
476.38	6626.06
476.56	6689.25
476.74	6518.39
476.92	6689.25
477.10	6560.52
477.28	6843.73
477.46	6801.60
477.64	6794.58
477.82	6839.05
478.00	7108.21
478.18	7096.50
478.36	7122.25
478.54	6848.41
478.72	7262.68
478.90	7234.60
479.08	7089.48
479.26	7375.03
479.44	7351.62
479.62	7562.27
479.80	7555.25
479.98	7482.69
480.16	7597.38
480.34	7606.74
480.52	7660.57
480.70	7707.38
480.88	7653.55
481.06	7829.09
481.24	7859.52
481.41	8018.68
481.59	8074.85
481.77	7957.82
481.95	8320.60
482.13	8191.88
482.31	8187.19
482.49	8306.56
482.67	8432.95
482.85	8767.65
483.03	8744.24
483.21	8624.87
483.39	8657.64
483.57	8568.70
483.74	8627.21
483.92	8894.04
484.10	8926.80
484.28	9121.07
484.46	8987.66
484.64	9451.08
484.82	9488.53
485.00	9303.63
485.18	9401.93
485.35	9607.90
485.53	9465.13
485.71	9516.62
485.89	9706.20
486.07	9659.39
486.25	9617.26
486.43	9811.53
486.61	9902.81
486.78	10104.09
486.96	10265.59
487.14	10335.81
487.32	10249.21
487.50	10459.85
487.68	10434.11
487.85	10406.02
488.03	10607.31
488.21	10768.80
488.39	10803.91
488.57	10792.21
488.75	10703.27
488.92	11115.20
489.10	10988.82
489.28	11211.17
489.46	11426.50
489.64	11332.87
489.81	11367.98
489.99	11454.58
490.17	11307.13
490.35	11613.74
490.53	11777.58
490.70	11967.16
490.88	11646.51
491.06	11847.79
491.24	11999.93
491.41	12156.74
491.59	12126.32
491.77	12189.51
491.95	12266.75
492.13	12163.76
492.30	12442.29
492.48	12479.74
492.66	12528.89
492.84	12732.51
493.01	12884.65
493.19	12688.04
493.37	13050.83
493.54	13219.35
493.72	13231.05
493.90	13095.30
494.08	13226.37
494.25	13191.26
494.43	13284.88
494.61	13458.08
494.79	13558.72
494.96	13612.56
495.14	13563.40
495.32	13804.48
495.49	13502.55
495.67	13804.48
495.85	13989.38
496.02	13848.95
496.20	14183.65
496.38	13965.98
496.55	14230.46
496.73	14422.38
496.91	14363.87
497.09	14583.88
497.26	14668.14
497.44	14562.81
497.62	14869.42
497.79	14785.16
497.97	14799.21
498.14	15269.66
498.32	15140.93
498.50	15180.71
498.67	15332.85
498.85	15105.82
499.03	15033.26
499.20	14974.75
499.38	15463.92
499.56	15398.38
499.73	15410.09
499.91	15824.36
500.08	15669.89
500.26	15538.82
500.44	15712.02
500.61	15662.86
500.79	15796.28
500.97	15908.62
501.14	16170.76
501.32	16168.42
501.49	16154.38
501.67	16042.03
501.84	16283.11
502.02	16276.09
502.20	16271.40
502.37	16390.77
502.55	16390.77
502.72	16503.12
502.90	16498.44
503.07	16659.93
503.25	16641.21
503.43	16411.84
503.60	17057.82
503.78	16819.09
503.95	16910.37
504.13	16793.34
504.30	17137.40
504.48	17095.27
504.65	16931.44
504.83	17006.33
505.01	17294.22
505.18	17212.30
505.36	17467.42
505.53	17156.13
505.71	17460.40
505.88	17144.42
506.06	17385.50
506.23	17769.35
506.41	17785.73
506.58	17668.70
506.76	17834.88
506.93	17680.41
507.11	17502.53
507.28	17743.60
507.46	17666.36
507.63	18080.64
507.81	17923.82
507.98	18024.47
508.16	18176.60
508.33	18265.54
508.50	18363.84
508.68	18078.30
508.85	18469.17
509.03	18429.38
509.20	18443.42
509.38	18831.95
509.55	18651.73
509.73	18511.30
509.90	18530.02
510.08	18860.04
510.25	18810.89
510.42	18895.14
510.60	18904.51
510.77	19042.60
510.95	19255.59
511.12	18792.16
511.30	19246.23
511.47	19119.84
511.64	19283.67
511.82	19250.91
511.99	19349.21
512.17	19693.27
512.34	19431.13
512.51	19580.92
512.69	19779.87
512.86	19782.21
513.04	19866.47
513.21	19784.55
513.38	19822.00
513.56	19910.94
513.73	19606.67
513.90	19901.58
514.08	19681.56
514.25	19967.11
514.43	19859.45
514.60	19887.53
514.77	20250.32
514.95	20198.82
515.12	20496.07
515.29	20458.62
515.47	20198.82
515.64	20496.07
515.81	20404.79
515.99	20273.72
516.16	20552.24
516.33	20737.15
516.51	20851.83
516.68	20620.12
516.85	20297.13
517.03	21135.04
517.20	20809.70
517.37	20985.24
517.54	20826.09
517.72	21266.11
517.89	20692.68
518.06	20959.50
518.24	21137.38
518.41	21397.18
518.58	21104.61
518.75	21261.43
518.93	21275.47
519.10	21160.78
519.27	21673.36
519.45	21181.85
519.62	21483.78
519.79	21425.26
519.96	21465.05
520.14	21736.56
520.31	21310.58
520.48	21708.47
520.65	21682.72
520.83	21809.11
521.00	21799.75
521.17	21996.35
521.34	22129.77
521.52	22010.40
521.69	21923.80
521.86	22228.07
522.03	22104.02
522.20	22270.20
522.38	22256.15
522.55	22373.18
522.72	22534.68
522.89	22302.96
523.07	22719.58
523.24	22719.58
523.41	22710.22
523.58	22321.69
523.75	22637.66
523.92	22494.89
524.10	22441.06
524.27	22448.08
524.44	22469.14
524.61	22925.55
524.78	23000.44
524.96	22824.90
525.13	22771.07
525.30	22911.50
525.47	22981.72
525.64	22892.78
525.81	23222.80
525.98	23412.38
526.16	23662.82
526.33	23342.16
526.50	23241.52
526.67	23410.04
526.84	23550.47
527.01	23026.19
527.18	23384.29
527.36	23693.24
527.53	23817.29
527.70	23850.06
527.87	23838.36
528.04	23632.39
528.21	23728.35
528.38	23672.18
528.55	23660.48
528.72	23477.91
528.89	23943.68
529.07	23894.53
529.24	23688.56
529.41	24402.43
529.58	23990.49
529.75	23700.26
529.92	23527.06
530.09	23814.95
530.26	24105.18
530.43	24084.11
530.60	23868.78
530.77	24252.63
530.94	24086.45
531.11	24149.65
531.28	24198.80
531.46	24430.51
531.63	24414.13
531.80	24762.87
531.97	24620.10
532.14	24720.74
532.31	24273.70
532.48	24776.91
532.65	25022.67
532.82	24821.38
532.99	24521.79
533.16	24922.02
533.33	25081.18
533.50	25235.66
533.67	25062.46
533.84	24650.52
534.01	24781.59
534.18	24767.55
534.35	24837.76
534.52	24931.39
534.69	24840.11
534.86	25165.44
535.03	24870.53
535.20	25069.48
535.37	25242.68
535.54	25050.75
535.71	25151.40
535.88	25371.41
536.05	25172.46
536.22	25490.77
536.38	25289.49
536.55	25921.43
536.72	25518.86
536.89	25242.68
537.06	25331.62
537.23	25268.42
537.40	25916.75
537.57	25605.46
537.74	25497.80
537.91	26087.61
538.08	25802.07
538.25	25635.89
538.42	26064.21
538.59	25795.04
538.75	25797.38
538.92	25811.43
539.09	25977.61
539.26	26061.87
539.43	26066.55
539.60	26279.54
539.77	25818.45
539.94	26197.62
540.11	26511.25
540.28	26094.63
540.44	25907.39
540.61	26160.17
540.78	26333.37
540.95	26054.84
541.12	26057.18
541.29	26483.16
541.46	26239.75
541.62	25668.66
541.79	26731.26
541.96	26029.10
542.13	26178.89
542.30	26256.13
542.47	26576.78
542.63	26354.43
542.80	26925.52
542.97	27098.72
543.14	27054.25
543.31	26639.98
543.48	26719.56
543.64	26817.86
543.81	27033.19
543.98	27070.64
544.15	26904.46
544.32	27145.53
544.48	27264.90
544.65	27166.60
544.82	27257.88
544.99	26801.47
545.16	27021.48
545.32	27199.37
545.49	27264.90
545.66	27246.18
545.83	27468.53
546.00	27585.55
546.16	27030.85
546.33	27089.36
546.50	26979.36
546.67	27543.42
546.83	27393.63
547.00	27637.05
547.17	27080.00
547.34	27384.27
547.50	27300.01
547.67	27999.83
547.84	27461.51
548.00	27962.38
548.17	27709.60
548.34	27714.28
548.51	27740.03
548.67	27639.39
548.84	28030.26
549.01	27784.50
549.18	27850.03
549.34	27782.16
549.51	27548.11
549.68	27819.61
549.84	27859.40
550.01	27943.66
550.18	27740.03
550.34	28126.22
550.51	28130.90
550.68	28072.39
550.84	28046.64
551.01	28095.79
551.18	28006.85
551.34	27910.89
551.51	27978.76
551.68	28519.43
551.84	28182.39
552.01	28168.35
552.18	28315.80
552.34	28474.96
552.51	28500.70
552.68	28166.01
552.84	28599.01
553.01	28371.97
553.18	28271.33
553.34	28697.31
553.51	28364.95
553.67	28484.32
553.84	28835.40
554.01	28591.98
554.17	28643.48
554.34	28772.21
554.51	28666.88
554.67	28629.43
554.84	28748.80
555.00	28540.49
555.17	28575.60
555.33	28760.50
555.50	28718.37
555.67	28636.45
555.83	28884.55
556.00	28610.71
556.16	28662.20
556.33	28992.22
556.50	28505.38
556.66	29233.29
556.83	28924.34
556.99	28961.79
557.16	29523.52
557.32	29039.03
557.49	29188.82
557.65	29048.39
557.82	28950.09
557.98	29186.48
558.15	29109.24
558.32	29060.09
558.48	29057.75
558.65	29298.83
558.81	29371.38
558.98	29017.96
559.14	29273.08
559.31	29024.98
559.47	29050.73
559.64	29523.52
559.80	29399.47
559.97	29729.48
560.13	29502.45
560.30	29160.73
560.46	29598.41
560.63	29659.27
560.79	29352.66
560.96	29558.63
561.12	28989.88
561.29	29373.72
561.45	29338.62
561.61	29668.63
561.78	29844.17
561.94	29436.92
562.11	29415.85
562.27	29567.99
562.44	29383.09
562.60	29495.43
562.77	29521.18
562.93	29633.52
563.10	29479.05
563.26	29434.58
563.42	29799.70
563.59	29495.43
563.75	29745.87
563.92	29617.14
564.08	29717.78
564.24	29607.78
564.41	29727.14
564.57	29521.18
564.74	29823.11
564.90	29446.28
565.07	29984.60
565.23	29434.58
565.39	29677.99
565.56	30181.21
565.72	29881.62
565.88	30129.72
566.05	30015.03
566.21	30181.21
566.38	30000.99
566.54	30043.12
566.70	30167.16
566.87	30033.75
567.03	30000.99
567.19	30487.82
567.36	30256.11
567.52	29593.73
567.68	30113.33
567.85	29883.96
568.01	30110.99
568.17	30115.67
568.34	30345.05
568.50	30335.68
568.66	29928.43
568.83	30417.60
568.99	30103.97
569.15	30099.29
569.32	29963.54
569.48	30150.78
569.64	30019.71
569.81	30000.99
569.97	30045.46
570.13	30270.15
570.30	30199.93
570.46	30431.65
570.62	30522.93
570.78	29780.98
570.95	29724.80
571.11	30223.34
571.27	29881.62
571.43	29926.09
571.60	30298.23
571.76	30012.69
571.92	30473.78
572.09	30277.17
572.25	30433.99
572.41	30202.27
572.57	30251.42
572.74	30225.68
572.90	29905.02
573.06	30071.20
573.22	29930.77
573.38	30221.00
573.55	30118.01
573.71	30934.86
573.87	30321.64
574.03	30256.11
574.20	30562.72
574.36	30178.87
574.52	30480.80
574.68	30148.44
574.84	30120.35
575.01	30443.35
575.17	30249.08
575.33	30602.50
575.49	30398.88
575.65	30717.19
575.82	30059.50
575.98	30572.08
576.14	30429.30
576.30	30504.20
576.46	30101.63
576.62	30132.06
576.79	30417.60
576.95	30614.21
577.11	30576.76
577.27	30639.95
577.43	30508.88
577.59	30363.77
577.75	30490.16
577.92	29944.81
578.08	30424.62
578.24	30199.93
578.40	30335.68
578.56	30494.84
578.72	30541.65
578.88	30637.61
579.04	30658.68
579.21	30632.93
579.37	30298.23
579.53	30810.81
579.69	30239.72
579.85	30464.41
580.01	30848.26
580.17	30415.26
580.33	30359.09
580.49	30525.27
580.65	30789.75
580.82	30628.25
580.98	30707.83
581.14	30838.90
581.30	31016.78
581.46	30377.81
581.62	30338.02
581.78	30733.57
581.94	30246.74
582.10	30377.81
582.26	30572.08
582.42	30506.54
582.58	31087.00
582.74	30609.53
582.90	30946.56
583.06	30534.63
583.22	30749.96
583.38	30658.68
583.54	30359.09
583.70	30471.43
583.86	30817.83
584.02	30541.65
584.18	30768.68
584.34	31211.04
584.50	31014.44
584.66	30803.79
584.82	30639.95
584.98	30895.07
585.14	30782.73
585.30	30691.44
585.46	30410.58
585.62	30600.16
585.78	30590.80
585.94	30576.76
586.10	30522.93
586.26	30962.95
586.42	30541.65
586.58	30714.85
586.74	30831.88
586.90	30689.10
587.06	30639.95
587.22	30649.32
587.38	30948.90
587.54	31072.95
587.70	31026.14
587.86	30927.84
588.02	31070.61
588.18	31264.88
588.34	31054.23
588.49	30780.39
588.65	30806.13
588.81	30958.27
588.97	30969.97
589.13	30574.42
589.29	31042.53
589.45	30827.20
589.61	30955.93
589.77	31243.81
589.93	31061.25
590.08	31054.23
590.24	31157.21
590.40	31344.45
590.56	30993.37
590.72	30710.17
590.88	30604.84
591.04	30923.16
591.20	30969.97
591.35	30857.62
591.51	31412.33
591.67	31534.04
591.83	31445.10
