SpectraSuite Data File
++++++++++++++++++++++++++++++++++++
Date: Fri Oct 18 13:58:15 GMT-05:00 2013
User: bianchi
Dark Spectrum Present: No
Reference Spectrum Present: No
Number of Sampled Component Spectra: 1
Spectrometers: USB2+H05261
Integration Time (usec): 50000 (USB2+H05261)
Spectra Averaged: 1 (USB2+H05261)
Boxcar Smoothing: 0 (USB2+H05261)
Correct for Electrical Dark: No (USB2+H05261)
Strobe/Lamp Enabled: No (USB2+H05261)
Correct for Detector Non-linearity: No (USB2+H05261)
Correct for Stray Light: No (USB2+H05261)
Number of Pixels in Processed Spectrum: 2048
>>>>>Begin Processed Spectral Data<<<<<
365.73	0.00
365.92	0.00
366.12	0.00
366.32	0.00
366.52	0.00
366.72	0.00
366.91	0.00
367.11	0.00
367.31	0.00
367.51	0.00
367.70	0.00
367.90	0.00
368.10	0.00
368.30	0.00
368.49	0.00
368.69	0.00
368.89	0.00
369.09	0.00
369.28	0.00
369.48	0.00
369.68	0.00
369.87	0.00
370.07	0.00
370.27	0.00
370.47	0.00
370.66	102.98
370.86	91.28
371.06	131.07
371.25	100.64
371.45	119.37
371.65	177.88
371.84	138.09
372.04	184.90
372.24	147.45
372.44	175.54
372.63	177.88
372.83	177.88
373.03	290.23
373.22	194.26
373.42	121.71
373.62	154.48
373.81	159.16
374.01	95.96
374.21	194.26
374.40	278.52
374.60	283.20
374.79	241.08
374.99	248.10
375.19	166.18
375.38	229.37
375.58	248.10
375.78	271.50
375.97	294.91
376.17	285.55
376.37	215.33
376.56	266.82
376.76	276.18
376.95	297.25
377.15	255.12
377.35	205.97
377.54	250.44
377.74	259.80
377.93	294.91
378.13	234.05
378.33	306.61
378.52	318.31
378.72	308.95
378.91	301.93
379.11	346.40
379.31	276.18
379.50	346.40
379.70	315.97
379.89	348.74
380.09	271.50
380.28	280.86
380.48	280.86
380.68	292.57
380.87	245.76
381.07	280.86
381.26	304.27
381.46	306.61
381.65	332.36
381.85	313.63
382.04	306.61
382.24	390.87
382.43	304.27
382.63	276.18
382.83	404.91
383.02	367.46
383.22	355.76
383.41	348.74
383.61	322.99
383.80	334.70
384.00	374.49
384.19	395.55
384.39	388.53
384.58	325.33
384.78	266.82
384.97	327.68
385.17	346.40
385.36	372.15
385.56	318.31
385.75	404.91
385.95	358.10
386.14	416.62
386.34	358.10
386.53	507.90
386.72	348.74
386.92	402.57
387.11	447.04
387.31	447.04
387.50	322.99
387.70	411.93
387.89	390.87
388.09	379.17
388.28	388.53
388.48	435.34
388.67	411.93
388.86	500.87
389.06	493.85
389.25	479.81
389.45	479.81
389.64	440.02
389.84	456.40
390.03	468.11
390.22	477.47
390.42	451.72
390.61	526.62
390.81	425.98
391.00	500.87
391.19	465.77
391.39	503.22
391.58	550.03
391.78	528.96
391.97	526.62
392.16	524.28
392.36	521.94
392.55	461.09
392.75	528.96
392.94	484.49
393.13	517.26
393.33	528.96
393.52	578.11
393.71	540.66
393.91	547.69
394.10	575.77
394.29	592.16
394.49	531.30
394.68	629.60
394.88	585.13
395.07	664.71
395.26	573.43
395.46	568.75
395.65	671.73
395.84	695.14
396.04	671.73
396.23	734.93
396.42	538.32
396.62	610.88
396.81	629.60
397.00	557.05
397.19	629.60
397.39	634.29
397.58	685.78
397.77	664.71
397.97	648.33
398.16	678.76
398.35	655.35
398.55	758.33
398.74	788.76
398.93	802.80
399.12	660.03
399.32	688.12
399.51	629.60
399.70	716.20
399.90	669.39
400.09	688.12
400.28	739.61
400.47	748.97
400.67	821.53
400.86	744.29
401.05	748.97
401.24	905.79
401.44	833.23
401.63	800.46
401.82	812.17
402.01	791.10
402.21	784.08
402.40	912.81
402.59	882.38
402.78	779.40
402.97	837.91
403.17	800.46
403.36	866.00
403.55	755.99
403.74	840.25
403.93	847.27
404.13	887.06
404.32	891.74
404.51	901.11
404.70	1015.79
404.89	917.49
405.09	987.71
405.28	880.04
405.47	973.66
405.66	961.96
405.85	940.90
406.05	933.87
406.24	983.02
406.43	940.90
406.62	1074.31
406.81	954.94
407.00	973.66
407.20	933.87
407.39	976.00
407.58	1067.28
407.77	1123.46
407.96	1078.99
408.15	1074.31
408.34	1004.09
408.54	1036.86
408.73	947.92
408.92	1036.86
409.11	1188.99
409.30	1104.73
409.49	1121.12
409.68	1249.85
409.87	1200.69
410.07	1090.69
410.26	1226.44
410.45	1128.14
410.64	1270.91
410.83	1156.22
411.02	1226.44
411.21	1277.93
411.40	1240.48
411.59	1233.46
411.78	1259.21
411.98	1228.78
412.17	1233.46
412.36	1355.17
412.55	1233.46
412.74	1296.66
412.93	1359.85
413.12	1261.55
413.31	1404.32
413.50	1437.09
413.69	1385.60
413.88	1401.98
414.07	1277.93
414.26	1385.60
414.45	1528.37
414.64	1336.45
414.83	1504.96
415.02	1535.39
415.22	1563.48
415.41	1516.67
415.60	1591.56
415.79	1598.59
415.98	1582.20
416.17	1579.86
416.36	1561.14
416.55	1598.59
416.74	1678.16
416.93	1563.48
417.12	1629.01
417.31	1748.38
417.50	1729.66
417.69	1732.00
417.88	1706.25
418.07	1734.34
418.26	1760.08
418.45	1729.66
418.64	1727.32
418.83	1792.85
419.02	1706.25
419.21	1912.22
419.39	1839.66
419.58	1795.19
419.77	1816.26
419.96	1916.90
420.15	1827.96
420.34	1799.87
420.53	1799.87
420.72	1937.96
420.91	1954.35
421.10	1912.22
421.29	1884.13
421.48	1893.49
421.67	1905.20
421.86	2040.95
422.05	1949.67
422.24	1898.17
422.43	2012.86
422.61	1891.15
422.80	2022.22
422.99	2076.06
423.18	2172.02
423.37	1982.43
423.56	1982.43
423.75	2036.27
423.94	1935.62
424.13	1785.83
424.32	1912.22
424.50	1937.96
424.69	2064.35
424.88	2141.59
425.07	2045.63
425.26	2087.76
425.45	2062.01
425.64	2078.40
425.83	2094.78
426.01	1996.48
426.20	2040.95
426.39	2136.91
426.58	1949.67
426.77	2029.24
426.96	2099.46
427.15	2071.37
427.33	2193.08
427.52	2073.71
427.71	2087.76
427.90	2179.04
428.09	2179.04
428.28	2062.01
428.46	2169.68
428.65	2214.15
428.84	2354.58
429.03	2172.02
429.22	2190.74
429.40	2244.57
429.59	2289.04
429.78	2134.57
429.97	2111.16
430.16	2265.64
430.34	2352.24
430.53	2286.70
430.72	2326.49
430.91	2342.88
431.10	2251.60
431.28	2340.54
431.47	2363.94
431.66	2385.01
431.85	2359.26
432.03	2342.88
432.22	2349.90
432.41	2352.24
432.60	2495.01
432.79	2284.36
432.97	2471.61
433.16	2417.77
433.35	2502.03
433.54	2576.93
433.72	2448.20
433.91	2502.03
434.10	2523.10
434.28	2354.58
434.47	2555.86
434.66	2541.82
434.85	2492.67
435.03	2520.76
435.22	2525.44
435.41	2663.53
435.59	2513.74
435.78	2686.94
435.97	2689.28
436.16	2677.57
436.34	2621.40
436.53	2593.31
436.72	2722.04
436.90	2619.06
437.09	2715.02
437.28	2684.59
437.46	2623.74
437.65	2698.64
437.84	2644.81
438.02	2815.66
438.21	2885.88
438.40	2684.59
438.58	2796.94
438.77	2890.56
438.96	2782.90
439.14	3007.59
439.33	2906.95
439.52	2902.26
439.70	2977.16
439.89	3056.74
440.08	3038.02
440.26	2984.18
440.45	3138.66
440.63	3091.85
440.82	3049.72
441.01	3227.60
441.19	3112.91
441.38	3180.79
441.57	3143.34
441.75	3269.73
441.94	3096.53
442.12	3236.96
442.31	3353.99
442.50	3232.28
442.68	3220.58
442.87	3251.00
443.05	3321.22
443.24	3318.88
443.43	3424.20
443.61	3304.84
443.80	3410.16
443.98	3389.10
444.17	3241.64
444.35	3428.88
444.54	3501.44
444.73	3361.01
444.91	3351.65
445.10	3398.46
445.28	3473.36
445.47	3459.31
445.65	3494.42
445.84	3328.24
446.02	3508.46
446.21	3403.14
446.39	3538.89
446.58	3506.12
446.77	3485.06
446.95	3463.99
447.14	3527.19
447.32	3665.28
447.51	3524.85
447.69	3482.72
447.88	3515.48
448.06	3515.48
448.25	3452.29
448.43	3499.10
448.62	3363.35
448.80	3611.45
448.99	3597.40
449.17	3506.12
449.36	3592.72
449.54	3637.19
449.73	3768.26
449.91	3712.09
450.10	3688.68
450.28	3726.13
450.46	3772.94
450.65	3765.92
450.83	3840.82
451.02	3779.97
451.20	3674.64
451.39	3700.39
451.57	3735.50
451.76	3684.00
451.94	3831.46
452.13	3899.33
452.31	3794.01
452.49	3812.73
452.68	3843.16
452.86	3864.22
453.05	3946.14
453.23	3960.19
453.42	3971.89
453.60	3913.38
453.78	4035.08
453.97	3899.33
454.15	3960.19
454.34	3798.69
454.52	3936.78
454.70	4049.13
454.89	3946.14
455.07	4004.66
455.26	3939.12
455.44	4077.21
455.62	3999.98
455.81	4014.02
455.99	4107.64
456.17	4135.73
456.36	4163.81
456.54	4322.97
456.73	4227.01
456.91	4117.00
457.09	4212.96
457.28	4402.55
457.46	4231.69
457.64	4212.96
457.83	4444.68
458.01	4332.33
458.19	4322.97
458.38	4381.48
458.56	4348.72
458.74	4461.06
458.93	4461.06
459.11	4388.50
459.29	4461.06
459.48	4362.76
459.66	4451.70
459.84	4505.53
460.03	4699.80
460.21	4465.74
460.39	4610.86
460.57	4498.51
460.76	4641.28
460.94	4559.36
461.12	4547.66
461.31	4709.16
461.49	4634.26
461.67	4695.11
461.85	4713.84
462.04	4678.73
462.22	4912.78
462.40	4777.03
462.59	4685.75
462.77	4793.42
462.95	4758.31
463.13	4746.61
463.32	4716.18
463.50	4692.77
463.68	4772.35
463.86	4706.82
464.05	4697.46
464.23	4737.24
464.41	5015.77
464.59	4674.05
464.78	4954.91
464.96	4856.61
465.14	4826.18
465.32	4933.85
465.50	5034.49
465.69	4985.34
465.87	4985.34
466.05	5022.79
466.23	5008.75
466.41	5188.97
466.60	5064.92
466.78	5128.11
466.96	4940.87
467.14	4992.36
467.32	5055.56
467.51	5170.24
467.69	4980.66
467.87	5327.06
468.05	5268.55
468.23	5165.56
468.41	4997.04
468.60	5308.34
468.78	5093.01
468.96	5081.30
469.14	5308.34
469.32	5341.10
469.50	5226.42
469.69	5310.68
469.87	5420.68
470.05	5362.17
470.23	5401.96
470.41	5273.23
470.59	5472.17
470.77	5535.37
470.95	5474.51
471.14	5551.75
471.32	5479.19
471.50	5526.00
471.68	5549.41
471.86	5600.90
472.04	5549.41
472.22	5699.20
472.40	5568.13
472.58	5647.71
472.77	5671.12
472.95	5731.97
473.13	6071.35
473.31	5926.24
473.49	5933.26
473.67	5792.83
473.85	5827.93
474.03	5996.45
474.21	6019.86
474.39	6085.39
474.57	6066.67
474.75	6005.81
474.93	6090.07
475.12	6143.91
475.30	6169.65
475.48	6207.10
475.66	6256.25
475.84	6235.19
476.02	6356.90
476.20	6333.49
476.38	6626.06
476.56	6511.37
476.74	6504.35
476.92	6546.48
477.10	6595.63
477.28	6832.02
477.46	6626.06
477.64	6843.73
477.82	6757.13
478.00	6871.81
478.18	6827.34
478.36	6942.03
478.54	6991.18
478.72	7009.90
478.90	7073.10
479.08	6993.52
479.26	7396.09
479.44	7325.88
479.62	7478.01
479.80	7279.07
479.98	7349.28
480.16	7602.06
480.34	7365.67
480.52	7648.87
480.70	7592.70
480.88	7634.83
481.06	7658.23
481.24	7815.05
481.41	7833.77
481.59	7901.65
481.77	8035.06
481.95	8009.31
482.13	8208.26
482.31	7999.95
482.49	8381.46
482.67	8056.12
482.85	8219.96
483.03	8538.27
483.21	8552.32
483.39	8585.08
483.57	8454.02
483.74	8779.35
483.92	8695.09
484.10	8741.90
484.28	8744.24
484.46	8877.65
484.64	9114.05
484.82	8933.82
485.00	8903.40
485.18	9263.84
485.35	9280.22
485.53	9268.52
485.71	9315.33
485.89	9523.64
486.07	9425.34
486.25	9514.28
486.43	9549.39
486.61	9614.92
486.78	9933.23
486.96	9914.51
487.14	9977.70
487.32	10026.86
487.50	9961.32
487.68	9949.62
487.85	10298.36
488.03	10555.82
488.21	10530.07
488.39	10597.95
488.57	10417.72
488.75	10583.90
488.92	10747.74
489.10	10979.45
489.28	10937.32
489.46	10984.13
489.64	10902.22
489.81	11337.56
489.99	11213.51
490.17	11096.48
490.35	11419.47
490.53	11377.34
490.70	11646.51
490.88	11403.09
491.06	11871.20
491.24	11772.89
491.41	11751.83
491.59	11988.22
491.77	11992.90
491.95	12262.07
492.13	12304.20
492.30	12084.19
492.48	12243.34
492.66	12135.68
492.84	12362.71
493.01	12402.50
493.19	12528.89
493.37	12723.15
493.54	12847.20
493.72	13067.21
493.90	12685.70
494.08	12999.34
494.25	13109.34
494.43	13043.81
494.61	13217.01
494.79	13254.45
494.96	13069.55
495.14	13369.14
495.32	13465.10
495.49	13486.17
495.67	13657.03
495.85	13664.05
496.02	13731.92
496.20	13921.51
496.38	14101.73
496.55	13816.18
496.73	14242.16
496.91	14211.73
497.09	14427.06
497.26	14263.22
497.44	14431.74
497.62	14281.95
497.79	14494.94
497.97	14476.21
498.14	14771.12
498.32	14633.03
498.50	14707.93
498.67	15040.28
498.85	14721.97
499.03	15009.86
499.20	14925.60
499.38	15159.65
499.56	15166.67
499.73	14958.36
499.91	15346.89
500.08	15293.06
500.26	15356.25
500.44	15318.81
500.61	15470.94
500.79	15503.71
500.97	15777.55
501.14	15707.34
501.32	15695.63
501.49	15712.02
501.67	15768.19
501.84	15843.09
502.02	15981.18
502.20	15896.92
502.37	16067.78
502.55	15981.18
502.72	16149.70
502.90	16210.55
503.07	16173.10
503.25	16088.84
503.43	16205.87
503.60	16549.93
503.78	16367.37
503.95	16336.94
504.13	16594.40
504.30	16666.95
504.48	16505.46
504.65	16791.00
504.83	16786.32
505.01	16870.58
505.18	17025.06
505.36	17312.94
505.53	17081.23
505.71	17041.44
505.88	16954.84
506.06	17184.21
506.23	17139.74
506.41	17312.94
506.58	17224.00
506.76	17305.92
506.93	17128.04
507.11	17046.12
507.28	17701.47
507.46	17607.85
507.63	17617.21
507.81	17928.50
507.98	17551.68
508.16	17825.52
508.33	17682.75
508.50	17942.55
508.68	17769.35
508.85	18059.57
509.03	17774.03
509.20	18148.51
509.38	18424.70
509.55	18230.43
509.73	18246.82
509.90	18338.10
510.08	18324.05
510.25	18314.69
510.42	18499.59
510.60	18546.40
510.77	18476.19
510.95	18471.51
511.12	18532.36
511.30	18780.46
511.47	18614.28
511.64	18647.05
511.82	18857.70
511.99	18738.33
512.17	19381.98
512.34	18930.25
512.51	19087.07
512.69	19197.07
512.86	19302.40
513.04	19293.04
513.21	19569.22
513.38	19461.55
513.56	19309.42
513.73	19232.18
513.90	19681.56
514.08	19168.99
514.25	19194.73
514.43	19555.18
514.60	19580.92
514.77	19524.75
514.95	19803.27
515.12	19948.39
515.29	19843.06
515.47	19873.49
515.64	20187.12
515.81	19814.98
515.99	20322.87
516.16	20343.94
516.33	20175.42
516.51	20285.42
516.68	20182.44
516.85	19786.89
517.03	20091.16
517.20	20439.90
517.37	20524.16
517.54	20051.37
517.72	20201.16
517.89	20772.25
518.06	20521.82
518.24	20489.05
518.41	20493.73
518.58	20725.44
518.75	20489.05
518.93	20884.60
519.10	20645.87
519.27	20943.11
519.45	20648.21
519.62	20697.36
519.79	20989.92
519.96	21085.89
520.14	21221.64
520.31	21008.65
520.48	20938.43
520.65	21120.99
520.83	21282.49
521.00	21275.47
521.17	21493.14
521.34	21481.44
521.52	21373.77
521.69	21280.15
521.86	21818.47
522.03	21851.24
522.20	21806.77
522.38	21755.28
522.55	21722.51
522.72	21937.84
522.89	21951.88
523.07	22029.12
523.24	21998.70
523.41	21905.07
523.58	21783.37
523.75	22209.34
523.92	22094.66
524.10	21937.84
524.27	21841.88
524.44	22043.17
524.61	22546.38
524.78	22403.61
524.96	22373.18
525.13	22326.37
525.30	22312.33
525.47	22764.05
525.64	22366.16
525.81	22759.37
525.98	22621.28
526.16	22625.96
526.33	22422.33
526.50	22817.88
526.67	22342.75
526.84	22721.92
527.01	22710.22
527.18	23040.23
527.36	22740.64
527.53	23049.60
527.70	22852.99
527.87	23171.30
528.04	23012.15
528.21	23328.12
528.38	23021.51
528.55	23342.16
528.72	22946.61
528.89	23496.64
529.07	23197.05
529.24	23138.54
529.41	23484.94
529.58	23236.84
529.75	23264.92
529.92	23328.12
530.09	23274.29
530.26	23459.19
530.43	23686.22
530.60	23730.69
530.77	23498.98
530.94	23611.32
531.11	23763.46
531.28	23871.12
531.46	23749.42
531.63	23601.96
531.80	23854.74
531.97	24067.73
532.14	24133.26
532.31	23821.97
532.48	24116.88
532.65	24236.25
532.82	23929.64
532.99	24081.77
533.16	24058.37
533.33	24575.62
533.50	24512.43
533.67	24774.57
533.84	23941.34
534.01	24133.26
534.18	24325.19
534.35	24222.20
534.52	24404.77
534.69	24744.14
534.86	24482.00
535.03	24432.85
535.20	24821.38
535.37	24767.55
535.54	24680.95
535.71	24334.55
535.88	24767.55
536.05	24748.82
536.22	24741.80
536.38	24725.42
536.55	24996.92
536.72	24704.35
536.89	24720.74
537.06	24973.52
537.23	24861.17
537.40	24627.12
537.57	24968.84
537.74	25046.07
537.91	25193.53
538.08	25006.28
538.25	25001.60
538.42	25184.16
538.59	25245.02
538.75	25221.61
538.92	25053.09
539.09	25462.69
539.26	25364.39
539.43	25163.10
539.60	25699.08
539.77	25312.89
539.94	25593.76
540.11	25085.86
540.28	25469.71
540.44	25109.27
540.61	25563.33
540.78	25717.81
540.95	25656.95
541.12	25163.10
541.29	25813.77
541.46	25617.16
541.62	25722.49
541.79	25710.78
541.96	25802.07
542.13	25883.98
542.30	25898.03
542.47	25888.67
542.63	25752.91
542.80	25965.90
542.97	25909.73
543.14	26412.95
543.31	25984.63
543.48	26129.74
543.64	26216.34
543.81	26583.80
543.98	26185.91
544.15	26579.12
544.32	26384.86
544.48	26558.06
544.65	26302.94
544.82	26799.13
544.99	26462.10
545.16	26614.23
545.32	26342.73
545.49	26539.33
545.66	26822.54
545.83	26822.54
546.00	26895.10
546.16	26394.22
546.33	26426.99
546.50	26314.64
546.67	26525.29
546.83	26309.96
547.00	26717.22
547.17	26852.97
547.34	26703.17
547.50	26719.56
547.67	26962.97
547.84	27002.76
548.00	27035.53
548.17	27185.32
548.34	26843.60
548.51	27384.27
548.67	26934.88
548.84	27094.04
549.01	27236.81
549.18	27445.12
549.34	27316.39
549.51	27119.79
549.68	27112.77
549.84	27040.21
550.01	27264.90
550.18	27030.85
550.34	27360.86
550.51	27433.42
550.68	27522.36
550.84	27417.04
551.01	27180.64
551.18	27175.96
551.34	27058.93
551.51	27330.44
551.68	27353.84
551.84	27716.62
552.01	27564.49
552.18	27812.59
552.34	27775.14
552.51	27779.82
552.68	27690.88
552.84	27615.98
553.01	27548.11
553.18	27147.87
553.34	27536.40
553.51	27718.96
553.67	27681.52
553.84	28407.08
554.01	28020.89
554.17	27630.02
554.34	27791.52
554.51	27758.75
554.67	28177.71
554.84	27920.25
555.00	28037.28
555.17	28114.52
555.33	27875.78
555.50	27821.95
555.67	28100.47
555.83	28229.20
556.00	27695.56
556.16	28500.70
556.33	27892.16
556.50	28465.60
556.66	28350.91
556.83	27957.70
556.99	28276.01
557.16	28364.95
557.32	28332.18
557.49	28201.11
557.65	28339.21
557.82	28329.84
557.98	28264.31
558.15	28198.77
558.32	28563.90
558.48	28027.92
558.65	28271.33
558.81	28641.14
558.98	28596.67
559.14	28215.16
559.31	28180.05
559.47	28271.33
559.64	28180.05
559.80	28364.95
559.97	28973.49
560.13	28613.05
560.30	28727.74
560.46	28645.82
560.63	28568.58
560.79	28463.25
560.96	28676.24
561.12	28622.41
561.29	28421.13
561.45	28776.89
561.61	28833.06
561.78	28751.14
561.94	28779.23
562.11	28985.19
562.27	28779.23
562.44	28926.68
562.60	28840.08
562.77	28704.33
562.93	28442.19
563.10	28964.13
563.26	28631.77
563.42	28751.14
563.59	28840.08
563.75	28917.32
563.92	28687.95
564.08	29029.66
564.24	28926.68
564.41	28514.75
564.57	28811.99
564.74	28903.28
564.90	28950.09
565.07	28704.33
565.23	29202.86
565.39	29146.69
565.56	29081.16
565.72	29200.52
565.88	29123.29
566.05	29046.05
566.21	29106.90
566.38	28954.77
566.54	28907.96
566.70	29331.59
566.87	29359.68
567.03	28772.21
567.19	29385.43
567.36	29235.63
567.52	29167.76
567.68	29277.76
567.85	29174.78
568.01	28975.83
568.17	29170.10
568.34	29270.74
568.50	29450.96
568.66	28879.87
568.83	29572.67
568.99	29212.23
569.15	28950.09
569.32	29099.88
569.48	28776.89
569.64	29270.74
569.81	29347.98
569.97	29312.87
570.13	29390.11
570.30	29160.73
570.46	29228.61
570.62	29457.98
570.78	29130.31
570.95	28912.64
571.11	29310.53
571.27	28940.72
571.43	29408.83
571.60	29312.87
571.76	29280.10
571.92	29600.76
572.09	29668.63
572.25	29544.58
572.41	29511.81
572.57	29668.63
572.74	29556.28
572.90	29610.12
573.06	29069.45
573.22	29378.40
573.38	29160.73
573.55	29294.14
573.71	29553.94
573.87	29472.03
574.03	29500.11
574.20	29607.78
574.36	29502.45
574.52	29237.97
574.68	29507.13
574.84	29387.77
575.01	29422.87
575.17	29483.73
575.33	29701.40
575.49	29139.67
575.65	29406.49
575.82	29495.43
575.98	29607.78
576.14	29617.14
576.30	29376.06
576.46	29209.89
576.62	29757.57
576.79	29462.66
576.95	29474.37
577.11	29612.46
577.27	29528.20
577.43	29352.66
577.59	29397.13
577.75	29673.31
577.92	29516.50
578.08	29731.83
578.24	29078.82
578.40	29729.48
578.56	29729.48
578.72	29476.71
578.88	30057.16
579.04	30061.84
579.21	29682.67
579.37	29675.65
579.53	29745.87
579.69	29343.30
579.85	29656.93
580.01	29493.09
580.17	29626.50
580.33	29937.79
580.49	29584.37
580.65	29757.57
580.82	29797.36
580.98	29968.22
581.14	29645.23
581.30	29586.71
581.46	29830.13
581.62	29516.50
581.78	29727.14
581.94	29848.85
582.10	29745.87
582.26	29638.20
582.42	29741.19
582.58	29827.79
582.74	29820.77
582.90	30436.33
583.06	29734.17
583.22	29949.50
583.38	29654.59
583.54	29750.55
583.70	29497.77
583.86	29780.98
584.02	29563.31
584.18	30003.33
584.34	30120.35
584.50	30129.72
584.66	29790.34
584.82	29890.98
584.98	29818.42
585.14	29633.52
585.30	29535.22
585.46	29373.72
585.62	29453.30
585.78	30225.68
585.94	29603.10
586.10	29890.98
586.26	29804.38
586.42	30136.74
586.58	29940.13
586.74	30157.80
586.90	29776.30
587.06	29813.74
587.22	29921.41
587.38	29949.50
587.54	30321.64
587.70	30005.67
587.86	29825.45
588.02	29979.92
588.18	30113.33
588.34	29986.94
588.49	30188.23
588.65	29720.12
588.81	29659.27
588.97	30012.69
589.13	29839.49
589.29	29603.10
589.45	30132.06
589.61	30359.09
589.77	30373.13
589.93	30237.38
590.08	30143.76
590.24	29919.07
590.40	29968.22
590.56	30328.66
590.72	29998.65
590.88	30033.75
591.04	30178.87
591.20	30258.45
591.35	30302.92
591.51	30511.22
591.67	30281.85
591.83	30359.09
591.99	30408.24
