SpectraSuite Data File
++++++++++++++++++++++++++++++++++++
Date: Fri Oct 18 13:58:07 GMT-05:00 2013
User: bianchi
Dark Spectrum Present: No
Reference Spectrum Present: No
Number of Sampled Component Spectra: 1
Spectrometers: USB2+H05261
Integration Time (usec): 50000 (USB2+H05261)
Spectra Averaged: 1 (USB2+H05261)
Boxcar Smoothing: 0 (USB2+H05261)
Correct for Electrical Dark: No (USB2+H05261)
Strobe/Lamp Enabled: No (USB2+H05261)
Correct for Detector Non-linearity: No (USB2+H05261)
Correct for Stray Light: No (USB2+H05261)
Number of Pixels in Processed Spectrum: 2048
>>>>>Begin Processed Spectral Data<<<<<
365.73	0.00
365.92	0.00
366.12	0.00
366.32	0.00
366.52	0.00
366.72	0.00
366.91	0.00
367.11	0.00
367.31	0.00
367.51	0.00
367.70	0.00
367.90	0.00
368.10	0.00
368.30	0.00
368.49	0.00
368.69	0.00
368.89	0.00
369.09	0.00
369.28	0.00
369.48	0.00
369.68	0.00
369.87	0.00
370.07	0.00
370.27	0.00
370.47	0.00
370.66	124.05
370.86	126.39
371.06	124.05
371.25	187.24
371.45	138.09
371.65	112.35
371.84	128.73
372.04	156.82
372.24	217.67
372.44	227.03
372.63	189.58
372.83	212.99
373.03	236.39
373.22	168.52
373.42	238.73
373.62	184.90
373.81	238.73
374.01	212.99
374.21	255.12
374.40	273.84
374.60	182.56
374.79	297.25
374.99	248.10
375.19	313.63
375.38	273.84
375.58	187.24
375.78	210.65
375.97	271.50
376.17	313.63
376.37	301.93
376.56	301.93
376.76	292.57
376.95	245.76
377.15	280.86
377.35	245.76
377.54	259.80
377.74	308.95
377.93	255.12
378.13	395.55
378.33	294.91
378.52	285.55
378.72	362.78
378.91	294.91
379.11	255.12
379.31	292.57
379.50	269.16
379.70	322.99
379.89	374.49
380.09	311.29
380.28	330.02
380.48	290.23
380.68	262.14
380.87	262.14
381.07	315.97
381.26	353.42
381.46	355.76
381.65	306.61
381.85	311.29
382.04	318.31
382.24	325.33
382.43	278.52
382.63	383.85
382.83	346.40
383.02	416.62
383.22	351.08
383.41	344.06
383.61	409.59
383.80	400.23
384.00	388.53
384.19	407.25
384.39	400.23
384.58	367.46
384.78	423.64
384.97	381.51
385.17	421.30
385.36	383.85
385.56	456.40
385.75	388.53
385.95	447.04
386.14	409.59
386.34	393.21
386.53	416.62
386.72	344.06
386.92	400.23
387.11	409.59
387.31	390.87
387.50	421.30
387.70	318.31
387.89	332.36
388.09	327.68
388.28	479.81
388.48	444.70
388.67	395.55
388.86	496.19
389.06	404.91
389.25	468.11
389.45	418.96
389.64	442.36
389.84	533.64
390.03	528.96
390.22	496.19
390.42	503.22
390.61	463.43
390.81	505.56
391.00	479.81
391.19	575.77
391.39	461.09
391.58	535.98
391.78	505.56
391.97	580.45
392.16	566.41
392.36	528.96
392.55	512.58
392.75	528.96
392.94	566.41
393.13	610.88
393.33	470.45
393.52	566.41
393.71	617.90
393.91	606.20
394.10	643.65
394.29	606.20
394.49	603.86
394.68	617.90
394.88	634.29
395.07	653.01
395.26	589.82
395.46	575.77
395.65	622.58
395.84	657.69
396.04	613.22
396.23	676.41
396.42	667.05
396.62	641.31
396.81	585.13
397.00	660.03
397.19	683.44
397.39	739.61
397.58	741.95
397.77	674.07
397.97	692.80
398.16	718.54
398.35	643.65
398.55	741.95
398.74	739.61
398.93	631.94
399.12	746.63
399.32	732.59
399.51	760.67
399.70	774.72
399.90	833.23
400.09	823.87
400.28	770.04
400.47	753.65
400.67	746.63
400.86	903.45
401.05	711.52
401.24	791.10
401.44	880.04
401.63	844.93
401.82	816.85
402.01	807.48
402.21	837.91
402.40	800.46
402.59	835.57
402.78	877.70
402.97	793.44
403.17	847.27
403.36	798.12
403.55	922.17
403.74	938.55
403.93	866.00
404.13	915.15
404.32	945.58
404.51	814.51
404.70	917.49
404.89	880.04
405.09	940.90
405.28	908.13
405.47	978.34
405.66	999.41
405.85	999.41
406.05	938.55
406.24	985.37
406.43	978.34
406.62	994.73
406.81	1041.54
407.00	1032.18
407.20	985.37
407.39	978.34
407.58	1057.92
407.77	1107.07
407.96	1107.07
408.15	1118.78
408.34	1090.69
408.54	1146.86
408.73	1083.67
408.92	1104.73
409.11	1090.69
409.30	1242.82
409.49	1160.91
409.68	1015.79
409.87	1188.99
410.07	1303.68
410.26	1266.23
410.45	1142.18
410.64	1121.12
410.83	1203.04
411.02	1294.32
411.21	1172.61
411.40	1256.87
411.59	1355.17
411.78	1275.59
411.98	1261.55
412.17	1315.38
412.36	1324.74
412.55	1462.83
412.74	1373.89
412.93	1306.02
413.12	1350.49
413.31	1418.36
413.50	1448.79
413.69	1364.53
413.88	1338.79
414.07	1444.11
414.26	1504.96
414.45	1404.32
414.64	1554.12
414.83	1516.67
415.02	1523.69
415.22	1589.22
415.41	1568.16
415.60	1596.25
415.79	1542.41
415.98	1530.71
416.17	1661.78
416.36	1699.23
416.55	1582.20
416.74	1593.90
416.93	1650.08
417.12	1706.25
417.31	1753.06
417.50	1664.12
417.69	1783.49
417.88	1816.26
418.07	1624.33
418.26	1692.21
418.45	1732.00
418.64	1797.53
418.83	1830.30
419.02	1760.08
419.21	1851.36
419.39	1832.64
419.58	1757.74
419.77	1823.28
419.96	1877.11
420.15	1949.67
420.34	1928.60
420.53	1954.35
420.72	1954.35
420.91	1949.67
421.10	1956.69
421.29	2022.22
421.48	1870.09
421.67	2005.84
421.86	1942.64
422.05	1947.33
422.24	1973.07
422.43	1959.03
422.61	1966.05
422.80	2026.90
422.99	2052.65
423.18	2022.22
423.37	2008.18
423.56	2033.93
423.75	1977.75
423.94	2059.67
424.13	1928.60
424.32	1879.45
424.50	2017.54
424.69	2022.22
424.88	2097.12
425.07	2008.18
425.26	2017.54
425.45	2106.48
425.64	2017.54
425.83	2024.56
426.01	2017.54
426.20	2143.93
426.39	2113.50
426.58	2012.86
426.77	2134.57
426.96	2125.21
427.15	2129.89
427.33	2244.57
427.52	2076.06
427.71	2031.58
427.90	2143.93
428.09	2176.70
428.28	2172.02
428.46	2209.47
428.65	2214.15
428.84	2251.60
429.03	2303.09
429.22	2113.50
429.40	2380.32
429.59	2291.38
429.78	2216.49
429.97	2157.97
430.16	2291.38
430.34	2293.72
430.53	2258.62
430.72	2417.77
430.91	2321.81
431.10	2338.20
431.28	2469.27
431.47	2399.05
431.66	2415.43
431.85	2183.72
432.03	2399.05
432.22	2523.10
432.41	2466.92
432.60	2438.84
432.79	2415.43
432.97	2457.56
433.16	2567.57
433.35	2408.41
433.54	2590.97
433.72	2518.42
433.91	2539.48
434.10	2492.67
434.28	2539.48
434.47	2555.86
434.66	2675.23
434.85	2658.85
435.03	2670.55
435.22	2616.72
435.41	2778.22
435.59	2668.21
435.78	2586.29
435.97	2689.28
436.16	2675.23
436.34	2656.51
436.53	2810.98
436.72	2752.47
436.90	2677.57
437.09	2857.79
437.28	2750.13
437.46	2686.94
437.65	2867.16
437.84	2881.20
438.02	2768.85
438.21	2890.56
438.40	2717.36
438.58	2874.18
438.77	2930.35
438.96	2818.00
439.14	3045.04
439.33	2953.76
439.52	3030.99
439.70	3098.87
439.89	3002.91
440.08	3014.61
440.26	3007.59
440.45	3033.33
440.63	3267.39
440.82	3141.00
441.01	3112.91
441.19	3183.13
441.38	3232.28
441.57	3276.75
441.75	3173.77
441.94	3405.48
442.12	3339.94
442.31	3293.13
442.50	3400.80
442.68	3421.86
442.87	3321.22
443.05	3454.63
443.24	3485.06
443.43	3403.14
443.61	3463.99
443.80	3494.42
443.98	3365.69
444.17	3194.83
444.35	3480.38
444.54	3492.08
444.73	3543.57
444.91	3335.26
445.10	3555.27
445.28	3489.74
445.47	3445.27
445.65	3407.82
445.84	3566.98
446.02	3375.05
446.21	3534.21
446.39	3471.01
446.58	3552.93
446.77	3616.13
446.95	3433.57
447.14	3595.06
447.32	3606.77
447.51	3517.83
447.69	3566.98
447.88	3527.19
448.06	3595.06
448.25	3506.12
448.43	3531.87
448.62	3466.33
448.80	3606.77
448.99	3641.87
449.17	3585.70
449.36	3719.11
449.54	3662.94
449.73	3796.35
449.91	3946.14
450.10	3620.81
450.28	3864.22
450.46	3691.02
450.65	3695.71
450.83	3866.56
451.02	3854.86
451.20	3742.52
451.39	3747.20
451.57	3733.15
451.76	3684.00
451.94	3925.08
452.13	4058.49
452.31	3955.51
452.49	3904.01
452.68	3878.27
452.86	3925.08
453.05	3946.14
453.23	3896.99
453.42	3880.61
453.60	3969.55
453.78	3843.16
453.97	3913.38
454.15	4095.94
454.34	3967.21
454.52	4124.02
454.70	4147.43
454.89	4067.85
455.07	4032.74
455.26	4002.32
455.44	4093.60
455.62	4051.47
455.81	4091.26
455.99	4217.65
456.17	4175.52
456.36	4084.23
456.54	4119.34
456.73	4215.30
456.91	4465.74
457.09	4421.27
457.28	4376.80
457.46	4262.12
457.64	4409.57
457.83	4503.19
458.01	4337.01
458.19	4557.02
458.38	4348.72
458.56	4589.79
458.74	4484.47
458.93	4514.89
459.11	4472.76
459.29	4458.72
459.48	4575.75
459.66	4468.08
459.84	4638.94
460.03	4594.47
460.21	4521.92
460.39	4524.26
460.57	4503.19
460.76	4528.94
460.94	4519.57
461.12	4706.82
461.31	4732.56
461.49	4678.73
461.67	4688.09
461.85	4922.15
462.04	4821.50
462.22	4940.87
462.40	4713.84
462.59	4767.67
462.77	4695.11
462.95	4793.42
463.13	4842.57
463.32	4863.63
463.50	4910.44
463.68	4964.28
463.86	4847.25
464.05	4863.63
464.23	4765.33
464.41	5163.22
464.59	4873.00
464.78	5018.11
464.96	4971.30
465.14	4887.04
465.32	5060.24
465.50	5085.98
465.69	5020.45
465.87	5118.75
466.05	4922.15
466.23	5100.03
466.41	5093.01
466.60	5266.21
466.78	5135.14
466.96	5090.67
467.14	5097.69
467.32	5343.44
467.51	5275.57
467.69	5057.90
467.87	5357.49
468.05	5289.61
468.23	5130.45
468.41	5064.92
468.60	5067.26
468.78	5303.65
468.96	5408.98
469.14	5420.68
469.32	5373.87
469.50	5191.31
469.69	5324.72
469.87	5542.39
470.05	5441.75
470.23	5598.56
470.41	5504.94
470.59	5612.60
470.77	5350.46
470.95	5500.26
471.14	5554.09
471.32	5427.70
471.50	5715.59
471.68	5600.90
471.86	5666.44
472.04	5729.63
472.22	5554.09
472.40	5593.88
472.58	5778.78
472.77	5767.08
472.95	5858.36
473.13	6064.33
473.31	5729.63
473.49	5844.32
473.67	5832.62
473.85	6141.57
474.03	6139.23
474.21	5989.43
474.39	6279.66
474.57	6090.07
474.75	6225.82
474.93	6314.77
475.12	6253.91
475.30	6368.60
475.48	6186.04
475.66	6274.98
475.84	6209.44
476.02	6525.41
476.20	6494.99
476.38	6413.07
476.56	6612.01
476.74	6553.50
476.92	6619.04
477.10	6710.32
477.28	6813.30
477.46	6768.83
477.64	6719.68
477.82	6909.26
478.00	7056.72
478.18	7077.78
478.36	7042.67
478.54	7082.46
478.72	7080.12
478.90	7152.68
479.08	7316.51
479.26	7342.26
479.44	7435.88
479.62	7321.20
479.80	7513.12
479.98	7728.45
480.16	7627.81
480.34	7651.21
480.52	7756.54
480.70	7641.85
480.88	7524.82
481.06	7836.11
481.24	7779.94
481.41	7728.45
481.59	8086.55
481.77	7985.91
481.95	8109.96
482.13	8131.02
482.31	8236.35
482.49	8318.26
482.67	8409.54
482.85	8327.63
483.03	8652.96
483.21	8652.96
483.39	8608.49
483.57	8718.50
483.74	8718.50
483.92	8889.35
484.10	8741.90
484.28	8938.51
484.46	9130.43
484.64	9181.92
484.82	9256.82
485.00	9205.33
485.18	9310.65
485.35	9577.47
485.53	9589.17
485.71	9568.11
485.89	9551.73
486.07	9437.04
486.25	9509.60
486.43	9816.21
486.61	9804.50
486.78	9839.61
486.96	9804.50
487.14	10324.10
487.32	10200.05
487.50	10281.97
487.68	10377.94
487.85	10520.71
488.03	10579.22
488.21	10857.75
488.39	10684.55
488.57	10714.97
488.75	10855.40
488.92	11126.91
489.10	10972.43
489.28	10909.24
489.46	11197.12
489.64	11360.96
489.81	11641.82
489.99	11360.96
490.17	11470.97
490.35	11653.53
490.53	11683.95
490.70	11669.91
490.88	11941.41
491.06	11934.39
491.24	12168.45
491.41	12002.27
491.59	11826.73
491.77	12177.81
491.95	12196.53
492.13	12402.50
492.30	12381.43
492.48	12238.66
492.66	12479.74
492.84	12578.04
493.01	12655.28
493.19	12819.11
493.37	12786.35
493.54	13245.09
493.72	13114.02
493.90	13032.10
494.08	13128.06
494.25	13319.99
494.43	13172.54
494.61	13575.11
494.79	13607.87
494.96	13483.83
495.14	13514.25
495.32	13514.25
495.49	13858.31
495.67	13556.38
495.85	13865.33
496.02	13813.84
496.20	14361.53
496.38	13820.86
496.55	14209.39
496.73	14373.23
496.91	14406.00
497.09	14494.94
497.26	14445.79
497.44	14679.84
497.62	14553.45
497.79	14750.06
497.97	14721.97
498.14	15089.43
498.32	15192.42
498.50	15096.46
498.67	15239.23
498.85	14977.09
499.03	15220.50
499.20	15562.22
499.38	15098.80
499.56	15283.70
499.73	15414.77
499.91	15314.13
500.08	15529.45
500.26	15302.42
500.44	15421.79
500.61	15690.95
500.79	15719.04
500.97	15955.43
501.14	16154.38
501.32	16046.71
501.49	16149.70
501.67	15894.58
501.84	16119.27
502.02	15962.45
502.20	16119.27
502.37	16161.40
502.55	16397.79
502.72	16439.92
502.90	16332.26
503.07	16390.77
503.25	16468.01
503.43	16439.92
503.60	16556.95
503.78	16732.49
503.95	16814.41
504.13	16863.56
504.30	17034.42
504.48	16798.02
504.65	17151.45
504.83	17212.30
505.01	17579.76
505.18	17380.82
505.36	17699.13
505.53	17261.45
505.71	17500.19
505.88	17399.54
506.06	17392.52
506.23	17767.01
506.41	17411.25
506.58	17729.56
506.76	17521.25
506.93	17767.01
507.11	17671.04
507.28	17745.94
507.46	17942.55
507.63	17996.38
507.81	18368.52
507.98	17549.34
508.16	18218.73
508.33	18204.69
508.50	18300.65
508.68	18120.43
508.85	18450.44
509.03	18239.79
509.20	18354.48
509.38	18462.15
509.55	18712.58
509.73	18731.31
509.90	18494.91
510.08	18881.10
510.25	18633.00
510.42	18946.64
510.60	18602.58
510.77	19082.39
510.95	18916.21
511.12	18850.67
511.30	18923.23
511.47	19019.19
511.64	19091.75
511.82	19103.45
511.99	19330.48
512.17	19438.15
512.34	19398.36
512.51	19255.59
512.69	19309.42
512.86	19536.45
513.04	19693.27
513.21	19517.73
513.38	19592.62
513.56	19826.68
513.73	19716.67
513.90	19665.18
514.08	19873.49
514.25	19857.10
514.43	19950.73
514.60	20065.41
514.77	20100.52
514.95	19889.87
515.12	20231.59
515.29	19976.47
515.47	20463.30
515.64	20418.83
515.81	20233.93
515.99	20224.57
516.16	20634.16
516.33	20414.15
516.51	20739.49
516.68	20493.73
516.85	20840.13
517.03	20624.80
517.20	21128.02
517.37	20706.72
517.54	20798.00
517.72	21039.08
517.89	20800.34
518.06	20678.63
518.24	20929.07
518.41	20837.79
518.58	21181.85
518.75	20996.95
518.93	21273.13
519.10	21067.16
519.27	21378.45
519.45	21062.48
519.62	21575.06
519.79	21516.54
519.96	21523.57
520.14	21249.72
520.31	21507.18
520.48	21741.24
520.65	21556.33
520.83	21453.35
521.00	21874.65
521.17	21682.72
521.34	21530.59
521.52	21785.71
521.69	21703.79
521.86	22202.32
522.03	21940.18
522.20	22113.38
522.38	22312.33
522.55	21788.05
522.72	22202.32
522.89	22260.84
523.07	22492.55
523.24	22380.20
523.41	22281.90
523.58	22228.07
523.75	22410.63
523.92	22368.50
524.10	22361.48
524.27	22677.45
524.44	22672.77
524.61	23126.83
524.78	22874.06
524.96	22775.75
525.13	22860.01
525.30	22932.57
525.47	23044.91
525.64	22714.90
525.81	22785.12
525.98	23117.47
526.16	23126.83
526.33	23054.28
526.50	23091.73
526.67	23080.02
526.84	22864.69
527.01	23185.35
527.18	23641.75
527.36	23438.12
527.53	23606.64
527.70	23534.09
527.87	23634.73
528.04	23110.45
528.21	23484.94
528.38	23307.05
528.55	23917.93
528.72	23812.61
528.89	23899.21
529.07	24290.08
529.24	23672.18
529.41	24212.84
529.58	23946.02
529.75	23733.03
529.92	23826.65
530.09	23763.46
530.26	23887.51
530.43	24114.54
530.60	23999.85
530.77	23990.49
530.94	23988.15
531.11	24154.33
531.28	23875.80
531.46	24247.95
531.63	24177.73
531.80	24329.87
531.97	24542.86
532.14	24559.24
532.31	24173.05
532.48	24327.53
532.65	24308.80
532.82	24329.87
532.99	24353.27
533.16	23857.08
533.33	24549.88
533.50	24805.00
533.67	24741.80
533.84	24837.76
534.01	24842.45
534.18	24758.19
534.35	24671.59
534.52	24769.89
534.69	24732.44
534.86	25029.69
535.03	24926.71
535.20	25078.84
535.37	25266.08
535.54	25160.76
535.71	24716.06
535.88	24849.47
536.05	25132.67
536.22	25645.25
536.38	25556.31
536.55	25261.40
536.72	25228.63
536.89	25186.50
537.06	25345.66
537.23	25436.94
537.40	25177.14
537.57	25127.99
537.74	25596.10
537.91	25982.29
538.08	25626.53
538.25	25385.45
538.42	25883.98
538.59	26050.16
538.75	25743.55
538.92	25619.50
539.09	25865.26
539.26	25989.31
539.43	26160.17
539.60	26008.03
539.77	25563.33
539.94	26029.10
540.11	25745.89
540.28	26232.72
540.44	25736.53
540.61	26171.87
540.78	26052.50
540.95	26087.61
541.12	26452.73
541.29	26120.38
541.46	25998.67
541.62	26068.89
541.79	26396.56
541.96	25830.15
542.13	26288.90
542.30	26312.30
542.47	26361.45
542.63	26108.68
542.80	26314.64
542.97	26597.85
543.14	26803.82
543.31	26588.49
543.48	26625.93
543.64	27171.28
543.81	26890.41
543.98	26787.43
544.15	26693.81
544.32	26969.99
544.48	27187.66
544.65	27019.14
544.82	26876.37
544.99	26969.99
545.16	27112.77
545.32	26806.16
545.49	27236.81
545.66	27700.24
545.83	27473.21
546.00	27592.58
546.16	26848.29
546.33	27042.55
546.50	27159.58
546.67	27166.60
546.83	27049.57
547.00	27250.86
547.17	27332.78
547.34	27138.51
547.50	27761.09
547.67	27674.49
547.84	27321.07
548.00	27454.48
548.17	27662.79
548.34	27524.70
548.51	27817.27
548.67	27894.50
548.84	27414.69
549.01	27786.84
549.18	27754.07
549.34	27505.98
549.51	27814.93
549.68	27604.28
549.84	27866.42
550.01	27854.72
550.18	27700.24
550.34	27775.14
550.51	28187.07
550.68	27955.36
550.84	27604.28
551.01	28002.17
551.18	27946.00
551.34	27566.83
551.51	27931.95
551.68	28236.22
551.84	28500.70
552.01	28479.64
552.18	28191.75
552.34	28056.00
552.51	28098.13
552.68	28044.30
552.84	28149.62
553.01	28606.03
553.18	27976.42
553.34	28315.80
553.51	28386.02
553.67	28638.80
553.84	28573.26
554.01	28636.45
554.17	28711.35
554.34	28376.66
554.51	28467.94
554.67	28727.74
554.84	28367.29
555.00	28687.95
555.17	28383.68
555.33	28854.12
555.50	28407.08
555.67	28491.34
555.83	28500.70
556.00	28512.41
556.16	28926.68
556.33	28669.22
556.50	28713.69
556.66	28851.78
556.83	28779.23
556.99	29039.03
557.16	28870.51
557.32	28800.29
557.49	29202.86
557.65	28481.98
557.82	28826.04
557.98	28582.62
558.15	28917.32
558.32	29034.35
558.48	28929.02
558.65	29069.45
558.81	29266.06
558.98	28870.51
559.14	29453.30
559.31	28683.27
559.47	29008.60
559.64	28886.89
559.80	29315.21
559.97	29088.18
560.13	29329.25
560.30	29441.60
560.46	29263.72
560.63	29572.67
560.79	29589.05
560.96	29406.49
561.12	29387.77
561.29	29670.97
561.45	28823.70
561.61	29420.53
561.78	29823.11
561.94	29450.96
562.11	29558.63
562.27	29392.45
562.44	29090.52
562.60	29404.15
562.77	29729.48
562.93	29465.00
563.10	29558.63
563.26	29586.71
563.42	29996.31
563.59	29465.00
563.75	29399.47
563.92	29675.65
564.08	29692.04
564.24	29457.98
564.41	29413.51
564.57	29483.73
564.74	29659.27
564.90	29647.57
565.07	29898.00
565.23	29778.64
565.39	29600.76
565.56	30118.01
565.72	29483.73
565.88	29715.44
566.05	29783.32
566.21	29603.10
566.38	30134.40
566.54	29860.55
566.70	30075.88
566.87	29837.15
567.03	29364.36
567.19	30235.04
567.36	29577.35
567.52	29715.44
567.68	29998.65
567.85	29752.89
568.01	29930.77
568.17	29497.77
568.34	30132.06
568.50	29823.11
568.66	29633.52
568.83	30412.92
568.99	29809.06
569.15	30073.54
569.32	29858.21
569.48	29759.91
569.64	29827.79
569.81	30197.59
569.97	30050.14
570.13	30038.44
570.30	30110.99
570.46	29970.56
570.62	30249.08
570.78	30263.13
570.95	30000.99
571.11	29771.61
571.27	29586.71
571.43	30319.30
571.60	29970.56
571.76	30000.99
571.92	30099.29
572.09	29701.40
572.25	30108.65
572.41	30176.53
572.57	30068.86
572.74	30382.49
572.90	29766.93
573.06	29902.68
573.22	29797.36
573.38	30394.20
573.55	30148.44
573.71	30295.89
573.87	30595.48
574.03	30188.23
574.20	30148.44
574.36	30192.91
574.52	30319.30
574.68	29893.32
574.84	30274.83
575.01	29989.28
575.17	30359.09
575.33	30272.49
575.49	30026.73
575.65	30579.10
575.82	30099.29
575.98	30132.06
576.14	30235.04
576.30	30066.52
576.46	29895.66
576.62	30125.04
576.79	30632.93
576.95	30171.85
577.11	30225.68
577.27	30522.93
577.43	30738.26
577.59	30192.91
577.75	30370.79
577.92	29795.02
578.08	30005.67
578.24	30368.45
578.40	30260.79
578.56	30508.88
578.72	30487.82
578.88	30806.13
579.04	30654.00
579.21	30216.32
579.37	30574.42
579.53	30555.69
579.69	30459.73
579.85	30256.11
580.01	30141.42
580.17	30426.96
580.33	30682.08
580.49	30464.41
580.65	30756.98
580.82	30522.93
580.98	30485.48
581.14	30555.69
581.30	30464.41
581.46	29818.42
581.62	30625.91
581.78	29975.24
581.94	30129.72
582.10	30396.54
582.26	30150.78
582.42	30602.50
582.58	30558.03
582.74	30354.41
582.90	30323.98
583.06	30459.73
583.22	30658.68
583.38	30094.61
583.54	30099.29
583.70	30466.75
583.86	30899.75
584.02	30347.39
584.18	30796.77
584.34	30431.65
584.50	30822.51
584.66	30424.62
584.82	30265.47
584.98	30464.41
585.14	30462.07
585.30	30452.71
585.46	30555.69
585.62	30403.56
585.78	30862.30
585.94	30347.39
586.10	30483.14
586.26	30424.62
586.42	30703.15
586.58	30614.21
586.74	30965.29
586.90	30471.43
587.06	30171.85
587.22	30646.97
587.38	30110.99
587.54	30710.17
587.70	30897.41
587.86	30665.70
588.02	31049.55
588.18	30927.84
588.34	30368.45
588.49	30897.41
588.65	30260.79
588.81	30122.69
588.97	30930.18
589.13	30930.18
589.29	30586.12
589.45	30560.37
589.61	31007.42
589.77	31159.55
589.93	30813.15
590.08	30651.66
590.24	31016.78
590.40	30899.75
590.56	30539.31
590.72	30710.17
590.88	30698.47
591.04	30684.42
591.20	30881.03
591.35	30974.65
591.51	31105.72
591.67	31431.05
591.83	30759.32
591.99	30661.02
