SpectraSuite Data File
++++++++++++++++++++++++++++++++++++
Date: Fri Oct 18 13:58:22 GMT-05:00 2013
User: bianchi
Dark Spectrum Present: No
Reference Spectrum Present: No
Number of Sampled Component Spectra: 1
Spectrometers: USB2+H05261
Integration Time (usec): 50000 (USB2+H05261)
Spectra Averaged: 1 (USB2+H05261)
Boxcar Smoothing: 0 (USB2+H05261)
Correct for Electrical Dark: No (USB2+H05261)
Strobe/Lamp Enabled: No (USB2+H05261)
Correct for Detector Non-linearity: No (USB2+H05261)
Correct for Stray Light: No (USB2+H05261)
Number of Pixels in Processed Spectrum: 2048
>>>>>Begin Processed Spectral Data<<<<<
365.73	0.00
365.92	0.00
366.12	0.00
366.32	0.00
366.52	0.00
366.72	0.00
366.91	0.00
367.11	0.00
367.31	0.00
367.51	0.00
367.70	0.00
367.90	0.00
368.10	0.00
368.30	0.00
368.49	0.00
368.69	0.00
368.89	0.00
369.09	0.00
369.28	0.00
369.48	0.00
369.68	0.00
369.87	0.00
370.07	0.00
370.27	0.00
370.47	0.00
370.66	53.83
370.86	149.79
371.06	121.71
371.25	91.28
371.45	70.22
371.65	168.52
371.84	44.47
372.04	196.60
372.24	138.09
372.44	138.09
372.63	142.77
372.83	217.67
373.03	210.65
373.22	224.69
373.42	196.60
373.62	159.16
373.81	238.73
374.01	248.10
374.21	187.24
374.40	273.84
374.60	187.24
374.79	245.76
374.99	259.80
375.19	236.39
375.38	306.61
375.58	252.78
375.78	315.97
375.97	245.76
376.17	294.91
376.37	299.59
376.56	292.57
376.76	227.03
376.95	271.50
377.15	285.55
377.35	304.27
377.54	236.39
377.74	290.23
377.93	220.01
378.13	294.91
378.33	322.99
378.52	280.86
378.72	322.99
378.91	224.69
379.11	259.80
379.31	278.52
379.50	276.18
379.70	252.78
379.89	315.97
380.09	322.99
380.28	318.31
380.48	290.23
380.68	304.27
380.87	397.89
381.07	320.65
381.26	341.72
381.46	315.97
381.65	283.20
381.85	330.02
382.04	369.80
382.24	332.36
382.43	320.65
382.63	313.63
382.83	353.42
383.02	355.76
383.22	355.76
383.41	339.38
383.61	409.59
383.80	381.51
384.00	348.74
384.19	318.31
384.39	388.53
384.58	315.97
384.78	297.25
384.97	351.08
385.17	351.08
385.36	344.06
385.56	383.85
385.75	315.97
385.95	369.80
386.14	444.70
386.34	379.17
386.53	393.21
386.72	409.59
386.92	444.70
387.11	365.12
387.31	346.40
387.50	367.46
387.70	472.79
387.89	465.77
388.09	428.32
388.28	423.64
388.48	425.98
388.67	421.30
388.86	477.47
389.06	407.25
389.25	407.25
389.45	491.51
389.64	500.87
389.84	477.47
390.03	489.17
390.22	510.24
390.42	400.23
390.61	454.06
390.81	503.22
391.00	486.83
391.19	470.45
391.39	493.85
391.58	507.90
391.78	440.02
391.97	517.26
392.16	535.98
392.36	552.37
392.55	540.66
392.75	617.90
392.94	503.22
393.13	557.05
393.33	500.87
393.52	547.69
393.71	573.43
393.91	554.71
394.10	465.77
394.29	477.47
394.49	608.54
394.68	599.18
394.88	589.82
395.07	561.73
395.26	596.84
395.46	627.26
395.65	629.60
395.84	615.56
396.04	662.37
396.23	627.26
396.42	622.58
396.62	643.65
396.81	622.58
397.00	662.37
397.19	653.01
397.39	681.10
397.58	664.71
397.77	638.97
397.97	589.82
398.16	683.44
398.35	638.97
398.55	688.12
398.74	674.07
398.93	601.52
399.12	765.36
399.32	610.88
399.51	674.07
399.70	690.46
399.90	685.78
400.09	777.06
400.28	734.93
400.47	763.01
400.67	739.61
400.86	767.70
401.05	711.52
401.24	842.59
401.44	725.57
401.63	746.63
401.82	751.31
402.01	830.89
402.21	772.38
402.40	819.19
402.59	903.45
402.78	924.51
402.97	802.80
403.17	854.30
403.36	812.17
403.55	887.06
403.74	940.90
403.93	903.45
404.13	854.30
404.32	873.02
404.51	1006.43
404.70	943.24
404.89	905.79
405.09	1071.97
405.28	999.41
405.47	945.58
405.66	990.05
405.85	987.71
406.05	1011.11
406.24	866.00
406.43	980.68
406.62	1008.77
406.81	961.96
407.00	947.92
407.20	987.71
407.39	1025.15
407.58	1027.50
407.77	1025.15
407.96	1011.11
408.15	1029.84
408.34	1057.92
408.54	1128.14
408.73	1081.33
408.92	1018.13
409.11	1001.75
409.30	1210.06
409.49	1179.63
409.68	1102.39
409.87	1022.81
410.07	1139.84
410.26	1144.52
410.45	1149.20
410.64	1121.12
410.83	1153.88
411.02	1177.29
411.21	1270.91
411.40	1228.78
411.59	1231.12
411.78	1207.72
411.98	1282.61
412.17	1371.55
412.36	1303.68
412.55	1268.57
412.74	1465.18
412.93	1371.55
413.12	1259.21
413.31	1448.79
413.50	1308.36
413.69	1331.76
413.88	1446.45
414.07	1394.96
414.26	1430.07
414.45	1509.65
414.64	1568.16
414.83	1448.79
415.02	1556.46
415.22	1514.33
415.41	1528.37
415.60	1549.43
415.79	1453.47
415.98	1577.52
416.17	1598.59
416.36	1596.25
416.55	1673.48
416.74	1652.42
416.93	1643.06
417.12	1680.50
417.31	1682.85
417.50	1706.25
417.69	1764.76
417.88	1715.61
418.07	1764.76
418.26	1727.32
418.45	1736.68
418.64	1781.15
418.83	1790.51
419.02	1741.36
419.21	1820.94
419.39	1844.34
419.58	1923.92
419.77	1820.94
419.96	1760.08
420.15	1966.05
420.34	1849.02
420.53	1895.83
420.72	1926.26
420.91	1877.11
421.10	1870.09
421.29	1916.90
421.48	1930.94
421.67	1830.30
421.86	1891.15
422.05	1942.64
422.24	1973.07
422.43	1870.09
422.61	1902.86
422.80	1984.77
422.99	1930.94
423.18	1935.62
423.37	2083.08
423.56	2008.18
423.75	1975.41
423.94	1933.28
424.13	1874.77
424.32	1935.62
424.50	2015.20
424.69	2080.74
424.88	2094.78
425.07	1984.77
425.26	1987.11
425.45	1968.39
425.64	1996.48
425.83	2078.40
426.01	2054.99
426.20	2059.67
426.39	2094.78
426.58	2012.86
426.77	2195.42
426.96	2019.88
427.15	2099.46
427.33	2071.37
427.52	1994.14
427.71	2132.23
427.90	2162.66
428.09	2218.83
428.28	2317.13
428.46	2263.30
428.65	2214.15
428.84	2120.53
429.03	2279.68
429.22	2118.18
429.40	2204.78
429.59	2146.27
429.78	2150.95
429.97	2122.87
430.16	2260.96
430.34	2275.00
430.53	2314.79
430.72	2267.98
430.91	2321.81
431.10	2232.87
431.28	2265.64
431.47	2282.02
431.66	2452.88
431.85	2436.50
432.03	2445.86
432.22	2471.61
432.41	2408.41
432.60	2506.71
432.79	2464.58
432.97	2347.56
433.16	2347.56
433.35	2387.35
433.54	2513.74
433.72	2532.46
433.91	2504.37
434.10	2537.14
434.28	2464.58
434.47	2553.52
434.66	2532.46
434.85	2555.86
435.03	2476.29
435.22	2565.23
435.41	2635.44
435.59	2750.13
435.78	2703.32
435.97	2743.11
436.16	2616.72
436.34	2651.83
436.53	2745.45
436.72	2768.85
436.90	2576.93
437.09	2757.15
437.28	2635.44
437.46	2764.17
437.65	2731.41
437.84	2663.53
438.02	2813.32
438.21	2759.49
438.40	2860.13
438.58	2864.82
438.77	2806.30
438.96	2818.00
439.14	2841.41
439.33	2965.46
439.52	2939.71
439.70	3087.17
439.89	3112.91
440.08	2925.67
440.26	2974.82
440.45	3012.27
440.63	3063.76
440.82	3084.83
441.01	3105.89
441.19	3159.72
441.38	3197.17
441.57	3080.14
441.75	3290.79
441.94	3346.97
442.12	3201.85
442.31	3318.88
442.50	3272.07
442.68	3262.71
442.87	3283.77
443.05	3365.69
443.24	3496.76
443.43	3473.36
443.61	3361.01
443.80	3623.15
443.98	3267.39
444.17	3260.37
444.35	3363.35
444.54	3414.84
444.73	3412.50
444.91	3478.04
445.10	3478.04
445.28	3276.75
445.47	3358.67
445.65	3496.76
445.84	3478.04
446.02	3428.88
446.21	3382.07
446.39	3449.95
446.58	3414.84
446.77	3314.20
446.95	3461.65
447.14	3332.92
447.32	3431.23
447.51	3466.33
447.69	3496.76
447.88	3485.06
448.06	3414.84
448.25	3494.42
448.43	3641.87
448.62	3344.63
448.80	3492.08
448.99	3562.30
449.17	3648.90
449.36	3494.42
449.54	3588.04
449.73	3644.21
449.91	3648.90
450.10	3719.11
450.28	3791.67
450.46	3662.94
450.65	3801.03
450.83	3801.03
451.02	3637.19
451.20	3693.37
451.39	3782.31
451.57	3714.43
451.76	3723.79
451.94	3768.26
452.13	3836.14
452.31	3880.61
452.49	3901.67
452.68	3705.07
452.86	3775.28
453.05	4079.55
453.23	3936.78
453.42	3840.82
453.60	3840.82
453.78	4011.68
453.97	3761.24
454.15	3927.42
454.34	3744.86
454.52	3974.23
454.70	4051.47
454.89	4147.43
455.07	4074.87
455.26	3992.95
455.44	3929.76
455.62	3981.25
455.81	4198.92
455.99	4131.05
456.17	4058.49
456.36	4194.24
456.54	4177.86
456.73	4100.62
456.91	4271.48
457.09	4306.59
457.28	4341.69
457.46	4327.65
457.64	4355.74
457.83	4306.59
458.01	4250.41
458.19	4423.61
458.38	4400.21
458.56	4425.95
458.74	4264.46
458.93	4566.39
459.11	4353.40
459.29	4444.68
459.48	4465.74
459.66	4510.21
459.84	4505.53
460.03	4634.26
460.21	4372.12
460.39	4493.83
460.57	4564.04
460.76	4486.81
460.94	4582.77
461.12	4741.93
461.31	4526.60
461.49	4500.85
461.67	4620.22
461.85	4678.73
462.04	4709.16
462.22	4870.65
462.40	4847.25
462.59	4615.54
462.77	4690.43
462.95	4774.69
463.13	4692.77
463.32	4777.03
463.50	4791.08
463.68	4819.16
463.86	4840.23
464.05	4730.22
464.23	4807.46
464.41	4856.61
464.59	4840.23
464.78	5057.90
464.96	5013.43
465.14	4875.34
465.32	4877.68
465.50	5181.95
465.69	5001.72
465.87	5088.32
466.05	4922.15
466.23	4968.96
466.41	5022.79
466.60	5093.01
466.78	4889.38
466.96	5135.14
467.14	5060.24
467.32	5095.35
467.51	5069.60
467.69	4961.94
467.87	5135.14
468.05	5022.79
468.23	5083.64
468.41	5088.32
468.60	5210.03
468.78	5406.64
468.96	5149.18
469.14	5228.76
469.32	5280.25
469.50	5142.16
469.69	5282.59
469.87	5392.59
470.05	5575.16
470.23	5425.36
470.41	5348.12
470.59	5427.70
470.77	5357.49
470.95	5610.26
471.14	5638.35
471.32	5432.38
471.50	5682.82
471.68	5507.28
471.86	5474.51
472.04	5584.52
472.22	5799.85
472.40	5610.26
472.58	5626.65
472.77	5689.84
472.95	5755.38
473.13	5975.39
473.31	5680.48
473.49	5731.97
473.67	5959.00
473.85	5858.36
474.03	5947.30
474.21	5961.34
474.39	6157.95
474.57	5923.90
474.75	6029.22
474.93	6099.44
475.12	6239.87
475.30	6104.12
475.48	6218.80
475.66	6310.08
475.84	6181.35
476.02	6438.81
476.20	6319.45
476.38	6424.77
476.56	6445.84
476.74	6623.72
476.92	6459.88
477.10	6335.83
477.28	6539.46
477.46	6651.80
477.64	6733.72
477.82	6862.45
478.00	6782.87
478.18	6890.54
478.36	6878.83
478.54	7016.93
478.72	7115.23
478.90	7253.32
479.08	7117.57
479.26	7201.83
479.44	7332.90
479.62	7389.07
479.80	7337.58
479.98	7375.03
480.16	7632.49
480.34	7419.50
480.52	7754.19
480.70	7651.21
480.88	7543.55
481.06	7700.36
481.24	7625.47
481.41	7768.24
481.59	7939.10
481.77	8013.99
481.95	7978.89
482.13	8107.62
482.31	8006.97
482.49	8116.98
482.67	8269.11
482.85	8306.56
483.03	8362.73
483.21	8418.91
483.39	8393.16
483.57	8531.25
483.74	8564.02
483.92	8725.52
484.10	8603.81
484.28	8676.37
484.46	9095.32
484.64	9071.92
484.82	9076.60
485.00	9034.47
485.18	8961.91
485.35	9149.15
485.53	9205.33
485.71	9603.22
485.89	9530.66
486.07	9322.35
486.25	9533.00
486.43	9603.22
486.61	9701.52
486.78	9666.41
486.96	10059.62
487.14	10071.33
487.32	10125.16
487.50	10122.82
487.68	10335.81
487.85	10221.12
488.03	10438.79
488.21	10579.22
488.39	10401.34
488.57	10637.73
488.75	10719.65
488.92	10686.89
489.10	10916.26
489.28	11059.03
489.46	11115.20
489.64	10991.16
489.81	11023.92
489.99	11178.40
490.17	11239.25
490.35	11353.94
490.53	11513.10
490.70	11452.24
490.88	11475.65
491.06	11564.59
491.24	11838.43
491.41	11845.45
491.59	11831.41
491.77	12058.44
491.95	11906.31
492.13	12093.55
492.30	12287.81
492.48	12058.44
492.66	12393.14
492.84	12245.68
493.01	12561.66
493.19	12428.24
493.37	12774.64
493.54	12685.70
493.72	12908.05
493.90	12798.05
494.08	12858.90
494.25	12961.89
494.43	13018.06
494.61	13310.63
494.79	13523.62
494.96	13107.00
495.14	13142.11
495.32	13474.46
495.49	13355.10
495.67	13488.51
495.85	13703.84
496.02	13853.63
496.20	13666.39
496.38	13860.65
496.55	13944.91
496.73	14012.79
496.91	13771.71
497.09	14080.66
497.26	14422.38
497.44	14263.22
497.62	14071.30
497.79	14597.92
497.97	14394.29
498.14	14572.18
498.32	14616.65
498.50	14796.87
498.67	14850.70
498.85	14665.80
499.03	14923.26
499.20	14780.48
499.38	14867.08
499.56	15030.92
499.73	15077.73
499.91	15314.13
500.08	15721.38
500.26	15152.63
500.44	15522.43
500.61	15501.37
500.79	15272.00
500.97	15328.17
501.14	15807.98
501.32	15983.52
501.49	15693.29
501.67	15793.94
501.84	15735.42
502.02	16114.59
502.20	16006.92
502.37	16243.32
502.55	15908.62
502.72	16166.08
502.90	16100.55
503.07	16177.78
503.25	16035.01
503.43	16325.24
503.60	16390.77
503.78	16240.98
503.95	16276.09
504.13	16421.20
504.30	16601.42
504.48	16606.10
504.65	16959.52
504.83	16882.28
505.01	16987.61
505.18	16774.62
505.36	17050.80
505.53	17008.67
505.71	16917.39
505.88	17202.94
506.06	16854.20
506.23	17273.15
506.41	17261.45
506.58	17214.64
506.76	17324.65
506.93	17121.02
507.11	17076.55
507.28	17558.70
507.46	17420.61
507.63	17481.46
507.81	17617.21
507.98	17551.68
508.16	17900.42
508.33	17638.28
508.50	17514.23
508.68	18066.60
508.85	18101.70
509.03	17888.71
509.20	18005.74
509.38	18082.98
509.55	18511.30
509.73	18211.71
509.90	18192.98
510.08	18171.92
510.25	18249.16
510.42	18647.05
510.60	18515.98
510.77	18679.82
510.95	18679.82
511.12	18249.16
511.30	18572.15
511.47	18735.99
511.64	18878.76
511.82	19033.24
511.99	18693.86
512.17	18780.46
512.34	19246.23
512.51	18963.02
512.69	19110.47
512.86	19037.92
513.04	19199.41
513.21	19197.07
513.38	19201.76
513.56	19349.21
513.73	19381.98
513.90	19658.16
514.08	19136.22
514.25	19206.44
514.43	19618.37
514.60	19847.74
514.77	19646.46
514.95	19641.78
515.12	19742.42
515.29	19763.48
515.47	19861.79
515.64	19620.71
515.81	20250.32
515.99	19999.88
516.16	20166.06
516.33	20233.93
516.51	20126.27
516.68	20166.06
516.85	19847.74
517.03	20362.66
517.20	20397.77
517.37	20475.01
517.54	20435.22
517.72	20751.19
517.89	20397.77
518.06	20149.67
518.24	20486.71
518.41	20425.86
518.58	20636.50
518.75	20755.87
518.93	20748.85
519.10	20812.04
519.27	20950.14
519.45	20851.83
519.62	20695.02
519.79	21092.91
519.96	21113.97
520.14	21413.56
520.31	20896.30
520.48	21231.00
520.65	20971.20
520.83	21474.42
521.00	21200.57
521.17	21481.44
521.34	21149.08
521.52	21439.31
521.69	21628.89
521.86	21902.73
522.03	21806.77
522.20	21542.29
522.38	21626.55
522.55	21668.68
522.72	21958.91
522.89	21729.53
523.07	21816.13
523.24	21769.32
523.41	22216.36
523.58	21551.65
523.75	22139.13
523.92	22136.79
524.10	22033.80
524.27	22288.92
524.44	22183.60
524.61	22436.38
524.78	22043.17
524.96	22410.63
525.13	22099.34
525.30	22239.77
525.47	22384.88
525.64	22258.49
525.81	22567.45
525.98	22752.35
526.16	22579.15
526.33	22324.03
526.50	22579.15
526.67	22492.55
526.84	22955.97
527.01	22852.99
527.18	23058.96
527.36	22822.56
527.53	22932.57
527.70	23222.80
527.87	23222.80
528.04	22953.63
528.21	23330.46
528.38	23150.24
528.55	23056.62
528.72	23073.00
528.89	23248.54
529.07	23012.15
529.24	23136.20
529.41	23459.19
529.58	23070.66
529.75	23356.21
529.92	23690.90
530.09	23714.31
530.26	23494.30
530.43	23522.38
530.60	23269.61
530.77	23510.68
530.94	23569.19
531.11	23784.52
531.28	23644.09
531.46	23807.93
531.63	23445.15
531.80	23857.08
531.97	23714.31
532.14	23873.46
532.31	24081.77
532.48	23854.74
532.65	24086.45
532.82	24018.58
532.99	23976.45
533.16	24287.74
533.33	23927.30
533.50	24194.12
533.67	24238.59
533.84	24210.50
534.01	24245.61
534.18	24023.26
534.35	24643.50
534.52	24166.03
534.69	24580.31
534.86	24437.53
535.03	24512.43
535.20	24753.51
535.37	24697.33
535.54	24620.10
535.71	24521.79
535.88	24631.80
536.05	24458.60
536.22	24980.54
536.38	24666.91
536.55	24812.02
536.72	24999.26
536.89	24617.75
537.06	24978.20
537.23	25013.31
537.40	24875.21
537.57	24643.50
537.74	24847.13
537.91	25060.12
538.08	25170.12
538.25	25160.76
538.42	25078.84
538.59	25282.47
538.75	24858.83
538.92	25137.35
539.09	25509.50
539.26	25338.64
539.43	25479.07
539.60	25284.81
539.77	25462.69
539.94	25188.85
540.11	25488.43
540.28	25296.51
540.44	25310.55
540.61	25130.33
540.78	25656.95
540.95	25441.62
541.12	25483.75
541.29	25432.26
541.46	25692.06
541.62	25860.58
541.79	25392.47
541.96	25474.39
542.13	25612.48
542.30	25640.57
542.47	25874.62
542.63	25928.45
542.80	25827.81
542.97	26022.08
543.14	26075.91
543.31	26204.64
543.48	26096.97
543.64	26415.29
543.81	26305.28
543.98	26522.95
544.15	26436.35
544.32	26522.95
544.48	26810.84
544.65	25900.37
544.82	26724.24
544.99	26089.95
545.16	26225.70
545.32	26625.93
545.49	26576.78
545.66	26670.40
545.83	26841.26
546.00	26581.46
546.16	26576.78
546.33	26387.20
546.50	26272.51
546.67	26810.84
546.83	26108.68
547.00	26909.14
547.17	26670.40
547.34	27044.89
547.50	26700.83
547.67	27201.71
547.84	26504.23
548.00	26902.12
548.17	27325.75
548.34	26867.01
548.51	26988.72
548.67	27213.41
548.84	27140.85
549.01	26848.29
549.18	26675.09
549.34	27178.30
549.51	27002.76
549.68	27098.72
549.84	27117.45
550.01	27498.95
550.18	27426.40
550.34	27372.57
550.51	27601.94
550.68	27515.34
550.84	27192.34
551.01	27648.75
551.18	27253.20
551.34	27061.27
551.51	27384.27
551.68	27276.60
551.84	27604.28
552.01	27346.82
552.18	27843.01
552.34	27283.62
552.51	27543.42
552.68	27615.98
552.84	27456.82
553.01	27681.52
553.18	27784.50
553.34	27665.13
553.51	27555.13
553.67	27559.81
553.84	28077.07
554.01	27852.38
554.17	27899.19
554.34	27536.40
554.51	27569.17
554.67	27899.19
554.84	27740.03
555.00	27756.41
555.17	28072.39
555.33	28070.04
555.50	27821.95
555.67	27953.02
555.83	27992.81
556.00	28018.55
556.16	28128.56
556.33	28261.97
556.50	27934.29
556.66	27786.84
556.83	28304.10
556.99	28163.67
557.16	28446.87
557.32	28175.37
557.49	28154.30
557.65	28390.70
557.82	27999.83
557.98	27878.12
558.15	28322.82
558.32	28393.04
558.48	28285.37
558.65	28383.68
558.81	28364.95
558.98	28376.66
559.14	28121.54
559.31	28435.17
559.47	28222.18
559.64	28133.24
559.80	28201.11
559.97	28706.67
560.13	28685.61
560.30	28662.20
560.46	28610.71
560.63	28149.62
560.79	28491.34
560.96	28273.67
561.12	28386.02
561.29	28379.00
561.45	28568.58
561.61	28673.90
561.78	28496.02
561.94	28758.16
562.11	28606.03
562.27	28662.20
562.44	28730.08
562.60	28694.97
562.77	28694.97
562.93	28694.97
563.10	28802.63
563.26	28751.14
563.42	28758.16
563.59	28957.11
563.75	29104.56
563.92	29160.73
564.08	28725.39
564.24	28690.29
564.41	28685.61
564.57	28723.05
564.74	28919.66
564.90	28849.44
565.07	29174.78
565.23	28975.83
565.39	28985.19
565.56	28952.43
565.72	29048.39
565.88	29172.44
566.05	28954.77
566.21	28833.06
566.38	28922.00
566.54	28907.96
566.70	29235.63
566.87	29006.26
567.03	28847.10
567.19	29490.75
567.36	28926.68
567.52	29240.31
567.68	29273.08
567.85	28891.57
568.01	29228.61
568.17	29055.41
568.34	29443.94
568.50	29050.73
568.66	28929.02
568.83	29605.44
568.99	29427.56
569.15	29055.41
569.32	29088.18
569.48	28753.48
569.64	29078.82
569.81	28912.64
569.97	29057.75
570.13	29247.33
570.30	29453.30
570.46	29406.49
570.62	29336.27
570.78	29085.84
570.95	29060.09
571.11	29656.93
571.27	28966.47
571.43	29102.22
571.60	29170.10
571.76	29006.26
571.92	29570.33
572.09	29411.17
572.25	29575.01
572.41	29462.66
572.57	29223.93
572.74	29661.61
572.90	29287.12
573.06	29322.23
573.22	29359.68
573.38	29380.74
573.55	29429.90
573.71	29710.76
573.87	29699.06
574.03	29780.98
574.20	29724.80
574.36	29106.90
574.52	29598.41
574.68	29046.05
574.84	29556.28
575.01	29631.18
575.17	29202.86
575.33	29252.02
575.49	29390.11
575.65	29469.69
575.82	29516.50
575.98	29425.22
576.14	29596.07
576.30	29249.67
576.46	29301.17
576.62	29212.23
576.79	29605.44
576.95	29202.86
577.11	29127.97
577.27	29507.13
577.43	29682.67
577.59	29759.91
577.75	29673.31
577.92	29481.39
578.08	29270.74
578.24	29193.50
578.40	29120.95
578.56	29830.13
578.72	29476.71
578.88	29851.19
579.04	29591.39
579.21	29450.96
579.37	29624.16
579.53	29898.00
579.69	29378.40
579.85	29537.56
580.01	29394.79
580.17	29298.83
580.33	29481.39
580.49	29647.57
580.65	29589.05
580.82	29558.63
580.98	29373.72
581.14	29385.43
581.30	29663.95
581.46	29663.95
581.62	29610.12
581.78	29696.72
581.94	29610.12
582.10	29659.27
582.26	29893.32
582.42	29755.23
582.58	29909.71
582.74	29766.93
582.90	29521.18
583.06	29645.23
583.22	29696.72
583.38	29490.75
583.54	29626.50
583.70	29699.06
583.86	29603.10
584.02	29460.32
584.18	29844.17
584.34	29619.48
584.50	29575.01
584.66	30059.50
584.82	29455.64
584.98	29809.06
585.14	29834.81
585.30	29434.58
585.46	29750.55
585.62	29518.84
585.78	29701.40
585.94	29394.79
586.10	29692.04
586.26	29998.65
586.42	29802.04
586.58	30064.18
586.74	29654.59
586.90	29481.39
587.06	29593.73
587.22	30057.16
587.38	29593.73
587.54	29935.45
587.70	30082.91
587.86	29717.78
588.02	29663.95
588.18	30033.75
588.34	30096.95
588.49	29916.73
588.65	29343.30
588.81	29567.99
588.97	29937.79
589.13	29617.14
589.29	29713.10
589.45	29944.81
589.61	30073.54
589.77	30394.20
589.93	30162.48
590.08	30183.55
590.24	30115.67
590.40	29853.53
590.56	29982.26
590.72	29895.66
590.88	29979.92
591.04	30127.38
591.20	30260.79
591.35	30022.05
591.51	30171.85
591.67	30274.83
591.83	30239.72
591.99	30204.61
