SpectraSuite Data File
++++++++++++++++++++++++++++++++++++
Date: Fri Oct 18 13:58:39 GMT-05:00 2013
User: bianchi
Dark Spectrum Present: No
Reference Spectrum Present: No
Number of Sampled Component Spectra: 1
Spectrometers: USB2+H05261
Integration Time (usec): 50000 (USB2+H05261)
Spectra Averaged: 1 (USB2+H05261)
Boxcar Smoothing: 0 (USB2+H05261)
Correct for Electrical Dark: No (USB2+H05261)
Strobe/Lamp Enabled: No (USB2+H05261)
Correct for Detector Non-linearity: No (USB2+H05261)
Correct for Stray Light: No (USB2+H05261)
Number of Pixels in Processed Spectrum: 2048
>>>>>Begin Processed Spectral Data<<<<<
365.73	0.00
365.92	0.00
366.12	0.00
366.32	0.00
366.52	0.00
366.72	0.00
366.91	0.00
367.11	0.00
367.31	0.00
367.51	0.00
367.70	0.00
367.90	0.00
368.10	0.00
368.30	0.00
368.49	0.00
368.69	0.00
368.89	0.00
369.09	0.00
369.28	0.00
369.48	0.00
369.68	0.00
369.87	0.00
370.07	0.00
370.27	0.00
370.47	0.00
370.66	107.66
370.86	91.28
371.06	177.88
371.25	217.67
371.45	198.95
371.65	184.90
371.84	102.98
372.04	170.86
372.24	234.05
372.44	173.20
372.63	180.22
372.83	182.56
373.03	175.54
373.22	166.18
373.42	203.63
373.62	215.33
373.81	259.80
374.01	212.99
374.21	264.48
374.40	166.18
374.60	262.14
374.79	224.69
374.99	280.86
375.19	264.48
375.38	236.39
375.58	227.03
375.78	269.16
375.97	196.60
376.17	222.35
376.37	273.84
376.56	308.95
376.76	201.29
376.95	222.35
377.15	365.12
377.35	229.37
377.54	280.86
377.74	259.80
377.93	222.35
378.13	339.38
378.33	283.20
378.52	236.39
378.72	257.46
378.91	290.23
379.11	304.27
379.31	292.57
379.50	259.80
379.70	322.99
379.89	322.99
380.09	227.03
380.28	264.48
380.48	315.97
380.68	278.52
380.87	320.65
381.07	376.83
381.26	339.38
381.46	330.02
381.65	360.44
381.85	294.91
382.04	332.36
382.24	264.48
382.43	313.63
382.63	252.78
382.83	351.08
383.02	395.55
383.22	315.97
383.41	386.19
383.61	341.72
383.80	334.70
384.00	287.89
384.19	360.44
384.39	318.31
384.58	278.52
384.78	325.33
384.97	360.44
385.17	449.38
385.36	388.53
385.56	308.95
385.75	334.70
385.95	332.36
386.14	397.89
386.34	337.04
386.53	374.49
386.72	409.59
386.92	360.44
387.11	423.64
387.31	379.17
387.50	437.68
387.70	463.43
387.89	393.21
388.09	409.59
388.28	463.43
388.48	468.11
388.67	454.06
388.86	472.79
389.06	468.11
389.25	447.04
389.45	416.62
389.64	379.17
389.84	444.70
390.03	414.27
390.22	498.53
390.42	447.04
390.61	430.66
390.81	526.62
391.00	449.38
391.19	493.85
391.39	500.87
391.58	573.43
391.78	498.53
391.97	477.47
392.16	528.96
392.36	512.58
392.55	468.11
392.75	472.79
392.94	554.71
393.13	573.43
393.33	505.56
393.52	566.41
393.71	585.13
393.91	620.24
394.10	496.19
394.29	543.00
394.49	589.82
394.68	571.09
394.88	613.22
395.07	648.33
395.26	594.50
395.46	608.54
395.65	617.90
395.84	638.97
396.04	561.73
396.23	624.92
396.42	688.12
396.62	575.77
396.81	650.67
397.00	667.05
397.19	571.09
397.39	580.45
397.58	674.07
397.77	648.33
397.97	627.26
398.16	643.65
398.35	678.76
398.55	667.05
398.74	690.46
398.93	751.31
399.12	716.20
399.32	631.94
399.51	678.76
399.70	643.65
399.90	753.65
400.09	760.67
400.28	816.85
400.47	777.06
400.67	814.51
400.86	809.83
401.05	758.33
401.24	800.46
401.44	791.10
401.63	788.76
401.82	772.38
402.01	779.40
402.21	741.95
402.40	884.72
402.59	777.06
402.78	823.87
402.97	774.72
403.17	830.89
403.36	875.36
403.55	910.47
403.74	830.89
403.93	812.17
404.13	894.08
404.32	863.66
404.51	861.32
404.70	922.17
404.89	880.04
405.09	905.79
405.28	868.34
405.47	929.19
405.66	971.32
405.85	992.39
406.05	952.60
406.24	922.17
406.43	1008.77
406.62	891.74
406.81	1039.20
407.00	994.73
407.20	1006.43
407.39	1011.11
407.58	1036.86
407.77	1071.97
407.96	1142.18
408.15	1130.48
408.34	1135.16
408.54	1121.12
408.73	1067.28
408.92	1111.75
409.11	1057.92
409.30	1210.06
409.49	1022.81
409.68	1142.18
409.87	1210.06
410.07	1158.57
410.26	1210.06
410.45	1172.61
410.64	1268.57
410.83	1275.59
411.02	1226.44
411.21	1125.80
411.40	1226.44
411.59	1245.16
411.78	1301.34
411.98	1226.44
412.17	1313.04
412.36	1238.14
412.55	1308.36
412.74	1315.38
412.93	1287.29
413.12	1336.45
413.31	1385.60
413.50	1345.81
413.69	1345.81
413.88	1380.92
414.07	1385.60
414.26	1439.43
414.45	1425.39
414.64	1378.58
414.83	1467.52
415.02	1411.34
415.22	1476.88
415.41	1542.41
415.60	1469.86
415.79	1671.14
415.98	1523.69
416.17	1572.84
416.36	1577.52
416.55	1675.82
416.74	1689.87
416.93	1533.05
417.12	1654.76
417.31	1591.56
417.50	1626.67
417.69	1647.74
417.88	1612.63
418.07	1633.69
418.26	1755.40
418.45	1755.40
418.64	1816.26
418.83	1771.79
419.02	1797.53
419.21	1802.21
419.39	1877.11
419.58	1736.68
419.77	1851.36
419.96	1788.17
420.15	1921.58
420.34	1842.00
420.53	1839.66
420.72	1940.30
420.91	1863.07
421.10	1867.75
421.29	1884.13
421.48	1851.36
421.67	1987.11
421.86	1877.11
422.05	1989.46
422.24	2005.84
422.43	1921.58
422.61	1916.90
422.80	1952.01
422.99	2015.20
423.18	1994.14
423.37	2047.97
423.56	1989.46
423.75	1987.11
423.94	1961.37
424.13	1818.60
424.32	1912.22
424.50	1989.46
424.69	2099.46
424.88	1975.41
425.07	1928.60
425.26	1923.92
425.45	1874.77
425.64	1970.73
425.83	1982.43
426.01	2146.27
426.20	2076.06
426.39	2010.52
426.58	2015.20
426.77	1944.99
426.96	2150.95
427.15	2078.40
427.33	1998.82
427.52	2066.69
427.71	2087.76
427.90	2118.18
428.09	2076.06
428.28	2134.57
428.46	2239.89
428.65	2282.02
428.84	2246.91
429.03	2256.28
429.22	2174.36
429.40	2104.14
429.59	2242.23
429.78	2209.47
429.97	2078.40
430.16	2143.93
430.34	2282.02
430.53	2214.15
430.72	2331.17
430.91	2272.66
431.10	2314.79
431.28	2326.49
431.47	2387.35
431.66	2457.56
431.85	2408.41
432.03	2452.88
432.22	2410.75
432.41	2450.54
432.60	2438.84
432.79	2382.67
432.97	2314.79
433.16	2506.71
433.35	2422.45
433.54	2555.86
433.72	2621.40
433.91	2424.80
434.10	2438.84
434.28	2420.11
434.47	2518.42
434.66	2555.86
434.85	2534.80
435.03	2616.72
435.22	2485.65
435.41	2686.94
435.59	2661.19
435.78	2808.64
435.97	2602.68
436.16	2722.04
436.34	2642.46
436.53	2551.18
436.72	2684.59
436.90	2630.76
437.09	2703.32
437.28	2576.93
437.46	2644.81
437.65	2719.70
437.84	2668.21
438.02	2607.36
438.21	2670.55
438.40	2710.34
438.58	2801.62
438.77	2792.26
438.96	2810.98
439.14	2906.95
439.33	2857.79
439.52	2965.46
439.70	3077.80
439.89	3033.33
440.08	2834.39
440.26	2925.67
440.45	2925.67
440.63	2991.20
440.82	3204.19
441.01	3124.62
441.19	3038.02
441.38	3176.11
441.57	3162.06
441.75	3260.37
441.94	3248.66
442.12	3295.47
442.31	3335.26
442.50	3096.53
442.68	3279.09
442.87	3243.98
443.05	3297.81
443.24	3328.24
443.43	3311.86
443.61	3445.27
443.80	3510.80
443.98	3269.73
444.17	3180.79
444.35	3253.34
444.54	3454.63
444.73	3433.57
444.91	3424.20
445.10	3538.89
445.28	3337.60
445.47	3421.86
445.65	3426.54
445.84	3410.16
446.02	3517.83
446.21	3426.54
446.39	3447.61
446.58	3499.10
446.77	3421.86
446.95	3463.99
447.14	3353.99
447.32	3541.23
447.51	3571.66
447.69	3405.48
447.88	3487.40
448.06	3538.89
448.25	3321.22
448.43	3412.50
448.62	3482.72
448.80	3438.25
448.99	3552.93
449.17	3517.83
449.36	3536.55
449.54	3676.98
449.73	3709.75
449.91	3770.60
450.10	3559.95
450.28	3803.37
450.46	3590.38
450.65	3679.32
450.83	3557.61
451.02	3735.50
451.20	3625.49
451.39	3871.25
451.57	3606.77
451.76	3744.86
451.94	3763.58
452.13	3826.78
452.31	3749.54
452.49	3815.07
452.68	3733.15
452.86	3836.14
453.05	3768.26
453.23	3882.95
453.42	3789.33
453.60	3784.65
453.78	3878.27
453.97	3819.75
454.15	3880.61
454.34	3974.23
454.52	3936.78
454.70	3985.93
454.89	3971.89
455.07	4039.76
455.26	4023.38
455.44	4084.23
455.62	4030.40
455.81	4081.89
455.99	3990.61
456.17	4100.62
456.36	4145.09
456.54	4058.49
456.73	4182.54
456.91	4332.33
457.09	4149.77
457.28	4234.03
457.46	4299.56
457.64	4245.73
457.83	4301.90
458.01	4248.07
458.19	4337.01
458.38	4365.10
458.56	4435.32
458.74	4367.44
458.93	4393.19
459.11	4208.28
459.29	4294.88
459.48	4458.72
459.66	4418.93
459.84	4404.89
460.03	4444.68
460.21	4393.19
460.39	4374.46
460.57	4533.62
460.76	4442.34
460.94	4650.64
461.12	4690.43
461.31	4585.11
461.49	4514.89
461.67	4395.53
461.85	4596.81
462.04	4477.44
462.22	4844.91
462.40	4784.06
462.59	4711.50
462.77	4744.27
462.95	4475.10
463.13	4713.84
463.32	4727.88
463.50	4812.14
463.68	4795.76
463.86	4816.82
464.05	4802.78
464.23	4894.06
464.41	4828.53
464.59	4641.28
464.78	5064.92
464.96	4784.06
465.14	4690.43
465.32	4908.10
465.50	4943.21
465.69	5050.88
465.87	5008.75
466.05	4903.42
466.23	4903.42
466.41	4884.70
466.60	5060.24
466.78	4936.19
466.96	5116.41
467.14	5015.77
467.32	4919.81
467.51	4975.98
467.69	4943.21
467.87	5022.79
468.05	5252.16
468.23	5118.75
468.41	5043.85
468.60	5198.33
468.78	5240.46
468.96	5006.41
469.14	5268.55
469.32	5315.36
469.50	5195.99
469.69	5238.12
469.87	5198.33
470.05	5338.76
470.23	5383.23
470.41	5359.83
470.59	5277.91
470.77	5455.79
470.95	5425.36
471.14	5387.91
471.32	5474.51
471.50	5631.33
471.68	5469.83
471.86	5666.44
472.04	5673.46
472.22	5696.86
472.40	5476.85
472.58	5584.52
472.77	5647.71
472.95	5760.06
473.13	6040.92
473.31	5781.12
473.49	5797.51
473.67	5818.57
473.85	5905.17
474.03	5968.37
474.21	5802.19
474.39	5912.19
474.57	6069.01
474.75	5923.90
474.93	6139.23
475.12	6017.52
475.30	6127.52
475.48	6064.33
475.66	6232.85
475.84	6125.18
476.02	6148.59
476.20	6183.70
476.38	6399.02
476.56	6516.05
476.74	6328.81
476.92	6567.54
477.10	6359.24
477.28	6649.46
477.46	6502.01
477.64	6663.51
477.82	6712.66
478.00	6750.10
478.18	6895.22
478.36	7033.31
478.54	6871.81
478.72	7068.42
478.90	7105.87
479.08	7080.12
479.26	7030.97
479.44	7204.17
479.62	7199.49
479.80	7330.56
479.98	7400.77
480.16	7550.57
480.34	7405.46
480.52	7576.31
480.70	7679.30
480.88	7522.48
481.06	7632.49
481.24	7531.84
481.41	7655.89
481.59	7765.90
481.77	7896.97
481.95	7992.93
482.13	7955.48
482.31	7988.25
482.49	8095.91
482.67	8121.66
482.85	8365.07
483.03	8304.22
483.21	8454.02
483.39	8269.11
483.57	8444.65
483.74	8676.37
483.92	8699.77
484.10	8704.45
484.28	8744.24
484.46	9057.87
484.64	8957.23
484.82	8865.95
485.00	9153.84
485.18	9334.06
485.35	9128.09
485.53	9263.84
485.71	9373.85
485.89	9406.61
486.07	9394.91
486.25	9668.75
486.43	9427.68
486.61	9664.07
486.78	9764.72
486.96	9958.98
487.14	9853.66
487.32	10017.49
487.50	10216.44
487.68	10225.80
487.85	10293.68
488.03	10328.78
488.21	10408.36
488.39	10314.74
488.57	10263.25
488.75	10714.97
488.92	10815.62
489.10	10799.23
489.28	10689.23
489.46	10719.65
489.64	10906.90
489.81	11133.93
489.99	10967.75
490.17	11225.21
490.35	11246.27
490.53	11379.68
490.70	11733.11
490.88	11454.58
491.06	11698.00
491.24	11637.14
491.41	11709.70
491.59	11852.47
491.77	11826.73
491.95	12140.36
492.13	12016.31
492.30	12252.70
492.48	12533.57
492.66	12292.49
492.84	12065.46
493.01	12486.76
493.19	12367.39
493.37	12559.31
493.54	12437.61
493.72	12695.07
493.90	12620.17
494.08	12901.03
494.25	12933.80
494.43	13153.81
494.61	13245.09
494.79	13165.51
494.96	13055.51
495.14	13268.50
495.32	13425.31
495.49	13462.76
495.67	13362.12
495.85	13748.31
496.02	13596.17
496.20	13788.10
496.38	13647.66
496.55	13987.04
496.73	14129.81
496.91	13984.70
497.09	14064.28
497.26	14178.97
497.44	13956.61
497.62	14214.07
497.79	14258.54
497.97	14228.12
498.14	14602.60
498.32	14750.06
498.50	14616.65
498.67	14796.87
498.85	14810.91
499.03	14960.70
499.20	14998.15
499.38	14986.45
499.56	15028.58
499.73	15140.93
499.91	15332.85
500.08	15253.27
500.26	14853.04
500.44	15506.05
500.61	15382.00
500.79	15342.21
500.97	15335.19
501.14	15646.48
501.32	15658.18
501.49	15744.78
501.67	15885.22
501.84	15885.22
502.02	15487.32
502.20	16147.36
502.37	16135.65
502.55	15885.22
502.72	16126.29
502.90	15840.75
503.07	15887.56
503.25	16006.92
503.43	16166.08
503.60	16170.76
503.78	16636.53
503.95	16421.20
504.13	16409.50
504.30	16191.83
504.48	16388.43
504.65	16477.37
504.83	16383.75
505.01	16844.84
505.18	16830.79
505.36	17085.91
505.53	16762.92
505.71	16978.25
505.88	16975.91
506.06	16732.49
506.23	16793.34
506.41	17109.32
506.58	17418.27
506.76	17284.86
506.93	17130.38
507.11	17060.16
507.28	17221.66
507.46	17071.87
507.63	17355.07
507.81	17671.04
507.98	17334.01
508.16	17736.58
508.33	17675.73
508.50	17795.09
508.68	17661.68
508.85	17907.44
509.03	17827.86
509.20	18136.81
509.38	17994.04
509.55	18221.07
509.73	18214.05
509.90	18155.54
510.08	18059.57
510.25	18291.29
510.42	18607.26
510.60	18384.91
510.77	18696.20
510.95	18576.83
511.12	18448.10
511.30	18260.86
511.47	18452.78
511.64	18794.50
511.82	18817.91
511.99	18864.72
512.17	18757.05
512.34	18960.68
512.51	18953.66
512.69	18904.51
512.86	18881.10
513.04	19295.38
513.21	19129.20
513.38	19386.66
513.56	19309.42
513.73	19428.79
513.90	19140.90
514.08	19438.15
514.25	19529.43
514.43	19461.55
514.60	19810.29
514.77	19550.49
514.95	20077.12
515.12	19335.17
515.29	19360.91
515.47	19655.82
515.64	19880.51
515.81	20025.62
515.99	19761.14
516.16	20081.80
516.33	19854.76
516.51	20222.23
516.68	19800.93
516.85	20098.18
517.03	20051.37
517.20	20304.15
517.37	20304.15
517.54	20374.36
517.72	20470.33
517.89	20187.12
518.06	20699.70
518.24	20297.13
518.41	20418.83
518.58	20453.94
518.75	20577.99
518.93	20467.98
519.10	20587.35
519.27	21069.50
519.45	20863.54
519.62	20889.28
519.79	20854.17
519.96	20809.70
520.14	21106.95
520.31	20870.56
520.48	21071.84
520.65	21326.96
520.83	21348.03
521.00	21153.76
521.17	20989.92
521.34	20964.18
521.52	21329.30
521.69	21366.75
521.86	21502.50
522.03	21415.90
522.20	21448.67
522.38	21607.83
522.55	21493.14
522.72	21411.22
522.89	21537.61
523.07	21809.11
523.24	21811.45
523.41	22162.53
523.58	21568.04
523.75	21820.81
523.92	21628.89
524.10	22108.70
524.27	21965.93
524.44	22335.73
524.61	22036.14
524.78	22307.65
524.96	22050.19
525.13	22113.38
525.30	22331.05
525.47	22143.81
525.64	22178.92
525.81	22305.31
525.98	22333.39
526.16	22698.52
526.33	22218.71
526.50	22698.52
526.67	22326.37
526.84	22892.78
527.01	22174.24
527.18	22649.36
527.36	22855.33
527.53	23136.20
527.70	22764.05
527.87	22939.59
528.04	22750.01
528.21	22726.60
528.38	23026.19
528.55	23412.38
528.72	22843.63
528.89	23222.80
529.07	23056.62
529.24	23040.23
529.41	23150.24
529.58	23269.61
529.75	23194.71
529.92	22831.93
530.09	23243.86
530.26	23278.97
530.43	23777.50
530.60	23243.86
530.77	23325.78
530.94	23756.44
531.11	23538.77
531.28	23269.61
531.46	23772.82
531.63	23550.47
531.80	23859.42
531.97	23913.25
532.14	24032.62
532.31	23604.30
532.48	24072.41
532.65	23924.96
532.82	23854.74
532.99	23894.53
533.16	23620.69
533.33	24126.24
533.50	24229.23
533.67	24350.93
533.84	24292.42
534.01	24266.67
534.18	24196.46
534.35	24285.40
534.52	24320.51
534.69	24292.42
534.86	24606.05
535.03	24222.20
535.20	24372.00
535.37	24603.71
535.54	24390.72
535.71	24229.23
535.88	24395.40
536.05	24655.20
536.22	24730.10
536.38	25067.14
536.55	25233.32
536.72	24587.33
536.89	24545.20
537.06	24634.14
537.23	24783.93
537.40	24786.27
537.57	25055.43
537.74	24819.04
537.91	24893.94
538.08	24795.64
538.25	24711.38
538.42	25305.87
538.59	24964.15
538.75	24973.52
538.92	24943.09
539.09	25074.16
539.26	25252.04
539.43	25256.72
539.60	25245.02
539.77	25008.62
539.94	25469.71
540.11	25090.54
540.28	24954.79
540.44	25177.14
540.61	25343.32
540.78	25298.85
540.95	25338.64
541.12	25460.35
541.29	25130.33
541.46	25495.46
541.62	25326.94
541.79	25853.56
541.96	24891.60
542.13	25530.56
542.30	26003.35
542.47	25853.56
542.63	25921.43
542.80	25596.10
542.97	26221.02
543.14	25825.47
543.31	25659.29
543.48	25963.56
543.64	26632.96
543.81	25963.56
543.98	26244.43
544.15	26305.28
544.32	26279.54
544.48	26471.46
544.65	26118.04
544.82	26422.31
544.99	25912.07
545.16	26281.88
545.32	26349.75
545.49	26649.34
545.66	26670.40
545.83	26471.46
546.00	26497.20
546.16	26515.93
546.33	26281.88
546.50	26504.23
546.67	26724.24
546.83	26347.41
547.00	26426.99
547.17	26595.51
547.34	26766.37
547.50	26607.21
547.67	27040.21
547.84	26569.76
548.00	26747.64
548.17	27030.85
548.34	26927.86
548.51	26855.31
548.67	26623.59
548.84	27138.51
549.01	26845.94
549.18	27047.23
549.34	26934.88
549.51	26686.79
549.68	26941.91
549.84	26576.78
550.01	26871.69
550.18	26806.16
550.34	27131.49
550.51	27402.99
550.68	27194.68
550.84	27194.68
551.01	27166.60
551.18	27019.14
551.34	27391.29
551.51	27138.51
551.68	27599.60
551.84	27714.28
552.01	27119.79
552.18	27321.07
552.34	26881.05
552.51	27711.94
552.68	27410.01
552.84	27651.09
553.01	27543.42
553.18	27559.81
553.34	27644.07
553.51	27206.39
553.67	27543.42
553.84	27772.80
554.01	27608.96
554.17	27395.97
554.34	27899.19
554.51	27676.83
554.67	27934.29
554.84	27562.15
555.00	27433.42
555.17	27819.61
555.33	27828.97
555.50	27634.71
555.67	27644.07
555.83	27934.29
556.00	27995.15
556.16	28121.54
556.33	27601.94
556.50	27927.27
556.66	28032.60
556.83	27669.81
556.99	28404.74
557.16	28137.92
557.32	28044.30
557.49	28245.58
557.65	27931.95
557.82	28123.88
557.98	27936.63
558.15	27981.10
558.32	28198.77
558.48	28222.18
558.65	28212.82
558.81	28116.86
558.98	28261.97
559.14	28364.95
559.31	28205.80
559.47	28013.87
559.64	28266.65
559.80	28273.67
559.97	28268.99
560.13	28240.90
560.30	28168.35
560.46	28559.22
560.63	28591.98
560.79	28437.51
560.96	28596.67
561.12	28381.34
561.29	28397.72
561.45	28369.63
561.61	28746.46
561.78	28362.61
561.94	28552.20
562.11	28837.74
562.27	28538.15
562.44	28606.03
562.60	28723.05
562.77	28655.18
562.93	28505.38
563.10	28711.35
563.26	28573.26
563.42	28744.12
563.59	28409.42
563.75	28430.49
563.92	28615.39
564.08	28797.95
564.24	28694.97
564.41	28615.39
564.57	28554.54
564.74	28709.01
564.90	28732.42
565.07	29092.86
565.23	29219.25
565.39	28706.67
565.56	29167.76
565.72	28617.73
565.88	28643.48
566.05	28486.66
566.21	28753.48
566.38	28659.86
566.54	28992.22
566.70	28968.81
566.87	29142.01
567.03	29333.93
567.19	29310.53
567.36	28744.12
567.52	28821.36
567.68	29184.14
567.85	28905.62
568.01	29193.50
568.17	28917.32
568.34	28854.12
568.50	29214.57
568.66	29027.32
568.83	29144.35
568.99	28769.86
569.15	29039.03
569.32	28638.80
569.48	28821.36
569.64	28907.96
569.81	28980.51
569.97	28992.22
570.13	29230.95
570.30	28996.90
570.46	29252.02
570.62	29137.33
570.78	28929.02
570.95	29200.52
571.11	29064.77
571.27	28704.33
571.43	29083.50
571.60	29235.63
571.76	28964.13
571.92	29095.20
572.09	29252.02
572.25	29504.79
572.41	29347.98
572.57	29050.73
572.74	29509.47
572.90	29221.59
573.06	28926.68
573.22	28912.64
573.38	29448.62
573.55	29024.98
573.71	29551.60
573.87	29741.19
574.03	29481.39
574.20	29261.38
574.36	29032.00
574.52	29184.14
574.68	29436.92
574.84	29450.96
575.01	29476.71
575.17	29420.53
575.33	29235.63
575.49	29263.72
575.65	29298.83
575.82	29373.72
575.98	29132.65
576.14	29392.45
576.30	29701.40
576.46	29032.00
576.62	29244.99
576.79	29394.79
576.95	29134.99
577.11	29172.44
577.27	29357.34
577.43	29553.94
577.59	29303.51
577.75	29254.36
577.92	29296.49
578.08	29259.04
578.24	29415.85
578.40	29434.58
578.56	29347.98
578.72	29472.03
578.88	29949.50
579.04	29621.82
579.21	29226.27
579.37	29383.09
579.53	29549.26
579.69	29317.55
579.85	28999.24
580.01	29493.09
580.17	29352.66
580.33	29181.80
580.49	29596.07
580.65	29778.64
580.82	29638.20
580.98	29434.58
581.14	29525.86
581.30	29502.45
581.46	29556.28
581.62	29268.40
581.78	29500.11
581.94	29355.00
582.10	29439.26
582.26	29961.20
582.42	29488.41
582.58	29610.12
582.74	29916.73
582.90	29460.32
583.06	29383.09
583.22	29701.40
583.38	29317.55
583.54	29811.40
583.70	29661.61
583.86	29556.28
584.02	29469.69
584.18	29769.27
584.34	29633.52
584.50	29813.74
584.66	29535.22
584.82	29549.26
584.98	29366.70
585.14	29579.69
585.30	29205.20
585.46	29364.36
585.62	29078.82
585.78	29507.13
585.94	29088.18
586.10	29942.47
586.26	29642.88
586.42	29738.85
586.58	29750.55
586.74	29483.73
586.90	29369.04
587.06	29521.18
587.22	29394.79
587.38	29673.31
587.54	29855.87
587.70	29708.42
587.86	29860.55
588.02	29687.36
588.18	30225.68
588.34	29495.43
588.49	29773.95
588.65	29355.00
588.81	29778.64
588.97	29785.66
589.13	29390.11
589.29	29544.58
589.45	29956.52
589.61	30274.83
589.77	29951.84
589.93	30106.31
590.08	30052.48
590.24	30068.86
590.40	30230.36
590.56	29720.12
590.72	29883.96
590.88	29937.79
591.04	29769.27
591.20	29905.02
591.35	30431.65
591.51	30312.28
591.67	30071.20
591.83	30335.68
591.99	29930.77
