SpectraSuite Data File
++++++++++++++++++++++++++++++++++++
Date: Fri Oct 18 13:58:25 GMT-05:00 2013
User: bianchi
Dark Spectrum Present: No
Reference Spectrum Present: No
Number of Sampled Component Spectra: 1
Spectrometers: USB2+H05261
Integration Time (usec): 50000 (USB2+H05261)
Spectra Averaged: 1 (USB2+H05261)
Boxcar Smoothing: 0 (USB2+H05261)
Correct for Electrical Dark: No (USB2+H05261)
Strobe/Lamp Enabled: No (USB2+H05261)
Correct for Detector Non-linearity: No (USB2+H05261)
Correct for Stray Light: No (USB2+H05261)
Number of Pixels in Processed Spectrum: 2048
>>>>>Begin Processed Spectral Data<<<<<
365.73	0.00
365.92	0.00
366.12	0.00
366.32	0.00
366.52	0.00
366.72	0.00
366.91	0.00
367.11	0.00
367.31	0.00
367.51	0.00
367.70	0.00
367.90	0.00
368.10	0.00
368.30	0.00
368.49	0.00
368.69	0.00
368.89	0.00
369.09	0.00
369.28	0.00
369.48	0.00
369.68	0.00
369.87	0.00
370.07	0.00
370.27	0.00
370.47	0.00
370.66	77.24
370.86	102.98
371.06	135.75
371.25	152.13
371.45	119.37
371.65	156.82
371.84	46.81
372.04	107.66
372.24	140.43
372.44	264.48
372.63	276.18
372.83	208.31
373.03	170.86
373.22	163.84
373.42	161.50
373.62	128.73
373.81	220.01
374.01	220.01
374.21	184.90
374.40	215.33
374.60	224.69
374.79	262.14
374.99	187.24
375.19	255.12
375.38	191.92
375.58	184.90
375.78	304.27
375.97	215.33
376.17	243.42
376.37	252.78
376.56	266.82
376.76	266.82
376.95	220.01
377.15	290.23
377.35	273.84
377.54	269.16
377.74	276.18
377.93	311.29
378.13	285.55
378.33	294.91
378.52	301.93
378.72	145.11
378.91	196.60
379.11	255.12
379.31	269.16
379.50	346.40
379.70	236.39
379.89	285.55
380.09	266.82
380.28	348.74
380.48	290.23
380.68	330.02
380.87	224.69
381.07	280.86
381.26	287.89
381.46	411.93
381.65	330.02
381.85	320.65
382.04	360.44
382.24	367.46
382.43	369.80
382.63	266.82
382.83	348.74
383.02	299.59
383.22	315.97
383.41	292.57
383.61	304.27
383.80	351.08
384.00	421.30
384.19	428.32
384.39	320.65
384.58	365.12
384.78	327.68
384.97	351.08
385.17	339.38
385.36	337.04
385.56	416.62
385.75	383.85
385.95	433.00
386.14	447.04
386.34	409.59
386.53	395.55
386.72	379.17
386.92	411.93
387.11	468.11
387.31	437.68
387.50	421.30
387.70	437.68
387.89	358.10
388.09	395.55
388.28	365.12
388.48	383.85
388.67	423.64
388.86	388.53
389.06	418.96
389.25	470.45
389.45	430.66
389.64	456.40
389.84	400.23
390.03	458.74
390.22	442.36
390.42	472.79
390.61	395.55
390.81	454.06
391.00	500.87
391.19	468.11
391.39	470.45
391.58	578.11
391.78	458.74
391.97	545.34
392.16	528.96
392.36	557.05
392.55	461.09
392.75	517.26
392.94	566.41
393.13	535.98
393.33	578.11
393.52	561.73
393.71	613.22
393.91	566.41
394.10	528.96
394.29	695.14
394.49	613.22
394.68	648.33
394.88	631.94
395.07	456.40
395.26	631.94
395.46	540.66
395.65	681.10
395.84	592.16
396.04	622.58
396.23	650.67
396.42	634.29
396.62	627.26
396.81	550.03
397.00	657.69
397.19	695.14
397.39	613.22
397.58	678.76
397.77	545.34
397.97	634.29
398.16	664.71
398.35	685.78
398.55	697.48
398.74	718.54
398.93	746.63
399.12	748.97
399.32	753.65
399.51	690.46
399.70	746.63
399.90	774.72
400.09	791.10
400.28	746.63
400.47	753.65
400.67	774.72
400.86	781.74
401.05	788.76
401.24	767.70
401.44	819.19
401.63	819.19
401.82	866.00
402.01	741.95
402.21	772.38
402.40	821.53
402.59	875.36
402.78	819.19
402.97	891.74
403.17	903.45
403.36	870.68
403.55	809.83
403.74	947.92
403.93	912.81
404.13	868.34
404.32	966.64
404.51	943.24
404.70	873.02
404.89	929.19
405.09	896.43
405.28	933.87
405.47	915.15
405.66	971.32
405.85	1043.88
406.05	952.60
406.24	959.62
406.43	1004.09
406.62	1046.22
406.81	999.41
407.00	1011.11
407.20	1001.75
407.39	1041.54
407.58	1050.90
407.77	1076.65
407.96	1069.62
408.15	1149.20
408.34	1036.86
408.54	1057.92
408.73	1069.62
408.92	1144.52
409.11	1095.37
409.30	1067.28
409.49	1069.62
409.68	1158.57
409.87	1048.56
410.07	1158.57
410.26	1186.65
410.45	1170.27
410.64	1151.54
410.83	1205.38
411.02	1167.93
411.21	1306.02
411.40	1179.63
411.59	1308.36
411.78	1233.46
411.98	1324.74
412.17	1373.89
412.36	1324.74
412.55	1287.29
412.74	1385.60
412.93	1371.55
413.12	1252.19
413.31	1369.21
413.50	1497.94
413.69	1334.11
413.88	1380.92
414.07	1448.79
414.26	1427.73
414.45	1434.75
414.64	1469.86
414.83	1404.32
415.02	1540.07
415.22	1500.28
415.41	1535.39
415.60	1638.38
415.79	1565.82
415.98	1579.86
416.17	1446.45
416.36	1504.96
416.55	1540.07
416.74	1598.59
416.93	1586.88
417.12	1736.68
417.31	1610.29
417.50	1694.55
417.69	1680.50
417.88	1764.76
418.07	1753.06
418.26	1701.57
418.45	1739.02
418.64	1823.28
418.83	1732.00
419.02	1748.38
419.21	1792.85
419.39	1785.83
419.58	1853.70
419.77	1842.00
419.96	1795.19
420.15	1891.15
420.34	1804.55
420.53	1816.26
420.72	1907.54
420.91	1788.17
421.10	1867.75
421.29	1886.47
421.48	1914.56
421.67	1921.58
421.86	1970.73
422.05	2024.56
422.24	1968.39
422.43	2010.52
422.61	1987.11
422.80	1982.43
422.99	2050.31
423.18	2036.27
423.37	1921.58
423.56	2001.16
423.75	2022.22
423.94	1928.60
424.13	1865.41
424.32	1874.77
424.50	1963.71
424.69	2008.18
424.88	2183.72
425.07	2017.54
425.26	2087.76
425.45	2099.46
425.64	1959.03
425.83	2148.61
426.01	2146.27
426.20	2090.10
426.39	2062.01
426.58	2024.56
426.77	2181.38
426.96	2122.87
427.15	2101.80
427.33	2174.36
427.52	2017.54
427.71	2136.91
427.90	2153.29
428.09	2054.99
428.28	2132.23
428.46	2094.78
428.65	2120.53
428.84	2307.77
429.03	2232.87
429.22	2115.84
429.40	2300.75
429.59	2207.13
429.78	2139.25
429.97	2143.93
430.16	2211.81
430.34	2134.57
430.53	2377.98
430.72	2256.28
430.91	2356.92
431.10	2162.66
431.28	2251.60
431.47	2443.52
431.66	2471.61
431.85	2387.35
432.03	2382.67
432.22	2427.14
432.41	2438.84
432.60	2455.22
432.79	2476.29
432.97	2502.03
433.16	2462.24
433.35	2394.37
433.54	2457.56
433.72	2607.36
433.91	2534.80
434.10	2457.56
434.28	2579.27
434.47	2506.71
434.66	2616.72
434.85	2574.59
435.03	2537.14
435.22	2635.44
435.41	2801.62
435.59	2555.86
435.78	2495.01
435.97	2665.87
436.16	2572.25
436.34	2663.53
436.53	2684.59
436.72	2689.28
436.90	2738.43
437.09	2766.51
437.28	2724.38
437.46	2855.45
437.65	2722.04
437.84	2675.23
438.02	2825.03
438.21	2635.44
438.40	2738.43
438.58	2841.41
438.77	2782.90
438.96	2878.86
439.14	2953.76
439.33	2892.90
439.52	2864.82
439.70	2897.58
439.89	2965.46
440.08	3014.61
440.26	3117.59
440.45	3028.65
440.63	3098.87
440.82	3126.96
441.01	3136.32
441.19	3155.04
441.38	3159.72
441.57	3190.15
441.75	3138.66
441.94	3248.66
442.12	3183.13
442.31	3389.10
442.50	3337.60
442.68	3236.96
442.87	3272.07
443.05	3260.37
443.24	3283.77
443.43	3361.01
443.61	3361.01
443.80	3445.27
443.98	3346.97
444.17	3218.24
444.35	3377.39
444.54	3426.54
444.73	3391.44
444.91	3541.23
445.10	3335.26
445.28	3351.65
445.47	3508.46
445.65	3386.76
445.84	3494.42
446.02	3503.78
446.21	3445.27
446.39	3499.10
446.58	3543.57
446.77	3440.59
446.95	3468.67
447.14	3503.78
447.32	3447.61
447.51	3468.67
447.69	3492.08
447.88	3721.45
448.06	3424.20
448.25	3419.52
448.43	3592.72
448.62	3494.42
448.80	3459.31
448.99	3618.47
449.17	3660.60
449.36	3461.65
449.54	3623.15
449.73	3754.22
449.91	3686.34
450.10	3754.22
450.28	3639.53
450.46	3688.68
450.65	3613.79
450.83	3747.20
451.02	3674.64
451.20	3749.54
451.39	3906.35
451.57	3808.05
451.76	3707.41
451.94	3723.79
452.13	3934.44
452.31	3852.52
452.49	3726.13
452.68	3922.74
452.86	3885.29
453.05	3845.50
453.23	3983.59
453.42	3894.65
453.60	3770.60
453.78	3791.67
453.97	3911.04
454.15	3812.73
454.34	3901.67
454.52	4077.21
454.70	3901.67
454.89	3922.74
455.07	4016.36
455.26	3960.19
455.44	4128.70
455.62	4025.72
455.81	4098.28
455.99	4177.86
456.17	4102.96
456.36	4184.88
456.54	4222.33
456.73	4322.97
456.91	4367.44
457.09	4264.46
457.28	4306.59
457.46	4395.53
457.64	4395.53
457.83	4208.28
458.01	4402.55
458.19	4470.42
458.38	4372.12
458.56	4351.06
458.74	4432.97
458.93	4374.46
459.11	4477.44
459.29	4400.21
459.48	4498.51
459.66	4432.97
459.84	4489.15
460.03	4442.34
460.21	4461.06
460.39	4374.46
460.57	4496.17
460.76	4514.89
460.94	4652.98
461.12	4507.87
461.31	4706.82
461.49	4554.68
461.67	4660.01
461.85	4791.08
462.04	4648.30
462.22	4706.82
462.40	4755.97
462.59	4615.54
462.77	4711.50
462.95	4805.12
463.13	4739.58
463.32	4781.71
463.50	4882.36
463.68	4887.04
463.86	4732.56
464.05	4798.10
464.23	4828.53
464.41	4863.63
464.59	4753.63
464.78	5001.72
464.96	5004.07
465.14	4849.59
465.32	4952.57
465.50	4933.85
465.69	4891.72
465.87	4971.30
466.05	4980.66
466.23	5067.26
466.41	5172.58
466.60	5151.52
466.78	4966.62
466.96	4835.55
467.14	5085.98
467.32	5036.83
467.51	5212.37
467.69	5062.58
467.87	5214.71
468.05	5125.77
468.23	5053.22
468.41	5081.30
468.60	5104.71
468.78	5153.86
468.96	5060.24
469.14	5214.71
469.32	5203.01
469.50	5132.79
469.69	5315.36
469.87	5380.89
470.05	5357.49
470.23	5228.76
470.41	5252.16
470.59	5413.66
470.77	5329.40
470.95	5465.15
471.14	5621.97
471.32	5390.25
471.50	5659.42
471.68	5584.52
471.86	5748.36
472.04	5518.98
472.22	5818.57
472.40	5703.89
472.58	5809.21
472.77	5830.27
472.95	5844.32
473.13	6050.28
473.31	5713.25
473.49	5778.78
473.67	5743.67
473.85	5795.17
474.03	5734.31
474.21	5905.17
474.39	6087.73
474.57	6005.81
474.75	6150.93
474.93	6134.54
475.12	6207.10
475.30	6071.35
475.48	6148.59
475.66	6181.35
475.84	6253.91
476.02	6429.45
476.20	6246.89
476.38	6305.40
476.56	6389.66
476.74	6588.61
476.92	6541.80
477.10	6436.47
477.28	6743.08
477.46	6614.35
477.64	6757.13
477.82	6785.21
478.00	6778.19
478.18	6817.98
478.36	6981.82
478.54	6988.84
478.72	7068.42
478.90	7094.16
479.08	7101.19
479.26	7225.23
479.44	7328.22
479.62	7412.48
479.80	7475.67
479.98	7293.11
480.16	7597.38
480.34	7630.15
480.52	7562.27
480.70	7611.42
480.88	7522.48
481.06	7824.41
481.24	7864.20
481.41	7810.37
481.59	7782.28
481.77	8002.29
481.95	8009.31
482.13	8131.02
482.31	8065.49
482.49	8215.28
482.67	8215.28
482.85	8131.02
483.03	8437.63
483.21	8685.73
483.39	8613.17
483.57	8613.17
483.74	8716.16
483.92	8678.71
484.10	8524.23
484.28	8711.47
484.46	8891.70
484.64	9247.46
484.82	8978.30
485.00	9109.36
485.18	9224.05
485.35	9287.25
485.53	9348.10
485.71	9540.02
485.89	9617.26
486.07	9430.02
486.25	9614.92
486.43	9446.40
486.61	9696.84
486.78	9919.19
486.96	9888.76
487.14	9902.81
487.32	10019.83
487.50	9998.77
487.68	10225.80
487.85	10155.58
488.03	10279.63
488.21	10553.48
488.39	10431.77
488.57	10499.64
488.75	10675.18
488.92	10530.07
489.10	10970.09
489.28	10878.81
489.46	11049.67
489.64	10993.50
489.81	11428.84
489.99	11358.62
490.17	11194.78
490.35	11803.32
490.53	11494.37
490.70	11487.35
490.88	11531.82
491.06	11875.88
491.24	11501.39
491.41	11698.00
491.59	11974.18
491.77	11929.71
491.95	12142.70
492.13	12051.42
492.30	12142.70
492.48	12189.51
492.66	12320.58
492.84	12168.45
493.01	12634.21
493.19	12620.17
493.37	12627.19
493.54	12800.39
493.72	12629.53
493.90	12833.16
494.08	12868.27
494.25	12978.27
494.43	13163.17
494.61	13273.18
494.79	13085.94
494.96	13219.35
495.14	13217.01
495.32	13256.79
495.49	13467.44
495.67	13652.34
495.85	13909.80
496.02	13872.36
496.20	13846.61
496.38	13853.63
496.55	13879.38
496.73	14099.39
496.91	14066.62
497.09	14176.62
497.26	14382.59
497.44	14443.45
497.62	14216.41
497.79	14476.21
497.97	14534.73
498.14	14513.66
498.32	14981.77
498.50	14714.95
498.67	14937.30
498.85	14801.55
499.03	14904.53
499.20	14750.06
499.38	15208.80
499.56	14944.32
499.73	15208.80
499.91	15234.55
500.08	15529.45
500.26	15197.10
500.44	15143.27
500.61	15382.00
500.79	15391.36
500.97	15585.63
501.14	15800.96
501.32	15831.38
501.49	15810.32
501.67	15768.19
501.84	15765.85
502.02	15719.04
502.20	16046.71
502.37	16112.25
502.55	16056.08
502.72	16112.25
502.90	15939.05
503.07	16013.95
503.25	16177.78
503.43	16259.70
503.60	16365.03
503.78	16767.60
503.95	16641.21
504.13	16620.14
504.30	16395.45
504.48	16315.87
504.65	16788.66
504.83	16791.00
505.01	16781.64
505.18	16718.45
505.36	16938.46
505.53	17216.98
505.71	16650.57
505.88	17060.16
506.06	17146.76
506.23	16987.61
506.41	17446.35
506.58	17467.42
506.76	17474.44
506.93	17338.69
507.11	17202.94
507.28	17664.02
507.46	17675.73
507.63	17610.19
507.81	17685.09
507.98	17647.64
508.16	17781.05
508.33	17675.73
508.50	17673.39
508.68	18104.04
508.85	17884.03
509.03	17685.09
509.20	18040.85
509.38	18286.61
509.55	18354.48
509.73	18361.50
509.90	18082.98
510.08	18394.27
510.25	18345.12
510.42	18412.99
510.60	18939.62
510.77	18637.69
510.95	18843.65
511.12	18614.28
511.30	18235.11
511.47	18902.17
511.64	18817.91
511.82	18970.04
511.99	18735.99
512.17	18953.66
512.34	18867.06
512.51	18892.80
512.69	18984.09
512.86	18941.96
513.04	19201.76
513.21	19513.05
513.38	19234.52
513.56	19346.87
513.73	19374.95
513.90	19489.64
514.08	19601.99
514.25	19587.94
514.43	19590.28
514.60	19817.32
514.77	19669.86
514.95	19878.17
515.12	19859.45
515.29	19585.60
515.47	19953.07
515.64	19955.41
515.81	20163.72
515.99	20299.47
516.16	20137.97
516.33	20173.08
516.51	20503.09
516.68	20212.87
516.85	20051.37
517.03	20357.98
517.20	20453.94
517.37	20255.00
517.54	20540.54
517.72	20339.26
517.89	20748.85
518.06	20278.40
518.24	20423.51
518.41	20603.74
518.58	20648.21
518.75	20915.03
518.93	20840.13
519.10	20634.16
519.27	21123.33
519.45	21078.86
519.62	20704.38
519.79	21214.62
519.96	20865.88
520.14	21200.57
520.31	20940.77
520.48	20910.35
520.65	21174.83
520.83	20800.34
521.00	21221.64
521.17	21223.98
521.34	21202.91
521.52	21497.82
521.69	21596.12
521.86	21858.26
522.03	21799.75
522.20	21696.77
522.38	21919.12
522.55	21439.31
522.72	21460.37
522.89	21914.44
523.07	21982.31
523.24	21647.61
523.41	22181.26
523.58	21991.67
523.75	21968.27
523.92	21900.39
524.10	22298.28
524.27	22183.60
524.44	21933.16
524.61	22111.04
524.78	22780.43
524.96	22522.98
525.13	22092.32
525.30	22059.55
525.47	22663.41
525.64	22480.85
525.81	22492.55
525.98	22455.10
526.16	22452.76
526.33	22452.76
526.50	22881.08
526.67	22546.38
526.84	22618.94
527.01	22841.29
527.18	22869.37
527.36	22689.15
527.53	22831.93
527.70	23131.51
527.87	23037.89
528.04	23058.96
528.21	22967.68
528.38	22862.35
528.55	23236.84
528.72	23126.83
528.89	23065.98
529.07	23503.66
529.24	23454.51
529.41	23246.20
529.58	23213.43
529.75	23311.74
529.92	23042.57
530.09	23501.32
530.26	23473.23
530.43	23644.09
530.60	23693.24
530.77	23601.96
530.94	23681.54
531.11	23281.31
531.28	23608.98
531.46	23726.01
531.63	23714.31
531.80	23857.08
531.97	24278.38
532.14	23737.71
532.31	23658.14
532.48	23894.53
532.65	24053.69
532.82	24109.86
532.99	23843.04
533.16	23721.33
533.33	24065.39
533.50	24189.44
533.67	24163.69
533.84	24053.69
534.01	23850.06
534.18	23946.02
534.35	24231.57
534.52	24240.93
534.69	24643.50
534.86	24706.70
535.03	24156.67
535.20	24762.87
535.37	24746.48
535.54	24304.12
535.71	24573.28
535.88	24615.41
536.05	24788.61
536.22	24837.76
536.38	24982.88
536.55	24702.01
536.72	24826.06
536.89	24776.91
537.06	24758.19
537.23	24758.19
537.40	24903.30
537.57	25137.35
537.74	25090.54
537.91	25357.36
538.08	25333.96
538.25	24753.51
538.42	24978.20
538.59	24959.47
538.75	25085.86
538.92	25099.90
539.09	25450.99
539.26	25242.68
539.43	25277.79
539.60	25607.80
539.77	25401.83
539.94	25591.42
540.11	25160.76
540.28	25514.18
540.44	25429.92
540.61	25418.22
540.78	25315.23
540.95	25425.24
541.12	25301.19
541.29	25694.40
541.46	25689.72
541.62	25928.45
541.79	25656.95
541.96	25158.42
542.13	25362.04
542.30	25575.03
542.47	26024.42
542.63	25986.97
542.80	25603.12
542.97	25989.31
543.14	26108.68
543.31	25977.61
543.48	26508.91
543.64	26181.23
543.81	26356.77
543.98	26464.44
544.15	26253.79
544.32	26356.77
544.48	26476.14
544.65	26246.77
544.82	26501.89
544.99	26340.39
545.16	26132.08
545.32	26565.08
545.49	26522.95
545.66	26630.62
545.83	26647.00
546.00	26419.97
546.16	26405.92
546.33	26441.03
546.50	26455.08
546.67	26483.16
546.83	26347.41
547.00	26675.09
547.17	26836.58
547.34	26546.36
547.50	26885.73
547.67	26867.01
547.84	26618.91
548.00	26874.03
548.17	26946.59
548.34	27089.36
548.51	27248.52
548.67	26752.32
548.84	27225.11
549.01	26939.57
549.18	27185.32
549.34	27023.83
549.51	26881.05
549.68	27072.98
549.84	27098.72
550.01	27021.48
550.18	26897.44
550.34	27264.90
550.51	27311.71
550.68	27182.98
550.84	27372.57
551.01	27459.16
551.18	27431.08
551.34	27328.10
551.51	27204.05
551.68	27594.92
551.84	27590.24
552.01	27814.93
552.18	27644.07
552.34	27187.66
552.51	27414.69
552.68	27527.04
552.84	27037.87
553.01	27311.71
553.18	27910.89
553.34	27803.22
553.51	27828.97
553.67	27747.05
553.84	27721.30
554.01	27903.87
554.17	27400.65
554.34	27948.34
554.51	27789.18
554.67	27894.50
554.84	27679.18
555.00	27803.22
555.17	28121.54
555.33	28056.00
555.50	27971.74
555.67	28208.14
555.83	27892.16
556.00	27990.47
556.16	28034.94
556.33	27948.34
556.50	28383.68
556.66	28067.70
556.83	27985.79
556.99	28346.23
557.16	28339.21
557.32	28332.18
557.49	28594.32
557.65	28184.73
557.82	28158.99
557.98	28229.20
558.15	28285.37
558.32	28411.76
558.48	28233.88
558.65	28568.58
558.81	28453.89
558.98	28507.72
559.14	28409.42
559.31	28243.24
559.47	28648.16
559.64	28591.98
559.80	28872.85
559.97	28694.97
560.13	28706.67
560.30	28589.64
560.46	28528.79
560.63	28402.40
560.79	28746.46
560.96	28622.41
561.12	28945.41
561.29	28631.77
561.45	28526.45
561.61	28690.29
561.78	28561.56
561.94	28891.57
562.11	28830.72
562.27	28687.95
562.44	28893.91
562.60	28793.27
562.77	28545.17
562.93	28821.36
563.10	28872.85
563.26	28842.42
563.42	29160.73
563.59	28664.54
563.75	28526.45
563.92	29027.32
564.08	28706.67
564.24	28758.16
564.41	28624.75
564.57	28734.76
564.74	28624.75
564.90	28765.18
565.07	29198.18
565.23	29109.24
565.39	29017.96
565.56	29053.07
565.72	28844.76
565.88	28690.29
566.05	28758.16
566.21	28929.02
566.38	28643.48
566.54	29043.71
566.70	29134.99
566.87	29305.85
567.03	28917.32
567.19	29394.79
567.36	29165.42
567.52	29165.42
567.68	29071.79
567.85	29024.98
568.01	29062.43
568.17	29511.81
568.34	28851.78
568.50	29434.58
568.66	29036.69
568.83	29509.47
568.99	29013.28
569.15	29256.70
569.32	29340.96
569.48	29057.75
569.64	29165.42
569.81	29371.38
569.97	29460.32
570.13	29104.56
570.30	29439.26
570.46	29322.23
570.62	29181.80
570.78	29067.11
570.95	28936.04
571.11	29062.43
571.27	28907.96
571.43	28875.19
571.60	29134.99
571.76	29139.67
571.92	29383.09
572.09	29209.89
572.25	29425.22
572.41	29242.65
572.57	29633.52
572.74	29544.58
572.90	29006.26
573.06	29268.40
573.22	29507.13
573.38	29226.27
573.55	29502.45
573.71	29617.14
573.87	29434.58
574.03	29685.01
574.20	29462.66
574.36	29287.12
574.52	29284.78
574.68	29546.92
574.84	29514.16
575.01	29436.92
575.17	29696.72
575.33	29610.12
575.49	29696.72
575.65	29457.98
575.82	29696.72
575.98	29586.71
576.14	29757.57
576.30	29326.91
576.46	29308.19
576.62	29289.46
576.79	29710.76
576.95	29385.43
577.11	29820.77
577.27	29914.39
577.43	29607.78
577.59	29268.40
577.75	29542.24
577.92	29486.07
578.08	29312.87
578.24	29415.85
578.40	29677.99
578.56	29504.79
578.72	29916.73
578.88	29996.31
579.04	29881.62
579.21	29415.85
579.37	29640.54
579.53	29556.28
579.69	29645.23
579.85	29820.77
580.01	29610.12
580.17	29291.80
580.33	29577.35
580.49	29256.70
580.65	29589.05
580.82	29673.31
580.98	29596.07
581.14	29736.51
581.30	29628.84
581.46	29804.38
581.62	29352.66
581.78	29326.91
581.94	29741.19
582.10	29383.09
582.26	29397.13
582.42	29862.90
582.58	29748.21
582.74	29628.84
582.90	29883.96
583.06	29603.10
583.22	29373.72
583.38	29661.61
583.54	29598.41
583.70	29582.03
583.86	29750.55
584.02	29645.23
584.18	30022.05
584.34	29928.43
584.50	29593.73
584.66	29970.56
584.82	29324.57
584.98	29703.74
585.14	29612.46
585.30	29479.05
585.46	29558.63
585.62	29441.60
585.78	29383.09
585.94	29853.53
586.10	29518.84
586.26	29771.61
586.42	30272.49
586.58	29558.63
586.74	29563.31
586.90	29668.63
587.06	29455.64
587.22	29907.37
587.38	29799.70
587.54	29975.24
587.70	29874.60
587.86	30197.59
588.02	30188.23
588.18	30101.63
588.34	29839.49
588.49	29621.82
588.65	29867.58
588.81	29933.11
588.97	29710.76
589.13	29741.19
589.29	29823.11
589.45	30314.62
589.61	30017.37
589.77	30302.92
589.93	30061.84
590.08	29837.15
590.24	30455.05
590.40	29944.81
590.56	30267.81
590.72	30015.03
590.88	29963.54
591.04	30033.75
591.20	30213.98
591.35	29851.19
591.51	30485.48
591.67	30499.52
591.83	30616.55
591.99	30359.09
