SpectraSuite Data File
++++++++++++++++++++++++++++++++++++
Date: Fri Oct 18 13:58:43 GMT-05:00 2013
User: bianchi
Dark Spectrum Present: No
Reference Spectrum Present: No
Number of Sampled Component Spectra: 1
Spectrometers: USB2+H05261
Integration Time (usec): 50000 (USB2+H05261)
Spectra Averaged: 1 (USB2+H05261)
Boxcar Smoothing: 0 (USB2+H05261)
Correct for Electrical Dark: No (USB2+H05261)
Strobe/Lamp Enabled: No (USB2+H05261)
Correct for Detector Non-linearity: No (USB2+H05261)
Correct for Stray Light: No (USB2+H05261)
Number of Pixels in Processed Spectrum: 2048
>>>>>Begin Processed Spectral Data<<<<<
365.73	0.00
365.92	0.00
366.12	0.00
366.32	0.00
366.52	0.00
366.72	0.00
366.91	0.00
367.11	0.00
367.31	0.00
367.51	0.00
367.70	0.00
367.90	0.00
368.10	0.00
368.30	0.00
368.49	0.00
368.69	0.00
368.89	0.00
369.09	0.00
369.28	0.00
369.48	0.00
369.68	0.00
369.87	0.00
370.07	0.00
370.27	0.00
370.47	0.00
370.66	145.11
370.86	163.84
371.06	180.22
371.25	168.52
371.45	166.18
371.65	173.20
371.84	177.88
372.04	175.54
372.24	177.88
372.44	154.48
372.63	198.95
372.83	147.45
373.03	149.79
373.22	159.16
373.42	210.65
373.62	229.37
373.81	210.65
374.01	273.84
374.21	201.29
374.40	255.12
374.60	315.97
374.79	229.37
374.99	173.20
375.19	175.54
375.38	210.65
375.58	252.78
375.78	220.01
375.97	299.59
376.17	231.71
376.37	163.84
376.56	262.14
376.76	182.56
376.95	264.48
377.15	217.67
377.35	308.95
377.54	276.18
377.74	290.23
377.93	285.55
378.13	285.55
378.33	269.16
378.52	332.36
378.72	161.50
378.91	238.73
379.11	271.50
379.31	318.31
379.50	248.10
379.70	367.46
379.89	383.85
380.09	269.16
380.28	285.55
380.48	313.63
380.68	290.23
380.87	259.80
381.07	346.40
381.26	372.15
381.46	451.72
381.65	327.68
381.85	358.10
382.04	379.17
382.24	374.49
382.43	257.46
382.63	287.89
382.83	355.76
383.02	355.76
383.22	360.44
383.41	374.49
383.61	360.44
383.80	318.31
384.00	315.97
384.19	374.49
384.39	344.06
384.58	304.27
384.78	395.55
384.97	362.78
385.17	393.21
385.36	374.49
385.56	362.78
385.75	423.64
385.95	264.48
386.14	395.55
386.34	409.59
386.53	390.87
386.72	404.91
386.92	360.44
387.11	313.63
387.31	388.53
387.50	358.10
387.70	404.91
387.89	472.79
388.09	388.53
388.28	449.38
388.48	451.72
388.67	486.83
388.86	449.38
389.06	475.13
389.25	442.36
389.45	409.59
389.64	465.77
389.84	465.77
390.03	571.09
390.22	535.98
390.42	498.53
390.61	379.17
390.81	428.32
391.00	486.83
391.19	477.47
391.39	454.06
391.58	500.87
391.78	571.09
391.97	500.87
392.16	566.41
392.36	535.98
392.55	472.79
392.75	500.87
392.94	503.22
393.13	538.32
393.33	594.50
393.52	512.58
393.71	592.16
393.91	545.34
394.10	568.75
394.29	512.58
394.49	491.51
394.68	550.03
394.88	645.99
395.07	667.05
395.26	608.54
395.46	657.69
395.65	608.54
395.84	601.52
396.04	620.24
396.23	622.58
396.42	681.10
396.62	559.39
396.81	629.60
397.00	688.12
397.19	636.63
397.39	695.14
397.58	596.84
397.77	664.71
397.97	755.99
398.16	723.23
398.35	734.93
398.55	660.03
398.74	711.52
398.93	699.82
399.12	744.29
399.32	690.46
399.51	678.76
399.70	777.06
399.90	671.73
400.09	737.27
400.28	753.65
400.47	720.88
400.67	755.99
400.86	737.27
401.05	760.67
401.24	784.08
401.44	882.38
401.63	819.19
401.82	821.53
402.01	653.01
402.21	823.87
402.40	889.40
402.59	746.63
402.78	912.81
402.97	887.06
403.17	833.23
403.36	744.29
403.55	887.06
403.74	877.70
403.93	922.17
404.13	847.27
404.32	858.98
404.51	966.64
404.70	901.11
404.89	856.64
405.09	901.11
405.28	854.30
405.47	896.43
405.66	901.11
405.85	858.98
406.05	903.45
406.24	954.94
406.43	1027.50
406.62	1022.81
406.81	1029.84
407.00	1055.58
407.20	1004.09
407.39	1011.11
407.58	971.32
407.77	959.62
407.96	992.39
408.15	1111.75
408.34	1160.91
408.54	999.41
408.73	1083.67
408.92	1107.07
409.11	1104.73
409.30	1144.52
409.49	1090.69
409.68	1135.16
409.87	1228.78
410.07	1114.10
410.26	1165.59
410.45	1186.65
410.64	1158.57
410.83	1186.65
411.02	1231.12
411.21	1266.23
411.40	1193.67
411.59	1294.32
411.78	1254.53
411.98	1226.44
412.17	1252.19
412.36	1245.16
412.55	1343.47
412.74	1404.32
412.93	1270.91
413.12	1322.40
413.31	1338.79
413.50	1366.87
413.69	1511.99
413.88	1406.66
414.07	1376.24
414.26	1453.47
414.45	1411.34
414.64	1561.14
414.83	1514.33
415.02	1383.26
415.22	1542.41
415.41	1537.73
415.60	1451.13
415.79	1565.82
415.98	1542.41
416.17	1586.88
416.36	1570.50
416.55	1680.50
416.74	1647.74
416.93	1666.46
417.12	1586.88
417.31	1619.65
417.50	1661.78
417.69	1673.48
417.88	1713.27
418.07	1703.91
418.26	1727.32
418.45	1626.67
418.64	1767.10
418.83	1776.47
419.02	1736.68
419.21	1849.02
419.39	1804.55
419.58	1813.92
419.77	1776.47
419.96	1844.34
420.15	1905.20
420.34	1881.79
420.53	1909.88
420.72	1860.73
420.91	1942.64
421.10	1884.13
421.29	1977.75
421.48	1912.22
421.67	1926.26
421.86	1944.99
422.05	2029.24
422.24	1961.37
422.43	1842.00
422.61	1966.05
422.80	1994.14
422.99	2054.99
423.18	2057.33
423.37	2029.24
423.56	1994.14
423.75	2031.58
423.94	2050.31
424.13	1947.33
424.32	1968.39
424.50	1933.28
424.69	2015.20
424.88	2069.03
425.07	2017.54
425.26	2019.88
425.45	1912.22
425.64	2047.97
425.83	2010.52
426.01	2080.74
426.20	2019.88
426.39	2019.88
426.58	2050.31
426.77	2015.20
426.96	2069.03
427.15	2155.63
427.33	2062.01
427.52	2136.91
427.71	2132.23
427.90	2172.02
428.09	2260.96
428.28	2195.42
428.46	2249.25
428.65	2221.17
428.84	2275.00
429.03	2282.02
429.22	2197.76
429.40	2127.55
429.59	2249.25
429.78	2190.74
429.97	2225.85
430.16	2099.46
430.34	2333.51
430.53	2326.49
430.72	2424.80
430.91	2230.53
431.10	2335.85
431.28	2406.07
431.47	2408.41
431.66	2473.95
431.85	2328.83
432.03	2431.82
432.22	2520.76
432.41	2389.69
432.60	2476.29
432.79	2389.69
432.97	2459.90
433.16	2487.99
433.35	2483.31
433.54	2492.67
433.72	2502.03
433.91	2476.29
434.10	2417.77
434.28	2525.44
434.47	2583.95
434.66	2579.27
434.85	2532.46
435.03	2569.91
435.22	2492.67
435.41	2593.31
435.59	2637.78
435.78	2717.36
435.97	2733.75
436.16	2686.94
436.34	2576.93
436.53	2644.81
436.72	2670.55
436.90	2698.64
437.09	2808.64
437.28	2562.89
437.46	2731.41
437.65	2801.62
437.84	2649.49
438.02	2686.94
438.21	2754.81
438.40	2698.64
438.58	2850.77
438.77	2820.35
438.96	2916.31
439.14	2953.76
439.33	2951.42
439.52	2993.55
439.70	2988.86
439.89	3021.63
440.08	2892.90
440.26	3052.06
440.45	2913.97
440.63	3131.64
440.82	3155.04
441.01	3094.19
441.19	3087.17
441.38	3199.51
441.57	3218.24
441.75	3199.51
441.94	3323.56
442.12	3239.30
442.31	3290.79
442.50	3335.26
442.68	3290.79
442.87	3246.32
443.05	3251.00
443.24	3372.71
443.43	3274.41
443.61	3330.58
443.80	3492.08
443.98	3363.35
444.17	3290.79
444.35	3393.78
444.54	3466.33
444.73	3442.93
444.91	3344.63
445.10	3368.03
445.28	3384.41
445.47	3302.50
445.65	3363.35
445.84	3463.99
446.02	3485.06
446.21	3492.08
446.39	3489.74
446.58	3482.72
446.77	3398.46
446.95	3433.57
447.14	3471.01
447.32	3503.78
447.51	3578.68
447.69	3400.80
447.88	3536.55
448.06	3508.46
448.25	3592.72
448.43	3559.95
448.62	3482.72
448.80	3485.06
448.99	3536.55
449.17	3557.61
449.36	3592.72
449.54	3744.86
449.73	3555.27
449.91	3749.54
450.10	3747.20
450.28	3688.68
450.46	3768.26
450.65	3761.24
450.83	3705.07
451.02	3826.78
451.20	3798.69
451.39	3784.65
451.57	3737.84
451.76	3716.77
451.94	3784.65
452.13	3889.97
452.31	3878.27
452.49	3705.07
452.68	3775.28
452.86	3831.46
453.05	3929.76
453.23	3941.46
453.42	3927.42
453.60	3901.67
453.78	3913.38
453.97	3845.50
454.15	3861.88
454.34	3805.71
454.52	3990.61
454.70	4074.87
454.89	3920.40
455.07	3999.98
455.26	4016.36
455.44	4046.79
455.62	3955.51
455.81	4081.89
455.99	4126.36
456.17	4126.36
456.36	4086.58
456.54	4184.88
456.73	4142.75
456.91	4177.86
457.09	4203.60
457.28	4407.23
457.46	4372.12
457.64	4521.92
457.83	4271.48
458.01	4201.26
458.19	4411.91
458.38	4294.88
458.56	4423.61
458.74	4322.97
458.93	4409.57
459.11	4542.98
459.29	4383.82
459.48	4510.21
459.66	4482.13
459.84	4496.17
460.03	4606.17
460.21	4620.22
460.39	4465.74
460.57	4617.88
460.76	4627.24
460.94	4725.54
461.12	4641.28
461.31	4566.39
461.49	4615.54
461.67	4559.36
461.85	4774.69
462.04	4503.19
462.22	4809.80
462.40	4699.80
462.59	4812.14
462.77	4723.20
462.95	4723.20
463.13	4880.02
463.32	4828.53
463.50	4739.58
463.68	4877.68
463.86	4863.63
464.05	4840.23
464.23	4926.83
464.41	4861.29
464.59	4781.71
464.78	5025.13
464.96	4868.31
465.14	4863.63
465.32	4868.31
465.50	5043.85
465.69	5018.11
465.87	5025.13
466.05	5018.11
466.23	4957.25
466.41	5041.51
466.60	5032.15
466.78	5078.96
466.96	4943.21
467.14	5048.54
467.32	4931.51
467.51	5137.48
467.69	4947.89
467.87	5165.56
468.05	5100.03
468.23	5163.22
468.41	5186.63
468.60	5249.82
468.78	5226.42
468.96	5060.24
469.14	5266.21
469.32	5291.95
469.50	5217.05
469.69	5289.61
469.87	5322.38
470.05	5327.06
470.23	5210.03
470.41	5334.08
470.59	5472.17
470.77	5469.83
470.95	5451.11
471.14	5523.66
471.32	5418.34
471.50	5563.45
471.68	5652.39
471.86	5535.37
472.04	5682.82
472.22	5713.25
472.40	5640.69
472.58	5743.67
472.77	5561.11
472.95	5696.86
473.13	6078.37
473.31	5753.04
473.49	5795.17
473.67	5926.24
473.85	5886.45
474.03	6038.58
474.21	6076.03
474.39	6052.63
474.57	6071.35
474.75	6052.63
474.93	6235.19
475.12	5949.64
475.30	6099.44
475.48	6045.60
475.66	6242.21
475.84	6253.91
476.02	6272.64
476.20	6141.57
476.38	6413.07
476.56	6497.33
476.74	6492.65
476.92	6394.34
477.10	6408.39
477.28	6707.98
477.46	6677.55
477.64	6719.68
477.82	6778.19
478.00	6759.47
478.18	6691.59
478.36	6995.86
478.54	7007.56
478.72	6967.77
478.90	7068.42
479.08	7087.14
479.26	7248.64
479.44	7229.91
479.62	7211.19
479.80	7358.64
479.98	7510.78
480.16	7679.30
480.34	7269.70
480.52	7611.42
480.70	7847.82
480.88	7609.08
481.06	7644.19
481.24	7751.85
481.41	7850.16
481.59	7985.91
481.77	7908.67
481.95	8074.85
482.13	7772.92
482.31	8032.72
482.49	8128.68
482.67	8231.66
482.85	8491.46
483.03	8430.61
483.21	8603.81
483.39	8781.69
483.57	8500.83
483.74	8573.38
483.92	8774.67
484.10	8631.90
484.28	8737.22
484.46	8997.02
484.64	9060.21
484.82	9011.06
485.00	9102.34
485.18	9151.49
485.35	9493.21
485.53	9338.74
485.71	9383.21
485.89	9544.70
486.07	9411.29
486.25	9584.49
486.43	9312.99
486.61	9617.26
486.78	9977.70
486.96	10015.15
487.14	10097.07
487.32	10101.75
487.50	9914.51
487.68	10209.42
487.85	10223.46
488.03	10382.62
488.21	10736.04
488.39	10520.71
488.57	10698.59
488.75	10698.59
488.92	10832.00
489.10	10911.58
489.28	10803.91
489.46	10860.09
489.64	10958.39
489.81	11351.60
489.99	11358.62
490.17	11337.56
490.35	11473.31
490.53	11454.58
490.70	11353.94
490.88	11506.07
491.06	11873.54
491.24	11569.27
491.41	11847.79
491.59	11941.41
491.77	12009.29
491.95	11770.55
492.13	12074.82
492.30	12105.25
492.48	12334.62
492.66	12327.60
492.84	12367.39
493.01	12519.53
493.19	12437.61
493.37	12589.74
493.54	12688.04
493.72	12767.62
493.90	12816.77
494.08	13062.53
494.25	13034.44
494.43	13408.93
494.61	13345.73
494.79	13291.90
494.96	13160.83
495.14	13418.29
495.32	13429.99
495.49	13490.85
495.67	13474.46
495.85	13570.43
496.02	13619.58
496.20	13837.25
496.38	13860.65
496.55	13647.66
496.73	14300.67
496.91	13933.21
497.09	14162.58
497.26	14384.93
497.44	14164.92
497.62	14120.45
497.79	14675.16
497.97	14649.41
498.14	14532.39
498.32	14441.11
498.50	14977.09
498.67	14813.25
498.85	14839.00
499.03	15101.14
499.20	14904.53
499.38	15101.14
499.56	15023.90
499.73	15023.90
499.91	15239.23
500.08	15475.62
500.26	15152.63
500.44	15185.40
500.61	15367.96
500.79	15372.64
500.97	15286.04
501.14	15587.97
501.32	15566.90
501.49	15653.50
501.67	15597.33
501.84	15690.95
502.02	15620.74
502.20	16074.80
502.37	15953.09
502.55	16212.89
502.72	16350.98
502.90	16114.59
503.07	15922.66
503.25	15990.54
503.43	15992.88
503.60	16212.89
503.78	16311.19
503.95	16226.93
504.13	16744.19
504.30	16554.61
504.48	16367.37
504.65	16786.32
504.83	16788.66
505.01	16973.56
505.18	17092.93
505.36	16999.31
505.53	16940.80
505.71	16950.16
505.88	17083.57
506.06	17078.89
506.23	17090.59
506.41	17212.30
506.58	17205.28
506.76	17114.00
506.93	17224.00
507.11	17249.75
507.28	17472.10
507.46	17266.13
507.63	17792.75
507.81	17645.30
507.98	17404.22
508.16	17671.04
508.33	17729.56
508.50	17961.27
508.68	17874.67
508.85	17916.80
509.03	17853.61
509.20	18317.03
509.38	18305.33
509.55	18457.46
509.73	18349.80
509.90	18305.33
510.08	18080.64
510.25	18363.84
510.42	18539.38
510.60	18717.26
510.77	18724.29
510.95	18951.32
511.12	18476.19
511.30	18717.26
511.47	18616.62
511.64	18979.40
511.82	19058.98
511.99	18801.52
512.17	19019.19
512.34	18820.25
512.51	18958.34
512.69	19307.08
512.86	19037.92
513.04	19147.92
513.21	19138.56
513.38	19108.13
513.56	19468.58
513.73	19227.50
513.90	19431.13
514.08	19414.74
514.25	19754.12
514.43	19360.91
514.60	19878.17
514.77	19714.33
514.95	19786.89
515.12	19730.72
515.29	19351.55
515.47	19688.59
515.64	19932.00
515.81	19976.47
515.99	20046.69
516.16	20308.83
516.33	20198.82
516.51	20343.94
516.68	19997.54
516.85	19915.62
517.03	20517.14
517.20	20685.65
517.37	20287.76
517.54	20638.84
517.72	20498.41
517.89	20290.10
518.06	20496.07
518.24	20720.76
518.41	20767.57
518.58	20554.58
518.75	20638.84
518.93	20709.06
519.10	20830.77
519.27	21116.31
519.45	20617.78
519.62	20762.89
519.79	20779.28
519.96	20830.77
520.14	21027.37
520.31	21029.71
520.48	21443.99
520.65	21025.03
520.83	21261.43
521.00	21394.84
521.17	21118.65
521.34	21366.75
521.52	21696.77
521.69	21350.37
521.86	21582.08
522.03	21717.83
522.20	21642.93
522.38	21898.05
522.55	21607.83
522.72	21624.21
522.89	21879.33
523.07	21970.61
523.24	21996.35
523.41	22010.40
523.58	21776.34
523.75	22061.89
523.92	21972.95
524.10	21963.59
524.27	21979.97
524.44	22080.61
524.61	22558.08
524.78	22188.28
524.96	22401.27
525.13	22607.23
525.30	22480.85
525.47	22408.29
525.64	22169.55
525.81	22214.02
525.98	22614.26
526.16	22934.91
526.33	22574.47
526.50	23033.21
526.67	22478.50
526.84	22628.30
527.01	22508.93
527.18	22630.64
527.36	22881.08
527.53	22703.20
527.70	23295.35
527.87	22995.76
528.04	23054.28
528.21	22862.35
528.38	22967.68
528.55	23204.07
528.72	23503.66
528.89	23304.71
529.07	23026.19
529.24	23166.62
529.41	23330.46
529.58	23358.55
529.75	23391.31
529.92	23440.47
530.09	23360.89
530.26	23534.09
530.43	23693.24
530.60	23477.91
530.77	23765.80
530.94	23915.59
531.11	23772.82
531.28	23744.73
531.46	23550.47
531.63	23957.72
531.80	23779.84
531.97	24163.69
532.14	23840.70
532.31	24126.24
532.48	24067.73
532.65	23744.73
532.82	23948.36
532.99	23941.34
533.16	24067.73
533.33	24236.25
533.50	24196.46
533.67	24233.91
533.84	24285.40
534.01	24350.93
534.18	23967.09
534.35	24512.43
534.52	24526.47
534.69	24709.04
534.86	24840.11
535.03	24556.90
535.20	24493.71
535.37	24519.45
535.54	24739.46
535.71	24353.27
535.88	25116.29
536.05	24673.93
536.22	24797.98
536.38	24877.55
536.55	24954.79
536.72	24702.01
536.89	24451.58
537.06	24559.24
537.23	25001.60
537.40	24861.17
537.57	24903.30
537.74	24947.77
537.91	25294.17
538.08	25099.90
538.25	24765.21
538.42	25326.94
538.59	25167.78
538.75	25003.94
538.92	25125.65
539.09	25507.16
539.26	25450.99
539.43	25343.32
539.60	25336.30
539.77	25280.13
539.94	25247.36
540.11	25619.50
540.28	25373.75
540.44	25193.53
540.61	25289.49
540.78	25076.50
540.95	25422.90
541.12	25825.47
541.29	25752.91
541.46	25745.89
541.62	25647.59
541.79	25495.46
541.96	25610.14
542.13	25383.11
542.30	26008.03
542.47	26108.68
542.63	25865.26
542.80	26274.85
542.97	26331.03
543.14	26073.57
543.31	26040.80
543.48	26209.32
543.64	26185.91
543.81	26190.59
543.98	26452.73
544.15	26445.71
544.32	26253.79
544.48	26607.21
544.65	26384.86
544.82	26209.32
544.99	26242.09
545.16	26707.85
545.32	26204.64
545.49	26506.57
545.66	26593.17
545.83	26693.81
546.00	26981.70
546.16	26525.29
546.33	26576.78
546.50	26302.94
546.67	26848.29
546.83	26813.18
547.00	26485.50
547.17	26838.92
547.34	26754.66
547.50	26904.46
547.67	27173.62
547.84	26984.04
548.00	26738.28
548.17	26906.80
548.34	26937.23
548.51	27136.17
548.67	27047.23
548.84	27075.32
549.01	26923.18
549.18	27089.36
549.34	27049.57
549.51	26969.99
549.68	27337.46
549.84	27316.39
550.01	27014.46
550.18	26946.59
550.34	27250.86
550.51	27723.65
550.68	27587.89
550.84	27192.34
551.01	27171.28
551.18	27566.83
551.34	27187.66
551.51	27175.96
551.68	27426.40
551.84	27676.83
552.01	27428.74
552.18	27508.32
552.34	27412.35
552.51	27644.07
552.68	27386.61
552.84	28011.53
553.01	27669.81
553.18	27477.89
553.34	27648.75
553.51	27672.15
553.67	28198.77
553.84	27812.59
554.01	27889.82
554.17	27899.19
554.34	27779.82
554.51	27873.44
554.67	28107.49
554.84	28013.87
555.00	28168.35
555.17	28114.52
555.33	28121.54
555.50	27779.82
555.67	27861.74
555.83	27676.83
556.00	28381.34
556.16	28673.90
556.33	28072.39
556.50	28032.60
556.66	28067.70
556.83	28212.82
556.99	28692.63
557.16	28205.80
557.32	28147.28
557.49	28535.81
557.65	28421.13
557.82	28016.21
557.98	28421.13
558.15	28343.89
558.32	28446.87
558.48	28430.49
558.65	28259.63
558.81	28056.00
558.98	28217.50
559.14	28446.87
559.31	28416.44
559.47	28458.57
559.64	28907.96
559.80	28732.42
559.97	28521.77
560.13	27997.49
560.30	28348.57
560.46	28505.38
560.63	28662.20
560.79	28676.24
560.96	28437.51
561.12	28547.51
561.29	28718.37
561.45	28460.91
561.61	28690.29
561.78	28620.07
561.94	28844.76
562.11	28751.14
562.27	28828.38
562.44	28673.90
562.60	28910.30
562.77	29034.35
562.93	28510.07
563.10	28627.09
563.26	28304.10
563.42	28788.59
563.59	28723.05
563.75	29071.79
563.92	29523.52
564.08	28840.08
564.24	28730.08
564.41	28804.97
564.57	28748.80
564.74	28872.85
564.90	29319.89
565.07	29092.86
565.23	28957.11
565.39	29172.44
565.56	29338.62
565.72	29483.73
565.88	29062.43
566.05	28959.45
566.21	28755.82
566.38	28755.82
566.54	29284.78
566.70	29078.82
566.87	29546.92
567.03	29212.23
567.19	29345.64
567.36	29195.84
567.52	28797.95
567.68	28996.90
567.85	28975.83
568.01	29511.81
568.17	29153.71
568.34	29275.42
568.50	29280.10
568.66	29188.82
568.83	29708.42
568.99	29441.60
569.15	29212.23
569.32	29027.32
569.48	29017.96
569.64	29476.71
569.81	29055.41
569.97	29493.09
570.13	29130.31
570.30	29493.09
570.46	29532.88
570.62	29289.46
570.78	29247.33
570.95	29095.20
571.11	29170.10
571.27	28694.97
571.43	29226.27
571.60	29483.73
571.76	29160.73
571.92	29565.65
572.09	29525.86
572.25	29542.24
572.41	29502.45
572.57	29284.78
572.74	29380.74
572.90	28797.95
573.06	29539.90
573.22	29266.06
573.38	29289.46
573.55	29511.81
573.71	29200.52
573.87	29270.74
574.03	29600.76
574.20	29214.57
574.36	29315.21
574.52	29233.29
574.68	29516.50
574.84	29551.60
575.01	29516.50
575.17	29490.75
575.33	29385.43
575.49	29446.28
575.65	29565.65
575.82	29652.25
575.98	29799.70
576.14	29673.31
576.30	29252.02
576.46	29413.51
576.62	29532.88
576.79	29598.41
576.95	29429.90
577.11	29675.65
577.27	30052.48
577.43	29958.86
577.59	29509.47
577.75	29488.41
577.92	29525.86
578.08	29708.42
578.24	29518.84
578.40	29874.60
578.56	29523.52
578.72	30066.52
578.88	30045.46
579.04	29647.57
579.21	29165.42
579.37	29680.33
579.53	29792.68
579.69	29670.97
579.85	29551.60
580.01	29350.32
580.17	29221.59
580.33	29720.12
580.49	29619.48
580.65	29460.32
580.82	30043.12
580.98	29942.47
581.14	29530.54
581.30	29823.11
581.46	29610.12
581.62	29689.70
581.78	29656.93
581.94	29528.20
582.10	29652.25
582.26	29572.67
582.42	29642.88
582.58	29661.61
582.74	29577.35
582.90	29429.90
583.06	29905.02
583.22	29797.36
583.38	29727.14
583.54	29415.85
583.70	29699.06
583.86	29495.43
584.02	30197.59
584.18	29942.47
584.34	29865.24
584.50	29879.28
584.66	29600.76
584.82	29291.80
584.98	29752.89
585.14	29825.45
585.30	29481.39
585.46	29572.67
585.62	29544.58
585.78	29816.08
585.94	29394.79
586.10	29771.61
586.26	29738.85
586.42	30078.22
586.58	30162.48
586.74	29734.17
586.90	29734.17
587.06	29799.70
587.22	29818.42
587.38	29853.53
587.54	29965.88
587.70	29600.76
587.86	29996.31
588.02	30466.75
588.18	30391.86
588.34	29741.19
588.49	29851.19
588.65	29996.31
588.81	29647.57
588.97	29986.94
589.13	29750.55
589.29	29741.19
589.45	30099.29
589.61	29944.81
589.77	30333.34
589.93	30312.28
590.08	30260.79
590.24	30265.47
590.40	30029.07
590.56	30277.17
590.72	30106.31
590.88	29855.87
591.04	29979.92
591.20	30321.64
591.35	30459.73
591.51	30494.84
591.67	30316.96
591.83	30246.74
591.99	30419.94
