SpectraSuite Data File
++++++++++++++++++++++++++++++++++++
Date: Fri Oct 18 13:58:07 GMT-05:00 2013
User: bianchi
Dark Spectrum Present: No
Reference Spectrum Present: No
Number of Sampled Component Spectra: 1
Spectrometers: USB2+H05261
Integration Time (usec): 50000 (USB2+H05261)
Spectra Averaged: 1 (USB2+H05261)
Boxcar Smoothing: 0 (USB2+H05261)
Correct for Electrical Dark: No (USB2+H05261)
Strobe/Lamp Enabled: No (USB2+H05261)
Correct for Detector Non-linearity: No (USB2+H05261)
Correct for Stray Light: No (USB2+H05261)
Number of Pixels in Processed Spectrum: 2048
>>>>>Begin Processed Spectral Data<<<<<
365.73	0.00
365.92	0.00
366.12	0.00
366.32	0.00
366.52	0.00
366.72	0.00
366.91	0.00
367.11	0.00
367.31	0.00
367.51	0.00
367.70	0.00
367.90	0.00
368.10	0.00
368.30	0.00
368.49	0.00
368.69	0.00
368.89	0.00
369.09	0.00
369.28	0.00
369.48	0.00
369.68	0.00
369.87	0.00
370.07	0.00
370.27	0.00
370.47	0.00
370.66	140.43
370.86	42.13
371.06	91.28
371.25	138.09
371.45	224.69
371.65	182.56
371.84	191.92
372.04	175.54
372.24	236.39
372.44	126.39
372.63	187.24
372.83	161.50
373.03	194.26
373.22	194.26
373.42	154.48
373.62	262.14
373.81	313.63
374.01	210.65
374.21	212.99
374.40	250.44
374.60	264.48
374.79	238.73
374.99	241.08
375.19	339.38
375.38	252.78
375.58	248.10
375.78	187.24
375.97	259.80
376.17	304.27
376.37	238.73
376.56	276.18
376.76	194.26
376.95	250.44
377.15	262.14
377.35	248.10
377.54	238.73
377.74	215.33
377.93	262.14
378.13	325.33
378.33	201.29
378.52	290.23
378.72	292.57
378.91	334.70
379.11	283.20
379.31	262.14
379.50	280.86
379.70	299.59
379.89	297.25
380.09	273.84
380.28	306.61
380.48	241.08
380.68	330.02
380.87	292.57
381.07	257.46
381.26	341.72
381.46	308.95
381.65	269.16
381.85	285.55
382.04	358.10
382.24	355.76
382.43	325.33
382.63	383.85
382.83	395.55
383.02	388.53
383.22	311.29
383.41	332.36
383.61	409.59
383.80	358.10
384.00	381.51
384.19	322.99
384.39	395.55
384.58	404.91
384.78	379.17
384.97	353.42
385.17	327.68
385.36	297.25
385.56	355.76
385.75	355.76
385.95	409.59
386.14	451.72
386.34	400.23
386.53	463.43
386.72	360.44
386.92	425.98
387.11	393.21
387.31	416.62
387.50	451.72
387.70	393.21
387.89	454.06
388.09	337.04
388.28	477.47
388.48	479.81
388.67	444.70
388.86	449.38
389.06	454.06
389.25	489.17
389.45	440.02
389.64	449.38
389.84	521.94
390.03	503.22
390.22	404.91
390.42	531.30
390.61	491.51
390.81	514.92
391.00	517.26
391.19	440.02
391.39	493.85
391.58	547.69
391.78	517.26
391.97	594.50
392.16	545.34
392.36	564.07
392.55	538.32
392.75	594.50
392.94	550.03
393.13	606.20
393.33	491.51
393.52	557.05
393.71	690.46
393.91	566.41
394.10	571.09
394.29	564.07
394.49	533.64
394.68	641.31
394.88	587.47
395.07	592.16
395.26	676.41
395.46	709.18
395.65	702.16
395.84	636.63
396.04	678.76
396.23	648.33
396.42	669.39
396.62	613.22
396.81	657.69
397.00	711.52
397.19	650.67
397.39	688.12
397.58	718.54
397.77	613.22
397.97	725.57
398.16	667.05
398.35	734.93
398.55	671.73
398.74	763.01
398.93	713.86
399.12	723.23
399.32	723.23
399.51	711.52
399.70	734.93
399.90	741.95
400.09	856.64
400.28	753.65
400.47	772.38
400.67	833.23
400.86	840.25
401.05	793.44
401.24	793.44
401.44	844.93
401.63	765.36
401.82	814.51
402.01	802.80
402.21	791.10
402.40	821.53
402.59	908.13
402.78	802.80
402.97	877.70
403.17	844.93
403.36	877.70
403.55	952.60
403.74	889.40
403.93	903.45
404.13	929.19
404.32	1008.77
404.51	917.49
404.70	926.85
404.89	943.24
405.09	884.72
405.28	954.94
405.47	968.98
405.66	971.32
405.85	968.98
406.05	1004.09
406.24	933.87
406.43	964.30
406.62	1067.28
406.81	1043.88
407.00	1041.54
407.20	1027.50
407.39	1071.97
407.58	1086.01
407.77	1083.67
407.96	999.41
408.15	1060.26
408.34	1151.54
408.54	1020.47
408.73	1125.80
408.92	1053.24
409.11	1032.18
409.30	1104.73
409.49	1095.37
409.68	1121.12
409.87	1104.73
410.07	1226.44
410.26	1179.63
410.45	1121.12
410.64	1128.14
410.83	1191.33
411.02	1224.10
411.21	1245.16
411.40	1355.17
411.59	1322.40
411.78	1268.57
411.98	1324.74
412.17	1338.79
412.36	1394.96
412.55	1357.51
412.74	1387.94
412.93	1299.00
413.12	1324.74
413.31	1387.94
413.50	1282.61
413.69	1439.43
413.88	1364.53
414.07	1474.54
414.26	1537.73
414.45	1558.80
414.64	1565.82
414.83	1495.60
415.02	1476.88
415.22	1598.59
415.41	1659.44
415.60	1488.58
415.79	1549.43
415.98	1673.48
416.17	1610.29
416.36	1638.38
416.55	1551.78
416.74	1579.86
416.93	1619.65
417.12	1703.91
417.31	1746.04
417.50	1671.14
417.69	1802.21
417.88	1694.55
418.07	1703.91
418.26	1825.62
418.45	1788.17
418.64	1834.98
418.83	1865.41
419.02	1685.19
419.21	1820.94
419.39	1844.34
419.58	1856.04
419.77	1732.00
419.96	1844.34
420.15	1863.07
420.34	1823.28
420.53	1916.90
420.72	1926.26
420.91	1834.98
421.10	1914.56
421.29	2071.37
421.48	1907.54
421.67	1898.17
421.86	2010.52
422.05	2101.80
422.24	1994.14
422.43	1989.46
422.61	2036.27
422.80	2078.40
422.99	2038.61
423.18	2047.97
423.37	1977.75
423.56	2139.25
423.75	2085.42
423.94	2073.71
424.13	1935.62
424.32	1984.77
424.50	2050.31
424.69	2059.67
424.88	2085.42
425.07	2059.67
425.26	2003.50
425.45	2043.29
425.64	1998.82
425.83	1977.75
426.01	2150.95
426.20	2101.80
426.39	2179.04
426.58	2022.22
426.77	2043.29
426.96	2113.50
427.15	2090.10
427.33	2181.38
427.52	2150.95
427.71	2085.42
427.90	2186.06
428.09	2150.95
428.28	2160.31
428.46	2328.83
428.65	2263.30
428.84	2328.83
429.03	2275.00
429.22	2113.50
429.40	2258.62
429.59	2366.28
429.78	2179.04
429.97	2193.08
430.16	2312.45
430.34	2352.24
430.53	2342.88
430.72	2427.14
430.91	2373.30
431.10	2478.63
431.28	2403.73
431.47	2476.29
431.66	2485.65
431.85	2345.22
432.03	2394.37
432.22	2356.92
432.41	2387.35
432.60	2539.48
432.79	2382.67
432.97	2401.39
433.16	2560.55
433.35	2511.39
433.54	2410.75
433.72	2595.65
433.91	2539.48
434.10	2551.18
434.28	2502.03
434.47	2616.72
434.66	2567.57
434.85	2605.02
435.03	2647.15
435.22	2544.16
435.41	2677.57
435.59	2672.89
435.78	2651.83
435.97	2633.10
436.16	2764.17
436.34	2614.38
436.53	2719.70
436.72	2827.37
436.90	2682.25
437.09	2649.49
437.28	2715.02
437.46	2675.23
437.65	2726.72
437.84	2803.96
438.02	2747.79
438.21	2848.43
438.40	2860.13
438.58	2834.39
438.77	2960.78
438.96	2986.52
439.14	2869.50
439.33	2949.08
439.52	3061.42
439.70	2986.52
439.89	2995.89
440.08	2984.18
440.26	3115.25
440.45	3056.74
440.63	3068.44
440.82	3187.81
441.01	3035.67
441.19	3194.83
441.38	3190.15
441.57	3206.53
441.75	3169.09
441.94	3246.32
442.12	3396.12
442.31	3386.76
442.50	3316.54
442.68	3325.90
442.87	3386.76
443.05	3297.81
443.24	3410.16
443.43	3389.10
443.61	3478.04
443.80	3417.18
443.98	3419.52
444.17	3260.37
444.35	3468.67
444.54	3410.16
444.73	3428.88
444.91	3513.14
445.10	3356.33
445.28	3372.71
445.47	3435.91
445.65	3445.27
445.84	3449.95
446.02	3456.97
446.21	3438.25
446.39	3524.85
446.58	3482.72
446.77	3520.17
446.95	3414.84
447.14	3468.67
447.32	3569.32
447.51	3562.30
447.69	3662.94
447.88	3576.34
448.06	3562.30
448.25	3588.04
448.43	3524.85
448.62	3506.12
448.80	3637.19
448.99	3684.00
449.17	3592.72
449.36	3538.89
449.54	3740.18
449.73	3665.28
449.91	3691.02
450.10	3712.09
450.28	3803.37
450.46	3728.47
450.65	3840.82
450.83	3700.39
451.02	3693.37
451.20	3964.87
451.39	3824.44
451.57	3880.61
451.76	3728.47
451.94	3941.46
452.13	3857.20
452.31	3730.81
452.49	3705.07
452.68	3871.25
452.86	3882.95
453.05	4028.06
453.23	4072.53
453.42	3981.25
453.60	3840.82
453.78	3946.14
453.97	3880.61
454.15	3943.80
454.34	3941.46
454.52	3882.95
454.70	4058.49
454.89	4074.87
455.07	4208.28
455.26	4119.34
455.44	4079.55
455.62	4156.79
455.81	4168.49
455.99	4271.48
456.17	4189.56
456.36	4149.77
456.54	4276.16
456.73	4278.50
456.91	4355.74
457.09	4285.52
457.28	4376.80
457.46	4222.33
457.64	4386.16
457.83	4418.93
458.01	4332.33
458.19	4493.83
458.38	4418.93
458.56	4510.21
458.74	4475.10
458.93	4409.57
459.11	4505.53
459.29	4519.57
459.48	4524.26
459.66	4447.02
459.84	4435.32
460.03	4571.07
460.21	4517.23
460.39	4655.33
460.57	4484.47
460.76	4512.55
460.94	4685.75
461.12	4624.90
461.31	4566.39
461.49	4660.01
461.67	4667.03
461.85	4744.27
462.04	4737.24
462.22	5046.20
462.40	4746.61
462.59	4793.42
462.77	5020.45
462.95	4840.23
463.13	4875.34
463.32	4732.56
463.50	4851.93
463.68	4770.01
463.86	4943.21
464.05	4947.89
464.23	4870.65
464.41	4901.08
464.59	4674.05
464.78	5018.11
464.96	4858.95
465.14	4938.53
465.32	4924.49
465.50	5055.56
465.69	5053.22
465.87	5090.67
466.05	4968.96
466.23	5174.92
466.41	5167.90
466.60	5448.77
466.78	5064.92
466.96	5085.98
467.14	4971.30
467.32	5102.37
467.51	5320.04
467.69	5111.73
467.87	5259.18
468.05	5254.50
468.23	5245.14
468.41	5170.24
468.60	5060.24
468.78	5308.34
468.96	5083.64
469.14	5420.68
469.32	5387.91
469.50	5289.61
469.69	5420.68
469.87	5504.94
470.05	5582.18
470.23	5511.96
470.41	5561.11
470.59	5392.59
470.77	5380.89
470.95	5685.16
471.14	5575.16
471.32	5507.28
471.50	5579.84
471.68	5687.50
471.86	5640.69
472.04	5771.76
472.22	5746.02
472.40	5696.86
472.58	5722.61
472.77	5858.36
472.95	5923.90
473.13	5951.98
473.31	5816.23
473.49	5900.49
473.67	6022.20
473.85	6010.50
474.03	6099.44
474.21	5989.43
474.39	6118.16
474.57	6118.16
474.75	6118.16
474.93	6122.84
475.12	6132.20
475.30	6230.51
475.48	6136.88
475.66	6305.40
475.84	6270.30
476.02	6434.13
476.20	6436.47
476.38	6408.39
476.56	6602.65
476.74	6626.06
476.92	6579.25
477.10	6541.80
477.28	6724.36
477.46	6686.91
477.64	6757.13
477.82	6902.24
478.00	6920.96
478.18	7098.84
478.36	7101.19
478.54	7009.90
478.72	7152.68
478.90	7307.15
479.08	7218.21
479.26	7143.32
479.44	7503.76
479.62	7337.58
479.80	7379.71
479.98	7506.10
480.16	7716.75
480.34	7616.10
480.52	7588.02
480.70	7735.47
480.88	7728.45
481.06	7796.32
481.24	7723.77
481.41	7992.93
481.59	8224.64
481.77	8100.59
481.95	7964.84
482.13	8278.47
482.31	8112.30
482.49	8168.47
482.67	8477.42
482.85	8418.91
483.03	8596.79
483.21	8568.70
483.39	8936.17
483.57	8472.74
483.74	8769.99
483.92	8809.78
484.10	8903.40
484.28	9041.49
484.46	9207.67
484.64	9446.40
484.82	9090.64
485.00	9364.48
485.18	9322.35
485.35	9338.74
485.53	9549.39
485.71	9336.40
485.89	9802.16
486.07	9530.66
486.25	9593.86
486.43	9921.53
486.61	9741.31
486.78	10047.92
486.96	10068.98
487.14	10228.14
487.32	10167.29
487.50	10249.21
487.68	10499.64
487.85	10644.76
488.03	10560.50
488.21	10640.08
488.39	10743.06
488.57	10731.36
488.75	10874.13
488.92	10977.11
489.10	11236.91
489.28	10920.94
489.46	11337.56
489.64	11164.36
489.81	11482.67
489.99	11456.92
490.17	11379.68
490.35	11681.61
490.53	11662.89
490.70	11796.30
490.88	11756.51
491.06	12020.99
491.24	11742.47
491.41	12060.78
491.59	12198.87
491.77	12093.55
491.95	12259.73
492.13	12161.42
492.30	12608.47
492.48	12526.55
492.66	12674.00
492.84	12564.00
493.01	12842.52
493.19	12690.38
493.37	13198.28
493.54	12924.44
493.72	13273.18
493.90	12908.05
494.08	13125.72
494.25	13027.42
494.43	13509.57
494.61	13408.93
494.79	13355.10
494.96	13476.80
495.14	13870.01
495.32	13572.77
495.49	13734.26
495.67	13762.35
495.85	13811.50
496.02	14099.39
496.20	13996.40
496.38	13881.72
496.55	14174.28
496.73	14628.35
496.91	14118.11
497.09	14494.94
497.26	14712.61
497.44	14689.20
497.62	14698.56
497.79	14909.21
497.97	14876.44
498.14	14637.71
498.32	15257.95
498.50	14579.20
498.67	15367.96
498.85	14991.13
499.03	15063.69
499.20	15360.94
499.38	15176.03
499.56	15424.13
499.73	15529.45
499.91	15597.33
500.08	15499.03
500.26	15403.07
500.44	15655.84
500.61	15501.37
500.79	15941.39
500.97	15810.32
501.14	16191.83
501.32	16280.77
501.49	16006.92
501.67	16058.42
501.84	15772.87
502.02	16264.38
502.20	16453.97
502.37	16470.35
502.55	16407.16
502.72	16559.29
502.90	16498.44
503.07	16290.13
503.25	16704.40
503.43	16292.47
503.60	16673.98
503.78	16751.21
503.95	16840.15
504.13	16760.58
504.30	16681.00
504.48	17064.85
504.65	17186.55
504.83	17214.64
505.01	17242.73
505.18	17195.92
505.36	17406.56
505.53	17205.28
505.71	17268.47
505.88	17427.63
506.06	17312.94
506.23	17488.48
506.41	17436.99
506.58	17877.01
506.76	17839.56
506.93	17687.43
507.11	17792.75
507.28	17666.36
507.46	17659.34
507.63	17912.12
507.81	18209.37
507.98	18022.12
508.16	17994.04
508.33	18054.89
508.50	18125.11
508.68	18260.86
508.85	18302.99
509.03	18394.27
509.20	18492.57
509.38	18658.75
509.55	18394.27
509.73	18602.58
509.90	18534.70
510.08	18642.37
510.25	18560.45
510.42	18930.25
510.60	19023.87
510.77	18951.32
510.95	19035.58
511.12	18860.04
511.30	19009.83
511.47	18806.20
511.64	19176.01
511.82	19330.48
511.99	19229.84
512.17	19550.49
512.34	19248.57
512.51	19248.57
512.69	19578.58
512.86	19517.73
513.04	19566.88
513.21	19730.72
513.38	19824.34
513.56	20063.07
513.73	19594.96
513.90	19709.65
514.08	19721.35
514.25	19962.43
514.43	19763.48
514.60	19899.23
514.77	20112.22
514.95	20156.69
515.12	20095.84
515.29	19953.07
515.47	20313.51
515.64	20390.75
515.81	20224.57
515.99	20446.92
516.16	20746.51
516.33	20493.73
516.51	20348.62
516.68	20542.88
516.85	20482.03
517.03	20795.66
517.20	20739.49
517.37	20847.15
517.54	20751.19
517.72	20950.14
517.89	20858.85
518.06	20884.60
518.24	21060.14
518.41	20805.02
518.58	21060.14
518.75	21083.55
518.93	21392.50
519.10	21343.35
519.27	21406.54
519.45	21315.26
519.62	21425.26
519.79	21289.51
519.96	21476.76
520.14	21685.06
520.31	21642.93
520.48	21336.32
520.65	21610.17
520.83	21977.63
521.00	21715.49
521.17	21804.43
521.34	21671.02
521.52	21893.37
521.69	21909.75
521.86	22031.46
522.03	22321.69
522.20	22148.49
522.38	22237.43
522.55	22253.81
522.72	22038.48
522.89	22207.00
523.07	22932.57
523.24	22345.09
523.41	22455.10
523.58	22398.93
523.75	22518.29
523.92	22398.93
524.10	22345.09
524.27	22373.18
524.44	22775.75
524.61	22888.10
524.78	23133.86
524.96	22513.61
525.13	22904.48
525.30	22700.86
525.47	22574.47
525.64	22668.09
525.81	23225.14
525.98	23159.60
526.16	23190.03
526.33	22888.10
526.50	23590.26
526.67	22941.93
526.84	23531.75
527.01	23126.83
527.18	23321.10
527.36	23538.77
527.53	23377.27
527.70	23393.65
527.87	23828.99
528.04	23651.11
528.21	23765.80
528.38	23491.96
528.55	24093.47
528.72	23288.33
528.89	23807.93
529.07	23770.48
529.24	23793.89
529.41	23953.04
529.58	23894.53
529.75	23782.18
529.92	23700.26
530.09	24044.32
530.26	24041.98
530.43	24063.05
530.60	24121.56
530.77	24137.94
530.94	23850.06
531.11	24318.17
531.28	24016.24
531.46	24229.23
531.63	24109.86
531.80	24327.53
531.97	24545.20
532.14	24886.92
532.31	24479.66
532.48	24510.09
532.65	24720.74
532.82	24301.78
532.99	24687.97
533.16	24166.03
533.33	24659.88
533.50	25118.63
533.67	24893.94
533.84	24692.65
534.01	24437.53
534.18	24521.79
534.35	24940.75
534.52	24870.53
534.69	25043.73
534.86	25036.71
535.03	25130.33
535.20	25015.65
535.37	24978.20
535.54	25191.19
535.71	25207.57
535.88	24999.26
536.05	25214.59
536.22	25666.31
536.38	25579.71
536.55	25249.70
536.72	25511.84
536.89	25357.36
537.06	25443.96
537.23	25757.60
537.40	25174.80
537.57	25439.28
537.74	25771.64
537.91	25678.02
538.08	25736.53
538.25	25741.21
538.42	25455.67
538.59	25610.14
538.75	25568.01
538.92	25736.53
539.09	25645.25
539.26	25764.62
539.43	25668.66
539.60	25731.85
539.77	26206.98
539.94	25970.58
540.11	26551.04
540.28	26162.51
540.44	25912.07
540.61	26043.14
540.78	25654.61
540.95	26270.17
541.12	25619.50
541.29	26457.42
541.46	26260.81
541.62	26052.50
541.79	26040.80
541.96	25830.15
542.13	26008.03
542.30	26141.44
542.47	26286.56
542.63	26300.60
542.80	26600.19
542.97	26843.60
543.14	26757.00
543.31	26569.76
543.48	26497.20
543.64	26932.54
543.81	26867.01
543.98	26658.70
544.15	27091.70
544.32	27129.15
544.48	27356.18
544.65	27115.11
544.82	26742.96
544.99	26661.04
545.16	27101.06
545.32	27047.23
545.49	26848.29
545.66	27531.72
545.83	27021.48
546.00	27267.24
546.16	27410.01
546.33	26953.61
546.50	27077.66
546.67	27309.37
546.83	27213.41
547.00	27220.43
547.17	27283.62
547.34	27370.22
547.50	27335.12
547.67	27749.39
547.84	27398.31
548.00	27559.81
548.17	27793.86
548.34	27424.06
548.51	27700.24
548.67	27960.04
548.84	27667.47
549.01	27594.92
549.18	27927.27
549.34	27545.76
549.51	27889.82
549.68	27557.47
549.84	27859.40
550.01	27559.81
550.18	27578.53
550.34	28088.77
550.51	27545.76
550.68	28116.86
550.84	27672.15
551.01	28093.45
551.18	27639.39
551.34	27618.32
551.51	27948.34
551.68	28409.42
551.84	28210.48
552.01	28336.87
552.18	28276.01
552.34	28521.77
552.51	28474.96
552.68	28353.25
552.84	28182.39
553.01	28229.20
553.18	28444.53
553.34	28247.93
553.51	27988.13
553.67	28308.78
553.84	28613.05
554.01	28568.58
554.17	28318.14
554.34	28240.90
554.51	28573.26
554.67	28510.07
554.84	28678.58
555.00	28498.36
555.17	28575.60
555.33	28694.97
555.50	28753.48
555.67	28774.55
555.83	28858.81
556.00	28510.07
556.16	28975.83
556.33	28802.63
556.50	28591.98
556.66	29022.64
556.83	28545.17
556.99	29024.98
557.16	29071.79
557.32	29151.37
557.49	29170.10
557.65	28844.76
557.82	28685.61
557.98	28865.83
558.15	28542.83
558.32	28966.47
558.48	28840.08
558.65	29247.33
558.81	29284.78
558.98	28727.74
559.14	29287.12
559.31	29053.07
559.47	29242.65
559.64	29359.68
559.80	28898.59
559.97	29160.73
560.13	28973.49
560.30	29144.35
560.46	29415.85
560.63	29359.68
560.79	29467.34
560.96	29582.03
561.12	29277.76
561.29	29268.40
561.45	29219.25
561.61	29460.32
561.78	29631.18
561.94	29282.44
562.11	29825.45
562.27	29252.02
562.44	29139.67
562.60	29046.05
562.77	29413.51
562.93	29247.33
563.10	29532.88
563.26	29383.09
563.42	29937.79
563.59	29752.89
563.75	29631.18
563.92	29642.88
564.08	28954.77
564.24	29788.00
564.41	29383.09
564.57	29369.04
564.74	29745.87
564.90	29607.78
565.07	29607.78
565.23	30363.77
565.39	29509.47
565.56	29640.54
565.72	29542.24
565.88	29439.26
566.05	29722.46
566.21	29785.66
566.38	29675.65
566.54	29649.91
566.70	30199.93
566.87	30092.27
567.03	29694.38
567.19	30148.44
567.36	30024.39
567.52	29710.76
567.68	29722.46
567.85	29790.34
568.01	30052.48
568.17	29680.33
568.34	29921.41
568.50	30087.59
568.66	29565.65
568.83	30422.28
568.99	29734.17
569.15	29898.00
569.32	29890.98
569.48	29783.32
569.64	29577.35
569.81	30031.41
569.97	30197.59
570.13	30176.53
570.30	30249.08
570.46	30225.68
570.62	29886.30
570.78	30103.97
570.95	29919.07
571.11	29919.07
571.27	29881.62
571.43	29972.90
571.60	30085.25
571.76	30153.12
571.92	30164.82
572.09	30148.44
572.25	29947.15
572.41	29940.13
572.57	29788.00
572.74	30185.89
572.90	30094.61
573.06	30036.09
573.22	29949.50
573.38	29986.94
573.55	29879.28
573.71	30141.42
573.87	30352.07
574.03	29771.61
574.20	30415.26
574.36	30230.36
574.52	30103.97
574.68	29965.88
574.84	29991.62
575.01	30284.19
575.17	30448.03
575.33	30136.74
575.49	30274.83
575.65	30075.88
575.82	30150.78
575.98	30132.06
576.14	29998.65
576.30	30192.91
576.46	30206.95
576.62	30101.63
576.79	30380.15
576.95	30167.16
577.11	30682.08
577.27	30499.52
577.43	30499.52
577.59	30192.91
577.75	30328.66
577.92	30422.28
578.08	30089.93
578.24	30309.94
578.40	30036.09
578.56	30373.13
578.72	30340.36
578.88	30597.82
579.04	30710.17
579.21	30125.04
579.37	30206.95
579.53	30323.98
579.69	30335.68
579.85	30228.02
580.01	30483.14
580.17	30225.68
580.33	30485.48
580.49	30551.01
580.65	30129.72
580.82	30560.37
580.98	30401.22
581.14	30841.24
581.30	30661.02
581.46	29905.02
581.62	30206.95
581.78	30691.44
581.94	30108.65
582.10	30534.63
582.26	30223.34
582.42	30562.72
582.58	30738.26
582.74	30654.00
582.90	30005.67
583.06	30567.40
583.22	30218.66
583.38	30185.89
583.54	30300.58
583.70	30267.81
583.86	30616.55
584.02	30272.49
584.18	30646.97
584.34	30625.91
584.50	30506.54
584.66	30443.35
584.82	30438.67
584.98	30689.10
585.14	30459.73
585.30	30204.61
585.46	30272.49
585.62	30143.76
585.78	30951.24
585.94	30499.52
586.10	30426.96
586.26	30583.78
586.42	30686.76
586.58	30511.22
586.74	30534.63
586.90	30204.61
587.06	30623.57
587.22	30146.10
587.38	30445.69
587.54	30380.15
587.70	30632.93
587.86	31047.21
588.02	31033.16
588.18	30668.04
588.34	30377.81
588.49	30740.60
588.65	30536.97
588.81	30216.32
588.97	30761.66
589.13	30382.49
589.29	30555.69
589.45	30756.98
589.61	30909.11
589.77	30675.06
589.93	30668.04
590.08	31253.17
590.24	30782.73
590.40	30569.74
590.56	30794.43
590.72	30581.44
590.88	30361.43
591.04	30766.34
591.20	30728.89
591.35	30923.16
591.51	31220.41
591.67	31084.65
591.83	31477.86
591.99	30960.61
