SpectraSuite Data File
++++++++++++++++++++++++++++++++++++
Date: Fri Oct 18 13:58:07 GMT-05:00 2013
User: bianchi
Dark Spectrum Present: No
Reference Spectrum Present: No
Number of Sampled Component Spectra: 1
Spectrometers: USB2+H05261
Integration Time (usec): 50000 (USB2+H05261)
Spectra Averaged: 1 (USB2+H05261)
Boxcar Smoothing: 0 (USB2+H05261)
Correct for Electrical Dark: No (USB2+H05261)
Strobe/Lamp Enabled: No (USB2+H05261)
Correct for Detector Non-linearity: No (USB2+H05261)
Correct for Stray Light: No (USB2+H05261)
Number of Pixels in Processed Spectrum: 2048
>>>>>Begin Processed Spectral Data<<<<<
365.73	0.00
365.92	0.00
366.12	0.00
366.32	0.00
366.52	0.00
366.72	0.00
366.91	0.00
367.11	0.00
367.31	0.00
367.51	0.00
367.70	0.00
367.90	0.00
368.10	0.00
368.30	0.00
368.49	0.00
368.69	0.00
368.89	0.00
369.09	0.00
369.28	0.00
369.48	0.00
369.68	0.00
369.87	0.00
370.07	0.00
370.27	0.00
370.47	0.00
370.66	107.66
370.86	72.56
371.06	128.73
371.25	84.26
371.45	154.48
371.65	154.48
371.84	191.92
372.04	152.13
372.24	184.90
372.44	166.18
372.63	173.20
372.83	238.73
373.03	196.60
373.22	205.97
373.42	212.99
373.62	217.67
373.81	177.88
374.01	301.93
374.21	229.37
374.40	238.73
374.60	163.84
374.79	217.67
374.99	182.56
375.19	257.46
375.38	210.65
375.58	201.29
375.78	220.01
375.97	266.82
376.17	320.65
376.37	306.61
376.56	294.91
376.76	330.02
376.95	248.10
377.15	278.52
377.35	269.16
377.54	273.84
377.74	248.10
377.93	294.91
378.13	224.69
378.33	273.84
378.52	283.20
378.72	227.03
378.91	327.68
379.11	332.36
379.31	252.78
379.50	327.68
379.70	306.61
379.89	344.06
380.09	348.74
380.28	313.63
380.48	330.02
380.68	339.38
380.87	294.91
381.07	372.15
381.26	341.72
381.46	271.50
381.65	346.40
381.85	353.42
382.04	285.55
382.24	409.59
382.43	355.76
382.63	447.04
382.83	414.27
383.02	292.57
383.22	379.17
383.41	355.76
383.61	407.25
383.80	332.36
384.00	292.57
384.19	404.91
384.39	390.87
384.58	517.26
384.78	388.53
384.97	397.89
385.17	374.49
385.36	372.15
385.56	346.40
385.75	360.44
385.95	320.65
386.14	451.72
386.34	327.68
386.53	386.19
386.72	433.00
386.92	456.40
387.11	493.85
387.31	482.15
387.50	454.06
387.70	477.47
387.89	411.93
388.09	400.23
388.28	458.74
388.48	491.51
388.67	423.64
388.86	388.53
389.06	521.94
389.25	517.26
389.45	465.77
389.64	470.45
389.84	510.24
390.03	482.15
390.22	503.22
390.42	458.74
390.61	496.19
390.81	484.49
391.00	458.74
391.19	451.72
391.39	535.98
391.58	512.58
391.78	531.30
391.97	559.39
392.16	507.90
392.36	526.62
392.55	442.36
392.75	564.07
392.94	540.66
393.13	578.11
393.33	601.52
393.52	596.84
393.71	580.45
393.91	503.22
394.10	592.16
394.29	545.34
394.49	510.24
394.68	580.45
394.88	664.71
395.07	655.35
395.26	587.47
395.46	554.71
395.65	624.92
395.84	678.76
396.04	695.14
396.23	596.84
396.42	606.20
396.62	613.22
396.81	594.50
397.00	585.13
397.19	643.65
397.39	643.65
397.58	690.46
397.77	613.22
397.97	676.41
398.16	660.03
398.35	746.63
398.55	664.71
398.74	683.44
398.93	671.73
399.12	737.27
399.32	725.57
399.51	727.91
399.70	823.87
399.90	730.25
400.09	704.50
400.28	741.95
400.47	772.38
400.67	793.44
400.86	807.48
401.05	758.33
401.24	819.19
401.44	770.04
401.63	847.27
401.82	791.10
402.01	753.65
402.21	875.36
402.40	809.83
402.59	781.74
402.78	870.68
402.97	908.13
403.17	816.85
403.36	816.85
403.55	856.64
403.74	873.02
403.93	901.11
404.13	978.34
404.32	936.21
404.51	905.79
404.70	898.77
404.89	919.83
405.09	936.21
405.28	987.71
405.47	1071.97
405.66	957.28
405.85	1046.22
406.05	1018.13
406.24	976.00
406.43	1015.79
406.62	1048.56
406.81	1149.20
407.00	1004.09
407.20	983.02
407.39	957.28
407.58	1153.88
407.77	1107.07
407.96	1057.92
408.15	1064.94
408.34	1048.56
408.54	1062.60
408.73	1160.91
408.92	1179.63
409.11	1135.16
409.30	1116.44
409.49	1212.40
409.68	1153.88
409.87	1041.54
410.07	1158.57
410.26	1214.74
410.45	1291.98
410.64	1156.22
410.83	1196.01
411.02	1224.10
411.21	1266.23
411.40	1343.47
411.59	1249.85
411.78	1256.87
411.98	1280.27
412.17	1345.81
412.36	1200.69
412.55	1366.87
412.74	1350.49
412.93	1409.00
413.12	1376.24
413.31	1336.45
413.50	1345.81
413.69	1406.66
413.88	1488.58
414.07	1416.02
414.26	1451.13
414.45	1465.18
414.64	1495.60
414.83	1519.01
415.02	1526.03
415.22	1514.33
415.41	1542.41
415.60	1612.63
415.79	1551.78
415.98	1619.65
416.17	1671.14
416.36	1710.93
416.55	1694.55
416.74	1607.95
416.93	1668.80
417.12	1722.63
417.31	1753.06
417.50	1811.57
417.69	1802.21
417.88	1703.91
418.07	1776.47
418.26	1788.17
418.45	1685.19
418.64	1863.07
418.83	1769.44
419.02	1769.44
419.21	1886.47
419.39	1872.43
419.58	1783.49
419.77	1813.92
419.96	1895.83
420.15	1926.26
420.34	1769.44
420.53	1926.26
420.72	2015.20
420.91	1984.77
421.10	1940.30
421.29	1963.71
421.48	1919.24
421.67	1902.86
421.86	1870.09
422.05	2017.54
422.24	1963.71
422.43	1989.46
422.61	2045.63
422.80	1968.39
422.99	2085.42
423.18	2073.71
423.37	2017.54
423.56	2052.65
423.75	2019.88
423.94	1991.80
424.13	1928.60
424.32	1977.75
424.50	2045.63
424.69	2003.50
424.88	2017.54
425.07	2059.67
425.26	2024.56
425.45	1989.46
425.64	2062.01
425.83	2092.44
426.01	2057.33
426.20	2113.50
426.39	1973.07
426.58	2078.40
426.77	2186.06
426.96	2146.27
427.15	1991.80
427.33	2225.85
427.52	2111.16
427.71	2143.93
427.90	2073.71
428.09	2111.16
428.28	2179.04
428.46	2235.21
428.65	2275.00
428.84	2221.17
429.03	2214.15
429.22	2127.55
429.40	2169.68
429.59	2165.00
429.78	2115.84
429.97	2246.91
430.16	2307.77
430.34	2221.17
430.53	2333.51
430.72	2356.92
430.91	2282.02
431.10	2244.57
431.28	2331.17
431.47	2438.84
431.66	2436.50
431.85	2377.98
432.03	2368.62
432.22	2518.42
432.41	2443.52
432.60	2387.35
432.79	2445.86
432.97	2513.74
433.16	2527.78
433.35	2487.99
433.54	2562.89
433.72	2485.65
433.91	2551.18
434.10	2597.99
434.28	2588.63
434.47	2485.65
434.66	2464.58
434.85	2551.18
435.03	2485.65
435.22	2637.78
435.41	2715.02
435.59	2560.55
435.78	2654.17
435.97	2691.62
436.16	2633.10
436.34	2670.55
436.53	2752.47
436.72	2836.73
436.90	2750.13
437.09	2787.58
437.28	2558.21
437.46	2724.38
437.65	2818.00
437.84	2787.58
438.02	2787.58
438.21	2801.62
438.40	2801.62
438.58	2958.44
438.77	2890.56
438.96	2850.77
439.14	3000.57
439.33	3019.29
439.52	3061.42
439.70	2972.48
439.89	3028.65
440.08	3054.40
440.26	3000.57
440.45	3066.10
440.63	3166.74
440.82	3096.53
441.01	3232.28
441.19	3082.49
441.38	3173.77
441.57	3220.58
441.75	3297.81
441.94	3276.75
442.12	3222.92
442.31	3290.79
442.50	3382.07
442.68	3379.73
442.87	3447.61
443.05	3304.84
443.24	3412.50
443.43	3318.88
443.61	3440.59
443.80	3459.31
443.98	3398.46
444.17	3260.37
444.35	3442.93
444.54	3524.85
444.73	3522.51
444.91	3405.48
445.10	3417.18
445.28	3536.55
445.47	3300.16
445.65	3527.19
445.84	3417.18
446.02	3541.23
446.21	3529.53
446.39	3471.01
446.58	3604.42
446.77	3691.02
446.95	3445.27
447.14	3407.82
447.32	3452.29
447.51	3473.36
447.69	3557.61
447.88	3620.81
448.06	3342.28
448.25	3571.66
448.43	3644.21
448.62	3597.40
448.80	3597.40
448.99	3566.98
449.17	3679.32
449.36	3564.64
449.54	3653.58
449.73	3763.58
449.91	3723.79
450.10	3735.50
450.28	3911.04
450.46	3651.24
450.65	3735.50
450.83	3815.07
451.02	3819.75
451.20	3948.48
451.39	3943.80
451.57	3845.50
451.76	3794.01
451.94	3922.74
452.13	3836.14
452.31	3934.44
452.49	3892.31
452.68	3934.44
452.86	4016.36
453.05	3941.46
453.23	3988.27
453.42	3873.59
453.60	3887.63
453.78	4018.70
453.97	3960.19
454.15	3922.74
454.34	3904.01
454.52	4159.13
454.70	4124.02
454.89	4124.02
455.07	4109.98
455.26	4011.68
455.44	4156.79
455.62	4166.15
455.81	4166.15
455.99	4248.07
456.17	4196.58
456.36	4229.35
456.54	4327.65
456.73	4315.95
456.91	4329.99
457.09	4217.65
457.28	4470.42
457.46	4337.01
457.64	4475.10
457.83	4416.59
458.01	4360.42
458.19	4372.12
458.38	4444.68
458.56	4397.87
458.74	4496.17
458.93	4468.08
459.11	4547.66
459.29	4540.64
459.48	4521.92
459.66	4521.92
459.84	4540.64
460.03	4671.71
460.21	4571.07
460.39	4566.39
460.57	4418.93
460.76	4833.21
460.94	4725.54
461.12	4723.20
461.31	4788.74
461.49	4819.16
461.67	4704.48
461.85	4732.56
462.04	4802.78
462.22	5195.99
462.40	4746.61
462.59	4671.71
462.77	4751.29
462.95	4851.93
463.13	4870.65
463.32	4746.61
463.50	5074.28
463.68	4786.40
463.86	5001.72
464.05	4870.65
464.23	4854.27
464.41	4947.89
464.59	4702.14
464.78	5074.28
464.96	5088.32
465.14	4987.68
465.32	5036.83
465.50	5191.31
465.69	5041.51
465.87	4943.21
466.05	4961.94
466.23	4957.25
466.41	4952.57
466.60	5366.85
466.78	5186.63
466.96	5158.54
467.14	4987.68
467.32	5088.32
467.51	5198.33
467.69	5097.69
467.87	5425.36
468.05	5301.31
468.23	5093.01
468.41	5128.11
468.60	5420.68
468.78	5310.68
468.96	5214.71
469.14	5341.10
469.32	5249.82
469.50	5188.97
469.69	5275.57
469.87	5427.70
470.05	5636.01
470.23	5451.11
470.41	5455.79
470.59	5518.98
470.77	5345.78
470.95	5474.51
471.14	5575.16
471.32	5521.32
471.50	5710.91
471.68	5640.69
471.86	5582.18
472.04	5755.38
472.22	5727.29
472.40	5785.80
472.58	5804.53
472.77	5778.78
472.95	5907.51
473.13	6047.94
473.31	5996.45
473.49	5806.87
473.67	5973.05
473.85	5717.93
474.03	6106.46
474.21	5954.32
474.39	6181.35
474.57	6139.23
474.75	6228.17
474.93	6291.36
475.12	6157.95
475.30	6223.48
475.48	6179.01
475.66	6160.29
475.84	6251.57
476.02	6534.78
476.20	6581.59
476.38	6509.03
476.56	6562.86
476.74	6628.40
476.92	6576.91
477.10	6534.78
477.28	6789.89
477.46	6843.73
477.64	6717.34
477.82	6888.20
478.00	7070.76
478.18	6871.81
478.36	7126.93
478.54	6937.35
478.72	7180.76
478.90	7344.60
479.08	7241.62
479.26	7384.39
479.44	7342.26
479.62	7417.16
479.80	7370.35
479.98	7410.14
480.16	7691.00
480.34	7487.37
480.52	7698.02
480.70	7826.75
480.88	7674.62
481.06	7702.70
481.24	7784.62
481.41	7892.29
481.59	7939.10
481.77	8124.00
481.95	8149.75
482.13	8201.24
482.31	8196.56
482.49	8503.17
482.67	8582.74
482.85	8404.86
483.03	8587.43
483.21	8645.94
483.39	8622.53
483.57	8535.93
483.74	8578.06
483.92	8730.20
484.10	8879.99
484.28	9088.30
484.46	9256.82
484.64	9240.44
484.82	9193.62
485.00	9362.14
485.18	9261.50
485.35	9523.64
485.53	9593.86
485.71	9514.28
485.89	9837.27
486.07	9703.86
486.25	9643.01
486.43	9743.65
486.61	9886.42
486.78	10066.64
486.96	10265.59
487.14	10038.56
487.32	10291.34
487.50	10312.40
487.68	10342.83
487.85	10321.76
488.03	10609.65
488.21	10759.44
488.39	10604.97
488.57	10768.80
488.75	10960.73
488.92	10949.03
489.10	11169.04
489.28	10986.47
489.46	11105.84
489.64	11293.08
489.81	11480.33
489.99	11428.84
490.17	11529.48
490.35	11843.11
490.53	11733.11
490.70	11913.33
490.88	11772.89
491.06	11822.05
491.24	11798.64
491.41	12060.78
491.59	12058.44
491.77	12018.65
491.95	12437.61
492.13	12280.79
492.30	12678.68
492.48	12416.54
492.66	12386.12
492.84	12524.21
493.01	12657.62
493.19	12737.20
493.37	12896.35
493.54	12669.32
493.72	12924.44
493.90	13018.06
494.08	13207.64
494.25	13343.39
494.43	13310.63
494.61	13174.88
494.79	13371.48
494.96	13378.50
495.14	13600.85
495.32	13425.31
495.49	13830.23
495.67	13741.29
495.85	13764.69
496.02	13994.06
496.20	14118.11
496.38	14181.31
496.55	14178.97
496.73	14450.47
496.91	14363.87
497.09	14286.63
497.26	14724.31
497.44	14504.30
497.62	14740.69
497.79	15012.20
497.97	14998.15
498.14	14857.72
498.32	15150.29
498.50	15005.17
498.67	15190.08
498.85	15042.62
499.03	15592.65
499.20	15220.50
499.38	15206.46
499.56	15288.38
499.73	15456.90
499.91	15623.08
500.08	15374.98
500.26	15555.20
500.44	15637.12
500.61	15679.25
500.79	15384.34
500.97	15880.53
501.14	16547.59
501.32	15936.71
501.49	15915.64
501.67	16133.31
501.84	16180.12
502.02	16102.89
502.20	16290.13
502.37	16428.22
502.55	16322.90
502.72	16428.22
502.90	16224.59
503.07	16425.88
503.25	16463.33
503.43	16498.44
503.60	16723.13
503.78	16727.81
503.95	16615.46
504.13	16706.74
504.30	16706.74
504.48	16737.17
504.65	17036.76
504.83	17153.79
505.01	17380.82
505.18	17280.18
505.36	17376.14
505.53	17224.00
505.71	17214.64
505.88	17294.22
506.06	17254.43
506.23	17483.80
506.41	17537.63
506.58	17425.29
506.76	17652.32
506.93	17858.29
507.11	17614.87
507.28	17713.17
507.46	17940.21
507.63	18129.79
507.81	18181.28
507.98	18019.78
508.16	18019.78
508.33	18052.55
508.50	18174.26
508.68	18202.35
508.85	18417.68
509.03	18352.14
509.20	18333.42
509.38	18670.45
509.55	18579.17
509.73	18787.48
509.90	18817.91
510.08	18764.07
510.25	18637.69
510.42	18995.79
510.60	19066.00
510.77	19089.41
510.95	18878.76
511.12	19152.60
511.30	18963.02
511.47	19115.16
511.64	19087.07
511.82	19194.73
511.99	18857.70
512.17	19396.02
512.34	19330.48
512.51	19454.53
512.69	19587.94
512.86	19587.94
513.04	19908.60
513.21	19389.00
513.38	19777.53
513.56	19477.94
513.73	19981.15
513.90	19765.82
514.08	19683.91
514.25	19992.86
514.43	20058.39
514.60	20081.80
514.77	20236.27
514.95	20009.24
515.12	20025.62
515.29	20135.63
515.47	20496.07
515.64	20133.29
515.81	20439.90
515.99	20439.90
516.16	20592.03
516.33	20947.79
516.51	20559.27
516.68	20477.35
516.85	20533.52
517.03	20790.98
517.20	20664.59
517.37	20711.40
517.54	20854.17
517.72	21055.46
517.89	20645.87
518.06	20999.29
518.24	20931.41
518.41	20954.82
518.58	21198.23
518.75	20634.16
518.93	21172.49
519.10	21385.47
519.27	21099.93
519.45	21523.57
519.62	21135.04
519.79	20875.24
519.96	21528.25
520.14	21673.36
520.31	21593.78
520.48	21888.69
520.65	21820.81
520.83	21486.12
521.00	22024.44
521.17	21734.21
521.34	21759.96
521.52	21818.47
521.69	21884.01
521.86	22094.66
522.03	22398.93
522.20	22164.87
522.38	22326.37
522.55	22085.30
522.72	22040.82
522.89	22052.53
523.07	22700.86
523.24	22328.71
523.41	22349.78
523.58	22167.21
523.75	22434.03
523.92	22691.49
524.10	22345.09
524.27	22864.69
524.44	22754.69
524.61	22684.47
524.78	23297.69
524.96	22881.08
525.13	22972.36
525.30	23257.90
525.47	22934.91
525.64	22993.42
525.81	22986.40
525.98	23632.39
526.16	23028.53
526.33	22981.72
526.50	23330.46
526.67	22803.84
526.84	23199.39
527.01	23101.09
527.18	23250.88
527.36	23433.44
527.53	23552.81
527.70	23758.78
527.87	23857.08
528.04	23466.21
528.21	23548.13
528.38	23456.85
528.55	24016.24
528.72	23569.19
528.89	23859.42
529.07	23892.19
529.24	23714.31
529.41	23840.70
529.58	23934.32
529.75	23833.68
529.92	23927.30
530.09	24123.90
530.26	24049.00
530.43	24002.19
530.60	24039.64
530.77	24276.04
530.94	23981.13
531.11	23683.88
531.28	23775.16
531.46	24109.86
531.63	24072.41
531.80	24250.29
531.97	24393.06
532.14	24755.85
532.31	24271.36
532.48	24428.17
532.65	24592.01
532.82	24617.75
532.99	24460.94
533.16	24294.76
533.33	24767.55
533.50	24973.52
533.67	24641.16
533.84	24592.01
534.01	24669.25
534.18	24655.20
534.35	24545.20
534.52	24776.91
534.69	25013.31
534.86	25329.28
535.03	24823.72
535.20	25001.60
535.37	25081.18
535.54	24900.96
535.71	24840.11
535.88	25434.60
536.05	25083.52
536.22	25678.02
536.38	25399.49
536.55	25261.40
536.72	25273.10
536.89	25308.21
537.06	25446.30
537.23	25385.45
537.40	25692.06
537.57	25324.60
537.74	25659.29
537.91	26059.52
538.08	25830.15
538.25	25338.64
538.42	25745.89
538.59	25968.24
538.75	25731.85
538.92	25476.73
539.09	25530.56
539.26	25961.22
539.43	25720.15
539.60	26015.05
539.77	25963.56
539.94	26335.71
540.11	26038.46
540.28	25867.60
540.44	25888.67
540.61	25855.90
540.78	25968.24
540.95	26272.51
541.12	26244.43
541.29	26235.06
541.46	25996.33
541.62	25944.84
541.79	26429.33
541.96	25799.73
542.13	25909.73
542.30	26178.89
542.47	26710.19
542.63	26726.58
542.80	26707.85
542.97	26611.89
543.14	26810.84
543.31	26745.30
543.48	26686.79
543.64	26916.16
543.81	27037.87
543.98	26874.03
544.15	27012.12
544.32	26824.88
544.48	27269.58
544.65	27143.19
544.82	26616.57
544.99	26600.19
545.16	26913.82
545.32	26852.97
545.49	27140.85
545.66	27229.79
545.83	27281.28
546.00	27800.88
546.16	27377.25
546.33	27283.62
546.50	27152.55
546.67	27426.40
546.83	27087.02
547.00	27555.13
547.17	27276.60
547.34	27208.73
547.50	27339.80
547.67	27527.04
547.84	27445.12
548.00	27566.83
548.17	27840.67
548.34	27161.92
548.51	27857.06
548.67	27721.30
548.84	27733.01
549.01	27473.21
549.18	27667.47
549.34	27285.97
549.51	27470.87
549.68	27709.60
549.84	27697.90
550.01	28070.04
550.18	27662.79
550.34	28030.26
550.51	27946.00
550.68	27964.72
550.84	27517.68
551.01	27990.47
551.18	27803.22
551.34	27857.06
551.51	27845.35
551.68	27927.27
551.84	28119.20
552.01	28304.10
552.18	28126.22
552.34	27580.87
552.51	28390.70
552.68	27922.59
552.84	28287.71
553.01	28568.58
553.18	28217.50
553.34	28390.70
553.51	28341.55
553.67	28240.90
553.84	28386.02
554.01	28524.11
554.17	28486.66
554.34	28952.43
554.51	28348.57
554.67	28800.29
554.84	28505.38
555.00	28528.79
555.17	28512.41
555.33	28350.91
555.50	28479.64
555.67	28439.85
555.83	28694.97
556.00	28584.96
556.16	28659.86
556.33	28645.82
556.50	28594.32
556.66	28559.22
556.83	28861.15
556.99	28800.29
557.16	29380.74
557.32	28748.80
557.49	29221.59
557.65	28505.38
557.82	28931.36
557.98	28858.81
558.15	28802.63
558.32	29015.62
558.48	28875.19
558.65	29174.78
558.81	29139.67
558.98	29032.00
559.14	28858.81
559.31	29259.04
559.47	29191.16
559.64	29198.18
559.80	29553.94
559.97	29163.08
560.13	28884.55
560.30	29083.50
560.46	29689.70
560.63	29280.10
560.79	28999.24
560.96	29181.80
561.12	29209.89
561.29	29362.02
561.45	29600.76
561.61	29280.10
561.78	29556.28
561.94	29446.28
562.11	29212.23
562.27	29542.24
562.44	29275.42
562.60	29708.42
562.77	29310.53
562.93	29378.40
563.10	29415.85
563.26	29490.75
563.42	29736.51
563.59	29572.67
563.75	29280.10
563.92	29481.39
564.08	29345.64
564.24	29626.50
564.41	29390.11
564.57	29308.19
564.74	29181.80
564.90	29699.06
565.07	29773.95
565.23	29731.83
565.39	29986.94
565.56	29666.29
565.72	29682.67
565.88	29818.42
566.05	29921.41
566.21	29670.97
566.38	29612.46
566.54	29509.47
566.70	30225.68
566.87	29766.93
567.03	29764.59
567.19	29972.90
567.36	30080.56
567.52	29876.94
567.68	29921.41
567.85	29846.51
568.01	29731.83
568.17	29886.30
568.34	29670.97
568.50	29860.55
568.66	29848.85
568.83	30143.76
568.99	29841.83
569.15	29818.42
569.32	29666.29
569.48	29954.18
569.64	29542.24
569.81	30057.16
569.97	29750.55
570.13	30197.59
570.30	29979.92
570.46	29958.86
570.62	29804.38
570.78	29532.88
570.95	29799.70
571.11	29748.21
571.27	29507.13
571.43	29874.60
571.60	30209.29
571.76	30274.83
571.92	29958.86
572.09	30230.36
572.25	30419.94
572.41	30211.64
572.57	30068.86
572.74	30017.37
572.90	29764.59
573.06	29773.95
573.22	29942.47
573.38	29642.88
573.55	29769.27
573.71	30345.05
573.87	30504.20
574.03	30415.26
574.20	30125.04
574.36	30218.66
574.52	30099.29
574.68	30143.76
574.84	30171.85
575.01	30232.70
575.17	30576.76
575.33	30024.39
575.49	30387.18
575.65	30167.16
575.82	30445.69
575.98	30333.34
576.14	30459.73
576.30	30398.88
576.46	30314.62
576.62	30167.16
576.79	30345.05
576.95	30015.03
577.11	30316.96
577.27	30237.38
577.43	30721.87
577.59	30221.00
577.75	29734.17
577.92	30164.82
578.08	30183.55
578.24	30277.17
578.40	30143.76
578.56	30118.01
578.72	30506.54
578.88	30735.92
579.04	30651.66
579.21	30778.04
579.37	30525.27
579.53	30323.98
579.69	30012.69
579.85	30256.11
580.01	30274.83
580.17	30583.78
580.33	30345.05
580.49	30466.75
580.65	30590.80
580.82	30426.96
580.98	30567.40
581.14	30426.96
581.30	30534.63
581.46	30221.00
581.62	30267.81
581.78	30462.07
581.94	30338.02
582.10	30134.40
582.26	30347.39
582.42	30375.47
582.58	30368.45
582.74	30202.27
582.90	30455.05
583.06	30572.08
583.22	30345.05
583.38	30366.11
583.54	30146.10
583.70	30260.79
583.86	30712.51
584.02	30529.95
584.18	30733.57
584.34	30672.72
584.50	30881.03
584.66	30302.92
584.82	30022.05
584.98	30225.68
585.14	30602.50
585.30	30665.70
585.46	30424.62
585.62	30267.81
585.78	30555.69
585.94	30822.51
586.10	30672.72
586.26	30654.00
586.42	30747.62
586.58	30820.17
586.74	30740.60
586.90	30316.96
587.06	30529.95
587.22	30272.49
587.38	30492.50
587.54	30670.38
587.70	30689.10
587.86	31049.55
588.02	30593.14
588.18	30799.11
588.34	30586.12
588.49	30356.75
588.65	30457.39
588.81	30682.08
588.97	30731.23
589.13	30438.67
589.29	30459.73
589.45	30799.11
589.61	30848.26
589.77	30733.57
589.93	31000.40
590.08	30850.60
590.24	31105.72
590.40	30803.79
590.56	30614.21
590.72	30768.68
590.88	30445.69
591.04	30625.91
591.20	30824.86
591.35	30974.65
591.51	31166.57
591.67	31042.53
591.83	31208.70
591.99	30927.84
