SpectraSuite Data File
++++++++++++++++++++++++++++++++++++
Date: Fri Oct 18 13:58:02 GMT-05:00 2013
User: bianchi
Dark Spectrum Present: No
Reference Spectrum Present: No
Number of Sampled Component Spectra: 1
Spectrometers: USB2+H05261
Integration Time (usec): 50000 (USB2+H05261)
Spectra Averaged: 1 (USB2+H05261)
Boxcar Smoothing: 0 (USB2+H05261)
Correct for Electrical Dark: No (USB2+H05261)
Strobe/Lamp Enabled: No (USB2+H05261)
Correct for Detector Non-linearity: No (USB2+H05261)
Correct for Stray Light: No (USB2+H05261)
Number of Pixels in Processed Spectrum: 2048
>>>>>Begin Processed Spectral Data<<<<<
365.73	0.00
365.92	0.00
366.12	0.00
366.32	0.00
366.52	0.00
366.72	0.00
366.91	0.00
367.11	0.00
367.31	0.00
367.51	0.00
367.70	0.00
367.90	0.00
368.10	0.00
368.30	0.00
368.49	0.00
368.69	0.00
368.89	0.00
369.09	0.00
369.28	0.00
369.48	0.00
369.68	0.00
369.87	0.00
370.07	0.00
370.27	0.00
370.47	0.00
370.66	117.03
370.86	88.94
371.06	184.90
371.25	98.30
371.45	133.41
371.65	154.48
371.84	161.50
372.04	117.03
372.24	201.29
372.44	201.29
372.63	112.35
372.83	93.62
373.03	236.39
373.22	191.92
373.42	322.99
373.62	227.03
373.81	269.16
374.01	236.39
374.21	259.80
374.40	189.58
374.60	220.01
374.79	234.05
374.99	203.63
375.19	257.46
375.38	266.82
375.58	311.29
375.78	271.50
375.97	292.57
376.17	322.99
376.37	269.16
376.56	276.18
376.76	271.50
376.95	290.23
377.15	318.31
377.35	280.86
377.54	308.95
377.74	259.80
377.93	285.55
378.13	294.91
378.33	332.36
378.52	269.16
378.72	311.29
378.91	301.93
379.11	306.61
379.31	285.55
379.50	227.03
379.70	355.76
379.89	334.70
380.09	311.29
380.28	278.52
380.48	269.16
380.68	285.55
380.87	257.46
381.07	301.93
381.26	318.31
381.46	348.74
381.65	313.63
381.85	313.63
382.04	318.31
382.24	290.23
382.43	306.61
382.63	407.25
382.83	353.42
383.02	381.51
383.22	418.96
383.41	313.63
383.61	304.27
383.80	421.30
384.00	390.87
384.19	442.36
384.39	393.21
384.58	451.72
384.78	386.19
384.97	355.76
385.17	327.68
385.36	428.32
385.56	365.12
385.75	383.85
385.95	447.04
386.14	456.40
386.34	433.00
386.53	435.34
386.72	376.83
386.92	416.62
387.11	414.27
387.31	404.91
387.50	428.32
387.70	390.87
387.89	383.85
388.09	458.74
388.28	447.04
388.48	418.96
388.67	449.38
388.86	430.66
389.06	498.53
389.25	444.70
389.45	486.83
389.64	454.06
389.84	479.81
390.03	486.83
390.22	608.54
390.42	545.34
390.61	510.24
390.81	463.43
391.00	512.58
391.19	528.96
391.39	416.62
391.58	550.03
391.78	524.28
391.97	514.92
392.16	552.37
392.36	454.06
392.55	503.22
392.75	528.96
392.94	543.00
393.13	550.03
393.33	606.20
393.52	552.37
393.71	582.79
393.91	599.18
394.10	615.56
394.29	500.87
394.49	510.24
394.68	568.75
394.88	458.74
395.07	587.47
395.26	653.01
395.46	547.69
395.65	587.47
395.84	622.58
396.04	648.33
396.23	599.18
396.42	578.11
396.62	660.03
396.81	627.26
397.00	648.33
397.19	643.65
397.39	613.22
397.58	711.52
397.77	683.44
397.97	784.08
398.16	697.48
398.35	667.05
398.55	755.99
398.74	676.41
398.93	676.41
399.12	725.57
399.32	737.27
399.51	699.82
399.70	741.95
399.90	709.18
400.09	887.06
400.28	786.42
400.47	734.93
400.67	788.76
400.86	793.44
401.05	816.85
401.24	856.64
401.44	842.59
401.63	849.61
401.82	730.25
402.01	910.47
402.21	823.87
402.40	933.87
402.59	802.80
402.78	936.21
402.97	868.34
403.17	781.74
403.36	896.43
403.55	821.53
403.74	842.59
403.93	898.77
404.13	971.32
404.32	1006.43
404.51	971.32
404.70	983.02
404.89	1067.28
405.09	1046.22
405.28	1008.77
405.47	980.68
405.66	931.53
405.85	931.53
406.05	917.49
406.24	1013.45
406.43	961.96
406.62	1069.62
406.81	990.05
407.00	1093.03
407.20	1057.92
407.39	997.07
407.58	1076.65
407.77	1097.71
407.96	1029.84
408.15	1107.07
408.34	1053.24
408.54	1090.69
408.73	990.05
408.92	1060.26
409.11	1139.84
409.30	1149.20
409.49	1200.69
409.68	1137.50
409.87	1226.44
410.07	1226.44
410.26	1273.25
410.45	1139.84
410.64	1210.06
410.83	1177.29
411.02	1205.38
411.21	1315.38
411.40	1357.51
411.59	1179.63
411.78	1338.79
411.98	1270.91
412.17	1329.42
412.36	1364.53
412.55	1439.43
412.74	1404.32
412.93	1359.85
413.12	1371.55
413.31	1420.71
413.50	1376.24
413.69	1411.34
413.88	1533.05
414.07	1490.92
414.26	1493.26
414.45	1446.45
414.64	1423.05
414.83	1519.01
415.02	1441.77
415.22	1516.67
415.41	1502.62
415.60	1523.69
415.79	1570.50
415.98	1610.29
416.17	1547.09
416.36	1647.74
416.55	1586.88
416.74	1584.54
416.93	1668.80
417.12	1664.12
417.31	1722.63
417.50	1680.50
417.69	1710.93
417.88	1673.48
418.07	1720.29
418.26	1785.83
418.45	1837.32
418.64	1797.53
418.83	1888.81
419.02	1741.36
419.21	1832.64
419.39	1914.56
419.58	1792.85
419.77	1842.00
419.96	1830.30
420.15	1806.89
420.34	1811.57
420.53	1858.39
420.72	1991.80
420.91	1891.15
421.10	1987.11
421.29	1966.05
421.48	1937.96
421.67	1926.26
421.86	1797.53
422.05	1949.67
422.24	1980.09
422.43	2054.99
422.61	2052.65
422.80	2022.22
422.99	1949.67
423.18	1989.46
423.37	2043.29
423.56	2022.22
423.75	1956.69
423.94	2038.61
424.13	1933.28
424.32	1881.79
424.50	2104.14
424.69	2008.18
424.88	2136.91
425.07	1994.14
425.26	2076.06
425.45	1987.11
425.64	1987.11
425.83	2190.74
426.01	2064.35
426.20	1968.39
426.39	2015.20
426.58	2104.14
426.77	2010.52
426.96	2073.71
427.15	2024.56
427.33	2150.95
427.52	2230.53
427.71	2167.34
427.90	2153.29
428.09	2204.78
428.28	2165.00
428.46	2249.25
428.65	2160.31
428.84	2183.72
429.03	2265.64
429.22	2155.63
429.40	2307.77
429.59	2174.36
429.78	2193.08
429.97	2155.63
430.16	2202.44
430.34	2291.38
430.53	2420.11
430.72	2448.20
430.91	2289.04
431.10	2153.29
431.28	2296.07
431.47	2300.75
431.66	2539.48
431.85	2396.71
432.03	2417.77
432.22	2499.69
432.41	2492.67
432.60	2633.10
432.79	2459.90
432.97	2537.14
433.16	2462.24
433.35	2427.14
433.54	2443.52
433.72	2560.55
433.91	2464.58
434.10	2588.63
434.28	2511.39
434.47	2506.71
434.66	2581.61
434.85	2614.38
435.03	2572.25
435.22	2590.97
435.41	2757.15
435.59	2747.79
435.78	2764.17
435.97	2567.57
436.16	2703.32
436.34	2644.81
436.53	2656.51
436.72	2843.75
436.90	2616.72
437.09	2736.09
437.28	2679.91
437.46	2771.19
437.65	2703.32
437.84	2785.24
438.02	2729.06
438.21	2820.35
438.40	2708.00
438.58	2822.69
438.77	2988.86
438.96	2834.39
439.14	2897.58
439.33	2892.90
439.52	2916.31
439.70	2913.97
439.89	2939.71
440.08	3082.49
440.26	2977.16
440.45	3094.19
440.63	3098.87
440.82	3269.73
441.01	3038.02
441.19	3136.32
441.38	3286.11
441.57	3197.17
441.75	3246.32
441.94	3281.43
442.12	3213.56
442.31	3265.05
442.50	3283.77
442.68	3180.79
442.87	3314.20
443.05	3351.65
443.24	3449.95
443.43	3410.16
443.61	3405.48
443.80	3499.10
443.98	3375.05
444.17	3227.60
444.35	3377.39
444.54	3487.40
444.73	3480.38
444.91	3363.35
445.10	3503.78
445.28	3449.95
445.47	3478.04
445.65	3492.08
445.84	3382.07
446.02	3520.17
446.21	3471.01
446.39	3459.31
446.58	3480.38
446.77	3513.14
446.95	3428.88
447.14	3515.48
447.32	3494.42
447.51	3531.87
447.69	3541.23
447.88	3564.64
448.06	3403.14
448.25	3559.95
448.43	3599.74
448.62	3382.07
448.80	3517.83
448.99	3653.58
449.17	3611.45
449.36	3576.34
449.54	3681.66
449.73	3688.68
449.91	3714.43
450.10	3786.99
450.28	3763.58
450.46	3770.60
450.65	3782.31
450.83	3801.03
451.02	3758.90
451.20	3803.37
451.39	3948.48
451.57	3812.73
451.76	3892.31
451.94	3824.44
452.13	3840.82
452.31	3854.86
452.49	3749.54
452.68	3777.62
452.86	3782.31
453.05	3887.63
453.23	4070.19
453.42	3985.93
453.60	3889.97
453.78	3843.16
453.97	3819.75
454.15	4077.21
454.34	3911.04
454.52	4177.86
454.70	3999.98
454.89	3943.80
455.07	3974.23
455.26	4138.07
455.44	4372.12
455.62	4217.65
455.81	4234.03
455.99	4163.81
456.17	4245.73
456.36	4147.43
456.54	4285.52
456.73	4397.87
456.91	4318.29
457.09	4306.59
457.28	4468.08
457.46	4154.45
457.64	4355.74
457.83	4374.46
458.01	4287.86
458.19	4479.79
458.38	4322.97
458.56	4372.12
458.74	4318.29
458.93	4374.46
459.11	4505.53
459.29	4365.10
459.48	4304.25
459.66	4535.96
459.84	4432.97
460.03	4505.53
460.21	4638.94
460.39	4535.96
460.57	4521.92
460.76	4531.28
460.94	4716.18
461.12	4627.24
461.31	4758.31
461.49	4580.43
461.67	4615.54
461.85	4802.78
462.04	4638.94
462.22	5067.26
462.40	4823.84
462.59	4800.44
462.77	4697.46
462.95	4821.50
463.13	4847.25
463.32	4828.53
463.50	4777.03
463.68	4950.23
463.86	4858.95
464.05	4762.99
464.23	4725.54
464.41	4905.76
464.59	4910.44
464.78	4950.23
464.96	5064.92
465.14	4861.29
465.32	4978.32
465.50	5069.60
465.69	5078.96
465.87	4999.38
466.05	5018.11
466.23	5071.94
466.41	5039.17
466.60	5226.42
466.78	5057.90
466.96	5004.07
467.14	5137.48
467.32	5107.05
467.51	5217.05
467.69	5125.77
467.87	5228.76
468.05	5174.92
468.23	5139.82
468.41	5146.84
468.60	5238.12
468.78	5270.89
468.96	5252.16
469.14	5165.56
469.32	5231.10
469.50	4943.21
469.69	5324.72
469.87	5572.82
470.05	5394.93
470.23	5467.49
470.41	5493.24
470.59	5390.25
470.77	5385.57
470.95	5376.21
471.14	5748.36
471.32	5563.45
471.50	5701.54
471.68	5575.16
471.86	5734.31
472.04	5790.49
472.22	5811.55
472.40	5621.97
472.58	5694.52
472.77	5736.65
472.95	5771.76
473.13	5930.92
473.31	5891.13
473.49	5884.11
473.67	5895.81
473.85	5937.94
474.03	6022.20
474.21	5959.00
474.39	6090.07
474.57	6019.86
474.75	6183.70
474.93	6120.50
475.12	6167.31
475.30	6141.57
475.48	6148.59
475.66	6370.94
475.84	6324.13
476.02	6335.83
476.20	6389.66
476.38	6473.92
476.56	6464.56
476.74	6548.82
476.92	6476.26
477.10	6448.18
477.28	6715.00
477.46	6764.15
477.64	6642.44
477.82	6888.20
478.00	7002.88
478.18	6832.02
478.36	7000.54
478.54	7101.19
478.72	6963.09
478.90	7059.06
479.08	7229.91
479.26	7229.91
479.44	7358.64
479.62	7328.22
479.80	7370.35
479.98	7328.22
480.16	7688.66
480.34	7440.56
480.52	7644.19
480.70	7597.38
480.88	7494.40
481.06	7590.36
481.24	7548.23
481.41	7988.25
481.59	7997.61
481.77	8210.60
481.95	8002.29
482.13	8156.77
482.31	7988.25
482.49	8294.86
482.67	8421.25
482.85	8507.85
483.03	8484.44
483.21	8610.83
483.39	8755.94
483.57	8535.93
483.74	8657.64
483.92	8800.41
484.10	8769.99
484.28	8959.57
484.46	9011.06
484.64	9224.05
484.82	9029.79
485.00	9146.81
485.18	9226.39
485.35	9399.59
485.53	9406.61
485.71	9210.01
485.89	9631.30
486.07	9460.45
486.25	9434.70
486.43	9811.53
486.61	9781.10
486.78	10134.52
486.96	9788.12
487.14	10078.35
487.32	10127.50
487.50	10228.14
487.68	10391.98
487.85	10490.28
488.03	10516.03
488.21	10581.56
488.39	10700.93
488.57	10729.02
488.75	10607.31
488.92	10965.41
489.10	10890.51
489.28	11171.38
489.46	11049.67
489.64	11185.42
489.81	11042.65
489.99	11241.59
490.17	11576.29
490.35	11508.41
490.53	11391.39
490.70	11918.01
490.88	11576.29
491.06	11824.39
491.24	11920.35
491.41	11878.22
491.59	11999.93
491.77	12074.82
491.95	12140.36
492.13	12121.63
492.30	12212.92
492.48	12264.41
492.66	12374.41
492.84	12360.37
493.01	12559.31
493.19	12596.76
493.37	12793.37
493.54	12627.19
493.72	12966.57
493.90	12891.67
494.08	13121.04
494.25	13107.00
494.43	13130.41
494.61	13289.56
494.79	13535.32
494.96	13420.63
495.14	13315.31
495.32	13411.27
495.49	13640.64
495.67	13650.00
495.85	13954.27
496.02	13877.04
496.20	13874.70
496.38	13851.29
496.55	14066.62
496.73	14380.25
496.91	13930.87
497.09	14473.87
497.26	14359.19
497.44	14359.19
497.62	14420.04
497.79	14796.87
497.97	14588.56
498.14	15077.73
498.32	14881.13
498.50	14909.21
498.67	15131.56
498.85	14654.09
499.03	15047.30
499.20	14937.30
499.38	15445.20
499.56	15264.97
499.73	15335.19
499.91	15503.71
500.08	15438.17
500.26	15367.96
500.44	15407.75
500.61	15440.51
500.79	15461.58
500.97	15917.98
501.14	15978.84
501.32	15852.45
501.49	16039.69
501.67	15852.45
501.84	16156.72
502.02	15906.28
502.20	16140.33
502.37	16060.76
502.55	16266.72
502.72	16322.90
502.90	16243.32
503.07	16037.35
503.25	16322.90
503.43	16496.10
503.60	16306.51
503.78	16699.72
503.95	16788.66
504.13	16762.92
504.30	16767.60
504.48	16727.81
504.65	16835.47
504.83	17280.18
505.01	17013.35
505.18	17392.52
505.36	17259.11
505.53	16788.66
505.71	17315.28
505.88	17273.15
506.06	17139.74
506.23	17460.40
506.41	17479.12
506.58	17647.64
506.76	17514.23
506.93	17577.42
507.11	17422.95
507.28	17575.08
507.46	17647.64
507.63	17727.22
507.81	17745.94
507.98	17682.75
508.16	17879.35
508.33	17717.86
508.50	18082.98
508.68	18080.64
508.85	18300.65
509.03	18148.51
509.20	18281.92
509.38	18656.41
509.55	18586.19
509.73	18501.93
509.90	18420.02
510.08	18377.89
510.25	18422.36
510.42	18867.06
510.60	18799.18
510.77	18904.51
510.95	19016.85
511.12	18780.46
511.30	18548.75
511.47	19019.19
511.64	18892.80
511.82	19204.10
511.99	19208.78
512.17	19391.34
512.34	19293.04
512.51	19311.76
512.69	19454.53
512.86	19522.41
513.04	19793.91
513.21	19332.82
513.38	19590.28
513.56	19599.65
513.73	19370.27
513.90	19924.98
514.08	19896.89
514.25	19915.62
514.43	19873.49
514.60	20226.91
514.77	19798.59
514.95	20240.95
515.12	20091.16
515.29	19775.19
515.47	19913.28
515.64	20198.82
515.81	20409.47
515.99	20224.57
516.16	20484.37
516.33	20439.90
516.51	20592.03
516.68	20786.30
516.85	20472.67
517.03	20484.37
517.20	20547.56
517.37	20486.71
517.54	20732.47
517.72	20723.10
517.89	20496.07
518.06	20865.88
518.24	20680.97
518.41	20769.91
518.58	20840.13
518.75	20678.63
518.93	21303.56
519.10	21085.89
519.27	20989.92
519.45	20950.14
519.62	21387.82
519.79	21144.40
519.96	21170.15
520.14	21638.25
520.31	21371.43
520.48	21727.19
520.65	21855.92
520.83	21422.92
521.00	21724.85
521.17	21612.51
521.34	21338.66
521.52	21788.05
521.69	21425.26
521.86	21916.78
522.03	21895.71
522.20	21673.36
522.38	21774.00
522.55	21979.97
522.72	21991.67
522.89	22302.96
523.07	22251.47
523.24	22087.64
523.41	22562.76
523.58	22129.77
523.75	22541.70
523.92	22272.54
524.10	22363.82
524.27	22136.79
524.44	22389.56
524.61	22827.24
524.78	22628.30
524.96	22359.14
525.13	22698.52
525.30	22759.37
525.47	23002.78
525.64	23044.91
525.81	22977.04
525.98	22726.60
526.16	22897.46
526.33	22773.41
526.50	23000.44
526.67	23065.98
526.84	22918.53
527.01	22785.12
527.18	23150.24
527.36	23318.76
527.53	23353.87
527.70	23426.42
527.87	23421.74
528.04	23426.42
528.21	23438.12
528.38	23419.40
528.55	23559.83
528.72	23623.03
528.89	23728.35
529.07	23571.54
529.24	23679.20
529.41	23466.21
529.58	23573.88
529.75	23496.64
529.92	23484.94
530.09	23681.54
530.26	24093.47
530.43	23711.97
530.60	23922.62
530.77	23976.45
530.94	24056.03
531.11	23901.55
531.28	23803.25
531.46	23976.45
531.63	24016.24
531.80	24404.77
531.97	24772.23
532.14	24130.92
532.31	24276.04
532.48	24521.79
532.65	24231.57
532.82	24409.45
532.99	24229.23
533.16	24388.38
533.33	24297.10
533.50	24694.99
533.67	24486.68
533.84	24327.53
534.01	24439.87
534.18	24474.98
534.35	24629.46
534.52	24680.95
534.69	24971.18
534.86	24683.29
535.03	24657.54
535.20	24945.43
535.37	24933.73
535.54	24837.76
535.71	24542.86
535.88	24732.44
536.05	24961.81
536.22	25369.07
536.38	25263.74
536.55	25078.84
536.72	25069.48
536.89	25102.25
537.06	25275.45
537.23	25481.41
537.40	24627.12
537.57	25371.41
537.74	25373.75
537.91	25600.78
538.08	25638.23
538.25	25453.33
538.42	25319.92
538.59	25575.03
538.75	25259.06
538.92	25579.71
539.09	25525.88
539.26	25680.36
539.43	25563.33
539.60	26052.50
539.77	25671.00
539.94	25837.17
540.11	25696.74
540.28	25949.52
540.44	25933.14
540.61	25741.21
540.78	25722.49
540.95	26150.81
541.12	25963.56
541.29	25993.99
541.46	26363.79
541.62	25781.00
541.79	25797.38
541.96	25708.44
542.13	26171.87
542.30	25993.99
542.47	26356.77
542.63	26270.17
542.80	26115.70
542.97	26869.35
543.14	26490.18
543.31	26181.23
543.48	26579.12
543.64	26977.01
543.81	26419.97
543.98	26934.88
544.15	27002.76
544.32	26785.09
544.48	26953.61
544.65	27044.89
544.82	26644.66
544.99	26331.03
545.16	26761.69
545.32	26909.14
545.49	26932.54
545.66	27379.59
545.83	26731.26
546.00	27243.84
546.16	26822.54
546.33	26888.07
546.50	26663.38
546.67	26850.63
546.83	26698.49
547.00	26920.84
547.17	26862.33
547.34	27311.71
547.50	27405.33
547.67	27435.76
547.84	27548.11
548.00	27337.46
548.17	27461.51
548.34	26998.08
548.51	27496.61
548.67	27473.21
548.84	27651.09
549.01	27449.80
549.18	27564.49
549.34	27419.38
549.51	27660.45
549.68	27232.13
549.84	27080.00
550.01	27639.39
550.18	27484.91
550.34	27922.59
550.51	28128.56
550.68	27824.29
550.84	27611.30
551.01	27763.43
551.18	27716.62
551.34	27400.65
551.51	27660.45
551.68	27906.21
551.84	27906.21
552.01	27740.03
552.18	27887.48
552.34	27817.27
552.51	28128.56
552.68	28156.64
552.84	27967.06
553.01	28252.61
553.18	27976.42
553.34	28470.28
553.51	28133.24
553.67	28135.58
553.84	28521.77
554.01	27997.49
554.17	28170.69
554.34	28554.54
554.51	28219.84
554.67	27747.05
554.84	27976.42
555.00	28463.25
555.17	28542.83
555.33	28158.99
555.50	28009.19
555.67	28175.37
555.83	28493.68
556.00	28158.99
556.16	28444.53
556.33	28381.34
556.50	28093.45
556.66	28627.09
556.83	28568.58
556.99	28882.21
557.16	28952.43
557.32	28992.22
557.49	28723.05
557.65	28418.78
557.82	28650.50
557.98	28517.09
558.15	28463.25
558.32	29340.96
558.48	28711.35
558.65	29095.20
558.81	28985.19
558.98	28964.13
559.14	29151.37
559.31	28697.31
559.47	28865.83
559.64	28870.51
559.80	28699.65
559.97	29123.29
560.13	29010.94
560.30	28896.25
560.46	28802.63
560.63	29074.13
560.79	28893.91
560.96	29434.58
561.12	29177.12
561.29	29020.30
561.45	29134.99
561.61	28954.77
561.78	29116.26
561.94	29259.04
562.11	29156.05
562.27	29013.28
562.44	29418.19
562.60	28870.51
562.77	28781.57
562.93	28758.16
563.10	29404.15
563.26	29324.57
563.42	29645.23
563.59	29369.04
563.75	29153.71
563.92	29429.90
564.08	29244.99
564.24	29092.86
564.41	29404.15
564.57	29006.26
564.74	29308.19
564.90	29249.67
565.07	29453.30
565.23	29624.16
565.39	29984.60
565.56	29610.12
565.72	29216.91
565.88	29586.71
566.05	29399.47
566.21	29083.50
566.38	29434.58
566.54	29315.21
566.70	29486.07
566.87	29708.42
567.03	29607.78
567.19	29867.58
567.36	29844.17
567.52	29680.33
567.68	29886.30
567.85	28947.75
568.01	29724.80
568.17	29507.13
568.34	29525.86
568.50	29841.83
568.66	29577.35
568.83	29977.58
568.99	29394.79
569.15	29820.77
569.32	29542.24
569.48	29549.26
569.64	29956.52
569.81	29467.34
569.97	29415.85
570.13	29855.87
570.30	29640.54
570.46	29956.52
570.62	29975.24
570.78	29668.63
570.95	29345.64
571.11	29528.20
571.27	29685.01
571.43	29553.94
571.60	29795.02
571.76	29544.58
571.92	29890.98
572.09	29558.63
572.25	30080.56
572.41	29755.23
572.57	30017.37
572.74	29788.00
572.90	29493.09
573.06	29528.20
573.22	29741.19
573.38	29738.85
573.55	30092.27
573.71	30419.94
573.87	30335.68
574.03	29802.04
574.20	30010.35
574.36	30153.12
574.52	30204.61
574.68	29820.77
574.84	29858.21
575.01	29694.38
575.17	29975.24
575.33	29687.36
575.49	30010.35
575.65	30562.72
575.82	29933.11
575.98	30036.09
576.14	30031.41
576.30	30141.42
576.46	29818.42
576.62	29668.63
576.79	29998.65
576.95	29883.96
577.11	29905.02
577.27	29942.47
577.43	29998.65
577.59	30391.86
577.75	30274.83
577.92	29694.38
578.08	29745.87
578.24	29935.45
578.40	30010.35
578.56	29762.25
578.72	29720.12
578.88	30506.54
579.04	30352.07
579.21	29989.28
579.37	30195.25
579.53	30169.51
579.69	29677.99
579.85	29984.60
580.01	30120.35
580.17	29851.19
580.33	30092.27
580.49	29954.18
580.65	30029.07
580.82	30141.42
580.98	29935.45
581.14	29935.45
581.30	30197.59
581.46	29308.19
581.62	29928.43
581.78	30024.39
581.94	30071.20
582.10	29968.22
582.26	30323.98
582.42	30375.47
582.58	30672.72
582.74	30052.48
582.90	30167.16
583.06	30497.18
583.22	30082.91
583.38	30026.73
583.54	30522.93
583.70	30064.18
583.86	30375.47
584.02	30110.99
584.18	30164.82
584.34	30026.73
584.50	30541.65
584.66	30478.46
584.82	30155.46
584.98	30335.68
585.14	30321.64
585.30	30087.59
585.46	30164.82
585.62	29827.79
585.78	30368.45
585.94	30218.66
586.10	30075.88
586.26	30342.70
586.42	30270.15
586.58	30433.99
586.74	30129.72
586.90	29933.11
587.06	30080.56
587.22	30284.19
587.38	30085.25
587.54	30614.21
587.70	30246.74
587.86	30787.41
588.02	30738.26
588.18	30373.13
588.34	30497.18
588.49	30485.48
588.65	30125.04
588.81	30150.78
588.97	30277.17
589.13	30246.74
589.29	30103.97
589.45	30483.14
589.61	30405.90
589.77	30658.68
589.93	30518.25
590.08	30899.75
590.24	30906.77
590.40	30691.44
590.56	30333.34
590.72	30342.70
590.88	30462.07
591.04	30110.99
591.20	30799.11
591.35	30712.51
591.51	30780.39
591.67	30775.70
591.83	30815.49
591.99	30328.66
