SpectraSuite Data File
++++++++++++++++++++++++++++++++++++
Date: Fri Oct 18 13:58:30 GMT-05:00 2013
User: bianchi
Dark Spectrum Present: No
Reference Spectrum Present: No
Number of Sampled Component Spectra: 1
Spectrometers: USB2+H05261
Integration Time (usec): 50000 (USB2+H05261)
Spectra Averaged: 1 (USB2+H05261)
Boxcar Smoothing: 0 (USB2+H05261)
Correct for Electrical Dark: No (USB2+H05261)
Strobe/Lamp Enabled: No (USB2+H05261)
Correct for Detector Non-linearity: No (USB2+H05261)
Correct for Stray Light: No (USB2+H05261)
Number of Pixels in Processed Spectrum: 2048
>>>>>Begin Processed Spectral Data<<<<<
365.73	0.00
365.92	0.00
366.12	0.00
366.32	0.00
366.52	0.00
366.72	0.00
366.91	0.00
367.11	0.00
367.31	0.00
367.51	0.00
367.70	0.00
367.90	0.00
368.10	0.00
368.30	0.00
368.49	0.00
368.69	0.00
368.89	0.00
369.09	0.00
369.28	0.00
369.48	0.00
369.68	0.00
369.87	0.00
370.07	0.00
370.27	0.00
370.47	0.00
370.66	67.88
370.86	112.35
371.06	163.84
371.25	95.96
371.45	126.39
371.65	107.66
371.84	124.05
372.04	170.86
372.24	159.16
372.44	107.66
372.63	147.45
372.83	222.35
373.03	154.48
373.22	189.58
373.42	166.18
373.62	224.69
373.81	196.60
374.01	102.98
374.21	112.35
374.40	224.69
374.60	208.31
374.79	231.71
374.99	273.84
375.19	215.33
375.38	271.50
375.58	229.37
375.78	290.23
375.97	278.52
376.17	248.10
376.37	283.20
376.56	304.27
376.76	236.39
376.95	257.46
377.15	273.84
377.35	299.59
377.54	283.20
377.74	266.82
377.93	257.46
378.13	243.42
378.33	308.95
378.52	229.37
378.72	257.46
378.91	315.97
379.11	299.59
379.31	344.06
379.50	334.70
379.70	287.89
379.89	222.35
380.09	227.03
380.28	280.86
380.48	339.38
380.68	269.16
380.87	315.97
381.07	238.73
381.26	276.18
381.46	362.78
381.65	353.42
381.85	362.78
382.04	304.27
382.24	283.20
382.43	325.33
382.63	283.20
382.83	348.74
383.02	325.33
383.22	409.59
383.41	294.91
383.61	393.21
383.80	369.80
384.00	327.68
384.19	266.82
384.39	367.46
384.58	294.91
384.78	369.80
384.97	292.57
385.17	409.59
385.36	372.15
385.56	367.46
385.75	411.93
385.95	421.30
386.14	330.02
386.34	353.42
386.53	411.93
386.72	301.93
386.92	376.83
387.11	400.23
387.31	400.23
387.50	418.96
387.70	376.83
387.89	395.55
388.09	468.11
388.28	418.96
388.48	505.56
388.67	433.00
388.86	449.38
389.06	444.70
389.25	451.72
389.45	498.53
389.64	500.87
389.84	535.98
390.03	465.77
390.22	489.17
390.42	435.34
390.61	454.06
390.81	547.69
391.00	477.47
391.19	482.15
391.39	489.17
391.58	498.53
391.78	503.22
391.97	566.41
392.16	456.40
392.36	571.09
392.55	528.96
392.75	454.06
392.94	498.53
393.13	531.30
393.33	587.47
393.52	594.50
393.71	533.64
393.91	531.30
394.10	442.36
394.29	571.09
394.49	517.26
394.68	535.98
394.88	545.34
395.07	585.13
395.26	580.45
395.46	550.03
395.65	580.45
395.84	650.67
396.04	657.69
396.23	608.54
396.42	655.35
396.62	664.71
396.81	655.35
397.00	631.94
397.19	631.94
397.39	671.73
397.58	739.61
397.77	655.35
397.97	734.93
398.16	667.05
398.35	660.03
398.55	725.57
398.74	699.82
398.93	739.61
399.12	730.25
399.32	615.56
399.51	737.27
399.70	739.61
399.90	692.80
400.09	751.31
400.28	676.41
400.47	720.88
400.67	795.78
400.86	674.07
401.05	784.08
401.24	784.08
401.44	730.25
401.63	772.38
401.82	837.91
402.01	748.97
402.21	837.91
402.40	791.10
402.59	833.23
402.78	788.76
402.97	812.17
403.17	856.64
403.36	957.28
403.55	826.21
403.74	805.14
403.93	858.98
404.13	840.25
404.32	833.23
404.51	861.32
404.70	807.48
404.89	950.26
405.09	912.81
405.28	926.85
405.47	976.00
405.66	933.87
405.85	947.92
406.05	917.49
406.24	929.19
406.43	1039.20
406.62	983.02
406.81	987.71
407.00	1062.60
407.20	971.32
407.39	1050.90
407.58	1081.33
407.77	866.00
407.96	1022.81
408.15	1057.92
408.34	1025.15
408.54	1118.78
408.73	1097.71
408.92	1100.05
409.11	1039.20
409.30	1053.24
409.49	1071.97
409.68	1083.67
409.87	1102.39
410.07	1114.10
410.26	1160.91
410.45	1139.84
410.64	1107.07
410.83	1275.59
411.02	1238.14
411.21	1100.05
411.40	1186.65
411.59	1245.16
411.78	1238.14
411.98	1263.89
412.17	1226.44
412.36	1317.72
412.55	1207.72
412.74	1306.02
412.93	1254.53
413.12	1313.04
413.31	1437.09
413.50	1329.42
413.69	1383.26
413.88	1394.96
414.07	1394.96
414.26	1350.49
414.45	1383.26
414.64	1413.68
414.83	1565.82
415.02	1444.11
415.22	1413.68
415.41	1544.75
415.60	1441.77
415.79	1530.71
415.98	1563.48
416.17	1699.23
416.36	1514.33
416.55	1626.67
416.74	1579.86
416.93	1603.27
417.12	1652.42
417.31	1713.27
417.50	1689.87
417.69	1699.23
417.88	1713.27
418.07	1600.93
418.26	1671.14
418.45	1703.91
418.64	1748.38
418.83	1834.98
419.02	1706.25
419.21	1757.74
419.39	1748.38
419.58	1837.32
419.77	1724.97
419.96	1729.66
420.15	1729.66
420.34	1657.10
420.53	1795.19
420.72	1849.02
420.91	1851.36
421.10	1872.43
421.29	1879.45
421.48	1825.62
421.67	1886.47
421.86	1905.20
422.05	1947.33
422.24	1888.81
422.43	1952.01
422.61	1909.88
422.80	1973.07
422.99	1942.64
423.18	2033.93
423.37	2012.86
423.56	2047.97
423.75	1865.41
423.94	1984.77
424.13	1827.96
424.32	1891.15
424.50	2029.24
424.69	2029.24
424.88	2047.97
425.07	1930.94
425.26	1961.37
425.45	1970.73
425.64	1923.92
425.83	2031.58
426.01	1921.58
426.20	1970.73
426.39	1970.73
426.58	1989.46
426.77	1944.99
426.96	2008.18
427.15	2012.86
427.33	2143.93
427.52	2036.27
427.71	2066.69
427.90	2073.71
428.09	2122.87
428.28	2080.74
428.46	2141.59
428.65	2263.30
428.84	2029.24
429.03	2165.00
429.22	2207.13
429.40	2174.36
429.59	2218.83
429.78	2050.31
429.97	2059.67
430.16	2193.08
430.34	2244.57
430.53	2202.44
430.72	2326.49
430.91	2174.36
431.10	2258.62
431.28	2270.32
431.47	2352.24
431.66	2443.52
431.85	2317.13
432.03	2427.14
432.22	2406.07
432.41	2326.49
432.60	2349.90
432.79	2310.11
432.97	2462.24
433.16	2377.98
433.35	2544.16
433.54	2422.45
433.72	2445.86
433.91	2394.37
434.10	2548.84
434.28	2478.63
434.47	2509.05
434.66	2469.27
434.85	2532.46
435.03	2523.10
435.22	2565.23
435.41	2682.25
435.59	2532.46
435.78	2586.29
435.97	2642.46
436.16	2588.63
436.34	2663.53
436.53	2583.95
436.72	2771.19
436.90	2581.61
437.09	2708.00
437.28	2633.10
437.46	2600.34
437.65	2724.38
437.84	2771.19
438.02	2738.43
438.21	2745.45
438.40	2766.51
438.58	2654.17
438.77	2906.95
438.96	2794.60
439.14	2911.63
439.33	2860.13
439.52	2909.29
439.70	2813.32
439.89	2970.14
440.08	2932.69
440.26	2951.42
440.45	3054.40
440.63	3052.06
440.82	3073.12
441.01	3063.76
441.19	3070.78
441.38	3033.33
441.57	3112.91
441.75	3056.74
441.94	3119.93
442.12	3213.56
442.31	3236.96
442.50	3260.37
442.68	3087.17
442.87	3255.69
443.05	3201.85
443.24	3361.01
443.43	3274.41
443.61	3206.53
443.80	3342.28
443.98	3232.28
444.17	3070.78
444.35	3290.79
444.54	3365.69
444.73	3365.69
444.91	3332.92
445.10	3414.84
445.28	3281.43
445.47	3398.46
445.65	3346.97
445.84	3426.54
446.02	3389.10
446.21	3365.69
446.39	3403.14
446.58	3538.89
446.77	3363.35
446.95	3293.13
447.14	3283.77
447.32	3414.84
447.51	3330.58
447.69	3431.23
447.88	3449.95
448.06	3489.74
448.25	3471.01
448.43	3496.76
448.62	3405.48
448.80	3372.71
448.99	3487.40
449.17	3524.85
449.36	3564.64
449.54	3744.86
449.73	3611.45
449.91	3595.06
450.10	3613.79
450.28	3599.74
450.46	3620.81
450.65	3665.28
450.83	3751.88
451.02	3529.53
451.20	3777.62
451.39	3864.22
451.57	3730.81
451.76	3728.47
451.94	3763.58
452.13	3693.37
452.31	3810.39
452.49	3644.21
452.68	3742.52
452.86	3627.83
453.05	3803.37
453.23	3943.80
453.42	3721.45
453.60	3653.58
453.78	3726.13
453.97	3775.28
454.15	3857.20
454.34	3733.15
454.52	3941.46
454.70	3864.22
454.89	3934.44
455.07	3974.23
455.26	3936.78
455.44	3967.21
455.62	3983.59
455.81	4014.02
455.99	4077.21
456.17	4028.06
456.36	3995.29
456.54	4196.58
456.73	4081.89
456.91	4021.04
457.09	4117.00
457.28	4222.33
457.46	4203.60
457.64	4280.84
457.83	4292.54
458.01	4077.21
458.19	4278.50
458.38	4227.01
458.56	4395.53
458.74	4304.25
458.93	4294.88
459.11	4292.54
459.29	4407.23
459.48	4351.06
459.66	4365.10
459.84	4430.63
460.03	4376.80
460.21	4526.60
460.39	4482.13
460.57	4339.35
460.76	4610.86
460.94	4503.19
461.12	4479.79
461.31	4531.28
461.49	4428.29
461.67	4521.92
461.85	4550.00
462.04	4432.97
462.22	4641.28
462.40	4596.81
462.59	4652.98
462.77	4762.99
462.95	4608.51
463.13	4758.31
463.32	4688.09
463.50	4650.64
463.68	4791.08
463.86	4744.27
464.05	4685.75
464.23	4657.67
464.41	4732.56
464.59	4648.30
464.78	4854.27
464.96	4795.76
465.14	4652.98
465.32	4777.03
465.50	4875.34
465.69	5006.41
465.87	4791.08
466.05	4858.95
466.23	5025.13
466.41	4917.47
466.60	5027.47
466.78	4910.44
466.96	4880.02
467.14	4926.83
467.32	4849.59
467.51	5137.48
467.69	4762.99
467.87	5132.79
468.05	5170.24
468.23	5067.26
468.41	4947.89
468.60	4919.81
468.78	5090.67
468.96	5057.90
469.14	5093.01
469.32	5158.54
469.50	5043.85
469.69	5305.99
469.87	5231.10
470.05	5259.18
470.23	5198.33
470.41	5226.42
470.59	5390.25
470.77	5245.14
470.95	5408.98
471.14	5528.35
471.32	5261.52
471.50	5511.96
471.68	5486.22
471.86	5495.58
472.04	5502.60
472.22	5706.23
472.40	5355.15
472.58	5488.56
472.77	5413.66
472.95	5661.76
473.13	5865.38
473.31	5727.29
473.49	5645.37
473.67	5647.71
473.85	5682.82
474.03	5816.23
474.21	5748.36
474.39	5849.00
474.57	5879.43
474.75	5980.07
474.93	6038.58
475.12	5951.98
475.30	6061.99
475.48	6097.10
475.66	5959.00
475.84	6136.88
476.02	6069.01
476.20	6111.14
476.38	6263.27
476.56	6417.75
476.74	6333.49
476.92	6342.85
477.10	6506.69
477.28	6331.15
477.46	6494.99
477.64	6729.04
477.82	6651.80
478.00	6750.10
478.18	6743.08
478.36	6782.87
478.54	7059.06
478.72	7021.61
478.90	6953.73
479.08	6970.12
479.26	6979.48
479.44	7047.35
479.62	7019.27
479.80	7124.59
479.98	7375.03
480.16	7309.49
480.34	7171.40
480.52	7501.42
480.70	7379.71
480.88	7358.64
481.06	7492.05
481.24	7672.28
481.41	7655.89
481.59	7756.54
481.77	7683.98
481.95	7845.48
482.13	7793.98
482.31	7719.09
482.49	8053.78
482.67	7985.91
482.85	8152.09
483.03	8329.97
483.21	8329.97
483.39	8369.76
483.57	8461.04
483.74	8322.94
483.92	8507.85
484.10	8407.20
484.28	8580.40
484.46	8919.78
484.64	8851.91
484.82	8725.52
485.00	8961.91
485.18	9055.53
485.35	9160.86
485.53	9076.60
485.71	9303.63
485.89	9397.25
486.07	9338.74
486.25	9341.08
486.43	9245.12
486.61	9444.06
486.78	9703.86
486.96	9582.15
487.14	9832.59
487.32	9902.81
487.50	9916.85
487.68	9874.72
487.85	10195.37
488.03	10335.81
488.21	10293.68
488.39	10363.89
488.57	10373.25
488.75	10384.96
488.92	10413.04
489.10	10658.80
489.28	10670.50
489.46	10747.74
489.64	10796.89
489.81	11119.89
489.99	11131.59
490.17	11040.31
490.35	11171.38
490.53	11159.67
490.70	11276.70
490.88	11204.14
491.06	11293.08
491.24	11330.53
491.41	11538.84
491.59	11791.62
491.77	11817.36
491.95	11749.49
492.13	11999.93
492.30	11981.20
492.48	12299.52
492.66	12053.76
492.84	11882.90
493.01	12313.56
493.19	12402.50
493.37	12271.43
493.54	12681.02
493.72	12786.35
493.90	12428.24
494.08	12592.08
494.25	12620.17
494.43	12643.57
494.61	13006.36
494.79	12989.97
494.96	13081.25
495.14	13135.09
495.32	13249.77
495.49	13109.34
495.67	13319.99
495.85	13327.01
496.02	13411.27
496.20	13570.43
496.38	13542.34
496.55	13694.47
496.73	13900.44
496.91	13788.10
497.09	13778.73
497.26	13921.51
497.44	14010.45
497.62	13757.67
497.79	14260.88
497.97	13965.98
498.14	14345.14
498.32	14420.04
498.50	14424.72
498.67	14607.28
498.85	14492.60
499.03	14602.60
499.20	14600.26
499.38	14525.36
499.56	14792.19
499.73	14904.53
499.91	15087.09
500.08	14864.74
500.26	14626.01
500.44	15049.64
500.61	15082.41
500.79	15007.52
500.97	15517.75
501.14	15250.93
501.32	15489.67
501.49	15620.74
501.67	15447.54
501.84	15536.48
502.02	15527.11
502.20	15749.46
502.37	15875.85
502.55	15805.64
502.72	15775.21
502.90	16072.46
503.07	15756.49
503.25	15920.32
503.43	15857.13
503.60	16060.76
503.78	16133.31
503.95	16182.46
504.13	16154.38
504.30	16212.89
504.48	16493.76
504.65	16332.26
504.83	16367.37
505.01	16222.25
505.18	16844.84
505.36	16336.94
505.53	16610.78
505.71	16531.20
505.88	16695.04
506.06	16428.22
506.23	16898.67
506.41	16531.20
506.58	17064.85
506.76	16814.41
506.93	16947.82
507.11	17025.06
507.28	17139.74
507.46	17106.98
507.63	17406.56
507.81	17415.93
507.98	17568.06
508.16	17380.82
508.33	17216.98
508.50	17394.86
508.68	17460.40
508.85	17577.42
509.03	17834.88
509.20	17731.90
509.38	17900.42
509.55	17879.35
509.73	17685.09
509.90	18200.01
510.08	17811.48
510.25	17930.84
510.42	18160.22
510.60	18408.31
510.77	17980.00
510.95	18200.01
511.12	18132.13
511.30	18033.83
511.47	18249.16
511.64	18611.94
511.82	18464.49
511.99	18448.10
512.17	18452.78
512.34	18668.11
512.51	18633.00
512.69	18616.62
512.86	18527.68
513.04	18941.96
513.21	18892.80
513.38	18761.73
513.56	18883.44
513.73	18998.13
513.90	18958.34
514.08	19089.41
514.25	19161.97
514.43	19103.45
514.60	19499.00
514.77	19227.50
514.95	19332.82
515.12	19335.17
515.29	19351.55
515.47	19386.66
515.64	19585.60
515.81	19358.57
515.99	19587.94
516.16	19967.11
516.33	19632.41
516.51	19646.46
516.68	19552.84
516.85	19658.16
517.03	19960.09
517.20	19887.53
517.37	20276.06
517.54	19974.13
517.72	20074.77
517.89	19805.61
518.06	19960.09
518.24	19981.15
518.41	20142.65
518.58	20051.37
518.75	19948.39
518.93	20262.02
519.10	20250.32
519.27	20699.70
519.45	20606.08
519.62	20568.63
519.79	20615.44
519.96	20592.03
520.14	20659.91
520.31	20608.42
520.48	20802.68
520.65	20886.94
520.83	20854.17
521.00	21008.65
521.17	20929.07
521.34	20844.81
521.52	21083.55
521.69	20924.39
521.86	21319.94
522.03	21324.62
522.20	21209.93
522.38	21418.24
522.55	21322.28
522.72	21418.24
522.89	21350.37
523.07	21546.97
523.24	21254.40
523.41	21680.38
523.58	21462.71
523.75	21575.06
523.92	21551.65
524.10	21429.94
524.27	21582.08
524.44	21867.63
524.61	22148.49
524.78	21886.35
524.96	22197.64
525.13	21956.57
525.30	22047.85
525.47	21902.73
525.64	21984.65
525.81	22155.51
525.98	22291.26
526.16	22061.89
526.33	22553.40
526.50	22139.13
526.67	22045.51
526.84	22148.49
527.01	22111.04
527.18	22368.50
527.36	22590.85
527.53	22574.47
527.70	22944.27
527.87	22810.86
528.04	22448.08
528.21	22841.29
528.38	22555.74
528.55	22808.52
528.72	22621.28
528.89	22876.40
529.07	22771.07
529.24	22333.39
529.41	22946.61
529.58	22501.91
529.75	22904.48
529.92	23220.45
530.09	22881.08
530.26	23061.30
530.43	23339.82
530.60	22766.39
530.77	23157.26
530.94	23143.22
531.11	22927.89
531.28	23218.11
531.46	23360.89
531.63	23304.71
531.80	23108.11
531.97	23346.84
532.14	23751.76
532.31	23185.35
532.48	23686.22
532.65	23786.86
532.82	23117.47
532.99	23410.04
533.16	23765.80
533.33	23611.32
533.50	23758.78
533.67	23541.11
533.84	23438.12
534.01	23555.15
534.18	23772.82
534.35	23976.45
534.52	24002.19
534.69	24072.41
534.86	24105.18
535.03	23758.78
535.20	24119.22
535.37	24009.22
535.54	24271.36
535.71	23800.91
535.88	24086.45
536.05	23946.02
536.22	24133.26
536.38	24219.86
536.55	24652.86
536.72	24226.89
536.89	24285.40
537.06	24362.64
537.23	24259.65
537.40	24285.40
537.57	24795.64
537.74	24367.32
537.91	24531.15
538.08	24491.37
538.25	24376.68
538.42	24397.74
538.59	24622.44
538.75	24800.32
538.92	24812.02
539.09	24978.20
539.26	24669.25
539.43	24826.06
539.60	24797.98
539.77	24910.32
539.94	25039.05
540.11	24758.19
540.28	24945.43
540.44	24936.07
540.61	25137.35
540.78	24709.04
540.95	25216.93
541.12	25088.20
541.29	24952.45
541.46	25032.03
541.62	25163.10
541.79	24940.75
541.96	24877.55
542.13	24966.49
542.30	25109.27
542.47	25235.66
542.63	25256.72
542.80	25172.46
542.97	25422.90
543.14	25844.20
543.31	25450.99
543.48	25448.64
543.64	25832.49
543.81	25872.28
543.98	25869.94
544.15	25649.93
544.32	25802.07
544.48	26338.05
544.65	25771.64
544.82	26052.50
544.99	25706.10
545.16	25977.61
545.32	25919.09
545.49	26162.51
545.66	26101.65
545.83	26106.34
546.00	25909.73
546.16	26045.48
546.33	25979.95
546.50	25556.31
546.67	26223.36
546.83	25954.20
547.00	25886.32
547.17	26244.43
547.34	26326.35
547.50	26218.68
547.67	26263.15
547.84	26260.81
548.00	26480.82
548.17	26487.84
548.34	26228.04
548.51	26824.88
548.67	26623.59
548.84	26677.43
549.01	26960.63
549.18	26902.12
549.34	26195.28
549.51	26541.68
549.68	26735.94
549.84	26197.62
550.01	26705.51
550.18	26651.68
550.34	27012.12
550.51	26511.25
550.68	26499.55
550.84	26579.12
551.01	26630.62
551.18	26380.18
551.34	26569.76
551.51	26541.68
551.68	26595.51
551.84	26979.36
552.01	26862.33
552.18	26981.70
552.34	27204.05
552.51	27339.80
552.68	26962.97
552.84	27087.02
553.01	27161.92
553.18	27007.44
553.34	26845.94
553.51	26981.70
553.67	27604.28
553.84	27241.50
554.01	27360.86
554.17	27494.27
554.34	27337.46
554.51	27096.38
554.67	27133.83
554.84	27461.51
555.00	27428.74
555.17	27452.14
555.33	27379.59
555.50	27536.40
555.67	27161.92
555.83	27662.79
556.00	27204.05
556.16	27733.01
556.33	27452.14
556.50	27475.55
556.66	27716.62
556.83	27033.19
556.99	27744.71
557.16	27857.06
557.32	27817.27
557.49	28151.96
557.65	27505.98
557.82	27915.57
557.98	27377.25
558.15	27814.93
558.32	27852.38
558.48	27854.72
558.65	27971.74
558.81	27779.82
558.98	27484.91
559.14	27747.05
559.31	27702.58
559.47	27857.06
559.64	27889.82
559.80	28109.83
559.97	28245.58
560.13	28027.92
560.30	28044.30
560.46	28070.04
560.63	28002.17
560.79	28166.01
560.96	28250.27
561.12	27758.75
561.29	27948.34
561.45	27290.65
561.61	28154.30
561.78	28432.83
561.94	27974.08
562.11	28498.36
562.27	27749.39
562.44	28346.23
562.60	28070.04
562.77	27995.15
562.93	27845.35
563.10	27974.08
563.26	28238.56
563.42	28161.33
563.59	28261.97
563.75	28243.24
563.92	28580.28
564.08	28002.17
564.24	28271.33
564.41	28327.50
564.57	28041.96
564.74	28182.39
564.90	28386.02
565.07	28498.36
565.23	28697.31
565.39	28463.25
565.56	28547.51
565.72	28240.90
565.88	28369.63
566.05	28044.30
566.21	28261.97
566.38	28198.77
566.54	28334.53
566.70	28788.59
566.87	28554.54
567.03	28552.20
567.19	28580.28
567.36	28903.28
567.52	28442.19
567.68	28795.61
567.85	28463.25
568.01	28400.06
568.17	28481.98
568.34	28594.32
568.50	28479.64
568.66	28503.04
568.83	28907.96
568.99	28505.38
569.15	28599.01
569.32	28540.49
569.48	28283.03
569.64	28477.30
569.81	28584.96
569.97	28458.57
570.13	28313.46
570.30	28900.94
570.46	28973.49
570.62	28666.88
570.78	28430.49
570.95	28709.01
571.11	28645.82
571.27	28430.49
571.43	28493.68
571.60	28470.28
571.76	28875.19
571.92	28739.44
572.09	28512.41
572.25	28713.69
572.41	28599.01
572.57	28919.66
572.74	28797.95
572.90	28748.80
573.06	28458.57
573.22	28762.84
573.38	28559.22
573.55	28992.22
573.71	28655.18
573.87	28973.49
574.03	28718.37
574.20	28861.15
574.36	28517.09
574.52	29151.37
574.68	28952.43
574.84	28685.61
575.01	28900.94
575.17	28982.85
575.33	29001.58
575.49	28856.46
575.65	28978.17
575.82	28797.95
575.98	29134.99
576.14	28968.81
576.30	28952.43
576.46	28964.13
576.62	29193.50
576.79	28636.45
576.95	28809.65
577.11	29036.69
577.27	29032.00
577.43	28596.67
577.59	28814.34
577.75	28776.89
577.92	28535.81
578.08	29006.26
578.24	28978.17
578.40	28833.06
578.56	29088.18
578.72	28961.79
578.88	29017.96
579.04	29369.04
579.21	28854.12
579.37	29013.28
579.53	28922.00
579.69	28727.74
579.85	28758.16
580.01	29027.32
580.17	29010.94
580.33	28549.85
580.49	28608.37
580.65	29024.98
580.82	29123.29
580.98	28879.87
581.14	29179.46
581.30	29130.31
581.46	28954.77
581.62	28861.15
581.78	28514.75
581.94	28872.85
582.10	28987.53
582.26	29118.60
582.42	29144.35
582.58	28959.45
582.74	28568.58
582.90	29090.52
583.06	29289.46
583.22	29230.95
583.38	29240.31
583.54	29263.72
583.70	29230.95
583.86	29577.35
584.02	28767.52
584.18	29113.92
584.34	29207.55
584.50	29127.97
584.66	28727.74
584.82	28947.75
584.98	28835.40
585.14	29439.26
585.30	29198.18
585.46	28734.76
585.62	29127.97
585.78	29067.11
585.94	29024.98
586.10	29364.36
586.26	29137.33
586.42	29256.70
586.58	29352.66
586.74	29134.99
586.90	29134.99
587.06	29036.69
587.22	29233.29
587.38	29165.42
587.54	29106.90
587.70	29546.92
587.86	29631.18
588.02	29469.69
588.18	29497.77
588.34	29378.40
588.49	29408.83
588.65	29282.44
588.81	29090.52
588.97	29179.46
589.13	29142.01
589.29	28631.77
589.45	29142.01
589.61	29326.91
589.77	29509.47
589.93	29282.44
590.08	29530.54
590.24	29495.43
590.40	29577.35
590.56	29476.71
590.72	29298.83
590.88	29242.65
591.04	29043.71
591.20	29603.10
591.35	29287.12
591.51	29881.62
591.67	29729.48
591.83	29825.45
591.99	29280.10
