SpectraSuite Data File
++++++++++++++++++++++++++++++++++++
Date: Fri Oct 18 13:58:19 GMT-05:00 2013
User: bianchi
Dark Spectrum Present: No
Reference Spectrum Present: No
Number of Sampled Component Spectra: 1
Spectrometers: USB2+H05261
Integration Time (usec): 50000 (USB2+H05261)
Spectra Averaged: 1 (USB2+H05261)
Boxcar Smoothing: 0 (USB2+H05261)
Correct for Electrical Dark: No (USB2+H05261)
Strobe/Lamp Enabled: No (USB2+H05261)
Correct for Detector Non-linearity: No (USB2+H05261)
Correct for Stray Light: No (USB2+H05261)
Number of Pixels in Processed Spectrum: 2048
>>>>>Begin Processed Spectral Data<<<<<
365.73	0.00
365.92	0.00
366.12	0.00
366.32	0.00
366.52	0.00
366.72	0.00
366.91	0.00
367.11	0.00
367.31	0.00
367.51	0.00
367.70	0.00
367.90	0.00
368.10	0.00
368.30	0.00
368.49	0.00
368.69	0.00
368.89	0.00
369.09	0.00
369.28	0.00
369.48	0.00
369.68	0.00
369.87	0.00
370.07	0.00
370.27	0.00
370.47	0.00
370.66	60.85
370.86	100.64
371.06	180.22
371.25	154.48
371.45	208.31
371.65	114.69
371.84	102.98
372.04	189.58
372.24	215.33
372.44	170.86
372.63	95.96
372.83	198.95
373.03	156.82
373.22	175.54
373.42	241.08
373.62	203.63
373.81	194.26
374.01	173.20
374.21	203.63
374.40	177.88
374.60	299.59
374.79	257.46
374.99	245.76
375.19	283.20
375.38	241.08
375.58	292.57
375.78	280.86
375.97	278.52
376.17	304.27
376.37	283.20
376.56	294.91
376.76	337.04
376.95	290.23
377.15	252.78
377.35	322.99
377.54	245.76
377.74	269.16
377.93	299.59
378.13	283.20
378.33	313.63
378.52	278.52
378.72	229.37
378.91	313.63
379.11	248.10
379.31	173.20
379.50	252.78
379.70	236.39
379.89	355.76
380.09	276.18
380.28	271.50
380.48	278.52
380.68	278.52
380.87	315.97
381.07	374.49
381.26	376.83
381.46	292.57
381.65	414.27
381.85	301.93
382.04	229.37
382.24	351.08
382.43	365.12
382.63	315.97
382.83	351.08
383.02	362.78
383.22	337.04
383.41	311.29
383.61	276.18
383.80	369.80
384.00	334.70
384.19	360.44
384.39	334.70
384.58	379.17
384.78	355.76
384.97	344.06
385.17	395.55
385.36	353.42
385.56	397.89
385.75	416.62
385.95	390.87
386.14	421.30
386.34	386.19
386.53	411.93
386.72	393.21
386.92	407.25
387.11	376.83
387.31	334.70
387.50	418.96
387.70	498.53
387.89	449.38
388.09	489.17
388.28	461.09
388.48	468.11
388.67	468.11
388.86	564.07
389.06	482.15
389.25	411.93
389.45	454.06
389.64	465.77
389.84	428.32
390.03	479.81
390.22	442.36
390.42	557.05
390.61	461.09
390.81	540.66
391.00	545.34
391.19	498.53
391.39	477.47
391.58	575.77
391.78	482.15
391.97	550.03
392.16	496.19
392.36	517.26
392.55	521.94
392.75	465.77
392.94	528.96
393.13	547.69
393.33	500.87
393.52	615.56
393.71	552.37
393.91	627.26
394.10	524.28
394.29	571.09
394.49	573.43
394.68	620.24
394.88	624.92
395.07	585.13
395.26	624.92
395.46	578.11
395.65	589.82
395.84	631.94
396.04	671.73
396.23	676.41
396.42	559.39
396.62	730.25
396.81	568.75
397.00	594.50
397.19	624.92
397.39	676.41
397.58	720.88
397.77	610.88
397.97	688.12
398.16	744.29
398.35	681.10
398.55	737.27
398.74	718.54
398.93	688.12
399.12	732.59
399.32	702.16
399.51	690.46
399.70	739.61
399.90	681.10
400.09	833.23
400.28	706.84
400.47	704.50
400.67	849.61
400.86	844.93
401.05	802.80
401.24	800.46
401.44	763.01
401.63	718.54
401.82	849.61
402.01	772.38
402.21	819.19
402.40	805.14
402.59	802.80
402.78	788.76
402.97	805.14
403.17	807.48
403.36	805.14
403.55	917.49
403.74	929.19
403.93	936.21
404.13	880.04
404.32	875.36
404.51	908.13
404.70	837.91
404.89	889.40
405.09	966.64
405.28	947.92
405.47	938.55
405.66	985.37
405.85	978.34
406.05	961.96
406.24	1008.77
406.43	964.30
406.62	968.98
406.81	1039.20
407.00	999.41
407.20	929.19
407.39	1022.81
407.58	997.07
407.77	1001.75
407.96	1029.84
408.15	1109.41
408.34	943.24
408.54	1172.61
408.73	1142.18
408.92	1196.01
409.11	1102.39
409.30	1287.29
409.49	1130.48
409.68	1088.35
409.87	1043.88
410.07	1095.37
410.26	1193.67
410.45	1160.91
410.64	1109.41
410.83	1188.99
411.02	1142.18
411.21	1207.72
411.40	1313.04
411.59	1198.35
411.78	1109.41
411.98	1266.23
412.17	1294.32
412.36	1303.68
412.55	1252.19
412.74	1411.34
412.93	1317.72
413.12	1214.74
413.31	1420.71
413.50	1277.93
413.69	1394.96
413.88	1437.09
414.07	1488.58
414.26	1446.45
414.45	1493.26
414.64	1462.83
414.83	1497.94
415.02	1474.54
415.22	1556.46
415.41	1584.54
415.60	1596.25
415.79	1584.54
415.98	1629.01
416.17	1633.69
416.36	1614.97
416.55	1565.82
416.74	1678.16
416.93	1617.31
417.12	1746.04
417.31	1673.48
417.50	1739.02
417.69	1722.63
417.88	1708.59
418.07	1757.74
418.26	1781.15
418.45	1804.55
418.64	1781.15
418.83	1797.53
419.02	1823.28
419.21	1914.56
419.39	1818.60
419.58	1834.98
419.77	1671.14
419.96	1870.09
420.15	1823.28
420.34	1886.47
420.53	1888.81
420.72	1900.52
420.91	1996.48
421.10	1923.92
421.29	1970.73
421.48	1928.60
421.67	1998.82
421.86	1865.41
422.05	1909.88
422.24	1909.88
422.43	1984.77
422.61	1984.77
422.80	2080.74
422.99	2038.61
423.18	1982.43
423.37	2038.61
423.56	2069.03
423.75	1947.33
423.94	1935.62
424.13	1811.57
424.32	1942.64
424.50	2026.90
424.69	2050.31
424.88	2038.61
425.07	2038.61
425.26	1975.41
425.45	1942.64
425.64	2033.93
425.83	2064.35
426.01	2134.57
426.20	2022.22
426.39	2062.01
426.58	2052.65
426.77	2122.87
426.96	2047.97
427.15	2029.24
427.33	2118.18
427.52	2153.29
427.71	2106.48
427.90	2087.76
428.09	2132.23
428.28	2106.48
428.46	2249.25
428.65	2211.81
428.84	2183.72
429.03	2275.00
429.22	2172.02
429.40	2230.53
429.59	2319.47
429.78	2193.08
429.97	2139.25
430.16	2197.76
430.34	2232.87
430.53	2242.23
430.72	2221.17
430.91	2251.60
431.10	2275.00
431.28	2431.82
431.47	2380.32
431.66	2385.01
431.85	2375.64
432.03	2394.37
432.22	2392.03
432.41	2504.37
432.60	2303.09
432.79	2361.60
432.97	2569.91
433.16	2485.65
433.35	2504.37
433.54	2413.09
433.72	2518.42
433.91	2445.86
434.10	2586.29
434.28	2441.18
434.47	2520.76
434.66	2464.58
434.85	2635.44
435.03	2525.44
435.22	2574.59
435.41	2623.74
435.59	2752.47
435.78	2619.06
435.97	2586.29
436.16	2581.61
436.34	2609.70
436.53	2670.55
436.72	2677.57
436.90	2693.96
437.09	2684.59
437.28	2593.31
437.46	2754.81
437.65	2780.56
437.84	2860.13
438.02	2768.85
438.21	2778.22
438.40	2794.60
438.58	2890.56
438.77	2979.50
438.96	2911.63
439.14	3075.46
439.33	2839.07
439.52	2911.63
439.70	2918.65
439.89	3080.14
440.08	2967.80
440.26	3075.46
440.45	2958.44
440.63	3073.12
440.82	3124.62
441.01	3178.45
441.19	3129.30
441.38	3251.00
441.57	3213.56
441.75	3323.56
441.94	3211.22
442.12	3290.79
442.31	3255.69
442.50	3265.05
442.68	3141.00
442.87	3295.47
443.05	3206.53
443.24	3332.92
443.43	3309.52
443.61	3538.89
443.80	3508.46
443.98	3382.07
444.17	3351.65
444.35	3529.53
444.54	3400.80
444.73	3403.14
444.91	3440.59
445.10	3389.10
445.28	3281.43
445.47	3496.76
445.65	3435.91
445.84	3351.65
446.02	3431.23
446.21	3353.99
446.39	3499.10
446.58	3363.35
446.77	3496.76
446.95	3384.41
447.14	3358.67
447.32	3492.08
447.51	3576.34
447.69	3604.42
447.88	3574.00
448.06	3531.87
448.25	3433.57
448.43	3508.46
448.62	3438.25
448.80	3515.48
448.99	3513.14
449.17	3566.98
449.36	3609.11
449.54	3768.26
449.73	3684.00
449.91	3658.26
450.10	3613.79
450.28	3588.04
450.46	3627.83
450.65	3691.02
450.83	3616.13
451.02	3681.66
451.20	3728.47
451.39	3808.05
451.57	3707.41
451.76	3728.47
451.94	3859.54
452.13	3896.99
452.31	3831.46
452.49	3733.15
452.68	3875.93
452.86	3997.64
453.05	3904.01
453.23	3943.80
453.42	3786.99
453.60	3850.18
453.78	3887.63
453.97	3866.56
454.15	3777.62
454.34	3885.29
454.52	4016.36
454.70	3922.74
454.89	4173.18
455.07	4023.38
455.26	4056.15
455.44	4119.34
455.62	3925.08
455.81	3983.59
455.99	4194.24
456.17	4065.51
456.36	4222.33
456.54	4119.34
456.73	4201.26
456.91	4362.76
457.09	4283.18
457.28	4376.80
457.46	4219.99
457.64	4315.95
457.83	4341.69
458.01	4365.10
458.19	4416.59
458.38	4212.96
458.56	4470.42
458.74	4381.48
458.93	4440.00
459.11	4397.87
459.29	4299.56
459.48	4496.17
459.66	4517.23
459.84	4477.44
460.03	4531.28
460.21	4395.53
460.39	4559.36
460.57	4458.72
460.76	4444.68
460.94	4699.80
461.12	4554.68
461.31	4568.73
461.49	4545.32
461.67	4559.36
461.85	4498.51
462.04	4580.43
462.22	4898.74
462.40	4657.67
462.59	4660.01
462.77	4774.69
462.95	4767.67
463.13	4702.14
463.32	4765.33
463.50	4844.91
463.68	4800.44
463.86	4746.61
464.05	4781.71
464.23	4901.08
464.41	4826.18
464.59	4660.01
464.78	5013.43
464.96	4938.53
465.14	4950.23
465.32	5163.22
465.50	4858.95
465.69	5020.45
465.87	4926.83
466.05	4910.44
466.23	5064.92
466.41	4997.04
466.60	5022.79
466.78	5050.88
466.96	4929.17
467.14	5053.22
467.32	5076.62
467.51	5310.68
467.69	5078.96
467.87	5153.86
468.05	5081.30
468.23	5078.96
468.41	5074.28
468.60	5151.52
468.78	5320.04
468.96	5432.38
469.14	5249.82
469.32	5294.29
469.50	5142.16
469.69	5289.61
469.87	5313.02
470.05	5621.97
470.23	5448.77
470.41	5334.08
470.59	5448.77
470.77	5432.38
470.95	5448.77
471.14	5530.69
471.32	5514.30
471.50	5488.56
471.68	5502.60
471.86	5596.22
472.04	5680.48
472.22	5636.01
472.40	5757.72
472.58	5720.27
472.77	5717.93
472.95	5863.04
473.13	5996.45
473.31	5841.98
473.49	5795.17
473.67	5951.98
473.85	5853.68
474.03	5898.15
474.21	5832.62
474.39	6106.46
474.57	6012.84
474.75	6094.76
474.93	6146.25
475.12	6153.27
475.30	6183.70
475.48	6153.27
475.66	6125.18
475.84	6267.95
476.02	6282.00
476.20	6183.70
476.38	6494.99
476.56	6516.05
476.74	6492.65
476.92	6649.46
477.10	6586.27
477.28	6715.00
477.46	6693.93
477.64	6600.31
477.82	6623.72
478.00	6937.35
478.18	6911.60
478.36	6839.05
478.54	7222.89
478.72	7021.61
478.90	7293.11
479.08	7054.37
479.26	7183.10
479.44	7269.70
479.62	7267.36
479.80	7349.28
479.98	7466.31
480.16	7501.42
480.34	7513.12
480.52	7644.19
480.70	7801.01
480.88	7644.19
481.06	7817.39
481.24	7742.49
481.41	7852.50
481.59	7735.47
481.77	8212.94
481.95	7957.82
482.13	8021.02
482.31	8079.53
482.49	8194.22
482.67	8383.80
482.85	8418.91
483.03	8477.42
483.21	8486.78
483.39	8580.40
483.57	8650.62
483.74	8737.22
483.92	8725.52
484.10	8659.98
484.28	8805.10
484.46	8877.65
484.64	9179.58
484.82	9114.05
485.00	9184.26
485.18	9231.07
485.35	9596.20
485.53	9277.88
485.71	9415.98
485.89	9659.39
486.07	9460.45
486.25	9582.15
486.43	9659.39
486.61	9753.01
486.78	9872.38
486.96	9926.21
487.14	10071.33
487.32	10345.17
487.50	10033.88
487.68	10176.65
487.85	10635.39
488.03	10162.61
488.21	10670.50
488.39	10324.10
488.57	10743.06
488.75	10471.56
488.92	10719.65
489.10	10970.09
489.28	10820.30
489.46	11030.94
489.64	11255.64
489.81	11288.40
489.99	11316.49
490.17	11236.91
490.35	11482.67
490.53	11318.83
490.70	11639.48
490.88	11782.26
491.06	11840.77
491.24	11616.08
491.41	11597.35
491.59	12030.35
491.77	11866.52
491.95	12154.40
492.13	12126.32
492.30	12070.14
492.48	12280.79
492.66	12498.46
492.84	12383.77
493.01	12524.21
493.19	12568.68
493.37	12606.13
493.54	12730.17
493.72	12882.31
493.90	13006.36
494.08	12980.61
494.25	13092.96
494.43	13249.77
494.61	13362.12
494.79	13240.41
494.96	13205.30
495.14	13383.18
495.32	13406.59
495.49	13586.81
495.67	13376.16
495.85	13961.30
496.02	13848.95
496.20	14003.43
496.38	13947.25
496.55	14038.53
496.73	13975.34
496.91	14340.46
497.09	13958.96
497.26	14260.88
497.44	14328.76
497.62	14544.09
497.79	14710.27
497.97	14574.52
498.14	14640.05
498.32	14757.08
498.50	14684.52
498.67	15040.28
498.85	14923.26
499.03	15199.44
499.20	15309.44
499.38	14927.94
499.56	15295.40
499.73	14953.68
499.91	15169.01
500.08	15503.71
500.26	15321.15
500.44	15365.62
500.61	15393.70
500.79	15618.39
500.97	15885.22
501.14	15800.96
501.32	15405.41
501.49	15613.71
501.67	15833.72
501.84	15695.63
502.02	16013.95
502.20	15917.98
502.37	16102.89
502.55	16187.14
502.72	16315.87
502.90	16386.09
503.07	16308.85
503.25	16273.74
503.43	16374.39
503.60	16552.27
503.78	16526.52
503.95	16472.69
504.13	16479.71
504.30	16596.74
504.48	16575.67
504.65	16978.25
504.83	16774.62
505.01	17078.89
505.18	16870.58
505.36	17167.83
505.53	17123.36
505.71	16957.18
505.88	17165.49
506.06	16849.52
506.23	17151.45
506.41	17179.53
506.58	17657.00
506.76	17502.53
506.93	17565.72
507.11	17301.24
507.28	17446.35
507.46	17245.07
507.63	17561.04
507.81	17832.54
507.98	17664.02
508.16	17671.04
508.33	17879.35
508.50	17916.80
508.68	17881.69
508.85	18183.62
509.03	17898.08
509.20	17951.91
509.38	18415.34
509.55	18349.80
509.73	18265.54
509.90	18258.52
510.08	18541.72
510.25	18504.28
510.42	18642.37
510.60	18490.23
510.77	18827.27
510.95	18658.75
511.12	18640.03
511.30	18731.31
511.47	18649.39
511.64	18684.50
511.82	18963.02
511.99	18792.16
512.17	19283.67
512.34	18904.51
512.51	18963.02
512.69	19257.93
512.86	19246.23
513.04	19541.13
513.21	19711.99
513.38	19456.87
513.56	19459.21
513.73	19569.22
513.90	19522.41
514.08	19419.42
514.25	19494.32
514.43	19784.55
514.60	19814.98
514.77	20030.30
514.95	19639.44
515.12	19667.52
515.29	19962.43
515.47	19880.51
515.64	19939.02
515.81	20173.08
515.99	20175.42
516.16	20339.26
516.33	20463.30
516.51	20318.19
516.68	20133.29
516.85	20166.06
517.03	20470.33
517.20	20404.79
517.37	20465.64
517.54	20819.07
517.72	20699.70
517.89	20510.11
518.06	20676.29
518.24	20418.83
518.41	20507.77
518.58	20645.87
518.75	20816.72
518.93	20868.22
519.10	21076.52
519.27	21057.80
519.45	20704.38
519.62	21064.82
519.79	21076.52
519.96	20959.50
520.14	21242.70
520.31	21195.89
520.48	21750.60
520.65	21060.14
520.83	21448.67
521.00	21514.20
521.17	21523.57
521.34	21561.02
521.52	21544.63
521.69	21572.72
521.86	21432.29
522.03	21675.70
522.20	21832.52
522.38	21612.51
522.55	21783.37
522.72	21841.88
522.89	22001.04
523.07	22242.11
523.24	22244.45
523.41	22473.82
523.58	21816.13
523.75	22162.53
523.92	21766.98
524.10	22089.98
524.27	22548.72
524.44	22455.10
524.61	22443.40
524.78	22361.48
524.96	21954.22
525.13	22527.66
525.30	22368.50
525.47	22476.16
525.64	22541.70
525.81	22789.80
525.98	22864.69
526.16	22721.92
526.33	23007.47
526.50	22860.01
526.67	22628.30
526.84	22611.92
527.01	22796.82
527.18	23208.75
527.36	22904.48
527.53	23398.34
527.70	23213.43
527.87	23248.54
528.04	23068.32
528.21	23094.07
528.38	23187.69
528.55	23005.13
528.72	23318.76
528.89	23393.65
529.07	23386.63
529.24	23344.50
529.41	23524.72
529.58	23454.51
529.75	23611.32
529.92	23580.90
530.09	23538.77
530.26	23662.82
530.43	23917.93
530.60	23456.85
530.77	23857.08
530.94	23796.23
531.11	23648.77
531.28	23452.17
531.46	23515.36
531.63	23843.04
531.80	24297.10
531.97	24025.60
532.14	24266.67
532.31	23747.08
532.48	23861.76
532.65	24470.30
532.82	23985.81
532.99	24084.11
533.16	24189.44
533.33	24442.21
533.50	24304.12
533.67	24456.26
533.84	24388.38
534.01	24453.92
534.18	24170.71
534.35	24472.64
534.52	24325.19
534.69	24540.52
534.86	24666.91
535.03	24592.01
535.20	24526.47
535.37	24306.46
535.54	24830.74
535.71	24676.27
535.88	24540.52
536.05	24666.91
536.22	24547.54
536.38	25036.71
536.55	24786.27
536.72	24769.89
536.89	24767.55
537.06	24673.93
537.23	24915.00
537.40	25097.56
537.57	25109.27
537.74	25317.57
537.91	25413.54
538.08	25069.48
538.25	25322.26
538.42	25083.52
538.59	25069.48
538.75	25046.07
538.92	25256.72
539.09	25509.50
539.26	25317.57
539.43	25582.06
539.60	25097.56
539.77	25289.49
539.94	25682.70
540.11	25436.94
540.28	25500.14
540.44	26052.50
540.61	25359.70
540.78	25479.07
540.95	25752.91
541.12	25905.05
541.29	25717.81
541.46	25656.95
541.62	25635.89
541.79	25570.35
541.96	25420.56
542.13	25724.83
542.30	26108.68
542.47	25975.27
542.63	26038.46
542.80	25975.27
542.97	25891.01
543.14	26396.56
543.31	26511.25
543.48	26073.57
543.64	26527.63
543.81	26434.01
543.98	26466.78
544.15	26644.66
544.32	26651.68
544.48	26780.41
544.65	26359.11
544.82	26632.96
544.99	26724.24
545.16	26728.92
545.32	26279.54
545.49	26930.20
545.66	26733.60
545.83	26958.29
546.00	26904.46
546.16	26787.43
546.33	26675.09
546.50	26555.72
546.67	27246.18
546.83	26717.22
547.00	26775.73
547.17	27117.45
547.34	27058.93
547.50	26988.72
547.67	27302.35
547.84	26883.39
548.00	26916.16
548.17	27239.15
548.34	27105.74
548.51	27154.90
548.67	26981.70
548.84	27185.32
549.01	27150.21
549.18	26998.08
549.34	27285.97
549.51	27208.73
549.68	27108.08
549.84	26981.70
550.01	27725.99
550.18	27236.81
550.34	27316.39
550.51	27742.37
550.68	27896.85
550.84	27328.10
551.01	27765.78
551.18	27370.22
551.34	27498.95
551.51	27744.71
551.68	27419.38
551.84	27323.41
552.01	27850.03
552.18	27667.47
552.34	27782.16
552.51	27824.29
552.68	27646.41
552.84	27674.49
553.01	28109.83
553.18	27508.32
553.34	27859.40
553.51	27992.81
553.67	27962.38
553.84	28184.73
554.01	27924.93
554.17	28011.53
554.34	27941.32
554.51	27791.52
554.67	28158.99
554.84	28414.10
555.00	27833.65
555.17	28056.00
555.33	28013.87
555.50	28130.90
555.67	28048.98
555.83	28261.97
556.00	27997.49
556.16	28535.81
556.33	28292.40
556.50	28212.82
556.66	28418.78
556.83	28212.82
556.99	28362.61
557.16	28587.30
557.32	28498.36
557.49	28687.95
557.65	28353.25
557.82	28006.85
557.98	28561.56
558.15	28357.93
558.32	28603.69
558.48	28503.04
558.65	28416.44
558.81	28744.12
558.98	28540.49
559.14	28421.13
559.31	28315.80
559.47	28645.82
559.64	28723.05
559.80	28835.40
559.97	28819.02
560.13	28800.29
560.30	28821.36
560.46	28985.19
560.63	28861.15
560.79	28713.69
560.96	28971.15
561.12	28580.28
561.29	28772.21
561.45	28760.50
561.61	28582.62
561.78	28765.18
561.94	28790.93
562.11	28872.85
562.27	28980.51
562.44	28624.75
562.60	29123.29
562.77	28734.76
562.93	28774.55
563.10	29041.37
563.26	28783.91
563.42	29170.10
563.59	29113.92
563.75	29088.18
563.92	29137.33
564.08	28919.66
564.24	29198.18
564.41	28690.29
564.57	28641.14
564.74	28774.55
564.90	29160.73
565.07	29172.44
565.23	29097.54
565.39	29413.51
565.56	29149.03
565.72	29074.13
565.88	29270.74
566.05	29205.20
566.21	28929.02
566.38	29125.63
566.54	29240.31
566.70	29303.51
566.87	29216.91
567.03	29041.37
567.19	29656.93
567.36	29685.01
567.52	28893.91
567.68	29331.59
567.85	29078.82
568.01	29298.83
568.17	29312.87
568.34	29560.97
568.50	29226.27
568.66	29294.14
568.83	29720.12
568.99	29158.39
569.15	29376.06
569.32	29364.36
569.48	29235.63
569.64	29556.28
569.81	29495.43
569.97	29252.02
570.13	29266.06
570.30	29336.27
570.46	29542.24
570.62	29701.40
570.78	29207.55
570.95	29383.09
571.11	29455.64
571.27	29109.24
571.43	29472.03
571.60	29343.30
571.76	29429.90
571.92	29631.18
572.09	29628.84
572.25	29628.84
572.41	29757.57
572.57	29586.71
572.74	29696.72
572.90	29535.22
573.06	29516.50
573.22	29376.06
573.38	29343.30
573.55	29521.18
573.71	29539.90
573.87	29654.59
574.03	29631.18
574.20	29294.14
574.36	29553.94
574.52	29841.83
574.68	29783.32
574.84	29799.70
575.01	29640.54
575.17	29537.56
575.33	30099.29
575.49	29823.11
575.65	29455.64
575.82	29837.15
575.98	29542.24
576.14	29926.09
576.30	29434.58
576.46	29797.36
576.62	29703.74
576.79	29465.00
576.95	29851.19
577.11	29755.23
577.27	29970.56
577.43	29923.75
577.59	29530.54
577.75	29771.61
577.92	29340.96
578.08	29804.38
578.24	29663.95
578.40	29790.34
578.56	29764.59
578.72	29757.57
578.88	30298.23
579.04	30213.98
579.21	29530.54
579.37	29965.88
579.53	30075.88
579.69	29937.79
579.85	29809.06
580.01	29701.40
580.17	29668.63
580.33	29785.66
580.49	29731.83
580.65	30033.75
580.82	29851.19
580.98	29682.67
581.14	29823.11
581.30	30061.84
581.46	29577.35
581.62	29867.58
581.78	29738.85
581.94	29652.25
582.10	29635.86
582.26	29701.40
582.42	30206.95
582.58	30038.44
582.74	30167.16
582.90	29867.58
583.06	30146.10
583.22	29923.75
583.38	30008.01
583.54	29656.93
583.70	30057.16
583.86	30022.05
584.02	29722.46
584.18	30258.45
584.34	30012.69
584.50	29820.77
584.66	30265.47
584.82	29748.21
584.98	30106.31
585.14	30162.48
585.30	29584.37
585.46	29708.42
585.62	29785.66
585.78	29582.03
585.94	29570.33
586.10	29692.04
586.26	30064.18
586.42	30302.92
586.58	30122.69
586.74	29766.93
586.90	29898.00
587.06	29872.26
587.22	30054.82
587.38	29752.89
587.54	30347.39
587.70	30501.86
587.86	30522.93
588.02	30122.69
588.18	30326.32
588.34	29788.00
588.49	30075.88
588.65	29717.78
588.81	29923.75
588.97	30031.41
589.13	30216.32
589.29	30036.09
589.45	30288.87
589.61	30284.19
589.77	30661.02
589.93	30518.25
590.08	30141.42
590.24	30115.67
590.40	30356.75
590.56	30256.11
590.72	29883.96
590.88	29780.98
591.04	30286.53
591.20	30600.16
591.35	30164.82
591.51	30136.74
591.67	30562.72
591.83	30646.97
591.99	30309.94
