SpectraSuite Data File
++++++++++++++++++++++++++++++++++++
Date: Fri Oct 18 13:58:00 GMT-05:00 2013
User: bianchi
Dark Spectrum Present: No
Reference Spectrum Present: No
Number of Sampled Component Spectra: 1
Spectrometers: USB2+H05261
Integration Time (usec): 50000 (USB2+H05261)
Spectra Averaged: 1 (USB2+H05261)
Boxcar Smoothing: 0 (USB2+H05261)
Correct for Electrical Dark: No (USB2+H05261)
Strobe/Lamp Enabled: No (USB2+H05261)
Correct for Detector Non-linearity: No (USB2+H05261)
Correct for Stray Light: No (USB2+H05261)
Number of Pixels in Processed Spectrum: 2048
>>>>>Begin Processed Spectral Data<<<<<
365.73	0.00
365.92	0.00
366.12	0.00
366.32	0.00
366.52	0.00
366.72	0.00
366.91	0.00
367.11	0.00
367.31	0.00
367.51	0.00
367.70	0.00
367.90	0.00
368.10	0.00
368.30	0.00
368.49	0.00
368.69	0.00
368.89	0.00
369.09	0.00
369.28	0.00
369.48	0.00
369.68	0.00
369.87	0.00
370.07	0.00
370.27	0.00
370.47	0.00
370.66	49.15
370.86	79.58
371.06	102.98
371.25	168.52
371.45	128.73
371.65	236.39
371.84	86.60
372.04	163.84
372.24	203.63
372.44	203.63
372.63	198.95
372.83	229.37
373.03	187.24
373.22	227.03
373.42	222.35
373.62	276.18
373.81	201.29
374.01	273.84
374.21	257.46
374.40	238.73
374.60	248.10
374.79	238.73
374.99	224.69
375.19	301.93
375.38	304.27
375.58	308.95
375.78	320.65
375.97	297.25
376.17	236.39
376.37	313.63
376.56	168.52
376.76	283.20
376.95	266.82
377.15	180.22
377.35	210.65
377.54	318.31
377.74	245.76
377.93	379.17
378.13	266.82
378.33	304.27
378.52	292.57
378.72	320.65
378.91	238.73
379.11	243.42
379.31	285.55
379.50	320.65
379.70	245.76
379.89	299.59
380.09	266.82
380.28	325.33
380.48	325.33
380.68	311.29
380.87	311.29
381.07	257.46
381.26	341.72
381.46	351.08
381.65	325.33
381.85	308.95
382.04	362.78
382.24	376.83
382.43	344.06
382.63	372.15
382.83	407.25
383.02	341.72
383.22	372.15
383.41	367.46
383.61	468.11
383.80	351.08
384.00	344.06
384.19	337.04
384.39	376.83
384.58	409.59
384.78	332.36
384.97	400.23
385.17	386.19
385.36	386.19
385.56	449.38
385.75	393.21
385.95	362.78
386.14	440.02
386.34	397.89
386.53	290.23
386.72	395.55
386.92	428.32
387.11	433.00
387.31	458.74
387.50	484.49
387.70	430.66
387.89	428.32
388.09	423.64
388.28	456.40
388.48	465.77
388.67	442.36
388.86	458.74
389.06	498.53
389.25	514.92
389.45	505.56
389.64	472.79
389.84	472.79
390.03	528.96
390.22	540.66
390.42	550.03
390.61	447.04
390.81	461.09
391.00	557.05
391.19	521.94
391.39	566.41
391.58	564.07
391.78	585.13
391.97	524.28
392.16	510.24
392.36	627.26
392.55	545.34
392.75	552.37
392.94	578.11
393.13	575.77
393.33	505.56
393.52	540.66
393.71	613.22
393.91	559.39
394.10	564.07
394.29	514.92
394.49	531.30
394.68	601.52
394.88	507.90
395.07	653.01
395.26	697.48
395.46	657.69
395.65	716.20
395.84	585.13
396.04	631.94
396.23	653.01
396.42	753.65
396.62	636.63
396.81	723.23
397.00	678.76
397.19	685.78
397.39	660.03
397.58	697.48
397.77	667.05
397.97	765.36
398.16	758.33
398.35	709.18
398.55	737.27
398.74	667.05
398.93	791.10
399.12	697.48
399.32	718.54
399.51	711.52
399.70	751.31
399.90	718.54
400.09	849.61
400.28	748.97
400.47	798.12
400.67	875.36
400.86	779.40
401.05	802.80
401.24	828.55
401.44	837.91
401.63	854.30
401.82	805.14
402.01	727.91
402.21	826.21
402.40	868.34
402.59	819.19
402.78	786.42
402.97	830.89
403.17	812.17
403.36	891.74
403.55	873.02
403.74	945.58
403.93	889.40
404.13	1050.90
404.32	936.21
404.51	873.02
404.70	882.38
404.89	847.27
405.09	1001.75
405.28	971.32
405.47	1008.77
405.66	950.26
405.85	1006.43
406.05	950.26
406.24	1018.13
406.43	1020.47
406.62	966.64
406.81	1114.10
407.00	987.71
407.20	966.64
407.39	1013.45
407.58	1111.75
407.77	1043.88
407.96	1095.37
408.15	1107.07
408.34	1121.12
408.54	1135.16
408.73	1111.75
408.92	1125.80
409.11	1160.91
409.30	1200.69
409.49	1036.86
409.68	1142.18
409.87	1170.27
410.07	1156.22
410.26	1116.44
410.45	1078.99
410.64	1184.31
410.83	1310.70
411.02	1245.16
411.21	1282.61
411.40	1277.93
411.59	1338.79
411.78	1359.85
411.98	1226.44
412.17	1324.74
412.36	1348.15
412.55	1357.51
412.74	1320.06
412.93	1352.83
413.12	1320.06
413.31	1462.83
413.50	1404.32
413.69	1399.64
413.88	1467.52
414.07	1476.88
414.26	1486.24
414.45	1472.20
414.64	1561.14
414.83	1547.09
415.02	1535.39
415.22	1523.69
415.41	1612.63
415.60	1547.09
415.79	1614.97
415.98	1624.33
416.17	1593.90
416.36	1589.22
416.55	1661.78
416.74	1682.85
416.93	1715.61
417.12	1739.02
417.31	1806.89
417.50	1724.97
417.69	1720.29
417.88	1724.97
418.07	1696.89
418.26	1703.91
418.45	1816.26
418.64	1872.43
418.83	1781.15
419.02	1799.87
419.21	1863.07
419.39	1837.32
419.58	1870.09
419.77	1891.15
419.96	1856.04
420.15	1949.67
420.34	1802.21
420.53	1851.36
420.72	2026.90
420.91	1937.96
421.10	1926.26
421.29	2012.86
421.48	1973.07
421.67	1928.60
421.86	1952.01
422.05	2036.27
422.24	1919.24
422.43	1982.43
422.61	2150.95
422.80	2094.78
422.99	2101.80
423.18	2141.59
423.37	2085.42
423.56	2001.16
423.75	2143.93
423.94	1930.94
424.13	1926.26
424.32	1998.82
424.50	1952.01
424.69	2094.78
424.88	2087.76
425.07	2008.18
425.26	1947.33
425.45	2169.68
425.64	1970.73
425.83	2059.67
426.01	2193.08
426.20	2076.06
426.39	2108.82
426.58	2045.63
426.77	2129.89
426.96	2193.08
427.15	2003.50
427.33	2207.13
427.52	2190.74
427.71	2237.55
427.90	2228.19
428.09	2228.19
428.28	2232.87
428.46	2349.90
428.65	2251.60
428.84	2209.47
429.03	2349.90
429.22	2209.47
429.40	2328.83
429.59	2260.96
429.78	2188.40
429.97	2125.21
430.16	2265.64
430.34	2420.11
430.53	2450.54
430.72	2289.04
430.91	2305.43
431.10	2267.98
431.28	2366.28
431.47	2401.39
431.66	2443.52
431.85	2356.92
432.03	2424.80
432.22	2574.59
432.41	2396.71
432.60	2450.54
432.79	2471.61
432.97	2553.52
433.16	2483.31
433.35	2413.09
433.54	2602.68
433.72	2668.21
433.91	2581.61
434.10	2684.59
434.28	2520.76
434.47	2567.57
434.66	2593.31
434.85	2663.53
435.03	2637.78
435.22	2686.94
435.41	2703.32
435.59	2745.45
435.78	2778.22
435.97	2668.21
436.16	2672.89
436.34	2597.99
436.53	2647.15
436.72	2729.06
436.90	2658.85
437.09	2766.51
437.28	2686.94
437.46	2740.77
437.65	2778.22
437.84	2939.71
438.02	2913.97
438.21	2785.24
438.40	2780.56
438.58	3061.42
438.77	2946.73
438.96	2909.29
439.14	3021.63
439.33	2960.78
439.52	3187.81
439.70	3148.02
439.89	2956.10
440.08	3206.53
440.26	3082.49
440.45	3173.77
440.63	3176.11
440.82	3201.85
441.01	3157.38
441.19	3208.87
441.38	3241.64
441.57	3229.94
441.75	3239.30
441.94	3363.35
442.12	3377.39
442.31	3368.03
442.50	3421.86
442.68	3393.78
442.87	3438.25
443.05	3396.12
443.24	3417.18
443.43	3398.46
443.61	3487.40
443.80	3574.00
443.98	3463.99
444.17	3288.45
444.35	3524.85
444.54	3569.32
444.73	3637.19
444.91	3449.95
445.10	3368.03
445.28	3344.63
445.47	3433.57
445.65	3487.40
445.84	3492.08
446.02	3435.91
446.21	3581.02
446.39	3616.13
446.58	3562.30
446.77	3590.38
446.95	3637.19
447.14	3548.25
447.32	3590.38
447.51	3550.59
447.69	3698.05
447.88	3555.27
448.06	3531.87
448.25	3520.17
448.43	3676.98
448.62	3665.28
448.80	3646.55
448.99	3592.72
449.17	3613.79
449.36	3723.79
449.54	3658.26
449.73	3637.19
449.91	3681.66
450.10	3639.53
450.28	3801.03
450.46	3845.50
450.65	3831.46
450.83	3751.88
451.02	3784.65
451.20	4004.66
451.39	4004.66
451.57	3840.82
451.76	3794.01
451.94	3857.20
452.13	3929.76
452.31	3868.91
452.49	3904.01
452.68	3880.61
452.86	3836.14
453.05	3936.78
453.23	4046.79
453.42	3932.10
453.60	3836.14
453.78	4037.42
453.97	4105.30
454.15	4070.19
454.34	4030.40
454.52	4011.68
454.70	4067.85
454.89	3976.57
455.07	4044.45
455.26	4098.28
455.44	4168.49
455.62	4205.94
455.81	4117.00
455.99	4081.89
456.17	4133.39
456.36	4138.07
456.54	4248.07
456.73	4372.12
456.91	4411.91
457.09	4341.69
457.28	4514.89
457.46	4418.93
457.64	4533.62
457.83	4358.08
458.01	4131.05
458.19	4479.79
458.38	4437.66
458.56	4442.34
458.74	4449.36
458.93	4664.69
459.11	4592.13
459.29	4498.51
459.48	4657.67
459.66	4491.49
459.84	4695.11
460.03	4601.49
460.21	4624.90
460.39	4587.45
460.57	4685.75
460.76	4770.01
460.94	4734.90
461.12	4725.54
461.31	4791.08
461.49	4784.06
461.67	4657.67
461.85	4947.89
462.04	4870.65
462.22	5090.67
462.40	4784.06
462.59	4901.08
462.77	4751.29
462.95	4774.69
463.13	4894.06
463.32	4865.97
463.50	5013.43
463.68	4978.32
463.86	5076.62
464.05	4926.83
464.23	4917.47
464.41	5001.72
464.59	4847.25
464.78	5116.41
464.96	4968.96
465.14	4854.27
465.32	5071.94
465.50	5158.54
465.69	5093.01
465.87	5088.32
466.05	5114.07
466.23	5207.69
466.41	5050.88
466.60	5305.99
466.78	5123.43
466.96	5123.43
467.14	5029.81
467.32	5114.07
467.51	5210.03
467.69	5165.56
467.87	5111.73
468.05	5252.16
468.23	5399.62
468.41	5217.05
468.60	5095.35
468.78	5240.46
468.96	5362.17
469.14	5317.70
469.32	5425.36
469.50	5320.04
469.69	5584.52
469.87	5495.58
470.05	5659.42
470.23	5582.18
470.41	5603.24
470.59	5584.52
470.77	5481.53
470.95	5465.15
471.14	5722.61
471.32	5579.84
471.50	5638.35
471.68	5776.44
471.86	5638.35
472.04	5706.23
472.22	5928.58
472.40	5692.18
472.58	5856.02
472.77	5778.78
472.95	6003.47
473.13	6031.56
473.31	5834.96
473.49	5930.92
473.67	6005.81
473.85	5944.96
474.03	6176.67
474.21	5968.37
474.39	6197.74
474.57	6179.01
474.75	6162.63
474.93	6333.49
475.12	6279.66
475.30	6485.62
475.48	6249.23
475.66	6396.68
475.84	6434.13
476.02	6551.16
476.20	6368.60
476.38	6612.01
476.56	6597.97
476.74	6698.61
476.92	6595.63
477.10	6731.38
477.28	6698.61
477.46	6799.26
477.64	6729.04
477.82	6848.41
478.00	7190.13
478.18	7049.69
478.36	7232.26
478.54	7215.87
478.72	7239.28
478.90	7159.70
479.08	7555.25
479.26	7611.42
479.44	7314.17
479.62	7391.41
479.80	7669.94
479.98	7557.59
480.16	7721.43
480.34	7667.60
480.52	7889.95
480.70	7990.59
480.88	7737.81
481.06	8046.76
481.24	7976.55
481.41	8105.28
481.59	8072.51
481.77	8287.84
481.95	8198.90
482.13	8294.86
482.31	8255.07
482.49	8622.53
482.67	8320.60
482.85	8514.87
483.03	8744.24
483.21	8805.10
483.39	8734.88
483.57	8695.09
483.74	8947.87
483.92	8662.32
484.10	9039.15
484.28	9111.71
484.46	9116.39
484.64	9336.40
484.82	9289.59
485.00	9380.87
485.18	9345.76
485.35	9685.14
485.53	9514.28
485.71	9736.63
485.89	9755.35
486.07	9703.86
486.25	9675.77
486.43	9724.93
486.61	9956.64
486.78	10090.05
486.96	10183.67
487.14	10361.55
487.32	10310.06
487.50	10382.62
487.68	10487.94
487.85	10611.99
488.03	10693.91
488.21	10869.45
488.39	10768.80
488.57	10806.25
488.75	11037.97
488.92	11077.76
489.10	11339.90
489.28	11110.52
489.46	11213.51
489.64	11332.87
489.81	11459.26
489.99	11391.39
490.17	11768.21
490.35	11651.19
490.53	11700.34
490.70	12025.67
490.88	11903.96
491.06	12128.66
491.24	12020.99
491.41	11962.48
491.59	12226.96
491.77	12334.62
491.95	12351.01
492.13	12409.52
492.30	12540.59
492.48	12411.86
492.66	12732.51
492.84	12638.89
493.01	12915.08
493.19	12933.80
493.37	12695.07
493.54	13081.25
493.72	13214.66
493.90	13200.62
494.08	13331.69
494.25	13607.87
494.43	13507.23
494.61	13652.34
494.79	13490.85
494.96	13675.75
495.14	13708.52
495.32	13774.05
495.49	14141.52
495.67	13736.60
495.85	14104.07
496.02	14043.21
496.20	14136.84
496.38	14300.67
496.55	14223.44
496.73	14614.30
496.91	14326.42
497.09	14675.16
497.26	14759.42
497.44	14665.80
497.62	14635.37
497.79	14820.27
497.97	15063.69
498.14	14963.04
498.32	15419.45
498.50	15307.10
498.67	15297.74
498.85	15206.46
499.03	15260.29
499.20	15454.56
499.38	15346.89
499.56	15407.75
499.73	15651.16
499.91	15857.13
500.08	15913.30
500.26	15812.66
500.44	15988.20
500.61	15826.70
500.79	15777.55
500.97	16074.80
501.14	16229.27
501.32	16058.42
501.49	15932.03
501.67	16095.86
501.84	16173.10
502.02	16229.27
502.20	16290.13
502.37	16561.63
502.55	16456.31
502.72	16566.31
502.90	16348.64
503.07	16603.76
503.25	16477.37
503.43	16688.02
503.60	17013.35
503.78	16929.09
503.95	16952.50
504.13	17179.53
504.30	17039.10
504.48	17099.95
504.65	17104.64
504.83	17397.20
505.01	17509.55
505.18	17373.80
505.36	17572.74
505.53	17521.25
505.71	17528.27
505.88	17521.25
506.06	17446.35
506.23	17944.89
506.41	17528.27
506.58	17682.75
506.76	17799.77
506.93	17907.44
507.11	18167.24
507.28	17834.88
507.46	18349.80
507.63	18080.64
507.81	18508.96
507.98	18010.42
508.16	18094.68
508.33	17980.00
508.50	18345.12
508.68	18267.88
508.85	18307.67
509.03	18558.11
509.20	18600.24
509.38	18937.27
509.55	19007.49
509.73	18698.54
509.90	18640.03
510.08	18920.89
510.25	18513.64
510.42	19040.26
510.60	19246.23
510.77	19042.60
510.95	19061.32
511.12	18913.87
511.30	19091.75
511.47	19190.05
511.64	19309.42
511.82	19620.71
511.99	19353.89
512.17	19676.88
512.34	19517.73
512.51	19431.13
512.69	19491.98
512.86	19784.55
513.04	19845.40
513.21	20290.10
513.38	19920.30
513.56	19990.52
513.73	19749.44
513.90	19803.27
514.08	20163.72
514.25	20407.13
514.43	20402.45
514.60	20212.87
514.77	20247.97
514.95	20568.63
515.12	20306.49
515.29	20458.62
515.47	20531.18
515.64	20732.47
515.81	20397.77
515.99	20793.32
516.16	20496.07
516.33	20723.10
516.51	20863.54
516.68	20781.62
516.85	20929.07
517.03	21069.50
517.20	21022.69
517.37	20748.85
517.54	21146.74
517.72	21003.97
517.89	21160.78
518.06	21331.64
518.24	21043.76
518.41	21018.01
518.58	21476.76
518.75	21275.47
518.93	21200.57
519.10	21301.22
519.27	21495.48
519.45	21371.43
519.62	21528.25
519.79	21692.08
519.96	21582.08
520.14	21668.68
520.31	21687.40
520.48	21972.95
520.65	22129.77
520.83	22057.21
521.00	21970.61
521.17	21956.57
521.34	21975.29
521.52	22359.14
521.69	22153.17
521.86	22441.06
522.03	22258.49
522.20	22492.55
522.38	21907.41
522.55	22424.67
522.72	22169.55
522.89	22314.67
523.07	22546.38
523.24	22387.22
523.41	22977.04
523.58	22522.98
523.75	22684.47
523.92	22665.75
524.10	22766.39
524.27	22878.74
524.44	22946.61
524.61	23250.88
524.78	22890.44
524.96	23143.22
525.13	23056.62
525.30	22970.02
525.47	23012.15
525.64	23248.54
525.81	23304.71
525.98	23250.88
526.16	23161.94
526.33	23222.80
526.50	23384.29
526.67	23442.81
526.84	23405.36
527.01	23339.82
527.18	23665.16
527.36	23840.70
527.53	23344.50
527.70	24156.67
527.87	23864.10
528.04	23784.52
528.21	24002.19
528.38	23667.50
528.55	24034.96
528.72	23733.03
528.89	24191.78
529.07	23838.36
529.24	24147.31
529.41	24107.52
529.58	24011.56
529.75	23896.87
529.92	24191.78
530.09	23908.57
530.26	24297.10
530.43	24189.44
530.60	24102.84
530.77	24137.94
530.94	24510.09
531.11	24177.73
531.28	24395.40
531.46	24444.56
531.63	24517.11
531.80	24709.04
531.97	24954.79
532.14	25013.31
532.31	24844.79
532.48	24711.38
532.65	24528.81
532.82	24615.41
532.99	24723.08
533.16	24964.15
533.33	24858.83
533.50	25291.83
533.67	25125.65
533.84	24800.32
534.01	24917.34
534.18	25017.99
534.35	25132.67
534.52	25050.75
534.69	25277.79
534.86	25095.22
535.03	25202.89
535.20	25223.95
535.37	25568.01
535.54	25235.66
535.71	25102.25
535.88	25228.63
536.05	25186.50
536.22	25486.09
536.38	25446.30
536.55	25432.26
536.72	25642.91
536.89	25853.56
537.06	25865.26
537.23	25865.26
537.40	25788.02
537.57	25837.17
537.74	26129.74
537.91	26246.77
538.08	25968.24
538.25	25811.43
538.42	26099.31
538.59	25778.66
538.75	25724.83
538.92	25591.42
539.09	26101.65
539.26	26073.57
539.43	26068.89
539.60	26335.71
539.77	26185.91
539.94	25860.58
540.11	26209.32
540.28	26361.45
540.44	26204.64
540.61	25970.58
540.78	26206.98
540.95	26628.27
541.12	26061.87
541.29	26153.15
541.46	26801.47
541.62	26209.32
541.79	26424.65
541.96	26178.89
542.13	26078.25
542.30	26497.20
542.47	26794.45
542.63	26654.02
542.80	26668.06
542.97	27063.61
543.14	26831.90
543.31	26764.03
543.48	26965.31
543.64	26958.29
543.81	27213.41
543.98	27321.07
544.15	27470.87
544.32	27091.70
544.48	27262.56
544.65	27171.28
544.82	26941.91
544.99	26806.16
545.16	27229.79
545.32	27103.40
545.49	27356.18
545.66	27484.91
545.83	27812.59
546.00	27365.54
546.16	27035.53
546.33	27206.39
546.50	27264.90
546.67	27342.14
546.83	27072.98
547.00	27424.06
547.17	27309.37
547.34	27730.67
547.50	27777.48
547.67	28322.82
547.84	27606.62
548.00	27826.63
548.17	27889.82
548.34	27758.75
548.51	27847.69
548.67	28311.12
548.84	27960.04
549.01	28250.27
549.18	28041.96
549.34	27838.33
549.51	28086.43
549.68	28034.94
549.84	27978.76
550.01	27672.15
550.18	28149.62
550.34	28156.64
550.51	28299.42
550.68	28280.69
550.84	28453.89
551.01	28098.13
551.18	28301.76
551.34	27936.63
551.51	27672.15
551.68	28346.23
551.84	28453.89
552.01	28304.10
552.18	28109.83
552.34	28126.22
552.51	28582.62
552.68	28177.71
552.84	28212.82
553.01	28568.58
553.18	28446.87
553.34	28912.64
553.51	28786.25
553.67	28599.01
553.84	29153.71
554.01	28893.91
554.17	28905.62
554.34	28643.48
554.51	29024.98
554.67	28692.63
554.84	28931.36
555.00	28425.81
555.17	29008.60
555.33	28828.38
555.50	28879.87
555.67	29209.89
555.83	28697.31
556.00	29055.41
556.16	29282.44
556.33	28804.97
556.50	28980.51
556.66	28980.51
556.83	29032.00
556.99	28996.90
557.16	29280.10
557.32	29193.50
557.49	29575.01
557.65	29013.28
557.82	29369.04
557.98	28826.04
558.15	29322.23
558.32	29867.58
558.48	29329.25
558.65	29221.59
558.81	29523.52
558.98	29181.80
559.14	29551.60
559.31	29436.92
559.47	29116.26
559.64	29572.67
559.80	29092.86
559.97	29935.45
560.13	29514.16
560.30	29584.37
560.46	29748.21
560.63	28994.56
560.79	29928.43
560.96	29626.50
561.12	29350.32
561.29	29490.75
561.45	29790.34
561.61	29553.94
561.78	29738.85
561.94	29575.01
562.11	29553.94
562.27	30143.76
562.44	29940.13
562.60	29584.37
562.77	29347.98
562.93	29685.01
563.10	29809.06
563.26	29589.05
563.42	29844.17
563.59	30162.48
563.75	29785.66
563.92	29755.23
564.08	29425.22
564.24	30008.01
564.41	29670.97
564.57	29745.87
564.74	29947.15
564.90	30045.46
565.07	29811.40
565.23	30232.70
565.39	29778.64
565.56	30536.97
565.72	29900.34
565.88	29949.50
566.05	29811.40
566.21	29909.71
566.38	29909.71
566.54	29848.85
566.70	30356.75
566.87	30382.49
567.03	30405.90
567.19	30265.47
567.36	29755.23
567.52	30323.98
567.68	30195.25
567.85	29989.28
568.01	30426.96
568.17	30134.40
568.34	30284.19
568.50	30092.27
568.66	30258.45
568.83	30075.88
568.99	30375.47
569.15	30293.55
569.32	30316.96
569.48	29937.79
569.64	30239.72
569.81	30249.08
569.97	30209.29
570.13	30075.88
570.30	30394.20
570.46	30588.46
570.62	29956.52
570.78	30068.86
570.95	29893.32
571.11	30199.93
571.27	29982.26
571.43	29947.15
571.60	30504.20
571.76	30352.07
571.92	30293.55
572.09	30270.15
572.25	30602.50
572.41	30752.30
572.57	30560.37
572.74	30464.41
572.90	30288.87
573.06	30359.09
573.22	30120.35
573.38	30452.71
573.55	30295.89
573.71	30499.52
573.87	30501.86
574.03	30148.44
574.20	30553.35
574.36	29883.96
574.52	30115.67
574.68	30618.89
574.84	30382.49
575.01	30621.23
575.17	30705.49
575.33	30064.18
575.49	30298.23
575.65	30794.43
575.82	30567.40
575.98	30246.74
576.14	31005.08
576.30	30415.26
576.46	30281.85
576.62	30120.35
576.79	30490.16
576.95	30228.02
577.11	30422.28
577.27	30705.49
577.43	30740.60
577.59	30555.69
577.75	30450.37
577.92	30178.87
578.08	30405.90
578.24	30396.54
578.40	30291.21
578.56	30925.50
578.72	30515.90
578.88	30881.03
579.04	30836.56
579.21	30614.21
579.37	30316.96
579.53	31061.25
579.69	30532.29
579.85	30513.56
580.01	30656.34
580.17	30314.62
580.33	30817.83
580.49	30801.45
580.65	30529.95
580.82	30590.80
580.98	30866.98
581.14	31040.18
581.30	30441.01
581.46	30487.82
581.62	30375.47
581.78	30476.12
581.94	30195.25
582.10	30614.21
582.26	30993.37
582.42	30782.73
582.58	30686.76
582.74	30937.20
582.90	30721.87
583.06	30581.44
583.22	30792.09
583.38	30679.74
583.54	30890.39
583.70	30543.99
583.86	30604.84
584.02	30347.39
584.18	30771.02
584.34	31180.62
584.50	31175.94
584.66	30920.82
584.82	30286.53
584.98	30764.00
585.14	30764.00
585.30	30497.18
585.46	30771.02
585.62	30766.34
585.78	30721.87
585.94	30394.20
586.10	30925.50
586.26	30782.73
586.42	30911.46
586.58	30998.06
586.74	31192.32
586.90	30810.81
587.06	30672.72
587.22	30759.32
587.38	30768.68
587.54	30852.94
587.70	30871.67
587.86	30988.69
588.02	31159.55
588.18	31466.16
588.34	31058.91
588.49	30841.24
588.65	31030.82
588.81	30909.11
588.97	31239.13
589.13	30876.35
589.29	30902.09
589.45	30972.31
589.61	31232.11
589.77	31211.04
589.93	31175.94
590.08	31101.04
590.24	31199.34
590.40	30911.46
590.56	31150.19
590.72	30981.67
590.88	31082.31
591.04	31328.07
591.20	31613.62
591.35	31700.22
591.51	31269.56
591.67	31510.63
591.83	31414.67
591.99	31489.57
