SpectraSuite Data File
++++++++++++++++++++++++++++++++++++
Date: Fri Oct 18 13:58:13 GMT-05:00 2013
User: bianchi
Dark Spectrum Present: No
Reference Spectrum Present: No
Number of Sampled Component Spectra: 1
Spectrometers: USB2+H05261
Integration Time (usec): 50000 (USB2+H05261)
Spectra Averaged: 1 (USB2+H05261)
Boxcar Smoothing: 0 (USB2+H05261)
Correct for Electrical Dark: No (USB2+H05261)
Strobe/Lamp Enabled: No (USB2+H05261)
Correct for Detector Non-linearity: No (USB2+H05261)
Correct for Stray Light: No (USB2+H05261)
Number of Pixels in Processed Spectrum: 2048
>>>>>Begin Processed Spectral Data<<<<<
365.73	0.00
365.92	0.00
366.12	0.00
366.32	0.00
366.52	0.00
366.72	0.00
366.91	0.00
367.11	0.00
367.31	0.00
367.51	0.00
367.70	0.00
367.90	0.00
368.10	0.00
368.30	0.00
368.49	0.00
368.69	0.00
368.89	0.00
369.09	0.00
369.28	0.00
369.48	0.00
369.68	0.00
369.87	0.00
370.07	0.00
370.27	0.00
370.47	16.38
370.66	72.56
370.86	93.62
371.06	107.66
371.25	168.52
371.45	163.84
371.65	135.75
371.84	138.09
372.04	110.01
372.24	135.75
372.44	215.33
372.63	184.90
372.83	187.24
373.03	173.20
373.22	173.20
373.42	220.01
373.62	250.44
373.81	170.86
374.01	266.82
374.21	255.12
374.40	236.39
374.60	245.76
374.79	294.91
374.99	255.12
375.19	273.84
375.38	241.08
375.58	205.97
375.78	285.55
375.97	290.23
376.17	322.99
376.37	252.78
376.56	217.67
376.76	280.86
376.95	222.35
377.15	257.46
377.35	313.63
377.54	301.93
377.74	278.52
377.93	276.18
378.13	320.65
378.33	273.84
378.52	290.23
378.72	276.18
378.91	351.08
379.11	358.10
379.31	344.06
379.50	297.25
379.70	276.18
379.89	257.46
380.09	306.61
380.28	402.57
380.48	262.14
380.68	297.25
380.87	337.04
381.07	273.84
381.26	294.91
381.46	322.99
381.65	365.12
381.85	266.82
382.04	404.91
382.24	311.29
382.43	252.78
382.63	318.31
382.83	311.29
383.02	362.78
383.22	355.76
383.41	362.78
383.61	411.93
383.80	353.42
384.00	416.62
384.19	337.04
384.39	416.62
384.58	304.27
384.78	402.57
384.97	376.83
385.17	325.33
385.36	435.34
385.56	344.06
385.75	365.12
385.95	428.32
386.14	447.04
386.34	390.87
386.53	393.21
386.72	390.87
386.92	447.04
387.11	409.59
387.31	381.51
387.50	486.83
387.70	318.31
387.89	437.68
388.09	447.04
388.28	444.70
388.48	433.00
388.67	463.43
388.86	510.24
389.06	484.49
389.25	477.47
389.45	411.93
389.64	524.28
389.84	531.30
390.03	521.94
390.22	550.03
390.42	486.83
390.61	475.13
390.81	449.38
391.00	526.62
391.19	561.73
391.39	472.79
391.58	538.32
391.78	505.56
391.97	531.30
392.16	578.11
392.36	550.03
392.55	624.92
392.75	543.00
392.94	468.11
393.13	503.22
393.33	575.77
393.52	582.79
393.71	528.96
393.91	521.94
394.10	636.63
394.29	512.58
394.49	636.63
394.68	617.90
394.88	554.71
395.07	664.71
395.26	568.75
395.46	596.84
395.65	699.82
395.84	573.43
396.04	758.33
396.23	704.50
396.42	674.07
396.62	692.80
396.81	615.56
397.00	592.16
397.19	606.20
397.39	620.24
397.58	695.14
397.77	624.92
397.97	699.82
398.16	720.88
398.35	770.04
398.55	751.31
398.74	695.14
398.93	711.52
399.12	734.93
399.32	587.47
399.51	709.18
399.70	751.31
399.90	835.57
400.09	774.72
400.28	718.54
400.47	805.14
400.67	866.00
400.86	835.57
401.05	744.29
401.24	849.61
401.44	788.76
401.63	809.83
401.82	800.46
402.01	781.74
402.21	823.87
402.40	802.80
402.59	863.66
402.78	788.76
402.97	840.25
403.17	866.00
403.36	812.17
403.55	887.06
403.74	837.91
403.93	933.87
404.13	931.53
404.32	908.13
404.51	940.90
404.70	973.66
404.89	854.30
405.09	882.38
405.28	882.38
405.47	964.30
405.66	1046.22
405.85	1022.81
406.05	1018.13
406.24	1020.47
406.43	1064.94
406.62	1041.54
406.81	1109.41
407.00	1050.90
407.20	931.53
407.39	1111.75
407.58	1139.84
407.77	1088.35
407.96	1097.71
408.15	1036.86
408.34	1090.69
408.54	1156.22
408.73	1128.14
408.92	1165.59
409.11	1114.10
409.30	1158.57
409.49	1158.57
409.68	1153.88
409.87	1200.69
410.07	1177.29
410.26	1219.42
410.45	1158.57
410.64	1163.25
410.83	1242.82
411.02	1266.23
411.21	1245.16
411.40	1294.32
411.59	1263.89
411.78	1240.48
411.98	1329.42
412.17	1394.96
412.36	1345.81
412.55	1357.51
412.74	1390.28
412.93	1343.47
413.12	1357.51
413.31	1423.05
413.50	1397.30
413.69	1434.75
413.88	1448.79
414.07	1441.77
414.26	1483.90
414.45	1462.83
414.64	1446.45
414.83	1509.65
415.02	1535.39
415.22	1493.26
415.41	1579.86
415.60	1687.53
415.79	1643.06
415.98	1661.78
416.17	1540.07
416.36	1638.38
416.55	1717.95
416.74	1729.66
416.93	1694.55
417.12	1741.36
417.31	1795.19
417.50	1687.53
417.69	1809.23
417.88	1692.21
418.07	1860.73
418.26	1806.89
418.45	1760.08
418.64	1872.43
418.83	1830.30
419.02	1760.08
419.21	1774.13
419.39	1811.57
419.58	1858.39
419.77	1806.89
419.96	1921.58
420.15	1867.75
420.34	1909.88
420.53	1895.83
420.72	2022.22
420.91	1935.62
421.10	1944.99
421.29	2054.99
421.48	1968.39
421.67	1998.82
421.86	1944.99
422.05	1996.48
422.24	2047.97
422.43	2066.69
422.61	2071.37
422.80	2012.86
422.99	2052.65
423.18	2106.48
423.37	2054.99
423.56	1947.33
423.75	2069.03
423.94	1893.49
424.13	1928.60
424.32	1982.43
424.50	2094.78
424.69	2064.35
424.88	2129.89
425.07	1952.01
425.26	2064.35
425.45	2127.55
425.64	2136.91
425.83	2134.57
426.01	2214.15
426.20	2071.37
426.39	2165.00
426.58	2087.76
426.77	1949.67
426.96	2129.89
427.15	2106.48
427.33	2172.02
427.52	2115.84
427.71	2193.08
427.90	2113.50
428.09	2209.47
428.28	2150.95
428.46	2328.83
428.65	2160.31
428.84	2286.70
429.03	2176.70
429.22	2181.38
429.40	2331.17
429.59	2293.72
429.78	2244.57
429.97	2115.84
430.16	2296.07
430.34	2406.07
430.53	2445.86
430.72	2321.81
430.91	2326.49
431.10	2394.37
431.28	2359.26
431.47	2560.55
431.66	2361.60
431.85	2258.62
432.03	2413.09
432.22	2457.56
432.41	2530.12
432.60	2443.52
432.79	2499.69
432.97	2553.52
433.16	2464.58
433.35	2506.71
433.54	2506.71
433.72	2630.76
433.91	2590.97
434.10	2616.72
434.28	2562.89
434.47	2609.70
434.66	2675.23
434.85	2534.80
435.03	2586.29
435.22	2616.72
435.41	2698.64
435.59	2719.70
435.78	2562.89
435.97	2691.62
436.16	2810.98
436.34	2665.87
436.53	2651.83
436.72	2808.64
436.90	2747.79
437.09	2757.15
437.28	2743.11
437.46	2663.53
437.65	2801.62
437.84	2796.94
438.02	2764.17
438.21	2871.84
438.40	2799.28
438.58	2836.73
438.77	2977.16
438.96	2909.29
439.14	3000.57
439.33	2967.80
439.52	2911.63
439.70	2960.78
439.89	3166.74
440.08	3084.83
440.26	3049.72
440.45	3068.44
440.63	3138.66
440.82	3183.13
441.01	3138.66
441.19	3112.91
441.38	3269.73
441.57	3365.69
441.75	3255.69
441.94	3403.14
442.12	3307.18
442.31	3307.18
442.50	3389.10
442.68	3260.37
442.87	3391.44
443.05	3377.39
443.24	3379.73
443.43	3496.76
443.61	3499.10
443.80	3389.10
443.98	3440.59
444.17	3407.82
444.35	3466.33
444.54	3562.30
444.73	3440.59
444.91	3492.08
445.10	3372.71
445.28	3459.31
445.47	3386.76
445.65	3522.51
445.84	3405.48
446.02	3442.93
446.21	3459.31
446.39	3543.57
446.58	3634.85
446.77	3543.57
446.95	3531.87
447.14	3431.23
447.32	3588.04
447.51	3489.74
447.69	3578.68
447.88	3660.60
448.06	3555.27
448.25	3499.10
448.43	3513.14
448.62	3503.78
448.80	3536.55
448.99	3634.85
449.17	3644.21
449.36	3524.85
449.54	3658.26
449.73	3866.56
449.91	3801.03
450.10	3705.07
450.28	3784.65
450.46	3721.45
450.65	3801.03
450.83	3817.41
451.02	3845.50
451.20	3915.72
451.39	3850.18
451.57	3847.84
451.76	3730.81
451.94	3815.07
452.13	3913.38
452.31	3772.94
452.49	3918.06
452.68	3892.31
452.86	3927.42
453.05	3866.56
453.23	4028.06
453.42	4032.74
453.60	3789.33
453.78	4014.02
453.97	3936.78
454.15	3974.23
454.34	4030.40
454.52	4180.20
454.70	4077.21
454.89	4077.21
455.07	4058.49
455.26	4004.66
455.44	3971.89
455.62	4196.58
455.81	4133.39
455.99	4266.80
456.17	4273.82
456.36	4147.43
456.54	4358.08
456.73	4238.71
456.91	4273.82
457.09	4311.27
457.28	4395.53
457.46	4264.46
457.64	4500.85
457.83	4332.33
458.01	4388.50
458.19	4535.96
458.38	4440.00
458.56	4465.74
458.74	4521.92
458.93	4442.34
459.11	4463.40
459.29	4442.34
459.48	4477.44
459.66	4587.45
459.84	4510.21
460.03	4568.73
460.21	4599.15
460.39	4580.43
460.57	4624.90
460.76	4723.20
460.94	4744.27
461.12	4669.37
461.31	4524.26
461.49	4765.33
461.67	4690.43
461.85	4931.51
462.04	4751.29
462.22	4959.60
462.40	4858.95
462.59	4943.21
462.77	4891.72
462.95	4854.27
463.13	4847.25
463.32	4840.23
463.50	4929.17
463.68	4826.18
463.86	4945.55
464.05	4880.02
464.23	4978.32
464.41	5067.26
464.59	4997.04
464.78	5006.41
464.96	4880.02
465.14	4917.47
465.32	5015.77
465.50	5025.13
465.69	5214.71
465.87	5041.51
466.05	5116.41
466.23	5184.29
466.41	5064.92
466.60	5298.97
466.78	5125.77
466.96	5118.75
467.14	5034.49
467.32	5102.37
467.51	5158.54
467.69	5057.90
467.87	5167.90
468.05	5224.08
468.23	5167.90
468.41	5296.63
468.60	5287.27
468.78	5465.15
468.96	5245.14
469.14	5338.76
469.32	5418.34
469.50	5242.80
469.69	5458.13
469.87	5584.52
470.05	5500.26
470.23	5345.78
470.41	5462.81
470.59	5451.11
470.77	5408.98
470.95	5626.65
471.14	5689.84
471.32	5565.79
471.50	5874.74
471.68	5673.46
471.86	5619.63
472.04	5636.01
472.22	5837.30
472.40	5860.70
472.58	5781.12
472.77	5832.62
472.95	5844.32
473.13	5886.45
473.31	5776.44
473.49	6045.60
473.67	5935.60
473.85	5987.09
474.03	6073.69
474.21	5937.94
474.39	6186.04
474.57	6113.48
474.75	6312.42
474.93	6193.06
475.12	6164.97
475.30	6293.70
475.48	6340.51
475.66	6310.08
475.84	6186.04
476.02	6464.56
476.20	6338.17
476.38	6523.07
476.56	6686.91
476.74	6867.13
476.92	6663.51
477.10	6612.01
477.28	6780.53
477.46	6700.95
477.64	6747.76
477.82	6888.20
478.00	7054.37
478.18	7037.99
478.36	7119.91
478.54	7206.51
478.72	7276.73
478.90	7129.27
479.08	7290.77
479.26	7391.41
479.44	7510.78
479.62	7346.94
479.80	7480.35
479.98	7365.67
480.16	7691.00
480.34	7669.94
480.52	7747.17
480.70	7861.86
480.88	7665.25
481.06	7805.69
481.24	7868.88
481.41	8016.33
481.59	8102.93
481.77	8313.58
481.95	8252.73
482.13	8348.69
482.31	8226.98
482.49	8252.73
482.67	8514.87
482.85	8407.20
483.03	8524.23
483.21	8727.86
483.39	8650.62
483.57	8573.38
483.74	8725.52
483.92	8980.64
484.10	8842.54
484.28	9041.49
484.46	9102.34
484.64	9245.12
484.82	9163.20
485.00	9259.16
485.18	9378.53
485.35	9523.64
485.53	9399.59
485.71	9593.86
485.89	9769.40
486.07	9575.13
486.25	9975.36
486.43	9825.57
486.61	9675.77
486.78	10122.82
486.96	10237.50
487.14	10326.44
487.32	10305.38
487.50	10237.50
487.68	10373.25
487.85	10420.06
488.03	10560.50
488.21	10590.92
488.39	10899.87
488.57	10855.40
488.75	10860.09
488.92	11063.71
489.10	11091.80
489.28	11117.54
489.46	11215.85
489.64	11314.15
489.81	11552.88
489.99	11445.22
490.17	11459.26
490.35	11840.77
490.53	11812.68
490.70	12044.40
490.88	11889.92
491.06	11850.13
491.24	12023.33
491.41	12002.27
491.59	11976.52
491.77	12245.68
491.95	12109.93
492.13	12262.07
492.30	12657.62
492.48	12685.70
492.66	12545.27
492.84	12629.53
493.01	12662.30
493.19	12863.58
493.37	13090.62
493.54	13107.00
493.72	13209.98
493.90	12886.99
494.08	13202.96
494.25	13247.43
494.43	13635.96
494.61	13366.80
494.79	13703.84
494.96	13874.70
495.14	13797.46
495.32	13802.14
495.49	13760.01
495.67	13572.77
495.85	13923.85
496.02	14090.02
496.20	14286.63
496.38	14134.50
496.55	14003.43
496.73	14373.23
496.91	14508.98
497.09	14707.93
497.26	14733.67
497.44	14361.53
497.62	14705.59
497.79	14850.70
497.97	14864.74
498.14	14820.27
498.32	14993.47
498.50	15080.07
498.67	15211.14
498.85	15133.90
499.03	15241.57
499.20	15349.23
499.38	15412.43
499.56	15477.96
499.73	15309.44
499.91	15775.21
500.08	15683.93
500.26	15470.94
500.44	15712.02
500.61	15850.11
500.79	15742.44
500.97	15754.15
501.14	16011.60
501.32	16449.28
501.49	16100.55
501.67	16032.67
501.84	16411.84
502.02	16315.87
502.20	16428.22
502.37	16505.46
502.55	16554.61
502.72	16606.10
502.90	16425.88
503.07	16596.74
503.25	16727.81
503.43	16723.13
503.60	16929.09
503.78	16891.65
503.95	16877.60
504.13	16893.99
504.30	16924.41
504.48	16788.66
504.65	17303.58
504.83	17191.23
505.01	17460.40
505.18	17151.45
505.36	17617.21
505.53	17357.41
505.71	17312.94
505.88	17467.42
506.06	17504.87
506.23	17364.43
506.41	17514.23
506.58	17895.74
506.76	17668.70
506.93	17743.60
507.11	17614.87
507.28	17820.84
507.46	17675.73
507.63	17996.38
507.81	18022.12
507.98	18003.40
508.16	18277.24
508.33	18181.28
508.50	18118.09
508.68	18284.26
508.85	18256.18
509.03	18469.17
509.20	18597.90
509.38	18513.64
509.55	18539.38
509.73	18520.66
509.90	18644.71
510.08	18405.97
510.25	18417.68
510.42	18738.33
510.60	19019.19
510.77	19115.16
510.95	19117.50
511.12	18836.63
511.30	18948.98
511.47	19126.86
511.64	19300.06
511.82	19255.59
511.99	19454.53
512.17	19503.68
512.34	19414.74
512.51	19515.39
512.69	19786.89
512.86	19609.01
513.04	19742.42
513.21	19833.70
513.38	19669.86
513.56	19997.54
513.73	19803.27
513.90	19920.30
514.08	20006.90
514.25	20067.75
514.43	20137.97
514.60	20079.46
514.77	20203.50
514.95	20217.55
515.12	19889.87
515.29	20180.10
515.47	20449.26
515.64	20475.01
515.81	20594.37
515.99	20737.15
516.16	20629.48
516.33	20655.23
516.51	20779.28
516.68	20580.33
516.85	20823.75
517.03	20835.45
517.20	20538.20
517.37	20924.39
517.54	21078.86
517.72	20664.59
517.89	21170.15
518.06	20842.47
518.24	21254.40
518.41	21076.52
518.58	21172.49
518.75	21333.98
518.93	21404.20
519.10	21448.67
519.27	21537.61
519.45	21551.65
519.62	21296.53
519.79	21451.01
519.96	21544.63
520.14	21654.64
520.31	21619.53
520.48	21680.38
520.65	21750.60
520.83	21680.38
521.00	21673.36
521.17	21734.21
521.34	21722.51
521.52	21888.69
521.69	22134.45
521.86	22452.76
522.03	22183.60
522.20	21968.27
522.38	22326.37
522.55	22349.78
522.72	22045.51
522.89	22258.49
523.07	22670.43
523.24	22408.29
523.41	22757.03
523.58	21996.35
523.75	22574.47
523.92	22661.07
524.10	22307.65
524.27	22904.48
524.44	22817.88
524.61	23175.98
524.78	23005.13
524.96	23112.79
525.13	22902.14
525.30	22766.39
525.47	22918.53
525.64	23157.26
525.81	23140.88
525.98	22925.55
526.16	23269.61
526.33	23094.07
526.50	23302.37
526.67	23133.86
526.84	23131.51
527.01	23463.87
527.18	23606.64
527.36	23105.77
527.53	23735.37
527.70	23679.20
527.87	24187.10
528.04	23583.24
528.21	23716.65
528.38	23667.50
528.55	23742.39
528.72	23784.52
528.89	24013.90
529.07	24243.27
529.24	23639.41
529.41	23754.10
529.58	23758.78
529.75	23852.40
529.92	24109.86
530.09	23999.85
530.26	24304.12
530.43	24013.90
530.60	24257.31
530.77	23936.66
530.94	24151.99
531.11	24023.26
531.28	24266.67
531.46	24421.15
531.63	24414.13
531.80	24212.84
531.97	24854.15
532.14	24390.72
532.31	24432.85
532.48	24657.54
532.65	24386.04
532.82	24247.95
532.99	24730.10
533.16	24613.07
533.33	25104.59
533.50	25074.16
533.67	25017.99
533.84	24779.25
534.01	24769.89
534.18	24627.12
534.35	24975.86
534.52	24610.73
534.69	25186.50
534.86	25397.15
535.03	24994.58
535.20	25106.93
535.37	24936.07
535.54	25184.16
535.71	25020.33
535.88	25160.76
536.05	25390.13
536.22	25256.72
536.38	25132.67
536.55	25631.21
536.72	25764.62
536.89	25261.40
537.06	25376.09
537.23	25312.89
537.40	25624.18
537.57	25818.45
537.74	25579.71
537.91	25975.27
538.08	25965.90
538.25	25699.08
538.42	25502.48
538.59	25593.76
538.75	25525.88
538.92	25895.69
539.09	25900.37
539.26	25766.96
539.43	25986.97
539.60	25853.56
539.77	25951.86
539.94	26342.73
540.11	26185.91
540.28	26291.24
540.44	26001.01
540.61	26040.80
540.78	26274.85
540.95	26396.56
541.12	26246.77
541.29	26529.97
541.46	26443.37
541.62	26176.55
541.79	26164.85
541.96	25893.35
542.13	25914.41
542.30	26438.69
542.47	26260.81
542.63	26668.06
542.80	26647.00
542.97	26803.82
543.14	26670.40
543.31	26773.39
543.48	26822.54
543.64	27147.87
543.81	26995.74
543.98	26979.36
544.15	27175.96
544.32	27363.20
544.48	27379.59
544.65	26979.36
544.82	27124.47
544.99	26658.70
545.16	26951.27
545.32	27318.73
545.49	27587.89
545.66	27269.58
545.83	27264.90
546.00	27314.05
546.16	27318.73
546.33	27129.15
546.50	27007.44
546.67	27585.55
546.83	27498.95
547.00	27353.84
547.17	27388.95
547.34	27541.08
547.50	27601.94
547.67	27583.21
547.84	27440.44
548.00	27634.71
548.17	27814.93
548.34	27395.97
548.51	27854.72
548.67	27730.67
548.84	27693.22
549.01	27704.92
549.18	28077.07
549.34	27644.07
549.51	27798.54
549.68	28079.41
549.84	27728.33
550.01	27824.29
550.18	27873.44
550.34	28100.47
550.51	28034.94
550.68	28259.63
550.84	27899.19
551.01	28009.19
551.18	28006.85
551.34	28144.94
551.51	28191.75
551.68	28149.62
551.84	28077.07
552.01	28067.70
552.18	28556.88
552.34	28222.18
552.51	28102.81
552.68	28276.01
552.84	28254.95
553.01	28140.26
553.18	28336.87
553.34	28582.62
553.51	28591.98
553.67	28559.22
553.84	28786.25
554.01	28634.11
554.17	28561.56
554.34	28737.10
554.51	28493.68
554.67	28339.21
554.84	28524.11
555.00	28638.80
555.17	28481.98
555.33	28697.31
555.50	28498.36
555.67	28943.06
555.83	28634.11
556.00	28989.88
556.16	28840.08
556.33	28793.27
556.50	28971.15
556.66	28893.91
556.83	28830.72
556.99	29149.03
557.16	29006.26
557.32	29214.57
557.49	29074.13
557.65	28711.35
557.82	29081.16
557.98	29067.11
558.15	28840.08
558.32	28877.53
558.48	29359.68
558.65	29319.89
558.81	29071.79
558.98	29301.17
559.14	29074.13
559.31	29139.67
559.47	29369.04
559.64	29474.37
559.80	29046.05
559.97	29642.88
560.13	29242.65
560.30	29301.17
560.46	29448.62
560.63	29282.44
560.79	29446.28
560.96	29429.90
561.12	29277.76
561.29	29127.97
561.45	29373.72
561.61	29457.98
561.78	29336.27
561.94	29603.10
562.11	29799.70
562.27	29324.57
562.44	29741.19
562.60	29696.72
562.77	29266.06
562.93	29724.80
563.10	29661.61
563.26	29666.29
563.42	30052.48
563.59	29572.67
563.75	29830.13
563.92	29766.93
564.08	29495.43
564.24	29788.00
564.41	29333.93
564.57	29675.65
564.74	29860.55
564.90	29619.48
565.07	29553.94
565.23	29666.29
565.39	29500.11
565.56	29795.02
565.72	29670.97
565.88	30071.20
566.05	29965.88
566.21	29600.76
566.38	29837.15
566.54	29778.64
566.70	29834.81
566.87	30005.67
567.03	29797.36
567.19	30167.16
567.36	30146.10
567.52	29825.45
567.68	30036.09
567.85	30110.99
568.01	30424.62
568.17	29497.77
568.34	30094.61
568.50	29862.90
568.66	30036.09
568.83	29991.62
568.99	29886.30
569.15	30134.40
569.32	29795.02
569.48	29993.97
569.64	30169.51
569.81	30012.69
569.97	30052.48
570.13	30335.68
570.30	29876.94
570.46	29748.21
570.62	29830.13
570.78	30171.85
570.95	29968.22
571.11	30288.87
571.27	29572.67
571.43	29970.56
571.60	30075.88
571.76	29942.47
571.92	29809.06
572.09	30274.83
572.25	30251.42
572.41	30316.96
572.57	30033.75
572.74	30192.91
572.90	30433.99
573.06	30508.88
573.22	29968.22
573.38	30134.40
573.55	30244.40
573.71	30424.62
573.87	30560.37
574.03	30424.62
574.20	30246.74
574.36	30169.51
574.52	30031.41
574.68	30419.94
574.84	30375.47
575.01	30579.10
575.17	30595.48
575.33	30134.40
575.49	30003.33
575.65	30419.94
575.82	30466.75
575.98	30260.79
576.14	30281.85
576.30	30520.59
576.46	30342.70
576.62	30122.69
576.79	30515.90
576.95	30389.52
577.11	30649.32
577.27	30504.20
577.43	30572.08
577.59	30338.02
577.75	30293.55
577.92	30000.99
578.08	30265.47
578.24	30492.50
578.40	30478.46
578.56	30466.75
578.72	30508.88
578.88	30771.02
579.04	30740.60
579.21	30551.01
579.37	30490.16
579.53	30548.67
579.69	30132.06
579.85	30480.80
580.01	30834.22
580.17	30316.96
580.33	30459.73
580.49	30590.80
580.65	30532.29
580.82	30338.02
580.98	30478.46
581.14	30445.69
581.30	30677.40
581.46	30211.64
581.62	30391.86
581.78	29874.60
581.94	30419.94
582.10	30345.05
582.26	30366.11
582.42	30417.60
582.58	30480.80
582.74	30426.96
582.90	30899.75
583.06	30742.94
583.22	30553.35
583.38	30869.33
583.54	30693.79
583.70	30525.27
583.86	30799.11
584.02	30597.82
584.18	30822.51
584.34	30604.84
584.50	30871.67
584.66	30719.53
584.82	30323.98
584.98	30794.43
585.14	30295.89
585.30	30309.94
585.46	30885.71
585.62	30305.26
585.78	30211.64
585.94	30478.46
586.10	30553.35
586.26	30536.97
586.42	30679.74
586.58	30646.97
586.74	30703.15
586.90	30712.51
587.06	30373.13
587.22	30689.10
587.38	30349.73
587.54	30094.61
587.70	31152.53
587.86	30829.54
588.02	31094.02
588.18	31012.10
588.34	31143.17
588.49	30733.57
588.65	30630.59
588.81	30918.48
588.97	30890.39
589.13	30576.76
589.29	30511.22
589.45	30820.17
589.61	30646.97
589.77	31133.81
589.93	31309.35
590.08	30749.96
590.24	30986.35
590.40	31002.74
590.56	30890.39
590.72	30946.56
590.88	31049.55
591.04	30775.70
591.20	30920.82
591.35	31131.47
591.51	31302.32
591.67	30965.29
591.83	31147.85
