SpectraSuite Data File
++++++++++++++++++++++++++++++++++++
Date: Fri Oct 18 13:58:04 GMT-05:00 2013
User: bianchi
Dark Spectrum Present: No
Reference Spectrum Present: No
Number of Sampled Component Spectra: 1
Spectrometers: USB2+H05261
Integration Time (usec): 50000 (USB2+H05261)
Spectra Averaged: 1 (USB2+H05261)
Boxcar Smoothing: 0 (USB2+H05261)
Correct for Electrical Dark: No (USB2+H05261)
Strobe/Lamp Enabled: No (USB2+H05261)
Correct for Detector Non-linearity: No (USB2+H05261)
Correct for Stray Light: No (USB2+H05261)
Number of Pixels in Processed Spectrum: 2048
>>>>>Begin Processed Spectral Data<<<<<
365.73	0.00
365.92	0.00
366.12	0.00
366.32	0.00
366.52	0.00
366.72	0.00
366.91	0.00
367.11	0.00
367.31	0.00
367.51	0.00
367.70	0.00
367.90	0.00
368.10	0.00
368.30	0.00
368.49	0.00
368.69	0.00
368.89	0.00
369.09	0.00
369.28	0.00
369.48	0.00
369.68	0.00
369.87	0.00
370.07	0.00
370.27	0.00
370.47	0.00
370.66	91.28
370.86	91.28
371.06	145.11
371.25	189.58
371.45	112.35
371.65	147.45
371.84	140.43
372.04	135.75
372.24	252.78
372.44	180.22
372.63	196.60
372.83	264.48
373.03	248.10
373.22	252.78
373.42	121.71
373.62	161.50
373.81	287.89
374.01	222.35
374.21	217.67
374.40	198.95
374.60	278.52
374.79	231.71
374.99	269.16
375.19	224.69
375.38	269.16
375.58	269.16
375.78	255.12
375.97	278.52
376.17	327.68
376.37	227.03
376.56	264.48
376.76	241.08
376.95	189.58
377.15	287.89
377.35	306.61
377.54	325.33
377.74	262.14
377.93	180.22
378.13	301.93
378.33	234.05
378.52	273.84
378.72	280.86
378.91	252.78
379.11	369.80
379.31	290.23
379.50	297.25
379.70	187.24
379.89	308.95
380.09	365.12
380.28	266.82
380.48	397.89
380.68	283.20
380.87	311.29
381.07	390.87
381.26	348.74
381.46	337.04
381.65	379.17
381.85	318.31
382.04	337.04
382.24	327.68
382.43	351.08
382.63	339.38
382.83	339.38
383.02	402.57
383.22	355.76
383.41	346.40
383.61	376.83
383.80	388.53
384.00	393.21
384.19	311.29
384.39	379.17
384.58	386.19
384.78	374.49
384.97	358.10
385.17	379.17
385.36	400.23
385.56	379.17
385.75	376.83
385.95	404.91
386.14	503.22
386.34	423.64
386.53	308.95
386.72	374.49
386.92	444.70
387.11	365.12
387.31	365.12
387.50	409.59
387.70	444.70
387.89	425.98
388.09	447.04
388.28	414.27
388.48	430.66
388.67	479.81
388.86	468.11
389.06	461.09
389.25	486.83
389.45	440.02
389.64	456.40
389.84	479.81
390.03	407.25
390.22	440.02
390.42	514.92
390.61	496.19
390.81	512.58
391.00	458.74
391.19	475.13
391.39	510.24
391.58	533.64
391.78	526.62
391.97	470.45
392.16	435.34
392.36	552.37
392.55	521.94
392.75	543.00
392.94	503.22
393.13	482.15
393.33	592.16
393.52	559.39
393.71	580.45
393.91	566.41
394.10	545.34
394.29	615.56
394.49	631.94
394.68	573.43
394.88	585.13
395.07	622.58
395.26	627.26
395.46	566.41
395.65	622.58
395.84	636.63
396.04	692.80
396.23	559.39
396.42	660.03
396.62	599.18
396.81	664.71
397.00	631.94
397.19	706.84
397.39	662.37
397.58	676.41
397.77	681.10
397.97	767.70
398.16	608.54
398.35	720.88
398.55	725.57
398.74	779.40
398.93	866.00
399.12	725.57
399.32	699.82
399.51	720.88
399.70	662.37
399.90	781.74
400.09	734.93
400.28	781.74
400.47	704.50
400.67	800.46
400.86	706.84
401.05	755.99
401.24	814.51
401.44	748.97
401.63	882.38
401.82	866.00
402.01	861.32
402.21	774.72
402.40	936.21
402.59	884.72
402.78	816.85
402.97	863.66
403.17	856.64
403.36	926.85
403.55	837.91
403.74	901.11
403.93	908.13
404.13	866.00
404.32	844.93
404.51	922.17
404.70	919.83
404.89	919.83
405.09	1039.20
405.28	933.87
405.47	894.08
405.66	903.45
405.85	980.68
406.05	1057.92
406.24	945.58
406.43	1057.92
406.62	1015.79
406.81	1118.78
407.00	1046.22
407.20	1027.50
407.39	978.34
407.58	1078.99
407.77	1064.94
407.96	1055.58
408.15	1086.01
408.34	1116.44
408.54	1060.26
408.73	1067.28
408.92	1097.71
409.11	1083.67
409.30	1132.82
409.49	1083.67
409.68	1123.46
409.87	1224.10
410.07	1177.29
410.26	1210.06
410.45	1181.97
410.64	1186.65
410.83	1188.99
411.02	1268.57
411.21	1252.19
411.40	1200.69
411.59	1238.14
411.78	1259.21
411.98	1289.64
412.17	1249.85
412.36	1345.81
412.55	1359.85
412.74	1352.83
412.93	1355.17
413.12	1315.38
413.31	1385.60
413.50	1385.60
413.69	1439.43
413.88	1493.26
414.07	1465.18
414.26	1612.63
414.45	1558.80
414.64	1469.86
414.83	1467.52
415.02	1544.75
415.22	1530.71
415.41	1544.75
415.60	1633.69
415.79	1652.42
415.98	1664.12
416.17	1591.56
416.36	1516.67
416.55	1652.42
416.74	1647.74
416.93	1680.50
417.12	1682.85
417.31	1636.03
417.50	1666.46
417.69	1825.62
417.88	1778.81
418.07	1846.68
418.26	1827.96
418.45	1764.76
418.64	1832.64
418.83	1755.40
419.02	1849.02
419.21	1823.28
419.39	1886.47
419.58	1743.70
419.77	1802.21
419.96	1895.83
420.15	1902.86
420.34	1811.57
420.53	1874.77
420.72	2022.22
420.91	2010.52
421.10	1884.13
421.29	2083.08
421.48	1933.28
421.67	1895.83
421.86	1970.73
422.05	1994.14
422.24	1926.26
422.43	2040.95
422.61	1919.24
422.80	1926.26
422.99	2001.16
423.18	2019.88
423.37	2113.50
423.56	2083.08
423.75	1991.80
423.94	2017.54
424.13	1851.36
424.32	2010.52
424.50	2097.12
424.69	1940.30
424.88	2083.08
425.07	2132.23
425.26	2054.99
425.45	1930.94
425.64	2078.40
425.83	2122.87
426.01	2094.78
426.20	2083.08
426.39	2090.10
426.58	2059.67
426.77	2040.95
426.96	2083.08
427.15	2223.51
427.33	2275.00
427.52	2176.70
427.71	2076.06
427.90	2118.18
428.09	2118.18
428.28	2267.98
428.46	2190.74
428.65	2209.47
428.84	2223.51
429.03	2342.88
429.22	2239.89
429.40	2340.54
429.59	2246.91
429.78	2200.10
429.97	2279.68
430.16	2277.34
430.34	2317.13
430.53	2382.67
430.72	2354.58
430.91	2263.30
431.10	2331.17
431.28	2396.71
431.47	2455.22
431.66	2420.11
431.85	2289.04
432.03	2523.10
432.22	2492.67
432.41	2471.61
432.60	2441.18
432.79	2487.99
432.97	2511.39
433.16	2466.92
433.35	2464.58
433.54	2525.44
433.72	2572.25
433.91	2452.88
434.10	2518.42
434.28	2581.61
434.47	2665.87
434.66	2525.44
434.85	2647.15
435.03	2588.63
435.22	2551.18
435.41	2764.17
435.59	2630.76
435.78	2649.49
435.97	2665.87
436.16	2785.24
436.34	2675.23
436.53	2785.24
436.72	2796.94
436.90	2675.23
437.09	2813.32
437.28	2649.49
437.46	2712.68
437.65	2736.09
437.84	2939.71
438.02	2946.73
438.21	2700.98
438.40	2796.94
438.58	2923.33
438.77	2855.45
438.96	2892.90
439.14	2944.39
439.33	2979.50
439.52	3070.78
439.70	3059.08
439.89	2991.20
440.08	3110.57
440.26	3206.53
440.45	3087.17
440.63	3061.42
440.82	3145.68
441.01	3007.59
441.19	3101.21
441.38	3178.45
441.57	3267.39
441.75	3243.98
441.94	3382.07
442.12	3379.73
442.31	3426.54
442.50	3417.18
442.68	3302.50
442.87	3290.79
443.05	3361.01
443.24	3478.04
443.43	3318.88
443.61	3478.04
443.80	3459.31
443.98	3370.37
444.17	3309.52
444.35	3386.76
444.54	3478.04
444.73	3473.36
444.91	3487.40
445.10	3438.25
445.28	3412.50
445.47	3398.46
445.65	3382.07
445.84	3609.11
446.02	3463.99
446.21	3531.87
446.39	3597.40
446.58	3651.24
446.77	3520.17
446.95	3454.63
447.14	3480.38
447.32	3564.64
447.51	3541.23
447.69	3449.95
447.88	3667.62
448.06	3623.15
448.25	3595.06
448.43	3496.76
448.62	3541.23
448.80	3576.34
448.99	3709.75
449.17	3784.65
449.36	3606.77
449.54	3801.03
449.73	3772.94
449.91	3716.77
450.10	3833.80
450.28	3810.39
450.46	3845.50
450.65	3868.91
450.83	3779.97
451.02	3894.65
451.20	3838.48
451.39	3843.16
451.57	3850.18
451.76	3737.84
451.94	3906.35
452.13	3936.78
452.31	3992.95
452.49	3943.80
452.68	4100.62
452.86	3889.97
453.05	3971.89
453.23	3936.78
453.42	3948.48
453.60	3843.16
453.78	3969.55
453.97	3974.23
454.15	3889.97
454.34	4021.04
454.52	4070.19
454.70	4035.08
454.89	4147.43
455.07	4124.02
455.26	4109.98
455.44	4215.30
455.62	4053.81
455.81	4100.62
455.99	4102.96
456.17	4292.54
456.36	4208.28
456.54	4297.22
456.73	4292.54
456.91	4301.90
457.09	4374.46
457.28	4351.06
457.46	4189.56
457.64	4500.85
457.83	4425.95
458.01	4456.38
458.19	4545.32
458.38	4376.80
458.56	4475.10
458.74	4339.35
458.93	4414.25
459.11	4535.96
459.29	4477.44
459.48	4627.24
459.66	4449.36
459.84	4552.34
460.03	4580.43
460.21	4678.73
460.39	4624.90
460.57	4638.94
460.76	4669.37
460.94	4615.54
461.12	4690.43
461.31	4716.18
461.49	4793.42
461.67	4723.20
461.85	4777.03
462.04	4631.92
462.22	4856.61
462.40	4844.91
462.59	4688.09
462.77	4772.35
462.95	4870.65
463.13	4826.18
463.32	4905.76
463.50	4903.42
463.68	4702.14
463.86	4997.04
464.05	4891.72
464.23	4922.15
464.41	5036.83
464.59	4791.08
464.78	5128.11
464.96	5057.90
465.14	4978.32
465.32	4997.04
465.50	5093.01
465.69	5067.26
465.87	4973.64
466.05	4961.94
466.23	5146.84
466.41	5137.48
466.60	5317.70
466.78	5022.79
466.96	5107.05
467.14	5053.22
467.32	5137.48
467.51	5320.04
467.69	5132.79
467.87	5231.10
468.05	5221.74
468.23	5231.10
468.41	5359.83
468.60	5233.44
468.78	5282.59
468.96	5284.93
469.14	5338.76
469.32	5338.76
469.50	5228.76
469.69	5401.96
469.87	5621.97
470.05	5448.77
470.23	5432.38
470.41	5659.42
470.59	5572.82
470.77	5544.73
470.95	5710.91
471.14	5582.18
471.32	5481.53
471.50	5619.63
471.68	5774.10
471.86	5696.86
472.04	5799.85
472.22	5926.24
472.40	5827.93
472.58	5781.12
472.77	5858.36
472.95	5951.98
473.13	5991.77
473.31	5891.13
473.49	5987.09
473.67	5865.38
473.85	5881.77
474.03	6043.26
474.21	6153.27
474.39	6153.27
474.57	5954.32
474.75	6267.95
474.93	6176.67
475.12	6300.72
475.30	6429.45
475.48	6291.36
475.66	6349.87
475.84	6237.53
476.02	6438.81
476.20	6361.58
476.38	6544.14
476.56	6530.09
476.74	6801.60
476.92	6731.38
477.10	6722.02
477.28	6972.46
477.46	6722.02
477.64	6668.19
477.82	6839.05
478.00	6916.28
478.18	6932.67
478.36	7140.97
478.54	7166.72
478.72	7342.26
478.90	7103.53
479.08	7351.62
479.26	7414.82
479.44	7283.75
479.62	7243.96
479.80	7482.69
479.98	7433.54
480.16	7595.04
480.34	7793.98
480.52	7485.03
480.70	7676.96
480.88	7761.22
481.06	7784.62
481.24	7819.73
481.41	7763.56
481.59	8243.37
481.77	8084.21
481.95	7971.86
482.13	8234.00
482.31	8180.17
482.49	8489.12
482.67	8439.97
482.85	8418.91
483.03	8564.02
483.21	8706.79
483.39	8674.03
483.57	8844.88
483.74	8547.64
483.92	8798.07
484.10	8751.26
484.28	8823.82
484.46	9184.26
484.64	9336.40
484.82	9053.19
485.00	9170.22
485.18	9331.72
485.35	9493.21
485.53	9659.39
485.71	9575.13
485.89	9724.93
486.07	9778.76
486.25	9830.25
486.43	9694.50
486.61	9970.68
486.78	9874.72
486.96	10129.84
487.14	10218.78
487.32	10157.92
487.50	10239.84
487.68	10420.06
487.85	10497.30
488.03	10490.28
488.21	10766.46
488.39	10483.26
488.57	10939.66
488.75	10892.85
488.92	10925.62
489.10	11136.27
489.28	11136.27
489.46	11272.02
489.64	10965.41
489.81	11440.54
489.99	11253.30
490.17	11417.13
490.35	11541.18
490.53	11819.71
490.70	11847.79
490.88	11763.53
491.06	11988.22
491.24	11929.71
491.41	12112.27
491.59	12212.92
491.77	12093.55
491.95	12468.03
492.13	12362.71
492.30	12437.61
492.48	12645.91
492.66	12571.02
492.84	12477.40
493.01	12610.81
493.19	12713.79
493.37	12837.84
493.54	12847.20
493.72	12980.61
493.90	12966.57
494.08	12989.97
494.25	13331.69
494.43	13310.63
494.61	13589.15
494.79	13603.19
494.96	13362.12
495.14	13650.00
495.32	13418.29
495.49	13685.11
495.67	13804.48
495.85	14003.43
496.02	14090.02
496.20	14298.33
496.38	14075.98
496.55	14181.31
496.73	14310.04
496.91	14298.33
497.09	14534.73
497.26	14600.26
497.44	14335.78
497.62	14712.61
497.79	14799.21
497.97	14534.73
498.14	14853.04
498.32	15021.56
498.50	14927.94
498.67	15510.73
498.85	15194.76
499.03	15318.81
499.20	15246.25
499.38	15274.34
499.56	15611.37
499.73	15503.71
499.91	15702.65
500.08	15798.62
500.26	15508.39
500.44	15681.59
500.61	15679.25
500.79	15749.46
500.97	15756.49
501.14	16065.44
501.32	15852.45
501.49	15953.09
501.67	15943.73
501.84	16194.17
502.02	16463.33
502.20	16184.80
502.37	16318.22
502.55	16545.25
502.72	16505.46
502.90	16475.03
503.07	16531.20
503.25	16795.68
503.43	16643.55
503.60	16863.56
503.78	16533.54
503.95	16877.60
504.13	16737.17
504.30	16795.68
504.48	16833.13
504.65	17263.79
504.83	17584.44
505.01	17261.45
505.18	17317.62
505.36	17518.91
505.53	17289.54
505.71	17090.59
505.88	17366.78
506.06	17301.24
506.23	17610.19
506.41	17619.55
506.58	17874.67
506.76	17781.05
506.93	17811.48
507.11	17563.38
507.28	17771.69
507.46	17748.28
507.63	18256.18
507.81	18361.50
507.98	18010.42
508.16	18017.44
508.33	18214.05
508.50	18148.51
508.68	18111.07
508.85	18424.70
509.03	18841.31
509.20	18513.64
509.38	18478.53
509.55	18347.46
509.73	18724.29
509.90	18841.31
510.08	18534.70
510.25	18628.32
510.42	18733.65
510.60	19227.50
510.77	19051.96
510.95	19012.17
511.12	19257.93
511.30	18820.25
511.47	18881.10
511.64	19452.19
511.82	19377.30
511.99	19522.41
512.17	19283.67
512.34	19218.14
512.51	19510.71
512.69	19634.75
512.86	19655.82
513.04	19882.85
513.21	19740.08
513.38	19613.69
513.56	19873.49
513.73	19868.81
513.90	19913.28
514.08	19566.88
514.25	20093.50
514.43	20201.16
514.60	20135.63
514.77	20126.27
514.95	20243.29
515.12	20292.44
515.29	19709.65
515.47	19899.23
515.64	20456.28
515.81	20559.27
515.99	20636.50
516.16	20755.87
516.33	20807.36
516.51	20704.38
516.68	20596.71
516.85	20369.68
517.03	20732.47
517.20	21032.05
517.37	20929.07
517.54	21048.44
517.72	20842.47
517.89	21097.59
518.06	21259.09
518.24	21008.65
518.41	20933.75
518.58	20922.05
518.75	21195.89
518.93	21575.06
519.10	21408.88
519.27	21399.52
519.45	21025.03
519.62	21497.82
519.79	21376.11
519.96	21177.17
520.14	21858.26
520.31	21605.49
520.48	21443.99
520.65	21811.45
520.83	21774.00
521.00	21846.56
521.17	21605.49
521.34	21703.79
521.52	22066.57
521.69	22064.23
521.86	22209.34
522.03	22047.85
522.20	22181.26
522.38	22242.11
522.55	22333.39
522.72	22286.58
522.89	22031.46
523.07	22469.14
523.24	22312.33
523.41	22361.48
523.58	22293.60
523.75	22703.20
523.92	22380.20
524.10	22396.59
524.27	23051.94
524.44	22986.40
524.61	22965.34
524.78	22946.61
524.96	22820.22
525.13	22764.05
525.30	23271.95
525.47	22904.48
525.64	23082.36
525.81	23260.24
525.98	23269.61
526.16	23084.70
526.33	23126.83
526.50	23321.10
526.67	22857.67
526.84	23487.28
527.01	23077.68
527.18	23346.84
527.36	23297.69
527.53	23513.02
527.70	23852.40
527.87	23999.85
528.04	23503.66
528.21	23562.17
528.38	23613.66
528.55	23367.91
528.72	23821.97
528.89	24109.86
529.07	23924.96
529.24	23875.80
529.41	23740.05
529.58	23962.40
529.75	23950.70
529.92	23969.43
530.09	24037.30
530.26	24081.77
530.43	24109.86
530.60	23744.73
530.77	23871.12
530.94	23901.55
531.11	24088.79
531.28	24276.04
531.46	24273.70
531.63	24390.72
531.80	24226.89
531.97	24587.33
532.14	24837.76
532.31	24236.25
532.48	24561.58
532.65	24592.01
532.82	24257.31
532.99	24739.46
533.16	24893.94
533.33	24800.32
533.50	24870.53
533.67	24931.39
533.84	24760.53
534.01	24828.40
534.18	24570.94
534.35	25099.90
534.52	25106.93
534.69	24898.62
534.86	25149.06
535.03	24706.70
535.20	25102.25
535.37	25270.76
535.54	25230.98
535.71	25450.99
535.88	24973.52
536.05	24926.71
536.22	25378.43
536.38	25614.82
536.55	25357.36
536.72	25535.24
536.89	25282.47
537.06	25507.16
537.23	25256.72
537.40	25649.93
537.57	25521.20
537.74	25876.96
537.91	25530.56
538.08	25479.07
538.25	25563.33
538.42	25954.20
538.59	25699.08
538.75	25759.94
538.92	25696.74
539.09	25642.91
539.26	25956.54
539.43	25947.18
539.60	25654.61
539.77	26087.61
539.94	25926.11
540.11	25844.20
540.28	25972.92
540.44	26331.03
540.61	26225.70
540.78	25958.88
540.95	26230.38
541.12	26125.06
541.29	26001.01
541.46	26211.66
541.62	25773.98
541.79	26284.22
541.96	25799.73
542.13	26129.74
542.30	26288.90
542.47	26426.99
542.63	26958.29
542.80	26558.06
542.97	26838.92
543.14	26632.96
543.31	26759.34
543.48	26780.41
543.64	26822.54
543.81	27117.45
543.98	27145.53
544.15	26829.56
544.32	27290.65
544.48	27290.65
544.65	26677.43
544.82	27035.53
544.99	26904.46
545.16	27065.96
545.32	27257.88
545.49	27487.25
545.66	27349.16
545.83	27477.89
546.00	27246.18
546.16	27190.00
546.33	26904.46
546.50	26948.93
546.67	27161.92
546.83	27051.91
547.00	27321.07
547.17	27243.84
547.34	27351.50
547.50	27337.46
547.67	27686.20
547.84	27428.74
548.00	27438.10
548.17	27508.32
548.34	27505.98
548.51	27953.02
548.67	27742.37
548.84	27824.29
549.01	27716.62
549.18	27412.35
549.34	27576.19
549.51	27948.34
549.68	27910.89
549.84	27899.19
550.01	27583.21
550.18	27903.87
550.34	28224.52
550.51	28163.67
550.68	28561.56
550.84	27711.94
551.01	27735.35
551.18	27515.34
551.34	28091.11
551.51	28093.45
551.68	27948.34
551.84	28304.10
552.01	27838.33
552.18	28477.30
552.34	28198.77
552.51	28395.38
552.68	28114.52
552.84	28254.95
553.01	28390.70
553.18	28339.21
553.34	28081.75
553.51	28711.35
553.67	28816.68
553.84	28755.82
554.01	28395.38
554.17	28514.75
554.34	28540.49
554.51	28011.53
554.67	28580.28
554.84	28599.01
555.00	28662.20
555.17	28797.95
555.33	29039.03
555.50	28629.43
555.67	28673.90
555.83	28542.83
556.00	28634.11
556.16	28783.91
556.33	28510.07
556.50	28521.77
556.66	28870.51
556.83	28723.05
556.99	29219.25
557.16	29467.34
557.32	29001.58
557.49	29366.70
557.65	28739.44
557.82	28929.02
557.98	29076.48
558.15	28861.15
558.32	29181.80
558.48	29170.10
558.65	29291.80
558.81	29343.30
558.98	29642.88
559.14	29039.03
559.31	28861.15
559.47	28861.15
559.64	28968.81
559.80	29048.39
559.97	29130.31
560.13	29235.63
560.30	29209.89
560.46	29244.99
560.63	29481.39
560.79	29472.03
560.96	29570.33
561.12	29338.62
561.29	29280.10
561.45	29252.02
561.61	29619.48
561.78	29818.42
561.94	29729.48
562.11	29593.73
562.27	29418.19
562.44	29420.53
562.60	29418.19
562.77	29160.73
562.93	29736.51
563.10	29429.90
563.26	29598.41
563.42	29820.77
563.59	29727.14
563.75	29881.62
563.92	29465.00
564.08	29530.54
564.24	29544.58
564.41	29298.83
564.57	29322.23
564.74	29301.17
564.90	29633.52
565.07	29696.72
565.23	29883.96
565.39	29940.13
565.56	30167.16
565.72	29467.34
565.88	29862.90
566.05	29443.94
566.21	29839.49
566.38	29748.21
566.54	29610.12
566.70	29993.97
566.87	30000.99
567.03	30075.88
567.19	30232.70
567.36	29614.80
567.52	30012.69
567.68	30249.08
567.85	29495.43
568.01	29689.70
568.17	29600.76
568.34	29907.37
568.50	29916.73
568.66	30157.80
568.83	30270.15
568.99	29834.81
569.15	29710.76
569.32	29811.40
569.48	29893.32
569.64	30279.51
569.81	30026.73
569.97	30022.05
570.13	30307.60
570.30	30000.99
570.46	30265.47
570.62	30003.33
570.78	30052.48
570.95	29991.62
571.11	29984.60
571.27	30078.22
571.43	30338.02
571.60	30148.44
571.76	29834.81
571.92	30167.16
572.09	30204.61
572.25	29923.75
572.41	30139.08
572.57	30300.58
572.74	30333.34
572.90	30291.21
573.06	30342.70
573.22	30094.61
573.38	30054.82
573.55	30132.06
573.71	30682.08
573.87	30293.55
574.03	29893.32
574.20	30267.81
574.36	30199.93
574.52	30036.09
574.68	30038.44
574.84	30190.57
575.01	29902.68
575.17	30033.75
575.33	30003.33
575.49	29881.62
575.65	30033.75
575.82	30424.62
575.98	29993.97
576.14	30639.95
576.30	30150.78
576.46	30352.07
576.62	30008.01
576.79	30242.06
576.95	30321.64
577.11	30661.02
577.27	30228.02
577.43	30391.86
577.59	30228.02
577.75	29975.24
577.92	30164.82
578.08	30073.54
578.24	30031.41
578.40	30342.70
578.56	30176.53
578.72	30361.43
578.88	30349.73
579.04	30965.29
579.21	30485.48
579.37	30597.82
579.53	30471.43
579.69	30267.81
579.85	30539.31
580.01	30433.99
580.17	30616.55
580.33	30466.75
580.49	30483.14
580.65	30291.21
580.82	30670.38
580.98	30452.71
581.14	30583.78
581.30	30593.14
581.46	30405.90
581.62	30401.22
581.78	30113.33
581.94	30455.05
582.10	30359.09
582.26	30499.52
582.42	30396.54
582.58	30483.14
582.74	30616.55
582.90	30768.68
583.06	30567.40
583.22	30520.59
583.38	30487.82
583.54	30244.40
583.70	30684.42
583.86	30558.03
584.02	30270.15
584.18	30920.82
584.34	30876.35
584.50	30881.03
584.66	30403.56
584.82	30160.14
584.98	30656.34
585.14	30438.67
585.30	30054.82
585.46	30712.51
585.62	30565.06
585.78	30380.15
585.94	30553.35
586.10	30295.89
586.26	30773.36
586.42	30534.63
586.58	30443.35
586.74	30307.60
586.90	30078.22
587.06	30609.53
587.22	30630.59
587.38	30190.57
587.54	30820.17
587.70	30656.34
587.86	30546.33
588.02	30848.26
588.18	31267.22
588.34	30909.11
588.49	30920.82
588.65	30174.19
588.81	30609.53
588.97	30939.54
589.13	30735.92
589.29	30373.13
589.45	30581.44
589.61	30817.83
589.77	30607.19
589.93	30895.07
590.08	31182.96
590.24	30927.84
590.40	30955.93
590.56	31138.49
590.72	30654.00
590.88	30665.70
591.04	30866.98
591.20	31023.80
591.35	31054.23
591.51	31180.62
591.67	31065.93
591.83	30890.39
591.99	31070.61
