SpectraSuite Data File
++++++++++++++++++++++++++++++++++++
Date: Fri Oct 18 13:58:26 GMT-05:00 2013
User: bianchi
Dark Spectrum Present: No
Reference Spectrum Present: No
Number of Sampled Component Spectra: 1
Spectrometers: USB2+H05261
Integration Time (usec): 50000 (USB2+H05261)
Spectra Averaged: 1 (USB2+H05261)
Boxcar Smoothing: 0 (USB2+H05261)
Correct for Electrical Dark: No (USB2+H05261)
Strobe/Lamp Enabled: No (USB2+H05261)
Correct for Detector Non-linearity: No (USB2+H05261)
Correct for Stray Light: No (USB2+H05261)
Number of Pixels in Processed Spectrum: 2048
>>>>>Begin Processed Spectral Data<<<<<
365.73	0.00
365.92	0.00
366.12	0.00
366.32	0.00
366.52	0.00
366.72	0.00
366.91	0.00
367.11	0.00
367.31	0.00
367.51	0.00
367.70	0.00
367.90	0.00
368.10	0.00
368.30	0.00
368.49	0.00
368.69	0.00
368.89	0.00
369.09	0.00
369.28	0.00
369.48	0.00
369.68	0.00
369.87	0.00
370.07	0.00
370.27	0.00
370.47	0.00
370.66	91.28
370.86	121.71
371.06	149.79
371.25	196.60
371.45	88.94
371.65	86.60
371.84	140.43
372.04	131.07
372.24	156.82
372.44	189.58
372.63	245.76
372.83	205.97
373.03	159.16
373.22	191.92
373.42	163.84
373.62	189.58
373.81	201.29
374.01	252.78
374.21	250.44
374.40	198.95
374.60	234.05
374.79	159.16
374.99	250.44
375.19	337.04
375.38	280.86
375.58	236.39
375.78	234.05
375.97	252.78
376.17	264.48
376.37	245.76
376.56	271.50
376.76	191.92
376.95	285.55
377.15	248.10
377.35	299.59
377.54	304.27
377.74	311.29
377.93	250.44
378.13	299.59
378.33	264.48
378.52	337.04
378.72	292.57
378.91	243.42
379.11	273.84
379.31	297.25
379.50	252.78
379.70	252.78
379.89	280.86
380.09	365.12
380.28	269.16
380.48	308.95
380.68	224.69
380.87	220.01
381.07	271.50
381.26	276.18
381.46	245.76
381.65	325.33
381.85	339.38
382.04	318.31
382.24	278.52
382.43	355.76
382.63	311.29
382.83	372.15
383.02	287.89
383.22	351.08
383.41	287.89
383.61	386.19
383.80	379.17
384.00	322.99
384.19	290.23
384.39	379.17
384.58	404.91
384.78	301.93
384.97	433.00
385.17	360.44
385.36	435.34
385.56	297.25
385.75	458.74
385.95	360.44
386.14	376.83
386.34	421.30
386.53	362.78
386.72	414.27
386.92	341.72
387.11	411.93
387.31	423.64
387.50	409.59
387.70	416.62
387.89	407.25
388.09	521.94
388.28	414.27
388.48	454.06
388.67	435.34
388.86	435.34
389.06	521.94
389.25	552.37
389.45	510.24
389.64	437.68
389.84	521.94
390.03	430.66
390.22	470.45
390.42	470.45
390.61	383.85
390.81	395.55
391.00	470.45
391.19	526.62
391.39	540.66
391.58	484.49
391.78	482.15
391.97	510.24
392.16	428.32
392.36	564.07
392.55	454.06
392.75	514.92
392.94	545.34
393.13	571.09
393.33	521.94
393.52	547.69
393.71	608.54
393.91	627.26
394.10	547.69
394.29	552.37
394.49	564.07
394.68	592.16
394.88	538.32
395.07	554.71
395.26	582.79
395.46	676.41
395.65	648.33
395.84	594.50
396.04	594.50
396.23	697.48
396.42	645.99
396.62	683.44
396.81	678.76
397.00	589.82
397.19	547.69
397.39	636.63
397.58	683.44
397.77	739.61
397.97	641.31
398.16	671.73
398.35	638.97
398.55	739.61
398.74	699.82
398.93	695.14
399.12	671.73
399.32	683.44
399.51	660.03
399.70	678.76
399.90	660.03
400.09	748.97
400.28	734.93
400.47	751.31
400.67	896.43
400.86	657.69
401.05	753.65
401.24	748.97
401.44	798.12
401.63	798.12
401.82	870.68
402.01	753.65
402.21	856.64
402.40	748.97
402.59	851.96
402.78	816.85
402.97	779.40
403.17	854.30
403.36	816.85
403.55	821.53
403.74	922.17
403.93	819.19
404.13	894.08
404.32	1034.52
404.51	936.21
404.70	851.96
404.89	912.81
405.09	943.24
405.28	908.13
405.47	1011.11
405.66	1046.22
405.85	940.90
406.05	896.43
406.24	1055.58
406.43	943.24
406.62	1020.47
406.81	983.02
407.00	877.70
407.20	959.62
407.39	1032.18
407.58	1109.41
407.77	940.90
407.96	1118.78
408.15	1100.05
408.34	1001.75
408.54	1048.56
408.73	1015.79
408.92	1097.71
409.11	1163.25
409.30	1170.27
409.49	1100.05
409.68	1132.82
409.87	1172.61
410.07	1188.99
410.26	1160.91
410.45	1219.42
410.64	1107.07
410.83	1233.46
411.02	1308.36
411.21	1219.42
411.40	1207.72
411.59	1233.46
411.78	1219.42
411.98	1273.25
412.17	1266.23
412.36	1170.27
412.55	1338.79
412.74	1275.59
412.93	1284.95
413.12	1352.83
413.31	1458.15
413.50	1383.26
413.69	1439.43
413.88	1509.65
414.07	1404.32
414.26	1432.41
414.45	1343.47
414.64	1444.11
414.83	1535.39
415.02	1528.37
415.22	1554.12
415.41	1565.82
415.60	1528.37
415.79	1458.15
415.98	1476.88
416.17	1570.50
416.36	1490.92
416.55	1584.54
416.74	1614.97
416.93	1516.67
417.12	1568.16
417.31	1554.12
417.50	1631.35
417.69	1792.85
417.88	1694.55
418.07	1638.38
418.26	1764.76
418.45	1710.93
418.64	1762.42
418.83	1762.42
419.02	1739.02
419.21	1722.63
419.39	1734.34
419.58	1727.32
419.77	1816.26
419.96	1722.63
420.15	1839.66
420.34	1966.05
420.53	1839.66
420.72	1902.86
420.91	1900.52
421.10	1921.58
421.29	1914.56
421.48	1895.83
421.67	1923.92
421.86	1849.02
422.05	1998.82
422.24	1921.58
422.43	1930.94
422.61	2054.99
422.80	2057.33
422.99	2043.29
423.18	2099.46
423.37	2062.01
423.56	2029.24
423.75	1923.92
423.94	1968.39
424.13	1963.71
424.32	1879.45
424.50	2097.12
424.69	2094.78
424.88	2047.97
425.07	1947.33
425.26	1959.03
425.45	1987.11
425.64	2073.71
425.83	2043.29
426.01	2010.52
426.20	2157.97
426.39	2125.21
426.58	2122.87
426.77	2033.93
426.96	2083.08
427.15	2064.35
427.33	2108.82
427.52	2148.61
427.71	2050.31
427.90	2094.78
428.09	2174.36
428.28	2256.28
428.46	2197.76
428.65	2275.00
428.84	2218.83
429.03	2310.11
429.22	2162.66
429.40	2197.76
429.59	2108.82
429.78	2265.64
429.97	2176.70
430.16	2162.66
430.34	2286.70
430.53	2382.67
430.72	2277.34
430.91	2340.54
431.10	2422.45
431.28	2342.88
431.47	2438.84
431.66	2431.82
431.85	2307.77
432.03	2452.88
432.22	2483.31
432.41	2422.45
432.60	2354.58
432.79	2335.85
432.97	2352.24
433.16	2445.86
433.35	2553.52
433.54	2476.29
433.72	2569.91
433.91	2490.33
434.10	2408.41
434.28	2413.09
434.47	2431.82
434.66	2581.61
434.85	2609.70
435.03	2572.25
435.22	2586.29
435.41	2658.85
435.59	2654.17
435.78	2649.49
435.97	2541.82
436.16	2691.62
436.34	2607.36
436.53	2679.91
436.72	2726.72
436.90	2607.36
437.09	2675.23
437.28	2637.78
437.46	2703.32
437.65	2810.98
437.84	2684.59
438.02	2782.90
438.21	2778.22
438.40	2703.32
438.58	2839.07
438.77	2813.32
438.96	2736.09
439.14	2911.63
439.33	2960.78
439.52	3023.97
439.70	2935.03
439.89	3035.67
440.08	3061.42
440.26	3169.09
440.45	3082.49
440.63	3063.76
440.82	3101.21
441.01	2956.10
441.19	3119.93
441.38	3129.30
441.57	3070.78
441.75	3208.87
441.94	3246.32
442.12	3229.94
442.31	3201.85
442.50	3262.71
442.68	3372.71
442.87	3241.64
443.05	3325.90
443.24	3389.10
443.43	3337.60
443.61	3288.45
443.80	3445.27
443.98	3309.52
444.17	3262.71
444.35	3349.31
444.54	3379.73
444.73	3506.12
444.91	3480.38
445.10	3480.38
445.28	3557.61
445.47	3351.65
445.65	3440.59
445.84	3529.53
446.02	3449.95
446.21	3454.63
446.39	3349.31
446.58	3510.80
446.77	3602.08
446.95	3407.82
447.14	3475.70
447.32	3503.78
447.51	3478.04
447.69	3468.67
447.88	3562.30
448.06	3538.89
448.25	3541.23
448.43	3358.67
448.62	3534.21
448.80	3543.57
448.99	3632.51
449.17	3726.13
449.36	3562.30
449.54	3735.50
449.73	3562.30
449.91	3552.93
450.10	3513.14
450.28	3646.55
450.46	3709.75
450.65	3620.81
450.83	3758.90
451.02	3730.81
451.20	3691.02
451.39	3721.45
451.57	3801.03
451.76	3791.67
451.94	3794.01
452.13	3899.33
452.31	3740.18
452.49	3740.18
452.68	3889.97
452.86	3840.82
453.05	3950.82
453.23	3915.72
453.42	3728.47
453.60	3906.35
453.78	3908.69
453.97	3873.59
454.15	3845.50
454.34	3861.88
454.52	4025.72
454.70	3992.95
454.89	4119.34
455.07	4063.17
455.26	3962.53
455.44	4126.36
455.62	4128.70
455.81	4133.39
455.99	4049.13
456.17	4189.56
456.36	4161.47
456.54	4194.24
456.73	4187.22
456.91	4112.32
457.09	4320.63
457.28	4390.84
457.46	4227.01
457.64	4294.88
457.83	4327.65
458.01	4273.82
458.19	4276.16
458.38	4374.46
458.56	4294.88
458.74	4278.50
458.93	4264.46
459.11	4493.83
459.29	4432.97
459.48	4454.04
459.66	4526.60
459.84	4519.57
460.03	4613.20
460.21	4524.26
460.39	4414.25
460.57	4386.16
460.76	4629.58
460.94	4704.48
461.12	4648.30
461.31	4727.88
461.49	4521.92
461.67	4657.67
461.85	4744.27
462.04	4690.43
462.22	4873.00
462.40	4779.37
462.59	4636.60
462.77	4725.54
462.95	4713.84
463.13	4772.35
463.32	4739.58
463.50	4915.12
463.68	4755.97
463.86	4931.51
464.05	4842.57
464.23	4959.60
464.41	4819.16
464.59	4713.84
464.78	4922.15
464.96	4957.25
465.14	4809.80
465.32	4891.72
465.50	5008.75
465.69	5006.41
465.87	4896.40
466.05	4992.36
466.23	5032.15
466.41	4894.06
466.60	5221.74
466.78	5093.01
466.96	4947.89
467.14	5025.13
467.32	5195.99
467.51	5198.33
467.69	4964.28
467.87	5254.50
468.05	5121.09
468.23	4985.34
468.41	5167.90
468.60	5301.31
468.78	5217.05
468.96	5198.33
469.14	5270.89
469.32	5331.74
469.50	5364.51
469.69	5212.37
469.87	5404.30
470.05	5418.34
470.23	5373.87
470.41	5427.70
470.59	5413.66
470.77	5348.12
470.95	5343.44
471.14	5465.15
471.32	5504.94
471.50	5544.73
471.68	5474.51
471.86	5584.52
472.04	5554.09
472.22	5713.25
472.40	5556.43
472.58	5579.84
472.77	5856.02
472.95	5792.83
473.13	5856.02
473.31	5802.19
473.49	5764.74
473.67	5844.32
473.85	5797.51
474.03	5933.26
474.21	6017.52
474.39	6071.35
474.57	6113.48
474.75	6015.18
474.93	6258.59
475.12	6134.54
475.30	6094.76
475.48	6270.30
475.66	6237.53
475.84	6237.53
476.02	6347.53
476.20	6324.13
476.38	6410.73
476.56	6448.18
476.74	6612.01
476.92	6359.24
477.10	6572.22
477.28	6682.23
477.46	6621.38
477.64	6649.46
477.82	6876.49
478.00	6927.99
478.18	6932.67
478.36	6904.58
478.54	7169.06
478.72	7056.72
478.90	7056.72
479.08	7119.91
479.26	7133.95
479.44	7138.63
479.62	7215.87
479.80	7412.48
479.98	7286.09
480.16	7344.60
480.34	7321.20
480.52	7744.83
480.70	7520.14
480.88	7449.93
481.06	7676.96
481.24	7662.91
481.41	7878.24
481.59	7903.99
481.77	8100.59
481.95	7981.23
482.13	8023.36
482.31	8018.68
482.49	8332.31
482.67	8156.77
482.85	8283.16
483.03	8571.04
483.21	8552.32
483.39	8491.46
483.57	8344.01
483.74	8561.68
483.92	8723.18
484.10	8669.34
484.28	8617.85
484.46	8872.97
484.64	9364.48
484.82	9025.11
485.00	9050.85
485.18	9247.46
485.35	9165.54
485.53	9228.73
485.71	9404.27
485.89	9591.52
486.07	9413.63
486.25	9640.67
486.43	9600.88
486.61	9769.40
486.78	9858.34
486.96	9863.02
487.14	10076.01
487.32	9975.36
487.50	10059.62
487.68	10059.62
487.85	10244.52
488.03	10284.31
488.21	10663.48
488.39	10501.98
488.57	10588.58
488.75	10717.31
488.92	10759.44
489.10	10857.75
489.28	10930.30
489.46	11033.29
489.64	11101.16
489.81	11309.47
489.99	11147.97
490.17	11290.74
490.35	11393.73
490.53	11248.61
490.70	11571.61
490.88	11602.04
491.06	11637.14
491.24	11667.57
491.41	11625.44
491.59	12006.95
491.77	11819.71
491.95	12098.23
492.13	11988.22
492.30	12112.27
492.48	12187.17
492.66	12280.79
492.84	12430.59
493.01	12589.74
493.19	12564.00
493.37	12882.31
493.54	12655.28
493.72	12617.83
493.90	12624.85
494.08	13039.12
494.25	12903.37
494.43	13107.00
494.61	13214.66
494.79	13465.10
494.96	13378.50
495.14	13364.46
495.32	13509.57
495.49	13327.01
495.67	13406.59
495.85	13671.07
496.02	13839.59
496.20	13771.71
496.38	13729.58
496.55	13928.53
496.73	14146.20
496.91	13996.40
497.09	14200.03
497.26	14438.76
497.44	14108.75
497.62	14188.33
497.79	14291.31
497.97	14389.61
498.14	14721.97
498.32	14712.61
498.50	14572.18
498.67	15169.01
498.85	14801.55
499.03	14768.78
499.20	14747.72
499.38	15103.48
499.56	15183.06
499.73	15094.11
499.91	15279.02
500.08	15328.17
500.26	15468.60
500.44	15482.64
500.61	15466.26
500.79	15400.72
500.97	15768.19
501.14	15655.84
501.32	15775.21
501.49	15704.99
501.67	15665.21
501.84	15810.32
502.02	15604.35
502.20	16042.03
502.37	16109.91
502.55	16407.16
502.72	15882.88
502.90	16016.29
503.07	16109.91
503.25	16063.10
503.43	16266.72
503.60	16208.21
503.78	16388.43
503.95	16463.33
504.13	16512.48
504.30	16400.13
504.48	16327.58
504.65	16716.11
504.83	16650.57
505.01	16791.00
505.18	16795.68
505.36	17186.55
505.53	16840.15
505.71	16865.90
505.88	16915.05
506.06	16947.82
506.23	17444.01
506.41	16889.31
506.58	17170.17
506.76	17252.09
506.93	17366.78
507.11	17289.54
507.28	17486.14
507.46	17579.76
507.63	17720.20
507.81	17675.73
507.98	17554.02
508.16	17731.90
508.33	17762.33
508.50	17598.49
508.68	17956.59
508.85	18300.65
509.03	17860.63
509.20	17984.68
509.38	18335.76
509.55	18251.50
509.73	18258.52
509.90	18515.98
510.08	18190.64
510.25	18174.26
510.42	18462.15
510.60	18443.42
510.77	18623.64
510.95	18679.82
511.12	18462.15
511.30	18757.05
511.47	18628.32
511.64	19021.53
511.82	18913.87
511.99	18829.61
512.17	18853.02
512.34	19070.68
512.51	19096.43
512.69	19410.06
512.86	18630.66
513.04	19154.94
513.21	19557.52
513.38	19491.98
513.56	19534.11
513.73	19601.99
513.90	19466.24
514.08	19201.76
514.25	19740.08
514.43	19468.58
514.60	19613.69
514.77	19845.40
514.95	19864.13
515.12	19899.23
515.29	19847.74
515.47	19826.68
515.64	20135.63
515.81	19955.41
515.99	20032.65
516.16	20376.70
516.33	20079.46
516.51	20105.20
516.68	19962.43
516.85	20128.61
517.03	20580.33
517.20	20327.55
517.37	20585.01
517.54	20503.09
517.72	20137.97
517.89	20357.98
518.06	20629.48
518.24	20631.82
518.41	20554.58
518.58	20753.53
518.75	20786.30
518.93	20723.10
519.10	20900.98
519.27	20779.28
519.45	20643.52
519.62	20837.79
519.79	20910.35
519.96	21135.04
520.14	21013.33
520.31	20896.30
520.48	21326.96
520.65	21106.95
520.83	21350.37
521.00	21085.89
521.17	21443.99
521.34	21282.49
521.52	21458.03
521.69	21708.47
521.86	21443.99
522.03	21736.56
522.20	21462.71
522.38	21640.59
522.55	21851.24
522.72	21685.06
522.89	21949.54
523.07	21921.46
523.24	21956.57
523.41	22122.74
523.58	21965.93
523.75	22120.40
523.92	22160.19
524.10	21956.57
524.27	22256.15
524.44	22045.51
524.61	22742.99
524.78	22403.61
524.96	22101.68
525.13	22539.36
525.30	22438.72
525.47	22277.22
525.64	22405.95
525.81	22462.12
525.98	22794.48
526.16	22794.48
526.33	22780.43
526.50	23211.09
526.67	22705.54
526.84	22670.43
527.01	22302.96
527.18	23082.36
527.36	22752.35
527.53	23246.20
527.70	23105.77
527.87	23012.15
528.04	23087.04
528.21	23152.58
528.38	22845.97
528.55	23098.75
528.72	23213.43
528.89	23089.38
529.07	23197.05
529.24	23192.37
529.41	23520.04
529.58	23297.69
529.75	23412.38
529.92	23152.58
530.09	23770.48
530.26	23583.24
530.43	23403.02
530.60	23545.79
530.77	23770.48
530.94	23634.73
531.11	23491.96
531.28	23800.91
531.46	23557.49
531.63	24053.69
531.80	23819.63
531.97	23821.97
532.14	24156.67
532.31	23852.40
532.48	24065.39
532.65	23899.21
532.82	23775.16
532.99	24477.32
533.16	24105.18
533.33	24056.03
533.50	24479.66
533.67	24402.43
533.84	24432.85
534.01	24238.59
534.18	24100.50
534.35	24823.72
534.52	24257.31
534.69	24421.15
534.86	24634.14
535.03	24465.62
535.20	24568.60
535.37	24606.05
535.54	24444.56
535.71	24329.87
535.88	24514.77
536.05	24592.01
536.22	24907.98
536.38	24793.29
536.55	24809.68
536.72	25025.01
536.89	24924.36
537.06	24854.15
537.23	24966.49
537.40	24769.89
537.57	25069.48
537.74	24975.86
537.91	25212.25
538.08	25256.72
538.25	25029.69
538.42	25268.42
538.59	25202.89
538.75	24987.56
538.92	24938.41
539.09	25170.12
539.26	25247.36
539.43	25369.07
539.60	25399.49
539.77	25008.62
539.94	25563.33
540.11	25312.89
540.28	25764.62
540.44	25486.09
540.61	25586.74
540.78	25678.02
540.95	25528.22
541.12	25355.02
541.29	25467.37
541.46	25661.63
541.62	25465.03
541.79	25525.88
541.96	25390.13
542.13	25390.13
542.30	26078.25
542.47	26038.46
542.63	25687.38
542.80	26199.96
542.97	26199.96
543.14	26169.53
543.31	25874.62
543.48	26033.78
543.64	26160.17
543.81	26396.56
543.98	26249.11
544.15	26635.30
544.32	26305.28
544.48	26593.17
544.65	26464.44
544.82	26232.72
544.99	26260.81
545.16	26244.43
545.32	26532.31
545.49	26452.73
545.66	26625.93
545.83	26768.71
546.00	26906.80
546.16	26604.87
546.33	26497.20
546.50	26581.46
546.67	26525.29
546.83	26387.20
547.00	26700.83
547.17	26658.70
547.34	26944.25
547.50	27215.75
547.67	27292.99
547.84	26913.82
548.00	26771.05
548.17	26883.39
548.34	26822.54
548.51	27178.30
548.67	27197.02
548.84	26881.05
549.01	26979.36
549.18	26726.58
549.34	27075.32
549.51	27112.77
549.68	27344.48
549.84	27126.81
550.01	27101.06
550.18	27318.73
550.34	27477.89
550.51	27290.65
550.68	27494.27
550.84	27056.59
551.01	27276.60
551.18	26969.99
551.34	27225.11
551.51	27009.78
551.68	27234.47
551.84	27693.22
552.01	27634.71
552.18	27688.54
552.34	27620.66
552.51	27632.36
552.68	27480.23
552.84	27419.38
553.01	27716.62
553.18	27725.99
553.34	27737.69
553.51	27927.27
553.67	27634.71
553.84	27901.53
554.01	28128.56
554.17	27967.06
554.34	27866.42
554.51	27665.13
554.67	28004.51
554.84	27946.00
555.00	28046.64
555.17	28276.01
555.33	28116.86
555.50	27648.75
555.67	28166.01
555.83	27960.04
556.00	27974.08
556.16	28355.59
556.33	28128.56
556.50	27995.15
556.66	28247.93
556.83	28222.18
556.99	28458.57
557.16	28507.72
557.32	28348.57
557.49	28259.63
557.65	28299.42
557.82	28210.48
557.98	28088.77
558.15	28084.09
558.32	28767.52
558.48	28325.16
558.65	28442.19
558.81	28664.54
558.98	28727.74
559.14	28418.78
559.31	28203.46
559.47	28409.42
559.64	28390.70
559.80	28697.31
559.97	28732.42
560.13	28273.67
560.30	28580.28
560.46	28662.20
560.63	28390.70
560.79	28538.15
560.96	28926.68
561.12	28313.46
561.29	28765.18
561.45	28699.65
561.61	28931.36
561.78	29102.22
561.94	28924.34
562.11	28833.06
562.27	28634.11
562.44	28617.73
562.60	28769.86
562.77	28893.91
562.93	28643.48
563.10	28964.13
563.26	28683.27
563.42	29071.79
563.59	28746.46
563.75	28816.68
563.92	28975.83
564.08	28734.76
564.24	28748.80
564.41	28783.91
564.57	28781.57
564.74	28891.57
564.90	28931.36
565.07	29060.09
565.23	28985.19
565.39	28940.72
565.56	29179.46
565.72	28893.91
565.88	29209.89
566.05	28704.33
566.21	29017.96
566.38	28957.11
566.54	29142.01
566.70	29106.90
566.87	29521.18
567.03	29118.60
567.19	29624.16
567.36	29039.03
567.52	29394.79
567.68	29340.96
567.85	29212.23
568.01	29067.11
568.17	28840.08
568.34	28989.88
568.50	29177.12
568.66	29160.73
568.83	29771.61
568.99	29462.66
569.15	29263.72
569.32	28987.53
569.48	29139.67
569.64	29132.65
569.81	29179.46
569.97	29034.35
570.13	29034.35
570.30	29170.10
570.46	29287.12
570.62	29244.99
570.78	28992.22
570.95	29277.76
571.11	29584.37
571.27	29165.42
571.43	29062.43
571.60	29034.35
571.76	29294.14
571.92	29214.57
572.09	29521.18
572.25	29762.25
572.41	29355.00
572.57	29677.99
572.74	29551.60
572.90	29195.84
573.06	29235.63
573.22	29556.28
573.38	29532.88
573.55	29661.61
573.71	30155.46
573.87	29654.59
574.03	29727.14
574.20	29312.87
574.36	29230.95
574.52	29855.87
574.68	29390.11
574.84	29504.79
575.01	29776.30
575.17	29228.61
575.33	29219.25
575.49	29687.36
575.65	29647.57
575.82	29530.54
575.98	29539.90
576.14	29666.29
576.30	29659.27
576.46	29146.69
576.62	29228.61
576.79	29659.27
576.95	29481.39
577.11	29450.96
577.27	29823.11
577.43	29766.93
577.59	29685.01
577.75	29338.62
577.92	29113.92
578.08	29699.06
578.24	29776.30
578.40	29853.53
578.56	29603.10
578.72	29553.94
578.88	29474.37
579.04	29907.37
579.21	29404.15
579.37	30005.67
579.53	29715.44
579.69	29392.45
579.85	29362.02
580.01	29542.24
580.17	29640.54
580.33	29537.56
580.49	29724.80
580.65	29610.12
580.82	29713.10
580.98	29722.46
581.14	29727.14
581.30	29717.78
581.46	29656.93
581.62	29706.08
581.78	29504.79
581.94	29661.61
582.10	29703.74
582.26	29689.70
582.42	29497.77
582.58	29790.34
582.74	29954.18
582.90	29811.40
583.06	29558.63
583.22	29591.39
583.38	29579.69
583.54	29649.91
583.70	29565.65
583.86	29762.25
584.02	29544.58
584.18	29954.18
584.34	29521.18
584.50	29788.00
584.66	29427.56
584.82	29633.52
584.98	29654.59
585.14	29710.76
585.30	29652.25
585.46	29450.96
585.62	29350.32
585.78	29776.30
585.94	29661.61
586.10	29532.88
586.26	29839.49
586.42	30169.51
586.58	29839.49
586.74	29656.93
586.90	29282.44
587.06	29591.39
587.22	29392.45
587.38	29706.08
587.54	30457.39
587.70	30066.52
587.86	29912.05
588.02	29979.92
588.18	29933.11
588.34	30129.72
588.49	30197.59
588.65	29862.90
588.81	29523.52
588.97	29930.77
589.13	30106.31
589.29	29724.80
589.45	30064.18
589.61	30272.49
589.77	30012.69
589.93	30054.82
590.08	30050.14
590.24	30464.41
590.40	30050.14
590.56	29825.45
590.72	29921.41
590.88	29776.30
591.04	29715.44
591.20	30096.95
591.35	30244.40
591.51	30663.36
591.67	30328.66
591.83	30113.33
591.99	30071.20
