SpectraSuite Data File
++++++++++++++++++++++++++++++++++++
Date: Fri Oct 18 13:57:59 GMT-05:00 2013
User: bianchi
Dark Spectrum Present: No
Reference Spectrum Present: No
Number of Sampled Component Spectra: 1
Spectrometers: USB2+H05261
Integration Time (usec): 50000 (USB2+H05261)
Spectra Averaged: 1 (USB2+H05261)
Boxcar Smoothing: 0 (USB2+H05261)
Correct for Electrical Dark: No (USB2+H05261)
Strobe/Lamp Enabled: No (USB2+H05261)
Correct for Detector Non-linearity: No (USB2+H05261)
Correct for Stray Light: No (USB2+H05261)
Number of Pixels in Processed Spectrum: 2048
>>>>>Begin Processed Spectral Data<<<<<
365.73	0.00
365.92	0.00
366.12	0.00
366.32	0.00
366.52	0.00
366.72	0.00
366.91	0.00
367.11	0.00
367.31	0.00
367.51	0.00
367.70	0.00
367.90	0.00
368.10	0.00
368.30	0.00
368.49	0.00
368.69	0.00
368.89	0.00
369.09	0.00
369.28	0.00
369.48	0.00
369.68	0.00
369.87	0.00
370.07	0.00
370.27	0.00
370.47	0.00
370.66	102.98
370.86	49.15
371.06	198.95
371.25	156.82
371.45	140.43
371.65	107.66
371.84	133.41
372.04	140.43
372.24	196.60
372.44	170.86
372.63	117.03
372.83	177.88
373.03	220.01
373.22	203.63
373.42	166.18
373.62	264.48
373.81	147.45
374.01	252.78
374.21	318.31
374.40	252.78
374.60	271.50
374.79	318.31
374.99	257.46
375.19	231.71
375.38	259.80
375.58	264.48
375.78	294.91
375.97	266.82
376.17	252.78
376.37	210.65
376.56	198.95
376.76	252.78
376.95	269.16
377.15	301.93
377.35	311.29
377.54	306.61
377.74	320.65
377.93	243.42
378.13	269.16
378.33	318.31
378.52	278.52
378.72	278.52
378.91	334.70
379.11	315.97
379.31	215.33
379.50	266.82
379.70	351.08
379.89	287.89
380.09	264.48
380.28	257.46
380.48	332.36
380.68	276.18
380.87	255.12
381.07	283.20
381.26	250.44
381.46	332.36
381.65	348.74
381.85	332.36
382.04	322.99
382.24	407.25
382.43	292.57
382.63	402.57
382.83	351.08
383.02	341.72
383.22	327.68
383.41	299.59
383.61	358.10
383.80	379.17
384.00	386.19
384.19	379.17
384.39	372.15
384.58	409.59
384.78	421.30
384.97	447.04
385.17	409.59
385.36	290.23
385.56	348.74
385.75	395.55
385.95	423.64
386.14	470.45
386.34	365.12
386.53	381.51
386.72	388.53
386.92	477.47
387.11	440.02
387.31	449.38
387.50	409.59
387.70	463.43
387.89	397.89
388.09	418.96
388.28	479.81
388.48	461.09
388.67	475.13
388.86	433.00
389.06	449.38
389.25	430.66
389.45	486.83
389.64	348.74
389.84	543.00
390.03	449.38
390.22	472.79
390.42	484.49
390.61	461.09
390.81	528.96
391.00	603.86
391.19	521.94
391.39	538.32
391.58	493.85
391.78	575.77
391.97	580.45
392.16	535.98
392.36	599.18
392.55	585.13
392.75	547.69
392.94	592.16
393.13	477.47
393.33	496.19
393.52	587.47
393.71	650.67
393.91	631.94
394.10	528.96
394.29	507.90
394.49	688.12
394.68	589.82
394.88	592.16
395.07	599.18
395.26	552.37
395.46	578.11
395.65	622.58
395.84	718.54
396.04	620.24
396.23	704.50
396.42	683.44
396.62	697.48
396.81	615.56
397.00	669.39
397.19	683.44
397.39	706.84
397.58	664.71
397.77	678.76
397.97	683.44
398.16	730.25
398.35	720.88
398.55	784.08
398.74	657.69
398.93	730.25
399.12	681.10
399.32	734.93
399.51	711.52
399.70	777.06
399.90	669.39
400.09	760.67
400.28	739.61
400.47	800.46
400.67	844.93
400.86	784.08
401.05	777.06
401.24	812.17
401.44	847.27
401.63	807.48
401.82	840.25
402.01	777.06
402.21	835.57
402.40	858.98
402.59	866.00
402.78	858.98
402.97	945.58
403.17	849.61
403.36	912.81
403.55	922.17
403.74	898.77
403.93	828.55
404.13	940.90
404.32	896.43
404.51	889.40
404.70	924.51
404.89	994.73
405.09	901.11
405.28	1008.77
405.47	987.71
405.66	926.85
405.85	1107.07
406.05	1001.75
406.24	1055.58
406.43	1076.65
406.62	936.21
406.81	1039.20
407.00	1043.88
407.20	1015.79
407.39	1057.92
407.58	1034.52
407.77	1041.54
407.96	1067.28
408.15	1149.20
408.34	1006.43
408.54	1104.73
408.73	1172.61
408.92	1097.71
409.11	1149.20
409.30	1151.54
409.49	1095.37
409.68	1177.29
409.87	1165.59
410.07	1224.10
410.26	1193.67
410.45	1191.33
410.64	1144.52
410.83	1256.87
411.02	1240.48
411.21	1245.16
411.40	1299.00
411.59	1289.64
411.78	1320.06
411.98	1343.47
412.17	1348.15
412.36	1320.06
412.55	1315.38
412.74	1423.05
412.93	1434.75
413.12	1483.90
413.31	1472.20
413.50	1373.89
413.69	1409.00
413.88	1486.24
414.07	1479.22
414.26	1427.73
414.45	1474.54
414.64	1547.09
414.83	1565.82
415.02	1490.92
415.22	1586.88
415.41	1621.99
415.60	1568.16
415.79	1577.52
415.98	1605.61
416.17	1617.31
416.36	1631.35
416.55	1624.33
416.74	1666.46
416.93	1699.23
417.12	1696.89
417.31	1689.87
417.50	1629.01
417.69	1767.10
417.88	1710.93
418.07	1785.83
418.26	1657.10
418.45	1792.85
418.64	1895.83
418.83	1877.11
419.02	1757.74
419.21	1937.96
419.39	1940.30
419.58	1748.38
419.77	1877.11
419.96	2010.52
420.15	1867.75
420.34	1895.83
420.53	1909.88
420.72	2043.29
420.91	1858.39
421.10	1928.60
421.29	1856.04
421.48	2019.88
421.67	1968.39
421.86	2022.22
422.05	2078.40
422.24	2064.35
422.43	2136.91
422.61	2087.76
422.80	2031.58
422.99	1989.46
423.18	1989.46
423.37	2010.52
423.56	2062.01
423.75	2066.69
423.94	2010.52
424.13	1851.36
424.32	1987.11
424.50	2183.72
424.69	2239.89
424.88	2155.63
425.07	2038.61
425.26	2141.59
425.45	2190.74
425.64	2008.18
425.83	1982.43
426.01	2087.76
426.20	2157.97
426.39	2197.76
426.58	2090.10
426.77	2129.89
426.96	2115.84
427.15	2090.10
427.33	2225.85
427.52	2204.78
427.71	2179.04
427.90	2286.70
428.09	2232.87
428.28	2242.23
428.46	2284.36
428.65	2286.70
428.84	2389.69
429.03	2359.26
429.22	2253.94
429.40	2296.07
429.59	2284.36
429.78	2129.89
429.97	2291.38
430.16	2310.11
430.34	2340.54
430.53	2340.54
430.72	2401.39
430.91	2450.54
431.10	2385.01
431.28	2394.37
431.47	2504.37
431.66	2452.88
431.85	2406.07
432.03	2434.16
432.22	2495.01
432.41	2497.35
432.60	2424.80
432.79	2459.90
432.97	2541.82
433.16	2607.36
433.35	2602.68
433.54	2406.07
433.72	2614.38
433.91	2548.84
434.10	2483.31
434.28	2544.16
434.47	2612.04
434.66	2654.17
434.85	2656.51
435.03	2581.61
435.22	2672.89
435.41	2780.56
435.59	2541.82
435.78	2738.43
435.97	2649.49
436.16	2642.46
436.34	2724.38
436.53	2729.06
436.72	2808.64
436.90	2761.83
437.09	2724.38
437.28	2661.19
437.46	2768.85
437.65	2747.79
437.84	2729.06
438.02	2876.52
438.21	2862.48
438.40	2785.24
438.58	2850.77
438.77	3143.34
438.96	3077.80
439.14	3000.57
439.33	3035.67
439.52	3056.74
439.70	3077.80
439.89	3061.42
440.08	3063.76
440.26	3183.13
440.45	3171.43
440.63	3056.74
440.82	3206.53
441.01	3190.15
441.19	3318.88
441.38	3368.03
441.57	3372.71
441.75	3358.67
441.94	3281.43
442.12	3372.71
442.31	3478.04
442.50	3386.76
442.68	3468.67
442.87	3471.01
443.05	3431.23
443.24	3342.28
443.43	3545.91
443.61	3393.78
443.80	3515.48
443.98	3398.46
444.17	3342.28
444.35	3456.97
444.54	3499.10
444.73	3576.34
444.91	3384.41
445.10	3545.91
445.28	3529.53
445.47	3583.36
445.65	3494.42
445.84	3534.21
446.02	3499.10
446.21	3606.77
446.39	3559.95
446.58	3459.31
446.77	3545.91
446.95	3630.17
447.14	3688.68
447.32	3644.21
447.51	3676.98
447.69	3644.21
447.88	3611.45
448.06	3616.13
448.25	3714.43
448.43	3588.04
448.62	3669.96
448.80	3719.11
448.99	3648.90
449.17	3583.36
449.36	3592.72
449.54	3571.66
449.73	3786.99
449.91	3709.75
450.10	3803.37
450.28	3810.39
450.46	3843.16
450.65	3784.65
450.83	3782.31
451.02	3836.14
451.20	3857.20
451.39	3786.99
451.57	3782.31
451.76	3824.44
451.94	3854.86
452.13	3808.05
452.31	4009.34
452.49	3873.59
452.68	3964.87
452.86	3920.40
453.05	4105.30
453.23	4081.89
453.42	3971.89
453.60	3957.85
453.78	3953.16
453.97	3892.31
454.15	4039.76
454.34	4053.81
454.52	4109.98
454.70	4079.55
454.89	4109.98
455.07	4042.11
455.26	4168.49
455.44	4168.49
455.62	4098.28
455.81	4109.98
455.99	4131.05
456.17	4198.92
456.36	4329.99
456.54	4423.61
456.73	4337.01
456.91	4404.89
457.09	4337.01
457.28	4344.03
457.46	4397.87
457.64	4397.87
457.83	4367.44
458.01	4344.03
458.19	4564.04
458.38	4615.54
458.56	4636.60
458.74	4674.05
458.93	4634.26
459.11	4542.98
459.29	4542.98
459.48	4615.54
459.66	4535.96
459.84	4503.19
460.03	4737.24
460.21	4734.90
460.39	4610.86
460.57	4631.92
460.76	4608.51
460.94	4704.48
461.12	4727.88
461.31	4734.90
461.49	4748.95
461.67	4664.69
461.85	4835.55
462.04	4652.98
462.22	5210.03
462.40	4933.85
462.59	4774.69
462.77	4819.16
462.95	4849.59
463.13	4926.83
463.32	4744.27
463.50	5085.98
463.68	4875.34
463.86	4891.72
464.05	4924.49
464.23	4931.51
464.41	5039.17
464.59	4828.53
464.78	5081.30
464.96	5011.09
465.14	4957.25
465.32	5071.94
465.50	5163.22
465.69	5226.42
465.87	5088.32
466.05	5177.26
466.23	5151.52
466.41	5170.24
466.60	5320.04
466.78	5132.79
466.96	5355.15
467.14	5151.52
467.32	5151.52
467.51	5313.02
467.69	5034.49
467.87	5214.71
468.05	5380.89
468.23	5186.63
468.41	5224.08
468.60	5284.93
468.78	5416.00
468.96	5366.85
469.14	5376.21
469.32	5607.92
469.50	5266.21
469.69	5516.64
469.87	5469.83
470.05	5448.77
470.23	5530.69
470.41	5540.05
470.59	5748.36
470.77	5521.32
470.95	5738.99
471.14	5703.89
471.32	5643.03
471.50	5734.31
471.68	5746.02
471.86	5724.95
472.04	5640.69
472.22	5996.45
472.40	5856.02
472.58	5785.80
472.77	5860.70
472.95	5879.43
473.13	6202.42
473.31	5867.72
473.49	5937.94
473.67	6017.52
473.85	5942.62
474.03	6099.44
474.21	6069.01
474.39	6296.04
474.57	6279.66
474.75	6239.87
474.93	6258.59
475.12	6277.32
475.30	6431.79
475.48	6342.85
475.66	6628.40
475.84	6352.21
476.02	6628.40
476.20	6485.62
476.38	6726.70
476.56	6595.63
476.74	6703.29
476.92	6665.85
477.10	6864.79
477.28	6761.81
477.46	6747.76
477.64	6717.34
477.82	6878.83
478.00	7012.24
478.18	7190.13
478.36	7152.68
478.54	7351.62
478.72	7194.81
478.90	7206.51
479.08	7421.84
479.26	7492.05
479.44	7386.73
479.62	7548.23
479.80	7639.51
479.98	7712.07
480.16	7709.72
480.34	7686.32
480.52	7742.49
480.70	7798.66
480.88	7698.02
481.06	7913.35
481.24	7992.93
481.41	7936.76
481.59	8161.45
481.77	8189.53
481.95	8177.83
482.13	8346.35
482.31	8376.78
482.49	8376.78
482.67	8315.92
482.85	8351.03
483.03	8688.07
483.21	8847.22
483.39	8908.08
483.57	8608.49
483.74	8877.65
483.92	8961.91
484.10	8929.14
484.28	9205.33
484.46	9362.14
484.64	9472.15
484.82	9282.56
485.00	9462.79
485.18	9352.78
485.35	9579.81
485.53	9495.55
485.71	9586.83
485.89	10019.83
486.07	9816.21
486.25	9738.97
486.43	10001.11
486.61	9811.53
486.78	10139.20
486.96	10274.95
487.14	10373.25
487.32	10188.35
487.50	10331.12
487.68	10450.49
487.85	10736.04
488.03	10967.75
488.21	10731.36
488.39	10731.36
488.57	10869.45
488.75	10930.30
488.92	11103.50
489.10	10958.39
489.28	11295.43
489.46	11447.56
489.64	11185.42
489.81	11557.57
489.99	11695.66
490.17	11550.54
490.35	12004.61
490.53	11693.32
490.70	12035.03
490.88	11756.51
491.06	12128.66
491.24	12231.64
491.41	12093.55
491.59	12121.63
491.77	12196.53
491.95	12432.93
492.13	12428.24
492.30	12699.75
492.48	12594.42
492.66	12901.03
492.84	12795.71
493.01	12886.99
493.19	12945.50
493.37	12922.10
493.54	13055.51
493.72	13329.35
493.90	12931.46
494.08	13177.22
494.25	13341.05
494.43	13495.53
494.61	13521.27
494.79	13687.45
494.96	13734.26
495.14	13675.75
495.32	13708.52
495.49	13973.00
495.67	14185.99
495.85	14075.98
496.02	14398.98
496.20	14178.97
496.38	14176.62
496.55	14324.08
496.73	14621.33
496.91	14607.28
497.09	14752.40
497.26	14473.87
497.44	14808.57
497.62	14689.20
497.79	15197.10
497.97	14670.48
498.14	15236.89
498.32	15236.89
498.50	15246.25
498.67	15152.63
498.85	15417.11
499.03	15449.88
499.20	15541.16
499.38	15477.96
499.56	15613.71
499.73	15566.90
499.91	15679.25
500.08	15784.57
500.26	15735.42
500.44	15882.88
500.61	16102.89
500.79	15768.19
500.97	16030.33
501.14	16294.81
501.32	16177.78
501.49	16177.78
501.67	16128.63
501.84	16308.85
502.02	15999.90
502.20	16386.09
502.37	16802.71
502.55	16624.83
502.72	16400.13
502.90	16699.72
503.07	16556.95
503.25	16929.09
503.43	16423.54
503.60	16952.50
503.78	17106.98
503.95	16978.25
504.13	17029.74
504.30	17181.87
504.48	17111.66
504.65	17142.08
504.83	17275.49
505.01	17509.55
505.18	17451.03
505.36	17657.00
505.53	17371.46
505.71	17507.21
505.88	17497.84
506.06	17792.75
506.23	17752.96
506.41	17851.27
506.58	17727.22
506.76	17790.41
506.93	17862.97
507.11	17708.49
507.28	18160.22
507.46	18050.21
507.63	18216.39
507.81	18239.79
507.98	18223.41
508.16	18293.63
508.33	18333.42
508.50	18375.55
508.68	18705.56
508.85	18410.65
509.03	18387.25
509.20	18747.69
509.38	18925.57
509.55	18817.91
509.73	18850.67
509.90	18754.71
510.08	19070.68
510.25	18890.46
510.42	18970.04
510.60	19227.50
510.77	19194.73
510.95	19262.61
511.12	19351.55
511.30	19384.32
511.47	18988.77
511.64	19274.31
511.82	19604.33
511.99	19761.14
512.17	19524.75
512.34	19604.33
512.51	19370.27
512.69	19709.65
512.86	19658.16
513.04	20053.71
513.21	20144.99
513.38	20081.80
513.56	19990.52
513.73	19831.36
513.90	19711.99
514.08	19686.25
514.25	19969.45
514.43	20180.10
514.60	20107.54
514.77	20336.91
514.95	20327.55
515.12	20580.33
515.29	20376.70
515.47	20343.94
515.64	20828.43
515.81	20641.18
515.99	20872.90
516.16	21010.99
516.33	20884.60
516.51	20809.70
516.68	20821.41
516.85	20458.62
517.03	20872.90
517.20	21053.12
517.37	20634.16
517.54	21151.42
517.72	21373.77
517.89	20840.13
518.06	21266.11
518.24	21046.10
518.41	21088.23
518.58	21102.27
518.75	21352.71
518.93	21359.73
519.10	21317.60
519.27	21568.04
519.45	21549.31
519.62	21642.93
519.79	21521.23
519.96	21568.04
520.14	21724.85
520.31	21645.27
520.48	21582.08
520.65	21916.78
520.83	21853.58
521.00	22134.45
521.17	22146.15
521.34	22319.35
521.52	22363.82
521.69	22099.34
521.86	22251.47
522.03	22377.86
522.20	22338.07
522.38	22462.12
522.55	22207.00
522.72	22497.23
522.89	22485.53
523.07	22473.82
523.24	22597.87
523.41	22771.07
523.58	22565.10
523.75	22707.88
523.92	22370.84
524.10	22597.87
524.27	22831.93
524.44	23150.24
524.61	23087.04
524.78	22913.84
524.96	23407.70
525.13	22981.72
525.30	23255.56
525.47	23330.46
525.64	23227.48
525.81	23180.67
525.98	23328.12
526.16	23328.12
526.33	23400.68
526.50	23283.65
526.67	22998.10
526.84	23377.27
527.01	23255.56
527.18	23557.49
527.36	23562.17
527.53	23711.97
527.70	24027.94
527.87	23639.41
528.04	23718.99
528.21	23646.43
528.38	23887.51
528.55	23826.65
528.72	23875.80
528.89	23690.90
529.07	24112.20
529.24	23845.38
529.41	24175.39
529.58	24030.28
529.75	24114.54
529.92	24166.03
530.09	24233.91
530.26	24208.16
530.43	24315.83
530.60	24294.76
530.77	24240.93
530.94	24346.25
531.11	24479.66
531.28	24037.30
531.46	24498.39
531.63	24629.46
531.80	24613.07
531.97	24540.52
532.14	24720.74
532.31	24435.19
532.48	24533.50
532.65	25055.43
532.82	24458.60
532.99	24545.20
533.16	24861.17
533.33	24996.92
533.50	25209.91
533.67	25233.32
533.84	24814.36
534.01	24690.31
534.18	24905.64
534.35	25369.07
534.52	25336.30
534.69	25413.54
534.86	25371.41
535.03	25160.76
535.20	25102.25
535.37	25111.61
535.54	25340.98
535.71	24856.49
535.88	25245.02
536.05	25406.52
536.22	25752.91
536.38	25565.67
536.55	25497.80
536.72	25734.19
536.89	25596.10
537.06	25759.94
537.23	25593.76
537.40	25860.58
537.57	25582.06
537.74	25666.31
537.91	26324.01
538.08	25855.90
538.25	25984.63
538.42	25809.09
538.59	25961.22
538.75	25776.32
538.92	25958.88
539.09	26019.74
539.26	25804.41
539.43	25809.09
539.60	26178.89
539.77	26356.77
539.94	26419.97
540.11	26607.21
540.28	25883.98
540.44	26230.38
540.61	26040.80
540.78	26319.32
540.95	26157.83
541.12	26089.95
541.29	26316.98
541.46	26581.46
541.62	26368.48
541.79	26508.91
541.96	26345.07
542.13	26534.65
542.30	26478.48
542.47	26562.74
542.63	26836.58
542.80	27089.36
542.97	26867.01
543.14	27143.19
543.31	27147.87
543.48	27061.27
543.64	27271.92
543.81	27267.24
543.98	27175.96
544.15	26984.04
544.32	27580.87
544.48	27517.68
544.65	26972.33
544.82	27239.15
544.99	26927.86
545.16	27185.32
545.32	26829.56
545.49	27297.67
545.66	27814.93
545.83	27665.13
546.00	27580.87
546.16	27395.97
546.33	26944.25
546.50	27447.46
546.67	27576.19
546.83	27131.49
547.00	27630.02
547.17	27679.18
547.34	27625.34
547.50	27658.11
547.67	27782.16
547.84	28114.52
548.00	27651.09
548.17	27828.97
548.34	27660.45
548.51	27887.48
548.67	28182.39
548.84	28107.49
549.01	27960.04
549.18	27716.62
549.34	28037.28
549.51	27969.40
549.68	28140.26
549.84	27969.40
550.01	28067.70
550.18	27990.47
550.34	28343.89
550.51	28147.28
550.68	28140.26
550.84	28133.24
551.01	28308.78
551.18	28161.33
551.34	27946.00
551.51	27976.42
551.68	28273.67
551.84	28524.11
552.01	28364.95
552.18	28306.44
552.34	28741.78
552.51	28484.32
552.68	28563.90
552.84	28673.90
553.01	28727.74
553.18	28388.36
553.34	28783.91
553.51	28570.92
553.67	28727.74
553.84	28814.34
554.01	28662.20
554.17	28779.23
554.34	28741.78
554.51	28716.03
554.67	28985.19
554.84	28795.61
555.00	28884.55
555.17	28865.83
555.33	28966.47
555.50	28617.73
555.67	29102.22
555.83	29010.94
556.00	29116.26
556.16	29237.97
556.33	28907.96
556.50	29310.53
556.66	29027.32
556.83	29345.64
556.99	29268.40
557.16	29603.10
557.32	29404.15
557.49	29067.11
557.65	29113.92
557.82	29184.14
557.98	29247.33
558.15	28999.24
558.32	29252.02
558.48	29039.03
558.65	29619.48
558.81	29160.73
558.98	29490.75
559.14	29483.73
559.31	29518.84
559.47	29380.74
559.64	29582.03
559.80	29589.05
559.97	29532.88
560.13	29523.52
560.30	29233.29
560.46	29565.65
560.63	29661.61
560.79	29296.49
560.96	29795.02
561.12	29366.70
561.29	29586.71
561.45	29268.40
561.61	29427.56
561.78	29799.70
561.94	29710.76
562.11	29788.00
562.27	29818.42
562.44	29535.22
562.60	29926.09
562.77	29827.79
562.93	29837.15
563.10	29797.36
563.26	29933.11
563.42	29895.66
563.59	29745.87
563.75	29483.73
563.92	30176.53
564.08	29577.35
564.24	30092.27
564.41	29926.09
564.57	29912.05
564.74	29890.98
564.90	30101.63
565.07	29722.46
565.23	30087.59
565.39	30174.19
565.56	30054.82
565.72	30171.85
565.88	30118.01
566.05	29813.74
566.21	29912.05
566.38	29921.41
566.54	29975.24
566.70	30286.53
566.87	30558.03
567.03	30038.44
567.19	30354.41
567.36	30228.02
567.52	30263.13
567.68	30450.37
567.85	29914.39
568.01	30272.49
568.17	29893.32
568.34	30267.81
568.50	30003.33
568.66	30345.05
568.83	30340.36
568.99	30052.48
569.15	30373.13
569.32	30312.28
569.48	30089.93
569.64	30305.26
569.81	30176.53
569.97	30438.67
570.13	30277.17
570.30	30061.84
570.46	30654.00
570.62	30183.55
570.78	29900.34
570.95	30176.53
571.11	30328.66
571.27	30129.72
571.43	29907.37
571.60	30646.97
571.76	30466.75
571.92	30675.06
572.09	30380.15
572.25	30450.37
572.41	30401.22
572.57	30206.95
572.74	30574.42
572.90	30045.46
573.06	29916.73
573.22	30342.70
573.38	30352.07
573.55	30548.67
573.71	30913.80
573.87	30590.80
574.03	30649.32
574.20	30672.72
574.36	30375.47
574.52	30478.46
574.68	30665.70
574.84	30520.59
575.01	30052.48
575.17	30256.11
575.33	30178.87
575.49	30143.76
575.65	30651.66
575.82	30597.82
575.98	30644.63
576.14	30483.14
576.30	30721.87
576.46	30504.20
576.62	30396.54
576.79	30948.90
576.95	30342.70
577.11	30628.25
577.27	30789.75
577.43	30742.94
577.59	30579.10
577.75	30555.69
577.92	30408.24
578.08	30536.97
578.24	30405.90
578.40	30562.72
578.56	30623.57
578.72	30909.11
578.88	31431.05
579.04	30731.23
579.21	30747.62
579.37	31094.02
579.53	30677.40
579.69	30780.39
579.85	30677.40
580.01	30567.40
580.17	30408.24
580.33	30256.11
580.49	30560.37
580.65	30548.67
580.82	30838.90
580.98	30637.61
581.14	30799.11
581.30	31077.63
581.46	30602.50
581.62	30443.35
581.78	30408.24
581.94	30965.29
582.10	30808.47
582.26	30401.22
582.42	30604.84
582.58	30855.28
582.74	30925.50
582.90	30696.13
583.06	30932.52
583.22	30569.74
583.38	30529.95
583.54	30717.19
583.70	30686.76
583.86	30782.73
584.02	30572.08
584.18	31150.19
584.34	31222.75
584.50	31028.48
584.66	30958.27
584.82	30621.23
584.98	31042.53
585.14	30691.44
585.30	31044.87
585.46	30476.12
585.62	30623.57
585.78	30684.42
585.94	30703.15
586.10	30773.36
586.26	30920.82
586.42	31304.67
586.58	31068.27
586.74	30703.15
586.90	30995.71
587.06	30567.40
587.22	30686.76
587.38	30656.34
587.54	31005.08
587.70	30857.62
587.86	31496.59
588.02	31358.50
588.18	31248.49
588.34	30742.94
588.49	30693.79
588.65	30476.12
588.81	30583.78
588.97	31164.23
589.13	31475.52
589.29	31304.67
589.45	31133.81
589.61	31014.44
589.77	31197.00
589.93	31201.68
590.08	31388.92
590.24	31311.69
590.40	31482.55
590.56	31309.35
590.72	31367.86
590.88	30874.01
591.04	30890.39
591.20	30855.28
591.35	31477.86
591.51	31625.32
591.67	31377.22
591.83	31431.05
