SpectraSuite Data File
++++++++++++++++++++++++++++++++++++
Date: Fri Oct 18 13:57:54 GMT-05:00 2013
User: bianchi
Dark Spectrum Present: No
Reference Spectrum Present: No
Number of Sampled Component Spectra: 1
Spectrometers: USB2+H05261
Integration Time (usec): 50000 (USB2+H05261)
Spectra Averaged: 1 (USB2+H05261)
Boxcar Smoothing: 0 (USB2+H05261)
Correct for Electrical Dark: No (USB2+H05261)
Strobe/Lamp Enabled: No (USB2+H05261)
Correct for Detector Non-linearity: No (USB2+H05261)
Correct for Stray Light: No (USB2+H05261)
Number of Pixels in Processed Spectrum: 2048
>>>>>Begin Processed Spectral Data<<<<<
365.73	0.00
365.92	0.00
366.12	0.00
366.32	0.00
366.52	0.00
366.72	0.00
366.91	0.00
367.11	0.00
367.31	0.00
367.51	0.00
367.70	0.00
367.90	0.00
368.10	0.00
368.30	0.00
368.49	0.00
368.69	0.00
368.89	0.00
369.09	0.00
369.28	0.00
369.48	0.00
369.68	0.00
369.87	0.00
370.07	0.00
370.27	0.00
370.47	9.36
370.66	46.81
370.86	145.11
371.06	170.86
371.25	126.39
371.45	56.17
371.65	159.16
371.84	154.48
372.04	163.84
372.24	196.60
372.44	159.16
372.63	147.45
372.83	177.88
373.03	231.71
373.22	255.12
373.42	217.67
373.62	212.99
373.81	177.88
374.01	241.08
374.21	257.46
374.40	215.33
374.60	257.46
374.79	196.60
374.99	184.90
375.19	266.82
375.38	189.58
375.58	259.80
375.78	234.05
375.97	294.91
376.17	322.99
376.37	229.37
376.56	229.37
376.76	229.37
376.95	285.55
377.15	379.17
377.35	255.12
377.54	255.12
377.74	344.06
377.93	311.29
378.13	203.63
378.33	294.91
378.52	311.29
378.72	341.72
378.91	290.23
379.11	297.25
379.31	243.42
379.50	257.46
379.70	308.95
379.89	369.80
380.09	301.93
380.28	365.12
380.48	341.72
380.68	353.42
380.87	330.02
381.07	332.36
381.26	313.63
381.46	299.59
381.65	306.61
381.85	362.78
382.04	311.29
382.24	334.70
382.43	315.97
382.63	320.65
382.83	297.25
383.02	346.40
383.22	433.00
383.41	351.08
383.61	365.12
383.80	351.08
384.00	322.99
384.19	320.65
384.39	397.89
384.58	407.25
384.78	339.38
384.97	414.27
385.17	393.21
385.36	376.83
385.56	360.44
385.75	411.93
385.95	372.15
386.14	449.38
386.34	390.87
386.53	451.72
386.72	414.27
386.92	395.55
387.11	507.90
387.31	465.77
387.50	470.45
387.70	423.64
387.89	524.28
388.09	528.96
388.28	500.87
388.48	500.87
388.67	402.57
388.86	428.32
389.06	374.49
389.25	454.06
389.45	503.22
389.64	507.90
389.84	507.90
390.03	500.87
390.22	610.88
390.42	409.59
390.61	533.64
390.81	482.15
391.00	437.68
391.19	435.34
391.39	472.79
391.58	526.62
391.78	500.87
391.97	482.15
392.16	559.39
392.36	547.69
392.55	603.86
392.75	566.41
392.94	547.69
393.13	503.22
393.33	543.00
393.52	594.50
393.71	545.34
393.91	594.50
394.10	601.52
394.29	725.57
394.49	613.22
394.68	585.13
394.88	543.00
395.07	627.26
395.26	683.44
395.46	695.14
395.65	671.73
395.84	727.91
396.04	641.31
396.23	617.90
396.42	615.56
396.62	660.03
396.81	781.74
397.00	753.65
397.19	763.01
397.39	627.26
397.58	720.88
397.77	730.25
397.97	723.23
398.16	704.50
398.35	688.12
398.55	748.97
398.74	791.10
398.93	744.29
399.12	641.31
399.32	770.04
399.51	858.98
399.70	837.91
399.90	767.70
400.09	734.93
400.28	784.08
400.47	777.06
400.67	856.64
400.86	844.93
401.05	828.55
401.24	833.23
401.44	812.17
401.63	823.87
401.82	774.72
402.01	812.17
402.21	814.51
402.40	880.04
402.59	866.00
402.78	854.30
402.97	786.42
403.17	997.07
403.36	983.02
403.55	905.79
403.74	880.04
403.93	950.26
404.13	884.72
404.32	851.96
404.51	931.53
404.70	929.19
404.89	915.15
405.09	1050.90
405.28	966.64
405.47	1055.58
405.66	931.53
405.85	1067.28
406.05	1069.62
406.24	1102.39
406.43	1064.94
406.62	1034.52
406.81	1109.41
407.00	1102.39
407.20	1048.56
407.39	1060.26
407.58	1132.82
407.77	1071.97
407.96	1029.84
408.15	1078.99
408.34	1188.99
408.54	1149.20
408.73	1086.01
408.92	1130.48
409.11	1165.59
409.30	1196.01
409.49	1179.63
409.68	1221.76
409.87	1233.46
410.07	1254.53
410.26	1153.88
410.45	1273.25
410.64	1191.33
410.83	1242.82
411.02	1261.55
411.21	1362.19
411.40	1228.78
411.59	1270.91
411.78	1270.91
411.98	1245.16
412.17	1357.51
412.36	1387.94
412.55	1401.98
412.74	1418.36
412.93	1313.04
413.12	1341.13
413.31	1383.26
413.50	1394.96
413.69	1423.05
413.88	1427.73
414.07	1507.30
414.26	1575.18
414.45	1516.67
414.64	1507.30
414.83	1535.39
415.02	1563.48
415.22	1547.09
415.41	1619.65
415.60	1596.25
415.79	1617.31
415.98	1568.16
416.17	1699.23
416.36	1706.25
416.55	1736.68
416.74	1701.57
416.93	1678.16
417.12	1769.44
417.31	1713.27
417.50	1727.32
417.69	1774.13
417.88	1792.85
418.07	1717.95
418.26	1720.29
418.45	1832.64
418.64	1905.20
418.83	1799.87
419.02	1825.62
419.21	1881.79
419.39	1898.17
419.58	1813.92
419.77	1830.30
419.96	1881.79
420.15	1947.33
420.34	1879.45
420.53	1926.26
420.72	1956.69
420.91	1942.64
421.10	1923.92
421.29	2094.78
421.48	1968.39
421.67	2001.16
421.86	1996.48
422.05	2148.61
422.24	1902.86
422.43	2017.54
422.61	2139.25
422.80	2094.78
422.99	1994.14
423.18	2094.78
423.37	2108.82
423.56	1952.01
423.75	1989.46
423.94	2059.67
424.13	2029.24
424.32	1970.73
424.50	2186.06
424.69	2211.81
424.88	2085.42
425.07	2090.10
425.26	2047.97
425.45	2054.99
425.64	2134.57
425.83	2160.31
426.01	2214.15
426.20	2073.71
426.39	1994.14
426.58	2153.29
426.77	2237.55
426.96	2186.06
427.15	2150.95
427.33	2204.78
427.52	2209.47
427.71	2153.29
427.90	2272.66
428.09	2284.36
428.28	2195.42
428.46	2111.16
428.65	2204.78
428.84	2382.67
429.03	2422.45
429.22	2244.57
429.40	2328.83
429.59	2249.25
429.78	2139.25
429.97	2324.15
430.16	2373.30
430.34	2345.22
430.53	2410.75
430.72	2392.03
430.91	2448.20
431.10	2326.49
431.28	2303.09
431.47	2389.69
431.66	2473.95
431.85	2392.03
432.03	2495.01
432.22	2651.83
432.41	2516.08
432.60	2518.42
432.79	2504.37
432.97	2572.25
433.16	2497.35
433.35	2534.80
433.54	2551.18
433.72	2424.80
433.91	2492.67
434.10	2579.27
434.28	2567.57
434.47	2703.32
434.66	2595.65
434.85	2703.32
435.03	2609.70
435.22	2637.78
435.41	2733.75
435.59	2684.59
435.78	2743.11
435.97	2747.79
436.16	2661.19
436.34	2726.72
436.53	2860.13
436.72	2899.92
436.90	2761.83
437.09	2843.75
437.28	2675.23
437.46	2818.00
437.65	2855.45
437.84	2832.05
438.02	2860.13
438.21	2916.31
438.40	2850.77
438.58	2906.95
438.77	2967.80
438.96	3002.91
439.14	3108.23
439.33	2946.73
439.52	3033.33
439.70	3052.06
439.89	3045.04
440.08	3028.65
440.26	3061.42
440.45	3187.81
440.63	3220.58
440.82	3222.92
441.01	3157.38
441.19	3323.56
441.38	3293.13
441.57	3335.26
441.75	3372.71
441.94	3318.88
442.12	3356.33
442.31	3522.51
442.50	3475.70
442.68	3300.16
442.87	3330.58
443.05	3494.42
443.24	3524.85
443.43	3494.42
443.61	3527.19
443.80	3665.28
443.98	3410.16
444.17	3426.54
444.35	3473.36
444.54	3592.72
444.73	3492.08
444.91	3405.48
445.10	3449.95
445.28	3386.76
445.47	3529.53
445.65	3616.13
445.84	3566.98
446.02	3522.51
446.21	3627.83
446.39	3513.14
446.58	3538.89
446.77	3543.57
446.95	3508.46
447.14	3674.64
447.32	3597.40
447.51	3595.06
447.69	3499.10
447.88	3604.42
448.06	3744.86
448.25	3632.51
448.43	3684.00
448.62	3538.89
448.80	3658.26
448.99	3653.58
449.17	3803.37
449.36	3665.28
449.54	3744.86
449.73	3742.52
449.91	3777.62
450.10	3803.37
450.28	3840.82
450.46	3859.54
450.65	3763.58
450.83	3871.25
451.02	3824.44
451.20	3911.04
451.39	3929.76
451.57	3850.18
451.76	3927.42
451.94	4002.32
452.13	4035.08
452.31	3995.29
452.49	3831.46
452.68	3901.67
452.86	3885.29
453.05	3908.69
453.23	4030.40
453.42	3957.85
453.60	3957.85
453.78	4058.49
453.97	3887.63
454.15	4077.21
454.34	4131.05
454.52	4159.13
454.70	4318.29
454.89	4311.27
455.07	4098.28
455.26	4294.88
455.44	4386.16
455.62	4294.88
455.81	4107.64
455.99	4224.67
456.17	4348.72
456.36	4358.08
456.54	4243.39
456.73	4334.67
456.91	4395.53
457.09	4421.27
457.28	4519.57
457.46	4381.48
457.64	4470.42
457.83	4442.34
458.01	4381.48
458.19	4531.28
458.38	4404.89
458.56	4554.68
458.74	4550.00
458.93	4550.00
459.11	4486.81
459.29	4517.23
459.48	4629.58
459.66	4648.30
459.84	4641.28
460.03	4727.88
460.21	4725.54
460.39	4575.75
460.57	4624.90
460.76	4634.26
460.94	4788.74
461.12	4748.95
461.31	4814.48
461.49	4791.08
461.67	4711.50
461.85	4645.96
462.04	4950.23
462.22	5179.61
462.40	4887.04
462.59	4851.93
462.77	4905.76
462.95	4975.98
463.13	4884.70
463.32	4994.70
463.50	4917.47
463.68	5022.79
463.86	4943.21
464.05	5093.01
464.23	4952.57
464.41	5039.17
464.59	4908.10
464.78	4945.55
464.96	5022.79
465.14	5041.51
465.32	4980.66
465.50	5235.78
465.69	5156.20
465.87	5322.38
466.05	5039.17
466.23	5130.45
466.41	5179.61
466.60	5320.04
466.78	5240.46
466.96	5284.93
467.14	5214.71
467.32	5329.40
467.51	5313.02
467.69	5116.41
467.87	5322.38
468.05	5313.02
468.23	5294.29
468.41	5378.55
468.60	5502.60
468.78	5556.43
468.96	5247.48
469.14	5514.30
469.32	5483.88
469.50	5423.02
469.69	5259.18
469.87	5549.41
470.05	5502.60
470.23	5565.79
470.41	5762.40
470.59	5467.49
470.77	5486.22
470.95	5643.03
471.14	5589.20
471.32	5748.36
471.50	5755.38
471.68	5774.10
471.86	5769.42
472.04	5954.32
472.22	5947.30
472.40	5860.70
472.58	6024.54
472.77	5865.38
472.95	5989.43
473.13	6099.44
473.31	5970.71
473.49	6087.73
473.67	5984.75
473.85	6207.10
474.03	6176.67
474.21	6195.40
474.39	6307.74
474.57	6153.27
474.75	6448.18
474.93	6466.90
475.12	6345.19
475.30	6511.37
475.48	6359.24
475.66	6480.94
475.84	6576.91
476.02	6558.18
476.20	6604.99
476.38	6569.88
476.56	6696.27
476.74	6759.47
476.92	6551.16
477.10	6942.03
477.28	7014.59
477.46	6775.85
477.64	7033.31
477.82	7070.76
478.00	7152.68
478.18	7126.93
478.36	7194.81
478.54	7131.61
478.72	7119.91
478.90	7253.32
479.08	7335.24
479.26	7442.90
479.44	7515.46
479.62	7470.99
479.80	7595.04
479.98	7667.60
480.16	7707.38
480.34	7655.89
480.52	7892.29
480.70	7932.08
480.88	7751.85
481.06	7714.41
481.24	7880.58
481.41	8065.49
481.59	8098.25
481.77	8276.13
481.95	8332.31
482.13	8390.82
482.31	8362.73
482.49	8231.66
482.67	8580.40
482.85	8613.17
483.03	8748.92
483.21	8702.11
483.39	8662.32
483.57	8727.86
483.74	9137.45
483.92	9029.79
484.10	9053.19
484.28	9163.20
484.46	9233.41
484.64	9411.29
484.82	9282.56
485.00	9537.68
485.18	9652.37
485.35	9596.20
485.53	9727.27
485.71	9668.75
485.89	10120.48
486.07	9921.53
486.25	10153.24
486.43	9977.70
486.61	10064.30
486.78	10078.35
486.96	10174.31
487.14	10422.41
487.32	10399.00
487.50	10626.03
487.68	10558.16
487.85	10670.50
488.03	10829.66
488.21	10775.83
488.39	11194.78
488.57	11056.69
488.75	11075.42
488.92	11204.14
489.10	11232.23
489.28	11330.53
489.46	11283.72
489.64	11477.99
489.81	11367.98
489.99	11932.05
490.17	11913.33
490.35	11747.15
490.53	12002.27
490.70	11847.79
490.88	11800.98
491.06	12180.15
491.24	12044.40
491.41	12358.03
491.59	12184.83
491.77	12369.73
491.95	12732.51
492.13	12704.43
492.30	12496.12
492.48	12917.42
492.66	12620.17
492.84	12765.28
493.01	13029.76
493.19	13060.19
493.37	13165.51
493.54	13125.72
493.72	13238.07
493.90	13378.50
494.08	13415.95
494.25	13518.93
494.43	13657.03
494.61	13888.74
494.79	13774.05
494.96	13661.71
495.14	13830.23
495.32	13862.99
495.49	14092.37
495.67	14036.19
495.85	14157.90
496.02	14548.77
496.20	14303.01
496.38	14555.79
496.55	14232.80
496.73	14764.10
496.91	14583.88
497.09	14867.08
497.26	14913.89
497.44	14965.39
497.62	14672.82
497.79	15117.52
497.97	15028.58
498.14	15147.95
498.32	15382.00
498.50	15297.74
498.67	15417.11
498.85	15302.42
499.03	15351.57
499.20	15484.98
499.38	15557.54
499.56	15688.61
499.73	15461.58
499.91	15763.51
500.08	16116.93
500.26	15859.47
500.44	15906.28
500.61	16226.93
500.79	16107.57
500.97	15901.60
501.14	16578.01
501.32	16369.71
501.49	16350.98
501.67	16339.28
501.84	16416.52
502.02	16435.24
502.20	16463.33
502.37	16517.16
502.55	16655.25
502.72	16552.27
502.90	16842.50
503.07	16943.14
503.25	16788.66
503.43	17085.91
503.60	16929.09
503.78	17483.80
503.95	17221.66
504.13	17483.80
504.30	17167.83
504.48	17298.90
504.65	17282.52
504.83	17371.46
505.01	17628.92
505.18	17504.87
505.36	17767.01
505.53	17647.64
505.71	17888.71
505.88	17708.49
506.06	17605.51
506.23	18031.49
506.41	17977.65
506.58	18045.53
506.76	18111.07
506.93	17989.36
507.11	18075.96
507.28	18391.93
507.46	18408.31
507.63	18499.59
507.81	18382.57
507.98	18059.57
508.16	18192.98
508.33	18717.26
508.50	18764.07
508.68	18485.55
508.85	18750.03
509.03	18916.21
509.20	18717.26
509.38	18824.93
509.55	18904.51
509.73	18822.59
509.90	18984.09
510.08	18850.67
510.25	18998.13
510.42	19054.30
510.60	19126.86
510.77	19452.19
510.95	19267.29
511.12	19257.93
511.30	19461.55
511.47	19501.34
511.64	19470.92
511.82	19861.79
511.99	19618.37
512.17	19646.46
512.34	19686.25
512.51	19742.42
512.69	19880.51
512.86	19606.67
513.04	20306.49
513.21	20100.52
513.38	20091.16
513.56	20266.70
513.73	20081.80
513.90	20205.84
514.08	20306.49
514.25	20390.75
514.43	20397.77
514.60	20767.57
514.77	20615.44
514.95	20596.71
515.12	20395.43
515.29	20264.36
515.47	20577.99
515.64	20945.45
515.81	20526.50
515.99	20922.05
516.16	21003.97
516.33	21060.14
516.51	20835.45
516.68	20889.28
516.85	20599.05
517.03	21125.68
517.20	21097.59
517.37	21198.23
517.54	21156.10
517.72	21408.88
517.89	21198.23
518.06	21282.49
518.24	21046.10
518.41	21247.38
518.58	21436.97
518.75	21125.68
518.93	22015.08
519.10	21795.07
519.27	21792.73
519.45	21664.00
519.62	21907.41
519.79	21549.31
519.96	21811.45
520.14	22050.19
520.31	22295.94
520.48	22122.74
520.65	22167.21
520.83	22298.28
521.00	22071.25
521.17	22033.80
521.34	21848.90
521.52	22059.55
521.69	22317.01
521.86	22562.76
522.03	22331.05
522.20	22525.32
522.38	22600.21
522.55	22614.26
522.72	22525.32
522.89	22611.92
523.07	22867.03
523.24	22977.04
523.41	22810.86
523.58	22773.41
523.75	22883.42
523.92	22803.84
524.10	22572.13
524.27	23019.17
524.44	23358.55
524.61	23314.08
524.78	23232.16
524.96	23267.27
525.13	23407.70
525.30	22960.66
525.47	23466.21
525.64	23445.15
525.81	23318.76
525.98	23655.79
526.16	23548.13
526.33	23833.68
526.50	23709.63
526.67	23491.96
526.84	23356.21
527.01	23707.29
527.18	23875.80
527.36	24100.50
527.53	24107.52
527.70	24182.42
527.87	24105.18
528.04	23669.84
528.21	23946.02
528.38	24137.94
528.55	24039.64
528.72	23887.51
528.89	24582.65
529.07	23999.85
529.24	24159.01
529.41	24060.71
529.58	24093.47
529.75	24362.64
529.92	24287.74
530.09	24584.99
530.26	24418.81
530.43	24479.66
530.60	24400.08
530.77	24498.39
530.94	24734.78
531.11	24751.17
531.28	24306.46
531.46	24678.61
531.63	24797.98
531.80	24961.81
531.97	24996.92
532.14	25572.69
532.31	24966.49
532.48	24922.02
532.65	24987.56
532.82	24807.34
532.99	25146.72
533.16	25097.56
533.33	24959.47
533.50	25476.73
533.67	25294.17
533.84	25289.49
534.01	25170.12
534.18	25333.96
534.35	25340.98
534.52	25425.24
534.69	25626.53
534.86	25900.37
535.03	25570.35
535.20	25558.65
535.37	25193.53
535.54	25766.96
535.71	25624.18
535.88	25757.60
536.05	25280.13
536.22	25720.15
536.38	25832.49
536.55	25872.28
536.72	26146.12
536.89	25937.82
537.06	25701.42
537.23	25975.27
537.40	25663.97
537.57	26204.64
537.74	26118.04
537.91	26237.41
538.08	26129.74
538.25	26384.86
538.42	26319.32
538.59	26347.41
538.75	26279.54
538.92	26300.60
539.09	26256.13
539.26	26359.11
539.43	26426.99
539.60	26815.52
539.77	26335.71
539.94	27063.61
540.11	26691.47
540.28	26724.24
540.44	26541.68
540.61	26625.93
540.78	26553.38
540.95	26518.27
541.12	26749.98
541.29	26511.25
541.46	26347.41
541.62	26726.58
541.79	26738.28
541.96	26513.59
542.13	26450.39
542.30	26953.61
542.47	27168.94
542.63	26782.75
542.80	27370.22
542.97	27171.28
543.14	27295.33
543.31	27356.18
543.48	27323.41
543.64	27520.02
543.81	27786.84
543.98	27428.74
544.15	27545.76
544.32	27075.32
544.48	27503.64
544.65	27330.44
544.82	27517.68
544.99	27314.05
545.16	27758.75
545.32	27758.75
545.49	27665.13
545.66	27669.81
545.83	27793.86
546.00	27835.99
546.16	27814.93
546.33	27580.87
546.50	27644.07
546.67	27838.33
546.83	27644.07
547.00	27857.06
547.17	28154.30
547.34	27742.37
547.50	27824.29
547.67	28376.66
547.84	28166.01
548.00	28294.74
548.17	28116.86
548.34	28032.60
548.51	28446.87
548.67	28250.27
548.84	28250.27
549.01	28198.77
549.18	28261.97
549.34	28168.35
549.51	28283.03
549.68	28411.76
549.84	28428.15
550.01	28493.68
550.18	28484.32
550.34	28507.72
550.51	28308.78
550.68	28753.48
550.84	28753.48
551.01	28606.03
551.18	28343.89
551.34	28641.14
551.51	28615.39
551.68	28837.74
551.84	28591.98
552.01	28563.90
552.18	28683.27
552.34	28505.38
552.51	28739.44
552.68	28496.02
552.84	28690.29
553.01	28947.75
553.18	29043.71
553.34	29125.63
553.51	28669.22
553.67	29441.60
553.84	28933.70
554.01	29207.55
554.17	28861.15
554.34	28875.19
554.51	28833.06
554.67	29277.76
554.84	28987.53
555.00	29195.84
555.17	29158.39
555.33	29202.86
555.50	28793.27
555.67	29102.22
555.83	29490.75
556.00	29364.36
556.16	29710.76
556.33	29481.39
556.50	29425.22
556.66	29535.22
556.83	29453.30
556.99	29673.31
557.16	29392.45
557.32	29530.54
557.49	29443.94
557.65	29212.23
557.82	29399.47
557.98	29450.96
558.15	29790.34
558.32	29741.19
558.48	29619.48
558.65	29916.73
558.81	29776.30
558.98	29942.47
559.14	29825.45
559.31	29905.02
559.47	29773.95
559.64	29773.95
559.80	29769.27
559.97	30022.05
560.13	29755.23
560.30	29977.58
560.46	29738.85
560.63	30108.65
560.79	30197.59
560.96	30068.86
561.12	29720.12
561.29	29783.32
561.45	29996.31
561.61	29848.85
561.78	29827.79
561.94	30433.99
562.11	30064.18
562.27	30101.63
562.44	29851.19
562.60	30103.97
562.77	30078.22
562.93	30185.89
563.10	30218.66
563.26	30115.67
563.42	30806.13
563.59	30052.48
563.75	30057.16
563.92	29895.66
564.08	30087.59
564.24	30286.53
564.41	30244.40
564.57	30005.67
564.74	30543.99
564.90	30260.79
565.07	30473.78
565.23	30518.25
565.39	30387.18
565.56	30785.07
565.72	30307.60
565.88	30167.16
566.05	30265.47
566.21	30160.14
566.38	30583.78
566.54	30384.83
566.70	30775.70
566.87	30492.50
567.03	30754.64
567.19	30714.85
567.36	30742.94
567.52	30639.95
567.68	30546.33
567.85	30387.18
568.01	30408.24
568.17	30157.80
568.34	30684.42
568.50	30583.78
568.66	30569.74
568.83	30883.37
568.99	30609.53
569.15	30742.94
569.32	30508.88
569.48	30363.77
569.64	30852.94
569.81	30199.93
569.97	30476.12
570.13	30705.49
570.30	30504.20
570.46	30831.88
570.62	30651.66
570.78	30707.83
570.95	30235.04
571.11	30677.40
571.27	30333.34
571.43	30560.37
571.60	30771.02
571.76	30534.63
571.92	30806.13
572.09	30752.30
572.25	30991.03
572.41	30878.69
572.57	30672.72
572.74	31138.49
572.90	30845.92
573.06	30642.29
573.22	30735.92
573.38	30902.09
573.55	30370.79
573.71	31241.47
573.87	31255.51
574.03	31140.83
574.20	30946.56
574.36	30799.11
574.52	30864.64
574.68	30841.24
574.84	31133.81
575.01	30801.45
575.17	31257.85
575.33	30672.72
575.49	30771.02
575.65	31288.28
575.82	31213.38
575.98	30801.45
576.14	31150.19
576.30	31065.93
576.46	30944.22
576.62	30558.03
576.79	31044.87
576.95	30639.95
577.11	30855.28
577.27	31065.93
577.43	31117.42
577.59	31124.44
577.75	31091.68
577.92	30780.39
578.08	30955.93
578.24	30806.13
578.40	31014.44
578.56	30986.35
578.72	31168.91
578.88	31091.68
579.04	31321.05
579.21	31096.36
579.37	31229.77
579.53	31267.22
579.69	30850.60
579.85	30487.82
580.01	30682.08
580.17	30726.55
580.33	30955.93
580.49	31115.08
580.65	31440.42
580.82	31072.95
580.98	31440.42
581.14	31335.09
581.30	31239.13
581.46	30768.68
581.62	30913.80
581.78	31079.97
581.94	31126.78
582.10	30834.22
582.26	31292.96
582.42	31005.08
582.58	31234.45
582.74	30988.69
582.90	31197.00
583.06	31096.36
583.22	30955.93
583.38	31227.43
583.54	31290.62
583.70	31372.54
583.86	31115.08
584.02	31189.98
584.18	31201.68
584.34	31157.21
584.50	31522.34
584.66	31197.00
584.82	30909.11
584.98	31248.49
585.14	31000.40
585.30	31185.30
585.46	30955.93
585.62	31143.17
585.78	31136.15
585.94	31009.76
586.10	31068.27
586.26	31222.75
586.42	31248.49
586.58	31587.87
586.74	31014.44
586.90	31309.35
587.06	31267.22
587.22	31646.38
587.38	31402.97
587.54	31337.43
587.70	31428.71
587.86	31475.52
588.02	31622.98
588.18	31632.34
588.34	31651.06
588.49	31852.35
588.65	31381.90
588.81	31527.02
588.97	31377.22
589.13	31395.95
589.29	31264.88
589.45	31154.87
589.61	31232.11
589.77	31784.48
589.93	31730.64
590.08	31798.52
590.24	31637.02
590.40	31365.52
590.56	31386.58
590.72	31421.69
590.88	31426.37
591.04	31765.75
591.20	31634.68
591.35	32020.87
591.51	31878.10
591.67	31433.39
591.83	31920.23
