SpectraSuite Data File
++++++++++++++++++++++++++++++++++++
Date: Fri Oct 18 13:58:14 GMT-05:00 2013
User: bianchi
Dark Spectrum Present: No
Reference Spectrum Present: No
Number of Sampled Component Spectra: 1
Spectrometers: USB2+H05261
Integration Time (usec): 50000 (USB2+H05261)
Spectra Averaged: 1 (USB2+H05261)
Boxcar Smoothing: 0 (USB2+H05261)
Correct for Electrical Dark: No (USB2+H05261)
Strobe/Lamp Enabled: No (USB2+H05261)
Correct for Detector Non-linearity: No (USB2+H05261)
Correct for Stray Light: No (USB2+H05261)
Number of Pixels in Processed Spectrum: 2048
>>>>>Begin Processed Spectral Data<<<<<
365.73	0.00
365.92	0.00
366.12	0.00
366.32	0.00
366.52	0.00
366.72	0.00
366.91	0.00
367.11	0.00
367.31	0.00
367.51	0.00
367.70	0.00
367.90	0.00
368.10	0.00
368.30	0.00
368.49	0.00
368.69	0.00
368.89	0.00
369.09	0.00
369.28	0.00
369.48	0.00
369.68	0.00
369.87	0.00
370.07	0.00
370.27	0.00
370.47	0.00
370.66	81.92
370.86	100.64
371.06	81.92
371.25	154.48
371.45	65.54
371.65	191.92
371.84	154.48
372.04	124.05
372.24	173.20
372.44	196.60
372.63	201.29
372.83	220.01
373.03	189.58
373.22	220.01
373.42	243.42
373.62	177.88
373.81	220.01
374.01	145.11
374.21	290.23
374.40	257.46
374.60	236.39
374.79	231.71
374.99	252.78
375.19	280.86
375.38	212.99
375.58	191.92
375.78	205.97
375.97	348.74
376.17	259.80
376.37	231.71
376.56	248.10
376.76	236.39
376.95	182.56
377.15	255.12
377.35	283.20
377.54	236.39
377.74	327.68
377.93	290.23
378.13	243.42
378.33	294.91
378.52	243.42
378.72	299.59
378.91	334.70
379.11	243.42
379.31	287.89
379.50	306.61
379.70	280.86
379.89	264.48
380.09	273.84
380.28	220.01
380.48	322.99
380.68	250.44
380.87	292.57
381.07	299.59
381.26	407.25
381.46	248.10
381.65	404.91
381.85	301.93
382.04	318.31
382.24	330.02
382.43	332.36
382.63	294.91
382.83	355.76
383.02	402.57
383.22	266.82
383.41	397.89
383.61	292.57
383.80	458.74
384.00	395.55
384.19	362.78
384.39	362.78
384.58	393.21
384.78	379.17
384.97	381.51
385.17	414.27
385.36	362.78
385.56	351.08
385.75	414.27
385.95	400.23
386.14	404.91
386.34	360.44
386.53	395.55
386.72	379.17
386.92	362.78
387.11	418.96
387.31	388.53
387.50	334.70
387.70	442.36
387.89	418.96
388.09	379.17
388.28	397.89
388.48	423.64
388.67	475.13
388.86	416.62
389.06	486.83
389.25	440.02
389.45	433.00
389.64	465.77
389.84	566.41
390.03	514.92
390.22	447.04
390.42	447.04
390.61	456.40
390.81	454.06
391.00	594.50
391.19	482.15
391.39	524.28
391.58	444.70
391.78	500.87
391.97	531.30
392.16	524.28
392.36	571.09
392.55	559.39
392.75	559.39
392.94	571.09
393.13	554.71
393.33	517.26
393.52	557.05
393.71	592.16
393.91	608.54
394.10	559.39
394.29	629.60
394.49	547.69
394.68	634.29
394.88	596.84
395.07	610.88
395.26	514.92
395.46	599.18
395.65	713.86
395.84	648.33
396.04	622.58
396.23	561.73
396.42	603.86
396.62	671.73
396.81	683.44
397.00	629.60
397.19	566.41
397.39	650.67
397.58	615.56
397.77	603.86
397.97	730.25
398.16	655.35
398.35	657.69
398.55	627.26
398.74	683.44
398.93	746.63
399.12	653.01
399.32	781.74
399.51	692.80
399.70	746.63
399.90	774.72
400.09	770.04
400.28	734.93
400.47	732.59
400.67	711.52
400.86	732.59
401.05	788.76
401.24	816.85
401.44	786.42
401.63	767.70
401.82	800.46
402.01	725.57
402.21	809.83
402.40	854.30
402.59	833.23
402.78	844.93
402.97	821.53
403.17	753.65
403.36	863.66
403.55	830.89
403.74	954.94
403.93	896.43
404.13	912.81
404.32	751.31
404.51	929.19
404.70	922.17
404.89	884.72
405.09	973.66
405.28	880.04
405.47	905.79
405.66	1057.92
405.85	938.55
406.05	1015.79
406.24	894.08
406.43	990.05
406.62	1114.10
406.81	976.00
407.00	1001.75
407.20	947.92
407.39	1034.52
407.58	1076.65
407.77	1001.75
407.96	1013.45
408.15	1093.03
408.34	1100.05
408.54	1020.47
408.73	1057.92
408.92	1074.31
409.11	1118.78
409.30	1163.25
409.49	1160.91
409.68	1104.73
409.87	1184.31
410.07	1053.24
410.26	1139.84
410.45	1165.59
410.64	1203.04
410.83	1203.04
411.02	1261.55
411.21	1263.89
411.40	1266.23
411.59	1331.76
411.78	1224.10
411.98	1128.14
412.17	1322.40
412.36	1371.55
412.55	1296.66
412.74	1324.74
412.93	1355.17
413.12	1303.68
413.31	1364.53
413.50	1380.92
413.69	1387.94
413.88	1392.62
414.07	1390.28
414.26	1306.02
414.45	1413.68
414.64	1504.96
414.83	1401.98
415.02	1451.13
415.22	1586.88
415.41	1547.09
415.60	1500.28
415.79	1591.56
415.98	1565.82
416.17	1577.52
416.36	1586.88
416.55	1619.65
416.74	1540.07
416.93	1575.18
417.12	1629.01
417.31	1629.01
417.50	1729.66
417.69	1710.93
417.88	1717.95
418.07	1678.16
418.26	1720.29
418.45	1781.15
418.64	1771.79
418.83	1804.55
419.02	1856.04
419.21	1736.68
419.39	1888.81
419.58	1823.28
419.77	1881.79
419.96	1863.07
420.15	1853.70
420.34	1755.40
420.53	1806.89
420.72	1963.71
420.91	1870.09
421.10	1959.03
421.29	1870.09
421.48	1809.23
421.67	1994.14
421.86	1872.43
422.05	1982.43
422.24	1984.77
422.43	1989.46
422.61	2031.58
422.80	1973.07
422.99	2008.18
423.18	2010.52
423.37	2015.20
423.56	2031.58
423.75	1926.26
423.94	2043.29
424.13	1849.02
424.32	1797.53
424.50	2008.18
424.69	2101.80
424.88	1996.48
425.07	2043.29
425.26	1973.07
425.45	2092.44
425.64	2031.58
425.83	1940.30
426.01	2134.57
426.20	2106.48
426.39	2071.37
426.58	2120.53
426.77	2076.06
426.96	2036.27
427.15	2129.89
427.33	2078.40
427.52	2101.80
427.71	2181.38
427.90	2165.00
428.09	2195.42
428.28	2270.32
428.46	2209.47
428.65	2160.31
428.84	2167.34
429.03	2249.25
429.22	2157.97
429.40	2300.75
429.59	2265.64
429.78	2125.21
429.97	2113.50
430.16	2202.44
430.34	2300.75
430.53	2345.22
430.72	2253.94
430.91	2258.62
431.10	2277.34
431.28	2436.50
431.47	2373.30
431.66	2370.96
431.85	2321.81
432.03	2445.86
432.22	2469.27
432.41	2389.69
432.60	2492.67
432.79	2321.81
432.97	2502.03
433.16	2382.67
433.35	2415.43
433.54	2495.01
433.72	2478.63
433.91	2551.18
434.10	2469.27
434.28	2537.14
434.47	2548.84
434.66	2537.14
434.85	2682.25
435.03	2579.27
435.22	2642.46
435.41	2600.34
435.59	2567.57
435.78	2644.81
435.97	2743.11
436.16	2663.53
436.34	2663.53
436.53	2654.17
436.72	2658.85
436.90	2698.64
437.09	2626.08
437.28	2647.15
437.46	2612.04
437.65	2789.92
437.84	2612.04
438.02	2703.32
438.21	2813.32
438.40	2705.66
438.58	2864.82
438.77	2853.11
438.96	2672.89
439.14	2764.17
439.33	2855.45
439.52	2892.90
439.70	2864.82
439.89	3082.49
440.08	3096.53
440.26	2972.48
440.45	2913.97
440.63	3112.91
440.82	3185.47
441.01	3045.04
441.19	3187.81
441.38	3150.36
441.57	3131.64
441.75	3171.43
441.94	3267.39
442.12	3283.77
442.31	3330.58
442.50	3272.07
442.68	3372.71
442.87	3239.30
443.05	3323.56
443.24	3368.03
443.43	3400.80
443.61	3435.91
443.80	3363.35
443.98	3253.34
444.17	3201.85
444.35	3339.94
444.54	3480.38
444.73	3459.31
444.91	3447.61
445.10	3492.08
445.28	3431.23
445.47	3353.99
445.65	3332.92
445.84	3508.46
446.02	3496.76
446.21	3365.69
446.39	3337.60
446.58	3517.83
446.77	3414.84
446.95	3433.57
447.14	3365.69
447.32	3452.29
447.51	3468.67
447.69	3433.57
447.88	3513.14
448.06	3541.23
448.25	3309.52
448.43	3613.79
448.62	3489.74
448.80	3578.68
448.99	3492.08
449.17	3557.61
449.36	3597.40
449.54	3630.17
449.73	3749.54
449.91	3768.26
450.10	3700.39
450.28	3597.40
450.46	3763.58
450.65	3796.35
450.83	3843.16
451.02	3541.23
451.20	3662.94
451.39	3775.28
451.57	3889.97
451.76	3805.71
451.94	3770.60
452.13	3733.15
452.31	3918.06
452.49	3674.64
452.68	3941.46
452.86	3775.28
453.05	3911.04
453.23	3962.53
453.42	3803.37
453.60	3857.20
453.78	3920.40
453.97	3854.86
454.15	4009.34
454.34	3852.52
454.52	4065.51
454.70	3990.61
454.89	3934.44
455.07	3927.42
455.26	4065.51
455.44	4086.58
455.62	3988.27
455.81	4039.76
455.99	4042.11
456.17	4212.96
456.36	4072.53
456.54	4348.72
456.73	4168.49
456.91	4208.28
457.09	4273.82
457.28	4341.69
457.46	4297.22
457.64	4468.08
457.83	4320.63
458.01	4182.54
458.19	4423.61
458.38	4379.14
458.56	4435.32
458.74	4374.46
458.93	4358.08
459.11	4528.94
459.29	4402.55
459.48	4493.83
459.66	4468.08
459.84	4531.28
460.03	4641.28
460.21	4643.62
460.39	4425.95
460.57	4533.62
460.76	4461.06
460.94	4568.73
461.12	4498.51
461.31	4542.98
461.49	4524.26
461.67	4585.11
461.85	4751.29
462.04	4664.69
462.22	4922.15
462.40	4734.90
462.59	4660.01
462.77	4685.75
462.95	4739.58
463.13	4681.07
463.32	4741.93
463.50	4837.89
463.68	4788.74
463.86	4882.36
464.05	4814.48
464.23	4760.65
464.41	4856.61
464.59	4631.92
464.78	4997.04
464.96	4915.12
465.14	4805.12
465.32	4966.62
465.50	4990.02
465.69	5046.20
465.87	4926.83
466.05	4940.87
466.23	4908.10
466.41	5121.09
466.60	5114.07
466.78	5139.82
466.96	5102.37
467.14	4908.10
467.32	5041.51
467.51	5043.85
467.69	4964.28
467.87	5022.79
468.05	5172.58
468.23	5116.41
468.41	5118.75
468.60	5298.97
468.78	5135.14
468.96	5259.18
469.14	5313.02
469.32	5245.14
469.50	5163.22
469.69	5404.30
469.87	5383.23
470.05	5528.35
470.23	5427.70
470.41	5343.44
470.59	5385.57
470.77	5469.83
470.95	5430.04
471.14	5514.30
471.32	5399.62
471.50	5472.17
471.68	5558.77
471.86	5568.13
472.04	5479.19
472.22	5738.99
472.40	5444.09
472.58	5720.27
472.77	5767.08
472.95	5790.49
473.13	5898.15
473.31	5720.27
473.49	5731.97
473.67	5785.80
473.85	5724.95
474.03	5970.71
474.21	5837.30
474.39	6026.88
474.57	5991.77
474.75	5933.26
474.93	6106.46
475.12	6169.65
475.30	6246.89
475.48	6069.01
475.66	6218.80
475.84	6202.42
476.02	6445.84
476.20	6373.28
476.38	6300.72
476.56	6518.39
476.74	6483.28
476.92	6483.28
477.10	6340.51
477.28	6628.40
477.46	6567.54
477.64	6588.61
477.82	6754.79
478.00	7052.03
478.18	7042.67
478.36	6932.67
478.54	6906.92
478.72	6923.30
478.90	7056.72
479.08	7164.38
479.26	7143.32
479.44	7396.09
479.62	7197.15
479.80	7414.82
479.98	7412.48
480.16	7508.44
480.34	7363.33
480.52	7508.44
480.70	7569.29
480.88	7513.12
481.06	7599.72
481.24	7754.19
481.41	7744.83
481.59	7892.29
481.77	8114.64
481.95	7995.27
482.13	7936.76
482.31	8116.98
482.49	8177.83
482.67	8191.88
482.85	8381.46
483.03	8332.31
483.21	8423.59
483.39	8526.57
483.57	8606.15
483.74	8468.06
483.92	8833.18
484.10	8788.71
484.28	8821.48
484.46	9064.89
484.64	9060.21
484.82	8683.39
485.00	8950.21
485.18	9193.62
485.35	9366.82
485.53	9352.78
485.71	9219.37
485.89	9516.62
486.07	9582.15
486.25	9582.15
486.43	9624.28
486.61	9748.33
486.78	9753.01
486.96	9865.36
487.14	10043.24
487.32	10148.56
487.50	10193.03
487.68	10092.39
487.85	10279.63
488.03	10595.61
488.21	10457.51
488.39	10445.81
488.57	10698.59
488.75	10670.50
488.92	10867.11
489.10	10864.77
489.28	10974.77
489.46	11112.86
489.64	11077.76
489.81	11101.16
489.99	11293.08
490.17	11316.49
490.35	11372.66
490.53	11382.03
490.70	11438.20
490.88	11566.93
491.06	11634.80
491.24	11475.65
491.41	11791.62
491.59	12018.65
491.77	12109.93
491.95	12187.17
492.13	11983.54
492.30	12173.13
492.48	12065.46
492.66	12138.02
492.84	12332.28
493.01	12381.43
493.19	12395.48
493.37	12751.24
493.54	12774.64
493.72	12985.29
493.90	12629.53
494.08	12755.92
494.25	13125.72
494.43	12908.05
494.61	13097.64
494.79	13067.21
494.96	13324.67
495.14	13252.11
495.32	13352.76
495.49	13731.92
495.67	13469.78
495.85	13565.74
496.02	13879.38
496.20	13495.53
496.38	13731.92
496.55	13951.93
496.73	14178.97
496.91	13823.20
497.09	14352.16
497.26	14366.21
497.44	14534.73
497.62	14345.14
497.79	14473.87
497.97	14370.89
498.14	14714.95
498.32	14764.10
498.50	14775.80
498.67	14897.51
498.85	14949.00
499.03	15290.72
499.20	14946.66
499.38	15068.37
499.56	15110.50
499.73	15094.11
499.91	14993.47
500.08	15442.85
500.26	15513.07
500.44	15330.51
500.61	15447.54
500.79	15637.12
500.97	15726.06
501.14	15651.16
501.32	15854.79
501.49	15459.24
501.67	15709.68
501.84	15836.06
502.02	15758.83
502.20	16032.67
502.37	15990.54
502.55	16086.50
502.72	16196.51
502.90	16060.76
503.07	16140.33
503.25	16409.50
503.43	16236.30
503.60	16409.50
503.78	16542.91
503.95	16463.33
504.13	16292.47
504.30	16624.83
504.48	16545.25
504.65	16472.69
504.83	16793.34
505.01	16697.38
505.18	16720.79
505.36	16940.80
505.53	16950.16
505.71	17118.68
505.88	16837.81
506.06	17137.40
506.23	17310.60
506.41	17331.67
506.58	17284.86
506.76	17373.80
506.93	17554.02
507.11	17537.63
507.28	17270.81
507.46	17507.21
507.63	17804.46
507.81	17958.93
507.98	17675.73
508.16	17624.23
508.33	17879.35
508.50	17687.43
508.68	18064.25
508.85	18038.51
509.03	17958.93
509.20	18345.12
509.38	18225.75
509.55	18221.07
509.73	18408.31
509.90	18565.13
510.08	18281.92
510.25	18281.92
510.42	18424.70
510.60	18803.86
510.77	18485.55
510.95	18665.77
511.12	18558.11
511.30	18422.36
511.47	19077.71
511.64	18665.77
511.82	18883.44
511.99	18909.19
512.17	19068.34
512.34	18836.63
512.51	19192.39
512.69	19054.30
512.86	18981.74
513.04	19363.25
513.21	19304.74
513.38	19499.00
513.56	19321.12
513.73	19234.52
513.90	19349.21
514.08	19318.78
514.25	19616.03
514.43	19517.73
514.60	19473.26
514.77	19784.55
514.95	19550.49
515.12	19597.31
515.29	19346.87
515.47	19985.83
515.64	19651.14
515.81	20130.95
515.99	20142.65
516.16	20271.38
516.33	20320.53
516.51	20173.08
516.68	20168.40
516.85	20299.47
517.03	20219.89
517.20	20610.76
517.37	20374.36
517.54	20758.21
517.72	20463.30
517.89	20531.18
518.06	20643.52
518.24	20882.26
518.41	20535.86
518.58	20690.34
518.75	20585.01
518.93	20980.56
519.10	21060.14
519.27	21022.69
519.45	20596.71
519.62	21221.64
519.79	21029.71
519.96	20992.26
520.14	21158.44
520.31	21296.53
520.48	21139.72
520.65	21525.91
520.83	21390.16
521.00	21214.62
521.17	21104.61
521.34	21451.01
521.52	21453.35
521.69	21390.16
521.86	21750.60
522.03	21642.93
522.20	21563.36
522.38	21912.10
522.55	21930.82
522.72	21916.78
522.89	22115.72
523.07	22155.51
523.24	22171.89
523.41	22003.38
523.58	21820.81
523.75	22195.30
523.92	22031.46
524.10	21645.27
524.27	22127.42
524.44	22204.66
524.61	22075.93
524.78	22302.96
524.96	22115.72
525.13	22307.65
525.30	22405.95
525.47	22445.74
525.64	22352.12
525.81	22640.00
525.98	22721.92
526.16	22604.89
526.33	22464.46
526.50	22852.99
526.67	22328.71
526.84	22934.91
527.01	22944.27
527.18	22464.46
527.36	22717.24
527.53	23061.30
527.70	23396.00
527.87	23295.35
528.04	23208.75
528.21	22993.42
528.38	23168.96
528.55	23501.32
528.72	23175.98
528.89	23194.71
529.07	23229.82
529.24	23192.37
529.41	23323.44
529.58	23227.48
529.75	23410.04
529.92	23220.45
530.09	23627.71
530.26	23721.33
530.43	24072.41
530.60	23370.25
530.77	23374.93
530.94	23810.27
531.11	23564.51
531.28	23971.77
531.46	23473.23
531.63	23545.79
531.80	23866.44
531.97	24128.58
532.14	23913.25
532.31	23971.77
532.48	23740.05
532.65	24002.19
532.82	24121.56
532.99	24095.82
533.16	23929.64
533.33	24435.19
533.50	24238.59
533.67	24425.83
533.84	23672.18
534.01	24496.05
534.18	23889.85
534.35	24261.99
534.52	24479.66
534.69	24266.67
534.86	24477.32
535.03	24374.34
535.20	24809.68
535.37	24765.21
535.54	24847.13
535.71	24519.45
535.88	24657.54
536.05	24861.17
536.22	25015.65
536.38	24636.48
536.55	24959.47
536.72	24842.45
536.89	24512.43
537.06	24678.61
537.23	25097.56
537.40	24706.70
537.57	24994.58
537.74	25071.82
537.91	25057.78
538.08	25301.19
538.25	24814.36
538.42	24924.36
538.59	25617.16
538.75	24943.09
538.92	25053.09
539.09	25109.27
539.26	25053.09
539.43	25254.38
539.60	25329.28
539.77	25277.79
539.94	25586.74
540.11	25345.66
540.28	25474.39
540.44	25345.66
540.61	25493.12
540.78	25558.65
540.95	25324.60
541.12	25443.96
541.29	25612.48
541.46	25640.57
541.62	25408.86
541.79	25558.65
541.96	25537.59
542.13	25439.28
542.30	25710.78
542.47	25921.43
542.63	25993.99
542.80	25825.47
542.97	26286.56
543.14	26352.09
543.31	26422.31
543.48	26125.06
543.64	26658.70
543.81	26522.95
543.98	26380.18
544.15	26487.84
544.32	26775.73
544.48	27040.21
544.65	26326.35
544.82	26462.10
544.99	26192.94
545.16	26298.26
545.32	26342.73
545.49	26412.95
545.66	26749.98
545.83	26539.33
546.00	27154.90
546.16	26773.39
546.33	26845.94
546.50	26487.84
546.67	26787.43
546.83	26508.91
547.00	26792.11
547.17	26738.28
547.34	26773.39
547.50	27002.76
547.67	27054.25
547.84	27276.60
548.00	27314.05
548.17	26731.26
548.34	26642.32
548.51	27173.62
548.67	27204.05
548.84	27182.98
549.01	27033.19
549.18	26969.99
549.34	27145.53
549.51	27096.38
549.68	27236.81
549.84	27192.34
550.01	27143.19
550.18	27094.04
550.34	27374.91
550.51	27309.37
550.68	27569.17
550.84	27269.58
551.01	27442.78
551.18	27023.83
551.34	27243.84
551.51	27283.62
551.68	27812.59
551.84	27215.75
552.01	27597.26
552.18	27948.34
552.34	27695.56
552.51	27901.53
552.68	27417.04
552.84	27613.64
553.01	28161.33
553.18	27938.97
553.34	27662.79
553.51	27658.11
553.67	28016.21
553.84	27974.08
554.01	28079.41
554.17	27978.76
554.34	27857.06
554.51	27711.94
554.67	27988.13
554.84	27960.04
555.00	27934.29
555.17	28100.47
555.33	28170.69
555.50	28240.90
555.67	28327.50
555.83	27798.54
556.00	28348.57
556.16	28088.77
556.33	28039.62
556.50	27976.42
556.66	28744.12
556.83	28166.01
556.99	28194.09
557.16	28924.34
557.32	28294.74
557.49	28393.04
557.65	28088.77
557.82	28250.27
557.98	28247.93
558.15	28264.31
558.32	28521.77
558.48	28608.37
558.65	28500.70
558.81	28716.03
558.98	28599.01
559.14	28231.54
559.31	28709.01
559.47	28023.23
559.64	28465.60
559.80	28636.45
559.97	28758.16
560.13	28568.58
560.30	28891.57
560.46	28971.15
560.63	28278.35
560.79	28680.92
560.96	28690.29
561.12	28847.10
561.29	28809.65
561.45	28692.63
561.61	28683.27
561.78	28716.03
561.94	28919.66
562.11	28856.46
562.27	28685.61
562.44	28884.55
562.60	28617.73
562.77	28964.13
562.93	28821.36
563.10	28882.21
563.26	28758.16
563.42	29411.17
563.59	28634.11
563.75	28521.77
563.92	28755.82
564.08	28952.43
564.24	29062.43
564.41	28933.70
564.57	28772.21
564.74	28458.57
564.90	28917.32
565.07	29202.86
565.23	28996.90
565.39	28926.68
565.56	29022.64
565.72	29106.90
565.88	28999.24
566.05	28802.63
566.21	28870.51
566.38	29214.57
566.54	28580.28
566.70	29099.88
566.87	29027.32
567.03	29090.52
567.19	29270.74
567.36	29546.92
567.52	29069.45
567.68	29500.11
567.85	28905.62
568.01	29149.03
568.17	28793.27
568.34	28910.30
568.50	29373.72
568.66	29268.40
568.83	29495.43
568.99	29153.71
569.15	29207.55
569.32	29193.50
569.48	29160.73
569.64	29450.96
569.81	29380.74
569.97	29736.51
570.13	29240.31
570.30	29259.04
570.46	29617.14
570.62	29722.46
570.78	29427.56
570.95	29020.30
571.11	29193.50
571.27	29242.65
571.43	29460.32
571.60	29373.72
571.76	29465.00
571.92	29778.64
572.09	29266.06
572.25	29708.42
572.41	29544.58
572.57	29797.36
572.74	29481.39
572.90	28875.19
573.06	29493.09
573.22	29123.29
573.38	29291.80
573.55	29198.18
573.71	29617.14
573.87	29776.30
574.03	28992.22
574.20	29818.42
574.36	29727.14
574.52	29357.34
574.68	29378.40
574.84	29397.13
575.01	29537.56
575.17	29474.37
575.33	29420.53
575.49	29610.12
575.65	29991.62
575.82	29813.74
575.98	29567.99
576.14	29900.34
576.30	29418.19
576.46	29858.21
576.62	29839.49
576.79	29806.72
576.95	29291.80
577.11	29240.31
577.27	29713.10
577.43	29589.05
577.59	29670.97
577.75	30115.67
577.92	29336.27
578.08	29462.66
578.24	29460.32
578.40	29528.20
578.56	29668.63
578.72	29858.21
578.88	30075.88
579.04	29493.09
579.21	29614.80
579.37	29886.30
579.53	29900.34
579.69	29387.77
579.85	29722.46
580.01	29851.19
580.17	29448.62
580.33	29385.43
580.49	29858.21
580.65	29813.74
580.82	29755.23
580.98	29788.00
581.14	29914.39
581.30	29764.59
581.46	29839.49
581.62	29635.86
581.78	29476.71
581.94	29673.31
582.10	29598.41
582.26	29514.16
582.42	29773.95
582.58	29631.18
582.74	29605.44
582.90	29834.81
583.06	29991.62
583.22	29656.93
583.38	29907.37
583.54	29823.11
583.70	29530.54
583.86	29858.21
584.02	29813.74
584.18	29563.31
584.34	29701.40
584.50	29769.27
584.66	29848.85
584.82	29638.20
584.98	29305.85
585.14	29745.87
585.30	29338.62
585.46	29404.15
585.62	29820.77
585.78	30096.95
585.94	29401.81
586.10	29713.10
586.26	29553.94
586.42	30588.46
586.58	30110.99
586.74	29654.59
586.90	29745.87
587.06	29823.11
587.22	29743.53
587.38	29942.47
587.54	30115.67
587.70	30115.67
587.86	30031.41
588.02	30061.84
588.18	30242.06
588.34	29890.98
588.49	30068.86
588.65	29954.18
588.81	29919.07
588.97	29968.22
589.13	29703.74
589.29	29769.27
589.45	29535.22
589.61	30277.17
589.77	30169.51
589.93	30307.60
590.08	30216.32
590.24	30136.74
590.40	30345.05
590.56	30188.23
590.72	30024.39
590.88	30139.08
591.04	30239.72
591.20	30333.34
591.35	30565.06
591.51	30445.69
591.67	30558.03
591.83	30403.56
591.99	30340.36
