SpectraSuite Data File
++++++++++++++++++++++++++++++++++++
Date: Fri Oct 18 13:58:38 GMT-05:00 2013
User: bianchi
Dark Spectrum Present: No
Reference Spectrum Present: No
Number of Sampled Component Spectra: 1
Spectrometers: USB2+H05261
Integration Time (usec): 50000 (USB2+H05261)
Spectra Averaged: 1 (USB2+H05261)
Boxcar Smoothing: 0 (USB2+H05261)
Correct for Electrical Dark: No (USB2+H05261)
Strobe/Lamp Enabled: No (USB2+H05261)
Correct for Detector Non-linearity: No (USB2+H05261)
Correct for Stray Light: No (USB2+H05261)
Number of Pixels in Processed Spectrum: 2048
>>>>>Begin Processed Spectral Data<<<<<
365.73	0.00
365.92	0.00
366.12	0.00
366.32	0.00
366.52	0.00
366.72	0.00
366.91	0.00
367.11	0.00
367.31	0.00
367.51	0.00
367.70	0.00
367.90	0.00
368.10	0.00
368.30	0.00
368.49	0.00
368.69	0.00
368.89	0.00
369.09	0.00
369.28	0.00
369.48	0.00
369.68	0.00
369.87	0.00
370.07	0.00
370.27	0.00
370.47	0.00
370.66	124.05
370.86	131.07
371.06	100.64
371.25	121.71
371.45	140.43
371.65	191.92
371.84	147.45
372.04	147.45
372.24	159.16
372.44	180.22
372.63	189.58
372.83	215.33
373.03	191.92
373.22	173.20
373.42	166.18
373.62	201.29
373.81	215.33
374.01	259.80
374.21	250.44
374.40	222.35
374.60	222.35
374.79	180.22
374.99	276.18
375.19	194.26
375.38	299.59
375.58	243.42
375.78	264.48
375.97	276.18
376.17	308.95
376.37	292.57
376.56	273.84
376.76	322.99
376.95	255.12
377.15	285.55
377.35	273.84
377.54	266.82
377.74	203.63
377.93	290.23
378.13	264.48
378.33	301.93
378.52	285.55
378.72	287.89
378.91	304.27
379.11	273.84
379.31	212.99
379.50	308.95
379.70	273.84
379.89	339.38
380.09	330.02
380.28	360.44
380.48	287.89
380.68	308.95
380.87	304.27
381.07	337.04
381.26	397.89
381.46	337.04
381.65	264.48
381.85	308.95
382.04	367.46
382.24	407.25
382.43	297.25
382.63	292.57
382.83	376.83
383.02	402.57
383.22	407.25
383.41	299.59
383.61	369.80
383.80	393.21
384.00	376.83
384.19	322.99
384.39	360.44
384.58	351.08
384.78	367.46
384.97	297.25
385.17	425.98
385.36	442.36
385.56	390.87
385.75	365.12
385.95	320.65
386.14	376.83
386.34	383.85
386.53	388.53
386.72	444.70
386.92	440.02
387.11	433.00
387.31	395.55
387.50	442.36
387.70	458.74
387.89	355.76
388.09	447.04
388.28	369.80
388.48	472.79
388.67	461.09
388.86	425.98
389.06	437.68
389.25	472.79
389.45	465.77
389.64	475.13
389.84	475.13
390.03	479.81
390.22	550.03
390.42	463.43
390.61	482.15
390.81	402.57
391.00	465.77
391.19	538.32
391.39	477.47
391.58	545.34
391.78	503.22
391.97	535.98
392.16	493.85
392.36	559.39
392.55	514.92
392.75	566.41
392.94	484.49
393.13	643.65
393.33	540.66
393.52	669.39
393.71	552.37
393.91	543.00
394.10	660.03
394.29	559.39
394.49	660.03
394.68	622.58
394.88	538.32
395.07	550.03
395.26	582.79
395.46	643.65
395.65	606.20
395.84	624.92
396.04	650.67
396.23	566.41
396.42	699.82
396.62	667.05
396.81	720.88
397.00	655.35
397.19	638.97
397.39	688.12
397.58	580.45
397.77	669.39
397.97	662.37
398.16	608.54
398.35	681.10
398.55	620.24
398.74	662.37
398.93	681.10
399.12	678.76
399.32	667.05
399.51	765.36
399.70	748.97
399.90	692.80
400.09	706.84
400.28	814.51
400.47	713.86
400.67	814.51
400.86	725.57
401.05	854.30
401.24	837.91
401.44	816.85
401.63	770.04
401.82	833.23
402.01	777.06
402.21	805.14
402.40	751.31
402.59	856.64
402.78	866.00
402.97	896.43
403.17	830.89
403.36	758.33
403.55	781.74
403.74	814.51
403.93	959.62
404.13	922.17
404.32	894.08
404.51	851.96
404.70	961.96
404.89	807.48
405.09	917.49
405.28	887.06
405.47	875.36
405.66	964.30
405.85	943.24
406.05	929.19
406.24	959.62
406.43	1032.18
406.62	1022.81
406.81	1025.15
407.00	987.71
407.20	994.73
407.39	1011.11
407.58	1015.79
407.77	1057.92
407.96	1125.80
408.15	1018.13
408.34	1067.28
408.54	1076.65
408.73	1149.20
408.92	1086.01
409.11	1146.86
409.30	1174.95
409.49	1083.67
409.68	1177.29
409.87	1207.72
410.07	1217.08
410.26	1165.59
410.45	1144.52
410.64	1121.12
410.83	1097.71
411.02	1149.20
411.21	1252.19
411.40	1228.78
411.59	1247.51
411.78	1240.48
411.98	1261.55
412.17	1287.29
412.36	1266.23
412.55	1313.04
412.74	1334.11
412.93	1378.58
413.12	1322.40
413.31	1338.79
413.50	1341.13
413.69	1462.83
413.88	1369.21
414.07	1350.49
414.26	1509.65
414.45	1472.20
414.64	1467.52
414.83	1467.52
415.02	1437.09
415.22	1579.86
415.41	1488.58
415.60	1481.56
415.79	1502.62
415.98	1582.20
416.17	1570.50
416.36	1593.90
416.55	1547.09
416.74	1689.87
416.93	1659.44
417.12	1696.89
417.31	1722.63
417.50	1664.12
417.69	1680.50
417.88	1797.53
418.07	1729.66
418.26	1696.89
418.45	1659.44
418.64	1795.19
418.83	1788.17
419.02	1760.08
419.21	1820.94
419.39	1832.64
419.58	1820.94
419.77	1872.43
419.96	1942.64
420.15	1980.09
420.34	1982.43
420.53	1842.00
420.72	1914.56
420.91	1764.76
421.10	1977.75
421.29	1987.11
421.48	1891.15
421.67	1879.45
421.86	1996.48
422.05	1944.99
422.24	1926.26
422.43	1959.03
422.61	1977.75
422.80	1968.39
422.99	2010.52
423.18	2045.63
423.37	2066.69
423.56	1895.83
423.75	1947.33
423.94	1998.82
424.13	1870.09
424.32	1940.30
424.50	1891.15
424.69	2090.10
424.88	2125.21
425.07	2136.91
425.26	1977.75
425.45	1994.14
425.64	2059.67
425.83	2073.71
426.01	2050.31
426.20	2038.61
426.39	2003.50
426.58	2078.40
426.77	2031.58
426.96	2104.14
427.15	2062.01
427.33	2174.36
427.52	2080.74
427.71	2197.76
427.90	2132.23
428.09	2216.49
428.28	2141.59
428.46	2237.55
428.65	2054.99
428.84	2162.66
429.03	2284.36
429.22	2195.42
429.40	2244.57
429.59	2279.68
429.78	2235.21
429.97	2057.33
430.16	2122.87
430.34	2200.10
430.53	2399.05
430.72	2452.88
430.91	2284.36
431.10	2282.02
431.28	2385.01
431.47	2401.39
431.66	2429.48
431.85	2370.96
432.03	2497.35
432.22	2471.61
432.41	2462.24
432.60	2389.69
432.79	2394.37
432.97	2483.31
433.16	2487.99
433.35	2462.24
433.54	2478.63
433.72	2588.63
433.91	2473.95
434.10	2483.31
434.28	2513.74
434.47	2429.48
434.66	2602.68
434.85	2579.27
435.03	2567.57
435.22	2534.80
435.41	2693.96
435.59	2654.17
435.78	2595.65
435.97	2553.52
436.16	2623.74
436.34	2696.30
436.53	2651.83
436.72	2712.68
436.90	2567.57
437.09	2693.96
437.28	2569.91
437.46	2630.76
437.65	2712.68
437.84	2867.16
438.02	2827.37
438.21	2815.66
438.40	2668.21
438.58	2731.41
438.77	2881.20
438.96	2862.48
439.14	2808.64
439.33	2878.86
439.52	3042.70
439.70	2899.92
439.89	3021.63
440.08	3005.25
440.26	3063.76
440.45	2977.16
440.63	3014.61
440.82	3002.91
441.01	3101.21
441.19	3000.57
441.38	3084.83
441.57	3215.90
441.75	3213.56
441.94	3307.18
442.12	3225.26
442.31	3304.84
442.50	3180.79
442.68	3323.56
442.87	3307.18
443.05	3384.41
443.24	3276.75
443.43	3337.60
443.61	3330.58
443.80	3471.01
443.98	3473.36
444.17	3318.88
444.35	3494.42
444.54	3431.23
444.73	3431.23
444.91	3417.18
445.10	3435.91
445.28	3351.65
445.47	3396.12
445.65	3288.45
445.84	3377.39
446.02	3309.52
446.21	3344.63
446.39	3398.46
446.58	3454.63
446.77	3492.08
446.95	3405.48
447.14	3445.27
447.32	3414.84
447.51	3478.04
447.69	3529.53
447.88	3583.36
448.06	3485.06
448.25	3431.23
448.43	3592.72
448.62	3524.85
448.80	3468.67
448.99	3562.30
449.17	3506.12
449.36	3440.59
449.54	3707.41
449.73	3688.68
449.91	3609.11
450.10	3742.52
450.28	3861.88
450.46	3662.94
450.65	3721.45
450.83	3737.84
451.02	3854.86
451.20	3789.33
451.39	3779.97
451.57	3775.28
451.76	3714.43
451.94	3805.71
452.13	3906.35
452.31	3819.75
452.49	3723.79
452.68	3866.56
452.86	3812.73
453.05	3957.85
453.23	3866.56
453.42	3894.65
453.60	3742.52
453.78	3927.42
453.97	3913.38
454.15	3878.27
454.34	3880.61
454.52	3908.69
454.70	3843.16
454.89	3988.27
455.07	4058.49
455.26	3999.98
455.44	4002.32
455.62	4088.92
455.81	4067.85
455.99	4112.32
456.17	4156.79
456.36	4114.66
456.54	4126.36
456.73	4203.60
456.91	4414.25
457.09	4325.31
457.28	4339.35
457.46	4262.12
457.64	4381.48
457.83	4194.24
458.01	4271.48
458.19	4641.28
458.38	4245.73
458.56	4418.93
458.74	4482.13
458.93	4409.57
459.11	4259.78
459.29	4346.37
459.48	4344.03
459.66	4472.76
459.84	4411.91
460.03	4627.24
460.21	4325.31
460.39	4514.89
460.57	4491.49
460.76	4627.24
460.94	4554.68
461.12	4690.43
461.31	4643.62
461.49	4594.47
461.67	4638.94
461.85	4660.01
462.04	4589.79
462.22	4924.49
462.40	4765.33
462.59	4725.54
462.77	4751.29
462.95	4716.18
463.13	4755.97
463.32	4964.28
463.50	4812.14
463.68	4983.00
463.86	4924.49
464.05	4788.74
464.23	4674.05
464.41	4873.00
464.59	4912.78
464.78	4915.12
464.96	4915.12
465.14	4887.04
465.32	4999.38
465.50	5142.16
465.69	5083.64
465.87	4966.62
466.05	4863.63
466.23	5069.60
466.41	5011.09
466.60	4997.04
466.78	5090.67
466.96	4938.53
467.14	4938.53
467.32	4990.02
467.51	5104.71
467.69	4994.70
467.87	5093.01
468.05	5179.61
468.23	5015.77
468.41	4938.53
468.60	5074.28
468.78	5242.80
468.96	5195.99
469.14	5123.43
469.32	5413.66
469.50	5085.98
469.69	5338.76
469.87	5231.10
470.05	5268.55
470.23	5350.46
470.41	5336.42
470.59	5280.25
470.77	5263.86
470.95	5575.16
471.14	5617.29
471.32	5455.79
471.50	5593.88
471.68	5575.16
471.86	5692.18
472.04	5521.32
472.22	5884.11
472.40	5708.57
472.58	5727.29
472.77	5643.03
472.95	5792.83
473.13	5982.41
473.31	5806.87
473.49	5820.91
473.67	5781.12
473.85	5849.00
474.03	6022.20
474.21	5832.62
474.39	6045.60
474.57	6015.18
474.75	6080.71
474.93	6171.99
475.12	6148.59
475.30	6136.88
475.48	6118.16
475.66	6076.03
475.84	6232.85
476.02	6342.85
476.20	6223.48
476.38	6443.49
476.56	6593.29
476.74	6551.16
476.92	6492.65
477.10	6377.96
477.28	6567.54
477.46	6590.95
477.64	6546.48
477.82	6729.04
478.00	6956.07
478.18	6817.98
478.36	6778.19
478.54	7028.63
478.72	6799.26
478.90	6993.52
479.08	7026.29
479.26	7105.87
479.44	7346.94
479.62	7419.50
479.80	7353.96
479.98	7351.62
480.16	7435.88
480.34	7470.99
480.52	7412.48
480.70	7590.36
480.88	7470.99
481.06	7613.76
481.24	7627.81
481.41	7744.83
481.59	7892.29
481.77	8056.12
481.95	7920.37
482.13	8205.92
482.31	8088.89
482.49	8224.64
482.67	8177.83
482.85	8205.92
483.03	8458.70
483.21	8423.59
483.39	8582.74
483.57	8482.10
483.74	8304.22
483.92	8692.75
484.10	8564.02
484.28	8847.22
484.46	8842.54
484.64	8971.27
484.82	9064.89
485.00	9069.58
485.18	9055.53
485.35	9289.59
485.53	9596.20
485.71	9231.07
485.89	9650.03
486.07	9476.83
486.25	9764.72
486.43	9664.07
486.61	9727.27
486.78	9865.36
486.96	9720.24
487.14	9937.91
487.32	10010.47
487.50	10136.86
487.68	10207.08
487.85	10291.34
488.03	10340.49
488.21	10590.92
488.39	10335.81
488.57	10452.83
488.75	10691.57
488.92	10848.38
489.10	10621.35
489.28	10803.91
489.46	10864.77
489.64	10923.28
489.81	11307.13
489.99	11442.88
490.17	11173.72
490.35	11396.07
490.53	11269.68
490.70	11604.38
490.88	11435.86
491.06	11894.60
491.24	11576.29
491.41	11786.94
491.59	12042.06
491.77	11962.48
491.95	11995.25
492.13	11967.16
492.30	12142.70
492.48	12280.79
492.66	12353.35
492.84	12308.88
493.01	12367.39
493.19	12503.14
493.37	12624.85
493.54	12772.30
493.72	12734.85
493.90	12507.82
494.08	12807.41
494.25	13015.72
494.43	13011.04
494.61	13029.76
494.79	13270.84
494.96	13039.12
495.14	13439.36
495.32	13540.00
495.49	13345.73
495.67	13628.94
495.85	13596.17
496.02	13671.07
496.20	13654.69
496.38	13930.87
496.55	13804.48
496.73	14108.75
496.91	13984.70
497.09	14272.59
497.26	14207.05
497.44	14160.24
497.62	14022.15
497.79	14614.30
497.97	14546.43
498.14	14672.82
498.32	14626.01
498.50	14906.87
498.67	14867.08
498.85	14621.33
499.03	14860.06
499.20	14949.00
499.38	14813.25
499.56	15129.22
499.73	15194.76
499.91	15066.03
500.08	15309.44
500.26	15269.66
500.44	15307.10
500.61	15463.92
500.79	15377.32
500.97	15620.74
501.14	15590.31
501.32	15611.37
501.49	15473.28
501.67	15676.91
501.84	15597.33
502.02	15807.98
502.20	15964.79
502.37	15896.92
502.55	16308.85
502.72	16262.04
502.90	15950.75
503.07	15943.73
503.25	16311.19
503.43	16245.66
503.60	16561.63
503.78	16444.60
503.95	16201.19
504.13	16299.49
504.30	16369.71
504.48	16526.52
504.65	16842.50
504.83	16666.95
505.01	17165.49
505.18	16821.43
505.36	17027.40
505.53	16816.75
505.71	16844.84
505.88	16917.39
506.06	16856.54
506.23	17125.70
506.41	17139.74
506.58	16982.93
506.76	17090.59
506.93	17296.56
507.11	17277.83
507.28	17451.03
507.46	17326.99
507.63	17465.08
507.81	17909.78
507.98	17518.91
508.16	17811.48
508.33	17802.11
508.50	17692.11
508.68	17731.90
508.85	18181.28
509.03	18043.19
509.20	18066.60
509.38	18190.64
509.55	18394.27
509.73	18111.07
509.90	18272.56
510.08	18511.30
510.25	18185.96
510.42	18120.43
510.60	18319.37
510.77	18623.64
510.95	18630.66
511.12	18771.10
511.30	18375.55
511.47	18640.03
511.64	18731.31
511.82	18977.06
511.99	18796.84
512.17	19096.43
512.34	19016.85
512.51	18946.64
512.69	19073.03
512.86	19112.81
513.04	19264.95
513.21	19349.21
513.38	19133.88
513.56	19365.59
513.73	19281.33
513.90	19164.31
514.08	19304.74
514.25	19798.59
514.43	19812.63
514.60	19653.48
514.77	19896.89
514.95	19695.61
515.12	19634.75
515.29	19627.73
515.47	19735.40
515.64	19714.33
515.81	19765.82
515.99	20020.94
516.16	19880.51
516.33	20105.20
516.51	20252.66
516.68	19946.05
516.85	19541.13
517.03	20336.91
517.20	20304.15
517.37	20219.89
517.54	20285.42
517.72	20325.21
517.89	20521.82
518.06	20484.37
518.24	20599.05
518.41	20374.36
518.58	20353.30
518.75	20545.22
518.93	20713.74
519.10	20795.66
519.27	20718.42
519.45	20664.59
519.62	20861.19
519.79	20816.72
519.96	21102.27
520.14	20870.56
520.31	21160.78
520.48	21518.89
520.65	21128.02
520.83	21151.42
521.00	21413.56
521.17	20805.02
521.34	21352.71
521.52	21144.40
521.69	21343.35
521.86	21504.84
522.03	21703.79
522.20	21568.04
522.38	21357.39
522.55	21432.29
522.72	21619.53
522.89	21699.11
523.07	21888.69
523.24	21708.47
523.41	21940.18
523.58	22127.42
523.75	22274.88
523.92	21998.70
524.10	22169.55
524.27	22001.04
524.44	22333.39
524.61	22307.65
524.78	22398.93
524.96	22134.45
525.13	22436.38
525.30	22249.13
525.47	22522.98
525.64	22396.59
525.81	22050.19
525.98	22494.89
526.16	22714.90
526.33	22742.99
526.50	22768.73
526.67	22623.62
526.84	22679.79
527.01	22593.19
527.18	22305.31
527.36	22998.10
527.53	22771.07
527.70	23468.55
527.87	23278.97
528.04	23096.41
528.21	23264.92
528.38	23005.13
528.55	23023.85
528.72	23201.73
528.89	23014.49
529.07	23297.69
529.24	23253.22
529.41	23295.35
529.58	23290.67
529.75	23498.98
529.92	23246.20
530.09	23271.95
530.26	23861.76
530.43	23592.60
530.60	23414.72
530.77	22998.10
530.94	23559.83
531.11	23363.23
531.28	23655.79
531.46	23618.35
531.63	23784.52
531.80	24257.31
531.97	23992.83
532.14	24128.58
532.31	23524.72
532.48	24058.37
532.65	23826.65
532.82	23955.38
532.99	24208.16
533.16	24219.86
533.33	24425.83
533.50	24409.45
533.67	24222.20
533.84	24269.01
534.01	24037.30
534.18	24140.29
534.35	24524.13
534.52	23892.19
534.69	24168.37
534.86	24254.97
535.03	24393.06
535.20	24521.79
535.37	24512.43
535.54	24624.78
535.71	24397.74
535.88	24687.97
536.05	24634.14
536.22	24755.85
536.38	25078.84
536.55	25034.37
536.72	24472.64
536.89	24680.95
537.06	24861.17
537.23	25097.56
537.40	24886.92
537.57	24865.85
537.74	25076.50
537.91	25046.07
538.08	25479.07
538.25	24978.20
538.42	25191.19
538.59	25568.01
538.75	25193.53
538.92	24929.05
539.09	24999.26
539.26	25046.07
539.43	25158.42
539.60	25340.98
539.77	25195.87
539.94	25500.14
540.11	25415.88
540.28	25298.85
540.44	25420.56
540.61	25209.91
540.78	25317.57
540.95	25568.01
541.12	25724.83
541.29	25355.02
541.46	25481.41
541.62	25628.87
541.79	25799.73
541.96	25458.01
542.13	25479.07
542.30	25933.14
542.47	25961.22
542.63	25956.54
542.80	25916.75
542.97	26284.22
543.14	26242.09
543.31	26101.65
543.48	25982.29
543.64	26396.56
543.81	26031.44
543.98	26050.16
544.15	26450.39
544.32	26457.42
544.48	26307.62
544.65	26094.63
544.82	26190.59
544.99	26174.21
545.16	26242.09
545.32	26141.44
545.49	26314.64
545.66	26988.72
545.83	26733.60
546.00	26698.49
546.16	26363.79
546.33	26384.86
546.50	26190.59
546.67	26661.04
546.83	26513.59
547.00	26923.18
547.17	26546.36
547.34	26391.88
547.50	27037.87
547.67	27061.27
547.84	26967.65
548.00	26855.31
548.17	26806.16
548.34	26618.91
548.51	26857.65
548.67	26951.27
548.84	26930.20
549.01	26979.36
549.18	27171.28
549.34	27236.81
549.51	27037.87
549.68	26909.14
549.84	27054.25
550.01	27276.60
550.18	26857.65
550.34	27442.78
550.51	27166.60
550.68	27419.38
550.84	26998.08
551.01	27044.89
551.18	27175.96
551.34	26979.36
551.51	27323.41
551.68	27761.09
551.84	27770.46
552.01	27545.76
552.18	27407.67
552.34	27548.11
552.51	27365.54
552.68	27466.19
552.84	27573.85
553.01	27302.35
553.18	27597.26
553.34	27491.93
553.51	27639.39
553.67	27744.71
553.84	27922.59
554.01	27751.73
554.17	27648.75
554.34	27520.02
554.51	27510.66
554.67	27889.82
554.84	27826.63
555.00	27892.16
555.17	27934.29
555.33	27873.44
555.50	27964.72
555.67	27798.54
555.83	27725.99
556.00	27854.72
556.16	27985.79
556.33	28133.24
556.50	28030.26
556.66	28081.75
556.83	28002.17
556.99	28493.68
557.16	28318.14
557.32	28287.71
557.49	28133.24
557.65	27896.85
557.82	28037.28
557.98	28180.05
558.15	27847.69
558.32	28271.33
558.48	28575.60
558.65	28329.84
558.81	28423.47
558.98	28400.06
559.14	28390.70
559.31	28301.76
559.47	28163.67
559.64	28599.01
559.80	28545.17
559.97	29099.88
560.13	28444.53
560.30	28627.09
560.46	28783.91
560.63	28594.32
560.79	28706.67
560.96	28641.14
561.12	28561.56
561.29	28350.91
561.45	28779.23
561.61	28549.85
561.78	28964.13
561.94	28673.90
562.11	28699.65
562.27	28521.77
562.44	28498.36
562.60	28575.60
562.77	28788.59
562.93	28549.85
563.10	28964.13
563.26	28687.95
563.42	29104.56
563.59	28514.75
563.75	28472.62
563.92	28655.18
564.08	28505.38
564.24	28734.76
564.41	28664.54
564.57	28802.63
564.74	28865.83
564.90	29298.83
565.07	28898.59
565.23	28816.68
565.39	28739.44
565.56	29439.26
565.72	28954.77
565.88	29036.69
566.05	28507.72
566.21	28772.21
566.38	28898.59
566.54	28819.02
566.70	28842.42
566.87	29296.49
567.03	29064.77
567.19	29443.94
567.36	29476.71
567.52	28936.04
567.68	28978.17
567.85	28947.75
568.01	29270.74
568.17	29006.26
568.34	29184.14
568.50	29579.69
568.66	29333.93
568.83	29326.91
568.99	29041.37
569.15	29134.99
569.32	28985.19
569.48	29249.67
569.64	29216.91
569.81	28835.40
569.97	29078.82
570.13	29212.23
570.30	29221.59
570.46	29263.72
570.62	29457.98
570.78	28893.91
570.95	29097.54
571.11	28896.25
571.27	28854.12
571.43	28900.94
571.60	29401.81
571.76	29329.25
571.92	29528.20
572.09	29481.39
572.25	29282.44
572.41	29612.46
572.57	29457.98
572.74	29518.84
572.90	29041.37
573.06	29132.65
573.22	29172.44
573.38	29301.17
573.55	29371.38
573.71	29453.30
573.87	29394.79
574.03	29308.19
574.20	29301.17
574.36	29493.09
574.52	29406.49
574.68	29273.08
574.84	29612.46
575.01	29319.89
575.17	29006.26
575.33	29633.52
575.49	28870.51
575.65	29685.01
575.82	29429.90
575.98	29102.22
576.14	29469.69
576.30	29214.57
576.46	29486.07
576.62	29390.11
576.79	29289.46
576.95	29317.55
577.11	29757.57
577.27	29511.81
577.43	29682.67
577.59	29266.06
577.75	29853.53
577.92	29614.80
578.08	29392.45
578.24	29111.58
578.40	29266.06
578.56	29745.87
578.72	29413.51
578.88	29972.90
579.04	29933.11
579.21	29560.97
579.37	29525.86
579.53	29612.46
579.69	29642.88
579.85	29343.30
580.01	29596.07
580.17	29362.02
580.33	29448.62
580.49	29392.45
580.65	29675.65
580.82	29460.32
580.98	29605.44
581.14	29567.99
581.30	29647.57
581.46	29247.33
581.62	29970.56
581.78	29727.14
581.94	29584.37
582.10	29104.56
582.26	29977.58
582.42	29654.59
582.58	29909.71
582.74	29883.96
582.90	29460.32
583.06	29675.65
583.22	29820.77
583.38	29291.80
583.54	29785.66
583.70	29308.19
583.86	29727.14
584.02	29649.91
584.18	29912.05
584.34	30087.59
584.50	29820.77
584.66	29692.04
584.82	29546.92
584.98	29516.50
585.14	29462.66
585.30	29621.82
585.46	29579.69
585.62	29677.99
585.78	29685.01
585.94	29734.17
586.10	29947.15
586.26	29919.07
586.42	30260.79
586.58	29610.12
586.74	29825.45
586.90	29294.14
587.06	29696.72
587.22	29670.97
587.38	29741.19
587.54	30094.61
587.70	30050.14
587.86	29663.95
588.02	30075.88
588.18	30190.57
588.34	29567.99
588.49	29846.51
588.65	29827.79
588.81	29518.84
588.97	29502.45
589.13	29724.80
589.29	29766.93
589.45	29872.26
589.61	30164.82
589.77	29809.06
589.93	29970.56
590.08	30115.67
590.24	29776.30
590.40	30216.32
590.56	29944.81
590.72	29853.53
590.88	29869.92
591.04	30162.48
591.20	30258.45
591.35	30127.38
591.51	30359.09
591.67	29893.32
591.83	30349.73
591.99	30174.19
