SpectraSuite Data File
++++++++++++++++++++++++++++++++++++
Date: Fri Oct 18 13:58:04 GMT-05:00 2013
User: bianchi
Dark Spectrum Present: No
Reference Spectrum Present: No
Number of Sampled Component Spectra: 1
Spectrometers: USB2+H05261
Integration Time (usec): 50000 (USB2+H05261)
Spectra Averaged: 1 (USB2+H05261)
Boxcar Smoothing: 0 (USB2+H05261)
Correct for Electrical Dark: No (USB2+H05261)
Strobe/Lamp Enabled: No (USB2+H05261)
Correct for Detector Non-linearity: No (USB2+H05261)
Correct for Stray Light: No (USB2+H05261)
Number of Pixels in Processed Spectrum: 2048
>>>>>Begin Processed Spectral Data<<<<<
365.73	0.00
365.92	0.00
366.12	0.00
366.32	0.00
366.52	0.00
366.72	0.00
366.91	0.00
367.11	0.00
367.31	0.00
367.51	0.00
367.70	0.00
367.90	0.00
368.10	0.00
368.30	0.00
368.49	0.00
368.69	0.00
368.89	0.00
369.09	0.00
369.28	0.00
369.48	0.00
369.68	0.00
369.87	0.00
370.07	0.00
370.27	0.00
370.47	0.00
370.66	23.41
370.86	142.77
371.06	154.48
371.25	119.37
371.45	105.32
371.65	114.69
371.84	154.48
372.04	110.01
372.24	177.88
372.44	194.26
372.63	163.84
372.83	231.71
373.03	259.80
373.22	161.50
373.42	175.54
373.62	145.11
373.81	271.50
374.01	234.05
374.21	208.31
374.40	264.48
374.60	294.91
374.79	236.39
374.99	241.08
375.19	203.63
375.38	229.37
375.58	205.97
375.78	173.20
375.97	252.78
376.17	325.33
376.37	351.08
376.56	372.15
376.76	184.90
376.95	262.14
377.15	252.78
377.35	297.25
377.54	278.52
377.74	311.29
377.93	304.27
378.13	332.36
378.33	294.91
378.52	259.80
378.72	227.03
378.91	280.86
379.11	287.89
379.31	280.86
379.50	287.89
379.70	379.17
379.89	390.87
380.09	271.50
380.28	196.60
380.48	222.35
380.68	269.16
380.87	238.73
381.07	353.42
381.26	294.91
381.46	297.25
381.65	341.72
381.85	320.65
382.04	367.46
382.24	330.02
382.43	315.97
382.63	308.95
382.83	365.12
383.02	390.87
383.22	365.12
383.41	383.85
383.61	365.12
383.80	397.89
384.00	374.49
384.19	437.68
384.39	400.23
384.58	351.08
384.78	400.23
384.97	348.74
385.17	351.08
385.36	390.87
385.56	360.44
385.75	433.00
385.95	447.04
386.14	496.19
386.34	402.57
386.53	461.09
386.72	365.12
386.92	526.62
387.11	421.30
387.31	409.59
387.50	369.80
387.70	397.89
387.89	477.47
388.09	454.06
388.28	393.21
388.48	428.32
388.67	491.51
388.86	433.00
389.06	451.72
389.25	521.94
389.45	475.13
389.64	421.30
389.84	465.77
390.03	472.79
390.22	592.16
390.42	449.38
390.61	484.49
390.81	451.72
391.00	491.51
391.19	526.62
391.39	519.60
391.58	486.83
391.78	435.34
391.97	442.36
392.16	458.74
392.36	514.92
392.55	526.62
392.75	510.24
392.94	493.85
393.13	585.13
393.33	550.03
393.52	543.00
393.71	528.96
393.91	545.34
394.10	601.52
394.29	545.34
394.49	631.94
394.68	638.97
394.88	634.29
395.07	580.45
395.26	688.12
395.46	603.86
395.65	636.63
395.84	702.16
396.04	636.63
396.23	631.94
396.42	620.24
396.62	645.99
396.81	643.65
397.00	685.78
397.19	720.88
397.39	723.23
397.58	765.36
397.77	730.25
397.97	753.65
398.16	725.57
398.35	739.61
398.55	695.14
398.74	671.73
398.93	704.50
399.12	781.74
399.32	734.93
399.51	690.46
399.70	655.35
399.90	854.30
400.09	772.38
400.28	816.85
400.47	765.36
400.67	842.59
400.86	725.57
401.05	814.51
401.24	800.46
401.44	842.59
401.63	805.14
401.82	821.53
402.01	821.53
402.21	875.36
402.40	753.65
402.59	772.38
402.78	861.32
402.97	856.64
403.17	823.87
403.36	901.11
403.55	917.49
403.74	858.98
403.93	952.60
404.13	910.47
404.32	929.19
404.51	898.77
404.70	889.40
404.89	905.79
405.09	985.37
405.28	1001.75
405.47	1022.81
405.66	997.07
405.85	1032.18
406.05	968.98
406.24	1027.50
406.43	1121.12
406.62	992.39
406.81	1128.14
407.00	1001.75
407.20	1015.79
407.39	1011.11
407.58	1071.97
407.77	1055.58
407.96	1029.84
408.15	1081.33
408.34	1018.13
408.54	1102.39
408.73	1067.28
408.92	1081.33
409.11	1186.65
409.30	1137.50
409.49	1139.84
409.68	1188.99
409.87	1210.06
410.07	1252.19
410.26	1188.99
410.45	1217.08
410.64	1158.57
410.83	1306.02
411.02	1198.35
411.21	1296.66
411.40	1219.42
411.59	1282.61
411.78	1317.72
411.98	1256.87
412.17	1357.51
412.36	1224.10
412.55	1430.07
412.74	1348.15
412.93	1348.15
413.12	1409.00
413.31	1387.94
413.50	1451.13
413.69	1432.41
413.88	1371.55
414.07	1441.77
414.26	1430.07
414.45	1455.81
414.64	1490.92
414.83	1521.35
415.02	1551.78
415.22	1547.09
415.41	1483.90
415.60	1481.56
415.79	1535.39
415.98	1568.16
416.17	1603.27
416.36	1671.14
416.55	1741.36
416.74	1577.52
416.93	1631.35
417.12	1692.21
417.31	1694.55
417.50	1631.35
417.69	1799.87
417.88	1839.66
418.07	1671.14
418.26	1785.83
418.45	1851.36
418.64	1898.17
418.83	1673.48
419.02	1797.53
419.21	1750.72
419.39	1853.70
419.58	1732.00
419.77	1923.92
419.96	1909.88
420.15	1872.43
420.34	1872.43
420.53	1837.32
420.72	1975.41
420.91	1944.99
421.10	1916.90
421.29	1963.71
421.48	1968.39
421.67	1996.48
421.86	1930.94
422.05	1942.64
422.24	1905.20
422.43	2026.90
422.61	1970.73
422.80	1980.09
422.99	2012.86
423.18	2010.52
423.37	2141.59
423.56	2071.37
423.75	2076.06
423.94	1968.39
424.13	1940.30
424.32	1933.28
424.50	2066.69
424.69	2097.12
424.88	2193.08
425.07	2033.93
425.26	2078.40
425.45	2146.27
425.64	1987.11
425.83	2040.95
426.01	2059.67
426.20	2043.29
426.39	2071.37
426.58	2162.66
426.77	2232.87
426.96	2113.50
427.15	2183.72
427.33	2167.34
427.52	2120.53
427.71	2225.85
427.90	2174.36
428.09	2258.62
428.28	2225.85
428.46	2246.91
428.65	2169.68
428.84	2282.02
429.03	2321.81
429.22	2260.96
429.40	2319.47
429.59	2342.88
429.78	2230.53
429.97	2122.87
430.16	2246.91
430.34	2420.11
430.53	2352.24
430.72	2289.04
430.91	2300.75
431.10	2303.09
431.28	2272.66
431.47	2431.82
431.66	2424.80
431.85	2443.52
432.03	2382.67
432.22	2492.67
432.41	2452.88
432.60	2525.44
432.79	2485.65
432.97	2441.18
433.16	2541.82
433.35	2452.88
433.54	2593.31
433.72	2495.01
433.91	2546.50
434.10	2541.82
434.28	2495.01
434.47	2537.14
434.66	2600.34
434.85	2590.97
435.03	2635.44
435.22	2609.70
435.41	2586.29
435.59	2546.50
435.78	2588.63
435.97	2708.00
436.16	2644.81
436.34	2670.55
436.53	2605.02
436.72	2764.17
436.90	2827.37
437.09	2764.17
437.28	2656.51
437.46	2759.49
437.65	2810.98
437.84	2768.85
438.02	2745.45
438.21	2792.26
438.40	2768.85
438.58	2918.65
438.77	2920.99
438.96	2869.50
439.14	2949.08
439.33	3002.91
439.52	3063.76
439.70	2967.80
439.89	3112.91
440.08	2974.82
440.26	3215.90
440.45	2967.80
440.63	3192.49
440.82	3117.59
441.01	3246.32
441.19	3166.74
441.38	3309.52
441.57	3286.11
441.75	3267.39
441.94	3222.92
442.12	3286.11
442.31	3337.60
442.50	3356.33
442.68	3328.24
442.87	3499.10
443.05	3391.44
443.24	3398.46
443.43	3398.46
443.61	3445.27
443.80	3412.50
443.98	3581.02
444.17	3372.71
444.35	3499.10
444.54	3494.42
444.73	3564.64
444.91	3447.61
445.10	3536.55
445.28	3407.82
445.47	3405.48
445.65	3447.61
445.84	3424.20
446.02	3574.00
446.21	3428.88
446.39	3566.98
446.58	3583.36
446.77	3543.57
446.95	3410.16
447.14	3566.98
447.32	3592.72
447.51	3520.17
447.69	3641.87
447.88	3452.29
448.06	3585.70
448.25	3588.04
448.43	3698.05
448.62	3637.19
448.80	3581.02
448.99	3606.77
449.17	3604.42
449.36	3595.06
449.54	3688.68
449.73	3702.73
449.91	3784.65
450.10	3693.37
450.28	3761.24
450.46	3765.92
450.65	3906.35
450.83	3852.52
451.02	3845.50
451.20	3815.07
451.39	3936.78
451.57	3796.35
451.76	3749.54
451.94	3796.35
452.13	3826.78
452.31	3829.12
452.49	3672.30
452.68	3901.67
452.86	3782.31
453.05	3854.86
453.23	3918.06
453.42	3927.42
453.60	3936.78
453.78	3929.76
453.97	3983.59
454.15	3967.21
454.34	3864.22
454.52	4109.98
454.70	4168.49
454.89	4100.62
455.07	4070.19
455.26	4095.94
455.44	4264.46
455.62	4175.52
455.81	4170.83
455.99	4135.73
456.17	4266.80
456.36	4273.82
456.54	4234.03
456.73	4334.67
456.91	4416.59
457.09	4353.40
457.28	4339.35
457.46	4264.46
457.64	4418.93
457.83	4346.37
458.01	4299.56
458.19	4292.54
458.38	4360.42
458.56	4428.29
458.74	4596.81
458.93	4601.49
459.11	4491.49
459.29	4599.15
459.48	4641.28
459.66	4430.63
459.84	4571.07
460.03	4758.31
460.21	4493.83
460.39	4524.26
460.57	4507.87
460.76	4706.82
460.94	4723.20
461.12	4540.64
461.31	4587.45
461.49	4748.95
461.67	4610.86
461.85	4702.14
462.04	4753.63
462.22	4889.38
462.40	4774.69
462.59	4685.75
462.77	4781.71
462.95	4812.14
463.13	4812.14
463.32	4793.42
463.50	4758.31
463.68	4873.00
463.86	4868.31
464.05	4851.93
464.23	4821.50
464.41	4863.63
464.59	4898.74
464.78	5069.60
464.96	4987.68
465.14	4975.98
465.32	4957.25
465.50	4975.98
465.69	5032.15
465.87	5170.24
466.05	5032.15
466.23	5177.26
466.41	5013.43
466.60	5249.82
466.78	4990.02
466.96	5036.83
467.14	5210.03
467.32	5280.25
467.51	5380.89
467.69	5125.77
467.87	5212.37
468.05	5212.37
468.23	5357.49
468.41	5240.46
468.60	5334.08
468.78	5392.59
468.96	5219.39
469.14	5408.98
469.32	5195.99
469.50	5275.57
469.69	5380.89
469.87	5490.90
470.05	5582.18
470.23	5533.03
470.41	5577.50
470.59	5474.51
470.77	5441.75
470.95	5439.40
471.14	5540.05
471.32	5502.60
471.50	5633.67
471.68	5633.67
471.86	5797.51
472.04	5865.38
472.22	5853.68
472.40	5727.29
472.58	5783.46
472.77	5891.13
472.95	5884.11
473.13	6188.38
473.31	5898.15
473.49	6054.97
473.67	5858.36
473.85	6059.65
474.03	6225.82
474.21	6069.01
474.39	6120.50
474.57	6136.88
474.75	6214.12
474.93	6239.87
475.12	6218.80
475.30	6338.17
475.48	6253.91
475.66	6452.86
475.84	6455.20
476.02	6317.11
476.20	6553.50
476.38	6471.58
476.56	6576.91
476.74	6604.99
476.92	6532.44
477.10	6663.51
477.28	6597.97
477.46	6761.81
477.64	6927.99
477.82	7007.56
478.00	7105.87
478.18	7143.32
478.36	7101.19
478.54	7190.13
478.72	7208.85
478.90	7157.36
479.08	7239.28
479.26	7211.19
479.44	7180.76
479.62	7548.23
479.80	7480.35
479.98	7447.58
480.16	7630.15
480.34	7639.51
480.52	7569.29
480.70	7740.15
480.88	7758.88
481.06	7641.85
481.24	7786.96
481.41	7829.09
481.59	8182.51
481.77	8112.30
481.95	8095.91
482.13	8173.15
482.31	8231.66
482.49	8376.78
482.67	8348.69
482.85	8655.30
483.03	8676.37
483.21	8603.81
483.39	8709.13
483.57	8704.45
483.74	8723.18
483.92	8620.19
484.10	8777.01
484.28	8940.85
484.46	9029.79
484.64	9256.82
484.82	9064.89
485.00	9380.87
485.18	9439.38
485.35	9488.53
485.53	9369.16
485.71	9706.20
485.89	9708.54
486.07	9596.20
486.25	9619.60
486.43	9856.00
486.61	9914.51
486.78	9825.57
486.96	10099.41
487.14	10178.99
487.32	10338.15
487.50	10211.76
487.68	10452.83
487.85	10511.35
488.03	10780.51
488.21	10860.09
488.39	10703.27
488.57	10885.83
488.75	10920.94
488.92	10949.03
489.10	10974.77
489.28	11159.67
489.46	11091.80
489.64	11302.45
489.81	11466.28
489.99	11529.48
490.17	11651.19
490.35	11709.70
490.53	11665.23
490.70	11786.94
490.88	11929.71
491.06	11726.08
491.24	11791.62
491.41	12086.53
491.59	12121.63
491.77	12166.10
491.95	12184.83
492.13	12512.50
492.30	12517.18
492.48	12444.63
492.66	12472.71
492.84	12601.44
493.01	12807.41
493.19	12767.62
493.37	12882.31
493.54	12886.99
493.72	13312.97
493.90	13032.10
494.08	13261.48
494.25	13441.70
494.43	13387.86
494.61	13462.76
494.79	13341.05
494.96	13640.64
495.14	13659.37
495.32	13558.72
495.49	13645.32
495.67	13916.83
495.85	14097.05
496.02	13977.68
496.20	14097.05
496.38	14129.81
496.55	14281.95
496.73	14616.65
496.91	14286.63
497.09	14406.00
497.26	14434.08
497.44	14501.96
497.62	14740.69
497.79	14794.53
497.97	14647.07
498.14	15075.39
498.32	15122.20
498.50	14836.66
498.67	15089.43
498.85	15028.58
499.03	15379.66
499.20	15166.67
499.38	15220.50
499.56	15302.42
499.73	15449.88
499.91	15625.42
500.08	15889.90
500.26	15721.38
500.44	15702.65
500.61	15667.55
500.79	15756.49
500.97	15948.41
501.14	15910.96
501.32	16224.59
501.49	15817.34
501.67	16013.95
501.84	16145.02
502.02	16079.48
502.20	16421.20
502.37	16421.20
502.55	16423.54
502.72	16655.25
502.90	16456.31
503.07	16624.83
503.25	16786.32
503.43	16671.64
503.60	16753.55
503.78	16954.84
503.95	16982.93
504.13	16905.69
504.30	16919.73
504.48	16994.63
504.65	17011.01
504.83	17104.64
505.01	17291.88
505.18	17282.52
505.36	17341.03
505.53	17121.02
505.71	17193.58
505.88	17549.34
506.06	17448.69
506.23	17703.81
506.41	17781.05
506.58	17881.69
506.76	17479.12
506.93	17869.99
507.11	17556.36
507.28	17331.67
507.46	18047.87
507.63	17991.70
507.81	18155.54
507.98	17776.37
508.16	18092.34
508.33	18162.56
508.50	17980.00
508.68	18373.21
508.85	18302.99
509.03	18513.64
509.20	18237.45
509.38	18225.75
509.55	18693.86
509.73	18485.55
509.90	18731.31
510.08	18616.62
510.25	18958.34
510.42	18834.29
510.60	18923.23
510.77	19061.32
510.95	19014.51
511.12	18902.17
511.30	19068.34
511.47	19035.58
511.64	19173.67
511.82	19381.98
511.99	19075.37
512.17	19356.23
512.34	19344.53
512.51	19548.15
512.69	19470.92
512.86	19384.32
513.04	19660.50
513.21	19932.00
513.38	19878.17
513.56	19974.13
513.73	19838.38
513.90	19711.99
514.08	19711.99
514.25	20163.72
514.43	20116.90
514.60	20257.34
514.77	20004.56
514.95	20301.81
515.12	20322.87
515.29	20032.65
515.47	20451.60
515.64	20519.48
515.81	20325.21
515.99	20615.44
516.16	20554.58
516.33	20475.01
516.51	20718.42
516.68	20613.10
516.85	20442.24
517.03	20622.46
517.20	20795.66
517.37	20798.00
517.54	21128.02
517.72	20812.04
517.89	20992.26
518.06	21074.18
518.24	20908.01
518.41	21123.33
518.58	21071.84
518.75	21181.85
518.93	21003.97
519.10	21359.73
519.27	21565.70
519.45	21336.32
519.62	21266.11
519.79	21315.26
519.96	21502.50
520.14	21717.83
520.31	21329.30
520.48	21823.16
520.65	21565.70
520.83	21783.37
521.00	21975.29
521.17	21607.83
521.34	21535.27
521.52	21928.48
521.69	21963.59
521.86	22286.58
522.03	21930.82
522.20	22087.64
522.38	22644.68
522.55	21869.97
522.72	22036.14
522.89	22331.05
523.07	22389.56
523.24	22317.01
523.41	22850.65
523.58	22391.91
523.75	22522.98
523.92	22321.69
524.10	22981.72
524.27	22560.42
524.44	22675.11
524.61	22913.84
524.78	22810.86
524.96	22923.21
525.13	22946.61
525.30	22930.23
525.47	22857.67
525.64	23021.51
525.81	23000.44
525.98	23243.86
526.16	22923.21
526.33	23068.32
526.50	23285.99
526.67	23063.64
526.84	23183.01
527.01	23571.54
527.18	23016.83
527.36	23878.15
527.53	23419.40
527.70	23756.44
527.87	23747.08
528.04	23573.88
528.21	23850.06
528.38	23311.74
528.55	23611.32
528.72	23644.09
528.89	23543.45
529.07	23962.40
529.24	24156.67
529.41	23885.17
529.58	23805.59
529.75	23798.57
529.92	23931.98
530.09	24088.79
530.26	23948.36
530.43	24074.75
530.60	23920.28
530.77	24112.20
530.94	24238.59
531.11	24226.89
531.28	24266.67
531.46	24489.03
531.63	24376.68
531.80	24608.39
531.97	24418.81
532.14	24549.88
532.31	24549.88
532.48	24407.11
532.65	24765.21
532.82	24425.83
532.99	24479.66
533.16	24180.07
533.33	24601.37
533.50	25308.21
533.67	25015.65
533.84	24292.42
534.01	24891.60
534.18	24819.04
534.35	25188.85
534.52	24638.82
534.69	24823.72
534.86	25207.57
535.03	24879.89
535.20	25013.31
535.37	24987.56
535.54	25167.78
535.71	24936.07
535.88	24856.49
536.05	25350.34
536.22	25193.53
536.38	25336.30
536.55	25364.39
536.72	25570.35
536.89	25270.76
537.06	25858.24
537.23	25706.10
537.40	25628.87
537.57	25518.86
537.74	25729.51
537.91	25673.34
538.08	25965.90
538.25	25380.77
538.42	25713.13
538.59	25797.38
538.75	25317.57
538.92	26176.55
539.09	25935.48
539.26	26101.65
539.43	26118.04
539.60	26176.55
539.77	25977.61
539.94	26001.01
540.11	26132.08
540.28	26029.10
540.44	26174.21
540.61	25607.80
540.78	26059.52
540.95	26316.98
541.12	25886.32
541.29	26047.82
541.46	26199.96
541.62	26146.12
541.79	26099.31
541.96	25869.94
542.13	26284.22
542.30	26426.99
542.47	26632.96
542.63	26724.24
542.80	26703.17
542.97	26934.88
543.14	26771.05
543.31	26632.96
543.48	26761.69
543.64	26787.43
543.81	27014.46
543.98	26792.11
544.15	26958.29
544.32	26995.74
544.48	27173.62
544.65	26888.07
544.82	26969.99
544.99	27147.87
545.16	27131.49
545.32	26927.86
545.49	27197.02
545.66	27323.41
545.83	27608.96
546.00	27648.75
546.16	26937.23
546.33	27278.94
546.50	27122.13
546.67	27358.52
546.83	27271.92
547.00	27372.57
547.17	27407.67
547.34	27424.06
547.50	27417.04
547.67	27847.69
547.84	27562.15
548.00	27721.30
548.17	27517.68
548.34	27747.05
548.51	27826.63
548.67	27953.02
548.84	27665.13
549.01	27892.16
549.18	27482.57
549.34	27784.50
549.51	27515.34
549.68	27843.01
549.84	27410.01
550.01	27861.74
550.18	27662.79
550.34	28112.17
550.51	28018.55
550.68	28166.01
550.84	27620.66
551.01	27957.70
551.18	28016.21
551.34	27796.20
551.51	27941.32
551.68	27880.46
551.84	27988.13
552.01	28442.19
552.18	28458.57
552.34	28112.17
552.51	28467.94
552.68	28416.44
552.84	28039.62
553.01	28449.21
553.18	28479.64
553.34	29006.26
553.51	28381.34
553.67	28381.34
553.84	28723.05
554.01	28442.19
554.17	28570.92
554.34	28215.16
554.51	28828.38
554.67	28486.66
554.84	28350.91
555.00	28762.84
555.17	28467.94
555.33	28636.45
555.50	28659.86
555.67	28760.50
555.83	28545.17
556.00	28615.39
556.16	28898.59
556.33	28666.88
556.50	28428.15
556.66	28914.98
556.83	28903.28
556.99	29123.29
557.16	29062.43
557.32	28772.21
557.49	28603.69
557.65	28816.68
557.82	28306.44
557.98	29184.14
558.15	28971.15
558.32	29359.68
558.48	28811.99
558.65	29230.95
558.81	29614.80
558.98	29317.55
559.14	29298.83
559.31	28999.24
559.47	28816.68
559.64	29146.69
559.80	29441.60
559.97	29099.88
560.13	29322.23
560.30	29142.01
560.46	29352.66
560.63	29280.10
560.79	29626.50
560.96	29390.11
561.12	29331.59
561.29	29518.84
561.45	29439.26
561.61	29160.73
561.78	29469.69
561.94	29804.38
562.11	29666.29
562.27	29546.92
562.44	29462.66
562.60	29385.43
562.77	29504.79
562.93	29687.36
563.10	29603.10
563.26	29546.92
563.42	29687.36
563.59	29720.12
563.75	29661.61
563.92	29706.08
564.08	29357.34
564.24	29371.38
564.41	29614.80
564.57	30029.07
564.74	29441.60
564.90	29771.61
565.07	30221.00
565.23	29734.17
565.39	29879.28
565.56	29778.64
565.72	29968.22
565.88	29373.72
566.05	29654.59
566.21	29680.33
566.38	29783.32
566.54	29886.30
566.70	29956.52
566.87	30178.87
567.03	29825.45
567.19	30134.40
567.36	29912.05
567.52	30022.05
567.68	29912.05
567.85	29689.70
568.01	30139.08
568.17	29825.45
568.34	30136.74
568.50	30036.09
568.66	30073.54
568.83	30562.72
568.99	30073.54
569.15	30022.05
569.32	29706.08
569.48	29874.60
569.64	30246.74
569.81	30314.62
569.97	30024.39
570.13	29972.90
570.30	29598.41
570.46	30267.81
570.62	30134.40
570.78	29820.77
570.95	30085.25
571.11	29956.52
571.27	29553.94
571.43	29867.58
571.60	30230.36
571.76	30059.50
571.92	30094.61
572.09	30169.51
572.25	30483.14
572.41	30174.19
572.57	30005.67
572.74	30216.32
572.90	29898.00
573.06	29876.94
573.22	30106.31
573.38	30169.51
573.55	30057.16
573.71	30487.82
573.87	30700.81
574.03	30576.76
574.20	30197.59
574.36	30017.37
574.52	30738.26
574.68	29979.92
574.84	30319.30
575.01	29979.92
575.17	30478.46
575.33	30295.89
575.49	29958.86
575.65	30651.66
575.82	30904.43
575.98	29675.65
576.14	30581.44
576.30	30176.53
576.46	29745.87
576.62	29759.91
576.79	30426.96
576.95	30263.13
577.11	30274.83
577.27	30618.89
577.43	30494.84
577.59	30464.41
577.75	30515.90
577.92	30419.94
578.08	30211.64
578.24	30249.08
578.40	30099.29
578.56	30672.72
578.72	30710.17
578.88	30590.80
579.04	30862.30
579.21	30256.11
579.37	30698.47
579.53	30684.42
579.69	30223.34
579.85	30431.65
580.01	30314.62
580.17	30501.86
580.33	30661.02
580.49	30342.70
580.65	30590.80
580.82	30316.96
580.98	30490.16
581.14	30726.55
581.30	30422.28
581.46	30017.37
581.62	30279.51
581.78	29928.43
581.94	30665.70
582.10	30462.07
582.26	30749.96
582.42	30424.62
582.58	30766.34
582.74	30316.96
582.90	30593.14
583.06	30394.20
583.22	30771.02
583.38	30476.12
583.54	30141.42
583.70	30462.07
583.86	30459.73
584.02	30316.96
584.18	30986.35
584.34	30710.17
584.50	30829.54
584.66	30321.64
584.82	30221.00
584.98	30543.99
585.14	30480.80
585.30	30185.89
585.46	30551.01
585.62	30228.02
585.78	30609.53
585.94	30305.26
586.10	30445.69
586.26	30953.58
586.42	30527.61
586.58	30682.08
586.74	30754.64
586.90	30323.98
587.06	30338.02
587.22	30298.23
587.38	30260.79
587.54	30579.10
587.70	30866.98
587.86	31089.34
588.02	30827.20
588.18	30728.89
588.34	30611.87
588.49	30932.52
588.65	30555.69
588.81	30473.78
588.97	30855.28
589.13	30866.98
589.29	30408.24
589.45	30635.27
589.61	30937.20
589.77	30831.88
589.93	30871.67
590.08	30909.11
590.24	31241.47
590.40	30946.56
590.56	31309.35
590.72	30890.39
590.88	30548.67
591.04	30473.78
591.20	31101.04
591.35	30944.22
591.51	31145.51
591.67	31370.20
591.83	31215.72
