SpectraSuite Data File
++++++++++++++++++++++++++++++++++++
Date: Fri Oct 18 13:58:36 GMT-05:00 2013
User: bianchi
Dark Spectrum Present: No
Reference Spectrum Present: No
Number of Sampled Component Spectra: 1
Spectrometers: USB2+H05261
Integration Time (usec): 50000 (USB2+H05261)
Spectra Averaged: 1 (USB2+H05261)
Boxcar Smoothing: 0 (USB2+H05261)
Correct for Electrical Dark: No (USB2+H05261)
Strobe/Lamp Enabled: No (USB2+H05261)
Correct for Detector Non-linearity: No (USB2+H05261)
Correct for Stray Light: No (USB2+H05261)
Number of Pixels in Processed Spectrum: 2048
>>>>>Begin Processed Spectral Data<<<<<
365.73	0.00
365.92	0.00
366.12	0.00
366.32	0.00
366.52	0.00
366.72	0.00
366.91	0.00
367.11	0.00
367.31	0.00
367.51	0.00
367.70	0.00
367.90	0.00
368.10	0.00
368.30	0.00
368.49	0.00
368.69	0.00
368.89	0.00
369.09	0.00
369.28	0.00
369.48	0.00
369.68	0.00
369.87	0.00
370.07	0.00
370.27	0.00
370.47	0.00
370.66	0.00
370.86	119.37
371.06	124.05
371.25	215.33
371.45	128.73
371.65	107.66
371.84	138.09
372.04	170.86
372.24	182.56
372.44	180.22
372.63	149.79
372.83	198.95
373.03	208.31
373.22	297.25
373.42	205.97
373.62	187.24
373.81	196.60
374.01	205.97
374.21	182.56
374.40	234.05
374.60	128.73
374.79	180.22
374.99	285.55
375.19	255.12
375.38	173.20
375.58	241.08
375.78	217.67
375.97	194.26
376.17	201.29
376.37	301.93
376.56	191.92
376.76	280.86
376.95	159.16
377.15	294.91
377.35	292.57
377.54	250.44
377.74	142.77
377.93	278.52
378.13	271.50
378.33	257.46
378.52	325.33
378.72	327.68
378.91	229.37
379.11	234.05
379.31	332.36
379.50	203.63
379.70	287.89
379.89	313.63
380.09	299.59
380.28	346.40
380.48	276.18
380.68	294.91
380.87	313.63
381.07	376.83
381.26	383.85
381.46	313.63
381.65	278.52
381.85	390.87
382.04	379.17
382.24	301.93
382.43	313.63
382.63	292.57
382.83	255.12
383.02	301.93
383.22	344.06
383.41	341.72
383.61	320.65
383.80	351.08
384.00	292.57
384.19	414.27
384.39	315.97
384.58	339.38
384.78	330.02
384.97	334.70
385.17	437.68
385.36	372.15
385.56	365.12
385.75	346.40
385.95	437.68
386.14	353.42
386.34	327.68
386.53	388.53
386.72	390.87
386.92	428.32
387.11	444.70
387.31	390.87
387.50	367.46
387.70	433.00
387.89	423.64
388.09	447.04
388.28	409.59
388.48	428.32
388.67	468.11
388.86	421.30
389.06	454.06
389.25	423.64
389.45	477.47
389.64	442.36
389.84	503.22
390.03	465.77
390.22	533.64
390.42	428.32
390.61	475.13
390.81	592.16
391.00	486.83
391.19	484.49
391.39	486.83
391.58	484.49
391.78	500.87
391.97	568.75
392.16	524.28
392.36	477.47
392.55	589.82
392.75	582.79
392.94	545.34
393.13	566.41
393.33	526.62
393.52	498.53
393.71	526.62
393.91	531.30
394.10	521.94
394.29	514.92
394.49	557.05
394.68	599.18
394.88	674.07
395.07	578.11
395.26	564.07
395.46	472.79
395.65	676.41
395.84	667.05
396.04	688.12
396.23	650.67
396.42	580.45
396.62	688.12
396.81	678.76
397.00	702.16
397.19	613.22
397.39	606.20
397.58	636.63
397.77	671.73
397.97	671.73
398.16	746.63
398.35	711.52
398.55	702.16
398.74	723.23
398.93	634.29
399.12	779.40
399.32	678.76
399.51	685.78
399.70	702.16
399.90	624.92
400.09	748.97
400.28	767.70
400.47	770.04
400.67	732.59
400.86	781.74
401.05	753.65
401.24	760.67
401.44	737.27
401.63	823.87
401.82	791.10
402.01	746.63
402.21	791.10
402.40	875.36
402.59	786.42
402.78	880.04
402.97	828.55
403.17	915.15
403.36	851.96
403.55	842.59
403.74	873.02
403.93	922.17
404.13	898.77
404.32	786.42
404.51	968.98
404.70	896.43
404.89	849.61
405.09	983.02
405.28	983.02
405.47	952.60
405.66	976.00
405.85	959.62
406.05	856.64
406.24	957.28
406.43	1041.54
406.62	971.32
406.81	1078.99
407.00	1025.15
407.20	961.96
407.39	985.37
407.58	966.64
407.77	985.37
407.96	1013.45
408.15	952.60
408.34	1015.79
408.54	1062.60
408.73	1151.54
408.92	1057.92
409.11	1170.27
409.30	1081.33
409.49	1116.44
409.68	1093.03
409.87	1088.35
410.07	1107.07
410.26	1198.35
410.45	1207.72
410.64	1032.18
410.83	1207.72
411.02	1135.16
411.21	1203.04
411.40	1306.02
411.59	1249.85
411.78	1200.69
411.98	1259.21
412.17	1280.27
412.36	1268.57
412.55	1350.49
412.74	1338.79
412.93	1397.30
413.12	1303.68
413.31	1448.79
413.50	1327.08
413.69	1355.17
413.88	1348.15
414.07	1366.87
414.26	1483.90
414.45	1434.75
414.64	1404.32
414.83	1439.43
415.02	1453.47
415.22	1378.58
415.41	1558.80
415.60	1497.94
415.79	1509.65
415.98	1554.12
416.17	1556.46
416.36	1563.48
416.55	1549.43
416.74	1734.34
416.93	1643.06
417.12	1661.78
417.31	1727.32
417.50	1640.72
417.69	1654.76
417.88	1603.27
418.07	1696.89
418.26	1748.38
418.45	1687.53
418.64	1760.08
418.83	1739.02
419.02	1715.61
419.21	1804.55
419.39	1842.00
419.58	1816.26
419.77	1743.70
419.96	1851.36
420.15	1891.15
420.34	1832.64
420.53	1937.96
420.72	1902.86
420.91	2015.20
421.10	1977.75
421.29	2012.86
421.48	1919.24
421.67	1912.22
421.86	1834.98
422.05	1940.30
422.24	1923.92
422.43	1940.30
422.61	1980.09
422.80	1928.60
422.99	1966.05
423.18	2052.65
423.37	2054.99
423.56	2026.90
423.75	1966.05
423.94	1863.07
424.13	1865.41
424.32	1888.81
424.50	1977.75
424.69	2087.76
424.88	2012.86
425.07	1944.99
425.26	2057.33
425.45	1989.46
425.64	1987.11
425.83	2029.24
426.01	2015.20
426.20	2017.54
426.39	1937.96
426.58	2003.50
426.77	2003.50
426.96	2057.33
427.15	2150.95
427.33	2031.58
427.52	2062.01
427.71	2083.08
427.90	2106.48
428.09	2162.66
428.28	2155.63
428.46	2071.37
428.65	2115.84
428.84	2218.83
429.03	2256.28
429.22	2239.89
429.40	2282.02
429.59	2162.66
429.78	2157.97
429.97	2195.42
430.16	2157.97
430.34	2263.30
430.53	2319.47
430.72	2291.38
430.91	2162.66
431.10	2293.72
431.28	2377.98
431.47	2157.97
431.66	2368.62
431.85	2291.38
432.03	2370.96
432.22	2368.62
432.41	2473.95
432.60	2399.05
432.79	2300.75
432.97	2392.03
433.16	2363.94
433.35	2382.67
433.54	2436.50
433.72	2567.57
433.91	2361.60
434.10	2525.44
434.28	2516.08
434.47	2459.90
434.66	2523.10
434.85	2576.93
435.03	2576.93
435.22	2640.12
435.41	2710.34
435.59	2574.59
435.78	2637.78
435.97	2574.59
436.16	2565.23
436.34	2581.61
436.53	2736.09
436.72	2773.53
436.90	2581.61
437.09	2663.53
437.28	2710.34
437.46	2626.08
437.65	2635.44
437.84	2766.51
438.02	2703.32
438.21	2705.66
438.40	2654.17
438.58	2836.73
438.77	2733.75
438.96	2775.88
439.14	2785.24
439.33	2729.06
439.52	3002.91
439.70	3042.70
439.89	3026.31
440.08	2974.82
440.26	2939.71
440.45	2988.86
440.63	3171.43
440.82	3176.11
441.01	3159.72
441.19	3056.74
441.38	3091.85
441.57	3152.70
441.75	2995.89
441.94	3232.28
442.12	3183.13
442.31	3267.39
442.50	3262.71
442.68	3283.77
442.87	3283.77
443.05	3288.45
443.24	3323.56
443.43	3410.16
443.61	3234.62
443.80	3382.07
443.98	3283.77
444.17	3332.92
444.35	3403.14
444.54	3295.47
444.73	3405.48
444.91	3412.50
445.10	3370.37
445.28	3295.47
445.47	3447.61
445.65	3461.65
445.84	3384.41
446.02	3368.03
446.21	3375.05
446.39	3384.41
446.58	3382.07
446.77	3581.02
446.95	3267.39
447.14	3426.54
447.32	3447.61
447.51	3557.61
447.69	3440.59
447.88	3361.01
448.06	3442.93
448.25	3494.42
448.43	3396.12
448.62	3552.93
448.80	3536.55
448.99	3461.65
449.17	3651.24
449.36	3517.83
449.54	3641.87
449.73	3639.53
449.91	3632.51
450.10	3709.75
450.28	3616.13
450.46	3489.74
450.65	3552.93
450.83	3712.09
451.02	3627.83
451.20	3754.22
451.39	3772.94
451.57	3705.07
451.76	3679.32
451.94	3765.92
452.13	3939.12
452.31	3686.34
452.49	3744.86
452.68	3850.18
452.86	3908.69
453.05	4021.04
453.23	3939.12
453.42	3763.58
453.60	3875.93
453.78	3824.44
453.97	3826.78
454.15	3962.53
454.34	3971.89
454.52	3941.46
454.70	3939.12
454.89	3955.51
455.07	4037.42
455.26	4081.89
455.44	4072.53
455.62	3983.59
455.81	3997.64
455.99	4032.74
456.17	4049.13
456.36	4135.73
456.54	4091.26
456.73	4184.88
456.91	4297.22
457.09	4231.69
457.28	4381.48
457.46	4189.56
457.64	4440.00
457.83	4346.37
458.01	4184.88
458.19	4430.63
458.38	4367.44
458.56	4145.09
458.74	4222.33
458.93	4304.25
459.11	4353.40
459.29	4430.63
459.48	4484.47
459.66	4496.17
459.84	4514.89
460.03	4465.74
460.21	4449.36
460.39	4388.50
460.57	4414.25
460.76	4568.73
460.94	4521.92
461.12	4517.23
461.31	4503.19
461.49	4500.85
461.67	4512.55
461.85	4734.90
462.04	4596.81
462.22	4751.29
462.40	4727.88
462.59	4655.33
462.77	4741.93
462.95	4875.34
463.13	4526.60
463.32	4599.15
463.50	4720.86
463.68	4716.18
463.86	4770.01
464.05	4751.29
464.23	4734.90
464.41	4777.03
464.59	4711.50
464.78	5018.11
464.96	4873.00
465.14	4662.35
465.32	5069.60
465.50	5004.07
465.69	5046.20
465.87	4915.12
466.05	4908.10
466.23	4875.34
466.41	4966.62
466.60	5203.01
466.78	4968.96
466.96	4947.89
467.14	4978.32
467.32	5125.77
467.51	5156.20
467.69	4929.17
467.87	5060.24
468.05	5221.74
468.23	5093.01
468.41	5139.82
468.60	5109.39
468.78	5228.76
468.96	5111.73
469.14	5233.44
469.32	5341.10
469.50	5097.69
469.69	5317.70
469.87	5329.40
470.05	5371.53
470.23	5315.36
470.41	5437.06
470.59	5397.28
470.77	5390.25
470.95	5259.18
471.14	5518.98
471.32	5458.13
471.50	5584.52
471.68	5624.31
471.86	5481.53
472.04	5556.43
472.22	5827.93
472.40	5577.50
472.58	5668.78
472.77	5724.95
472.95	5570.48
473.13	5858.36
473.31	5767.08
473.49	5879.43
473.67	5720.27
473.85	5804.53
474.03	6097.10
474.21	5898.15
474.39	5987.09
474.57	6059.65
474.75	5867.72
474.93	6214.12
475.12	6115.82
475.30	6087.73
475.48	6141.57
475.66	6164.97
475.84	6153.27
476.02	6195.40
476.20	6478.60
476.38	6480.94
476.56	6448.18
476.74	6424.77
476.92	6586.27
477.10	6399.02
477.28	6679.89
477.46	6597.97
477.64	6628.40
477.82	6719.68
478.00	7002.88
478.18	6743.08
478.36	6953.73
478.54	6911.60
478.72	7101.19
478.90	7140.97
479.08	7103.53
479.26	6967.77
479.44	7082.46
479.62	7274.38
479.80	7363.33
479.98	7318.86
480.16	7592.70
480.34	7485.03
480.52	7552.91
480.70	7555.25
480.88	7569.29
481.06	7524.82
481.24	7655.89
481.41	7576.31
481.59	7803.35
481.77	7719.09
481.95	7875.90
482.13	8145.06
482.31	8098.25
482.49	8121.66
482.67	8067.83
482.85	8411.89
483.03	8334.65
483.21	8400.18
483.39	8650.62
483.57	8271.45
483.74	8629.56
483.92	8524.23
484.10	8470.40
484.28	8917.44
484.46	8828.50
484.64	9114.05
484.82	8805.10
485.00	8833.18
485.18	8968.93
485.35	9352.78
485.53	9188.94
485.71	9444.06
485.89	9584.49
486.07	9511.94
486.25	9284.91
486.43	9479.17
486.61	9413.63
486.78	9881.74
486.96	9863.02
487.14	9987.07
487.32	10101.75
487.50	10104.09
487.68	10235.16
487.85	10120.48
488.03	10384.96
488.21	10396.66
488.39	10298.36
488.57	10511.35
488.75	10637.73
488.92	10757.10
489.10	10721.99
489.28	10867.11
489.46	11140.95
489.64	10726.68
489.81	10934.98
489.99	10977.11
490.17	11054.35
490.35	11272.02
490.53	11274.36
490.70	11442.88
490.88	11466.28
491.06	11775.24
491.24	11452.24
491.41	11569.27
491.59	11634.80
491.77	11789.28
491.95	11910.99
492.13	11969.50
492.30	12077.16
492.48	11936.73
492.66	12287.81
492.84	12229.30
493.01	12388.46
493.19	12372.07
493.37	12437.61
493.54	12718.47
493.72	12671.66
493.90	12540.59
494.08	12809.75
494.25	12959.55
494.43	12849.54
494.61	13240.41
494.79	13151.47
494.96	13238.07
495.14	12894.01
495.32	13291.90
495.49	13261.48
495.67	13748.31
495.85	13734.26
496.02	13729.58
496.20	13694.47
496.38	13610.22
496.55	13722.56
496.73	13809.16
496.91	13914.48
497.09	14059.60
497.26	14157.90
497.44	14218.75
497.62	14256.20
497.79	14415.36
497.97	14155.56
498.14	14436.42
498.32	14548.77
498.50	14469.19
498.67	14853.04
498.85	14874.10
499.03	14848.36
499.20	14640.05
499.38	14504.30
499.56	14831.97
499.73	14927.94
499.91	15047.30
500.08	15091.77
500.26	15047.30
500.44	15447.54
500.61	15396.04
500.79	15513.07
500.97	15183.06
501.14	15470.94
501.32	15641.80
501.49	15447.54
501.67	15466.26
501.84	15648.82
502.02	15871.17
502.20	15887.56
502.37	16109.91
502.55	15925.00
502.72	16170.76
502.90	16161.40
503.07	15967.13
503.25	15939.05
503.43	16189.49
503.60	16355.66
503.78	16058.42
503.95	16566.31
504.13	16182.46
504.30	16510.14
504.48	15967.13
504.65	16374.39
504.83	16531.20
505.01	16898.67
505.18	16699.72
505.36	16751.21
505.53	16795.68
505.71	16945.48
505.88	16936.12
506.06	16786.32
506.23	16922.07
506.41	16732.49
506.58	17504.87
506.76	16954.84
506.93	17081.23
507.11	17219.32
507.28	17224.00
507.46	17387.84
507.63	17579.76
507.81	17678.07
507.98	17331.67
508.16	17495.50
508.33	17621.89
508.50	17565.72
508.68	17759.98
508.85	18162.56
509.03	17696.79
509.20	17811.48
509.38	18024.47
509.55	18267.88
509.73	18019.78
509.90	18092.34
510.08	18036.17
510.25	18036.17
510.42	18335.76
510.60	18450.44
510.77	18658.75
510.95	18291.29
511.12	18384.91
511.30	18401.29
511.47	18633.00
511.64	18679.82
511.82	18806.20
511.99	18604.92
512.17	19058.98
512.34	18750.03
512.51	18628.32
512.69	18829.61
512.86	19030.90
513.04	19080.05
513.21	18878.76
513.38	19016.85
513.56	19180.69
513.73	19061.32
513.90	19360.91
514.08	19417.08
514.25	19449.85
514.43	19543.47
514.60	19662.84
514.77	19454.53
514.95	19548.15
515.12	19559.86
515.29	19482.62
515.47	19791.57
515.64	19599.65
515.81	19836.04
515.99	19854.76
516.16	19985.83
516.33	20154.35
516.51	20189.46
516.68	20065.41
516.85	19845.40
517.03	20182.44
517.20	20414.15
517.37	20058.39
517.54	20432.88
517.72	20255.00
517.89	20280.74
518.06	20259.68
518.24	20308.83
518.41	20149.67
518.58	20521.82
518.75	20425.86
518.93	20657.57
519.10	20348.62
519.27	20388.41
519.45	20676.29
519.62	20641.18
519.79	20746.51
519.96	20987.58
520.14	20737.15
520.31	20833.11
520.48	21275.47
520.65	20931.41
520.83	21177.17
521.00	21125.68
521.17	20968.86
521.34	21125.68
521.52	21010.99
521.69	21216.96
521.86	21795.07
522.03	21593.78
522.20	21511.86
522.38	21451.01
522.55	21303.56
522.72	21617.19
522.89	21867.63
523.07	21455.69
523.24	21778.68
523.41	21982.31
523.58	21626.55
523.75	21654.64
523.92	22185.94
524.10	21851.24
524.27	21668.68
524.44	22361.48
524.61	22373.18
524.78	22221.05
524.96	22185.94
525.13	22412.97
525.30	22174.24
525.47	22050.19
525.64	22136.79
525.81	22001.04
525.98	22319.35
526.16	22419.99
526.33	22455.10
526.50	22803.84
526.67	22389.56
526.84	22197.64
527.01	22321.69
527.18	22625.96
527.36	22703.20
527.53	22773.41
527.70	23173.64
527.87	23108.11
528.04	22712.56
528.21	22771.07
528.38	22696.17
528.55	23056.62
528.72	22951.29
528.89	23119.81
529.07	23227.48
529.24	22888.10
529.41	23159.60
529.58	22883.42
529.75	23316.42
529.92	23293.01
530.09	23056.62
530.26	23082.36
530.43	23538.77
530.60	23506.00
530.77	23314.08
530.94	23431.10
531.11	23335.14
531.28	23501.32
531.46	23440.47
531.63	23557.49
531.80	23740.05
531.97	23630.05
532.14	23768.14
532.31	23843.04
532.48	23763.46
532.65	23871.12
532.82	23452.17
532.99	23974.11
533.16	23873.46
533.33	24177.73
533.50	23922.62
533.67	24175.39
533.84	24184.76
534.01	23967.09
534.18	24173.05
534.35	24259.65
534.52	24074.75
534.69	24114.54
534.86	24346.25
535.03	24287.74
535.20	24472.64
535.37	24187.10
535.54	24379.02
535.71	24175.39
535.88	24608.39
536.05	24126.24
536.22	24655.20
536.38	24812.02
536.55	24397.74
536.72	24538.18
536.89	24624.78
537.06	25172.46
537.23	24727.76
537.40	24746.48
537.57	24748.82
537.74	24519.45
537.91	25062.46
538.08	24940.75
538.25	24856.49
538.42	25060.12
538.59	25036.71
538.75	24606.05
538.92	24975.86
539.09	25062.46
539.26	25212.25
539.43	24957.13
539.60	25074.16
539.77	25193.53
539.94	25359.70
540.11	25252.04
540.28	25174.80
540.44	25287.15
540.61	25027.35
540.78	25256.72
540.95	25380.77
541.12	25553.97
541.29	25446.30
541.46	25481.41
541.62	25355.02
541.79	25516.52
541.96	25355.02
542.13	25439.28
542.30	25539.93
542.47	26012.71
542.63	25682.70
542.80	26017.40
542.97	26242.09
543.14	25907.39
543.31	25886.32
543.48	25968.24
543.64	26033.78
543.81	26286.56
543.98	26036.12
544.15	25986.97
544.32	26485.50
544.48	26438.69
544.65	25949.52
544.82	26368.48
544.99	26087.61
545.16	26153.15
545.32	26309.96
545.49	26218.68
545.66	26324.01
545.83	26293.58
546.00	26476.14
546.16	26471.46
546.33	26221.02
546.50	26581.46
546.67	26499.55
546.83	26068.89
547.00	26597.85
547.17	26118.04
547.34	26539.33
547.50	26522.95
547.67	26815.52
547.84	26747.64
548.00	26609.55
548.17	26794.45
548.34	26726.58
548.51	27019.14
548.67	26820.20
548.84	27077.66
549.01	26962.97
549.18	26724.24
549.34	26927.86
549.51	27056.59
549.68	27075.32
549.84	26951.27
550.01	26955.95
550.18	26869.35
550.34	27007.44
550.51	26918.50
550.68	27080.00
550.84	27330.44
551.01	27452.14
551.18	27241.50
551.34	27082.34
551.51	27124.47
551.68	27028.51
551.84	27438.10
552.01	27260.22
552.18	27461.51
552.34	27300.01
552.51	27410.01
552.68	27548.11
552.84	27508.32
553.01	27201.71
553.18	27180.64
553.34	27761.09
553.51	27307.03
553.67	27730.67
553.84	27936.63
554.01	27461.51
554.17	27843.01
554.34	27960.04
554.51	27489.59
554.67	27854.72
554.84	27850.03
555.00	27861.74
555.17	27606.62
555.33	27913.23
555.50	27587.89
555.67	27737.69
555.83	27800.88
556.00	27711.94
556.16	27910.89
556.33	27555.13
556.50	27557.47
556.66	28151.96
556.83	27948.34
556.99	28063.02
557.16	28247.93
557.32	28147.28
557.49	27997.49
557.65	27964.72
557.82	28051.32
557.98	27983.44
558.15	28327.50
558.32	28196.43
558.48	27796.20
558.65	28081.75
558.81	28615.39
558.98	28032.60
559.14	28325.16
559.31	27950.68
559.47	27964.72
559.64	27971.74
559.80	28222.18
559.97	28189.41
560.13	28273.67
560.30	28233.88
560.46	28793.27
560.63	28458.57
560.79	28350.91
560.96	28446.87
561.12	28137.92
561.29	28161.33
561.45	28842.42
561.61	28428.15
561.78	28563.90
561.94	28746.46
562.11	28744.12
562.27	28517.09
562.44	28121.54
562.60	28631.77
562.77	28603.69
562.93	28222.18
563.10	28285.37
563.26	28496.02
563.42	29022.64
563.59	28912.64
563.75	28959.45
563.92	28678.58
564.08	28395.38
564.24	28599.01
564.41	28299.42
564.57	28397.72
564.74	28727.74
564.90	28699.65
565.07	28697.31
565.23	28919.66
565.39	28790.93
565.56	28844.76
565.72	28800.29
565.88	28276.01
566.05	28584.96
566.21	28926.68
566.38	28800.29
566.54	28929.02
566.70	28795.61
566.87	29095.20
567.03	28727.74
567.19	28926.68
567.36	28875.19
567.52	28919.66
567.68	28849.44
567.85	28683.27
568.01	29202.86
568.17	28856.46
568.34	28690.29
568.50	29252.02
568.66	29001.58
568.83	29364.36
568.99	29195.84
569.15	29310.53
569.32	28470.28
569.48	28882.21
569.64	28966.47
569.81	29090.52
569.97	28781.57
570.13	29181.80
570.30	28830.72
570.46	29153.71
570.62	28521.77
570.78	29249.67
570.95	28870.51
571.11	29500.11
571.27	29153.71
571.43	29027.32
571.60	29003.92
571.76	28996.90
571.92	29156.05
572.09	29326.91
572.25	29516.50
572.41	29319.89
572.57	29106.90
572.74	29411.17
572.90	29160.73
573.06	29252.02
573.22	29205.20
573.38	29472.03
573.55	29216.91
573.71	29591.39
573.87	29310.53
574.03	29420.53
574.20	29174.78
574.36	29039.03
574.52	29198.18
574.68	29319.89
574.84	28889.23
575.01	29429.90
575.17	29130.31
575.33	28868.17
575.49	29186.48
575.65	29172.44
575.82	29280.10
575.98	29301.17
576.14	29432.24
576.30	29177.12
576.46	29345.64
576.62	29441.60
576.79	29149.03
576.95	29188.82
577.11	29446.28
577.27	29549.26
577.43	29127.97
577.59	29170.10
577.75	29205.20
577.92	29102.22
578.08	29198.18
578.24	29336.27
578.40	29277.76
578.56	29731.83
578.72	29256.70
578.88	29460.32
579.04	29926.09
579.21	29275.42
579.37	29230.95
579.53	29427.56
579.69	28992.22
579.85	29310.53
580.01	29675.65
580.17	29095.20
580.33	29376.06
580.49	29575.01
580.65	29745.87
580.82	29483.73
580.98	29387.77
581.14	29544.58
581.30	29479.05
581.46	29315.21
581.62	29207.55
581.78	29046.05
581.94	29336.27
582.10	29343.30
582.26	29345.64
582.42	29591.39
582.58	29659.27
582.74	29535.22
582.90	29689.70
583.06	29928.43
583.22	29270.74
583.38	29832.47
583.54	29502.45
583.70	29408.83
583.86	29591.39
584.02	29331.59
584.18	29624.16
584.34	29577.35
584.50	29942.47
584.66	29523.52
584.82	29563.31
584.98	29631.18
585.14	29591.39
585.30	29167.76
585.46	29139.67
585.62	29544.58
585.78	29755.23
585.94	29207.55
586.10	29397.13
586.26	29677.99
586.42	29841.83
586.58	29575.01
586.74	29495.43
586.90	29511.81
587.06	29352.66
587.22	29432.24
587.38	29298.83
587.54	29558.63
587.70	29324.57
587.86	29340.96
588.02	29862.90
588.18	30373.13
588.34	29837.15
588.49	29926.09
588.65	29699.06
588.81	29633.52
588.97	29312.87
589.13	29654.59
589.29	29898.00
589.45	29823.11
589.61	29855.87
589.77	29764.59
589.93	29806.72
590.08	29928.43
590.24	29795.02
590.40	29586.71
590.56	29965.88
590.72	29764.59
590.88	29724.80
591.04	29949.50
591.20	29951.84
591.35	29879.28
591.51	30628.25
591.67	29706.08
591.83	30211.64
591.99	29984.60
