SpectraSuite Data File
++++++++++++++++++++++++++++++++++++
Date: Fri Oct 18 13:58:02 GMT-05:00 2013
User: bianchi
Dark Spectrum Present: No
Reference Spectrum Present: No
Number of Sampled Component Spectra: 1
Spectrometers: USB2+H05261
Integration Time (usec): 50000 (USB2+H05261)
Spectra Averaged: 1 (USB2+H05261)
Boxcar Smoothing: 0 (USB2+H05261)
Correct for Electrical Dark: No (USB2+H05261)
Strobe/Lamp Enabled: No (USB2+H05261)
Correct for Detector Non-linearity: No (USB2+H05261)
Correct for Stray Light: No (USB2+H05261)
Number of Pixels in Processed Spectrum: 2048
>>>>>Begin Processed Spectral Data<<<<<
365.73	0.00
365.92	0.00
366.12	0.00
366.32	0.00
366.52	0.00
366.72	0.00
366.91	0.00
367.11	0.00
367.31	0.00
367.51	0.00
367.70	0.00
367.90	0.00
368.10	0.00
368.30	0.00
368.49	0.00
368.69	0.00
368.89	0.00
369.09	0.00
369.28	0.00
369.48	0.00
369.68	0.00
369.87	0.00
370.07	0.00
370.27	0.00
370.47	0.00
370.66	35.11
370.86	23.41
371.06	93.62
371.25	166.18
371.45	112.35
371.65	182.56
371.84	112.35
372.04	140.43
372.24	201.29
372.44	170.86
372.63	163.84
372.83	201.29
373.03	262.14
373.22	196.60
373.42	198.95
373.62	170.86
373.81	212.99
374.01	184.90
374.21	236.39
374.40	135.75
374.60	290.23
374.79	238.73
374.99	212.99
375.19	255.12
375.38	234.05
375.58	248.10
375.78	257.46
375.97	255.12
376.17	252.78
376.37	201.29
376.56	241.08
376.76	245.76
376.95	212.99
377.15	271.50
377.35	266.82
377.54	276.18
377.74	245.76
377.93	245.76
378.13	245.76
378.33	292.57
378.52	269.16
378.72	252.78
378.91	311.29
379.11	236.39
379.31	294.91
379.50	297.25
379.70	330.02
379.89	320.65
380.09	346.40
380.28	348.74
380.48	278.52
380.68	285.55
380.87	358.10
381.07	344.06
381.26	283.20
381.46	257.46
381.65	390.87
381.85	290.23
382.04	374.49
382.24	369.80
382.43	369.80
382.63	402.57
382.83	290.23
383.02	304.27
383.22	304.27
383.41	283.20
383.61	339.38
383.80	442.36
384.00	362.78
384.19	353.42
384.39	458.74
384.58	400.23
384.78	383.85
384.97	451.72
385.17	449.38
385.36	440.02
385.56	383.85
385.75	381.51
385.95	407.25
386.14	390.87
386.34	351.08
386.53	409.59
386.72	386.19
386.92	409.59
387.11	411.93
387.31	470.45
387.50	430.66
387.70	463.43
387.89	376.83
388.09	447.04
388.28	437.68
388.48	362.78
388.67	451.72
388.86	423.64
389.06	355.76
389.25	472.79
389.45	470.45
389.64	461.09
389.84	498.53
390.03	524.28
390.22	479.81
390.42	524.28
390.61	437.68
390.81	578.11
391.00	468.11
391.19	510.24
391.39	500.87
391.58	454.06
391.78	475.13
391.97	493.85
392.16	550.03
392.36	545.34
392.55	540.66
392.75	545.34
392.94	498.53
393.13	638.97
393.33	496.19
393.52	566.41
393.71	580.45
393.91	554.71
394.10	498.53
394.29	648.33
394.49	547.69
394.68	624.92
394.88	589.82
395.07	723.23
395.26	578.11
395.46	587.47
395.65	599.18
395.84	676.41
396.04	702.16
396.23	601.52
396.42	550.03
396.62	660.03
396.81	699.82
397.00	688.12
397.19	678.76
397.39	641.31
397.58	681.10
397.77	772.38
397.97	720.88
398.16	671.73
398.35	685.78
398.55	662.37
398.74	645.99
398.93	777.06
399.12	676.41
399.32	688.12
399.51	730.25
399.70	774.72
399.90	770.04
400.09	706.84
400.28	688.12
400.47	713.86
400.67	781.74
400.86	751.31
401.05	779.40
401.24	786.42
401.44	870.68
401.63	800.46
401.82	849.61
402.01	826.21
402.21	784.08
402.40	837.91
402.59	830.89
402.78	809.83
402.97	798.12
403.17	887.06
403.36	835.57
403.55	882.38
403.74	880.04
403.93	880.04
404.13	917.49
404.32	912.81
404.51	912.81
404.70	945.58
404.89	940.90
405.09	990.05
405.28	873.02
405.47	915.15
405.66	1022.81
405.85	961.96
406.05	983.02
406.24	936.21
406.43	922.17
406.62	1001.75
406.81	1011.11
407.00	1006.43
407.20	1004.09
407.39	1048.56
407.58	1067.28
407.77	1104.73
407.96	1135.16
408.15	1069.62
408.34	1046.22
408.54	1104.73
408.73	1210.06
408.92	1132.82
409.11	1165.59
409.30	1174.95
409.49	1121.12
409.68	1170.27
409.87	1184.31
410.07	1116.44
410.26	1165.59
410.45	1167.93
410.64	1203.04
410.83	1104.73
411.02	1266.23
411.21	1301.34
411.40	1249.85
411.59	1313.04
411.78	1221.76
411.98	1266.23
412.17	1385.60
412.36	1233.46
412.55	1259.21
412.74	1350.49
412.93	1376.24
413.12	1324.74
413.31	1380.92
413.50	1310.70
413.69	1383.26
413.88	1427.73
414.07	1369.21
414.26	1378.58
414.45	1411.34
414.64	1406.66
414.83	1376.24
415.02	1493.26
415.22	1514.33
415.41	1544.75
415.60	1568.16
415.79	1563.48
415.98	1549.43
416.17	1633.69
416.36	1619.65
416.55	1675.82
416.74	1633.69
416.93	1652.42
417.12	1715.61
417.31	1678.16
417.50	1647.74
417.69	1764.76
417.88	1652.42
418.07	1708.59
418.26	1675.82
418.45	1755.40
418.64	1809.23
418.83	1827.96
419.02	1849.02
419.21	1907.54
419.39	1902.86
419.58	1816.26
419.77	1881.79
419.96	1952.01
420.15	1916.90
420.34	1858.39
420.53	1949.67
420.72	1963.71
420.91	1940.30
421.10	1975.41
421.29	2008.18
421.48	1980.09
421.67	2003.50
421.86	1846.68
422.05	1923.92
422.24	1907.54
422.43	1954.35
422.61	1987.11
422.80	2015.20
422.99	2003.50
423.18	1975.41
423.37	2083.08
423.56	1928.60
423.75	2050.31
423.94	2132.23
424.13	1933.28
424.32	2017.54
424.50	2052.65
424.69	2115.84
424.88	2066.69
425.07	2019.88
425.26	2022.22
425.45	2024.56
425.64	2080.74
425.83	1947.33
426.01	2113.50
426.20	1987.11
426.39	2038.61
426.58	1994.14
426.77	1998.82
426.96	2120.53
427.15	1949.67
427.33	2118.18
427.52	2104.14
427.71	2157.97
427.90	2153.29
428.09	2225.85
428.28	2165.00
428.46	2333.51
428.65	2139.25
428.84	2270.32
429.03	2190.74
429.22	2125.21
429.40	2401.39
429.59	2230.53
429.78	2066.69
429.97	2146.27
430.16	2202.44
430.34	2286.70
430.53	2253.94
430.72	2284.36
430.91	2291.38
431.10	2150.95
431.28	2282.02
431.47	2459.90
431.66	2396.71
431.85	2417.77
432.03	2483.31
432.22	2420.11
432.41	2471.61
432.60	2314.79
432.79	2457.56
432.97	2338.20
433.16	2487.99
433.35	2506.71
433.54	2546.50
433.72	2633.10
433.91	2579.27
434.10	2654.17
434.28	2483.31
434.47	2619.06
434.66	2661.19
434.85	2715.02
435.03	2733.75
435.22	2633.10
435.41	2649.49
435.59	2733.75
435.78	2560.55
435.97	2710.34
436.16	2689.28
436.34	2799.28
436.53	2693.96
436.72	2787.58
436.90	2686.94
437.09	2693.96
437.28	2733.75
437.46	2700.98
437.65	2745.45
437.84	2801.62
438.02	2771.19
438.21	2740.77
438.40	2785.24
438.58	2850.77
438.77	2869.50
438.96	2920.99
439.14	2803.96
439.33	2909.29
439.52	3045.04
439.70	2885.88
439.89	3014.61
440.08	2960.78
440.26	2995.89
440.45	2935.03
440.63	2984.18
440.82	3206.53
441.01	3089.51
441.19	3089.51
441.38	3030.99
441.57	3255.69
441.75	3171.43
441.94	3265.05
442.12	3452.29
442.31	3351.65
442.50	3215.90
442.68	3260.37
442.87	3314.20
443.05	3403.14
443.24	3548.25
443.43	3370.37
443.61	3295.47
443.80	3485.06
443.98	3272.07
444.17	3342.28
444.35	3510.80
444.54	3574.00
444.73	3456.97
444.91	3410.16
445.10	3407.82
445.28	3375.05
445.47	3452.29
445.65	3379.73
445.84	3431.23
446.02	3307.18
446.21	3501.44
446.39	3396.12
446.58	3592.72
446.77	3482.72
446.95	3435.91
447.14	3506.12
447.32	3496.76
447.51	3576.34
447.69	3412.50
447.88	3571.66
448.06	3564.64
448.25	3447.61
448.43	3501.44
448.62	3571.66
448.80	3524.85
448.99	3562.30
449.17	3485.06
449.36	3604.42
449.54	3480.38
449.73	3651.24
449.91	3737.84
450.10	3723.79
450.28	3698.05
450.46	3772.94
450.65	3691.02
450.83	3852.52
451.02	3737.84
451.20	3693.37
451.39	3714.43
451.57	3765.92
451.76	3765.92
451.94	3801.03
452.13	3997.64
452.31	3943.80
452.49	3833.80
452.68	3815.07
452.86	3728.47
453.05	3843.16
453.23	3941.46
453.42	3896.99
453.60	3754.22
453.78	3866.56
453.97	3859.54
454.15	3911.04
454.34	3882.95
454.52	4063.17
454.70	3929.76
454.89	4114.66
455.07	3960.19
455.26	4023.38
455.44	4098.28
455.62	3985.93
455.81	4030.40
455.99	4121.68
456.17	4234.03
456.36	4161.47
456.54	4304.25
456.73	4236.37
456.91	4273.82
457.09	4180.20
457.28	4381.48
457.46	4255.09
457.64	4269.14
457.83	4355.74
458.01	4159.13
458.19	4533.62
458.38	4290.20
458.56	4381.48
458.74	4615.54
458.93	4372.12
459.11	4437.66
459.29	4414.25
459.48	4327.65
459.66	4430.63
459.84	4507.87
460.03	4519.57
460.21	4662.35
460.39	4564.04
460.57	4554.68
460.76	4505.53
460.94	4542.98
461.12	4547.66
461.31	4603.83
461.49	4734.90
461.67	4697.46
461.85	4709.16
462.04	4770.01
462.22	4990.02
462.40	4854.27
462.59	4730.22
462.77	4688.09
462.95	4725.54
463.13	4734.90
463.32	4772.35
463.50	4849.59
463.68	4968.96
463.86	4786.40
464.05	4823.84
464.23	4828.53
464.41	4880.02
464.59	4755.97
464.78	4903.42
464.96	4868.31
465.14	4917.47
465.32	4945.55
465.50	5046.20
465.69	4978.32
465.87	4973.64
466.05	4971.30
466.23	5018.11
466.41	4990.02
466.60	5273.23
466.78	4915.12
466.96	5095.35
467.14	5158.54
467.32	5221.74
467.51	5156.20
467.69	4994.70
467.87	5146.84
468.05	5177.26
468.23	5200.67
468.41	4994.70
468.60	5252.16
468.78	5336.42
468.96	5277.91
469.14	5348.12
469.32	5334.08
469.50	5048.54
469.69	5444.09
469.87	5467.49
470.05	5427.70
470.23	5507.28
470.41	5355.15
470.59	5479.19
470.77	5465.15
470.95	5565.79
471.14	5542.39
471.32	5313.02
471.50	5666.44
471.68	5495.58
471.86	5762.40
472.04	5528.35
472.22	5788.14
472.40	5788.14
472.58	5757.72
472.77	5898.15
472.95	5809.21
473.13	6005.81
473.31	5825.59
473.49	5753.04
473.67	5923.90
473.85	6064.33
474.03	5832.62
474.21	6015.18
474.39	6080.71
474.57	6150.93
474.75	6263.27
474.93	6188.38
475.12	6094.76
475.30	6230.51
475.48	6101.78
475.66	6319.45
475.84	6363.92
476.02	6331.15
476.20	6370.94
476.38	6593.29
476.56	6565.20
476.74	6640.10
476.92	6504.35
477.10	6520.73
477.28	6630.74
477.46	6534.78
477.64	6682.23
477.82	6920.96
478.00	6850.75
478.18	6930.33
478.36	7042.67
478.54	6995.86
478.72	7180.76
478.90	7009.90
479.08	7162.04
479.26	7243.96
479.44	7330.56
479.62	7351.62
479.80	7349.28
479.98	7281.41
480.16	7419.50
480.34	7375.03
480.52	7648.87
480.70	7592.70
480.88	7634.83
481.06	7882.92
481.24	7726.11
481.41	7667.60
481.59	8030.38
481.77	8025.70
481.95	7894.63
482.13	8053.78
482.31	8154.43
482.49	8332.31
482.67	8348.69
482.85	8423.59
483.03	8634.24
483.21	8571.04
483.39	8765.31
483.57	8636.58
483.74	8858.93
483.92	8559.34
484.10	8840.20
484.28	8945.53
484.46	9118.73
484.64	9312.99
484.82	8901.06
485.00	9177.24
485.18	9390.23
485.35	9397.25
485.53	9448.74
485.71	9528.32
485.89	9465.13
486.07	9671.09
486.25	9528.32
486.43	9734.29
486.61	9919.19
486.78	9774.08
486.96	10061.96
487.14	10113.45
487.32	10022.17
487.50	10057.28
487.68	10284.31
487.85	10317.08
488.03	10588.58
488.21	10658.80
488.39	10607.31
488.57	10628.37
488.75	10710.29
488.92	10768.80
489.10	10958.39
489.28	11162.01
489.46	11115.20
489.64	11075.42
489.81	11386.71
489.99	11330.53
490.17	11489.69
490.35	11456.92
490.53	11372.66
490.70	11676.93
490.88	11435.86
491.06	11679.27
491.24	11920.35
491.41	11775.24
491.59	11946.09
491.77	11978.86
491.95	12196.53
492.13	12248.02
492.30	12351.01
492.48	12416.54
492.66	12341.64
492.84	12355.69
493.01	12645.91
493.19	12730.17
493.37	12793.37
493.54	12758.26
493.72	13172.54
493.90	12650.60
494.08	13020.40
494.25	12973.59
494.43	12966.57
494.61	13399.57
494.79	13385.52
494.96	13221.69
495.14	13413.61
495.32	13584.47
495.49	13830.23
495.67	13713.20
495.85	13998.74
496.02	13717.88
496.20	14111.09
496.38	13860.65
496.55	13942.57
496.73	14384.93
496.91	14197.69
497.09	14396.64
497.26	14415.36
497.44	14281.95
497.62	14469.19
497.79	14464.51
497.97	14607.28
498.14	14703.25
498.32	14846.02
498.50	14785.16
498.67	15239.23
498.85	14895.17
499.03	15117.52
499.20	15187.74
499.38	14967.73
499.56	14958.36
499.73	15218.16
499.91	15339.87
500.08	15618.39
500.26	15297.74
500.44	15515.41
500.61	15620.74
500.79	15440.51
500.97	15815.00
501.14	15861.81
501.32	15934.37
501.49	15896.92
501.67	15946.07
501.84	16081.82
502.02	15892.24
502.20	16301.83
502.37	16383.75
502.55	16224.59
502.72	15871.17
502.90	16395.45
503.07	16276.09
503.25	16580.36
503.43	16360.34
503.60	16688.02
503.78	16446.94
503.95	16798.02
504.13	16671.64
504.30	16245.66
504.48	16582.70
504.65	16854.20
504.83	16889.31
505.01	17149.11
505.18	17242.73
505.36	16943.14
505.53	17177.19
505.71	17088.25
505.88	17284.86
506.06	17137.40
506.23	17364.43
506.41	17329.33
506.58	17336.35
506.76	17521.25
506.93	17502.53
507.11	17350.39
507.28	17809.14
507.46	17696.79
507.63	17708.49
507.81	17652.32
507.98	17743.60
508.16	17874.67
508.33	17839.56
508.50	18026.81
508.68	17832.54
508.85	18167.24
509.03	18150.85
509.20	18097.02
509.38	18277.24
509.55	18314.69
509.73	18532.36
509.90	18265.54
510.08	18349.80
510.25	18565.13
510.42	18408.31
510.60	18574.49
510.77	18640.03
510.95	18544.06
511.12	18724.29
511.30	18775.78
511.47	19253.25
511.64	18801.52
511.82	19220.48
511.99	18834.29
512.17	19110.47
512.34	19239.20
512.51	19016.85
512.69	19496.66
512.86	19215.80
513.04	19644.12
513.21	19737.74
513.38	19625.39
513.56	19702.63
513.73	19545.81
513.90	19389.00
514.08	19676.88
514.25	19896.89
514.43	19814.98
514.60	20245.63
514.77	20147.33
514.95	20074.77
515.12	19803.27
515.29	19953.07
515.47	20191.80
515.64	20109.88
515.81	19646.46
515.99	20297.13
516.16	20320.53
516.33	20336.91
516.51	20467.98
516.68	20285.42
516.85	20388.41
517.03	20617.78
517.20	20615.44
517.37	20634.16
517.54	20594.37
517.72	20404.79
517.89	20533.52
518.06	20592.03
518.24	20580.33
518.41	20854.17
518.58	20821.41
518.75	20580.33
518.93	20898.64
519.10	20975.88
519.27	20959.50
519.45	21130.36
519.62	20863.54
519.79	21179.51
519.96	21132.70
520.14	21233.34
520.31	21261.43
520.48	21511.86
520.65	21568.04
520.83	21261.43
521.00	21673.36
521.17	21472.07
521.34	21568.04
521.52	21633.57
521.69	21549.31
521.86	21809.11
522.03	21797.41
522.20	21935.50
522.38	21680.38
522.55	21795.07
522.72	21933.16
522.89	21666.34
523.07	22073.59
523.24	22263.18
523.41	22209.34
523.58	22195.30
523.75	22146.15
523.92	22015.08
524.10	22345.09
524.27	22607.23
524.44	22256.15
524.61	22389.56
524.78	22913.84
524.96	22745.33
525.13	22623.62
525.30	22508.93
525.47	22993.42
525.64	22398.93
525.81	22930.23
525.98	22785.12
526.16	23168.96
526.33	22656.39
526.50	22941.93
526.67	22651.70
526.84	23047.26
527.01	22752.35
527.18	23218.11
527.36	23227.48
527.53	23023.85
527.70	23545.79
527.87	23295.35
528.04	23185.35
528.21	23117.47
528.38	23096.41
528.55	23447.49
528.72	23201.73
528.89	23548.13
529.07	23527.06
529.24	23328.12
529.41	23473.23
529.58	23541.11
529.75	23246.20
529.92	23513.02
530.09	23459.19
530.26	23756.44
530.43	23552.81
530.60	23660.48
530.77	23424.08
530.94	24030.28
531.11	23590.26
531.28	23885.17
531.46	24112.20
531.63	24037.30
531.80	24142.63
531.97	24250.29
532.14	24306.46
532.31	24079.43
532.48	24210.50
532.65	24283.06
532.82	24215.18
532.99	24276.04
533.16	24224.54
533.33	24594.35
533.50	24713.72
533.67	24435.19
533.84	24451.58
534.01	24446.90
534.18	24320.51
534.35	24725.42
534.52	24528.81
534.69	24886.92
534.86	25013.31
535.03	24292.42
535.20	24938.41
535.37	24769.89
535.54	25046.07
535.71	24662.22
535.88	24692.65
536.05	25095.22
536.22	24830.74
536.38	25111.61
536.55	25535.24
536.72	24919.68
536.89	24629.46
537.06	24821.38
537.23	25149.06
537.40	25149.06
537.57	25104.59
537.74	25465.03
537.91	25591.42
538.08	25729.51
538.25	25205.23
538.42	25462.69
538.59	25228.63
538.75	25268.42
538.92	25345.66
539.09	25441.62
539.26	25420.56
539.43	25722.49
539.60	25757.60
539.77	25483.75
539.94	25853.56
540.11	25666.31
540.28	25876.96
540.44	26249.11
540.61	25734.19
540.78	25537.59
540.95	25909.73
541.12	25654.61
541.29	25715.47
541.46	25586.74
541.62	25703.76
541.79	25797.38
541.96	25394.81
542.13	26019.74
542.30	26129.74
542.47	26441.03
542.63	26312.30
542.80	26576.78
542.97	26532.31
543.14	26490.18
543.31	26139.10
543.48	26326.35
543.64	26387.20
543.81	26572.10
543.98	26663.38
544.15	26920.84
544.32	26469.12
544.48	26925.52
544.65	26305.28
544.82	26455.08
544.99	26504.23
545.16	26693.81
545.32	26684.45
545.49	26740.62
545.66	27197.02
545.83	26862.33
546.00	26981.70
546.16	26766.37
546.33	27058.93
546.50	26581.46
546.67	26897.44
546.83	26548.70
547.00	26958.29
547.17	26897.44
547.34	27030.85
547.50	27211.07
547.67	27002.76
547.84	27122.13
548.00	27178.30
548.17	27178.30
548.34	27084.68
548.51	27318.73
548.67	27346.82
548.84	27489.59
549.01	27278.94
549.18	27459.16
549.34	27414.69
549.51	27878.12
549.68	27182.98
549.84	27243.84
550.01	27693.22
550.18	27491.93
550.34	27438.10
550.51	27639.39
550.68	28086.43
550.84	27522.36
551.01	27309.37
551.18	27335.12
551.34	27318.73
551.51	27826.63
551.68	27426.40
551.84	28058.34
552.01	27920.25
552.18	27880.46
552.34	27946.00
552.51	28058.34
552.68	28201.11
552.84	28053.66
553.01	27927.27
553.18	27901.53
553.34	28079.41
553.51	28027.92
553.67	28268.99
553.84	28470.28
554.01	28166.01
554.17	28121.54
554.34	28360.27
554.51	28374.31
554.67	28280.69
554.84	28030.26
555.00	28449.21
555.17	28690.29
555.33	28435.17
555.50	28102.81
555.67	28074.73
555.83	28381.34
556.00	28680.92
556.16	28156.64
556.33	28236.22
556.50	28594.32
556.66	28596.67
556.83	28343.89
556.99	28694.97
557.16	28587.30
557.32	28879.87
557.49	28664.54
557.65	28940.72
557.82	28744.12
557.98	28491.34
558.15	28643.48
558.32	29029.66
558.48	28247.93
558.65	28783.91
558.81	28804.97
558.98	29010.94
559.14	28676.24
559.31	28996.90
559.47	28690.29
559.64	28919.66
559.80	29273.08
559.97	29296.49
560.13	28744.12
560.30	28554.54
560.46	28837.74
560.63	28669.22
560.79	28849.44
560.96	28943.06
561.12	29160.73
561.29	28774.55
561.45	29055.41
561.61	28996.90
561.78	29448.62
561.94	29214.57
562.11	28985.19
562.27	29219.25
562.44	29406.49
562.60	29188.82
562.77	29132.65
562.93	28879.87
563.10	29502.45
563.26	28994.56
563.42	29240.31
563.59	28952.43
563.75	29413.51
563.92	29067.11
564.08	28795.61
564.24	29453.30
564.41	28823.70
564.57	29535.22
564.74	28933.70
564.90	29172.44
565.07	29207.55
565.23	29575.01
565.39	29493.09
565.56	29743.53
565.72	29415.85
565.88	29095.20
566.05	29134.99
566.21	29383.09
566.38	29010.94
566.54	29584.37
566.70	29638.20
566.87	29909.71
567.03	29624.16
567.19	29752.89
567.36	29369.04
567.52	29687.36
567.68	29558.63
567.85	29380.74
568.01	29642.88
568.17	29502.45
568.34	29172.44
568.50	30024.39
568.66	29954.18
568.83	29979.92
568.99	29324.57
569.15	29577.35
569.32	29024.98
569.48	29521.18
569.64	30052.48
569.81	29493.09
569.97	29647.57
570.13	29792.68
570.30	29792.68
570.46	29560.97
570.62	29549.26
570.78	29312.87
570.95	29523.52
571.11	29380.74
571.27	29493.09
571.43	29364.36
571.60	29956.52
571.76	29614.80
571.92	29998.65
572.09	29535.22
572.25	29947.15
572.41	29661.61
572.57	29940.13
572.74	30031.41
572.90	29694.38
573.06	29898.00
573.22	29890.98
573.38	29804.38
573.55	29638.20
573.71	29883.96
573.87	29799.70
574.03	29687.36
574.20	30099.29
574.36	29816.08
574.52	30150.78
574.68	29685.01
574.84	29935.45
575.01	29670.97
575.17	29993.97
575.33	29818.42
575.49	30185.89
575.65	30110.99
575.82	29731.83
575.98	29535.22
576.14	29759.91
576.30	29851.19
576.46	29869.92
576.62	29656.93
576.79	30239.72
576.95	29575.01
577.11	30050.14
577.27	30040.78
577.43	30221.00
577.59	29846.51
577.75	29441.60
577.92	30295.89
578.08	29490.75
578.24	30026.73
578.40	29832.47
578.56	29848.85
578.72	29961.20
578.88	30129.72
579.04	29839.49
579.21	30029.07
579.37	30122.69
579.53	30209.29
579.69	29593.73
579.85	29797.36
580.01	30092.27
580.17	29907.37
580.33	30136.74
580.49	29685.01
580.65	30139.08
580.82	30120.35
580.98	30082.91
581.14	30103.97
581.30	30569.74
581.46	30043.12
581.62	30139.08
581.78	29867.58
581.94	30146.10
582.10	29841.83
582.26	30157.80
582.42	30780.39
582.58	30024.39
582.74	30010.35
582.90	30361.43
583.06	30183.55
583.22	30038.44
583.38	29841.83
583.54	30120.35
583.70	29769.27
583.86	30134.40
584.02	30221.00
584.18	30331.00
584.34	30024.39
584.50	30150.78
584.66	30431.65
584.82	30082.91
584.98	30286.53
585.14	29989.28
585.30	30110.99
585.46	30202.27
585.62	29881.62
585.78	30015.03
585.94	29844.17
586.10	30103.97
586.26	30326.32
586.42	30150.78
586.58	30359.09
586.74	30029.07
586.90	30405.90
587.06	29869.92
587.22	30288.87
587.38	30029.07
587.54	30410.58
587.70	30312.28
587.86	30375.47
588.02	30307.60
588.18	30375.47
588.34	30637.61
588.49	30260.79
588.65	30307.60
588.81	30181.21
588.97	30441.01
589.13	30504.20
589.29	30192.91
589.45	30288.87
589.61	30209.29
589.77	30499.52
589.93	30483.14
590.08	30792.09
590.24	30852.94
590.40	30483.14
590.56	30775.70
590.72	30127.38
590.88	30529.95
591.04	30178.87
591.20	30831.88
591.35	30621.23
591.51	30801.45
591.67	30611.87
591.83	30700.81
591.99	30663.36
