SpectraSuite Data File
++++++++++++++++++++++++++++++++++++
Date: Fri Oct 18 13:58:20 GMT-05:00 2013
User: bianchi
Dark Spectrum Present: No
Reference Spectrum Present: No
Number of Sampled Component Spectra: 1
Spectrometers: USB2+H05261
Integration Time (usec): 50000 (USB2+H05261)
Spectra Averaged: 1 (USB2+H05261)
Boxcar Smoothing: 0 (USB2+H05261)
Correct for Electrical Dark: No (USB2+H05261)
Strobe/Lamp Enabled: No (USB2+H05261)
Correct for Detector Non-linearity: No (USB2+H05261)
Correct for Stray Light: No (USB2+H05261)
Number of Pixels in Processed Spectrum: 2048
>>>>>Begin Processed Spectral Data<<<<<
365.73	0.00
365.92	0.00
366.12	0.00
366.32	0.00
366.52	0.00
366.72	0.00
366.91	0.00
367.11	0.00
367.31	0.00
367.51	0.00
367.70	0.00
367.90	0.00
368.10	0.00
368.30	0.00
368.49	0.00
368.69	0.00
368.89	0.00
369.09	0.00
369.28	0.00
369.48	0.00
369.68	0.00
369.87	0.00
370.07	0.00
370.27	0.00
370.47	0.00
370.66	39.79
370.86	51.49
371.06	119.37
371.25	119.37
371.45	124.05
371.65	138.09
371.84	149.79
372.04	119.37
372.24	138.09
372.44	227.03
372.63	147.45
372.83	224.69
373.03	147.45
373.22	278.52
373.42	250.44
373.62	250.44
373.81	149.79
374.01	184.90
374.21	304.27
374.40	264.48
374.60	266.82
374.79	196.60
374.99	241.08
375.19	266.82
375.38	315.97
375.58	280.86
375.78	299.59
375.97	175.54
376.17	208.31
376.37	234.05
376.56	173.20
376.76	241.08
376.95	210.65
377.15	259.80
377.35	189.58
377.54	250.44
377.74	290.23
377.93	234.05
378.13	175.54
378.33	287.89
378.52	304.27
378.72	262.14
378.91	306.61
379.11	224.69
379.31	259.80
379.50	238.73
379.70	292.57
379.89	322.99
380.09	301.93
380.28	299.59
380.48	369.80
380.68	189.58
380.87	245.76
381.07	339.38
381.26	308.95
381.46	327.68
381.65	322.99
381.85	259.80
382.04	390.87
382.24	358.10
382.43	327.68
382.63	269.16
382.83	379.17
383.02	320.65
383.22	325.33
383.41	294.91
383.61	332.36
383.80	456.40
384.00	379.17
384.19	355.76
384.39	311.29
384.58	276.18
384.78	320.65
384.97	358.10
385.17	367.46
385.36	292.57
385.56	395.55
385.75	367.46
385.95	330.02
386.14	400.23
386.34	386.19
386.53	337.04
386.72	451.72
386.92	409.59
387.11	418.96
387.31	407.25
387.50	386.19
387.70	428.32
387.89	451.72
388.09	416.62
388.28	369.80
388.48	475.13
388.67	484.49
388.86	463.43
389.06	486.83
389.25	489.17
389.45	409.59
389.64	416.62
389.84	458.74
390.03	496.19
390.22	418.96
390.42	416.62
390.61	442.36
390.81	437.68
391.00	517.26
391.19	482.15
391.39	437.68
391.58	575.77
391.78	545.34
391.97	521.94
392.16	524.28
392.36	524.28
392.55	533.64
392.75	660.03
392.94	610.88
393.13	610.88
393.33	568.75
393.52	531.30
393.71	535.98
393.91	596.84
394.10	535.98
394.29	634.29
394.49	531.30
394.68	557.05
394.88	571.09
395.07	629.60
395.26	592.16
395.46	545.34
395.65	627.26
395.84	587.47
396.04	716.20
396.23	660.03
396.42	671.73
396.62	568.75
396.81	664.71
397.00	645.99
397.19	615.56
397.39	634.29
397.58	606.20
397.77	690.46
397.97	653.01
398.16	667.05
398.35	709.18
398.55	629.60
398.74	702.16
398.93	676.41
399.12	751.31
399.32	629.60
399.51	688.12
399.70	746.63
399.90	732.59
400.09	774.72
400.28	734.93
400.47	774.72
400.67	755.99
400.86	739.61
401.05	784.08
401.24	847.27
401.44	854.30
401.63	809.83
401.82	802.80
402.01	737.27
402.21	760.67
402.40	758.33
402.59	866.00
402.78	828.55
402.97	861.32
403.17	903.45
403.36	901.11
403.55	809.83
403.74	849.61
403.93	917.49
404.13	898.77
404.32	959.62
404.51	870.68
404.70	954.94
404.89	870.68
405.09	961.96
405.28	990.05
405.47	931.53
405.66	1032.18
405.85	999.41
406.05	908.13
406.24	940.90
406.43	947.92
406.62	1060.26
406.81	1048.56
407.00	990.05
407.20	1022.81
407.39	1090.69
407.58	1048.56
407.77	1020.47
407.96	1160.91
408.15	1097.71
408.34	1151.54
408.54	1102.39
408.73	1064.94
408.92	1104.73
409.11	1174.95
409.30	1151.54
409.49	1121.12
409.68	1104.73
409.87	1102.39
410.07	1151.54
410.26	1238.14
410.45	1074.31
410.64	1165.59
410.83	1247.51
411.02	1287.29
411.21	1167.93
411.40	1226.44
411.59	1287.29
411.78	1275.59
411.98	1247.51
412.17	1277.93
412.36	1235.80
412.55	1369.21
412.74	1369.21
412.93	1380.92
413.12	1420.71
413.31	1343.47
413.50	1397.30
413.69	1362.19
413.88	1472.20
414.07	1380.92
414.26	1430.07
414.45	1409.00
414.64	1483.90
414.83	1371.55
415.02	1540.07
415.22	1535.39
415.41	1617.31
415.60	1572.84
415.79	1561.14
415.98	1603.27
416.17	1584.54
416.36	1526.03
416.55	1650.08
416.74	1645.40
416.93	1694.55
417.12	1675.82
417.31	1575.18
417.50	1727.32
417.69	1776.47
417.88	1832.64
418.07	1727.32
418.26	1769.44
418.45	1703.91
418.64	1811.57
418.83	1764.76
419.02	1748.38
419.21	1797.53
419.39	1837.32
419.58	1870.09
419.77	1739.02
419.96	1834.98
420.15	1867.75
420.34	1919.24
420.53	1907.54
420.72	1984.77
420.91	1879.45
421.10	1893.49
421.29	1980.09
421.48	1900.52
421.67	1959.03
421.86	1961.37
422.05	1919.24
422.24	1975.41
422.43	1937.96
422.61	2012.86
422.80	2026.90
422.99	1989.46
423.18	1867.75
423.37	2012.86
423.56	2050.31
423.75	2062.01
423.94	1905.20
424.13	1909.88
424.32	1926.26
424.50	2040.95
424.69	2057.33
424.88	2101.80
425.07	2019.88
425.26	1937.96
425.45	2057.33
425.64	1998.82
425.83	2026.90
426.01	2024.56
426.20	2073.71
426.39	2040.95
426.58	2029.24
426.77	2043.29
426.96	2122.87
427.15	2001.16
427.33	2153.29
427.52	2125.21
427.71	2190.74
427.90	2160.31
428.09	2291.38
428.28	2099.46
428.46	2136.91
428.65	2207.13
428.84	2232.87
429.03	2221.17
429.22	2176.70
429.40	2333.51
429.59	2190.74
429.78	2211.81
429.97	2204.78
430.16	2183.72
430.34	2223.51
430.53	2349.90
430.72	2347.56
430.91	2331.17
431.10	2293.72
431.28	2340.54
431.47	2424.80
431.66	2499.69
431.85	2352.24
432.03	2562.89
432.22	2483.31
432.41	2417.77
432.60	2441.18
432.79	2427.14
432.97	2464.58
433.16	2548.84
433.35	2464.58
433.54	2471.61
433.72	2597.99
433.91	2656.51
434.10	2473.95
434.28	2509.05
434.47	2537.14
434.66	2586.29
434.85	2656.51
435.03	2569.91
435.22	2602.68
435.41	2665.87
435.59	2679.91
435.78	2630.76
435.97	2614.38
436.16	2640.12
436.34	2684.59
436.53	2705.66
436.72	2818.00
436.90	2679.91
437.09	2771.19
437.28	2602.68
437.46	2766.51
437.65	2623.74
437.84	2752.47
438.02	2750.13
438.21	2640.12
438.40	2712.68
438.58	2899.92
438.77	2850.77
438.96	2857.79
439.14	2843.75
439.33	2862.48
439.52	3005.25
439.70	2892.90
439.89	2935.03
440.08	3143.34
440.26	3082.49
440.45	2993.55
440.63	3049.72
440.82	3112.91
441.01	3000.57
441.19	3208.87
441.38	3122.27
441.57	3155.04
441.75	3218.24
441.94	3227.60
442.12	3197.17
442.31	3251.00
442.50	3255.69
442.68	3393.78
442.87	3251.00
443.05	3353.99
443.24	3384.41
443.43	3428.88
443.61	3330.58
443.80	3562.30
443.98	3267.39
444.17	3208.87
444.35	3400.80
444.54	3339.94
444.73	3377.39
444.91	3478.04
445.10	3337.60
445.28	3389.10
445.47	3342.28
445.65	3309.52
445.84	3424.20
446.02	3449.95
446.21	3531.87
446.39	3548.25
446.58	3426.54
446.77	3520.17
446.95	3372.71
447.14	3578.68
447.32	3473.36
447.51	3328.24
447.69	3499.10
447.88	3644.21
448.06	3407.82
448.25	3522.51
448.43	3538.89
448.62	3517.83
448.80	3463.99
448.99	3541.23
449.17	3630.17
449.36	3620.81
449.54	3693.37
449.73	3634.85
449.91	3613.79
450.10	3599.74
450.28	3815.07
450.46	3681.66
450.65	3794.01
450.83	3864.22
451.02	3735.50
451.20	3758.90
451.39	3784.65
451.57	3791.67
451.76	3904.01
451.94	3651.24
452.13	3826.78
452.31	3765.92
452.49	3772.94
452.68	3894.65
452.86	3847.84
453.05	3777.62
453.23	3974.23
453.42	3878.27
453.60	3803.37
453.78	3896.99
453.97	3815.07
454.15	3990.61
454.34	3904.01
454.52	4032.74
454.70	4044.45
454.89	3983.59
455.07	4025.72
455.26	4173.18
455.44	4072.53
455.62	4121.68
455.81	4084.23
455.99	4292.54
456.17	4257.43
456.36	4234.03
456.54	4315.95
456.73	4292.54
456.91	4262.12
457.09	4407.23
457.28	4325.31
457.46	4262.12
457.64	4322.97
457.83	4329.99
458.01	4339.35
458.19	4292.54
458.38	4355.74
458.56	4362.76
458.74	4278.50
458.93	4440.00
459.11	4444.68
459.29	4299.56
459.48	4334.67
459.66	4421.27
459.84	4454.04
460.03	4538.30
460.21	4486.81
460.39	4622.56
460.57	4486.81
460.76	4458.72
460.94	4662.35
461.12	4688.09
461.31	4472.76
461.49	4528.94
461.67	4615.54
461.85	4758.31
462.04	4753.63
462.22	4851.93
462.40	4746.61
462.59	4739.58
462.77	4690.43
462.95	4842.57
463.13	4608.51
463.32	4669.37
463.50	4868.31
463.68	4851.93
463.86	4943.21
464.05	4901.08
464.23	4798.10
464.41	4863.63
464.59	4880.02
464.78	5109.39
464.96	4985.34
465.14	4868.31
465.32	5085.98
465.50	5006.41
465.69	5027.47
465.87	4922.15
466.05	4896.40
466.23	5121.09
466.41	5064.92
466.60	5231.10
466.78	4926.83
466.96	4959.60
467.14	5015.77
467.32	5104.71
467.51	5135.14
467.69	4990.02
467.87	4987.68
468.05	5069.60
468.23	5050.88
468.41	5172.58
468.60	5235.78
468.78	5160.88
468.96	5149.18
469.14	5224.08
469.32	5186.63
469.50	5205.35
469.69	5411.32
469.87	5200.67
470.05	5336.42
470.23	5331.74
470.41	5446.43
470.59	5263.86
470.77	5338.76
470.95	5502.60
471.14	5455.79
471.32	5486.22
471.50	5483.88
471.68	5504.94
471.86	5710.91
472.04	5535.37
472.22	5806.87
472.40	5572.82
472.58	5518.98
472.77	5738.99
472.95	5902.83
473.13	6094.76
473.31	5804.53
473.49	5792.83
473.67	5830.27
473.85	5966.03
474.03	6101.78
474.21	6029.22
474.39	6005.81
474.57	6080.71
474.75	6001.13
474.93	6146.25
475.12	6216.46
475.30	6242.21
475.48	6061.99
475.66	6377.96
475.84	6207.10
476.02	6401.37
476.20	6253.91
476.38	6455.20
476.56	6509.03
476.74	6382.64
476.92	6457.54
477.10	6448.18
477.28	6778.19
477.46	6597.97
477.64	6651.80
477.82	6897.56
478.00	7019.27
478.18	6885.86
478.36	6834.36
478.54	6909.26
478.72	7030.97
478.90	7138.63
479.08	7108.21
479.26	7218.21
479.44	7162.04
479.62	7220.55
479.80	7377.37
479.98	7297.79
480.16	7513.12
480.34	7419.50
480.52	7683.98
480.70	7597.38
480.88	7440.56
481.06	7651.21
481.24	7765.90
481.41	7676.96
481.59	7850.16
481.77	8037.40
481.95	8013.99
482.13	8222.30
482.31	8056.12
482.49	8461.04
482.67	8315.92
482.85	8376.78
483.03	8564.02
483.21	8510.19
483.39	8498.49
483.57	8540.61
483.74	8585.08
483.92	8765.31
484.10	8697.43
484.28	8940.85
484.46	8908.08
484.64	9163.20
484.82	8912.76
485.00	9050.85
485.18	9263.84
485.35	9181.92
485.53	9586.83
485.71	9453.42
485.89	9591.52
486.07	9577.47
486.25	9650.03
486.43	9593.86
486.61	9703.86
486.78	9753.01
486.96	9926.21
487.14	9963.66
487.32	10111.11
487.50	9811.53
487.68	10090.05
487.85	10209.42
488.03	10415.38
488.21	10516.03
488.39	10410.70
488.57	10443.47
488.75	10827.32
488.92	10740.72
489.10	10747.74
489.28	10689.23
489.46	11054.35
489.64	10972.43
489.81	11197.12
489.99	11290.74
490.17	11304.79
490.35	11538.84
490.53	11499.05
490.70	11786.94
490.88	11695.66
491.06	11712.04
491.24	11534.16
491.41	11772.89
491.59	12107.59
491.77	12032.69
491.95	12138.02
492.13	12100.57
492.30	12294.83
492.48	12217.60
492.66	12203.55
492.84	12493.78
493.01	12620.17
493.19	12538.25
493.37	12702.09
493.54	12751.24
493.72	12978.27
493.90	12807.41
494.08	13214.66
494.25	12922.10
494.43	12786.35
494.61	13273.18
494.79	13277.86
494.96	13425.31
495.14	13612.56
495.32	13532.98
495.49	13706.18
495.67	13476.80
495.85	13596.17
496.02	13944.91
496.20	13855.97
496.38	13914.48
496.55	13689.79
496.73	14274.93
496.91	14085.34
497.09	14504.30
497.26	14413.02
497.44	14459.83
497.62	14291.31
497.79	14656.43
497.97	14930.28
498.14	14654.09
498.32	14693.88
498.50	14771.12
498.67	14979.43
498.85	14911.55
499.03	15040.28
499.20	15084.75
499.38	14984.11
499.56	15138.58
499.73	15325.83
499.91	15536.48
500.08	15515.41
500.26	15267.31
500.44	15286.04
500.61	15438.17
500.79	15510.73
500.97	15854.79
501.14	15843.09
501.32	15688.61
501.49	15859.47
501.67	15623.08
501.84	15950.75
502.02	15833.72
502.20	15995.22
502.37	16105.23
502.55	16355.66
502.72	16278.43
502.90	16414.18
503.07	15983.52
503.25	16137.99
503.43	16196.51
503.60	16940.80
503.78	16486.73
503.95	16374.39
504.13	16566.31
504.30	16856.54
504.48	16575.67
504.65	16748.87
504.83	17053.14
505.01	16947.82
505.18	17034.42
505.36	16922.07
505.53	16627.17
505.71	16936.12
505.88	17322.30
506.06	17121.02
506.23	17287.20
506.41	17348.05
506.58	17647.64
506.76	17481.46
506.93	17621.89
507.11	17561.04
507.28	17444.01
507.46	17523.59
507.63	17577.42
507.81	17795.09
507.98	17706.15
508.16	17872.33
508.33	17933.18
508.50	17834.88
508.68	18139.15
508.85	18260.86
509.03	18127.45
509.20	18139.15
509.38	18317.03
509.55	18345.12
509.73	18471.51
509.90	18352.14
510.08	18471.51
510.25	18251.50
510.42	18452.78
510.60	18679.82
510.77	18555.77
510.95	18813.23
511.12	18700.88
511.30	18597.90
511.47	18785.14
511.64	18654.07
511.82	18871.74
511.99	19168.99
512.17	19213.46
512.34	19073.03
512.51	19260.27
512.69	19110.47
512.86	18848.33
513.04	19496.66
513.21	19475.60
513.38	19601.99
513.56	19555.18
513.73	19449.85
513.90	19442.83
514.08	19204.10
514.25	19389.00
514.43	19747.10
514.60	19847.74
514.77	19810.29
514.95	19751.78
515.12	19700.29
515.29	19730.72
515.47	20229.25
515.64	20285.42
515.81	19894.55
515.99	20144.99
516.16	20477.35
516.33	20205.84
516.51	20493.73
516.68	20210.53
516.85	20439.90
517.03	20528.84
517.20	20161.37
517.37	20320.53
517.54	20589.69
517.72	20650.55
517.89	20407.13
518.06	20294.79
518.24	20273.72
518.41	20444.58
518.58	20727.78
518.75	20680.97
518.93	20922.05
519.10	20800.34
519.27	20971.20
519.45	20889.28
519.62	20837.79
519.79	21055.46
519.96	20879.92
520.14	20898.64
520.31	21036.74
520.48	21158.44
520.65	21020.35
520.83	21273.13
521.00	21235.68
521.17	21303.56
521.34	21579.74
521.52	21509.52
521.69	21792.73
521.86	21692.08
522.03	21935.50
522.20	21720.17
522.38	21776.34
522.55	21781.03
522.72	21661.66
522.89	21996.35
523.07	22319.35
523.24	21982.31
523.41	22171.89
523.58	21750.60
523.75	22312.33
523.92	22071.25
524.10	22298.28
524.27	22438.72
524.44	22750.01
524.61	22384.88
524.78	22317.01
524.96	22244.45
525.13	22541.70
525.30	22506.59
525.47	22539.36
525.64	22553.40
525.81	22789.80
525.98	23035.55
526.16	22473.82
526.33	22827.24
526.50	23033.21
526.67	22483.19
526.84	22548.72
527.01	22490.21
527.18	22738.30
527.36	23094.07
527.53	23070.66
527.70	23234.50
527.87	23332.80
528.04	23098.75
528.21	23145.56
528.38	23316.42
528.55	22979.38
528.72	23089.38
528.89	23473.23
529.07	23140.88
529.24	23393.65
529.41	23594.94
529.58	23506.00
529.75	23323.44
529.92	23627.71
530.09	23796.23
530.26	23377.27
530.43	23803.25
530.60	23517.70
530.77	23623.03
530.94	23887.51
531.11	23349.18
531.28	23714.31
531.46	23658.14
531.63	23183.01
531.80	24175.39
531.97	24257.31
532.14	24018.58
532.31	24074.75
532.48	24004.53
532.65	24348.59
532.82	23843.04
532.99	23915.59
533.16	24276.04
533.33	24091.13
533.50	24119.22
533.67	24444.56
533.84	24369.66
534.01	24341.57
534.18	24601.37
534.35	24505.41
534.52	24793.29
534.69	24549.88
534.86	24645.84
535.03	24620.10
535.20	24933.73
535.37	24823.72
535.54	24678.61
535.71	24329.87
535.88	24816.70
536.05	24671.59
536.22	24662.22
536.38	24835.42
536.55	24779.25
536.72	25034.37
536.89	25151.40
537.06	25062.46
537.23	24954.79
537.40	24746.48
537.57	25186.50
537.74	25235.66
537.91	25488.43
538.08	25443.96
538.25	25207.57
538.42	25315.23
538.59	25380.77
538.75	25575.03
538.92	25135.01
539.09	25427.58
539.26	25273.10
539.43	25422.90
539.60	25584.40
539.77	25413.54
539.94	25584.40
540.11	25647.59
540.28	25752.91
540.44	25593.76
540.61	25467.37
540.78	25392.47
540.95	25668.66
541.12	25706.10
541.29	25582.06
541.46	25518.86
541.62	25659.29
541.79	25827.81
541.96	25495.46
542.13	25514.18
542.30	25902.71
542.47	25898.03
542.63	25961.22
542.80	26274.85
542.97	26054.84
543.14	26494.86
543.31	26244.43
543.48	26485.50
543.64	26263.15
543.81	26539.33
543.98	26703.17
544.15	26188.25
544.32	26349.75
544.48	26785.09
544.65	26581.46
544.82	26403.58
544.99	26073.57
545.16	26670.40
545.32	26691.47
545.49	26703.17
545.66	26859.99
545.83	26654.02
546.00	27126.81
546.16	26920.84
546.33	26485.50
546.50	26572.10
546.67	26366.13
546.83	26363.79
547.00	26946.59
547.17	27089.36
547.34	26778.07
547.50	27110.43
547.67	27087.02
547.84	27065.96
548.00	26867.01
548.17	27070.64
548.34	26977.01
548.51	27374.91
548.67	27051.91
548.84	27264.90
549.01	27101.06
549.18	26951.27
549.34	27168.94
549.51	27000.42
549.68	26740.62
549.84	27321.07
550.01	27501.29
550.18	27131.49
550.34	27714.28
550.51	27505.98
550.68	28063.02
550.84	27091.70
551.01	27520.02
551.18	27555.13
551.34	27548.11
551.51	27377.25
551.68	27395.97
551.84	27461.51
552.01	27613.64
552.18	27487.25
552.34	27777.48
552.51	27817.27
552.68	27971.74
552.84	28109.83
553.01	27730.67
553.18	27679.18
553.34	27878.12
553.51	27868.76
553.67	27796.20
553.84	28783.91
554.01	27751.73
554.17	27618.32
554.34	28058.34
554.51	27730.67
554.67	27995.15
554.84	28016.21
555.00	27864.08
555.17	27988.13
555.33	28205.80
555.50	27882.80
555.67	28121.54
555.83	27960.04
556.00	27927.27
556.16	28456.23
556.33	28268.99
556.50	28313.46
556.66	28238.56
556.83	27946.00
556.99	28620.07
557.16	28233.88
557.32	28439.85
557.49	28545.17
557.65	28418.78
557.82	28236.22
557.98	28191.75
558.15	28517.09
558.32	28601.35
558.48	28479.64
558.65	28645.82
558.81	28339.21
558.98	28215.16
559.14	28418.78
559.31	28554.54
559.47	28402.40
559.64	28559.22
559.80	28898.59
559.97	28816.68
560.13	28931.36
560.30	28889.23
560.46	29064.77
560.63	28603.69
560.79	28774.55
560.96	28540.49
561.12	28694.97
561.29	28641.14
561.45	28678.58
561.61	29092.86
561.78	29106.90
561.94	28620.07
562.11	29326.91
562.27	29212.23
562.44	28823.70
562.60	28741.78
562.77	28718.37
562.93	28554.54
563.10	28760.50
563.26	29032.00
563.42	28891.57
563.59	29305.85
563.75	29118.60
563.92	29118.60
564.08	28797.95
564.24	28957.11
564.41	29032.00
564.57	29188.82
564.74	29102.22
564.90	29392.45
565.07	28767.52
565.23	29369.04
565.39	29441.60
565.56	28994.56
565.72	28868.17
565.88	29024.98
566.05	29160.73
566.21	28828.38
566.38	29226.27
566.54	29146.69
566.70	29453.30
566.87	29551.60
567.03	29329.25
567.19	29677.99
567.36	29535.22
567.52	29008.60
567.68	29345.64
567.85	29338.62
568.01	29336.27
568.17	28922.00
568.34	29392.45
568.50	29252.02
568.66	29294.14
568.83	29177.12
568.99	29317.55
569.15	29111.58
569.32	28819.02
569.48	29289.46
569.64	29242.65
569.81	29364.36
569.97	29799.70
570.13	29280.10
570.30	29326.91
570.46	29184.14
570.62	29560.97
570.78	29390.11
570.95	29060.09
571.11	29338.62
571.27	29010.94
571.43	29324.57
571.60	29432.24
571.76	29312.87
571.92	29413.51
572.09	29680.33
572.25	29443.94
572.41	29619.48
572.57	29235.63
572.74	29535.22
572.90	29343.30
573.06	29364.36
573.22	29542.24
573.38	29390.11
573.55	29511.81
573.71	30059.50
573.87	29551.60
574.03	29539.90
574.20	29415.85
574.36	29303.51
574.52	29584.37
574.68	29453.30
574.84	29703.74
575.01	29312.87
575.17	29874.60
575.33	29961.20
575.49	28973.49
575.65	29947.15
575.82	29888.64
575.98	30103.97
576.14	29811.40
576.30	29797.36
576.46	29755.23
576.62	29490.75
576.79	29448.62
576.95	29336.27
577.11	29795.02
577.27	29722.46
577.43	30033.75
577.59	29951.84
577.75	29752.89
577.92	29399.47
578.08	29710.76
578.24	29514.16
578.40	29575.01
578.56	29947.15
578.72	29724.80
578.88	29949.50
579.04	30029.07
579.21	29242.65
579.37	30000.99
579.53	29652.25
579.69	29301.17
579.85	29525.86
580.01	29266.06
580.17	29750.55
580.33	29755.23
580.49	29586.71
580.65	30176.53
580.82	29795.02
580.98	29741.19
581.14	30036.09
581.30	29851.19
581.46	29895.66
581.62	29677.99
581.78	29567.99
581.94	29858.21
582.10	29476.71
582.26	30064.18
582.42	29860.55
582.58	30352.07
582.74	29977.58
582.90	29839.49
583.06	30237.38
583.22	29511.81
583.38	29879.28
583.54	30167.16
583.70	29837.15
583.86	29738.85
584.02	29827.79
584.18	30174.19
584.34	29869.92
584.50	30057.16
584.66	30003.33
584.82	29823.11
584.98	29853.53
585.14	29516.50
585.30	29404.15
585.46	29422.87
585.62	29993.97
585.78	29984.60
585.94	29605.44
586.10	29968.22
586.26	29736.51
586.42	30223.34
586.58	29867.58
586.74	29923.75
586.90	29961.20
587.06	30134.40
587.22	30024.39
587.38	29886.30
587.54	30120.35
587.70	30352.07
587.86	29689.70
588.02	30136.74
588.18	29914.39
588.34	30169.51
588.49	30008.01
588.65	29926.09
588.81	29769.27
588.97	30118.01
589.13	29596.07
589.29	29638.20
589.45	30059.50
589.61	30291.21
589.77	30459.73
589.93	30391.86
590.08	30080.56
590.24	30576.76
590.40	30352.07
590.56	30253.76
590.72	30216.32
590.88	30101.63
591.04	30497.18
591.20	30099.29
591.35	30270.15
591.51	30792.09
591.67	30422.28
591.83	30513.56
591.99	30644.63
