SpectraSuite Data File
++++++++++++++++++++++++++++++++++++
Date: Fri Oct 18 13:58:04 GMT-05:00 2013
User: bianchi
Dark Spectrum Present: No
Reference Spectrum Present: No
Number of Sampled Component Spectra: 1
Spectrometers: USB2+H05261
Integration Time (usec): 50000 (USB2+H05261)
Spectra Averaged: 1 (USB2+H05261)
Boxcar Smoothing: 0 (USB2+H05261)
Correct for Electrical Dark: No (USB2+H05261)
Strobe/Lamp Enabled: No (USB2+H05261)
Correct for Detector Non-linearity: No (USB2+H05261)
Correct for Stray Light: No (USB2+H05261)
Number of Pixels in Processed Spectrum: 2048
>>>>>Begin Processed Spectral Data<<<<<
365.73	0.00
365.92	0.00
366.12	0.00
366.32	0.00
366.52	0.00
366.72	0.00
366.91	0.00
367.11	0.00
367.31	0.00
367.51	0.00
367.70	0.00
367.90	0.00
368.10	0.00
368.30	0.00
368.49	0.00
368.69	0.00
368.89	0.00
369.09	0.00
369.28	0.00
369.48	0.00
369.68	0.00
369.87	0.00
370.07	0.00
370.27	0.00
370.47	0.00
370.66	16.38
370.86	152.13
371.06	145.11
371.25	184.90
371.45	121.71
371.65	117.03
371.84	142.77
372.04	189.58
372.24	166.18
372.44	191.92
372.63	224.69
372.83	177.88
373.03	234.05
373.22	201.29
373.42	161.50
373.62	250.44
373.81	220.01
374.01	149.79
374.21	220.01
374.40	248.10
374.60	217.67
374.79	161.50
374.99	252.78
375.19	283.20
375.38	217.67
375.58	191.92
375.78	297.25
375.97	248.10
376.17	262.14
376.37	299.59
376.56	241.08
376.76	304.27
376.95	236.39
377.15	252.78
377.35	294.91
377.54	294.91
377.74	290.23
377.93	257.46
378.13	266.82
378.33	390.87
378.52	306.61
378.72	276.18
378.91	301.93
379.11	243.42
379.31	271.50
379.50	318.31
379.70	292.57
379.89	322.99
380.09	285.55
380.28	308.95
380.48	341.72
380.68	266.82
380.87	278.52
381.07	355.76
381.26	325.33
381.46	404.91
381.65	339.38
381.85	290.23
382.04	351.08
382.24	379.17
382.43	292.57
382.63	365.12
382.83	348.74
383.02	395.55
383.22	346.40
383.41	360.44
383.61	423.64
383.80	388.53
384.00	369.80
384.19	416.62
384.39	355.76
384.58	435.34
384.78	388.53
384.97	365.12
385.17	311.29
385.36	372.15
385.56	402.57
385.75	414.27
385.95	421.30
386.14	330.02
386.34	374.49
386.53	358.10
386.72	468.11
386.92	430.66
387.11	440.02
387.31	477.47
387.50	339.38
387.70	397.89
387.89	444.70
388.09	472.79
388.28	531.30
388.48	379.17
388.67	414.27
388.86	444.70
389.06	479.81
389.25	421.30
389.45	454.06
389.64	451.72
389.84	559.39
390.03	414.27
390.22	468.11
390.42	442.36
390.61	442.36
390.81	594.50
391.00	489.17
391.19	463.43
391.39	444.70
391.58	528.96
391.78	519.60
391.97	507.90
392.16	514.92
392.36	571.09
392.55	533.64
392.75	526.62
392.94	540.66
393.13	514.92
393.33	538.32
393.52	608.54
393.71	585.13
393.91	533.64
394.10	550.03
394.29	573.43
394.49	629.60
394.68	596.84
394.88	578.11
395.07	627.26
395.26	587.47
395.46	622.58
395.65	723.23
395.84	594.50
396.04	683.44
396.23	660.03
396.42	664.71
396.62	648.33
396.81	606.20
397.00	706.84
397.19	603.86
397.39	657.69
397.58	655.35
397.77	587.47
397.97	709.18
398.16	718.54
398.35	664.71
398.55	739.61
398.74	730.25
398.93	779.40
399.12	737.27
399.32	667.05
399.51	709.18
399.70	744.29
399.90	744.29
400.09	781.74
400.28	709.18
400.47	774.72
400.67	847.27
400.86	781.74
401.05	767.70
401.24	774.72
401.44	814.51
401.63	760.67
401.82	856.64
402.01	894.08
402.21	802.80
402.40	868.34
402.59	863.66
402.78	863.66
402.97	823.87
403.17	807.48
403.36	842.59
403.55	903.45
403.74	924.51
403.93	987.71
404.13	910.47
404.32	987.71
404.51	976.00
404.70	894.08
404.89	919.83
405.09	1006.43
405.28	968.98
405.47	938.55
405.66	990.05
405.85	968.98
406.05	978.34
406.24	1006.43
406.43	919.83
406.62	1050.90
406.81	1034.52
407.00	1001.75
407.20	1067.28
407.39	933.87
407.58	1107.07
407.77	1121.12
407.96	1132.82
408.15	1064.94
408.34	1074.31
408.54	1022.81
408.73	1050.90
408.92	1083.67
409.11	1128.14
409.30	1184.31
409.49	1165.59
409.68	1219.42
409.87	1196.01
410.07	1196.01
410.26	1170.27
410.45	1226.44
410.64	1224.10
410.83	1144.52
411.02	1212.40
411.21	1217.08
411.40	1247.51
411.59	1174.95
411.78	1308.36
411.98	1254.53
412.17	1221.76
412.36	1289.64
412.55	1423.05
412.74	1341.13
412.93	1462.83
413.12	1432.41
413.31	1352.83
413.50	1397.30
413.69	1483.90
413.88	1404.32
414.07	1460.49
414.26	1451.13
414.45	1497.94
414.64	1521.35
414.83	1448.79
415.02	1432.41
415.22	1542.41
415.41	1626.67
415.60	1549.43
415.79	1626.67
415.98	1652.42
416.17	1607.95
416.36	1645.40
416.55	1535.39
416.74	1657.10
416.93	1722.63
417.12	1732.00
417.31	1769.44
417.50	1650.08
417.69	1746.04
417.88	1792.85
418.07	1724.97
418.26	1753.06
418.45	1834.98
418.64	1823.28
418.83	1870.09
419.02	1739.02
419.21	1823.28
419.39	1959.03
419.58	1834.98
419.77	1809.23
419.96	1809.23
420.15	1970.73
420.34	1804.55
420.53	1900.52
420.72	1980.09
420.91	1952.01
421.10	1937.96
421.29	1900.52
421.48	1963.71
421.67	2054.99
421.86	1944.99
422.05	2050.31
422.24	1989.46
422.43	2071.37
422.61	1921.58
422.80	2054.99
422.99	2015.20
423.18	2043.29
423.37	2115.84
423.56	2071.37
423.75	2111.16
423.94	2066.69
424.13	1844.34
424.32	1886.47
424.50	2087.76
424.69	2118.18
424.88	2118.18
425.07	1998.82
425.26	2038.61
425.45	2033.93
425.64	2129.89
425.83	2008.18
426.01	2043.29
426.20	2069.03
426.39	2059.67
426.58	2111.16
426.77	2108.82
426.96	2172.02
427.15	2188.40
427.33	2141.59
427.52	2125.21
427.71	2249.25
427.90	2235.21
428.09	2106.48
428.28	2153.29
428.46	2260.96
428.65	2157.97
428.84	2256.28
429.03	2270.32
429.22	2129.89
429.40	2197.76
429.59	2284.36
429.78	2125.21
429.97	2258.62
430.16	2253.94
430.34	2326.49
430.53	2394.37
430.72	2300.75
430.91	2275.00
431.10	2347.56
431.28	2319.47
431.47	2321.81
431.66	2340.54
431.85	2375.64
432.03	2523.10
432.22	2490.33
432.41	2504.37
432.60	2448.20
432.79	2464.58
432.97	2434.16
433.16	2520.76
433.35	2417.77
433.54	2600.34
433.72	2656.51
433.91	2590.97
434.10	2670.55
434.28	2504.37
434.47	2609.70
434.66	2644.81
434.85	2593.31
435.03	2637.78
435.22	2495.01
435.41	2705.66
435.59	2562.89
435.78	2679.91
435.97	2663.53
436.16	2705.66
436.34	2710.34
436.53	2794.60
436.72	2963.12
436.90	2789.92
437.09	2576.93
437.28	2818.00
437.46	2715.02
437.65	2813.32
437.84	2853.11
438.02	2799.28
438.21	2689.28
438.40	2759.49
438.58	2869.50
438.77	3005.25
438.96	2993.55
439.14	2991.20
439.33	2956.10
439.52	3103.55
439.70	2993.55
439.89	2998.23
440.08	3129.30
440.26	3063.76
440.45	3126.96
440.63	3091.85
440.82	3262.71
441.01	3098.87
441.19	3199.51
441.38	3136.32
441.57	3267.39
441.75	3253.34
441.94	3361.01
442.12	3260.37
442.31	3227.60
442.50	3520.17
442.68	3456.97
442.87	3297.81
443.05	3215.90
443.24	3527.19
443.43	3417.18
443.61	3403.14
443.80	3583.36
443.98	3463.99
444.17	3302.50
444.35	3583.36
444.54	3548.25
444.73	3440.59
444.91	3330.58
445.10	3592.72
445.28	3459.31
445.47	3536.55
445.65	3412.50
445.84	3515.48
446.02	3501.44
446.21	3536.55
446.39	3466.33
446.58	3627.83
446.77	3604.42
446.95	3370.37
447.14	3545.91
447.32	3506.12
447.51	3489.74
447.69	3564.64
447.88	3590.38
448.06	3559.95
448.25	3527.19
448.43	3611.45
448.62	3506.12
448.80	3679.32
448.99	3609.11
449.17	3707.41
449.36	3578.68
449.54	3714.43
449.73	3721.45
449.91	3705.07
450.10	3733.15
450.28	3838.48
450.46	3829.12
450.65	3791.67
450.83	3836.14
451.02	3854.86
451.20	3843.16
451.39	3950.82
451.57	3908.69
451.76	3765.92
451.94	3791.67
452.13	3955.51
452.31	3932.10
452.49	3908.69
452.68	3920.40
452.86	3932.10
453.05	3808.05
453.23	4004.66
453.42	3948.48
453.60	3971.89
453.78	4032.74
453.97	3854.86
454.15	4112.32
454.34	3922.74
454.52	3927.42
454.70	4070.19
454.89	4124.02
455.07	4028.06
455.26	3934.44
455.44	4194.24
455.62	3997.64
455.81	4049.13
455.99	4318.29
456.17	4112.32
456.36	4191.90
456.54	4194.24
456.73	4306.59
456.91	4362.76
457.09	4381.48
457.28	4437.66
457.46	4353.40
457.64	4442.34
457.83	4411.91
458.01	4325.31
458.19	4456.38
458.38	4524.26
458.56	4571.07
458.74	4344.03
458.93	4407.23
459.11	4404.89
459.29	4493.83
459.48	4571.07
459.66	4660.01
459.84	4538.30
460.03	4657.67
460.21	4557.02
460.39	4601.49
460.57	4566.39
460.76	4641.28
460.94	4685.75
461.12	4580.43
461.31	4699.80
461.49	4741.93
461.67	4723.20
461.85	4894.06
462.04	4765.33
462.22	5142.16
462.40	4889.38
462.59	4786.40
462.77	4774.69
462.95	4938.53
463.13	4877.68
463.32	4837.89
463.50	4891.72
463.68	4926.83
463.86	4894.06
464.05	4865.97
464.23	4994.70
464.41	4983.00
464.59	4926.83
464.78	5102.37
464.96	5046.20
465.14	4903.42
465.32	5095.35
465.50	5069.60
465.69	5093.01
465.87	5085.98
466.05	5125.77
466.23	5104.71
466.41	5153.86
466.60	5263.86
466.78	5071.94
466.96	5226.42
467.14	5181.95
467.32	5181.95
467.51	5100.03
467.69	5025.13
467.87	5207.69
468.05	5181.95
468.23	5132.79
468.41	5109.39
468.60	5263.86
468.78	5128.11
468.96	5320.04
469.14	5481.53
469.32	5238.12
469.50	5256.84
469.69	5533.03
469.87	5362.17
470.05	5628.99
470.23	5453.45
470.41	5397.28
470.59	5490.90
470.77	5427.70
470.95	5544.73
471.14	5430.04
471.32	5600.90
471.50	5657.07
471.68	5544.73
471.86	5673.46
472.04	5846.66
472.22	5799.85
472.40	5731.97
472.58	5902.83
472.77	5760.06
472.95	5844.32
473.13	5954.32
473.31	6043.26
473.49	5839.64
473.67	5834.96
473.85	5973.05
474.03	5940.28
474.21	5970.71
474.39	6127.52
474.57	6181.35
474.75	6228.17
474.93	6214.12
475.12	6071.35
475.30	6186.04
475.48	6380.30
475.66	6338.17
475.84	6291.36
476.02	6249.23
476.20	6347.53
476.38	6532.44
476.56	6698.61
476.74	6715.00
476.92	6612.01
477.10	6527.75
477.28	6806.28
477.46	6766.49
477.64	6647.12
477.82	6834.36
478.00	7016.93
478.18	7103.53
478.36	7023.95
478.54	7159.70
478.72	7162.04
478.90	7274.38
479.08	7300.13
479.26	7372.69
479.44	7531.84
479.62	7337.58
479.80	7632.49
479.98	7379.71
480.16	7529.50
480.34	7510.78
480.52	7714.41
480.70	7716.75
480.88	7508.44
481.06	7730.79
481.24	7592.70
481.41	7918.03
481.59	8210.60
481.77	8217.62
481.95	8205.92
482.13	8243.37
482.31	8297.20
482.49	8526.57
482.67	8236.35
482.85	8454.02
483.03	8585.08
483.21	8767.65
483.39	8629.56
483.57	8589.77
483.74	8706.79
483.92	8812.12
484.10	8891.70
484.28	9050.85
484.46	9310.65
484.64	9242.78
484.82	9036.81
485.00	9156.18
485.18	9451.08
485.35	9341.08
485.53	9371.50
485.71	9523.64
485.89	9872.38
486.07	9706.20
486.25	9610.24
486.43	9841.95
486.61	9792.80
486.78	10061.96
486.96	10050.26
487.14	10260.91
487.32	10314.74
487.50	10153.24
487.68	10324.10
487.85	10546.45
488.03	10668.16
488.21	10752.42
488.39	10738.38
488.57	10944.34
488.75	10864.77
488.92	11056.69
489.10	10934.98
489.28	11269.68
489.46	11180.74
489.64	11152.65
489.81	11255.64
489.99	11414.79
490.17	11548.20
490.35	11438.20
490.53	11735.45
490.70	11967.16
490.88	11733.11
491.06	11815.02
491.24	11810.34
491.41	12138.02
491.59	12217.60
491.77	12238.66
491.95	12554.63
492.13	12093.55
492.30	12416.54
492.48	12325.26
492.66	12496.12
492.84	12453.99
493.01	12908.05
493.19	12844.86
493.37	12842.52
493.54	13015.72
493.72	13146.79
493.90	12816.77
494.08	13214.66
494.25	13088.28
494.43	13315.31
494.61	13626.60
494.79	13425.31
494.96	13640.64
495.14	13713.20
495.32	13764.69
495.49	13650.00
495.67	13909.80
495.85	14108.75
496.02	14047.90
496.20	14012.79
496.38	14246.84
496.55	14146.20
496.73	14539.41
496.91	14406.00
497.09	14555.79
497.26	14398.98
497.44	14682.18
497.62	14754.74
497.79	14867.08
497.97	14892.83
498.14	14850.70
498.32	15014.54
498.50	15047.30
498.67	15176.03
498.85	15084.75
499.03	15133.90
499.20	15136.24
499.38	15267.31
499.56	15372.64
499.73	15531.80
499.91	15646.48
500.08	16013.95
500.26	15314.13
500.44	15651.16
500.61	16042.03
500.79	15786.91
500.97	15988.20
501.14	16226.93
501.32	16198.85
501.49	16088.84
501.67	16142.67
501.84	16215.23
502.02	16086.50
502.20	16273.74
502.37	16362.69
502.55	16269.06
502.72	16493.76
502.90	16489.07
503.07	16395.45
503.25	16390.77
503.43	16332.26
503.60	16606.10
503.78	16865.90
503.95	16877.60
504.13	17137.40
504.30	17006.33
504.48	17085.91
504.65	17069.53
504.83	17275.49
505.01	17425.29
505.18	17294.22
505.36	17411.25
505.53	17474.44
505.71	17415.93
505.88	17649.98
506.06	17289.54
506.23	17547.00
506.41	17582.10
506.58	17668.70
506.76	17839.56
506.93	17591.47
507.11	17717.86
507.28	17830.20
507.46	18073.62
507.63	17909.78
507.81	18314.69
507.98	17998.72
508.16	18022.12
508.33	17846.58
508.50	18204.69
508.68	18141.49
508.85	18380.23
509.03	18438.74
509.20	18548.75
509.38	18445.76
509.55	18778.12
509.73	18651.73
509.90	18539.38
510.08	18719.60
510.25	18642.37
510.42	18651.73
510.60	18956.00
510.77	19009.83
510.95	19168.99
511.12	18925.57
511.30	19047.28
511.47	19110.47
511.64	18668.11
511.82	19278.99
511.99	19339.85
512.17	19527.09
512.34	19594.96
512.51	19459.21
512.69	19356.23
512.86	19709.65
513.04	19676.88
513.21	19632.41
513.38	20027.96
513.56	19899.23
513.73	19744.76
513.90	20109.88
514.08	19590.28
514.25	19859.45
514.43	20247.97
514.60	20126.27
514.77	19983.49
514.95	20390.75
515.12	19889.87
515.29	20152.01
515.47	20423.51
515.64	20170.74
515.81	20493.73
515.99	20381.38
516.16	20973.54
516.33	20652.89
516.51	20685.65
516.68	20393.09
516.85	20245.63
517.03	20645.87
517.20	20959.50
517.37	20678.63
517.54	21364.41
517.72	20776.94
517.89	20889.28
518.06	20805.02
518.24	21085.89
518.41	20840.13
518.58	21181.85
518.75	21029.71
518.93	21319.94
519.10	21490.80
519.27	21549.31
519.45	21081.21
519.62	21551.65
519.79	21270.79
519.96	21331.64
520.14	21631.23
520.31	21537.61
520.48	21937.84
520.65	21788.05
520.83	21591.44
521.00	21891.03
521.17	21521.23
521.34	21748.26
521.52	21965.93
521.69	21830.18
521.86	22080.61
522.03	22136.79
522.20	22005.72
522.38	22544.04
522.55	22125.08
522.72	22347.44
522.89	22127.42
523.07	22726.60
523.24	22441.06
523.41	22672.77
523.58	22352.12
523.75	22508.93
523.92	22288.92
524.10	22263.18
524.27	22836.61
524.44	22843.63
524.61	22813.20
524.78	23103.43
524.96	22860.01
525.13	22618.94
525.30	23110.45
525.47	22869.37
525.64	22885.76
525.81	23054.28
525.98	23370.25
526.16	23152.58
526.33	23236.84
526.50	23187.69
526.67	22672.77
526.84	23021.51
527.01	23185.35
527.18	23147.90
527.36	23676.86
527.53	23506.00
527.70	23906.23
527.87	23566.85
528.04	23793.89
528.21	23796.23
528.38	23576.22
528.55	23599.62
528.72	23662.82
528.89	24020.92
529.07	23796.23
529.24	23852.40
529.41	23845.38
529.58	23983.47
529.75	23805.59
529.92	23833.68
530.09	23733.03
530.26	23931.98
530.43	23847.72
530.60	23901.55
530.77	24147.31
530.94	23971.77
531.11	23922.62
531.28	23623.03
531.46	24184.76
531.63	24191.78
531.80	24002.19
531.97	24526.47
532.14	24533.50
532.31	24533.50
532.48	24702.01
532.65	24617.75
532.82	24334.55
532.99	24584.99
533.16	24563.92
533.33	24982.88
533.50	25212.25
533.67	24814.36
533.84	24568.60
534.01	24470.30
534.18	24886.92
534.35	24835.42
534.52	24828.40
534.69	25289.49
534.86	25362.04
535.03	25179.48
535.20	24868.19
535.37	24978.20
535.54	25350.34
535.71	24959.47
535.88	25238.00
536.05	24870.53
536.22	25582.06
536.38	25420.56
536.55	25649.93
536.72	25640.57
536.89	25364.39
537.06	25336.30
537.23	25663.97
537.40	25610.14
537.57	25319.92
537.74	25593.76
537.91	25975.27
538.08	25734.19
538.25	25640.57
538.42	25607.80
538.59	25841.85
538.75	25397.15
538.92	25652.27
539.09	25593.76
539.26	25860.58
539.43	26246.77
539.60	25507.16
539.77	25940.16
539.94	26214.00
540.11	26068.89
540.28	25736.53
540.44	26003.35
540.61	26113.36
540.78	25881.64
540.95	26382.52
541.12	26094.63
541.29	26092.29
541.46	26466.78
541.62	26061.87
541.79	26029.10
541.96	25837.17
542.13	26160.17
542.30	26459.76
542.47	26408.26
542.63	26923.18
542.80	26307.62
542.97	27096.38
543.14	26953.61
543.31	26452.73
543.48	26923.18
543.64	27021.48
543.81	27143.19
543.98	26869.35
544.15	27152.55
544.32	26888.07
544.48	27075.32
544.65	27117.45
544.82	27065.96
544.99	26923.18
545.16	26852.97
545.32	27199.37
545.49	27548.11
545.66	27075.32
545.83	27470.87
546.00	27393.63
546.16	27222.77
546.33	27101.06
546.50	26721.90
546.67	27239.15
546.83	26981.70
547.00	27285.97
547.17	27278.94
547.34	27363.20
547.50	27339.80
547.67	28133.24
547.84	28023.23
548.00	27791.52
548.17	27632.36
548.34	27517.68
548.51	27637.05
548.67	27796.20
548.84	27793.86
549.01	27775.14
549.18	27585.55
549.34	27597.26
549.51	27611.30
549.68	27793.86
549.84	27688.54
550.01	27786.84
550.18	27807.90
550.34	28142.60
550.51	28107.49
550.68	28437.51
550.84	27761.09
551.01	27906.21
551.18	27957.70
551.34	27978.76
551.51	28058.34
551.68	28308.78
551.84	28339.21
552.01	28011.53
552.18	28460.91
552.34	28313.46
552.51	28086.43
552.68	27971.74
552.84	28292.40
553.01	28538.15
553.18	28184.73
553.34	28276.01
553.51	28334.53
553.67	28547.51
553.84	28877.53
554.01	28699.65
554.17	28680.92
554.34	28194.09
554.51	28730.08
554.67	28423.47
554.84	28584.96
555.00	28648.16
555.17	28762.84
555.33	28645.82
555.50	28961.79
555.67	28489.00
555.83	28601.35
556.00	28996.90
556.16	28603.69
556.33	28563.90
556.50	28952.43
556.66	28940.72
556.83	28912.64
556.99	28580.28
557.16	29039.03
557.32	29186.48
557.49	28875.19
557.65	29120.95
557.82	28643.48
557.98	28655.18
558.15	29170.10
558.32	29247.33
558.48	28959.45
558.65	29071.79
558.81	28732.42
558.98	29170.10
559.14	29179.46
559.31	29127.97
559.47	29399.47
559.64	29397.13
559.80	29479.05
559.97	29214.57
560.13	29055.41
560.30	28933.70
560.46	29340.96
560.63	29261.38
560.79	29373.72
560.96	29390.11
561.12	28666.88
561.29	29120.95
561.45	29497.77
561.61	29385.43
561.78	28947.75
561.94	29572.67
562.11	29418.19
562.27	29685.01
562.44	29406.49
562.60	29542.24
562.77	29081.16
562.93	29186.48
563.10	29858.21
563.26	29773.95
563.42	29591.39
563.59	29488.41
563.75	29640.54
563.92	29830.13
564.08	29448.62
564.24	29523.52
564.41	29266.06
564.57	29589.05
564.74	29752.89
564.90	29537.56
565.07	29862.90
565.23	29949.50
565.39	29621.82
565.56	30050.14
565.72	29502.45
565.88	29919.07
566.05	29837.15
566.21	30071.20
566.38	29514.16
566.54	29799.70
566.70	29893.32
566.87	30059.50
567.03	29780.98
567.19	30382.49
567.36	29970.56
567.52	29748.21
567.68	30026.73
567.85	29923.75
568.01	29888.64
568.17	29968.22
568.34	30230.36
568.50	29977.58
568.66	29823.11
568.83	30143.76
568.99	29584.37
569.15	29895.66
569.32	29596.07
569.48	30450.37
569.64	30443.35
569.81	29799.70
569.97	30080.56
570.13	30005.67
570.30	30162.48
570.46	30092.27
570.62	29841.83
570.78	30209.29
570.95	29926.09
571.11	30029.07
571.27	29902.68
571.43	29933.11
571.60	30543.99
571.76	29848.85
571.92	30103.97
572.09	30204.61
572.25	30480.80
572.41	30452.71
572.57	30132.06
572.74	30246.74
572.90	29607.78
573.06	30174.19
573.22	29949.50
573.38	30284.19
573.55	30225.68
573.71	30560.37
573.87	30476.12
574.03	30211.64
574.20	30295.89
574.36	29865.24
574.52	30178.87
574.68	30216.32
574.84	30354.41
575.01	30085.25
575.17	30235.04
575.33	30253.76
575.49	30263.13
575.65	30520.59
575.82	30174.19
575.98	30284.19
576.14	30080.56
576.30	30293.55
576.46	29893.32
576.62	30103.97
576.79	30068.86
576.95	30480.80
577.11	30300.58
577.27	30347.39
577.43	30799.11
577.59	30487.82
577.75	30335.68
577.92	30338.02
578.08	29750.55
578.24	30026.73
578.40	30188.23
578.56	30298.23
578.72	30319.30
578.88	30551.01
579.04	30810.81
579.21	29993.97
579.37	30263.13
579.53	30127.38
579.69	30494.84
579.85	30122.69
580.01	30441.01
580.17	30192.91
580.33	30253.76
580.49	30656.34
580.65	30555.69
580.82	30487.82
580.98	30543.99
581.14	30457.39
581.30	30551.01
581.46	30256.11
581.62	30401.22
581.78	30492.50
581.94	30429.30
582.10	30382.49
582.26	30298.23
582.42	30827.20
582.58	30553.35
582.74	30609.53
582.90	30450.37
583.06	30534.63
583.22	30288.87
583.38	30199.93
583.54	30586.12
583.70	30639.95
583.86	30412.92
584.02	30403.56
584.18	30649.32
584.34	30726.55
584.50	30965.29
584.66	30656.34
584.82	30319.30
584.98	30590.80
585.14	30080.56
585.30	30015.03
585.46	30148.44
585.62	30377.81
585.78	30260.79
585.94	29710.76
586.10	30897.41
586.26	30541.65
586.42	30525.27
586.58	30480.80
586.74	30988.69
586.90	30260.79
587.06	30267.81
587.22	30401.22
587.38	30469.09
587.54	31021.46
587.70	30738.26
587.86	30960.61
588.02	30529.95
588.18	31065.93
588.34	30780.39
588.49	30326.32
588.65	30836.56
588.81	30499.52
588.97	31035.50
589.13	30719.53
589.29	30810.81
589.45	30684.42
589.61	30991.03
589.77	31087.00
589.93	31189.98
590.08	31524.68
590.24	31065.93
590.40	30831.88
590.56	31023.80
590.72	31145.51
590.88	31058.91
591.04	30766.34
591.20	31065.93
591.35	30960.61
591.51	31110.40
591.67	31108.06
591.83	31143.17
591.99	30955.93
