SpectraSuite Data File
++++++++++++++++++++++++++++++++++++
Date: Fri Oct 18 13:58:37 GMT-05:00 2013
User: bianchi
Dark Spectrum Present: No
Reference Spectrum Present: No
Number of Sampled Component Spectra: 1
Spectrometers: USB2+H05261
Integration Time (usec): 50000 (USB2+H05261)
Spectra Averaged: 1 (USB2+H05261)
Boxcar Smoothing: 0 (USB2+H05261)
Correct for Electrical Dark: No (USB2+H05261)
Strobe/Lamp Enabled: No (USB2+H05261)
Correct for Detector Non-linearity: No (USB2+H05261)
Correct for Stray Light: No (USB2+H05261)
Number of Pixels in Processed Spectrum: 2048
>>>>>Begin Processed Spectral Data<<<<<
365.73	0.00
365.92	0.00
366.12	0.00
366.32	0.00
366.52	0.00
366.72	0.00
366.91	0.00
367.11	0.00
367.31	0.00
367.51	0.00
367.70	0.00
367.90	0.00
368.10	0.00
368.30	0.00
368.49	0.00
368.69	0.00
368.89	0.00
369.09	0.00
369.28	0.00
369.48	0.00
369.68	0.00
369.87	0.00
370.07	0.00
370.27	0.00
370.47	0.00
370.66	107.66
370.86	142.77
371.06	124.05
371.25	110.01
371.45	95.96
371.65	154.48
371.84	128.73
372.04	201.29
372.24	227.03
372.44	149.79
372.63	135.75
372.83	201.29
373.03	252.78
373.22	170.86
373.42	196.60
373.62	220.01
373.81	210.65
374.01	245.76
374.21	180.22
374.40	234.05
374.60	203.63
374.79	220.01
374.99	194.26
375.19	231.71
375.38	243.42
375.58	191.92
375.78	215.33
375.97	318.31
376.17	285.55
376.37	290.23
376.56	255.12
376.76	236.39
376.95	245.76
377.15	320.65
377.35	283.20
377.54	238.73
377.74	262.14
377.93	306.61
378.13	259.80
378.33	278.52
378.52	287.89
378.72	313.63
378.91	306.61
379.11	210.65
379.31	322.99
379.50	278.52
379.70	346.40
379.89	222.35
380.09	285.55
380.28	355.76
380.48	248.10
380.68	304.27
380.87	257.46
381.07	313.63
381.26	362.78
381.46	238.73
381.65	386.19
381.85	355.76
382.04	353.42
382.24	393.21
382.43	360.44
382.63	325.33
382.83	322.99
383.02	271.50
383.22	318.31
383.41	344.06
383.61	365.12
383.80	402.57
384.00	341.72
384.19	330.02
384.39	367.46
384.58	348.74
384.78	440.02
384.97	313.63
385.17	397.89
385.36	360.44
385.56	383.85
385.75	425.98
385.95	395.55
386.14	447.04
386.34	374.49
386.53	430.66
386.72	362.78
386.92	428.32
387.11	411.93
387.31	433.00
387.50	376.83
387.70	402.57
387.89	489.17
388.09	414.27
388.28	463.43
388.48	390.87
388.67	430.66
388.86	496.19
389.06	407.25
389.25	517.26
389.45	472.79
389.64	517.26
389.84	533.64
390.03	428.32
390.22	528.96
390.42	493.85
390.61	503.22
390.81	449.38
391.00	538.32
391.19	594.50
391.39	575.77
391.58	496.19
391.78	512.58
391.97	552.37
392.16	498.53
392.36	514.92
392.55	498.53
392.75	524.28
392.94	484.49
393.13	566.41
393.33	489.17
393.52	552.37
393.71	571.09
393.91	587.47
394.10	589.82
394.29	535.98
394.49	545.34
394.68	545.34
394.88	580.45
395.07	634.29
395.26	617.90
395.46	587.47
395.65	638.97
395.84	573.43
396.04	795.78
396.23	638.97
396.42	568.75
396.62	683.44
396.81	613.22
397.00	650.67
397.19	662.37
397.39	664.71
397.58	737.27
397.77	681.10
397.97	716.20
398.16	690.46
398.35	580.45
398.55	615.56
398.74	704.50
398.93	770.04
399.12	772.38
399.32	704.50
399.51	748.97
399.70	763.01
399.90	699.82
400.09	706.84
400.28	777.06
400.47	709.18
400.67	779.40
400.86	758.33
401.05	744.29
401.24	814.51
401.44	758.33
401.63	798.12
401.82	777.06
402.01	763.01
402.21	823.87
402.40	833.23
402.59	788.76
402.78	854.30
402.97	849.61
403.17	840.25
403.36	901.11
403.55	873.02
403.74	919.83
403.93	873.02
404.13	858.98
404.32	877.70
404.51	931.53
404.70	957.28
404.89	971.32
405.09	1001.75
405.28	978.34
405.47	896.43
405.66	980.68
405.85	966.64
406.05	1015.79
406.24	1027.50
406.43	964.30
406.62	1020.47
406.81	1032.18
407.00	1069.62
407.20	943.24
407.39	1090.69
407.58	1032.18
407.77	999.41
407.96	1074.31
408.15	1029.84
408.34	1015.79
408.54	1102.39
408.73	1039.20
408.92	1123.46
409.11	1177.29
409.30	1184.31
409.49	1111.75
409.68	1097.71
409.87	1104.73
410.07	1137.50
410.26	1160.91
410.45	1291.98
410.64	1214.74
410.83	1011.11
411.02	1275.59
411.21	1266.23
411.40	1242.82
411.59	1329.42
411.78	1291.98
411.98	1214.74
412.17	1369.21
412.36	1240.48
412.55	1341.13
412.74	1306.02
412.93	1301.34
413.12	1228.78
413.31	1387.94
413.50	1462.83
413.69	1371.55
413.88	1444.11
414.07	1483.90
414.26	1458.15
414.45	1399.64
414.64	1345.81
414.83	1556.46
415.02	1563.48
415.22	1593.90
415.41	1598.59
415.60	1584.54
415.79	1493.26
415.98	1621.99
416.17	1612.63
416.36	1549.43
416.55	1556.46
416.74	1554.12
416.93	1685.19
417.12	1678.16
417.31	1666.46
417.50	1678.16
417.69	1762.42
417.88	1657.10
418.07	1816.26
418.26	1748.38
418.45	1673.48
418.64	1760.08
418.83	1724.97
419.02	1694.55
419.21	1806.89
419.39	1842.00
419.58	1748.38
419.77	1842.00
419.96	1968.39
420.15	1842.00
420.34	2008.18
420.53	1806.89
420.72	1949.67
420.91	1874.77
421.10	1980.09
421.29	2076.06
421.48	1907.54
421.67	1954.35
421.86	1891.15
422.05	2019.88
422.24	2015.20
422.43	1947.33
422.61	1942.64
422.80	2085.42
422.99	2017.54
423.18	2120.53
423.37	2022.22
423.56	2054.99
423.75	2026.90
423.94	1942.64
424.13	1870.09
424.32	1980.09
424.50	2029.24
424.69	1966.05
424.88	2090.10
425.07	2024.56
425.26	1991.80
425.45	2106.48
425.64	2073.71
425.83	2066.69
426.01	1998.82
426.20	2029.24
426.39	2033.93
426.58	2003.50
426.77	2183.72
426.96	2094.78
427.15	2092.44
427.33	2122.87
427.52	2120.53
427.71	2211.81
427.90	2132.23
428.09	2183.72
428.28	2155.63
428.46	2251.60
428.65	2221.17
428.84	2333.51
429.03	2272.66
429.22	2251.60
429.40	2221.17
429.59	2223.51
429.78	2122.87
429.97	2179.04
430.16	2209.47
430.34	2211.81
430.53	2310.11
430.72	2272.66
430.91	2401.39
431.10	2324.15
431.28	2380.32
431.47	2541.82
431.66	2478.63
431.85	2338.20
432.03	2466.92
432.22	2448.20
432.41	2576.93
432.60	2513.74
432.79	2289.04
432.97	2429.48
433.16	2431.82
433.35	2445.86
433.54	2427.14
433.72	2532.46
433.91	2530.12
434.10	2473.95
434.28	2511.39
434.47	2565.23
434.66	2541.82
434.85	2614.38
435.03	2537.14
435.22	2551.18
435.41	2729.06
435.59	2569.91
435.78	2583.95
435.97	2595.65
436.16	2677.57
436.34	2740.77
436.53	2712.68
436.72	2693.96
436.90	2724.38
437.09	2724.38
437.28	2605.02
437.46	2747.79
437.65	2693.96
437.84	2810.98
438.02	2876.52
438.21	2841.41
438.40	2773.53
438.58	2925.67
438.77	3021.63
438.96	2867.16
439.14	2899.92
439.33	2939.71
439.52	2951.42
439.70	3026.31
439.89	3052.06
440.08	3035.67
440.26	3112.91
440.45	3192.49
440.63	3110.57
440.82	3112.91
441.01	3201.85
441.19	3126.96
441.38	3246.32
441.57	3190.15
441.75	3246.32
441.94	3351.65
442.12	3274.41
442.31	3288.45
442.50	3309.52
442.68	3309.52
442.87	3330.58
443.05	3304.84
443.24	3290.79
443.43	3419.52
443.61	3375.05
443.80	3520.17
443.98	3428.88
444.17	3236.96
444.35	3382.07
444.54	3475.70
444.73	3337.60
444.91	3522.51
445.10	3438.25
445.28	3503.78
445.47	3405.48
445.65	3386.76
445.84	3454.63
446.02	3487.40
446.21	3372.71
446.39	3412.50
446.58	3592.72
446.77	3522.51
446.95	3424.20
447.14	3480.38
447.32	3550.59
447.51	3574.00
447.69	3559.95
447.88	3662.94
448.06	3611.45
448.25	3492.08
448.43	3571.66
448.62	3534.21
448.80	3435.91
448.99	3566.98
449.17	3669.96
449.36	3522.51
449.54	3585.70
449.73	3735.50
449.91	3637.19
450.10	3763.58
450.28	3808.05
450.46	3721.45
450.65	3789.33
450.83	3854.86
451.02	3723.79
451.20	3873.59
451.39	3737.84
451.57	3829.12
451.76	3702.73
451.94	3751.88
452.13	3836.14
452.31	3899.33
452.49	3712.09
452.68	3812.73
452.86	3861.88
453.05	3805.71
453.23	3978.91
453.42	3824.44
453.60	3946.14
453.78	3969.55
453.97	3929.76
454.15	3887.63
454.34	3854.86
454.52	4028.06
454.70	4058.49
454.89	4004.66
455.07	3927.42
455.26	4049.13
455.44	4037.42
455.62	3957.85
455.81	4117.00
455.99	4114.66
456.17	4117.00
456.36	4161.47
456.54	4248.07
456.73	4290.20
456.91	4266.80
457.09	4215.30
457.28	4327.65
457.46	4344.03
457.64	4278.50
457.83	4308.93
458.01	4318.29
458.19	4395.53
458.38	4278.50
458.56	4468.08
458.74	4540.64
458.93	4484.47
459.11	4358.08
459.29	4493.83
459.48	4482.13
459.66	4491.49
459.84	4510.21
460.03	4519.57
460.21	4550.00
460.39	4514.89
460.57	4334.67
460.76	4601.49
460.94	4645.96
461.12	4681.07
461.31	4697.46
461.49	4645.96
461.67	4690.43
461.85	4809.80
462.04	4760.65
462.22	4807.46
462.40	4748.95
462.59	4746.61
462.77	4704.48
462.95	4772.35
463.13	4919.81
463.32	4744.27
463.50	4830.87
463.68	4713.84
463.86	4826.18
464.05	5074.28
464.23	4938.53
464.41	4940.87
464.59	4868.31
464.78	4994.70
464.96	5053.22
465.14	4877.68
465.32	5048.54
465.50	5074.28
465.69	4973.64
465.87	4912.78
466.05	5060.24
466.23	4985.34
466.41	4908.10
466.60	5233.44
466.78	5013.43
466.96	4936.19
467.14	5036.83
467.32	5172.58
467.51	5153.86
467.69	5018.11
467.87	5111.73
468.05	5146.84
468.23	5254.50
468.41	5254.50
468.60	5158.54
468.78	5291.95
468.96	5320.04
469.14	5240.46
469.32	5247.48
469.50	5280.25
469.69	5345.78
469.87	5444.09
470.05	5488.56
470.23	5406.64
470.41	5345.78
470.59	5572.82
470.77	5315.36
470.95	5556.43
471.14	5626.65
471.32	5500.26
471.50	5715.59
471.68	5462.81
471.86	5624.31
472.04	5682.82
472.22	5940.28
472.40	5682.82
472.58	5825.59
472.77	5902.83
472.95	5858.36
473.13	5963.68
473.31	5757.72
473.49	5982.41
473.67	5954.32
473.85	6015.18
474.03	6122.84
474.21	5951.98
474.39	5991.77
474.57	6024.54
474.75	6249.23
474.93	6188.38
475.12	6209.44
475.30	6366.26
475.48	6153.27
475.66	6246.89
475.84	6293.70
476.02	6361.58
476.20	6382.64
476.38	6459.88
476.56	6569.88
476.74	6483.28
476.92	6602.65
477.10	6457.54
477.28	6782.87
477.46	6651.80
477.64	6658.82
477.82	6731.38
478.00	6970.12
478.18	7070.76
478.36	7023.95
478.54	6988.84
478.72	6991.18
478.90	7185.44
479.08	7089.48
479.26	7349.28
479.44	7339.92
479.62	7396.09
479.80	7424.18
479.98	7510.78
480.16	7536.52
480.34	7623.12
480.52	7726.11
480.70	7768.24
480.88	7730.79
481.06	7950.80
481.24	7777.60
481.41	7789.30
481.59	8042.08
481.77	8056.12
481.95	7896.97
482.13	8079.53
482.31	8163.79
482.49	8322.94
482.67	8170.81
482.85	8386.14
483.03	8510.19
483.21	8678.71
483.39	8760.63
483.57	8557.00
483.74	8641.26
483.92	8826.16
484.10	8744.24
484.28	8954.89
484.46	9055.53
484.64	9137.45
484.82	9165.54
485.00	9219.37
485.18	9338.74
485.35	9488.53
485.53	9423.00
485.71	9507.26
485.89	9764.72
486.07	9600.88
486.25	9722.59
486.43	9722.59
486.61	9987.07
486.78	9942.60
486.96	9954.30
487.14	9982.38
487.32	10176.65
487.50	10303.04
487.68	10181.33
487.85	10111.11
488.03	10661.14
488.21	10551.14
488.39	10644.76
488.57	10576.88
488.75	10869.45
488.92	10981.79
489.10	11180.74
489.28	10817.96
489.46	11318.83
489.64	11007.54
489.81	11367.98
489.99	11265.00
490.17	11470.97
490.35	11468.62
490.53	11538.84
490.70	11721.40
490.88	11620.76
491.06	11812.68
491.24	11709.70
491.41	12074.82
491.59	12018.65
491.77	12189.51
491.95	12184.83
492.13	12439.95
492.30	12259.73
492.48	12250.36
492.66	12428.24
492.84	12360.37
493.01	12409.52
493.19	12905.71
493.37	12793.37
493.54	12816.77
493.72	12959.55
493.90	12919.76
494.08	13053.17
494.25	13198.28
494.43	13186.58
494.61	13319.99
494.79	13422.97
494.96	13465.10
495.14	13319.99
495.32	13825.54
495.49	13628.94
495.67	13912.14
495.85	13837.25
496.02	13785.76
496.20	14277.27
496.38	14001.08
496.55	14003.43
496.73	14195.35
496.91	14434.08
497.09	14368.55
497.26	14333.44
497.44	14256.20
497.62	14677.50
497.79	14485.58
497.97	14293.65
498.14	14984.11
498.32	14864.74
498.50	14991.13
498.67	14967.73
498.85	14951.34
499.03	15091.77
499.20	15147.95
499.38	15365.62
499.56	15225.18
499.73	15543.50
499.91	15492.01
500.08	15398.38
500.26	15506.05
500.44	15384.34
500.61	15646.48
500.79	15592.65
500.97	15515.41
501.14	15950.75
501.32	16027.99
501.49	15826.70
501.67	15953.09
501.84	16058.42
502.02	16081.82
502.20	16077.14
502.37	16142.67
502.55	16067.78
502.72	16173.10
502.90	16367.37
503.07	16166.08
503.25	16231.62
503.43	16468.01
503.60	16711.42
503.78	17018.04
503.95	16681.00
504.13	16854.20
504.30	16973.56
504.48	16554.61
504.65	16695.04
504.83	16968.88
505.01	17125.70
505.18	16744.19
505.36	17125.70
505.53	17039.10
505.71	17216.98
505.88	17226.34
506.06	17298.90
506.23	17312.94
506.41	17296.56
506.58	17568.06
506.76	17432.31
506.93	17469.76
507.11	17436.99
507.28	17591.47
507.46	17652.32
507.63	17827.86
507.81	18106.38
507.98	18071.28
508.16	18143.83
508.33	17947.23
508.50	18111.07
508.68	17851.27
508.85	18345.12
509.03	18377.89
509.20	18085.32
509.38	18420.02
509.55	18539.38
509.73	18164.90
509.90	18572.15
510.08	18321.71
510.25	18532.36
510.42	18448.10
510.60	18700.88
510.77	18792.16
510.95	18867.06
511.12	18600.24
511.30	18956.00
511.47	18829.61
511.64	18750.03
511.82	19410.06
511.99	19157.28
512.17	19307.08
512.34	19264.95
512.51	19491.98
512.69	19138.56
512.86	19150.26
513.04	19578.58
513.21	19487.30
513.38	19737.74
513.56	19548.15
513.73	19557.52
513.90	19552.84
514.08	19459.21
514.25	19885.19
514.43	19756.46
514.60	19924.98
514.77	19969.45
514.95	19735.40
515.12	19779.87
515.29	20222.23
515.47	20393.09
515.64	20194.14
515.81	20390.75
515.99	20336.91
516.16	20379.04
516.33	20353.30
516.51	20407.13
516.68	20130.95
516.85	20304.15
517.03	20301.81
517.20	20629.48
517.37	20783.96
517.54	20840.13
517.72	20547.56
517.89	20570.97
518.06	20788.64
518.24	20472.67
518.41	20664.59
518.58	20840.13
518.75	21146.74
518.93	20982.90
519.10	21207.59
519.27	21200.57
519.45	21289.51
519.62	21118.65
519.79	21186.53
519.96	21357.39
520.14	21467.39
520.31	21233.34
520.48	21472.07
520.65	21546.97
520.83	21287.17
521.00	21310.58
521.17	21678.04
521.34	21886.35
521.52	21692.08
521.69	21556.33
521.86	21778.68
522.03	22324.03
522.20	21759.96
522.38	22094.66
522.55	22078.27
522.72	21874.65
522.89	22026.78
523.07	22106.36
523.24	22382.54
523.41	22377.86
523.58	22148.49
523.75	22181.26
523.92	22377.86
524.10	22183.60
524.27	22270.20
524.44	22689.15
524.61	22457.44
524.78	22841.29
524.96	22345.09
525.13	22773.41
525.30	22530.00
525.47	22609.58
525.64	22686.81
525.81	22572.13
525.98	23311.74
526.16	22717.24
526.33	23075.34
526.50	23082.36
526.67	22986.40
526.84	22955.97
527.01	23246.20
527.18	22855.33
527.36	23040.23
527.53	23674.52
527.70	23454.51
527.87	23285.99
528.04	23281.31
528.21	23311.74
528.38	23035.55
528.55	23484.94
528.72	23426.42
528.89	23625.37
529.07	23782.18
529.24	23688.56
529.41	23690.90
529.58	23576.22
529.75	23536.43
529.92	23604.30
530.09	23435.78
530.26	23704.95
530.43	23948.36
530.60	23676.86
530.77	23665.16
530.94	23878.15
531.11	23735.37
531.28	23840.70
531.46	23929.64
531.63	24149.65
531.80	24205.82
531.97	24177.73
532.14	24465.62
532.31	24039.64
532.48	24229.23
532.65	24465.62
532.82	23864.10
532.99	24212.84
533.16	24166.03
533.33	24236.25
533.50	24795.64
533.67	24521.79
533.84	24592.01
534.01	24325.19
534.18	24458.60
534.35	24673.93
534.52	24781.59
534.69	24809.68
534.86	25132.67
535.03	24449.24
535.20	25001.60
535.37	25127.99
535.54	24627.12
535.71	24762.87
535.88	24709.04
536.05	25207.57
536.22	25188.85
536.38	25123.31
536.55	25303.53
536.72	24973.52
536.89	24833.08
537.06	25191.19
537.23	24973.52
537.40	25301.19
537.57	25371.41
537.74	25216.93
537.91	25418.22
538.08	25678.02
538.25	25109.27
538.42	25406.52
538.59	25436.94
538.75	25268.42
538.92	25572.69
539.09	25560.99
539.26	25378.43
539.43	25219.27
539.60	25649.93
539.77	25720.15
539.94	25434.60
540.11	25982.29
540.28	25633.55
540.44	25839.51
540.61	25820.79
540.78	25446.30
540.95	25963.56
541.12	25928.45
541.29	26174.21
541.46	25919.09
541.62	25678.02
541.79	26054.84
541.96	25832.49
542.13	25951.86
542.30	25537.59
542.47	26352.09
542.63	26459.76
542.80	26260.81
542.97	26469.12
543.14	26363.79
543.31	26562.74
543.48	26459.76
543.64	26546.36
543.81	26593.17
543.98	26962.97
544.15	26466.78
544.32	26897.44
544.48	27129.15
544.65	26757.00
544.82	26728.92
544.99	26658.70
545.16	27213.41
545.32	26600.19
545.49	26829.56
545.66	27091.70
545.83	26944.25
546.00	27126.81
546.16	26707.85
546.33	26843.60
546.50	26396.56
546.67	27157.24
546.83	27009.78
547.00	27159.58
547.17	26735.94
547.34	27435.76
547.50	27316.39
547.67	27466.19
547.84	27332.78
548.00	27180.64
548.17	27410.01
548.34	27388.95
548.51	27623.00
548.67	27461.51
548.84	27639.39
549.01	27381.93
549.18	27634.71
549.34	27805.56
549.51	27482.57
549.68	27395.97
549.84	27852.38
550.01	27503.64
550.18	27655.77
550.34	27791.52
550.51	27709.60
550.68	27484.91
550.84	27218.09
551.01	27557.47
551.18	27583.21
551.34	27393.63
551.51	27878.12
551.68	27662.79
551.84	27988.13
552.01	27976.42
552.18	27943.66
552.34	28032.60
552.51	27800.88
552.68	27740.03
552.84	27681.52
553.01	27882.80
553.18	27941.32
553.34	28044.30
553.51	27775.14
553.67	28355.59
553.84	28224.52
554.01	28116.86
554.17	28439.85
554.34	27850.03
554.51	28137.92
554.67	28554.54
554.84	28402.40
555.00	28135.58
555.17	28151.96
555.33	28126.22
555.50	28386.02
555.67	28514.75
555.83	28142.60
556.00	28229.20
556.16	28788.59
556.33	28297.08
556.50	28669.22
556.66	28353.25
556.83	28582.62
556.99	28835.40
557.16	29053.07
557.32	28493.68
557.49	28556.88
557.65	28498.36
557.82	28732.42
557.98	28510.07
558.15	28760.50
558.32	28762.84
558.48	28781.57
558.65	29003.92
558.81	28804.97
558.98	28954.77
559.14	28783.91
559.31	28727.74
559.47	28835.40
559.64	29060.09
559.80	29060.09
559.97	29144.35
560.13	29083.50
560.30	29193.50
560.46	29193.50
560.63	28875.19
560.79	29198.18
560.96	28975.83
561.12	28704.33
561.29	29076.48
561.45	28739.44
561.61	28987.53
561.78	29088.18
561.94	29268.40
562.11	29137.33
562.27	29029.66
562.44	29345.64
562.60	29085.84
562.77	29029.66
562.93	29046.05
563.10	29160.73
563.26	29029.66
563.42	29193.50
563.59	29149.03
563.75	29153.71
563.92	29118.60
564.08	28989.88
564.24	29296.49
564.41	29067.11
564.57	29584.37
564.74	29359.68
564.90	29362.02
565.07	29149.03
565.23	29497.77
565.39	29270.74
565.56	29502.45
565.72	29507.13
565.88	29567.99
566.05	29673.31
566.21	29259.04
566.38	29331.59
566.54	29355.00
566.70	29790.34
566.87	30005.67
567.03	29371.38
567.19	29869.92
567.36	29579.69
567.52	29722.46
567.68	29689.70
567.85	29266.06
568.01	29720.12
568.17	29680.33
568.34	29565.65
568.50	29579.69
568.66	29427.56
568.83	29457.98
568.99	29532.88
569.15	29722.46
569.32	29200.52
569.48	29607.78
569.64	29844.17
569.81	29640.54
569.97	29745.87
570.13	29331.59
570.30	29617.14
570.46	29558.63
570.62	29413.51
570.78	29560.97
570.95	29584.37
571.11	29626.50
571.27	29699.06
571.43	29523.52
571.60	29703.74
571.76	29722.46
571.92	29600.76
572.09	30040.78
572.25	29986.94
572.41	29940.13
572.57	29823.11
572.74	29834.81
572.90	29780.98
573.06	29661.61
573.22	29586.71
573.38	29893.32
573.55	29584.37
573.71	29710.76
573.87	30272.49
574.03	29729.48
574.20	29780.98
574.36	29837.15
574.52	29961.20
574.68	29715.44
574.84	29614.80
575.01	29867.58
575.17	30017.37
575.33	29523.52
575.49	29635.86
575.65	29759.91
575.82	30059.50
575.98	29750.55
576.14	30017.37
576.30	30160.14
576.46	29844.17
576.62	29865.24
576.79	29631.18
576.95	29575.01
577.11	29986.94
577.27	30103.97
577.43	29682.67
577.59	29841.83
577.75	29895.66
577.92	29514.16
578.08	30043.12
578.24	29699.06
578.40	30213.98
578.56	29977.58
578.72	30099.29
578.88	30288.87
579.04	30417.60
579.21	29867.58
579.37	29982.26
579.53	30335.68
579.69	29830.13
579.85	30005.67
580.01	29776.30
580.17	29930.77
580.33	29888.64
580.49	29783.32
580.65	30022.05
580.82	30099.29
580.98	30171.85
581.14	30223.34
581.30	30052.48
581.46	29947.15
581.62	29858.21
581.78	30052.48
581.94	30052.48
582.10	30288.87
582.26	30288.87
582.42	30139.08
582.58	30216.32
582.74	30251.42
582.90	30480.80
583.06	29984.60
583.22	29830.13
583.38	29795.02
583.54	29851.19
583.70	30108.65
583.86	29965.88
584.02	29626.50
584.18	30295.89
584.34	30663.36
584.50	30813.15
584.66	29895.66
584.82	29916.73
584.98	30197.59
585.14	29996.31
585.30	30080.56
585.46	30045.46
585.62	29912.05
585.78	29890.98
585.94	30026.73
586.10	30235.04
586.26	30419.94
586.42	30190.57
586.58	30541.65
586.74	30153.12
586.90	30080.56
587.06	29710.76
587.22	30611.87
587.38	29839.49
587.54	30394.20
587.70	30466.75
587.86	30239.72
588.02	30148.44
588.18	30192.91
588.34	30476.12
588.49	30441.01
588.65	30047.80
588.81	30270.15
588.97	30260.79
589.13	30295.89
589.29	30075.88
589.45	30274.83
589.61	30286.53
589.77	30930.18
589.93	30663.36
590.08	30628.25
590.24	30628.25
590.40	30803.79
590.56	30609.53
590.72	30391.86
590.88	30103.97
591.04	30363.77
591.20	30412.92
591.35	30843.58
591.51	31019.12
591.67	30698.47
591.83	30394.20
591.99	30546.33
