SpectraSuite Data File
++++++++++++++++++++++++++++++++++++
Date: Fri Oct 18 13:58:02 GMT-05:00 2013
User: bianchi
Dark Spectrum Present: No
Reference Spectrum Present: No
Number of Sampled Component Spectra: 1
Spectrometers: USB2+H05261
Integration Time (usec): 50000 (USB2+H05261)
Spectra Averaged: 1 (USB2+H05261)
Boxcar Smoothing: 0 (USB2+H05261)
Correct for Electrical Dark: No (USB2+H05261)
Strobe/Lamp Enabled: No (USB2+H05261)
Correct for Detector Non-linearity: No (USB2+H05261)
Correct for Stray Light: No (USB2+H05261)
Number of Pixels in Processed Spectrum: 2048
>>>>>Begin Processed Spectral Data<<<<<
365.73	0.00
365.92	0.00
366.12	0.00
366.32	0.00
366.52	0.00
366.72	0.00
366.91	0.00
367.11	0.00
367.31	0.00
367.51	0.00
367.70	0.00
367.90	0.00
368.10	0.00
368.30	0.00
368.49	0.00
368.69	0.00
368.89	0.00
369.09	0.00
369.28	0.00
369.48	0.00
369.68	0.00
369.87	0.00
370.07	0.00
370.27	0.00
370.47	0.00
370.66	65.54
370.86	140.43
371.06	159.16
371.25	124.05
371.45	91.28
371.65	84.26
371.84	147.45
372.04	177.88
372.24	166.18
372.44	147.45
372.63	198.95
372.83	191.92
373.03	147.45
373.22	194.26
373.42	236.39
373.62	215.33
373.81	234.05
374.01	301.93
374.21	184.90
374.40	243.42
374.60	222.35
374.79	334.70
374.99	196.60
375.19	273.84
375.38	248.10
375.58	245.76
375.78	264.48
375.97	252.78
376.17	238.73
376.37	177.88
376.56	215.33
376.76	241.08
376.95	245.76
377.15	290.23
377.35	306.61
377.54	252.78
377.74	271.50
377.93	238.73
378.13	308.95
378.33	367.46
378.52	266.82
378.72	271.50
378.91	313.63
379.11	278.52
379.31	299.59
379.50	227.03
379.70	255.12
379.89	315.97
380.09	257.46
380.28	285.55
380.48	325.33
380.68	285.55
380.87	320.65
381.07	311.29
381.26	407.25
381.46	330.02
381.65	315.97
381.85	322.99
382.04	341.72
382.24	297.25
382.43	330.02
382.63	271.50
382.83	264.48
383.02	327.68
383.22	320.65
383.41	374.49
383.61	320.65
383.80	407.25
384.00	362.78
384.19	353.42
384.39	421.30
384.58	308.95
384.78	348.74
384.97	409.59
385.17	465.77
385.36	397.89
385.56	320.65
385.75	341.72
385.95	409.59
386.14	440.02
386.34	344.06
386.53	360.44
386.72	311.29
386.92	442.36
387.11	411.93
387.31	339.38
387.50	393.21
387.70	395.55
387.89	430.66
388.09	425.98
388.28	479.81
388.48	512.58
388.67	463.43
388.86	421.30
389.06	477.47
389.25	414.27
389.45	465.77
389.64	418.96
389.84	528.96
390.03	468.11
390.22	526.62
390.42	507.90
390.61	524.28
390.81	503.22
391.00	451.72
391.19	526.62
391.39	528.96
391.58	550.03
391.78	554.71
391.97	489.17
392.16	596.84
392.36	550.03
392.55	582.79
392.75	559.39
392.94	498.53
393.13	547.69
393.33	500.87
393.52	564.07
393.71	634.29
393.91	568.75
394.10	552.37
394.29	603.86
394.49	582.79
394.68	631.94
394.88	608.54
395.07	627.26
395.26	477.47
395.46	655.35
395.65	648.33
395.84	596.84
396.04	596.84
396.23	664.71
396.42	695.14
396.62	671.73
396.81	599.18
397.00	662.37
397.19	676.41
397.39	674.07
397.58	653.01
397.77	641.31
397.97	664.71
398.16	725.57
398.35	669.39
398.55	748.97
398.74	617.90
398.93	784.08
399.12	622.58
399.32	727.91
399.51	751.31
399.70	730.25
399.90	741.95
400.09	812.17
400.28	770.04
400.47	791.10
400.67	751.31
400.86	727.91
401.05	760.67
401.24	784.08
401.44	863.66
401.63	795.78
401.82	837.91
402.01	861.32
402.21	856.64
402.40	770.04
402.59	781.74
402.78	798.12
402.97	880.04
403.17	931.53
403.36	966.64
403.55	997.07
403.74	835.57
403.93	774.72
404.13	905.79
404.32	884.72
404.51	861.32
404.70	919.83
404.89	868.34
405.09	1102.39
405.28	978.34
405.47	1055.58
405.66	1020.47
405.85	961.96
406.05	1013.45
406.24	973.66
406.43	1046.22
406.62	1053.24
406.81	1076.65
407.00	990.05
407.20	954.94
407.39	983.02
407.58	1062.60
407.77	1135.16
407.96	1067.28
408.15	1093.03
408.34	1071.97
408.54	1015.79
408.73	1125.80
408.92	1013.45
409.11	1086.01
409.30	1158.57
409.49	1039.20
409.68	1172.61
409.87	1158.57
410.07	1179.63
410.26	1167.93
410.45	1165.59
410.64	1226.44
410.83	1296.66
411.02	1200.69
411.21	1196.01
411.40	1301.34
411.59	1273.25
411.78	1207.72
411.98	1348.15
412.17	1299.00
412.36	1399.64
412.55	1280.27
412.74	1390.28
412.93	1437.09
413.12	1357.51
413.31	1352.83
413.50	1392.62
413.69	1364.53
413.88	1423.05
414.07	1493.26
414.26	1516.67
414.45	1607.95
414.64	1465.18
414.83	1554.12
415.02	1530.71
415.22	1577.52
415.41	1533.05
415.60	1514.33
415.79	1570.50
415.98	1511.99
416.17	1563.48
416.36	1530.71
416.55	1614.97
416.74	1678.16
416.93	1701.57
417.12	1734.34
417.31	1675.82
417.50	1579.86
417.69	1797.53
417.88	1799.87
418.07	1741.36
418.26	1720.29
418.45	1874.77
418.64	1944.99
418.83	1755.40
419.02	1589.22
419.21	1722.63
419.39	1783.49
419.58	1839.66
419.77	1816.26
419.96	1834.98
420.15	1827.96
420.34	1834.98
420.53	1944.99
420.72	2003.50
420.91	1963.71
421.10	1984.77
421.29	1987.11
421.48	1912.22
421.67	1909.88
421.86	1926.26
422.05	1989.46
422.24	2043.29
422.43	1959.03
422.61	1944.99
422.80	1977.75
422.99	2125.21
423.18	2040.95
423.37	2029.24
423.56	2050.31
423.75	1968.39
423.94	2033.93
424.13	1844.34
424.32	2033.93
424.50	1991.80
424.69	2080.74
424.88	2087.76
425.07	1973.07
425.26	2029.24
425.45	2078.40
425.64	2054.99
425.83	2069.03
426.01	2097.12
426.20	2134.57
426.39	2073.71
426.58	2047.97
426.77	2059.67
426.96	2047.97
427.15	2127.55
427.33	2136.91
427.52	2172.02
427.71	2230.53
427.90	2092.44
428.09	2176.70
428.28	2214.15
428.46	2200.10
428.65	2200.10
428.84	2239.89
429.03	2377.98
429.22	2157.97
429.40	2300.75
429.59	2263.30
429.78	2237.55
429.97	2195.42
430.16	2200.10
430.34	2204.78
430.53	2340.54
430.72	2403.73
430.91	2359.26
431.10	2289.04
431.28	2340.54
431.47	2396.71
431.66	2441.18
431.85	2436.50
432.03	2459.90
432.22	2476.29
432.41	2399.05
432.60	2457.56
432.79	2422.45
432.97	2427.14
433.16	2562.89
433.35	2417.77
433.54	2487.99
433.72	2548.84
433.91	2581.61
434.10	2597.99
434.28	2593.31
434.47	2548.84
434.66	2621.40
434.85	2576.93
435.03	2663.53
435.22	2590.97
435.41	2775.88
435.59	2607.36
435.78	2663.53
435.97	2757.15
436.16	2703.32
436.34	2663.53
436.53	2773.53
436.72	2796.94
436.90	2745.45
437.09	2726.72
437.28	2581.61
437.46	2642.46
437.65	2717.36
437.84	2818.00
438.02	2789.92
438.21	2818.00
438.40	2818.00
438.58	2715.02
438.77	2792.26
438.96	2897.58
439.14	3014.61
439.33	2909.29
439.52	3000.57
439.70	2972.48
439.89	2932.69
440.08	2995.89
440.26	3045.04
440.45	3021.63
440.63	3021.63
440.82	3077.80
441.01	3073.12
441.19	3166.74
441.38	3208.87
441.57	3276.75
441.75	3199.51
441.94	3283.77
442.12	3363.35
442.31	3435.91
442.50	3346.97
442.68	3229.94
442.87	3361.01
443.05	3255.69
443.24	3375.05
443.43	3442.93
443.61	3407.82
443.80	3545.91
443.98	3386.76
444.17	3197.17
444.35	3463.99
444.54	3534.21
444.73	3398.46
444.91	3393.78
445.10	3375.05
445.28	3449.95
445.47	3375.05
445.65	3349.31
445.84	3330.58
446.02	3478.04
446.21	3513.14
446.39	3494.42
446.58	3557.61
446.77	3552.93
446.95	3503.78
447.14	3548.25
447.32	3576.34
447.51	3529.53
447.69	3545.91
447.88	3538.89
448.06	3503.78
448.25	3426.54
448.43	3515.48
448.62	3566.98
448.80	3438.25
448.99	3566.98
449.17	3522.51
449.36	3548.25
449.54	3740.18
449.73	3758.90
449.91	3709.75
450.10	3695.71
450.28	3747.20
450.46	3775.28
450.65	3810.39
450.83	3779.97
451.02	3880.61
451.20	3765.92
451.39	3911.04
451.57	3688.68
451.76	3761.24
451.94	3854.86
452.13	3791.67
452.31	3784.65
452.49	3702.73
452.68	3974.23
452.86	3770.60
453.05	3817.41
453.23	4030.40
453.42	3969.55
453.60	3922.74
453.78	3861.88
453.97	3815.07
454.15	3892.31
454.34	3852.52
454.52	4023.38
454.70	4025.72
454.89	3976.57
455.07	3946.14
455.26	4074.87
455.44	4112.32
455.62	4147.43
455.81	4159.13
455.99	4161.47
456.17	4074.87
456.36	4266.80
456.54	4287.86
456.73	4142.75
456.91	4234.03
457.09	4191.90
457.28	4365.10
457.46	4451.70
457.64	4381.48
457.83	4435.32
458.01	4339.35
458.19	4578.09
458.38	4241.05
458.56	4444.68
458.74	4414.25
458.93	4465.74
459.11	4414.25
459.29	4393.19
459.48	4496.17
459.66	4599.15
459.84	4575.75
460.03	4571.07
460.21	4571.07
460.39	4491.49
460.57	4617.88
460.76	4643.62
460.94	4542.98
461.12	4601.49
461.31	4610.86
461.49	4645.96
461.67	4699.80
461.85	4795.76
462.04	4643.62
462.22	4924.49
462.40	4692.77
462.59	4837.89
462.77	4884.70
462.95	5057.90
463.13	4802.78
463.32	4947.89
463.50	4880.02
463.68	4917.47
463.86	4767.67
464.05	4880.02
464.23	4887.04
464.41	4877.68
464.59	4854.27
464.78	4917.47
464.96	4835.55
465.14	4924.49
465.32	4975.98
465.50	5036.83
465.69	4961.94
465.87	5036.83
466.05	4915.12
466.23	4990.02
466.41	4971.30
466.60	5142.16
466.78	5011.09
466.96	5004.07
467.14	5107.05
467.32	5128.11
467.51	5102.37
467.69	5090.67
467.87	5235.78
468.05	4971.30
468.23	5287.27
468.41	5226.42
468.60	5231.10
468.78	5296.63
468.96	5205.35
469.14	5387.91
469.32	5270.89
469.50	5167.90
469.69	5313.02
469.87	5320.04
470.05	5404.30
470.23	5476.85
470.41	5497.92
470.59	5378.55
470.77	5425.36
470.95	5392.59
471.14	5650.05
471.32	5479.19
471.50	5657.07
471.68	5743.67
471.86	5472.17
472.04	5781.12
472.22	5750.70
472.40	5760.06
472.58	5750.70
472.77	5844.32
472.95	5795.17
473.13	5996.45
473.31	5841.98
473.49	5816.23
473.67	5949.64
473.85	5790.49
474.03	6017.52
474.21	5914.53
474.39	5991.77
474.57	6097.10
474.75	6338.17
474.93	6286.68
475.12	6228.17
475.30	6466.90
475.48	6153.27
475.66	6221.14
475.84	6179.01
476.02	6200.08
476.20	6462.22
476.38	6462.22
476.56	6551.16
476.74	6473.92
476.92	6520.73
477.10	6497.33
477.28	6626.06
477.46	6740.74
477.64	6633.08
477.82	6883.52
478.00	6981.82
478.18	7054.37
478.36	7012.24
478.54	7084.80
478.72	6927.99
478.90	7164.38
479.08	7187.79
479.26	7318.86
479.44	7353.96
479.62	7452.27
479.80	7456.95
479.98	7365.67
480.16	7620.78
480.34	7658.23
480.52	7625.47
480.70	7714.41
480.88	7552.91
481.06	7763.56
481.24	7749.51
481.41	7852.50
481.59	8070.17
481.77	8189.53
481.95	7997.61
482.13	8095.91
482.31	7985.91
482.49	8414.23
482.67	8212.94
482.85	8566.36
483.03	8674.03
483.21	8652.96
483.39	8557.00
483.57	8620.19
483.74	8823.82
483.92	8791.05
484.10	8458.70
484.28	8950.21
484.46	9090.64
484.64	9193.62
484.82	9015.74
485.00	9139.79
485.18	9235.75
485.35	9413.63
485.53	9437.04
485.71	9486.19
485.89	9713.22
486.07	9635.99
486.25	9500.23
486.43	9748.33
486.61	9729.61
486.78	9848.97
486.96	10040.90
487.14	10101.75
487.32	10221.12
487.50	10111.11
487.68	10211.76
487.85	10272.61
488.03	10595.61
488.21	10733.70
488.39	10689.23
488.57	10530.07
488.75	10640.08
488.92	11009.88
489.10	11075.42
489.28	10923.28
489.46	11164.36
489.64	11033.29
489.81	11538.84
489.99	11295.43
490.17	11375.00
490.35	11517.78
490.53	11452.24
490.70	11573.95
490.88	11812.68
491.06	11721.40
491.24	11452.24
491.41	11906.31
491.59	11845.45
491.77	12224.62
491.95	12458.67
492.13	12229.30
492.30	12442.29
492.48	12287.81
492.66	12442.29
492.84	12453.99
493.01	12407.18
493.19	12631.87
493.37	12849.54
493.54	12819.11
493.72	12739.54
493.90	13015.72
494.08	13067.21
494.25	13160.83
494.43	13268.50
494.61	13544.68
494.79	13472.12
494.96	13343.39
495.14	13415.95
495.32	13633.62
495.49	13479.15
495.67	13844.27
495.85	13652.34
496.02	13802.14
496.20	13862.99
496.38	14010.45
496.55	14298.33
496.73	14307.69
496.91	14162.58
497.09	14310.04
497.26	14319.40
497.44	14324.08
497.62	14572.18
497.79	14427.06
497.97	14466.85
498.14	14918.57
498.32	14813.25
498.50	14822.61
498.67	15157.31
498.85	15194.76
499.03	15192.42
499.20	14977.09
499.38	14981.77
499.56	15096.46
499.73	15335.19
499.91	15477.96
500.08	15442.85
500.26	15470.94
500.44	15344.55
500.61	15700.31
500.79	15655.84
500.97	15639.46
501.14	15712.02
501.32	15704.99
501.49	16060.76
501.67	15892.24
501.84	16105.23
502.02	15978.84
502.20	16093.52
502.37	16629.51
502.55	15950.75
502.72	16299.49
502.90	16201.19
503.07	16119.27
503.25	15983.52
503.43	16460.99
503.60	16629.51
503.78	16444.60
503.95	16610.78
504.13	16648.23
504.30	16706.74
504.48	16594.40
504.65	16903.35
504.83	16720.79
505.01	17235.70
505.18	17118.68
505.36	16957.18
505.53	16886.97
505.71	17207.62
505.88	17076.55
506.06	17069.53
506.23	17647.64
506.41	17224.00
506.58	17689.77
506.76	17495.50
506.93	17584.44
507.11	17238.05
507.28	17720.20
507.46	17568.06
507.63	17696.79
507.81	17958.93
507.98	17895.74
508.16	18050.21
508.33	17748.28
508.50	17865.31
508.68	17928.50
508.85	18253.84
509.03	18216.39
509.20	18452.78
509.38	18078.30
509.55	18366.18
509.73	18349.80
509.90	18295.97
510.08	18380.23
510.25	18412.99
510.42	18686.84
510.60	18906.85
510.77	18703.22
510.95	18892.80
511.12	18654.07
511.30	18689.18
511.47	18845.99
511.64	19049.62
511.82	19021.53
511.99	18967.70
512.17	19442.83
512.34	19077.71
512.51	19185.37
512.69	19363.25
512.86	18991.11
513.04	19637.09
513.21	19552.84
513.38	19513.05
513.56	19814.98
513.73	19648.80
513.90	19587.94
514.08	19728.38
514.25	19599.65
514.43	19735.40
514.60	20037.33
514.77	19772.85
514.95	20011.58
515.12	19957.75
515.29	19744.76
515.47	20121.59
515.64	20376.70
515.81	20339.26
515.99	20240.95
516.16	20423.51
516.33	20435.22
516.51	20739.49
516.68	20184.78
516.85	20402.45
517.03	20570.97
517.20	20655.23
517.37	20627.14
517.54	20774.60
517.72	20606.08
517.89	20688.00
518.06	20704.38
518.24	20692.68
518.41	20776.94
518.58	20772.25
518.75	21088.23
518.93	21163.12
519.10	21001.63
519.27	21109.29
519.45	21008.65
519.62	21078.86
519.79	21102.27
519.96	21336.32
520.14	21216.96
520.31	21090.57
520.48	21589.10
520.65	21724.85
520.83	21692.08
521.00	21390.16
521.17	21626.55
521.34	21617.19
521.52	21628.89
521.69	21453.35
521.86	22022.10
522.03	21792.73
522.20	21762.30
522.38	22029.12
522.55	22003.38
522.72	21715.49
522.89	22085.30
523.07	22373.18
523.24	22106.36
523.41	22174.24
523.58	21947.20
523.75	22122.74
523.92	21930.82
524.10	22087.64
524.27	22588.51
524.44	22766.39
524.61	22504.25
524.78	22668.09
524.96	22333.39
525.13	22728.94
525.30	22618.94
525.47	22696.17
525.64	22974.70
525.81	22773.41
525.98	22757.03
526.16	23054.28
526.33	22789.80
526.50	23007.47
526.67	22630.64
526.84	22759.37
527.01	22967.68
527.18	22794.48
527.36	23094.07
527.53	23246.20
527.70	23674.52
527.87	23410.04
528.04	23159.60
528.21	23515.36
528.38	23421.74
528.55	23489.62
528.72	23325.78
528.89	23587.92
529.07	23653.45
529.24	23740.05
529.41	23927.30
529.58	23672.18
529.75	23676.86
529.92	24002.19
530.09	23660.48
530.26	23744.73
530.43	23852.40
530.60	23658.14
530.77	23889.85
530.94	23871.12
531.11	23480.25
531.28	23672.18
531.46	23981.13
531.63	23770.48
531.80	24049.00
531.97	24264.33
532.14	24016.24
532.31	24051.34
532.48	24348.59
532.65	24184.76
532.82	24081.77
532.99	24332.21
533.16	24121.56
533.33	24379.02
533.50	24694.99
533.67	24472.64
533.84	24357.96
534.01	24393.06
534.18	24421.15
534.35	24938.41
534.52	24421.15
534.69	24704.35
534.86	24561.58
535.03	24919.68
535.20	24706.70
535.37	24982.88
535.54	25013.31
535.71	24624.78
535.88	25153.74
536.05	25034.37
536.22	24746.48
536.38	24884.58
536.55	25186.50
536.72	25434.60
536.89	25104.59
537.06	25298.85
537.23	25020.33
537.40	24959.47
537.57	25380.77
537.74	25282.47
537.91	25177.14
538.08	25127.99
538.25	25301.19
538.42	25663.97
538.59	25310.55
538.75	25226.29
538.92	25427.58
539.09	25582.06
539.26	25348.00
539.43	25792.70
539.60	25820.79
539.77	25652.27
539.94	26092.29
540.11	25497.80
540.28	25289.49
540.44	25928.45
540.61	25479.07
540.78	25472.05
540.95	25792.70
541.12	25944.84
541.29	26043.14
541.46	25926.11
541.62	25797.38
541.79	25993.99
541.96	25755.26
542.13	26017.40
542.30	25914.41
542.47	26546.36
542.63	26384.86
542.80	26326.35
542.97	26803.82
543.14	26464.44
543.31	26314.64
543.48	26623.59
543.64	26747.64
543.81	26522.95
543.98	26845.94
544.15	26721.90
544.32	26616.57
544.48	26911.48
544.65	26569.76
544.82	26274.85
544.99	26532.31
545.16	26906.80
545.32	26466.78
545.49	27260.22
545.66	27131.49
545.83	26810.84
546.00	27115.11
546.16	27065.96
546.33	26740.62
546.50	26995.74
546.67	26808.50
546.83	26904.46
547.00	27019.14
547.17	26906.80
547.34	27044.89
547.50	27520.02
547.67	27513.00
547.84	27143.19
548.00	27124.47
548.17	27094.04
548.34	27182.98
548.51	27583.21
548.67	27658.11
548.84	27733.01
549.01	27344.48
549.18	27608.96
549.34	27473.21
549.51	27124.47
549.68	27517.68
549.84	27623.00
550.01	27386.61
550.18	27381.93
550.34	27634.71
550.51	27534.06
550.68	27693.22
550.84	27501.29
551.01	27400.65
551.18	27810.25
551.34	27241.50
551.51	27543.42
551.68	27864.08
551.84	28093.45
552.01	27695.56
552.18	27931.95
552.34	27641.73
552.51	28156.64
552.68	27887.48
552.84	27531.72
553.01	27824.29
553.18	28020.89
553.34	28259.63
553.51	27737.69
553.67	28166.01
553.84	28383.68
554.01	28215.16
554.17	28264.31
554.34	28332.18
554.51	28318.14
554.67	28100.47
554.84	28292.40
555.00	28257.29
555.17	28276.01
555.33	28273.67
555.50	28439.85
555.67	28388.36
555.83	28496.02
556.00	28135.58
556.16	28711.35
556.33	28390.70
556.50	28327.50
556.66	28545.17
556.83	28795.61
556.99	28797.95
557.16	29010.94
557.32	28556.88
557.49	28507.72
557.65	28650.50
557.82	28379.00
557.98	28542.83
558.15	28503.04
558.32	28652.84
558.48	28477.30
558.65	28547.51
558.81	28730.08
558.98	28662.20
559.14	28844.76
559.31	28662.20
559.47	28716.03
559.64	28627.09
559.80	28519.43
559.97	29273.08
560.13	29116.26
560.30	28900.94
560.46	29252.02
560.63	29233.29
560.79	29006.26
560.96	29034.35
561.12	28893.91
561.29	28896.25
561.45	29074.13
561.61	29205.20
561.78	28793.27
561.94	29453.30
562.11	28903.28
562.27	29167.76
562.44	29076.48
562.60	29380.74
562.77	28989.88
562.93	29270.74
563.10	29380.74
563.26	29090.52
563.42	29310.53
563.59	29357.34
563.75	28989.88
563.92	29219.25
564.08	29134.99
564.24	29184.14
564.41	29273.08
564.57	29369.04
564.74	29090.52
564.90	29762.25
565.07	29338.62
565.23	29221.59
565.39	29109.24
565.56	29727.14
565.72	29434.58
565.88	29298.83
566.05	29277.76
566.21	29556.28
566.38	29558.63
566.54	29490.75
566.70	29951.84
566.87	29558.63
567.03	29780.98
567.19	29982.26
567.36	29748.21
567.52	29266.06
567.68	29539.90
567.85	29600.76
568.01	29252.02
568.17	29472.03
568.34	29586.71
568.50	29546.92
568.66	29563.31
568.83	29584.37
568.99	29546.92
569.15	29310.53
569.32	29624.16
569.48	29537.56
569.64	29666.29
569.81	29706.08
569.97	29975.24
570.13	29734.17
570.30	29549.26
570.46	29879.28
570.62	29930.77
570.78	29474.37
570.95	29455.64
571.11	29984.60
571.27	29319.89
571.43	29397.13
571.60	29668.63
571.76	29645.23
571.92	29310.53
572.09	29975.24
572.25	30106.31
572.41	29970.56
572.57	29734.17
572.74	29881.62
572.90	29621.82
573.06	29755.23
573.22	29764.59
573.38	29722.46
573.55	29788.00
573.71	30361.43
573.87	30195.25
574.03	29923.75
574.20	29663.95
574.36	30026.73
574.52	30010.35
574.68	29919.07
574.84	30085.25
575.01	29813.74
575.17	29830.13
575.33	29645.23
575.49	29816.08
575.65	30230.36
575.82	30008.01
575.98	29624.16
576.14	29986.94
576.30	29654.59
576.46	29600.76
576.62	29965.88
576.79	29839.49
576.95	29773.95
577.11	30103.97
577.27	30185.89
577.43	29963.54
577.59	29804.38
577.75	30061.84
577.92	30019.71
578.08	30017.37
578.24	29710.76
578.40	29858.21
578.56	30267.81
578.72	29956.52
578.88	30038.44
579.04	30080.56
579.21	29998.65
579.37	30129.72
579.53	30235.04
579.69	29834.81
579.85	29961.20
580.01	30026.73
580.17	30115.67
580.33	30305.26
580.49	30118.01
580.65	30183.55
580.82	30635.27
580.98	30433.99
581.14	29804.38
581.30	30302.92
581.46	29874.60
581.62	30068.86
581.78	29593.73
581.94	29937.79
582.10	29734.17
582.26	29907.37
582.42	30244.40
582.58	30139.08
582.74	30047.80
582.90	30206.95
583.06	30228.02
583.22	29956.52
583.38	30010.35
583.54	30057.16
583.70	30267.81
583.86	30010.35
584.02	30094.61
584.18	30441.01
584.34	29839.49
584.50	30302.92
584.66	29851.19
584.82	29982.26
584.98	30033.75
585.14	30239.72
585.30	29750.55
585.46	30075.88
585.62	30139.08
585.78	30375.47
585.94	29912.05
586.10	29984.60
586.26	30359.09
586.42	30476.12
586.58	29968.22
586.74	29919.07
586.90	30272.49
587.06	30244.40
587.22	30139.08
587.38	30155.46
587.54	30593.14
587.70	30206.95
587.86	30485.48
588.02	30279.51
588.18	30508.88
588.34	30499.52
588.49	30572.08
588.65	30197.59
588.81	30003.33
588.97	30403.56
589.13	30281.85
589.29	29986.94
589.45	30412.92
589.61	30583.78
589.77	30396.54
589.93	30490.16
590.08	30600.16
590.24	30787.41
590.40	30536.97
590.56	30611.87
590.72	30562.72
590.88	30354.41
591.04	30639.95
591.20	30478.46
591.35	30604.84
591.51	31140.83
591.67	30794.43
591.83	30555.69
591.99	30932.52
