SpectraSuite Data File
++++++++++++++++++++++++++++++++++++
Date: Fri Oct 18 13:57:58 GMT-05:00 2013
User: bianchi
Dark Spectrum Present: No
Reference Spectrum Present: No
Number of Sampled Component Spectra: 1
Spectrometers: USB2+H05261
Integration Time (usec): 50000 (USB2+H05261)
Spectra Averaged: 1 (USB2+H05261)
Boxcar Smoothing: 0 (USB2+H05261)
Correct for Electrical Dark: No (USB2+H05261)
Strobe/Lamp Enabled: No (USB2+H05261)
Correct for Detector Non-linearity: No (USB2+H05261)
Correct for Stray Light: No (USB2+H05261)
Number of Pixels in Processed Spectrum: 2048
>>>>>Begin Processed Spectral Data<<<<<
365.73	0.00
365.92	0.00
366.12	0.00
366.32	0.00
366.52	0.00
366.72	0.00
366.91	0.00
367.11	0.00
367.31	0.00
367.51	0.00
367.70	0.00
367.90	0.00
368.10	0.00
368.30	0.00
368.49	0.00
368.69	0.00
368.89	0.00
369.09	0.00
369.28	0.00
369.48	0.00
369.68	0.00
369.87	0.00
370.07	0.00
370.27	0.00
370.47	0.00
370.66	79.58
370.86	175.54
371.06	170.86
371.25	142.77
371.45	149.79
371.65	212.99
371.84	135.75
372.04	154.48
372.24	175.54
372.44	248.10
372.63	142.77
372.83	304.27
373.03	191.92
373.22	203.63
373.42	203.63
373.62	264.48
373.81	180.22
374.01	283.20
374.21	245.76
374.40	170.86
374.60	236.39
374.79	238.73
374.99	339.38
375.19	257.46
375.38	262.14
375.58	196.60
375.78	189.58
375.97	280.86
376.17	264.48
376.37	287.89
376.56	311.29
376.76	250.44
376.95	266.82
377.15	243.42
377.35	320.65
377.54	208.31
377.74	238.73
377.93	339.38
378.13	358.10
378.33	301.93
378.52	248.10
378.72	332.36
378.91	369.80
379.11	269.16
379.31	304.27
379.50	278.52
379.70	234.05
379.89	313.63
380.09	292.57
380.28	332.36
380.48	351.08
380.68	308.95
380.87	255.12
381.07	341.72
381.26	320.65
381.46	234.05
381.65	367.46
381.85	362.78
382.04	332.36
382.24	362.78
382.43	287.89
382.63	327.68
382.83	341.72
383.02	386.19
383.22	416.62
383.41	339.38
383.61	383.85
383.80	351.08
384.00	369.80
384.19	397.89
384.39	365.12
384.58	339.38
384.78	428.32
384.97	407.25
385.17	372.15
385.36	440.02
385.56	372.15
385.75	449.38
385.95	451.72
386.14	397.89
386.34	491.51
386.53	440.02
386.72	418.96
386.92	535.98
387.11	425.98
387.31	418.96
387.50	440.02
387.70	468.11
387.89	411.93
388.09	454.06
388.28	489.17
388.48	465.77
388.67	498.53
388.86	458.74
389.06	456.40
389.25	510.24
389.45	456.40
389.64	442.36
389.84	482.15
390.03	454.06
390.22	585.13
390.42	559.39
390.61	517.26
390.81	510.24
391.00	407.25
391.19	489.17
391.39	514.92
391.58	507.90
391.78	479.81
391.97	535.98
392.16	444.70
392.36	510.24
392.55	589.82
392.75	596.84
392.94	491.51
393.13	566.41
393.33	554.71
393.52	505.56
393.71	592.16
393.91	603.86
394.10	669.39
394.29	580.45
394.49	566.41
394.68	585.13
394.88	571.09
395.07	608.54
395.26	538.32
395.46	695.14
395.65	589.82
395.84	617.90
396.04	744.29
396.23	681.10
396.42	620.24
396.62	657.69
396.81	627.26
397.00	580.45
397.19	741.95
397.39	681.10
397.58	706.84
397.77	667.05
397.97	648.33
398.16	657.69
398.35	688.12
398.55	657.69
398.74	697.48
398.93	706.84
399.12	727.91
399.32	681.10
399.51	671.73
399.70	713.86
399.90	777.06
400.09	791.10
400.28	856.64
400.47	823.87
400.67	819.19
400.86	748.97
401.05	791.10
401.24	770.04
401.44	763.01
401.63	858.98
401.82	835.57
402.01	805.14
402.21	807.48
402.40	854.30
402.59	823.87
402.78	912.81
402.97	847.27
403.17	917.49
403.36	926.85
403.55	952.60
403.74	856.64
403.93	940.90
404.13	945.58
404.32	912.81
404.51	908.13
404.70	926.85
404.89	950.26
405.09	929.19
405.28	910.47
405.47	964.30
405.66	978.34
405.85	1013.45
406.05	933.87
406.24	1027.50
406.43	943.24
406.62	938.55
406.81	1022.81
407.00	954.94
407.20	1006.43
407.39	1006.43
407.58	1034.52
407.77	1067.28
407.96	1188.99
408.15	1067.28
408.34	1086.01
408.54	1118.78
408.73	1109.41
408.92	1039.20
409.11	1144.52
409.30	1149.20
409.49	1219.42
409.68	1102.39
409.87	1217.08
410.07	1170.27
410.26	1228.78
410.45	1214.74
410.64	1226.44
410.83	1249.85
411.02	1179.63
411.21	1294.32
411.40	1177.29
411.59	1242.82
411.78	1270.91
411.98	1263.89
412.17	1306.02
412.36	1299.00
412.55	1324.74
412.74	1350.49
412.93	1289.64
413.12	1306.02
413.31	1502.62
413.50	1409.00
413.69	1526.03
413.88	1350.49
414.07	1472.20
414.26	1535.39
414.45	1425.39
414.64	1458.15
414.83	1561.14
415.02	1619.65
415.22	1589.22
415.41	1645.40
415.60	1577.52
415.79	1671.14
415.98	1703.91
416.17	1629.01
416.36	1636.03
416.55	1694.55
416.74	1729.66
416.93	1755.40
417.12	1715.61
417.31	1715.61
417.50	1727.32
417.69	1809.23
417.88	1799.87
418.07	1727.32
418.26	1757.74
418.45	1830.30
418.64	1942.64
418.83	1856.04
419.02	1893.49
419.21	1827.96
419.39	1834.98
419.58	1774.13
419.77	1839.66
419.96	1886.47
420.15	1870.09
420.34	1834.98
420.53	1881.79
420.72	1870.09
420.91	1912.22
421.10	1928.60
421.29	1949.67
421.48	1823.28
421.67	1968.39
421.86	1923.92
422.05	1991.80
422.24	2073.71
422.43	2040.95
422.61	1991.80
422.80	2150.95
422.99	2062.01
423.18	2043.29
423.37	2160.31
423.56	2064.35
423.75	2050.31
423.94	2076.06
424.13	1966.05
424.32	2059.67
424.50	2129.89
424.69	2162.66
424.88	2139.25
425.07	2125.21
425.26	1998.82
425.45	2174.36
425.64	2125.21
425.83	2083.08
426.01	2083.08
426.20	2221.17
426.39	2047.97
426.58	2181.38
426.77	2200.10
426.96	2127.55
427.15	2113.50
427.33	2202.44
427.52	2153.29
427.71	2165.00
427.90	2267.98
428.09	2172.02
428.28	2284.36
428.46	2342.88
428.65	2258.62
428.84	2349.90
429.03	2375.64
429.22	2160.31
429.40	2345.22
429.59	2356.92
429.78	2289.04
429.97	2099.46
430.16	2157.97
430.34	2385.01
430.53	2424.80
430.72	2368.62
430.91	2328.83
431.10	2363.94
431.28	2434.16
431.47	2392.03
431.66	2464.58
431.85	2317.13
432.03	2469.27
432.22	2452.88
432.41	2483.31
432.60	2424.80
432.79	2487.99
432.97	2537.14
433.16	2490.33
433.35	2593.31
433.54	2520.76
433.72	2579.27
433.91	2466.92
434.10	2513.74
434.28	2504.37
434.47	2642.46
434.66	2628.42
434.85	2733.75
435.03	2654.17
435.22	2818.00
435.41	2792.26
435.59	2686.94
435.78	2642.46
435.97	2658.85
436.16	2670.55
436.34	2757.15
436.53	2761.83
436.72	2745.45
436.90	2778.22
437.09	2771.19
437.28	2787.58
437.46	2785.24
437.65	2768.85
437.84	2818.00
438.02	2759.49
438.21	2806.30
438.40	2815.66
438.58	2970.14
438.77	2956.10
438.96	2995.89
439.14	2988.86
439.33	3014.61
439.52	3105.89
439.70	3045.04
439.89	3143.34
440.08	3129.30
440.26	2979.50
440.45	3052.06
440.63	3138.66
440.82	3197.17
441.01	3115.25
441.19	3173.77
441.38	3272.07
441.57	3239.30
441.75	3258.03
441.94	3318.88
442.12	3370.37
442.31	3386.76
442.50	3302.50
442.68	3466.33
442.87	3499.10
443.05	3403.14
443.24	3449.95
443.43	3414.84
443.61	3564.64
443.80	3501.44
443.98	3342.28
444.17	3485.06
444.35	3494.42
444.54	3627.83
444.73	3379.73
444.91	3499.10
445.10	3482.72
445.28	3492.08
445.47	3468.67
445.65	3520.17
445.84	3566.98
446.02	3585.70
446.21	3625.49
446.39	3581.02
446.58	3698.05
446.77	3658.26
446.95	3550.59
447.14	3510.80
447.32	3791.67
447.51	3524.85
447.69	3595.06
447.88	3653.58
448.06	3667.62
448.25	3566.98
448.43	3552.93
448.62	3709.75
448.80	3611.45
448.99	3529.53
449.17	3786.99
449.36	3590.38
449.54	3632.51
449.73	3735.50
449.91	3829.12
450.10	3789.33
450.28	3824.44
450.46	3843.16
450.65	3833.80
450.83	3693.37
451.02	3838.48
451.20	3880.61
451.39	3894.65
451.57	3901.67
451.76	3763.58
451.94	3932.10
452.13	4009.34
452.31	3932.10
452.49	4037.42
452.68	3985.93
452.86	3953.16
453.05	4109.98
453.23	4182.54
453.42	3985.93
453.60	3918.06
453.78	4063.17
453.97	3974.23
454.15	4030.40
454.34	3847.84
454.52	4138.07
454.70	4098.28
454.89	4063.17
455.07	4283.18
455.26	4107.64
455.44	4238.71
455.62	4173.18
455.81	4273.82
455.99	4273.82
456.17	4180.20
456.36	4219.99
456.54	4322.97
456.73	4365.10
456.91	4395.53
457.09	4428.29
457.28	4447.02
457.46	4381.48
457.64	4545.32
457.83	4526.60
458.01	4339.35
458.19	4629.58
458.38	4519.57
458.56	4552.34
458.74	4416.59
458.93	4519.57
459.11	4533.62
459.29	4547.66
459.48	4643.62
459.66	4634.26
459.84	4692.77
460.03	4767.67
460.21	4683.41
460.39	4725.54
460.57	4664.69
460.76	4727.88
460.94	4746.61
461.12	4723.20
461.31	4662.35
461.49	4716.18
461.67	4816.82
461.85	4898.74
462.04	4901.08
462.22	5069.60
462.40	4863.63
462.59	4716.18
462.77	4873.00
462.95	4992.36
463.13	4770.01
463.32	5006.41
463.50	4961.94
463.68	5013.43
463.86	4985.34
464.05	5006.41
464.23	4821.50
464.41	5041.51
464.59	5104.71
464.78	5121.09
464.96	5039.17
465.14	5039.17
465.32	5200.67
465.50	5151.52
465.69	5249.82
465.87	5095.35
466.05	5275.57
466.23	5085.98
466.41	5200.67
466.60	5535.37
466.78	5238.12
466.96	5137.48
467.14	5205.35
467.32	5249.82
467.51	5345.78
467.69	5160.88
467.87	5305.99
468.05	5233.44
468.23	5413.66
468.41	5348.12
468.60	5331.74
468.78	5416.00
468.96	5357.49
469.14	5490.90
469.32	5343.44
469.50	5270.89
469.69	5507.28
469.87	5558.77
470.05	5563.45
470.23	5502.60
470.41	5486.22
470.59	5596.22
470.77	5514.30
470.95	5596.22
471.14	5703.89
471.32	5640.69
471.50	5774.10
471.68	5703.89
471.86	5682.82
472.04	5923.90
472.22	5884.11
472.40	5781.12
472.58	5806.87
472.77	5937.94
472.95	6164.97
473.13	6045.60
473.31	5951.98
473.49	6017.52
473.67	5799.85
473.85	6078.37
474.03	6225.82
474.21	6127.52
474.39	6214.12
474.57	6267.95
474.75	6193.06
474.93	6401.37
475.12	6370.94
475.30	6314.77
475.48	6127.52
475.66	6588.61
475.84	6487.96
476.02	6499.67
476.20	6509.03
476.38	6736.06
476.56	6455.20
476.74	6817.98
476.92	6743.08
477.10	6754.79
477.28	6817.98
477.46	6927.99
477.64	6890.54
477.82	6939.69
478.00	7110.55
478.18	7190.13
478.36	7311.83
478.54	7229.91
478.72	7396.09
478.90	7243.96
479.08	7318.86
479.26	7382.05
479.44	7480.35
479.62	7510.78
479.80	7747.17
479.98	7674.62
480.16	7758.88
480.34	7679.30
480.52	7754.19
480.70	7971.86
480.88	7681.64
481.06	7775.26
481.24	7922.71
481.41	7899.31
481.59	8081.87
481.77	8205.92
481.95	8224.64
482.13	8264.43
482.31	8287.84
482.49	8463.38
482.67	8627.21
482.85	8601.47
483.03	8667.00
483.21	8631.90
483.39	8933.82
483.57	8723.18
483.74	8812.12
483.92	8938.51
484.10	8812.12
484.28	9121.07
484.46	9071.92
484.64	9357.46
484.82	9132.77
485.00	9390.23
485.18	9533.00
485.35	9577.47
485.53	9633.64
485.71	9741.31
485.89	9804.50
486.07	9717.90
486.25	9877.06
486.43	10064.30
486.61	10265.59
486.78	10153.24
486.96	10162.61
487.14	10401.34
487.32	10303.04
487.50	10429.43
487.68	10523.05
487.85	10684.55
488.03	10628.37
488.21	10899.87
488.39	10920.94
488.57	11044.99
488.75	11080.10
488.92	11108.18
489.10	11274.36
489.28	11363.30
489.46	11248.61
489.64	11367.98
489.81	11503.73
489.99	11335.21
490.17	11747.15
490.35	11791.62
490.53	11810.34
490.70	11875.88
490.88	11955.46
491.06	12327.60
491.24	12224.62
491.41	12058.44
491.59	12351.01
491.77	12521.87
491.95	12634.21
492.13	12589.74
492.30	12477.40
492.48	12578.04
492.66	12688.04
492.84	12784.01
493.01	12727.83
493.19	13081.25
493.37	13062.53
493.54	13109.34
493.72	13224.03
493.90	13097.64
494.08	13411.27
494.25	13661.71
494.43	13301.26
494.61	13652.34
494.79	13767.03
494.96	13631.28
495.14	13870.01
495.32	14017.47
495.49	13914.48
495.67	14008.11
495.85	14010.45
496.02	14459.83
496.20	14670.48
496.38	14324.08
496.55	14221.10
496.73	14431.74
496.91	14504.30
497.09	14953.68
497.26	14801.55
497.44	14562.81
497.62	14799.21
497.79	14920.92
497.97	15124.54
498.14	15220.50
498.32	15295.40
498.50	15241.57
498.67	15204.12
498.85	15580.95
499.03	15475.62
499.20	15229.87
499.38	15534.14
499.56	15651.16
499.73	15700.31
499.91	16044.37
500.08	15871.17
500.26	15861.81
500.44	15817.34
500.61	15716.70
500.79	16084.16
500.97	16161.40
501.14	16086.50
501.32	16360.34
501.49	16240.98
501.67	16182.46
501.84	16482.05
502.02	16271.40
502.20	16304.17
502.37	16388.43
502.55	16526.52
502.72	16528.86
502.90	16723.13
503.07	16711.42
503.25	16814.41
503.43	16580.36
503.60	17064.85
503.78	17055.48
503.95	16987.61
504.13	17095.27
504.30	16896.33
504.48	17277.83
504.65	16957.18
504.83	17392.52
505.01	17664.02
505.18	17200.60
505.36	17614.87
505.53	17343.37
505.71	17308.26
505.88	17572.74
506.06	17638.28
506.23	17933.18
506.41	18015.10
506.58	18036.17
506.76	18141.49
506.93	17703.81
507.11	17816.16
507.28	18066.60
507.46	17912.12
507.63	18258.52
507.81	18209.37
507.98	18253.84
508.16	17998.72
508.33	18260.86
508.50	18429.38
508.68	18394.27
508.85	18686.84
509.03	18263.20
509.20	18661.09
509.38	18878.76
509.55	18941.96
509.73	18792.16
509.90	18735.99
510.08	19007.49
510.25	19112.81
510.42	18855.36
510.60	19066.00
510.77	19068.34
510.95	19058.98
511.12	19143.24
511.30	19253.25
511.47	19426.45
511.64	19407.72
511.82	19466.24
511.99	19646.46
512.17	19686.25
512.34	19784.55
512.51	19681.56
512.69	19683.91
512.86	19721.35
513.04	19927.32
513.21	19913.28
513.38	19826.68
513.56	20130.95
513.73	19901.58
513.90	20264.36
514.08	20308.83
514.25	20044.35
514.43	20290.10
514.60	20322.87
514.77	20287.76
514.95	20524.16
515.12	20231.59
515.29	20357.98
515.47	20713.74
515.64	20725.44
515.81	20631.82
515.99	20688.00
516.16	21010.99
516.33	20893.96
516.51	21060.14
516.68	20753.53
516.85	21062.48
517.03	21008.65
517.20	20603.74
517.37	21149.08
517.54	21062.48
517.72	21018.01
517.89	21352.71
518.06	21324.62
518.24	21212.28
518.41	21331.64
518.58	21523.57
518.75	21209.93
518.93	21397.18
519.10	21427.60
519.27	21284.83
519.45	21254.40
519.62	21420.58
519.79	21467.39
519.96	21715.49
520.14	21626.55
520.31	22040.82
520.48	21970.61
520.65	22094.66
520.83	21781.03
521.00	21958.91
521.17	22012.74
521.34	21844.22
521.52	22054.87
521.69	22326.37
521.86	22155.51
522.03	22094.66
522.20	22476.16
522.38	22616.60
522.55	22455.10
522.72	22253.81
522.89	22757.03
523.07	22583.83
523.24	22609.58
523.41	23002.78
523.58	22693.83
523.75	23091.73
523.92	22530.00
524.10	22787.46
524.27	23007.47
524.44	23201.73
524.61	23201.73
524.78	23129.17
524.96	23274.29
525.13	22920.87
525.30	23447.49
525.47	23403.02
525.64	23445.15
525.81	23388.97
525.98	23562.17
526.16	23267.27
526.33	23094.07
526.50	23571.54
526.67	23536.43
526.84	23496.64
527.01	23662.82
527.18	23683.88
527.36	23812.61
527.53	24126.24
527.70	24006.87
527.87	23967.09
528.04	23559.83
528.21	23838.36
528.38	24084.11
528.55	23758.78
528.72	23931.98
528.89	24002.19
529.07	24065.39
529.24	24070.07
529.41	24070.07
529.58	24154.33
529.75	24079.43
529.92	24271.36
530.09	24231.57
530.26	24327.53
530.43	24465.62
530.60	24400.08
530.77	24411.79
530.94	24364.98
531.11	24343.91
531.28	24687.97
531.46	24617.75
531.63	24355.61
531.80	24989.90
531.97	24734.78
532.14	24896.28
532.31	24744.14
532.48	24877.55
532.65	24858.83
532.82	24535.84
532.99	24814.36
533.16	24767.55
533.33	24788.61
533.50	25186.50
533.67	25078.84
533.84	24891.60
534.01	25153.74
534.18	25200.55
534.35	25296.51
534.52	25490.77
534.69	25200.55
534.86	25319.92
535.03	25205.23
535.20	25462.69
535.37	25399.49
535.54	25626.53
535.71	25355.02
535.88	25287.15
536.05	25401.83
536.22	25532.90
536.38	25797.38
536.55	25703.76
536.72	25493.12
536.89	25848.88
537.06	25600.78
537.23	25851.22
537.40	25949.52
537.57	25502.48
537.74	25729.51
537.91	26192.94
538.08	26324.01
538.25	26092.29
538.42	26026.76
538.59	26024.42
538.75	26260.81
538.92	26005.69
539.09	26338.05
539.26	25902.71
539.43	26253.79
539.60	26345.07
539.77	26216.34
539.94	26223.36
540.11	25989.31
540.28	26291.24
540.44	26216.34
540.61	26508.91
540.78	26150.81
540.95	26319.32
541.12	26532.31
541.29	26443.37
541.46	26473.80
541.62	26618.91
541.79	26384.86
541.96	26228.04
542.13	26649.34
542.30	26778.07
542.47	26771.05
542.63	26836.58
542.80	26567.42
542.97	26911.48
543.14	27126.81
543.31	26925.52
543.48	27292.99
543.64	27180.64
543.81	27491.93
543.98	27564.49
544.15	27604.28
544.32	27384.27
544.48	27695.56
544.65	27271.92
544.82	27054.25
544.99	27140.85
545.16	27190.00
545.32	27431.08
545.49	27627.68
545.66	27587.89
545.83	27351.50
546.00	27541.08
546.16	27611.30
546.33	27171.28
546.50	27498.95
546.67	27814.93
546.83	27391.29
547.00	27800.88
547.17	27550.45
547.34	27674.49
547.50	27974.08
547.67	27985.79
547.84	27398.31
548.00	28254.95
548.17	28264.31
548.34	27873.44
548.51	27978.76
548.67	28414.10
548.84	28355.59
549.01	27936.63
549.18	28327.50
549.34	27889.82
549.51	28388.36
549.68	28175.37
549.84	28095.79
550.01	28212.82
550.18	28013.87
550.34	28222.18
550.51	28467.94
550.68	28271.33
550.84	28477.30
551.01	28325.16
551.18	28240.90
551.34	28477.30
551.51	28280.69
551.68	28325.16
551.84	28725.39
552.01	28657.52
552.18	28774.55
552.34	28360.27
552.51	28519.43
552.68	28786.25
552.84	28519.43
553.01	28753.48
553.18	28889.23
553.34	28891.57
553.51	28830.72
553.67	29001.58
553.84	28889.23
554.01	28720.71
554.17	28868.17
554.34	29221.59
554.51	29046.05
554.67	29046.05
554.84	29020.30
555.00	28989.88
555.17	28929.02
555.33	28645.82
555.50	28875.19
555.67	29109.24
555.83	28943.06
556.00	28954.77
556.16	29319.89
556.33	29099.88
556.50	29017.96
556.66	29195.84
556.83	29266.06
556.99	29383.09
557.16	29404.15
557.32	29518.84
557.49	29413.51
557.65	28826.04
557.82	29427.56
557.98	29273.08
558.15	29298.83
558.32	29355.00
558.48	29696.72
558.65	29528.20
558.81	29259.04
558.98	29233.29
559.14	29579.69
559.31	29322.23
559.47	29099.88
559.64	29563.31
559.80	29476.71
559.97	29649.91
560.13	29235.63
560.30	29642.88
560.46	29635.86
560.63	29855.87
560.79	29734.17
560.96	29628.84
561.12	29675.65
561.29	29528.20
561.45	29523.52
561.61	29867.58
561.78	29991.62
561.94	29795.02
562.11	30008.01
562.27	29979.92
562.44	29858.21
562.60	29696.72
562.77	29673.31
562.93	30122.69
563.10	30462.07
563.26	29872.26
563.42	30061.84
563.59	29799.70
563.75	30080.56
563.92	30146.10
564.08	29933.11
564.24	29844.17
564.41	29965.88
564.57	29933.11
564.74	29956.52
564.90	30125.04
565.07	29722.46
565.23	30534.63
565.39	29916.73
565.56	30118.01
565.72	30071.20
565.88	30424.62
566.05	29841.83
566.21	30057.16
566.38	30242.06
566.54	30244.40
566.70	30396.54
566.87	30253.76
567.03	30312.28
567.19	30373.13
567.36	30480.80
567.52	30129.72
567.68	30265.47
567.85	30136.74
568.01	30387.18
568.17	30258.45
568.34	30146.10
568.50	30483.14
568.66	30328.66
568.83	30199.93
568.99	30499.52
569.15	30319.30
569.32	30235.04
569.48	30188.23
569.64	30295.89
569.81	29940.13
569.97	30228.02
570.13	30321.64
570.30	30153.12
570.46	30464.41
570.62	30314.62
570.78	30185.89
570.95	30022.05
571.11	30539.31
571.27	30593.14
571.43	30162.48
571.60	30611.87
571.76	30508.88
571.92	30700.81
572.09	30213.98
572.25	30794.43
572.41	30478.46
572.57	30705.49
572.74	31014.44
572.90	30490.16
573.06	30396.54
573.22	30499.52
573.38	30593.14
573.55	30698.47
573.71	31145.51
573.87	30972.31
574.03	30520.59
574.20	30426.96
574.36	30335.68
574.52	30672.72
574.68	30661.02
574.84	30958.27
575.01	30670.38
575.17	30993.37
575.33	30803.79
575.49	30469.09
575.65	30492.50
575.82	30602.50
575.98	30672.72
576.14	30909.11
576.30	30490.16
576.46	30614.21
576.62	30579.10
576.79	30906.77
576.95	30499.52
577.11	30841.24
577.27	30749.96
577.43	30801.45
577.59	30721.87
577.75	30726.55
577.92	30408.24
578.08	30068.86
578.24	30721.87
578.40	30520.59
578.56	30836.56
578.72	30988.69
578.88	30869.33
579.04	31072.95
579.21	30663.36
579.37	30855.28
579.53	30822.51
579.69	30464.41
579.85	31138.49
580.01	30654.00
580.17	30543.99
580.33	30499.52
580.49	31131.47
580.65	30988.69
580.82	30892.73
580.98	30738.26
581.14	30733.57
581.30	30794.43
581.46	31365.52
581.62	30991.03
581.78	30574.42
581.94	30820.17
582.10	30515.90
582.26	30944.22
582.42	30749.96
582.58	31070.61
582.74	30838.90
582.90	31096.36
583.06	31098.70
583.22	30639.95
583.38	30586.12
583.54	30728.89
583.70	30831.88
583.86	30735.92
584.02	30881.03
584.18	31442.76
584.34	31484.89
584.50	31079.97
584.66	30904.43
584.82	31089.34
584.98	30764.00
585.14	31094.02
585.30	30731.23
585.46	30714.85
585.62	30817.83
585.78	31267.22
585.94	30902.09
586.10	31255.51
586.26	30918.48
586.42	31171.25
586.58	31220.41
586.74	30824.86
586.90	30923.16
587.06	30581.44
587.22	31171.25
587.38	30998.06
587.54	31524.68
587.70	31435.74
587.86	31136.15
588.02	31138.49
588.18	31173.60
588.34	30946.56
588.49	31007.42
588.65	30878.69
588.81	30717.19
588.97	31358.50
589.13	30969.97
589.29	30998.06
589.45	31058.91
589.61	31232.11
589.77	31201.68
589.93	31592.55
590.08	31164.23
590.24	31515.31
590.40	31349.14
590.56	31740.00
590.72	31117.42
590.88	31082.31
591.04	30810.81
591.20	32112.15
591.35	31627.66
591.51	31655.75
591.67	31384.24
591.83	31360.84
