SpectraSuite Data File
++++++++++++++++++++++++++++++++++++
Date: Fri Oct 18 13:58:32 GMT-05:00 2013
User: bianchi
Dark Spectrum Present: No
Reference Spectrum Present: No
Number of Sampled Component Spectra: 1
Spectrometers: USB2+H05261
Integration Time (usec): 50000 (USB2+H05261)
Spectra Averaged: 1 (USB2+H05261)
Boxcar Smoothing: 0 (USB2+H05261)
Correct for Electrical Dark: No (USB2+H05261)
Strobe/Lamp Enabled: No (USB2+H05261)
Correct for Detector Non-linearity: No (USB2+H05261)
Correct for Stray Light: No (USB2+H05261)
Number of Pixels in Processed Spectrum: 2048
>>>>>Begin Processed Spectral Data<<<<<
365.73	28.09
365.92	28.09
366.12	28.09
366.32	0.00
366.52	0.00
366.72	0.00
366.91	0.00
367.11	0.00
367.31	0.00
367.51	0.00
367.70	0.00
367.90	0.00
368.10	0.00
368.30	0.00
368.49	0.00
368.69	0.00
368.89	0.00
369.09	0.00
369.28	0.00
369.48	0.00
369.68	0.00
369.87	0.00
370.07	0.00
370.27	0.00
370.47	49.15
370.66	42.13
370.86	131.07
371.06	112.35
371.25	98.30
371.45	126.39
371.65	168.52
371.84	121.71
372.04	112.35
372.24	107.66
372.44	215.33
372.63	191.92
372.83	259.80
373.03	210.65
373.22	215.33
373.42	208.31
373.62	166.18
373.81	222.35
374.01	241.08
374.21	234.05
374.40	212.99
374.60	241.08
374.79	241.08
374.99	180.22
375.19	227.03
375.38	248.10
375.58	220.01
375.78	250.44
375.97	304.27
376.17	285.55
376.37	191.92
376.56	227.03
376.76	250.44
376.95	208.31
377.15	278.52
377.35	280.86
377.54	278.52
377.74	255.12
377.93	294.91
378.13	294.91
378.33	315.97
378.52	241.08
378.72	290.23
378.91	236.39
379.11	266.82
379.31	266.82
379.50	334.70
379.70	243.42
379.89	285.55
380.09	187.24
380.28	280.86
380.48	301.93
380.68	252.78
380.87	273.84
381.07	325.33
381.26	304.27
381.46	344.06
381.65	365.12
381.85	322.99
382.04	369.80
382.24	313.63
382.43	276.18
382.63	257.46
382.83	383.85
383.02	353.42
383.22	353.42
383.41	278.52
383.61	404.91
383.80	322.99
384.00	358.10
384.19	339.38
384.39	407.25
384.58	362.78
384.78	386.19
384.97	362.78
385.17	425.98
385.36	348.74
385.56	362.78
385.75	383.85
385.95	376.83
386.14	397.89
386.34	381.51
386.53	421.30
386.72	400.23
386.92	435.34
387.11	381.51
387.31	463.43
387.50	435.34
387.70	404.91
387.89	449.38
388.09	367.46
388.28	425.98
388.48	430.66
388.67	470.45
388.86	458.74
389.06	437.68
389.25	552.37
389.45	444.70
389.64	423.64
389.84	500.87
390.03	507.90
390.22	503.22
390.42	451.72
390.61	496.19
390.81	400.23
391.00	433.00
391.19	559.39
391.39	531.30
391.58	540.66
391.78	528.96
391.97	440.02
392.16	475.13
392.36	599.18
392.55	573.43
392.75	526.62
392.94	582.79
393.13	524.28
393.33	444.70
393.52	613.22
393.71	627.26
393.91	547.69
394.10	559.39
394.29	603.86
394.49	554.71
394.68	528.96
394.88	484.49
395.07	575.77
395.26	535.98
395.46	510.24
395.65	606.20
395.84	568.75
396.04	620.24
396.23	596.84
396.42	622.58
396.62	669.39
396.81	599.18
397.00	627.26
397.19	594.50
397.39	645.99
397.58	636.63
397.77	578.11
397.97	634.29
398.16	758.33
398.35	725.57
398.55	688.12
398.74	692.80
398.93	653.01
399.12	617.90
399.32	739.61
399.51	697.48
399.70	823.87
399.90	765.36
400.09	627.26
400.28	645.99
400.47	744.29
400.67	751.31
400.86	760.67
401.05	772.38
401.24	781.74
401.44	760.67
401.63	837.91
401.82	725.57
402.01	798.12
402.21	835.57
402.40	858.98
402.59	837.91
402.78	861.32
402.97	812.17
403.17	823.87
403.36	891.74
403.55	882.38
403.74	936.21
403.93	943.24
404.13	950.26
404.32	884.72
404.51	959.62
404.70	990.05
404.89	882.38
405.09	973.66
405.28	999.41
405.47	938.55
405.66	889.40
405.85	968.98
406.05	915.15
406.24	940.90
406.43	1036.86
406.62	1055.58
406.81	1104.73
407.00	1125.80
407.20	1025.15
407.39	1029.84
407.58	980.68
407.77	947.92
407.96	1013.45
408.15	1090.69
408.34	1071.97
408.54	1132.82
408.73	1078.99
408.92	1097.71
409.11	1083.67
409.30	1172.61
409.49	1102.39
409.68	1186.65
409.87	1135.16
410.07	1102.39
410.26	1076.65
410.45	1163.25
410.64	1184.31
410.83	1219.42
411.02	1238.14
411.21	1263.89
411.40	1299.00
411.59	1200.69
411.78	1191.33
411.98	1254.53
412.17	1280.27
412.36	1261.55
412.55	1336.45
412.74	1324.74
412.93	1380.92
413.12	1327.08
413.31	1401.98
413.50	1416.02
413.69	1345.81
413.88	1448.79
414.07	1406.66
414.26	1397.30
414.45	1392.62
414.64	1434.75
414.83	1458.15
415.02	1523.69
415.22	1427.73
415.41	1507.30
415.60	1598.59
415.79	1582.20
415.98	1591.56
416.17	1638.38
416.36	1547.09
416.55	1453.47
416.74	1621.99
416.93	1607.95
417.12	1650.08
417.31	1607.95
417.50	1706.25
417.69	1689.87
417.88	1816.26
418.07	1678.16
418.26	1811.57
418.45	1746.04
418.64	1809.23
418.83	1825.62
419.02	1706.25
419.21	1851.36
419.39	1729.66
419.58	1799.87
419.77	1806.89
419.96	1760.08
420.15	1849.02
420.34	1863.07
420.53	1881.79
420.72	1935.62
420.91	1891.15
421.10	1980.09
421.29	1893.49
421.48	1902.86
421.67	1898.17
421.86	1893.49
422.05	2019.88
422.24	1813.92
422.43	1895.83
422.61	1886.47
422.80	1973.07
422.99	2005.84
423.18	2040.95
423.37	1966.05
423.56	2073.71
423.75	1984.77
423.94	1973.07
424.13	1839.66
424.32	1923.92
424.50	2066.69
424.69	1996.48
424.88	2029.24
425.07	1975.41
425.26	2036.27
425.45	2008.18
425.64	2019.88
425.83	1987.11
426.01	2012.86
426.20	2047.97
426.39	2017.54
426.58	2022.22
426.77	2143.93
426.96	2017.54
427.15	2054.99
427.33	2127.55
427.52	2104.14
427.71	2221.17
427.90	2284.36
428.09	2188.40
428.28	2122.87
428.46	2085.42
428.65	2092.44
428.84	2148.61
429.03	2275.00
429.22	2169.68
429.40	2176.70
429.59	2267.98
429.78	2162.66
429.97	2050.31
430.16	2120.53
430.34	2317.13
430.53	2354.58
430.72	2256.28
430.91	2157.97
431.10	2242.23
431.28	2298.41
431.47	2279.68
431.66	2392.03
431.85	2394.37
432.03	2389.69
432.22	2363.94
432.41	2431.82
432.60	2497.35
432.79	2459.90
432.97	2495.01
433.16	2520.76
433.35	2352.24
433.54	2487.99
433.72	2415.43
433.91	2361.60
434.10	2471.61
434.28	2464.58
434.47	2586.29
434.66	2438.84
434.85	2637.78
435.03	2572.25
435.22	2523.10
435.41	2698.64
435.59	2565.23
435.78	2726.72
435.97	2605.02
436.16	2700.98
436.34	2595.65
436.53	2759.49
436.72	2689.28
436.90	2684.59
437.09	2747.79
437.28	2689.28
437.46	2656.51
437.65	2832.05
437.84	2864.82
438.02	2839.07
438.21	2750.13
438.40	2719.70
438.58	2867.16
438.77	2832.05
438.96	2869.50
439.14	3028.65
439.33	2768.85
439.52	2885.88
439.70	2892.90
439.89	3019.29
440.08	2899.92
440.26	3045.04
440.45	3040.36
440.63	2911.63
440.82	3089.51
441.01	3054.40
441.19	3136.32
441.38	3253.34
441.57	3080.14
441.75	3131.64
441.94	3253.34
442.12	3208.87
442.31	3251.00
442.50	3279.09
442.68	3302.50
442.87	3208.87
443.05	3199.51
443.24	3215.90
443.43	3400.80
443.61	3323.56
443.80	3468.67
443.98	3290.79
444.17	3218.24
444.35	3386.76
444.54	3466.33
444.73	3480.38
444.91	3358.67
445.10	3438.25
445.28	3517.83
445.47	3449.95
445.65	3433.57
445.84	3543.57
446.02	3463.99
446.21	3370.37
446.39	3400.80
446.58	3485.06
446.77	3466.33
446.95	3330.58
447.14	3412.50
447.32	3442.93
447.51	3391.44
447.69	3595.06
447.88	3445.27
448.06	3459.31
448.25	3403.14
448.43	3543.57
448.62	3403.14
448.80	3583.36
448.99	3550.59
449.17	3623.15
449.36	3501.44
449.54	3510.80
449.73	3772.94
449.91	3740.18
450.10	3623.15
450.28	3679.32
450.46	3648.90
450.65	3566.98
450.83	3714.43
451.02	3541.23
451.20	3695.71
451.39	3676.98
451.57	3808.05
451.76	3728.47
451.94	3721.45
452.13	3948.48
452.31	3735.50
452.49	3705.07
452.68	3929.76
452.86	3707.41
453.05	3967.21
453.23	3941.46
453.42	3871.25
453.60	3707.41
453.78	3763.58
453.97	3889.97
454.15	3786.99
454.34	3918.06
454.52	3871.25
454.70	3969.55
454.89	3950.82
455.07	3967.21
455.26	3983.59
455.44	4011.68
455.62	4053.81
455.81	4168.49
455.99	4067.85
456.17	4205.94
456.36	4156.79
456.54	4159.13
456.73	4112.32
456.91	4222.33
457.09	4241.05
457.28	4512.55
457.46	4395.53
457.64	4276.16
457.83	4280.84
458.01	4053.81
458.19	4346.37
458.38	4168.49
458.56	4463.40
458.74	4334.67
458.93	4447.02
459.11	4444.68
459.29	4325.31
459.48	4418.93
459.66	4599.15
459.84	4458.72
460.03	4620.22
460.21	4594.47
460.39	4587.45
460.57	4564.04
460.76	4329.99
460.94	4603.83
461.12	4545.32
461.31	4528.94
461.49	4557.02
461.67	4596.81
461.85	4631.92
462.04	4718.52
462.22	4748.95
462.40	4762.99
462.59	4575.75
462.77	4704.48
462.95	4671.71
463.13	4706.82
463.32	4877.68
463.50	4667.03
463.68	4671.71
463.86	4819.16
464.05	4695.11
464.23	4744.27
464.41	4828.53
464.59	4762.99
464.78	4887.04
464.96	4873.00
465.14	4674.05
465.32	5022.79
465.50	5041.51
465.69	4978.32
465.87	5015.77
466.05	4835.55
466.23	4901.08
466.41	4966.62
466.60	5123.43
466.78	4938.53
466.96	4943.21
467.14	5027.47
467.32	5004.07
467.51	5022.79
467.69	4865.97
467.87	5055.56
468.05	5226.42
468.23	4924.49
468.41	5102.37
468.60	5181.95
468.78	5289.61
468.96	5090.67
469.14	5181.95
469.32	5411.32
469.50	5146.84
469.69	5310.68
469.87	5247.48
470.05	5378.55
470.23	5394.93
470.41	5324.72
470.59	5523.66
470.77	5406.64
470.95	5418.34
471.14	5518.98
471.32	5317.70
471.50	5364.51
471.68	5448.77
471.86	5493.24
472.04	5521.32
472.22	5769.42
472.40	5554.09
472.58	5703.89
472.77	5554.09
472.95	5781.12
473.13	5989.43
473.31	5767.08
473.49	5612.60
473.67	5734.31
473.85	5785.80
474.03	6127.52
474.21	5975.39
474.39	5970.71
474.57	5884.11
474.75	6160.29
474.93	6134.54
475.12	6106.46
475.30	6101.78
475.48	6118.16
475.66	6190.72
475.84	6040.92
476.02	6326.47
476.20	6279.66
476.38	6239.87
476.56	6338.17
476.74	6427.11
476.92	6595.63
477.10	6363.92
477.28	6696.27
477.46	6637.76
477.64	6726.70
477.82	6658.82
478.00	6775.85
478.18	6794.58
478.36	6925.65
478.54	6883.52
478.72	7108.21
478.90	7091.82
479.08	6991.18
479.26	7110.55
479.44	7054.37
479.62	7243.96
479.80	7293.11
479.98	7307.15
480.16	7496.74
480.34	7393.75
480.52	7452.27
480.70	7719.09
480.88	7470.99
481.06	7676.96
481.24	7618.44
481.41	7595.04
481.59	7974.21
481.77	7824.41
481.95	7964.84
482.13	7896.97
482.31	8044.42
482.49	8124.00
482.67	8152.09
482.85	8308.90
483.03	8407.20
483.21	8397.84
483.39	8571.04
483.57	8549.98
483.74	8734.88
483.92	8613.17
484.10	8517.21
484.28	8758.28
484.46	8601.47
484.64	9081.28
484.82	8882.33
485.00	9048.51
485.18	9298.95
485.35	9123.41
485.53	9151.49
485.71	9277.88
485.89	9525.98
486.07	9329.38
486.25	9362.14
486.43	9413.63
486.61	9687.48
486.78	9713.22
486.96	9783.44
487.14	10232.82
487.32	9940.26
487.50	9877.06
487.68	10083.03
487.85	9895.78
488.03	10246.87
488.21	10516.03
488.39	10527.73
488.57	10354.53
488.75	10375.59
488.92	10611.99
489.10	10714.97
489.28	10792.21
489.46	10822.64
489.64	10888.17
489.81	11318.83
489.99	11222.87
490.17	11173.72
490.35	11407.77
490.53	11339.90
490.70	11176.06
490.88	11407.77
491.06	11735.45
491.24	11503.73
491.41	11604.38
491.59	11875.88
491.77	11854.81
491.95	12081.85
492.13	11777.58
492.30	12257.39
492.48	12262.07
492.66	12145.04
492.84	12376.75
493.01	12290.15
493.19	12259.73
493.37	12442.29
493.54	12519.53
493.72	12659.96
493.90	12856.56
494.08	12910.40
494.25	12891.67
494.43	12903.37
494.61	13090.62
494.79	13249.77
494.96	13071.89
495.14	13289.56
495.32	13341.05
495.49	13432.33
495.67	13458.08
495.85	13671.07
496.02	13429.99
496.20	13654.69
496.38	13968.32
496.55	13827.88
496.73	14120.45
496.91	13666.39
497.09	14003.43
497.26	14300.67
497.44	14141.52
497.62	14118.11
497.79	14413.02
497.97	14387.27
498.14	14478.55
498.32	14719.63
498.50	14415.36
498.67	14822.61
498.85	14780.48
499.03	14829.63
499.20	14792.19
499.38	14899.85
499.56	14984.11
499.73	15133.90
499.91	15133.90
500.08	15466.26
500.26	15194.76
500.44	15136.24
500.61	15236.89
500.79	15407.75
500.97	15564.56
501.14	15852.45
501.32	15510.73
501.49	15777.55
501.67	15515.41
501.84	15754.15
502.02	15829.04
502.20	15847.77
502.37	15829.04
502.55	16205.87
502.72	16105.23
502.90	15990.54
503.07	15686.27
503.25	16032.67
503.43	15875.85
503.60	16266.72
503.78	16102.89
503.95	15934.37
504.13	16493.76
504.30	16547.59
504.48	16374.39
504.65	16526.52
504.83	16809.73
505.01	16662.27
505.18	16926.75
505.36	17240.39
505.53	16711.42
505.71	16783.98
505.88	16823.77
506.06	16706.74
506.23	17270.81
506.41	16879.94
506.58	17048.46
506.76	17231.02
506.93	17429.97
507.11	17181.87
507.28	17336.35
507.46	17479.12
507.63	17392.52
507.81	17832.54
507.98	17530.61
508.16	17539.97
508.33	17626.57
508.50	17568.06
508.68	17816.16
508.85	17778.71
509.03	17757.64
509.20	17919.14
509.38	18188.30
509.55	18136.81
509.73	18216.39
509.90	17968.29
510.08	18036.17
510.25	18115.75
510.42	18361.50
510.60	18310.01
510.77	18293.63
510.95	18405.97
511.12	18515.98
511.30	18394.27
511.47	18380.23
511.64	18677.48
511.82	19009.83
511.99	18719.60
512.17	18841.31
512.34	18740.67
512.51	19197.07
512.69	18902.17
512.86	19101.11
513.04	19042.60
513.21	19108.13
513.38	19316.44
513.56	19253.25
513.73	18979.40
513.90	19084.73
514.08	19236.86
514.25	19152.60
514.43	19503.68
514.60	19623.05
514.77	19599.65
514.95	19548.15
515.12	19454.53
515.29	19344.53
515.47	19742.42
515.64	19730.72
515.81	19917.96
515.99	19789.23
516.16	19726.04
516.33	19784.55
516.51	20032.65
516.68	19999.88
516.85	19847.74
517.03	19798.59
517.20	20030.30
517.37	20238.61
517.54	20496.07
517.72	20622.46
517.89	20374.36
518.06	20177.76
518.24	20500.75
518.41	20393.09
518.58	20931.41
518.75	20552.24
518.93	20725.44
519.10	20418.83
519.27	20683.31
519.45	20954.82
519.62	20711.40
519.79	20798.00
519.96	21025.03
520.14	20889.28
520.31	20889.28
520.48	21163.12
520.65	20858.85
520.83	21118.65
521.00	21193.55
521.17	21050.78
521.34	21324.62
521.52	21399.52
521.69	21149.08
521.86	21415.90
522.03	21378.45
522.20	21598.46
522.38	21577.40
522.55	21443.99
522.72	21333.98
522.89	21666.34
523.07	22104.02
523.24	21867.63
523.41	22080.61
523.58	22017.42
523.75	21696.77
523.92	21738.90
524.10	21841.88
524.27	21876.99
524.44	21940.18
524.61	22265.52
524.78	22125.08
524.96	22054.87
525.13	22045.51
525.30	22246.79
525.47	22223.39
525.64	22132.11
525.81	22593.19
525.98	22848.31
526.16	22349.78
526.33	22286.58
526.50	22340.41
526.67	22314.67
526.84	22515.95
527.01	22621.28
527.18	22452.76
527.36	22766.39
527.53	23042.57
527.70	22934.91
527.87	22855.33
528.04	22808.52
528.21	22958.31
528.38	22881.08
528.55	22932.57
528.72	23253.22
528.89	23021.51
529.07	23161.94
529.24	22972.36
529.41	23358.55
529.58	23138.54
529.75	23297.69
529.92	22939.59
530.09	23461.53
530.26	23164.28
530.43	23620.69
530.60	23433.44
530.77	23283.65
530.94	23396.00
531.11	23400.68
531.28	23440.47
531.46	23683.88
531.63	23908.57
531.80	23555.15
531.97	23812.61
532.14	23992.83
532.31	23637.07
532.48	23899.21
532.65	23850.06
532.82	23618.35
532.99	23784.52
533.16	23658.14
533.33	24264.33
533.50	24058.37
533.67	23917.93
533.84	23957.72
534.01	24093.47
534.18	23789.20
534.35	24074.75
534.52	24144.97
534.69	24116.88
534.86	24435.19
535.03	23971.77
535.20	24041.98
535.37	24386.04
535.54	24287.74
535.71	24556.90
535.88	24297.10
536.05	24528.81
536.22	24638.82
536.38	24659.88
536.55	24606.05
536.72	24697.33
536.89	24615.41
537.06	24711.38
537.23	24528.81
537.40	24570.94
537.57	24444.56
537.74	24709.04
537.91	25191.19
538.08	24931.39
538.25	24727.76
538.42	24776.91
538.59	25305.87
538.75	24610.73
538.92	24973.52
539.09	25146.72
539.26	25113.95
539.43	24952.45
539.60	24924.36
539.77	25074.16
539.94	25071.82
540.11	25067.14
540.28	25261.40
540.44	25179.48
540.61	24559.24
540.78	25123.31
540.95	25263.74
541.12	25022.67
541.29	25717.81
541.46	25441.62
541.62	25048.41
541.79	25556.31
541.96	25401.83
542.13	25287.15
542.30	25605.46
542.47	26040.80
542.63	25612.48
542.80	25858.24
542.97	25773.98
543.14	25687.38
543.31	25703.76
543.48	25832.49
543.64	26047.82
543.81	26146.12
543.98	26061.87
544.15	26335.71
544.32	26333.37
544.48	26197.62
544.65	26005.69
544.82	25846.54
544.99	25858.24
545.16	26328.69
545.32	26162.51
545.49	26593.17
545.66	26309.96
545.83	26895.10
546.00	26536.99
546.16	26314.64
546.33	26279.54
546.50	26246.77
546.67	26239.75
546.83	26092.29
547.00	26593.17
547.17	26373.16
547.34	26480.82
547.50	26834.24
547.67	26827.22
547.84	26389.54
548.00	26782.75
548.17	26738.28
548.34	26796.79
548.51	26913.82
548.67	26939.57
548.84	27005.10
549.01	27342.14
549.18	26948.93
549.34	27110.43
549.51	26977.01
549.68	26689.13
549.84	27110.43
550.01	27367.88
550.18	26827.22
550.34	27042.55
550.51	27487.25
550.68	27374.91
550.84	26874.03
551.01	27175.96
551.18	27002.76
551.34	26986.38
551.51	27232.13
551.68	27257.88
551.84	27384.27
552.01	27222.77
552.18	27559.81
552.34	27278.94
552.51	27690.88
552.68	27335.12
552.84	27592.58
553.01	27288.31
553.18	27459.16
553.34	27529.38
553.51	27253.20
553.67	27775.14
553.84	27527.04
554.01	27606.62
554.17	27482.57
554.34	27484.91
554.51	27489.59
554.67	27887.48
554.84	27922.59
555.00	27756.41
555.17	27885.14
555.33	27889.82
555.50	27693.22
555.67	27386.61
555.83	27718.96
556.00	27578.53
556.16	27765.78
556.33	27669.81
556.50	28039.62
556.66	28086.43
556.83	27730.67
556.99	28098.13
557.16	28135.58
557.32	28025.57
557.49	28023.23
557.65	27796.20
557.82	28311.12
557.98	27623.00
558.15	27791.52
558.32	27826.63
558.48	28130.90
558.65	28416.44
558.81	28191.75
558.98	27971.74
559.14	28123.88
559.31	27892.16
559.47	27885.14
559.64	28383.68
559.80	28381.34
559.97	28381.34
560.13	27840.67
560.30	28531.13
560.46	28067.70
560.63	28514.75
560.79	28606.03
560.96	28669.22
561.12	28407.08
561.29	27997.49
561.45	28451.55
561.61	28126.22
561.78	28489.00
561.94	28510.07
562.11	28552.20
562.27	28739.44
562.44	28467.94
562.60	28175.37
562.77	28456.23
562.93	28381.34
563.10	28648.16
563.26	28463.25
563.42	29085.84
563.59	28893.91
563.75	28678.58
563.92	28364.95
564.08	28929.02
564.24	28444.53
564.41	28568.58
564.57	28397.72
564.74	28718.37
564.90	28643.48
565.07	28526.45
565.23	28748.80
565.39	28521.77
565.56	28950.09
565.72	28362.61
565.88	28809.65
566.05	28411.76
566.21	28610.71
566.38	28697.31
566.54	28496.02
566.70	28746.46
566.87	28849.44
567.03	28507.72
567.19	29092.86
567.36	28971.15
567.52	29338.62
567.68	28699.65
567.85	28882.21
568.01	29240.31
568.17	28840.08
568.34	28882.21
568.50	28898.59
568.66	29085.84
568.83	29340.96
568.99	28877.53
569.15	29090.52
569.32	28868.17
569.48	28786.25
569.64	29078.82
569.81	29111.58
569.97	29116.26
570.13	29214.57
570.30	28884.55
570.46	29099.88
570.62	28790.93
570.78	28879.87
570.95	29078.82
571.11	29233.29
571.27	28666.88
571.43	28914.98
571.60	28961.79
571.76	29200.52
571.92	29134.99
572.09	28875.19
572.25	29357.34
572.41	29209.89
572.57	28884.55
572.74	29039.03
572.90	28776.89
573.06	29069.45
573.22	29029.66
573.38	29221.59
573.55	28758.16
573.71	29273.08
573.87	29319.89
574.03	29436.92
574.20	29041.37
574.36	28868.17
574.52	29195.84
574.68	28811.99
574.84	28985.19
575.01	29214.57
575.17	29118.60
575.33	28989.88
575.49	28893.91
575.65	28790.93
575.82	29610.12
575.98	29132.65
576.14	29558.63
576.30	29050.73
576.46	29177.12
576.62	29177.12
576.79	29120.95
576.95	28943.06
577.11	29457.98
577.27	29633.52
577.43	29717.78
577.59	29083.50
577.75	29125.63
577.92	29209.89
578.08	29252.02
578.24	29560.97
578.40	28938.38
578.56	29521.18
578.72	29546.92
578.88	29443.94
579.04	29528.20
579.21	29181.80
579.37	29064.77
579.53	29055.41
579.69	29163.08
579.85	29149.03
580.01	29216.91
580.17	29125.63
580.33	29624.16
580.49	29113.92
580.65	29127.97
580.82	29198.18
580.98	29448.62
581.14	29743.53
581.30	29457.98
581.46	29315.21
581.62	29387.77
581.78	29170.10
581.94	29535.22
582.10	29493.09
582.26	29284.78
582.42	29715.44
582.58	29399.47
582.74	29406.49
582.90	29677.99
583.06	29537.56
583.22	29521.18
583.38	29390.11
583.54	29713.10
583.70	29127.97
583.86	29432.24
584.02	29034.35
584.18	29579.69
584.34	29645.23
584.50	29436.92
584.66	29125.63
584.82	29467.34
584.98	29170.10
585.14	29610.12
585.30	29556.28
585.46	29542.24
585.62	29373.72
585.78	29422.87
585.94	29153.71
586.10	29631.18
586.26	29387.77
586.42	29523.52
586.58	29565.65
586.74	29214.57
586.90	29149.03
587.06	29146.69
587.22	29399.47
587.38	29558.63
587.54	29593.73
587.70	29530.54
587.86	29457.98
588.02	29865.24
588.18	29530.54
588.34	29558.63
588.49	29394.79
588.65	29528.20
588.81	29303.51
588.97	29406.49
589.13	29422.87
589.29	29654.59
589.45	29713.10
589.61	29844.17
589.77	29486.07
589.93	29879.28
590.08	29886.30
590.24	29975.24
590.40	29811.40
590.56	29635.86
590.72	29216.91
590.88	29418.19
591.04	29406.49
591.20	29703.74
591.35	30197.59
591.51	30323.98
591.67	30274.83
591.83	30323.98
591.99	29975.24
