SpectraSuite Data File
++++++++++++++++++++++++++++++++++++
Date: Fri Oct 18 13:58:09 GMT-05:00 2013
User: bianchi
Dark Spectrum Present: No
Reference Spectrum Present: No
Number of Sampled Component Spectra: 1
Spectrometers: USB2+H05261
Integration Time (usec): 50000 (USB2+H05261)
Spectra Averaged: 1 (USB2+H05261)
Boxcar Smoothing: 0 (USB2+H05261)
Correct for Electrical Dark: No (USB2+H05261)
Strobe/Lamp Enabled: No (USB2+H05261)
Correct for Detector Non-linearity: No (USB2+H05261)
Correct for Stray Light: No (USB2+H05261)
Number of Pixels in Processed Spectrum: 2048
>>>>>Begin Processed Spectral Data<<<<<
365.73	0.00
365.92	0.00
366.12	0.00
366.32	0.00
366.52	0.00
366.72	0.00
366.91	0.00
367.11	0.00
367.31	0.00
367.51	0.00
367.70	0.00
367.90	0.00
368.10	0.00
368.30	0.00
368.49	0.00
368.69	0.00
368.89	0.00
369.09	0.00
369.28	0.00
369.48	0.00
369.68	0.00
369.87	0.00
370.07	0.00
370.27	0.00
370.47	0.00
370.66	67.88
370.86	126.39
371.06	133.41
371.25	142.77
371.45	161.50
371.65	154.48
371.84	95.96
372.04	196.60
372.24	198.95
372.44	163.84
372.63	175.54
372.83	231.71
373.03	156.82
373.22	191.92
373.42	198.95
373.62	187.24
373.81	248.10
374.01	208.31
374.21	238.73
374.40	203.63
374.60	264.48
374.79	304.27
374.99	201.29
375.19	294.91
375.38	278.52
375.58	250.44
375.78	285.55
375.97	306.61
376.17	269.16
376.37	285.55
376.56	159.16
376.76	259.80
376.95	255.12
377.15	220.01
377.35	264.48
377.54	290.23
377.74	194.26
377.93	269.16
378.13	285.55
378.33	294.91
378.52	231.71
378.72	285.55
378.91	271.50
379.11	306.61
379.31	220.01
379.50	250.44
379.70	327.68
379.89	318.31
380.09	376.83
380.28	262.14
380.48	348.74
380.68	344.06
380.87	271.50
381.07	337.04
381.26	334.70
381.46	397.89
381.65	332.36
381.85	322.99
382.04	290.23
382.24	306.61
382.43	264.48
382.63	367.46
382.83	318.31
383.02	346.40
383.22	297.25
383.41	358.10
383.61	351.08
383.80	337.04
384.00	404.91
384.19	393.21
384.39	388.53
384.58	409.59
384.78	414.27
384.97	346.40
385.17	421.30
385.36	365.12
385.56	428.32
385.75	433.00
385.95	414.27
386.14	386.19
386.34	381.51
386.53	393.21
386.72	440.02
386.92	433.00
387.11	430.66
387.31	409.59
387.50	458.74
387.70	512.58
387.89	390.87
388.09	496.19
388.28	395.55
388.48	404.91
388.67	451.72
388.86	461.09
389.06	475.13
389.25	468.11
389.45	519.60
389.64	540.66
389.84	411.93
390.03	472.79
390.22	517.26
390.42	451.72
390.61	545.34
390.81	472.79
391.00	521.94
391.19	482.15
391.39	489.17
391.58	486.83
391.78	496.19
391.97	533.64
392.16	550.03
392.36	575.77
392.55	531.30
392.75	559.39
392.94	575.77
393.13	589.82
393.33	552.37
393.52	636.63
393.71	552.37
393.91	566.41
394.10	521.94
394.29	667.05
394.49	592.16
394.68	606.20
394.88	653.01
395.07	657.69
395.26	610.88
395.46	571.09
395.65	669.39
395.84	538.32
396.04	704.50
396.23	617.90
396.42	627.26
396.62	667.05
396.81	713.86
397.00	683.44
397.19	690.46
397.39	568.75
397.58	697.48
397.77	678.76
397.97	683.44
398.16	636.63
398.35	683.44
398.55	716.20
398.74	767.70
398.93	711.52
399.12	774.72
399.32	650.67
399.51	664.71
399.70	674.07
399.90	767.70
400.09	788.76
400.28	779.40
400.47	779.40
400.67	826.21
400.86	755.99
401.05	807.48
401.24	826.21
401.44	774.72
401.63	795.78
401.82	854.30
402.01	807.48
402.21	784.08
402.40	854.30
402.59	828.55
402.78	828.55
402.97	837.91
403.17	931.53
403.36	821.53
403.55	875.36
403.74	1025.15
403.93	896.43
404.13	933.87
404.32	854.30
404.51	938.55
404.70	1015.79
404.89	997.07
405.09	1046.22
405.28	940.90
405.47	990.05
405.66	943.24
405.85	980.68
406.05	954.94
406.24	1090.69
406.43	1001.75
406.62	933.87
406.81	1104.73
407.00	1015.79
407.20	1020.47
407.39	1071.97
407.58	1081.33
407.77	964.30
407.96	1025.15
408.15	1142.18
408.34	1130.48
408.54	1067.28
408.73	1203.04
408.92	1181.97
409.11	1165.59
409.30	1102.39
409.49	1081.33
409.68	1104.73
409.87	1132.82
410.07	1219.42
410.26	1170.27
410.45	1238.14
410.64	1193.67
410.83	1306.02
411.02	1149.20
411.21	1181.97
411.40	1196.01
411.59	1238.14
411.78	1331.76
411.98	1301.34
412.17	1348.15
412.36	1327.08
412.55	1378.58
412.74	1315.38
412.93	1359.85
413.12	1310.70
413.31	1488.58
413.50	1385.60
413.69	1376.24
413.88	1380.92
414.07	1444.11
414.26	1490.92
414.45	1441.77
414.64	1654.76
414.83	1519.01
415.02	1582.20
415.22	1542.41
415.41	1516.67
415.60	1603.27
415.79	1596.25
415.98	1647.74
416.17	1554.12
416.36	1626.67
416.55	1692.21
416.74	1551.78
416.93	1645.40
417.12	1636.03
417.31	1666.46
417.50	1736.68
417.69	1732.00
417.88	1802.21
418.07	1710.93
418.26	1614.97
418.45	1746.04
418.64	1792.85
418.83	1830.30
419.02	1842.00
419.21	1783.49
419.39	1879.45
419.58	1802.21
419.77	1799.87
419.96	1933.28
420.15	1921.58
420.34	1771.79
420.53	1919.24
420.72	1966.05
420.91	1839.66
421.10	1966.05
421.29	1968.39
421.48	1980.09
421.67	1935.62
421.86	1935.62
422.05	1970.73
422.24	1975.41
422.43	1935.62
422.61	1949.67
422.80	2092.44
422.99	2022.22
423.18	1994.14
423.37	2066.69
423.56	2043.29
423.75	2104.14
423.94	2012.86
424.13	1900.52
424.32	1961.37
424.50	2176.70
424.69	2092.44
424.88	2153.29
425.07	2085.42
425.26	2062.01
425.45	1994.14
425.64	2097.12
425.83	1956.69
426.01	2108.82
426.20	2157.97
426.39	2003.50
426.58	2078.40
426.77	2118.18
426.96	2078.40
427.15	2118.18
427.33	2160.31
427.52	2188.40
427.71	2176.70
427.90	2251.60
428.09	2265.64
428.28	2237.55
428.46	2249.25
428.65	2352.24
428.84	2380.32
429.03	2347.56
429.22	2143.93
429.40	2179.04
429.59	2265.64
429.78	2195.42
429.97	2251.60
430.16	2265.64
430.34	2352.24
430.53	2392.03
430.72	2429.48
430.91	2562.89
431.10	2422.45
431.28	2452.88
431.47	2492.67
431.66	2361.60
431.85	2277.34
432.03	2366.28
432.22	2616.72
432.41	2445.86
432.60	2424.80
432.79	2567.57
432.97	2415.43
433.16	2518.42
433.35	2495.01
433.54	2523.10
433.72	2642.46
433.91	2614.38
434.10	2609.70
434.28	2473.95
434.47	2560.55
434.66	2523.10
434.85	2595.65
435.03	2593.31
435.22	2506.71
435.41	2661.19
435.59	2719.70
435.78	2796.94
435.97	2621.40
436.16	2637.78
436.34	2684.59
436.53	2705.66
436.72	2768.85
436.90	2708.00
437.09	2789.92
437.28	2717.36
437.46	2813.32
437.65	2825.03
437.84	2801.62
438.02	2761.83
438.21	2813.32
438.40	2778.22
438.58	2995.89
438.77	2995.89
438.96	2895.24
439.14	2946.73
439.33	2890.56
439.52	3045.04
439.70	2986.52
439.89	3098.87
440.08	3103.55
440.26	2956.10
440.45	3126.96
440.63	3225.26
440.82	3253.34
441.01	3007.59
441.19	3208.87
441.38	3234.62
441.57	3187.81
441.75	3288.45
441.94	3279.09
442.12	3370.37
442.31	3337.60
442.50	3442.93
442.68	3349.31
442.87	3302.50
443.05	3316.54
443.24	3396.12
443.43	3480.38
443.61	3461.65
443.80	3520.17
443.98	3482.72
444.17	3283.77
444.35	3499.10
444.54	3552.93
444.73	3337.60
444.91	3454.63
445.10	3459.31
445.28	3480.38
445.47	3372.71
445.65	3440.59
445.84	3513.14
446.02	3588.04
446.21	3426.54
446.39	3627.83
446.58	3510.80
446.77	3651.24
446.95	3440.59
447.14	3569.32
447.32	3695.71
447.51	3555.27
447.69	3487.40
447.88	3681.66
448.06	3510.80
448.25	3520.17
448.43	3496.76
448.62	3646.55
448.80	3588.04
448.99	3632.51
449.17	3735.50
449.36	3709.75
449.54	3707.41
449.73	3796.35
449.91	3791.67
450.10	3775.28
450.28	3705.07
450.46	3779.97
450.65	3747.20
450.83	3796.35
451.02	3688.68
451.20	3784.65
451.39	3882.95
451.57	3885.29
451.76	3777.62
451.94	3859.54
452.13	4007.00
452.31	3962.53
452.49	3925.08
452.68	4016.36
452.86	4058.49
453.05	3964.87
453.23	4042.11
453.42	4025.72
453.60	3955.51
453.78	3878.27
453.97	3988.27
454.15	4081.89
454.34	3967.21
454.52	4170.83
454.70	4124.02
454.89	4102.96
455.07	4093.60
455.26	4109.98
455.44	4234.03
455.62	4035.08
455.81	4159.13
455.99	4112.32
456.17	4278.50
456.36	4201.26
456.54	4201.26
456.73	4168.49
456.91	4416.59
457.09	4381.48
457.28	4505.53
457.46	4329.99
457.64	4191.90
457.83	4367.44
458.01	4437.66
458.19	4468.08
458.38	4559.36
458.56	4461.06
458.74	4503.19
458.93	4545.32
459.11	4667.03
459.29	4507.87
459.48	4479.79
459.66	4538.30
459.84	4781.71
460.03	4805.12
460.21	4690.43
460.39	4620.22
460.57	4755.97
460.76	4702.14
460.94	4887.04
461.12	4690.43
461.31	4730.22
461.49	4603.83
461.67	4662.35
461.85	4910.44
462.04	4748.95
462.22	5170.24
462.40	4954.91
462.59	4992.36
462.77	4880.02
462.95	4940.87
463.13	4957.25
463.32	4894.06
463.50	4947.89
463.68	4898.74
463.86	4997.04
464.05	4875.34
464.23	4947.89
464.41	4854.27
464.59	4898.74
464.78	4957.25
464.96	4762.99
465.14	5013.43
465.32	5085.98
465.50	5158.54
465.69	5270.89
465.87	4973.64
466.05	5093.01
466.23	5160.88
466.41	5046.20
466.60	5305.99
466.78	5018.11
466.96	5032.15
467.14	5205.35
467.32	5214.71
467.51	5268.55
467.69	5165.56
467.87	5259.18
468.05	5238.12
468.23	5301.31
468.41	5177.26
468.60	5174.92
468.78	5451.11
468.96	5109.39
469.14	5425.36
469.32	5387.91
469.50	5128.11
469.69	5572.82
469.87	5497.92
470.05	5561.11
470.23	5523.66
470.41	5486.22
470.59	5713.25
470.77	5523.66
470.95	5610.26
471.14	5504.94
471.32	5528.35
471.50	5710.91
471.68	5762.40
471.86	5806.87
472.04	5631.33
472.22	5849.00
472.40	5872.40
472.58	5856.02
472.77	5753.04
472.95	5799.85
473.13	6239.87
473.31	5898.15
473.49	5891.13
473.67	5914.53
473.85	6127.52
474.03	6061.99
474.21	6176.67
474.39	6141.57
474.57	6153.27
474.75	6223.48
474.93	6260.93
475.12	6272.64
475.30	6408.39
475.48	6380.30
475.66	6363.92
475.84	6499.67
476.02	6459.88
476.20	6429.45
476.38	6525.41
476.56	6736.06
476.74	6516.05
476.92	6717.34
477.10	6689.25
477.28	6846.07
477.46	6801.60
477.64	6897.56
477.82	6897.56
478.00	7164.38
478.18	7176.08
478.36	7133.95
478.54	7220.55
478.72	7194.81
478.90	7248.64
479.08	7162.04
479.26	7358.64
479.44	7407.80
479.62	7272.04
479.80	7555.25
479.98	7522.48
480.16	7513.12
480.34	7644.19
480.52	7620.78
480.70	7892.29
480.88	7798.66
481.06	7782.28
481.24	7826.75
481.41	7941.44
481.59	8028.04
481.77	8149.75
481.95	8397.84
482.13	8149.75
482.31	8278.47
482.49	8168.47
482.67	8678.71
482.85	8641.26
483.03	8676.37
483.21	8631.90
483.39	8652.96
483.57	8842.54
483.74	8854.25
483.92	9015.74
484.10	8793.39
484.28	9097.66
484.46	9259.16
484.64	9310.65
484.82	9287.25
485.00	9174.90
485.18	9394.91
485.35	9528.32
485.53	9366.82
485.71	9664.07
485.89	10036.22
486.07	9841.95
486.25	9745.99
486.43	9745.99
486.61	9825.57
486.78	10066.64
486.96	10127.50
487.14	10361.55
487.32	10076.01
487.50	10422.41
487.68	10387.30
487.85	10663.48
488.03	10707.95
488.21	10614.33
488.39	10700.93
488.57	10810.93
488.75	10710.29
488.92	11066.05
489.10	11068.39
489.28	11180.74
489.46	11295.43
489.64	11337.56
489.81	11335.21
489.99	11548.20
490.17	11557.57
490.35	11602.04
490.53	11901.62
490.70	11646.51
490.88	11674.59
491.06	12107.59
491.24	12166.10
491.41	12290.15
491.59	12233.98
491.77	12114.61
491.95	12369.73
492.13	12575.70
492.30	12662.30
492.48	12571.02
492.66	12791.03
492.84	12514.84
493.01	12760.60
493.19	12723.15
493.37	12868.27
493.54	12980.61
493.72	13069.55
493.90	13135.09
494.08	13130.41
494.25	13345.73
494.43	13334.03
494.61	13696.82
494.79	13776.39
494.96	13327.01
495.14	13774.05
495.32	13926.19
495.49	13666.39
495.67	13970.66
495.85	14092.37
496.02	14043.21
496.20	14017.47
496.38	14267.91
496.55	14221.10
496.73	14721.97
496.91	14839.00
497.09	14562.81
497.26	14590.90
497.44	14520.68
497.62	14677.50
497.79	15152.63
497.97	14406.00
498.14	14892.83
498.32	15257.95
498.50	15075.39
498.67	15391.36
498.85	15384.34
499.03	15269.66
499.20	15220.50
499.38	15627.76
499.56	15382.00
499.73	15655.84
499.91	15613.71
500.08	16109.91
500.26	15449.88
500.44	15562.22
500.61	16032.67
500.79	15957.77
500.97	15999.90
501.14	16170.76
501.32	16374.39
501.49	16229.27
501.67	15915.64
501.84	16285.45
502.02	16116.93
502.20	16491.41
502.37	16245.66
502.55	16610.78
502.72	16706.74
502.90	16606.10
503.07	16695.04
503.25	16603.76
503.43	16613.12
503.60	16975.91
503.78	16585.04
503.95	16791.00
504.13	16889.31
504.30	16842.50
504.48	17078.89
504.65	17013.35
504.83	17399.54
505.01	17444.01
505.18	17249.75
505.36	17558.70
505.53	17341.03
505.71	17458.06
505.88	17647.64
506.06	17350.39
506.23	17610.19
506.41	17633.60
506.58	17884.03
506.76	17888.71
506.93	17631.26
507.11	17776.37
507.28	18026.81
507.46	17968.29
507.63	18064.25
507.81	18132.13
507.98	18232.77
508.16	18338.10
508.33	18209.37
508.50	18359.16
508.68	18483.21
508.85	18679.82
509.03	18574.49
509.20	18506.62
509.38	18576.83
509.55	18792.16
509.73	18560.45
509.90	18848.33
510.08	18745.35
510.25	18850.67
510.42	19054.30
510.60	19145.58
510.77	18965.36
510.95	19197.07
511.12	18890.46
511.30	18794.50
511.47	19023.87
511.64	19307.08
511.82	19241.54
511.99	19339.85
512.17	19646.46
512.34	19311.76
512.51	19681.56
512.69	19618.37
512.86	19655.82
513.04	19637.09
513.21	19894.55
513.38	19838.38
513.56	19789.23
513.73	19819.66
513.90	19814.98
514.08	19861.79
514.25	20034.99
514.43	20306.49
514.60	20058.39
514.77	20255.00
514.95	20365.00
515.12	19957.75
515.29	20123.93
515.47	20622.46
515.64	20716.08
515.81	20442.24
515.99	20617.78
516.16	20823.75
516.33	20795.66
516.51	20798.00
516.68	20533.52
516.85	20559.27
517.03	20655.23
517.20	20854.17
517.37	20919.71
517.54	20910.35
517.72	21144.40
517.89	20964.18
518.06	21385.47
518.24	20982.90
518.41	21069.50
518.58	21294.19
518.75	21198.23
518.93	21530.59
519.10	21305.90
519.27	21268.45
519.45	21565.70
519.62	21348.03
519.79	21656.98
519.96	21806.77
520.14	21612.51
520.31	21741.24
520.48	21619.53
520.65	21788.05
520.83	21642.93
521.00	21876.99
521.17	22015.08
521.34	21837.20
521.52	22366.16
521.69	21827.84
521.86	21975.29
522.03	21900.39
522.20	22125.08
522.38	22092.32
522.55	22520.63
522.72	22417.65
522.89	22434.03
523.07	22480.85
523.24	22338.07
523.41	22958.31
523.58	22593.19
523.75	22869.37
523.92	22654.05
524.10	22850.65
524.27	22651.70
524.44	22820.22
524.61	23082.36
524.78	22822.56
524.96	23051.94
525.13	23051.94
525.30	22771.07
525.47	22998.10
525.64	22827.24
525.81	23262.58
525.98	23185.35
526.16	23351.52
526.33	22963.00
526.50	23498.98
526.67	23386.63
526.84	23358.55
527.01	23431.10
527.18	23459.19
527.36	23421.74
527.53	23868.78
527.70	23693.24
527.87	24095.82
528.04	23555.15
528.21	23618.35
528.38	23613.66
528.55	23765.80
528.72	23442.81
528.89	23648.77
529.07	23644.09
529.24	24018.58
529.41	23810.27
529.58	23908.57
529.75	23915.59
529.92	24261.99
530.09	24006.87
530.26	23934.32
530.43	24250.29
530.60	24184.76
530.77	24500.73
530.94	24369.66
531.11	24091.13
531.28	24320.51
531.46	24329.87
531.63	24563.92
531.80	24414.13
531.97	24676.27
532.14	24561.58
532.31	24601.37
532.48	24451.58
532.65	24783.93
532.82	24638.82
532.99	24720.74
533.16	24521.79
533.33	24884.58
533.50	24783.93
533.67	25127.99
533.84	24753.51
534.01	24697.33
534.18	25060.12
534.35	24842.45
534.52	25324.60
534.69	25319.92
534.86	25352.68
535.03	25352.68
535.20	25174.80
535.37	25247.36
535.54	25181.82
535.71	25041.39
535.88	25483.75
536.05	25247.36
536.22	25710.78
536.38	25612.48
536.55	25338.64
536.72	25355.02
536.89	25127.99
537.06	25642.91
537.23	25921.43
537.40	25462.69
537.57	25907.39
537.74	25568.01
537.91	26033.78
538.08	25708.44
538.25	25806.75
538.42	25916.75
538.59	25830.15
538.75	25565.67
538.92	26160.17
539.09	25867.60
539.26	25972.92
539.43	25752.91
539.60	25865.26
539.77	25935.48
539.94	26281.88
540.11	26146.12
540.28	26195.28
540.44	26075.91
540.61	26295.92
540.78	25977.61
540.95	26326.35
541.12	26522.95
541.29	26169.53
541.46	26031.44
541.62	26080.59
541.79	26518.27
541.96	26178.89
542.13	26438.69
542.30	26656.36
542.47	26780.41
542.63	27185.32
542.80	26775.73
542.97	26932.54
543.14	27082.34
543.31	26764.03
543.48	27005.10
543.64	27414.69
543.81	27374.91
543.98	27349.16
544.15	27161.92
544.32	27410.01
544.48	27267.24
544.65	27281.28
544.82	27101.06
544.99	27080.00
545.16	27367.88
545.32	27133.83
545.49	27461.51
545.66	27480.23
545.83	28009.19
546.00	27508.32
546.16	27087.02
546.33	27194.68
546.50	27063.61
546.67	27482.57
546.83	27213.41
547.00	27344.48
547.17	27592.58
547.34	27363.20
547.50	27910.89
547.67	27835.99
547.84	27377.25
548.00	27470.87
548.17	27562.15
548.34	27482.57
548.51	27580.87
548.67	28166.01
548.84	28102.81
549.01	28088.77
549.18	28175.37
549.34	27725.99
549.51	27887.48
549.68	27803.22
549.84	27938.97
550.01	27960.04
550.18	27915.57
550.34	27992.81
550.51	28638.80
550.68	27950.68
550.84	28245.58
551.01	28128.56
551.18	28205.80
551.34	27990.47
551.51	28177.71
551.68	28161.33
551.84	28446.87
552.01	28346.23
552.18	28828.38
552.34	28311.12
552.51	28194.09
552.68	28114.52
552.84	28222.18
553.01	28311.12
553.18	28428.15
553.34	28294.74
553.51	28432.83
553.67	28526.45
553.84	28762.84
554.01	28364.95
554.17	28662.20
554.34	28587.30
554.51	28996.90
554.67	28781.57
554.84	28732.42
555.00	28613.05
555.17	28411.76
555.33	28666.88
555.50	28573.26
555.67	28943.06
555.83	28858.81
556.00	28797.95
556.16	28950.09
556.33	28711.35
556.50	28694.97
556.66	29432.24
556.83	29188.82
556.99	29549.26
557.16	29184.14
557.32	29277.76
557.49	29092.86
557.65	29151.37
557.82	28905.62
557.98	29408.83
558.15	28893.91
558.32	29099.88
558.48	28924.34
558.65	29322.23
558.81	29228.61
558.98	29446.28
559.14	29427.56
559.31	29343.30
559.47	29486.07
559.64	29298.83
559.80	29392.45
559.97	29474.37
560.13	29322.23
560.30	29345.64
560.46	29123.29
560.63	29275.42
560.79	29345.64
560.96	29553.94
561.12	29312.87
561.29	29235.63
561.45	29387.77
561.61	29518.84
561.78	29589.05
561.94	29626.50
562.11	29488.41
562.27	29322.23
562.44	29888.64
562.60	29373.72
562.77	29659.27
562.93	29701.40
563.10	29905.02
563.26	29720.12
563.42	30106.31
563.59	29670.97
563.75	29497.77
563.92	30403.56
564.08	29483.73
564.24	29883.96
564.41	29535.22
564.57	29455.64
564.74	29869.92
564.90	29743.53
565.07	29741.19
565.23	29766.93
565.39	29935.45
565.56	29865.24
565.72	30019.71
565.88	29869.92
566.05	29434.58
566.21	29991.62
566.38	29778.64
566.54	29778.64
566.70	30340.36
566.87	30195.25
567.03	29961.20
567.19	30279.51
567.36	29837.15
567.52	29888.64
567.68	30494.84
567.85	30342.70
568.01	30733.57
568.17	29825.45
568.34	29874.60
568.50	30441.01
568.66	29963.54
568.83	30230.36
568.99	30174.19
569.15	30061.84
569.32	30010.35
569.48	29710.76
569.64	30375.47
569.81	30148.44
569.97	29806.72
570.13	30153.12
570.30	29736.51
570.46	30249.08
570.62	29827.79
570.78	30321.64
570.95	30052.48
571.11	30511.22
571.27	29984.60
571.43	29848.85
571.60	30176.53
571.76	29940.13
571.92	30459.73
572.09	30235.04
572.25	30925.50
572.41	30445.69
572.57	30216.32
572.74	30536.97
572.90	29928.43
573.06	30560.37
573.22	30377.81
573.38	30480.80
573.55	30251.42
573.71	30284.19
573.87	30501.86
574.03	30487.82
574.20	30335.68
574.36	30548.67
574.52	30298.23
574.68	30539.31
574.84	30368.45
575.01	30621.23
575.17	30333.34
575.33	30368.45
575.49	29935.45
575.65	30710.17
575.82	30932.52
575.98	30459.73
576.14	30471.43
576.30	30525.27
576.46	30499.52
576.62	30171.85
576.79	30185.89
576.95	30249.08
577.11	30146.10
577.27	30728.89
577.43	30962.95
577.59	30476.12
577.75	30572.08
577.92	30424.62
578.08	30314.62
578.24	30520.59
578.40	30543.99
578.56	30340.36
578.72	30426.96
578.88	31194.66
579.04	30672.72
579.21	30525.27
579.37	30728.89
579.53	30874.01
579.69	30529.95
579.85	30326.32
580.01	30188.23
580.17	30436.33
580.33	30630.59
580.49	30780.39
580.65	30473.78
580.82	30518.25
580.98	30965.29
581.14	30691.44
581.30	30682.08
581.46	30373.13
581.62	30506.54
581.78	30597.82
581.94	30541.65
582.10	30534.63
582.26	30377.81
582.42	30565.06
582.58	30661.02
582.74	30756.98
582.90	30693.79
583.06	30665.70
583.22	30604.84
583.38	30937.20
583.54	30558.03
583.70	30443.35
583.86	30518.25
584.02	30539.31
584.18	30607.19
584.34	30768.68
584.50	30785.07
584.66	30831.88
584.82	29984.60
584.98	30778.04
585.14	30733.57
585.30	30728.89
585.46	30672.72
585.62	30799.11
585.78	30508.88
585.94	30291.21
586.10	30588.46
586.26	30520.59
586.42	31257.85
586.58	30724.21
586.74	30771.02
586.90	30618.89
587.06	30380.15
587.22	30459.73
587.38	30780.39
587.54	30658.68
587.70	30869.33
587.86	30796.77
588.02	30904.43
588.18	31271.90
588.34	30614.21
588.49	30492.50
588.65	30899.75
588.81	30574.42
588.97	31197.00
589.13	30595.48
589.29	30965.29
589.45	30953.58
589.61	31152.53
589.77	31353.82
589.93	30876.35
590.08	31253.17
590.24	30888.05
590.40	30918.48
590.56	31173.60
590.72	30857.62
590.88	31145.51
591.04	30806.13
591.20	31454.46
591.35	31187.64
591.51	31475.52
591.67	31358.50
591.83	31323.39
