SpectraSuite Data File
++++++++++++++++++++++++++++++++++++
Date: Fri Oct 18 13:58:13 GMT-05:00 2013
User: bianchi
Dark Spectrum Present: No
Reference Spectrum Present: No
Number of Sampled Component Spectra: 1
Spectrometers: USB2+H05261
Integration Time (usec): 50000 (USB2+H05261)
Spectra Averaged: 1 (USB2+H05261)
Boxcar Smoothing: 0 (USB2+H05261)
Correct for Electrical Dark: No (USB2+H05261)
Strobe/Lamp Enabled: No (USB2+H05261)
Correct for Detector Non-linearity: No (USB2+H05261)
Correct for Stray Light: No (USB2+H05261)
Number of Pixels in Processed Spectrum: 2048
>>>>>Begin Processed Spectral Data<<<<<
365.73	0.00
365.92	0.00
366.12	0.00
366.32	0.00
366.52	0.00
366.72	0.00
366.91	0.00
367.11	0.00
367.31	0.00
367.51	0.00
367.70	0.00
367.90	0.00
368.10	0.00
368.30	0.00
368.49	0.00
368.69	0.00
368.89	0.00
369.09	0.00
369.28	0.00
369.48	0.00
369.68	0.00
369.87	0.00
370.07	0.00
370.27	0.00
370.47	0.00
370.66	107.66
370.86	128.73
371.06	149.79
371.25	198.95
371.45	126.39
371.65	191.92
371.84	182.56
372.04	255.12
372.24	145.11
372.44	161.50
372.63	140.43
372.83	266.82
373.03	168.52
373.22	156.82
373.42	175.54
373.62	236.39
373.81	234.05
374.01	224.69
374.21	189.58
374.40	243.42
374.60	224.69
374.79	269.16
374.99	173.20
375.19	243.42
375.38	304.27
375.58	264.48
375.78	227.03
375.97	322.99
376.17	262.14
376.37	191.92
376.56	292.57
376.76	278.52
376.95	306.61
377.15	224.69
377.35	243.42
377.54	294.91
377.74	210.65
377.93	220.01
378.13	292.57
378.33	294.91
378.52	236.39
378.72	287.89
378.91	271.50
379.11	299.59
379.31	304.27
379.50	273.84
379.70	315.97
379.89	320.65
380.09	264.48
380.28	252.78
380.48	308.95
380.68	311.29
380.87	334.70
381.07	325.33
381.26	381.51
381.46	351.08
381.65	376.83
381.85	393.21
382.04	358.10
382.24	395.55
382.43	362.78
382.63	330.02
382.83	360.44
383.02	351.08
383.22	320.65
383.41	341.72
383.61	390.87
383.80	344.06
384.00	388.53
384.19	400.23
384.39	344.06
384.58	372.15
384.78	327.68
384.97	353.42
385.17	435.34
385.36	433.00
385.56	306.61
385.75	325.33
385.95	393.21
386.14	456.40
386.34	383.85
386.53	437.68
386.72	351.08
386.92	451.72
387.11	355.76
387.31	388.53
387.50	362.78
387.70	496.19
387.89	519.60
388.09	451.72
388.28	404.91
388.48	496.19
388.67	411.93
388.86	395.55
389.06	461.09
389.25	449.38
389.45	421.30
389.64	470.45
389.84	435.34
390.03	524.28
390.22	533.64
390.42	496.19
390.61	498.53
390.81	519.60
391.00	552.37
391.19	531.30
391.39	557.05
391.58	479.81
391.78	500.87
391.97	475.13
392.16	510.24
392.36	528.96
392.55	571.09
392.75	608.54
392.94	568.75
393.13	566.41
393.33	627.26
393.52	596.84
393.71	526.62
393.91	664.71
394.10	624.92
394.29	566.41
394.49	554.71
394.68	627.26
394.88	662.37
395.07	711.52
395.26	592.16
395.46	561.73
395.65	657.69
395.84	608.54
396.04	650.67
396.23	669.39
396.42	681.10
396.62	725.57
396.81	648.33
397.00	643.65
397.19	650.67
397.39	676.41
397.58	706.84
397.77	636.63
397.97	683.44
398.16	690.46
398.35	664.71
398.55	674.07
398.74	791.10
398.93	727.91
399.12	709.18
399.32	655.35
399.51	755.99
399.70	805.14
399.90	760.67
400.09	772.38
400.28	732.59
400.47	737.27
400.67	748.97
400.86	786.42
401.05	809.83
401.24	842.59
401.44	737.27
401.63	809.83
401.82	791.10
402.01	819.19
402.21	788.76
402.40	908.13
402.59	873.02
402.78	755.99
402.97	760.67
403.17	823.87
403.36	856.64
403.55	908.13
403.74	966.64
403.93	959.62
404.13	823.87
404.32	905.79
404.51	849.61
404.70	950.26
404.89	898.77
405.09	966.64
405.28	957.28
405.47	992.39
405.66	1039.20
405.85	968.98
406.05	971.32
406.24	985.37
406.43	903.45
406.62	987.71
406.81	1125.80
407.00	1029.84
407.20	1032.18
407.39	1018.13
407.58	1013.45
407.77	1060.26
407.96	1114.10
408.15	1088.35
408.34	1086.01
408.54	1125.80
408.73	1107.07
408.92	1142.18
409.11	1170.27
409.30	1174.95
409.49	1114.10
409.68	1062.60
409.87	1081.33
410.07	1165.59
410.26	1217.08
410.45	1210.06
410.64	1240.48
410.83	1277.93
411.02	1205.38
411.21	1254.53
411.40	1252.19
411.59	1303.68
411.78	1341.13
411.98	1263.89
412.17	1214.74
412.36	1327.08
412.55	1387.94
412.74	1343.47
412.93	1310.70
413.12	1268.57
413.31	1591.56
413.50	1392.62
413.69	1420.71
413.88	1462.83
414.07	1394.96
414.26	1397.30
414.45	1383.26
414.64	1488.58
414.83	1563.48
415.02	1451.13
415.22	1502.62
415.41	1542.41
415.60	1502.62
415.79	1629.01
415.98	1699.23
416.17	1572.84
416.36	1675.82
416.55	1544.75
416.74	1519.01
416.93	1647.74
417.12	1703.91
417.31	1713.27
417.50	1720.29
417.69	1790.51
417.88	1767.10
418.07	1713.27
418.26	1617.31
418.45	1715.61
418.64	1778.81
418.83	1727.32
419.02	1795.19
419.21	1858.39
419.39	1856.04
419.58	1881.79
419.77	1907.54
419.96	1865.41
420.15	1926.26
420.34	1968.39
420.53	1977.75
420.72	1853.70
420.91	1900.52
421.10	1905.20
421.29	1916.90
421.48	1963.71
421.67	2022.22
421.86	1909.88
422.05	1996.48
422.24	2010.52
422.43	2015.20
422.61	2001.16
422.80	1973.07
422.99	2057.33
423.18	1989.46
423.37	2125.21
423.56	2062.01
423.75	2008.18
423.94	1860.73
424.13	1973.07
424.32	1949.67
424.50	2019.88
424.69	2129.89
424.88	2104.14
425.07	2001.16
425.26	1933.28
425.45	2111.16
425.64	2008.18
425.83	2043.29
426.01	2036.27
426.20	2085.42
426.39	2062.01
426.58	2003.50
426.77	2172.02
426.96	2085.42
427.15	2076.06
427.33	2169.68
427.52	2176.70
427.71	2101.80
427.90	2207.13
428.09	2078.40
428.28	2160.31
428.46	2211.81
428.65	2260.96
428.84	2202.44
429.03	2298.41
429.22	2300.75
429.40	2291.38
429.59	2408.41
429.78	2221.17
429.97	2085.42
430.16	2150.95
430.34	2277.34
430.53	2282.02
430.72	2359.26
430.91	2375.64
431.10	2282.02
431.28	2403.73
431.47	2406.07
431.66	2504.37
431.85	2359.26
432.03	2462.24
432.22	2459.90
432.41	2424.80
432.60	2485.65
432.79	2380.32
432.97	2555.86
433.16	2509.05
433.35	2511.39
433.54	2520.76
433.72	2537.14
433.91	2513.74
434.10	2607.36
434.28	2513.74
434.47	2546.50
434.66	2544.16
434.85	2612.04
435.03	2644.81
435.22	2656.51
435.41	2743.11
435.59	2654.17
435.78	2518.42
435.97	2600.34
436.16	2726.72
436.34	2684.59
436.53	2684.59
436.72	2743.11
436.90	2602.68
437.09	2754.81
437.28	2731.41
437.46	2684.59
437.65	2782.90
437.84	2738.43
438.02	2850.77
438.21	2925.67
438.40	2752.47
438.58	2967.80
438.77	2932.69
438.96	2979.50
439.14	2829.71
439.33	2967.80
439.52	2918.65
439.70	3061.42
439.89	3019.29
440.08	2993.55
440.26	2974.82
440.45	3056.74
440.63	3136.32
440.82	3199.51
441.01	3141.00
441.19	3098.87
441.38	3328.24
441.57	3272.07
441.75	3281.43
441.94	3307.18
442.12	3325.90
442.31	3377.39
442.50	3389.10
442.68	3349.31
442.87	3342.28
443.05	3440.59
443.24	3410.16
443.43	3356.33
443.61	3349.31
443.80	3574.00
443.98	3375.05
444.17	3211.22
444.35	3473.36
444.54	3545.91
444.73	3506.12
444.91	3442.93
445.10	3536.55
445.28	3396.12
445.47	3499.10
445.65	3372.71
445.84	3545.91
446.02	3538.89
446.21	3557.61
446.39	3400.80
446.58	3520.17
446.77	3513.14
446.95	3449.95
447.14	3557.61
447.32	3585.70
447.51	3611.45
447.69	3574.00
447.88	3471.01
448.06	3501.44
448.25	3424.20
448.43	3480.38
448.62	3538.89
448.80	3475.70
448.99	3517.83
449.17	3712.09
449.36	3653.58
449.54	3712.09
449.73	3782.31
449.91	3784.65
450.10	3709.75
450.28	3873.59
450.46	3688.68
450.65	3798.69
450.83	3805.71
451.02	3789.33
451.20	3943.80
451.39	3868.91
451.57	3779.97
451.76	3791.67
451.94	3702.73
452.13	3983.59
452.31	4030.40
452.49	3845.50
452.68	3847.84
452.86	3904.01
453.05	3967.21
453.23	4063.17
453.42	3969.55
453.60	3925.08
453.78	3943.80
453.97	3880.61
454.15	3927.42
454.34	3918.06
454.52	3983.59
454.70	4021.04
454.89	4124.02
455.07	4149.77
455.26	4039.76
455.44	4102.96
455.62	4184.88
455.81	4079.55
455.99	4119.34
456.17	4234.03
456.36	4184.88
456.54	4142.75
456.73	4170.83
456.91	4360.42
457.09	4440.00
457.28	4498.51
457.46	4285.52
457.64	4344.03
457.83	4386.16
458.01	4393.19
458.19	4280.84
458.38	4535.96
458.56	4458.72
458.74	4456.38
458.93	4526.60
459.11	4451.70
459.29	4428.29
459.48	4482.13
459.66	4568.73
459.84	4688.09
460.03	4727.88
460.21	4571.07
460.39	4521.92
460.57	4489.15
460.76	4629.58
460.94	4650.64
461.12	4641.28
461.31	4753.63
461.49	4678.73
461.67	4849.59
461.85	4709.16
462.04	4655.33
462.22	4849.59
462.40	4748.95
462.59	4854.27
462.77	4938.53
462.95	4688.09
463.13	4723.20
463.32	4772.35
463.50	4758.31
463.68	4936.19
463.86	4947.89
464.05	4784.06
464.23	4901.08
464.41	5078.96
464.59	4887.04
464.78	4870.65
464.96	5032.15
465.14	4856.61
465.32	5036.83
465.50	5076.62
465.69	5034.49
465.87	5046.20
466.05	5090.67
466.23	5064.92
466.41	5198.33
466.60	5228.76
466.78	5259.18
466.96	5109.39
467.14	5090.67
467.32	5158.54
467.51	5193.65
467.69	5090.67
467.87	5320.04
468.05	5282.59
468.23	5163.22
468.41	5188.97
468.60	5273.23
468.78	5362.17
468.96	5376.21
469.14	5336.42
469.32	5434.72
469.50	5427.70
469.69	5385.57
469.87	5448.77
470.05	5528.35
470.23	5504.94
470.41	5474.51
470.59	5533.03
470.77	5593.88
470.95	5640.69
471.14	5685.16
471.32	5603.24
471.50	5631.33
471.68	5734.31
471.86	5738.99
472.04	5774.10
472.22	5753.04
472.40	5699.20
472.58	5863.04
472.77	5757.72
472.95	6001.13
473.13	6125.18
473.31	5888.79
473.49	5893.47
473.67	5734.31
473.85	5858.36
474.03	6078.37
474.21	5879.43
474.39	6296.04
474.57	6216.46
474.75	6279.66
474.93	6361.58
475.12	6274.98
475.30	6148.59
475.48	6356.90
475.66	6279.66
475.84	6345.19
476.02	6509.03
476.20	6480.94
476.38	6738.40
476.56	6668.19
476.74	6658.82
476.92	6583.93
477.10	6696.27
477.28	6815.64
477.46	6689.25
477.64	6691.59
477.82	6848.41
478.00	7211.19
478.18	7159.70
478.36	7122.25
478.54	7166.72
478.72	7211.19
478.90	7124.59
479.08	7190.13
479.26	7370.35
479.44	7393.75
479.62	7339.92
479.80	7407.80
479.98	7431.20
480.16	7679.30
480.34	7775.26
480.52	7686.32
480.70	7721.43
480.88	7681.64
481.06	7864.20
481.24	7824.41
481.41	7976.55
481.59	8135.70
481.77	8086.55
481.95	8114.64
482.13	8112.30
482.31	8095.91
482.49	8397.84
482.67	8215.28
482.85	8545.30
483.03	8800.41
483.21	8634.24
483.39	8657.64
483.57	8629.56
483.74	8643.60
483.92	8856.59
484.10	8980.64
484.28	9074.26
484.46	9144.47
484.64	9317.67
484.82	9032.13
485.00	9451.08
485.18	9432.36
485.35	9626.62
485.53	9514.28
485.71	9579.81
485.89	9874.72
486.07	9643.01
486.25	9568.11
486.43	9919.19
486.61	10026.86
486.78	10071.33
486.96	9951.96
487.14	10455.17
487.32	10244.52
487.50	10183.67
487.68	10281.97
487.85	10429.43
488.03	10600.29
488.21	10853.06
488.39	10796.89
488.57	10686.89
488.75	10906.90
488.92	11162.01
489.10	11066.05
489.28	11056.69
489.46	11096.48
489.64	11171.38
489.81	11321.17
489.99	11396.07
490.17	11623.10
490.35	11548.20
490.53	11641.82
490.70	11800.98
490.88	11852.47
491.06	11826.73
491.24	12056.10
491.41	12107.59
491.59	12046.74
491.77	12299.52
491.95	12210.57
492.13	12250.36
492.30	12432.93
492.48	12685.70
492.66	12556.97
492.84	12528.89
493.01	12931.46
493.19	12732.51
493.37	12959.55
493.54	12842.52
493.72	13097.64
493.90	13046.15
494.08	13329.35
494.25	13270.84
494.43	13341.05
494.61	13446.38
494.79	13521.27
494.96	13500.21
495.14	13390.20
495.32	13748.31
495.49	13729.58
495.67	13963.64
495.85	13907.46
496.02	14080.66
496.20	14150.88
496.38	14036.19
496.55	14242.16
496.73	14604.94
496.91	14396.64
497.09	14459.83
497.26	14590.90
497.44	14452.81
497.62	14635.37
497.79	14738.35
497.97	14815.59
498.14	14974.75
498.32	15264.97
498.50	15302.42
498.67	15199.44
498.85	15232.21
499.03	15374.98
499.20	15339.87
499.38	15520.09
499.56	15477.96
499.73	15569.24
499.91	15580.95
500.08	15646.48
500.26	15288.38
500.44	15908.62
500.61	15627.76
500.79	15723.72
500.97	15988.20
501.14	16109.91
501.32	16004.58
501.49	16180.12
501.67	16198.85
501.84	16189.49
502.02	16198.85
502.20	16201.19
502.37	16294.81
502.55	16355.66
502.72	16287.79
502.90	16152.04
503.07	16498.44
503.25	16594.40
503.43	16744.19
503.60	16802.71
503.78	16858.88
503.95	16868.24
504.13	16994.63
504.30	16994.63
504.48	16999.31
504.65	16901.01
504.83	17081.23
505.01	17490.82
505.18	17476.78
505.36	17748.28
505.53	17144.42
505.71	17432.31
505.88	17212.30
506.06	17149.11
506.23	17373.80
506.41	17818.50
506.58	17481.46
506.76	17439.33
506.93	17685.09
507.11	17790.41
507.28	17762.33
507.46	18029.15
507.63	17851.27
507.81	18256.18
507.98	18118.09
508.16	18174.26
508.33	17912.12
508.50	17987.02
508.68	18443.42
508.85	18621.30
509.03	18473.85
509.20	18298.31
509.38	18806.20
509.55	18913.87
509.73	18635.35
509.90	18780.46
510.08	18614.28
510.25	18544.06
510.42	18862.38
510.60	18951.32
510.77	18829.61
510.95	19094.09
511.12	19021.53
511.30	19012.17
511.47	19096.43
511.64	19328.14
511.82	19440.49
511.99	19250.91
512.17	19482.62
512.34	19300.06
512.51	19470.92
512.69	19367.93
512.86	19655.82
513.04	19747.10
513.21	19634.75
513.38	19597.31
513.56	19765.82
513.73	19866.47
513.90	19859.45
514.08	19992.86
514.25	20217.55
514.43	20107.54
514.60	19957.75
514.77	20259.68
514.95	20091.16
515.12	19901.58
515.29	20215.21
515.47	20304.15
515.64	20472.67
515.81	20393.09
515.99	20475.01
516.16	20589.69
516.33	20498.41
516.51	20931.41
516.68	20610.76
516.85	20498.41
517.03	20830.77
517.20	20882.26
517.37	20847.15
517.54	20538.20
517.72	21123.33
517.89	20734.81
518.06	20954.82
518.24	20790.98
518.41	21132.70
518.58	21139.72
518.75	20929.07
518.93	21518.89
519.10	21319.94
519.27	21069.50
519.45	21296.53
519.62	21174.83
519.79	21156.10
519.96	21242.70
520.14	21624.21
520.31	21865.28
520.48	21809.11
520.65	21818.47
520.83	21951.88
521.00	21898.05
521.17	21607.83
521.34	21715.49
521.52	21895.71
521.69	21905.07
521.86	22408.29
522.03	22354.46
522.20	21947.20
522.38	22066.57
522.55	22300.62
522.72	21984.65
522.89	22085.30
523.07	22600.21
523.24	22391.91
523.41	22623.62
523.58	22565.10
523.75	22707.88
523.92	22501.91
524.10	22785.12
524.27	22780.43
524.44	22843.63
524.61	23136.20
524.78	22803.84
524.96	23021.51
525.13	22644.68
525.30	22782.77
525.47	23304.71
525.64	23124.49
525.81	23175.98
525.98	23269.61
526.16	22663.41
526.33	23150.24
526.50	23290.67
526.67	23199.39
526.84	22974.70
527.01	23175.98
527.18	23353.87
527.36	23073.00
527.53	23875.80
527.70	23625.37
527.87	23541.11
528.04	23531.75
528.21	23711.97
528.38	23513.02
528.55	23250.88
528.72	23672.18
528.89	23807.93
529.07	23990.49
529.24	23828.99
529.41	23733.03
529.58	23796.23
529.75	23850.06
529.92	24229.23
530.09	24084.11
530.26	23950.70
530.43	24479.66
530.60	24140.29
530.77	24411.79
530.94	24397.74
531.11	24348.59
531.28	24439.87
531.46	24348.59
531.63	24343.91
531.80	24254.97
531.97	24655.20
532.14	24802.66
532.31	24482.00
532.48	24568.60
532.65	24442.21
532.82	24652.86
532.99	24840.11
533.16	24680.95
533.33	24954.79
533.50	24713.72
533.67	25116.29
533.84	24779.25
534.01	24922.02
534.18	24940.75
534.35	24994.58
534.52	24809.68
534.69	25394.81
534.86	25205.23
535.03	24837.76
535.20	24765.21
535.37	24926.71
535.54	24704.35
535.71	24861.17
535.88	25326.94
536.05	25125.65
536.22	25188.85
536.38	25532.90
536.55	25645.25
536.72	25425.24
536.89	25359.70
537.06	25406.52
537.23	25486.09
537.40	25195.87
537.57	25647.59
537.74	25708.44
537.91	25745.89
538.08	26040.80
538.25	25860.58
538.42	25937.82
538.59	25869.94
538.75	25582.06
538.92	25862.92
539.09	25579.71
539.26	26096.97
539.43	25788.02
539.60	25914.41
539.77	25848.88
539.94	26118.04
540.11	25937.82
540.28	26026.76
540.44	25893.35
540.61	25982.29
540.78	25802.07
540.95	26260.81
541.12	26218.68
541.29	26434.01
541.46	26174.21
541.62	26192.94
541.79	26253.79
541.96	25919.09
542.13	26125.06
542.30	26129.74
542.47	26607.21
542.63	26469.12
542.80	26567.42
542.97	26766.37
543.14	26778.07
543.31	26897.44
543.48	26986.38
543.64	26946.59
543.81	26920.84
543.98	27215.75
544.15	27077.66
544.32	26913.82
544.48	27089.36
544.65	26623.59
544.82	27044.89
544.99	26532.31
545.16	27016.80
545.32	26829.56
545.49	27445.12
545.66	27501.29
545.83	27356.18
546.00	27569.17
546.16	27145.53
546.33	27283.62
546.50	26639.98
546.67	27325.75
546.83	27122.13
547.00	27335.12
547.17	27328.10
547.34	27384.27
547.50	27510.66
547.67	27770.46
547.84	27501.29
548.00	27716.62
548.17	27520.02
548.34	27466.19
548.51	27725.99
548.67	28051.32
548.84	28048.98
549.01	27784.50
549.18	27819.61
549.34	27992.81
549.51	27887.48
549.68	28027.92
549.84	28013.87
550.01	27524.70
550.18	27786.84
550.34	28472.62
550.51	27770.46
550.68	28409.42
550.84	27407.67
551.01	28121.54
551.18	27639.39
551.34	27967.06
551.51	28175.37
551.68	28030.26
551.84	28166.01
552.01	28500.70
552.18	28533.47
552.34	27983.44
552.51	28215.16
552.68	28100.47
552.84	28067.70
553.01	28386.02
553.18	28442.19
553.34	28063.02
553.51	28524.11
553.67	28819.02
553.84	28716.03
554.01	28741.78
554.17	28535.81
554.34	28676.24
554.51	28538.15
554.67	28744.12
554.84	28397.72
555.00	28816.68
555.17	28748.80
555.33	28929.02
555.50	28402.40
555.67	28673.90
555.83	28484.32
556.00	28929.02
556.16	29153.71
556.33	28601.35
556.50	29022.64
556.66	28659.86
556.83	28999.24
556.99	29366.70
557.16	28961.79
557.32	28732.42
557.49	29134.99
557.65	28701.99
557.82	29123.29
557.98	28957.11
558.15	29060.09
558.32	29516.50
558.48	28781.57
558.65	29160.73
558.81	29055.41
558.98	29460.32
559.14	29404.15
559.31	29048.39
559.47	29041.37
559.64	29104.56
559.80	29069.45
559.97	29670.97
560.13	29340.96
560.30	29015.62
560.46	29149.03
560.63	28994.56
560.79	29504.79
560.96	29223.93
561.12	29032.00
561.29	29254.36
561.45	29455.64
561.61	29355.00
561.78	29408.83
561.94	29542.24
562.11	29380.74
562.27	29490.75
562.44	29677.99
562.60	29465.00
562.77	29457.98
562.93	29488.41
563.10	29453.30
563.26	29460.32
563.42	29682.67
563.59	29666.29
563.75	29462.66
563.92	29811.40
564.08	29446.28
564.24	29729.48
564.41	29565.65
564.57	29453.30
564.74	29949.50
564.90	29940.13
565.07	29773.95
565.23	29837.15
565.39	30183.55
565.56	30094.61
565.72	29472.03
565.88	29600.76
566.05	29474.37
566.21	29670.97
566.38	29509.47
566.54	30008.01
566.70	29762.25
566.87	30157.80
567.03	30029.07
567.19	30096.95
567.36	30221.00
567.52	30050.14
567.68	29748.21
567.85	29572.67
568.01	30260.79
568.17	29862.90
568.34	30281.85
568.50	29900.34
568.66	30017.37
568.83	30328.66
568.99	30417.60
569.15	29930.77
569.32	29799.70
569.48	29809.06
569.64	29998.65
569.81	30101.63
569.97	29832.47
570.13	30251.42
570.30	29670.97
570.46	30033.75
570.62	29518.84
570.78	30122.69
570.95	29876.94
571.11	30211.64
571.27	29685.01
571.43	29907.37
571.60	30010.35
571.76	30305.26
571.92	30532.29
572.09	30031.41
572.25	30305.26
572.41	30333.34
572.57	30073.54
572.74	30679.74
572.90	30213.98
573.06	30099.29
573.22	30424.62
573.38	30291.21
573.55	29954.18
573.71	30249.08
573.87	30380.15
574.03	30136.74
574.20	30611.87
574.36	30103.97
574.52	30642.29
574.68	30174.19
574.84	30174.19
575.01	30307.60
575.17	30174.19
575.33	30096.95
575.49	30204.61
575.65	30242.06
575.82	30614.21
575.98	30183.55
576.14	30405.90
576.30	30363.77
576.46	30272.49
576.62	30335.68
576.79	30670.38
576.95	30670.38
577.11	30127.38
577.27	30323.98
577.43	30558.03
577.59	30284.19
577.75	30675.06
577.92	29855.87
578.08	30536.97
578.24	30462.07
578.40	30110.99
578.56	30272.49
578.72	30459.73
578.88	30492.50
579.04	30888.05
579.21	30448.03
579.37	30401.22
579.53	30654.00
579.69	30204.61
579.85	30274.83
580.01	30169.51
580.17	30019.71
580.33	30836.56
580.49	30555.69
580.65	30899.75
580.82	30417.60
580.98	30628.25
581.14	30515.90
581.30	30518.25
581.46	30345.05
581.62	30567.40
581.78	30607.19
581.94	30555.69
582.10	30319.30
582.26	30534.63
582.42	30728.89
582.58	30082.91
582.74	30515.90
582.90	30354.41
583.06	30866.98
583.22	30754.64
583.38	30298.23
583.54	30721.87
583.70	30169.51
583.86	30429.30
584.02	30850.60
584.18	30813.15
584.34	30410.58
584.50	30541.65
584.66	30401.22
584.82	30803.79
584.98	30984.01
585.14	30618.89
585.30	30499.52
585.46	30572.08
585.62	30419.94
585.78	30532.29
585.94	30555.69
586.10	30951.24
586.26	30483.14
586.42	30939.54
586.58	30651.66
586.74	30260.79
586.90	30401.22
587.06	30118.01
587.22	30604.84
587.38	30448.03
587.54	30801.45
587.70	30946.56
587.86	30857.62
588.02	31037.84
588.18	30768.68
588.34	30778.04
588.49	30377.81
588.65	30419.94
588.81	30616.55
588.97	30721.87
589.13	30522.93
589.29	30412.92
589.45	30756.98
589.61	30518.25
589.77	31442.76
589.93	30799.11
590.08	30801.45
590.24	31384.24
590.40	30937.20
590.56	30923.16
590.72	30637.61
590.88	30843.58
591.04	30766.34
591.20	31026.14
591.35	31040.18
591.51	31119.76
591.67	31117.42
591.83	31456.80
591.99	30934.86
