SpectraSuite Data File
++++++++++++++++++++++++++++++++++++
Date: Fri Oct 18 13:58:06 GMT-05:00 2013
User: bianchi
Dark Spectrum Present: No
Reference Spectrum Present: No
Number of Sampled Component Spectra: 1
Spectrometers: USB2+H05261
Integration Time (usec): 50000 (USB2+H05261)
Spectra Averaged: 1 (USB2+H05261)
Boxcar Smoothing: 0 (USB2+H05261)
Correct for Electrical Dark: No (USB2+H05261)
Strobe/Lamp Enabled: No (USB2+H05261)
Correct for Detector Non-linearity: No (USB2+H05261)
Correct for Stray Light: No (USB2+H05261)
Number of Pixels in Processed Spectrum: 2048
>>>>>Begin Processed Spectral Data<<<<<
365.73	9.36
365.92	9.36
366.12	9.36
366.32	0.00
366.52	0.00
366.72	0.00
366.91	0.00
367.11	0.00
367.31	0.00
367.51	0.00
367.70	0.00
367.90	0.00
368.10	0.00
368.30	0.00
368.49	0.00
368.69	0.00
368.89	0.00
369.09	0.00
369.28	0.00
369.48	0.00
369.68	0.00
369.87	0.00
370.07	0.00
370.27	0.00
370.47	0.00
370.66	95.96
370.86	84.26
371.06	91.28
371.25	173.20
371.45	58.51
371.65	145.11
371.84	180.22
372.04	161.50
372.24	70.22
372.44	107.66
372.63	168.52
372.83	229.37
373.03	215.33
373.22	205.97
373.42	210.65
373.62	189.58
373.81	271.50
374.01	205.97
374.21	227.03
374.40	189.58
374.60	201.29
374.79	287.89
374.99	203.63
375.19	210.65
375.38	238.73
375.58	252.78
375.78	280.86
375.97	269.16
376.17	259.80
376.37	266.82
376.56	271.50
376.76	236.39
376.95	311.29
377.15	292.57
377.35	269.16
377.54	304.27
377.74	241.08
377.93	271.50
378.13	276.18
378.33	299.59
378.52	311.29
378.72	241.08
378.91	276.18
379.11	301.93
379.31	322.99
379.50	177.88
379.70	322.99
379.89	344.06
380.09	337.04
380.28	299.59
380.48	308.95
380.68	358.10
380.87	386.19
381.07	248.10
381.26	322.99
381.46	327.68
381.65	362.78
381.85	374.49
382.04	425.98
382.24	355.76
382.43	304.27
382.63	388.53
382.83	358.10
383.02	325.33
383.22	301.93
383.41	269.16
383.61	362.78
383.80	423.64
384.00	341.72
384.19	369.80
384.39	430.66
384.58	374.49
384.78	346.40
384.97	346.40
385.17	388.53
385.36	465.77
385.56	475.13
385.75	437.68
385.95	383.85
386.14	409.59
386.34	404.91
386.53	470.45
386.72	395.55
386.92	425.98
387.11	482.15
387.31	390.87
387.50	355.76
387.70	395.55
387.89	456.40
388.09	500.87
388.28	505.56
388.48	447.04
388.67	484.49
388.86	362.78
389.06	493.85
389.25	540.66
389.45	510.24
389.64	400.23
389.84	496.19
390.03	531.30
390.22	489.17
390.42	437.68
390.61	437.68
390.81	533.64
391.00	477.47
391.19	456.40
391.39	514.92
391.58	458.74
391.78	496.19
391.97	505.56
392.16	592.16
392.36	507.90
392.55	566.41
392.75	557.05
392.94	543.00
393.13	580.45
393.33	580.45
393.52	519.60
393.71	631.94
393.91	547.69
394.10	655.35
394.29	594.50
394.49	587.47
394.68	568.75
394.88	622.58
395.07	596.84
395.26	634.29
395.46	606.20
395.65	641.31
395.84	695.14
396.04	610.88
396.23	631.94
396.42	596.84
396.62	624.92
396.81	615.56
397.00	725.57
397.19	641.31
397.39	655.35
397.58	727.91
397.77	664.71
397.97	664.71
398.16	575.77
398.35	748.97
398.55	739.61
398.74	720.88
398.93	753.65
399.12	798.12
399.32	706.84
399.51	727.91
399.70	772.38
399.90	763.01
400.09	781.74
400.28	772.38
400.47	781.74
400.67	788.76
400.86	788.76
401.05	819.19
401.24	697.48
401.44	805.14
401.63	868.34
401.82	807.48
402.01	767.70
402.21	835.57
402.40	901.11
402.59	896.43
402.78	875.36
402.97	863.66
403.17	959.62
403.36	896.43
403.55	983.02
403.74	959.62
403.93	910.47
404.13	987.71
404.32	875.36
404.51	959.62
404.70	945.58
404.89	971.32
405.09	912.81
405.28	922.17
405.47	994.73
405.66	933.87
405.85	985.37
406.05	945.58
406.24	997.07
406.43	938.55
406.62	1032.18
406.81	1069.62
407.00	1004.09
407.20	1055.58
407.39	997.07
407.58	1043.88
407.77	1032.18
407.96	1158.57
408.15	1137.50
408.34	1043.88
408.54	1032.18
408.73	1050.90
408.92	1121.12
409.11	1186.65
409.30	1041.54
409.49	1177.29
409.68	1177.29
409.87	1181.97
410.07	1198.35
410.26	1254.53
410.45	1181.97
410.64	1224.10
410.83	1203.04
411.02	1184.31
411.21	1268.57
411.40	1242.82
411.59	1198.35
411.78	1219.42
411.98	1254.53
412.17	1359.85
412.36	1291.98
412.55	1387.94
412.74	1334.11
412.93	1362.19
413.12	1434.75
413.31	1439.43
413.50	1486.24
413.69	1430.07
413.88	1385.60
414.07	1430.07
414.26	1481.56
414.45	1460.49
414.64	1460.49
414.83	1458.15
415.02	1547.09
415.22	1490.92
415.41	1565.82
415.60	1659.44
415.79	1554.12
415.98	1671.14
416.17	1596.25
416.36	1640.72
416.55	1612.63
416.74	1689.87
416.93	1591.56
417.12	1722.63
417.31	1781.15
417.50	1666.46
417.69	1713.27
417.88	1734.34
418.07	1762.42
418.26	1710.93
418.45	1837.32
418.64	1806.89
418.83	1813.92
419.02	1884.13
419.21	1909.88
419.39	1825.62
419.58	1858.39
419.77	1956.69
419.96	1799.87
420.15	1888.81
420.34	1916.90
420.53	1905.20
420.72	2008.18
420.91	1923.92
421.10	1970.73
421.29	2012.86
421.48	1923.92
421.67	1998.82
421.86	1933.28
422.05	2019.88
422.24	2045.63
422.43	2029.24
422.61	2022.22
422.80	2071.37
422.99	2204.78
423.18	2001.16
423.37	2064.35
423.56	1994.14
423.75	2071.37
423.94	2073.71
424.13	1856.04
424.32	1928.60
424.50	2073.71
424.69	2104.14
424.88	2155.63
425.07	2071.37
425.26	2017.54
425.45	2162.66
425.64	2008.18
425.83	2001.16
426.01	2101.80
426.20	2022.22
426.39	2064.35
426.58	2108.82
426.77	2012.86
426.96	2195.42
427.15	2062.01
427.33	2230.53
427.52	2129.89
427.71	2190.74
427.90	2162.66
428.09	2270.32
428.28	2188.40
428.46	2202.44
428.65	2202.44
428.84	2251.60
429.03	2328.83
429.22	2221.17
429.40	2317.13
429.59	2267.98
429.78	2172.02
429.97	2275.00
430.16	2209.47
430.34	2265.64
430.53	2438.84
430.72	2321.81
430.91	2272.66
431.10	2370.96
431.28	2333.51
431.47	2485.65
431.66	2513.74
431.85	2333.51
432.03	2511.39
432.22	2499.69
432.41	2466.92
432.60	2518.42
432.79	2347.56
432.97	2455.22
433.16	2527.78
433.35	2495.01
433.54	2558.21
433.72	2600.34
433.91	2443.52
434.10	2422.45
434.28	2579.27
434.47	2672.89
434.66	2715.02
434.85	2576.93
435.03	2511.39
435.22	2565.23
435.41	2654.17
435.59	2731.41
435.78	2597.99
435.97	2644.81
436.16	2808.64
436.34	2785.24
436.53	2761.83
436.72	2764.17
436.90	2691.62
437.09	2822.69
437.28	2708.00
437.46	2724.38
437.65	2682.25
437.84	2820.35
438.02	2834.39
438.21	2883.54
438.40	2761.83
438.58	2965.46
438.77	2953.76
438.96	2871.84
439.14	2920.99
439.33	2932.69
439.52	2850.77
439.70	3124.62
439.89	2979.50
440.08	3007.59
440.26	3080.14
440.45	3054.40
440.63	3187.81
440.82	3190.15
441.01	3185.47
441.19	3157.38
441.38	3173.77
441.57	3241.64
441.75	3248.66
441.94	3412.50
442.12	3424.20
442.31	3323.56
442.50	3468.67
442.68	3342.28
442.87	3442.93
443.05	3300.16
443.24	3243.98
443.43	3440.59
443.61	3346.97
443.80	3571.66
443.98	3363.35
444.17	3220.58
444.35	3456.97
444.54	3499.10
444.73	3419.52
444.91	3379.73
445.10	3368.03
445.28	3461.65
445.47	3431.23
445.65	3398.46
445.84	3637.19
446.02	3583.36
446.21	3529.53
446.39	3426.54
446.58	3609.11
446.77	3625.49
446.95	3433.57
447.14	3496.76
447.32	3517.83
447.51	3522.51
447.69	3339.94
447.88	3595.06
448.06	3487.40
448.25	3527.19
448.43	3583.36
448.62	3602.08
448.80	3559.95
448.99	3548.25
449.17	3768.26
449.36	3639.53
449.54	3641.87
449.73	3705.07
449.91	3831.46
450.10	3850.18
450.28	3786.99
450.46	3808.05
450.65	3763.58
450.83	3742.52
451.02	3915.72
451.20	3925.08
451.39	3772.94
451.57	3775.28
451.76	3730.81
451.94	3904.01
452.13	3735.50
452.31	3880.61
452.49	3906.35
452.68	3967.21
452.86	3852.52
453.05	4028.06
453.23	4018.70
453.42	3896.99
453.60	4025.72
453.78	4025.72
453.97	3918.06
454.15	3999.98
454.34	4046.79
454.52	4173.18
454.70	4014.02
454.89	4154.45
455.07	4056.15
455.26	4114.66
455.44	4245.73
455.62	4091.26
455.81	4121.68
455.99	4177.86
456.17	4170.83
456.36	4215.30
456.54	4348.72
456.73	4411.91
456.91	4428.29
457.09	4479.79
457.28	4432.97
457.46	4423.61
457.64	4440.00
457.83	4327.65
458.01	4447.02
458.19	4362.76
458.38	4507.87
458.56	4498.51
458.74	4500.85
458.93	4442.34
459.11	4564.04
459.29	4395.53
459.48	4353.40
459.66	4491.49
459.84	4697.46
460.03	4751.29
460.21	4622.56
460.39	4664.69
460.57	4582.77
460.76	4547.66
460.94	4697.46
461.12	4671.71
461.31	4606.17
461.49	4730.22
461.67	4758.31
461.85	4807.46
462.04	4685.75
462.22	5046.20
462.40	4924.49
462.59	4887.04
462.77	4940.87
462.95	4889.38
463.13	4744.27
463.32	4887.04
463.50	5006.41
463.68	4992.36
463.86	4980.66
464.05	4938.53
464.23	4933.85
464.41	4903.42
464.59	4746.61
464.78	4947.89
464.96	5008.75
465.14	4973.64
465.32	5064.92
465.50	5104.71
465.69	5137.48
465.87	5032.15
466.05	4957.25
466.23	5142.16
466.41	5280.25
466.60	5317.70
466.78	5137.48
466.96	5116.41
467.14	5069.60
467.32	5125.77
467.51	5313.02
467.69	5172.58
467.87	5228.76
468.05	5317.70
468.23	5219.39
468.41	5289.61
468.60	5423.02
468.78	5315.36
468.96	5151.52
469.14	5287.27
469.32	5352.81
469.50	5324.72
469.69	5425.36
469.87	5561.11
470.05	5385.57
470.23	5462.81
470.41	5495.58
470.59	5633.67
470.77	5427.70
470.95	5394.93
471.14	5678.14
471.32	5558.77
471.50	5678.14
471.68	5628.99
471.86	5837.30
472.04	5724.95
472.22	5856.02
472.40	5703.89
472.58	5736.65
472.77	5823.25
472.95	5966.03
473.13	6015.18
473.31	5935.60
473.49	6085.39
473.67	6050.28
473.85	5973.05
474.03	6146.25
474.21	6132.20
474.39	6321.79
474.57	6218.80
474.75	6417.75
474.93	6174.33
475.12	6160.29
475.30	6363.92
475.48	6195.40
475.66	6361.58
475.84	6436.47
476.02	6569.88
476.20	6525.41
476.38	6499.67
476.56	6565.20
476.74	6588.61
476.92	6684.57
477.10	6560.52
477.28	6717.34
477.46	6663.51
477.64	6913.94
477.82	6853.09
478.00	7103.53
478.18	6876.49
478.36	7082.46
478.54	7117.57
478.72	7208.85
478.90	7304.81
479.08	7267.36
479.26	7183.10
479.44	7344.60
479.62	7346.94
479.80	7414.82
479.98	7637.17
480.16	7765.90
480.34	7595.04
480.52	7803.35
480.70	7707.38
480.88	7466.31
481.06	7655.89
481.24	7873.56
481.41	7777.60
481.59	7861.86
481.77	8032.72
481.95	8161.45
482.13	8437.63
482.31	8215.28
482.49	8442.31
482.67	8374.44
482.85	8528.91
483.03	8732.54
483.21	8657.64
483.39	8725.52
483.57	8674.03
483.74	8908.08
483.92	9027.45
484.10	8814.46
484.28	9034.47
484.46	9296.61
484.64	9392.57
484.82	9245.12
485.00	9238.09
485.18	9565.77
485.35	9542.36
485.53	9479.17
485.71	9682.80
485.89	9589.17
486.07	9694.50
486.25	9638.33
486.43	9654.71
486.61	9867.70
486.78	10127.50
486.96	10106.43
487.14	10127.50
487.32	10127.50
487.50	10235.16
487.68	10279.63
487.85	10537.09
488.03	10658.80
488.21	10576.88
488.39	10808.59
488.57	10822.64
488.75	10806.25
488.92	11164.36
489.10	11059.03
489.28	11124.57
489.46	11208.83
489.64	11056.69
489.81	11438.20
489.99	11426.50
490.17	11445.22
490.35	11676.93
490.53	11555.22
490.70	11920.35
490.88	11620.76
491.06	11920.35
491.24	11981.20
491.41	12161.42
491.59	12182.49
491.77	12044.40
491.95	12283.13
492.13	12236.32
492.30	12439.95
492.48	12542.93
492.66	12468.03
492.84	12451.65
493.01	12739.54
493.19	12671.66
493.37	12901.03
493.54	13139.77
493.72	13163.17
493.90	13132.75
494.08	13167.85
494.25	13296.58
494.43	13429.99
494.61	13413.61
494.79	13579.79
494.96	13612.56
495.14	13441.70
495.32	13799.80
495.49	13439.36
495.67	13919.17
495.85	14057.26
496.02	14211.73
496.20	14207.05
496.38	14106.41
496.55	14061.94
496.73	14562.81
496.91	14434.08
497.09	14696.22
497.26	14501.96
497.44	14455.15
497.62	14675.16
497.79	14813.25
497.97	14773.46
498.14	14958.36
498.32	15105.82
498.50	15091.77
498.67	15061.35
498.85	15096.46
499.03	15356.25
499.20	15344.55
499.38	15269.66
499.56	15363.28
499.73	15721.38
499.91	15796.28
500.08	15709.68
500.26	15496.69
500.44	15665.21
500.61	15576.27
500.79	15728.40
500.97	16009.26
501.14	16107.57
501.32	16250.34
501.49	16374.39
501.67	16063.10
501.84	16154.38
502.02	16280.77
502.20	16379.07
502.37	16524.18
502.55	16416.52
502.72	16486.73
502.90	16395.45
503.07	16514.82
503.25	16561.63
503.43	16301.83
503.60	16575.67
503.78	16891.65
503.95	16830.79
504.13	17165.49
504.30	16828.45
504.48	16926.75
504.65	16910.37
504.83	17062.51
505.01	17219.32
505.18	17259.11
505.36	17326.99
505.53	17256.77
505.71	17397.20
505.88	17462.74
506.06	17542.32
506.23	17539.97
506.41	17434.65
506.58	17439.33
506.76	17834.88
506.93	17659.34
507.11	17673.39
507.28	17696.79
507.46	17767.01
507.63	17785.73
507.81	18218.73
507.98	18075.96
508.16	18305.33
508.33	18342.78
508.50	18270.22
508.68	18134.47
508.85	18602.58
509.03	18581.51
509.20	18574.49
509.38	18712.58
509.55	18754.71
509.73	18888.12
509.90	18604.92
510.08	18792.16
510.25	18675.13
510.42	18836.63
510.60	18855.36
510.77	19115.16
510.95	19087.07
511.12	19063.66
511.30	19096.43
511.47	19271.97
511.64	19152.60
511.82	19384.32
511.99	19536.45
512.17	19358.57
512.34	19377.30
512.51	19613.69
512.69	19559.86
512.86	19506.02
513.04	19789.23
513.21	19847.74
513.38	19824.34
513.56	20240.95
513.73	19697.95
513.90	19800.93
514.08	19611.35
514.25	20152.01
514.43	19995.20
514.60	20156.69
514.77	20170.74
514.95	20678.63
515.12	20276.06
515.29	20196.48
515.47	20407.13
515.64	20622.46
515.81	20416.49
515.99	20765.23
516.16	20603.74
516.33	20652.89
516.51	21010.99
516.68	20587.35
516.85	20552.24
517.03	20664.59
517.20	20943.11
517.37	21130.36
517.54	21245.04
517.72	21174.83
517.89	20903.32
518.06	20912.69
518.24	21120.99
518.41	21106.95
518.58	21090.57
518.75	21034.39
518.93	21312.92
519.10	21458.03
519.27	21509.52
519.45	21628.89
519.62	21336.32
519.79	21579.74
519.96	21631.23
520.14	21586.76
520.31	21474.42
520.48	21516.54
520.65	21645.27
520.83	21891.03
521.00	21933.16
521.17	21956.57
521.34	21865.28
521.52	22008.06
521.69	22356.80
521.86	21715.49
522.03	22253.81
522.20	22094.66
522.38	22387.22
522.55	22097.00
522.72	22242.11
522.89	22548.72
523.07	22684.47
523.24	22618.94
523.41	22693.83
523.58	22342.75
523.75	22513.61
523.92	22574.47
524.10	22618.94
524.27	22642.34
524.44	22993.42
524.61	22932.57
524.78	23342.16
524.96	22991.08
525.13	22874.06
525.30	23119.81
525.47	22630.64
525.64	23180.67
525.81	23183.01
525.98	23257.90
526.16	23346.84
526.33	23166.62
526.50	23559.83
526.67	23264.92
526.84	22960.66
527.01	23267.27
527.18	23543.45
527.36	23400.68
527.53	23655.79
527.70	23660.48
527.87	23709.63
528.04	23807.93
528.21	23786.86
528.38	23751.76
528.55	24191.78
528.72	23754.10
528.89	24044.32
529.07	23744.73
529.24	23566.85
529.41	24084.11
529.58	23805.59
529.75	23978.79
529.92	24126.24
530.09	23941.34
530.26	24114.54
530.43	24299.44
530.60	24041.98
530.77	24194.12
530.94	24346.25
531.11	24166.03
531.28	24135.60
531.46	24233.91
531.63	24673.93
531.80	24655.20
531.97	24671.59
532.14	24718.40
532.31	24271.36
532.48	24435.19
532.65	24886.92
532.82	24538.18
532.99	24610.73
533.16	24526.47
533.33	24542.86
533.50	25081.18
533.67	25057.78
533.84	24964.15
534.01	24847.13
534.18	24587.33
534.35	25228.63
534.52	24936.07
534.69	25418.22
534.86	25111.61
535.03	24879.89
535.20	25502.48
535.37	25434.60
535.54	25560.99
535.71	25357.36
535.88	25200.55
536.05	25612.48
536.22	25179.48
536.38	25685.04
536.55	25352.68
536.72	25329.28
536.89	25219.27
537.06	25666.31
537.23	25745.89
537.40	25603.12
537.57	25577.37
537.74	25785.68
537.91	25823.13
538.08	26270.17
538.25	25799.73
538.42	25914.41
538.59	25895.69
538.75	25383.11
538.92	25769.30
539.09	25869.94
539.26	26223.36
539.43	25759.94
539.60	26361.45
539.77	26010.37
539.94	26267.83
540.11	26232.72
540.28	26150.81
540.44	26171.87
540.61	25916.75
540.78	25874.62
540.95	26162.51
541.12	26157.83
541.29	26288.90
541.46	26094.63
541.62	26125.06
541.79	26366.13
541.96	25970.58
542.13	26221.02
542.30	27021.48
542.47	26300.60
542.63	26492.52
542.80	26834.24
542.97	27016.80
543.14	26778.07
543.31	27154.90
543.48	26595.51
543.64	26948.93
543.81	27091.70
543.98	27358.52
544.15	27283.62
544.32	27257.88
544.48	27161.92
544.65	27208.73
544.82	27386.61
544.99	26946.59
545.16	26906.80
545.32	26850.63
545.49	27529.38
545.66	27051.91
545.83	27728.33
546.00	27686.20
546.16	27402.99
546.33	27159.58
546.50	27147.87
546.67	26881.05
546.83	27154.90
547.00	27234.47
547.17	27166.60
547.34	27257.88
547.50	28063.02
547.67	27964.72
547.84	27505.98
548.00	27878.12
548.17	27805.56
548.34	27630.02
548.51	27903.87
548.67	27756.41
548.84	27920.25
549.01	27988.13
549.18	27665.13
549.34	27599.60
549.51	27751.73
549.68	28081.75
549.84	27740.03
550.01	27737.69
550.18	28023.23
550.34	27571.51
550.51	28306.44
550.68	28095.79
550.84	28320.48
551.01	28350.91
551.18	28006.85
551.34	27749.39
551.51	28084.09
551.68	28226.86
551.84	28486.66
552.01	28290.06
552.18	28432.83
552.34	28144.94
552.51	28226.86
552.68	28261.97
552.84	28664.54
553.01	28418.78
553.18	28231.54
553.34	28933.70
553.51	28257.29
553.67	28645.82
553.84	28804.97
554.01	28699.65
554.17	28755.82
554.34	28524.11
554.51	28444.53
554.67	28680.92
554.84	28599.01
555.00	28556.88
555.17	28755.82
555.33	28840.08
555.50	28463.25
555.67	28577.94
555.83	29010.94
556.00	29078.82
556.16	28919.66
556.33	28851.78
556.50	29099.88
556.66	29230.95
556.83	28940.72
556.99	29071.79
557.16	29223.93
557.32	29280.10
557.49	29006.26
557.65	28802.63
557.82	28919.66
557.98	28760.50
558.15	28907.96
558.32	28765.18
558.48	28985.19
558.65	29551.60
558.81	29259.04
558.98	29369.04
559.14	29015.62
559.31	29359.68
559.47	29099.88
559.64	29525.86
559.80	29301.17
559.97	29624.16
560.13	29167.76
560.30	29139.67
560.46	29369.04
560.63	29591.39
560.79	29425.22
560.96	29661.61
561.12	29259.04
561.29	29586.71
561.45	29502.45
561.61	29549.26
561.78	29500.11
561.94	29783.32
562.11	29790.34
562.27	29399.47
562.44	29582.03
562.60	29563.31
562.77	29624.16
562.93	29493.09
563.10	30036.09
563.26	29933.11
563.42	29514.16
563.59	29780.98
563.75	29411.17
563.92	29589.05
564.08	29586.71
564.24	29472.03
564.41	29572.67
564.57	29696.72
564.74	29551.60
564.90	30359.09
565.07	30015.03
565.23	29708.42
565.39	30054.82
565.56	29972.90
565.72	29621.82
565.88	29759.91
566.05	29741.19
566.21	30068.86
566.38	29706.08
566.54	29802.04
566.70	30213.98
566.87	30316.96
567.03	30169.51
567.19	30419.94
567.36	30249.08
567.52	30232.70
567.68	30157.80
567.85	30125.04
568.01	29799.70
568.17	29949.50
568.34	30031.41
568.50	30127.38
568.66	29979.92
568.83	30394.20
568.99	30057.16
569.15	30251.42
569.32	30139.08
569.48	30185.89
569.64	29919.07
569.81	30347.39
569.97	30253.76
570.13	30389.52
570.30	29949.50
570.46	29998.65
570.62	30190.57
570.78	30141.42
570.95	29986.94
571.11	30064.18
571.27	29645.23
571.43	30377.81
571.60	30331.00
571.76	29893.32
571.92	30295.89
572.09	30270.15
572.25	30321.64
572.41	30485.48
572.57	30066.52
572.74	30331.00
572.90	30331.00
573.06	30499.52
573.22	30139.08
573.38	30272.49
573.55	30361.43
573.71	30328.66
573.87	30572.08
574.03	30412.92
574.20	30628.25
574.36	30277.17
574.52	30487.82
574.68	30485.48
574.84	30551.01
575.01	30279.51
575.17	30433.99
575.33	30326.32
575.49	30314.62
575.65	30188.23
575.82	30892.73
575.98	30272.49
576.14	30625.91
576.30	30553.35
576.46	30232.70
576.62	30417.60
576.79	30478.46
576.95	30597.82
577.11	30822.51
577.27	30850.60
577.43	30426.96
577.59	30733.57
577.75	30511.22
577.92	30270.15
578.08	30590.80
578.24	30281.85
578.40	30543.99
578.56	30602.50
578.72	30532.29
578.88	30536.97
579.04	30752.30
579.21	30361.43
579.37	30326.32
579.53	30632.93
579.69	30197.59
579.85	30614.21
580.01	30714.85
580.17	30375.47
580.33	30424.62
580.49	30377.81
580.65	30639.95
580.82	30794.43
580.98	30855.28
581.14	30714.85
581.30	30799.11
581.46	30448.03
581.62	30593.14
581.78	30136.74
581.94	30562.72
582.10	30567.40
582.26	30195.25
582.42	30824.86
582.58	30508.88
582.74	30745.28
582.90	30651.66
583.06	30726.55
583.22	30485.48
583.38	30607.19
583.54	30501.86
583.70	30726.55
583.86	30600.16
584.02	30366.11
584.18	30693.79
584.34	31185.30
584.50	31241.47
584.66	30668.04
584.82	30515.90
584.98	30904.43
585.14	30813.15
585.30	30586.12
585.46	30609.53
585.62	30611.87
585.78	30850.60
585.94	30277.17
586.10	30951.24
586.26	30707.83
586.42	31094.02
586.58	30913.80
586.74	30621.23
586.90	30560.37
587.06	30654.00
587.22	30639.95
587.38	30543.99
587.54	31063.59
587.70	30951.24
587.86	30787.41
588.02	31194.66
588.18	31154.87
588.34	31150.19
588.49	30637.61
588.65	30426.96
588.81	30672.72
588.97	30934.86
589.13	30902.09
589.29	31012.10
589.45	30862.30
589.61	30918.48
589.77	31171.25
589.93	31372.54
590.08	31344.45
590.24	30850.60
590.40	31496.59
590.56	31147.85
590.72	30958.27
590.88	30932.52
591.04	31159.55
591.20	30878.69
591.35	31798.52
591.51	31234.45
591.67	31295.30
591.83	31161.89
591.99	31241.47
