SpectraSuite Data File
++++++++++++++++++++++++++++++++++++
Date: Fri Oct 18 13:58:34 GMT-05:00 2013
User: bianchi
Dark Spectrum Present: No
Reference Spectrum Present: No
Number of Sampled Component Spectra: 1
Spectrometers: USB2+H05261
Integration Time (usec): 50000 (USB2+H05261)
Spectra Averaged: 1 (USB2+H05261)
Boxcar Smoothing: 0 (USB2+H05261)
Correct for Electrical Dark: No (USB2+H05261)
Strobe/Lamp Enabled: No (USB2+H05261)
Correct for Detector Non-linearity: No (USB2+H05261)
Correct for Stray Light: No (USB2+H05261)
Number of Pixels in Processed Spectrum: 2048
>>>>>Begin Processed Spectral Data<<<<<
365.73	0.00
365.92	0.00
366.12	0.00
366.32	0.00
366.52	0.00
366.72	0.00
366.91	0.00
367.11	0.00
367.31	0.00
367.51	0.00
367.70	0.00
367.90	0.00
368.10	0.00
368.30	0.00
368.49	0.00
368.69	0.00
368.89	0.00
369.09	0.00
369.28	0.00
369.48	0.00
369.68	0.00
369.87	0.00
370.07	0.00
370.27	0.00
370.47	0.00
370.66	100.64
370.86	117.03
371.06	149.79
371.25	224.69
371.45	32.77
371.65	138.09
371.84	147.45
372.04	177.88
372.24	220.01
372.44	173.20
372.63	191.92
372.83	177.88
373.03	114.69
373.22	210.65
373.42	198.95
373.62	220.01
373.81	208.31
374.01	306.61
374.21	320.65
374.40	299.59
374.60	330.02
374.79	276.18
374.99	194.26
375.19	308.95
375.38	271.50
375.58	283.20
375.78	304.27
375.97	262.14
376.17	299.59
376.37	271.50
376.56	269.16
376.76	287.89
376.95	215.33
377.15	290.23
377.35	334.70
377.54	308.95
377.74	266.82
377.93	273.84
378.13	308.95
378.33	308.95
378.52	238.73
378.72	294.91
378.91	341.72
379.11	187.24
379.31	266.82
379.50	271.50
379.70	325.33
379.89	257.46
380.09	339.38
380.28	320.65
380.48	344.06
380.68	285.55
380.87	365.12
381.07	327.68
381.26	360.44
381.46	278.52
381.65	299.59
381.85	334.70
382.04	313.63
382.24	351.08
382.43	362.78
382.63	416.62
382.83	311.29
383.02	404.91
383.22	320.65
383.41	285.55
383.61	355.76
383.80	367.46
384.00	369.80
384.19	273.84
384.39	435.34
384.58	421.30
384.78	358.10
384.97	388.53
385.17	346.40
385.36	423.64
385.56	367.46
385.75	407.25
385.95	390.87
386.14	367.46
386.34	393.21
386.53	409.59
386.72	397.89
386.92	425.98
387.11	379.17
387.31	435.34
387.50	372.15
387.70	322.99
387.89	407.25
388.09	409.59
388.28	510.24
388.48	465.77
388.67	507.90
388.86	435.34
389.06	404.91
389.25	456.40
389.45	484.49
389.64	449.38
389.84	547.69
390.03	468.11
390.22	582.79
390.42	414.27
390.61	376.83
390.81	472.79
391.00	554.71
391.19	444.70
391.39	538.32
391.58	517.26
391.78	507.90
391.97	505.56
392.16	472.79
392.36	603.86
392.55	482.15
392.75	557.05
392.94	559.39
393.13	500.87
393.33	615.56
393.52	596.84
393.71	624.92
393.91	543.00
394.10	552.37
394.29	463.43
394.49	636.63
394.68	557.05
394.88	603.86
395.07	645.99
395.26	528.96
395.46	566.41
395.65	610.88
395.84	631.94
396.04	676.41
396.23	554.71
396.42	554.71
396.62	667.05
396.81	641.31
397.00	662.37
397.19	582.79
397.39	667.05
397.58	629.60
397.77	606.20
397.97	664.71
398.16	723.23
398.35	709.18
398.55	720.88
398.74	692.80
398.93	697.48
399.12	716.20
399.32	730.25
399.51	690.46
399.70	678.76
399.90	774.72
400.09	816.85
400.28	793.44
400.47	753.65
400.67	678.76
400.86	737.27
401.05	772.38
401.24	725.57
401.44	791.10
401.63	758.33
401.82	732.59
402.01	770.04
402.21	744.29
402.40	798.12
402.59	788.76
402.78	826.21
402.97	793.44
403.17	840.25
403.36	863.66
403.55	891.74
403.74	854.30
403.93	868.34
404.13	1020.47
404.32	908.13
404.51	903.45
404.70	880.04
404.89	915.15
405.09	961.96
405.28	868.34
405.47	973.66
405.66	877.70
405.85	929.19
406.05	1025.15
406.24	1062.60
406.43	999.41
406.62	1032.18
406.81	1116.44
407.00	1020.47
407.20	1069.62
407.39	985.37
407.58	1057.92
407.77	1181.97
407.96	1114.10
408.15	940.90
408.34	1104.73
408.54	1083.67
408.73	1004.09
408.92	1088.35
409.11	1064.94
409.30	1188.99
409.49	1121.12
409.68	1172.61
409.87	1104.73
410.07	1156.22
410.26	1111.75
410.45	1057.92
410.64	1219.42
410.83	1214.74
411.02	1238.14
411.21	1212.40
411.40	1193.67
411.59	1259.21
411.78	1210.06
411.98	1207.72
412.17	1188.99
412.36	1345.81
412.55	1313.04
412.74	1277.93
412.93	1306.02
413.12	1357.51
413.31	1411.34
413.50	1373.89
413.69	1373.89
413.88	1397.30
414.07	1486.24
414.26	1423.05
414.45	1462.83
414.64	1460.49
414.83	1493.26
415.02	1472.20
415.22	1542.41
415.41	1556.46
415.60	1500.28
415.79	1486.24
415.98	1603.27
416.17	1593.90
416.36	1624.33
416.55	1584.54
416.74	1682.85
416.93	1614.97
417.12	1678.16
417.31	1643.06
417.50	1682.85
417.69	1685.19
417.88	1750.72
418.07	1813.92
418.26	1624.33
418.45	1806.89
418.64	1877.11
418.83	1872.43
419.02	1790.51
419.21	1853.70
419.39	1851.36
419.58	1816.26
419.77	1732.00
419.96	1856.04
420.15	1820.94
420.34	1741.36
420.53	1788.17
420.72	1886.47
420.91	1884.13
421.10	1914.56
421.29	1949.67
421.48	1830.30
421.67	1879.45
421.86	2010.52
422.05	1921.58
422.24	1846.68
422.43	1977.75
422.61	1930.94
422.80	2045.63
422.99	2022.22
423.18	2057.33
423.37	2054.99
423.56	1975.41
423.75	2012.86
423.94	1863.07
424.13	1820.94
424.32	1933.28
424.50	1961.37
424.69	2043.29
424.88	2150.95
425.07	2120.53
425.26	1905.20
425.45	1935.62
425.64	2008.18
425.83	1982.43
426.01	2017.54
426.20	1987.11
426.39	1963.71
426.58	1977.75
426.77	2080.74
426.96	2083.08
427.15	2038.61
427.33	2141.59
427.52	2090.10
427.71	2150.95
427.90	2097.12
428.09	2174.36
428.28	2125.21
428.46	2204.78
428.65	2249.25
428.84	2235.21
429.03	2284.36
429.22	2244.57
429.40	2176.70
429.59	2272.66
429.78	2223.51
429.97	2104.14
430.16	2155.63
430.34	2246.91
430.53	2284.36
430.72	2338.20
430.91	2260.96
431.10	2282.02
431.28	2408.41
431.47	2394.37
431.66	2338.20
431.85	2310.11
432.03	2427.14
432.22	2518.42
432.41	2438.84
432.60	2445.86
432.79	2429.48
432.97	2406.07
433.16	2443.52
433.35	2354.58
433.54	2445.86
433.72	2455.22
433.91	2478.63
434.10	2593.31
434.28	2427.14
434.47	2548.84
434.66	2677.57
434.85	2445.86
435.03	2693.96
435.22	2593.31
435.41	2747.79
435.59	2677.57
435.78	2642.46
435.97	2766.51
436.16	2665.87
436.34	2579.27
436.53	2689.28
436.72	2635.44
436.90	2672.89
437.09	2715.02
437.28	2729.06
437.46	2789.92
437.65	2698.64
437.84	2876.52
438.02	2862.48
438.21	2642.46
438.40	2656.51
438.58	2738.43
438.77	2813.32
438.96	2897.58
439.14	2902.26
439.33	2949.08
439.52	3038.02
439.70	2939.71
439.89	3119.93
440.08	2942.05
440.26	3190.15
440.45	2892.90
440.63	3054.40
440.82	3119.93
441.01	3033.33
441.19	3016.95
441.38	3162.06
441.57	3138.66
441.75	3300.16
441.94	3239.30
442.12	3258.03
442.31	3297.81
442.50	3218.24
442.68	3213.56
442.87	3206.53
443.05	3248.66
443.24	3274.41
443.43	3332.92
443.61	3482.72
443.80	3566.98
443.98	3414.84
444.17	3232.28
444.35	3279.09
444.54	3461.65
444.73	3309.52
444.91	3534.21
445.10	3407.82
445.28	3456.97
445.47	3405.48
445.65	3473.36
445.84	3522.51
446.02	3344.63
446.21	3365.69
446.39	3473.36
446.58	3515.48
446.77	3480.38
446.95	3508.46
447.14	3569.32
447.32	3503.78
447.51	3478.04
447.69	3496.76
447.88	3613.79
448.06	3529.53
448.25	3466.33
448.43	3482.72
448.62	3407.82
448.80	3772.94
448.99	3604.42
449.17	3693.37
449.36	3555.27
449.54	3489.74
449.73	3742.52
449.91	3669.96
450.10	3742.52
450.28	3602.08
450.46	3740.18
450.65	3648.90
450.83	3686.34
451.02	3693.37
451.20	3810.39
451.39	3695.71
451.57	3754.22
451.76	3892.31
451.94	3777.62
452.13	3756.56
452.31	3861.88
452.49	3836.14
452.68	3927.42
452.86	3815.07
453.05	3852.52
453.23	3859.54
453.42	3878.27
453.60	3721.45
453.78	3861.88
453.97	3810.39
454.15	3838.48
454.34	3768.26
454.52	4175.52
454.70	3943.80
454.89	4072.53
455.07	3969.55
455.26	4210.62
455.44	3967.21
455.62	4063.17
455.81	4084.23
455.99	4079.55
456.17	4042.11
456.36	4187.22
456.54	4224.67
456.73	4224.67
456.91	4315.95
457.09	4278.50
457.28	4297.22
457.46	4177.86
457.64	4248.07
457.83	4376.80
458.01	4255.09
458.19	4496.17
458.38	4133.39
458.56	4390.84
458.74	4390.84
458.93	4514.89
459.11	4468.08
459.29	4482.13
459.48	4484.47
459.66	4337.01
459.84	4486.81
460.03	4554.68
460.21	4582.77
460.39	4362.76
460.57	4383.82
460.76	4486.81
460.94	4624.90
461.12	4624.90
461.31	4519.57
461.49	4671.71
461.67	4631.92
461.85	4767.67
462.04	4645.96
462.22	4821.50
462.40	4741.93
462.59	4718.52
462.77	4688.09
462.95	4709.16
463.13	4936.19
463.32	4950.23
463.50	4786.40
463.68	4816.82
463.86	4865.97
464.05	4840.23
464.23	4821.50
464.41	5015.77
464.59	4725.54
464.78	4997.04
464.96	4966.62
465.14	4851.93
465.32	5071.94
465.50	4952.57
465.69	4896.40
465.87	4863.63
466.05	5027.47
466.23	5027.47
466.41	5060.24
466.60	5235.78
466.78	5029.81
466.96	4961.94
467.14	5022.79
467.32	5146.84
467.51	5128.11
467.69	4959.60
467.87	5050.88
468.05	5088.32
468.23	5158.54
468.41	4966.62
468.60	5165.56
468.78	5334.08
468.96	5184.29
469.14	5191.31
469.32	5390.25
469.50	5172.58
469.69	5334.08
469.87	5451.11
470.05	5425.36
470.23	5345.78
470.41	5376.21
470.59	5373.87
470.77	5294.29
470.95	5547.07
471.14	5397.28
471.32	5397.28
471.50	5603.24
471.68	5605.58
471.86	5526.00
472.04	5490.90
472.22	5736.65
472.40	5610.26
472.58	5537.71
472.77	5668.78
472.95	5825.59
473.13	6024.54
473.31	5664.10
473.49	5888.79
473.67	5877.09
473.85	5968.37
474.03	5961.34
474.21	5841.98
474.39	6010.50
474.57	6010.50
474.75	6085.39
474.93	6146.25
475.12	6029.22
475.30	6164.97
475.48	6153.27
475.66	6232.85
475.84	6286.68
476.02	6366.26
476.20	6401.37
476.38	6239.87
476.56	6750.10
476.74	6476.26
476.92	6473.92
477.10	6445.84
477.28	6750.10
477.46	6497.33
477.64	6649.46
477.82	6717.34
478.00	6953.73
478.18	6970.12
478.36	7054.37
478.54	7164.38
478.72	6949.05
478.90	7234.60
479.08	7056.72
479.26	7398.43
479.44	7386.73
479.62	7286.09
479.80	7325.88
479.98	7428.86
480.16	7473.33
480.34	7433.54
480.52	7445.24
480.70	7506.10
480.88	7637.17
481.06	7705.04
481.24	7838.45
481.41	7758.88
481.59	7852.50
481.77	8217.62
481.95	8124.00
482.13	7948.46
482.31	8070.17
482.49	8372.10
482.67	8320.60
482.85	8404.86
483.03	8465.72
483.21	8531.25
483.39	8425.93
483.57	8407.20
483.74	8784.03
483.92	8816.80
484.10	8599.13
484.28	8800.41
484.46	9121.07
484.64	9191.28
484.82	8971.27
485.00	9064.89
485.18	9261.50
485.35	9535.34
485.53	9523.64
485.71	9312.99
485.89	9481.51
486.07	9378.53
486.25	9561.09
486.43	9481.51
486.61	9741.31
486.78	9820.89
486.96	9886.42
487.14	9795.14
487.32	9977.70
487.50	10092.39
487.68	10197.71
487.85	10359.21
488.03	10338.15
488.21	10518.37
488.39	10726.68
488.57	10532.41
488.75	10492.62
488.92	10953.71
489.10	10853.06
489.28	10946.69
489.46	10958.39
489.64	11185.42
489.81	11225.21
489.99	11173.72
490.17	10986.47
490.35	11489.69
490.53	11419.47
490.70	11613.74
490.88	11571.61
491.06	11808.00
491.24	11693.32
491.41	11808.00
491.59	12042.06
491.77	11812.68
491.95	11854.81
492.13	12205.89
492.30	12077.16
492.48	12283.13
492.66	12135.68
492.84	12231.64
493.01	12512.50
493.19	12514.84
493.37	12585.06
493.54	12912.74
493.72	12947.84
493.90	12727.83
494.08	12690.38
494.25	13114.02
494.43	12950.18
494.61	13289.56
494.79	13163.17
494.96	13334.03
495.14	13324.67
495.32	13476.80
495.49	13460.42
495.67	13448.72
495.85	13617.24
496.02	13771.71
496.20	14068.96
496.38	14085.34
496.55	13940.23
496.73	14352.16
496.91	14024.49
497.09	14363.87
497.26	14134.50
497.44	14293.65
497.62	14375.57
497.79	14464.51
497.97	14382.59
498.14	14551.11
498.32	14480.89
498.50	14827.29
498.67	14700.90
498.85	14813.25
499.03	14743.03
499.20	14960.70
499.38	14981.77
499.56	14817.93
499.73	15269.66
499.91	15227.53
500.08	15194.76
500.26	15206.46
500.44	15267.31
500.61	15295.40
500.79	15562.22
500.97	15253.27
501.14	15602.01
501.32	15992.88
501.49	15562.22
501.67	15910.96
501.84	15889.90
502.02	15824.36
502.20	16210.55
502.37	15854.79
502.55	15819.68
502.72	16065.44
502.90	16189.49
503.07	16100.55
503.25	16107.57
503.43	16264.38
503.60	16498.44
503.78	16393.11
503.95	16643.55
504.13	16514.82
504.30	16524.18
504.48	16578.01
504.65	16772.28
504.83	16823.77
505.01	16982.93
505.18	17022.72
505.36	17312.94
505.53	17025.06
505.71	16823.77
505.88	17441.67
506.06	16844.84
506.23	17350.39
506.41	16961.86
506.58	17678.07
506.76	17638.28
506.93	17364.43
507.11	17331.67
507.28	17266.13
507.46	17579.76
507.63	17568.06
507.81	17846.58
507.98	17745.94
508.16	17874.67
508.33	17631.26
508.50	17987.02
508.68	17928.50
508.85	18029.15
509.03	18071.28
509.20	18026.81
509.38	18288.95
509.55	18623.64
509.73	18260.86
509.90	18244.48
510.08	18183.62
510.25	18527.68
510.42	18464.49
510.60	18721.95
510.77	18661.09
510.95	18916.21
511.12	18396.61
511.30	18567.47
511.47	18831.95
511.64	18824.93
511.82	18967.70
511.99	19009.83
512.17	19159.63
512.34	18810.89
512.51	19126.86
512.69	19267.29
512.86	19250.91
513.04	19215.80
513.21	19344.53
513.38	19646.46
513.56	19442.83
513.73	19576.24
513.90	19367.93
514.08	19768.16
514.25	19433.47
514.43	19510.71
514.60	19777.53
514.77	19644.12
514.95	19639.44
515.12	19639.44
515.29	19728.38
515.47	19927.32
515.64	19967.11
515.81	19878.17
515.99	20245.63
516.16	20243.29
516.33	20404.79
516.51	20395.43
516.68	20046.69
516.85	20168.40
517.03	20173.08
517.20	20418.83
517.37	20334.57
517.54	20341.60
517.72	20669.27
517.89	20549.90
518.06	20395.43
518.24	20683.31
518.41	20013.92
518.58	20657.57
518.75	20795.66
518.93	20683.31
519.10	20725.44
519.27	20746.51
519.45	20952.48
519.62	20746.51
519.79	20915.03
519.96	20959.50
520.14	21528.25
520.31	20830.77
520.48	21233.34
520.65	20821.41
520.83	21280.15
521.00	21436.97
521.17	21474.42
521.34	21280.15
521.52	21649.96
521.69	21579.74
521.86	21771.66
522.03	21921.46
522.20	21858.26
522.38	21785.71
522.55	21724.85
522.72	21832.52
522.89	21731.87
523.07	21853.58
523.24	22270.20
523.41	21855.92
523.58	21944.86
523.75	22178.92
523.92	21774.00
524.10	22415.31
524.27	21965.93
524.44	22045.51
524.61	22590.85
524.78	22764.05
524.96	22106.36
525.13	22520.63
525.30	22487.87
525.47	22342.75
525.64	22501.91
525.81	22675.11
525.98	22824.90
526.16	22625.96
526.33	22808.52
526.50	22614.26
526.67	22829.59
526.84	22712.56
527.01	22696.17
527.18	22941.93
527.36	22852.99
527.53	22991.08
527.70	23365.57
527.87	23414.72
528.04	22923.21
528.21	23063.64
528.38	23016.83
528.55	23112.79
528.72	23119.81
528.89	23503.66
529.07	23098.75
529.24	23194.71
529.41	23461.53
529.58	23740.05
529.75	23033.21
529.92	23541.11
530.09	23335.14
530.26	23229.82
530.43	23814.95
530.60	23658.14
530.77	23370.25
530.94	23824.31
531.11	23388.97
531.28	23330.46
531.46	23796.23
531.63	23658.14
531.80	23777.50
531.97	24231.57
532.14	23992.83
532.31	23985.81
532.48	23955.38
532.65	24002.19
532.82	23920.28
532.99	24088.79
533.16	24072.41
533.33	24294.76
533.50	24531.15
533.67	24498.39
533.84	24187.10
534.01	24538.18
534.18	24252.63
534.35	24467.96
534.52	24519.45
534.69	24315.83
534.86	24816.70
535.03	24266.67
535.20	25099.90
535.37	24718.40
535.54	24432.85
535.71	24659.88
535.88	24790.95
536.05	24643.50
536.22	24959.47
536.38	25036.71
536.55	24875.21
536.72	25123.31
536.89	25198.21
537.06	25013.31
537.23	24980.54
537.40	24774.57
537.57	25233.32
537.74	25193.53
537.91	25589.08
538.08	24999.26
538.25	24531.15
538.42	25027.35
538.59	25280.13
538.75	25020.33
538.92	25371.41
539.09	25380.77
539.26	25446.30
539.43	25202.89
539.60	25125.65
539.77	25544.61
539.94	25418.22
540.11	25392.47
540.28	25586.74
540.44	25434.60
540.61	25326.94
540.78	25158.42
540.95	25537.59
541.12	25820.79
541.29	25673.34
541.46	25708.44
541.62	25163.10
541.79	25769.30
541.96	25441.62
542.13	25689.72
542.30	25883.98
542.47	25769.30
542.63	25853.56
542.80	26094.63
542.97	26370.82
543.14	26148.46
543.31	26265.49
543.48	26230.38
543.64	26494.86
543.81	26312.30
543.98	26316.98
544.15	26284.22
544.32	26265.49
544.48	26672.74
544.65	26394.22
544.82	26478.48
544.99	26244.43
545.16	26609.55
545.32	26169.53
545.49	26623.59
545.66	26780.41
545.83	26941.91
546.00	26764.03
546.16	26520.61
546.33	26817.86
546.50	26647.00
546.67	26682.11
546.83	26515.93
547.00	26845.94
547.17	26742.96
547.34	26796.79
547.50	27000.42
547.67	27393.63
547.84	26939.57
548.00	26944.25
548.17	26930.20
548.34	26778.07
548.51	27070.64
548.67	27112.77
548.84	26874.03
549.01	27248.52
549.18	27129.15
549.34	26902.12
549.51	26953.61
549.68	26986.38
549.84	27033.19
550.01	27381.93
550.18	27164.26
550.34	27098.72
550.51	27381.93
550.68	27445.12
550.84	26782.75
551.01	27248.52
551.18	27285.97
551.34	27377.25
551.51	27501.29
551.68	27428.74
551.84	27735.35
552.01	27084.68
552.18	27948.34
552.34	27402.99
552.51	27517.68
552.68	27220.43
552.84	27522.36
553.01	27665.13
553.18	28039.62
553.34	27711.94
553.51	27445.12
553.67	27894.50
553.84	28166.01
554.01	27988.13
554.17	27807.90
554.34	27920.25
554.51	28151.96
554.67	27920.25
554.84	27938.97
555.00	27826.63
555.17	28041.96
555.33	27875.78
555.50	27929.61
555.67	28191.75
555.83	28320.48
556.00	28044.30
556.16	27871.10
556.33	27843.01
556.50	28163.67
556.66	28444.53
556.83	28027.92
556.99	28266.65
557.16	28215.16
557.32	28233.88
557.49	28800.29
557.65	28243.24
557.82	28236.22
557.98	28266.65
558.15	28556.88
558.32	28694.97
558.48	28109.83
558.65	28549.85
558.81	28336.87
558.98	28446.87
559.14	28397.72
559.31	28451.55
559.47	28645.82
559.64	28334.53
559.80	28849.44
559.97	28535.81
560.13	28198.77
560.30	28804.97
560.46	28823.70
560.63	28556.88
560.79	28418.78
560.96	28879.87
561.12	28245.58
561.29	28489.00
561.45	29106.90
561.61	28730.08
561.78	28713.69
561.94	28687.95
562.11	28531.13
562.27	28472.62
562.44	29134.99
562.60	28865.83
562.77	28989.88
562.93	28844.76
563.10	28950.09
563.26	28692.63
563.42	28624.75
563.59	29085.84
563.75	28914.98
563.92	28954.77
564.08	28807.31
564.24	29195.84
564.41	28868.17
564.57	29099.88
564.74	28842.42
564.90	28968.81
565.07	29104.56
565.23	29041.37
565.39	28467.94
565.56	29308.19
565.72	28954.77
565.88	29256.70
566.05	28922.00
566.21	28910.30
566.38	29088.18
566.54	29034.35
566.70	29254.36
566.87	29259.04
567.03	29039.03
567.19	29680.33
567.36	29488.41
567.52	29237.97
567.68	29228.61
567.85	29191.16
568.01	29134.99
568.17	29270.74
568.34	29071.79
568.50	28725.39
568.66	29282.44
568.83	29280.10
568.99	29006.26
569.15	29310.53
569.32	29383.09
569.48	28797.95
569.64	29076.48
569.81	29001.58
569.97	29465.00
570.13	29195.84
570.30	28863.49
570.46	29415.85
570.62	29205.20
570.78	28905.62
570.95	29097.54
571.11	29308.19
571.27	29394.79
571.43	29102.22
571.60	29322.23
571.76	29502.45
571.92	29497.77
572.09	29401.81
572.25	29268.40
572.41	29446.28
572.57	29350.32
572.74	29448.62
572.90	29504.79
573.06	28989.88
573.22	29355.00
573.38	29120.95
573.55	29357.34
573.71	29668.63
573.87	29706.08
574.03	29575.01
574.20	29455.64
574.36	29497.77
574.52	29010.94
574.68	29397.13
574.84	29603.10
575.01	29420.53
575.17	29495.43
575.33	29532.88
575.49	29425.22
575.65	29720.12
575.82	29689.70
575.98	29532.88
576.14	29455.64
576.30	29776.30
576.46	29518.84
576.62	29872.26
576.79	29584.37
576.95	29502.45
577.11	29687.36
577.27	29675.65
577.43	29486.07
577.59	29942.47
577.75	29371.38
577.92	29188.82
578.08	29399.47
578.24	29689.70
578.40	29771.61
578.56	29415.85
578.72	29661.61
578.88	29680.33
579.04	29743.53
579.21	29640.54
579.37	30026.73
579.53	29729.48
579.69	29457.98
579.85	29352.66
580.01	29687.36
580.17	29710.76
580.33	29670.97
580.49	29771.61
580.65	29523.52
580.82	29799.70
580.98	29893.32
581.14	29703.74
581.30	29813.74
581.46	29881.62
581.62	29385.43
581.78	29804.38
581.94	29804.38
582.10	29614.80
582.26	29806.72
582.42	29521.18
582.58	30019.71
582.74	29776.30
582.90	29968.22
583.06	29415.85
583.22	29298.83
583.38	29507.13
583.54	30047.80
583.70	29645.23
583.86	29776.30
584.02	29645.23
584.18	29813.74
584.34	29551.60
584.50	29975.24
584.66	29689.70
584.82	29935.45
584.98	29593.73
585.14	30080.56
585.30	29734.17
585.46	29736.51
585.62	29696.72
585.78	29738.85
585.94	29607.78
586.10	29713.10
586.26	29806.72
586.42	29895.66
586.58	29731.83
586.74	30078.22
586.90	29465.00
587.06	29603.10
587.22	29832.47
587.38	29572.67
587.54	30087.59
587.70	30085.25
587.86	29914.39
588.02	30103.97
588.18	30132.06
588.34	29715.44
588.49	29900.34
588.65	29893.32
588.81	29752.89
588.97	29809.06
589.13	29839.49
589.29	29839.49
589.45	29940.13
589.61	29799.70
589.77	30068.86
589.93	30270.15
590.08	30176.53
590.24	30443.35
590.40	30225.68
590.56	29766.93
590.72	29883.96
590.88	29823.11
591.04	29898.00
591.20	30431.65
591.35	30422.28
591.51	30263.13
591.67	30438.67
591.83	30572.08
591.99	29958.86
