SpectraSuite Data File
++++++++++++++++++++++++++++++++++++
Date: Fri Oct 18 13:58:20 GMT-05:00 2013
User: bianchi
Dark Spectrum Present: No
Reference Spectrum Present: No
Number of Sampled Component Spectra: 1
Spectrometers: USB2+H05261
Integration Time (usec): 50000 (USB2+H05261)
Spectra Averaged: 1 (USB2+H05261)
Boxcar Smoothing: 0 (USB2+H05261)
Correct for Electrical Dark: No (USB2+H05261)
Strobe/Lamp Enabled: No (USB2+H05261)
Correct for Detector Non-linearity: No (USB2+H05261)
Correct for Stray Light: No (USB2+H05261)
Number of Pixels in Processed Spectrum: 2048
>>>>>Begin Processed Spectral Data<<<<<
365.73	11.70
365.92	11.70
366.12	11.70
366.32	0.00
366.52	0.00
366.72	0.00
366.91	0.00
367.11	0.00
367.31	0.00
367.51	0.00
367.70	0.00
367.90	0.00
368.10	0.00
368.30	0.00
368.49	0.00
368.69	0.00
368.89	0.00
369.09	0.00
369.28	0.00
369.48	0.00
369.68	0.00
369.87	0.00
370.07	0.00
370.27	0.00
370.47	0.00
370.66	67.88
370.86	74.90
371.06	88.94
371.25	124.05
371.45	173.20
371.65	175.54
371.84	107.66
372.04	63.19
372.24	114.69
372.44	234.05
372.63	184.90
372.83	252.78
373.03	198.95
373.22	152.13
373.42	238.73
373.62	191.92
373.81	297.25
374.01	241.08
374.21	131.07
374.40	236.39
374.60	224.69
374.79	220.01
374.99	266.82
375.19	252.78
375.38	182.56
375.58	248.10
375.78	248.10
375.97	250.44
376.17	454.06
376.37	245.76
376.56	248.10
376.76	278.52
376.95	241.08
377.15	266.82
377.35	220.01
377.54	280.86
377.74	252.78
377.93	280.86
378.13	294.91
378.33	287.89
378.52	248.10
378.72	252.78
378.91	217.67
379.11	283.20
379.31	283.20
379.50	234.05
379.70	358.10
379.89	285.55
380.09	290.23
380.28	294.91
380.48	301.93
380.68	287.89
380.87	285.55
381.07	337.04
381.26	304.27
381.46	280.86
381.65	313.63
381.85	334.70
382.04	334.70
382.24	365.12
382.43	346.40
382.63	379.17
382.83	433.00
383.02	344.06
383.22	308.95
383.41	339.38
383.61	337.04
383.80	369.80
384.00	348.74
384.19	358.10
384.39	372.15
384.58	322.99
384.78	421.30
384.97	339.38
385.17	320.65
385.36	379.17
385.56	374.49
385.75	395.55
385.95	397.89
386.14	390.87
386.34	299.59
386.53	428.32
386.72	318.31
386.92	409.59
387.11	433.00
387.31	416.62
387.50	468.11
387.70	379.17
387.89	369.80
388.09	407.25
388.28	444.70
388.48	428.32
388.67	430.66
388.86	496.19
389.06	451.72
389.25	447.04
389.45	430.66
389.64	465.77
389.84	449.38
390.03	496.19
390.22	472.79
390.42	561.73
390.61	479.81
390.81	414.27
391.00	444.70
391.19	470.45
391.39	435.34
391.58	512.58
391.78	545.34
391.97	561.73
392.16	566.41
392.36	531.30
392.55	458.74
392.75	641.31
392.94	500.87
393.13	517.26
393.33	554.71
393.52	585.13
393.71	550.03
393.91	589.82
394.10	456.40
394.29	486.83
394.49	688.12
394.68	648.33
394.88	489.17
395.07	634.29
395.26	571.09
395.46	634.29
395.65	627.26
395.84	557.05
396.04	601.52
396.23	667.05
396.42	706.84
396.62	688.12
396.81	629.60
397.00	655.35
397.19	657.69
397.39	660.03
397.58	702.16
397.77	706.84
397.97	671.73
398.16	767.70
398.35	678.76
398.55	655.35
398.74	830.89
398.93	716.20
399.12	699.82
399.32	716.20
399.51	688.12
399.70	730.25
399.90	765.36
400.09	786.42
400.28	777.06
400.47	763.01
400.67	748.97
400.86	784.08
401.05	781.74
401.24	877.70
401.44	784.08
401.63	816.85
401.82	847.27
402.01	746.63
402.21	800.46
402.40	821.53
402.59	858.98
402.78	868.34
402.97	866.00
403.17	847.27
403.36	954.94
403.55	814.51
403.74	943.24
403.93	908.13
404.13	903.45
404.32	954.94
404.51	856.64
404.70	966.64
404.89	983.02
405.09	997.07
405.28	837.91
405.47	987.71
405.66	964.30
405.85	997.07
406.05	908.13
406.24	950.26
406.43	1062.60
406.62	1022.81
406.81	978.34
407.00	987.71
407.20	997.07
407.39	971.32
407.58	1097.71
407.77	1064.94
407.96	1107.07
408.15	1076.65
408.34	1050.90
408.54	1081.33
408.73	1123.46
408.92	1132.82
409.11	1022.81
409.30	1184.31
409.49	1137.50
409.68	1160.91
409.87	1149.20
410.07	1249.85
410.26	1151.54
410.45	1200.69
410.64	1214.74
410.83	1177.29
411.02	1219.42
411.21	1231.12
411.40	1273.25
411.59	1270.91
411.78	1282.61
411.98	1203.04
412.17	1287.29
412.36	1338.79
412.55	1233.46
412.74	1364.53
412.93	1282.61
413.12	1291.98
413.31	1387.94
413.50	1453.47
413.69	1465.18
413.88	1479.22
414.07	1427.73
414.26	1427.73
414.45	1425.39
414.64	1493.26
414.83	1476.88
415.02	1472.20
415.22	1535.39
415.41	1523.69
415.60	1528.37
415.79	1453.47
415.98	1533.05
416.17	1519.01
416.36	1565.82
416.55	1647.74
416.74	1607.95
416.93	1673.48
417.12	1657.10
417.31	1746.04
417.50	1680.50
417.69	1818.60
417.88	1783.49
418.07	1760.08
418.26	1671.14
418.45	1687.53
418.64	1717.95
418.83	1764.76
419.02	1912.22
419.21	1825.62
419.39	1760.08
419.58	1834.98
419.77	1797.53
419.96	1893.49
420.15	1898.17
420.34	1937.96
420.53	1902.86
420.72	1923.92
420.91	1874.77
421.10	2015.20
421.29	2076.06
421.48	1881.79
421.67	1996.48
421.86	1996.48
422.05	1963.71
422.24	1949.67
422.43	1923.92
422.61	1970.73
422.80	2071.37
422.99	2047.97
423.18	1982.43
423.37	1998.82
423.56	2047.97
423.75	1977.75
423.94	2029.24
424.13	1877.11
424.32	1968.39
424.50	2127.55
424.69	2057.33
424.88	2120.53
425.07	2005.84
425.26	1980.09
425.45	2097.12
425.64	2047.97
425.83	2085.42
426.01	2054.99
426.20	2038.61
426.39	2024.56
426.58	2059.67
426.77	2043.29
426.96	2146.27
427.15	2106.48
427.33	2197.76
427.52	2019.88
427.71	2097.12
427.90	2148.61
428.09	2218.83
428.28	2162.66
428.46	2186.06
428.65	2225.85
428.84	2363.94
429.03	2221.17
429.22	2195.42
429.40	2244.57
429.59	2179.04
429.78	2197.76
429.97	2286.70
430.16	2373.30
430.34	2361.60
430.53	2239.89
430.72	2387.35
430.91	2312.45
431.10	2312.45
431.28	2282.02
431.47	2399.05
431.66	2394.37
431.85	2284.36
432.03	2389.69
432.22	2518.42
432.41	2420.11
432.60	2466.92
432.79	2464.58
432.97	2530.12
433.16	2586.29
433.35	2464.58
433.54	2576.93
433.72	2448.20
433.91	2530.12
434.10	2532.46
434.28	2492.67
434.47	2502.03
434.66	2572.25
434.85	2530.12
435.03	2537.14
435.22	2532.46
435.41	2719.70
435.59	2656.51
435.78	2588.63
435.97	2703.32
436.16	2719.70
436.34	2590.97
436.53	2705.66
436.72	2792.26
436.90	2717.36
437.09	2778.22
437.28	2595.65
437.46	2736.09
437.65	2731.41
437.84	2750.13
438.02	2775.88
438.21	2862.48
438.40	2820.35
438.58	2829.71
438.77	2937.37
438.96	2935.03
439.14	2939.71
439.33	2904.60
439.52	2923.33
439.70	3112.91
439.89	2995.89
440.08	2991.20
440.26	3014.61
440.45	2942.05
440.63	3091.85
440.82	3178.45
441.01	3187.81
441.19	3190.15
441.38	3126.96
441.57	3162.06
441.75	3176.11
441.94	3262.71
442.12	3206.53
442.31	3382.07
442.50	3253.34
442.68	3372.71
442.87	3382.07
443.05	3307.18
443.24	3459.31
443.43	3391.44
443.61	3417.18
443.80	3396.12
443.98	3391.44
444.17	3335.26
444.35	3421.86
444.54	3445.27
444.73	3321.22
444.91	3421.86
445.10	3414.84
445.28	3471.01
445.47	3445.27
445.65	3428.88
445.84	3485.06
446.02	3527.19
446.21	3478.04
446.39	3473.36
446.58	3578.68
446.77	3407.82
446.95	3447.61
447.14	3461.65
447.32	3492.08
447.51	3529.53
447.69	3478.04
447.88	3597.40
448.06	3468.67
448.25	3475.70
448.43	3700.39
448.62	3581.02
448.80	3634.85
448.99	3578.68
449.17	3803.37
449.36	3602.08
449.54	3812.73
449.73	3602.08
449.91	3639.53
450.10	3653.58
450.28	3712.09
450.46	3679.32
450.65	3740.18
450.83	3798.69
451.02	3798.69
451.20	3953.16
451.39	3789.33
451.57	3808.05
451.76	3843.16
451.94	3810.39
452.13	3882.95
452.31	3822.09
452.49	3754.22
452.68	3918.06
452.86	3880.61
453.05	3904.01
453.23	3906.35
453.42	3943.80
453.60	3779.97
453.78	4058.49
453.97	4042.11
454.15	3953.16
454.34	3761.24
454.52	4039.76
454.70	3999.98
454.89	4126.36
455.07	4002.32
455.26	4046.79
455.44	4072.53
455.62	4067.85
455.81	4205.94
455.99	4140.41
456.17	4227.01
456.36	4152.11
456.54	4203.60
456.73	4241.05
456.91	4372.12
457.09	4229.35
457.28	4374.46
457.46	4205.94
457.64	4374.46
457.83	4465.74
458.01	4397.87
458.19	4393.19
458.38	4334.67
458.56	4538.30
458.74	4503.19
458.93	4423.61
459.11	4421.27
459.29	4432.97
459.48	4423.61
459.66	4596.81
459.84	4423.61
460.03	4578.09
460.21	4552.34
460.39	4521.92
460.57	4681.07
460.76	4552.34
460.94	4627.24
461.12	4720.86
461.31	4685.75
461.49	4599.15
461.67	4613.20
461.85	4889.38
462.04	4734.90
462.22	4954.91
462.40	4744.27
462.59	4690.43
462.77	4814.48
462.95	4795.76
463.13	4751.29
463.32	4910.44
463.50	4905.76
463.68	5004.07
463.86	4844.91
464.05	4842.57
464.23	4844.91
464.41	4880.02
464.59	4730.22
464.78	4908.10
464.96	4865.97
465.14	4898.74
465.32	5041.51
465.50	4924.49
465.69	5078.96
465.87	5029.81
466.05	5041.51
466.23	5172.58
466.41	4971.30
466.60	5380.89
466.78	5027.47
466.96	5071.94
467.14	5057.90
467.32	5132.79
467.51	5135.14
467.69	5018.11
467.87	5174.92
468.05	5280.25
468.23	5151.52
468.41	5151.52
468.60	5193.65
468.78	5308.34
468.96	5156.20
469.14	5181.95
469.32	5294.29
469.50	5149.18
469.69	5493.24
469.87	5413.66
470.05	5378.55
470.23	5355.15
470.41	5282.59
470.59	5500.26
470.77	5467.49
470.95	5572.82
471.14	5558.77
471.32	5458.13
471.50	5657.07
471.68	5687.50
471.86	5694.52
472.04	5685.16
472.22	5797.51
472.40	5797.51
472.58	5856.02
472.77	5858.36
472.95	5872.40
473.13	6031.56
473.31	5849.00
473.49	5879.43
473.67	5928.58
473.85	5944.96
474.03	5987.09
474.21	6040.92
474.39	6101.78
474.57	6232.85
474.75	6155.61
474.93	6228.17
475.12	6225.82
475.30	6195.40
475.48	6162.63
475.66	6242.21
475.84	6305.40
476.02	6193.06
476.20	6352.21
476.38	6551.16
476.56	6544.14
476.74	6422.43
476.92	6567.54
477.10	6558.18
477.28	6792.23
477.46	6506.69
477.64	6820.32
477.82	6799.26
478.00	6970.12
478.18	7066.08
478.36	7005.22
478.54	7204.17
478.72	7190.13
478.90	7262.68
479.08	7110.55
479.26	7183.10
479.44	7323.54
479.62	7241.62
479.80	7295.45
479.98	7412.48
480.16	7520.14
480.34	7552.91
480.52	7595.04
480.70	7545.89
480.88	7674.62
481.06	7665.25
481.24	7660.57
481.41	7808.03
481.59	7906.33
481.77	8182.51
481.95	8077.19
482.13	8088.89
482.31	8149.75
482.49	8147.40
482.67	8224.64
482.85	8454.02
483.03	8472.74
483.21	8737.22
483.39	8606.15
483.57	8353.37
483.74	8727.86
483.92	8777.01
484.10	8868.29
484.28	9053.19
484.46	8982.98
484.64	9240.44
484.82	9011.06
485.00	9270.86
485.18	9191.28
485.35	9430.02
485.53	9614.92
485.71	9638.33
485.89	9535.34
486.07	9511.94
486.25	9591.52
486.43	9673.43
486.61	9767.06
486.78	10047.92
486.96	9872.38
487.14	10054.94
487.32	9956.64
487.50	9980.04
487.68	10363.89
487.85	10590.92
488.03	10443.47
488.21	10551.14
488.39	10705.61
488.57	10637.73
488.75	10778.17
488.92	10778.17
489.10	11150.31
489.28	11082.44
489.46	11183.08
489.64	11061.37
489.81	11475.65
489.99	11335.21
490.17	11442.88
490.35	11800.98
490.53	11749.49
490.70	11669.91
490.88	11630.12
491.06	11808.00
491.24	11646.51
491.41	11735.45
491.59	11786.94
491.77	11845.45
491.95	12273.77
492.13	12198.87
492.30	12271.43
492.48	12484.42
492.66	12063.12
492.84	12327.60
493.01	12683.36
493.19	12564.00
493.37	12704.43
493.54	12985.29
493.72	12805.07
493.90	12760.60
494.08	13041.46
494.25	13013.38
494.43	13006.36
494.61	13518.93
494.79	13303.60
494.96	13209.98
495.14	13614.90
495.32	13708.52
495.49	13511.91
495.67	13680.43
495.85	14083.00
496.02	13870.01
496.20	13760.01
496.38	14038.53
496.55	14223.44
496.73	14120.45
496.91	14125.13
497.09	14527.71
497.26	14548.77
497.44	14352.16
497.62	14356.85
497.79	14750.06
497.97	14611.96
498.14	14824.95
498.32	14932.62
498.50	14855.38
498.67	14743.03
498.85	14733.67
499.03	15061.35
499.20	15105.82
499.38	15094.11
499.56	15297.74
499.73	15353.91
499.91	15510.73
500.08	15594.99
500.26	15410.09
500.44	15431.15
500.61	15662.86
500.79	15419.45
500.97	15875.85
501.14	16046.71
501.32	15913.30
501.49	15878.19
501.67	15791.59
501.84	15901.60
502.02	15981.18
502.20	15967.13
502.37	16032.67
502.55	16137.99
502.72	16451.63
502.90	16409.50
503.07	16180.12
503.25	16262.04
503.43	16343.96
503.60	16608.44
503.78	16620.14
503.95	16446.94
504.13	16641.21
504.30	17097.61
504.48	16681.00
504.65	16833.13
504.83	16891.65
505.01	17135.06
505.18	17170.17
505.36	17282.52
505.53	16863.56
505.71	17235.70
505.88	17214.64
506.06	17254.43
506.23	17586.79
506.41	17488.48
506.58	17322.30
506.76	17415.93
506.93	17408.90
507.11	17479.12
507.28	17720.20
507.46	17640.62
507.63	17933.18
507.81	17736.58
507.98	17638.28
508.16	17827.86
508.33	17799.77
508.50	17748.28
508.68	17965.95
508.85	18047.87
509.03	18324.05
509.20	18052.55
509.38	18537.04
509.55	18153.20
509.73	18455.12
509.90	18553.43
510.08	18452.78
510.25	18387.25
510.42	18677.48
510.60	18637.69
510.77	18867.06
510.95	18836.63
511.12	18703.22
511.30	18750.03
511.47	18820.25
511.64	18878.76
511.82	19201.76
511.99	19075.37
512.17	19278.99
512.34	19215.80
512.51	19405.38
512.69	19459.21
512.86	19470.92
513.04	19499.00
513.21	19559.86
513.38	19800.93
513.56	19566.88
513.73	19208.78
513.90	19592.62
514.08	19541.13
514.25	19676.88
514.43	19866.47
514.60	20147.33
514.77	20091.16
514.95	20009.24
515.12	19634.75
515.29	19838.38
515.47	20219.89
515.64	20465.64
515.81	20166.06
515.99	20299.47
516.16	20343.94
516.33	20208.19
516.51	20409.47
516.68	20526.50
516.85	20292.44
517.03	20500.75
517.20	20421.17
517.37	20725.44
517.54	20563.95
517.72	20657.57
517.89	20814.38
518.06	20828.43
518.24	20592.03
518.41	20650.55
518.58	20805.02
518.75	20533.52
518.93	21020.35
519.10	21027.37
519.27	21013.33
519.45	21095.25
519.62	20903.32
519.79	21252.06
519.96	21345.69
520.14	21184.19
520.31	21298.88
520.48	21294.19
520.65	21277.81
520.83	21734.21
521.00	21607.83
521.17	21778.68
521.34	21341.00
521.52	21575.06
521.69	21912.10
521.86	21879.33
522.03	21664.00
522.20	21986.99
522.38	21937.84
522.55	21535.27
522.72	21963.59
522.89	22003.38
523.07	22019.76
523.24	22221.05
523.41	22321.69
523.58	22167.21
523.75	22019.76
523.92	22120.40
524.10	22146.15
524.27	22321.69
524.44	22967.68
524.61	22445.74
524.78	22441.06
524.96	22782.77
525.13	22487.87
525.30	22693.83
525.47	22735.96
525.64	23168.96
525.81	23098.75
525.98	22672.77
526.16	22614.26
526.33	22927.89
526.50	23112.79
526.67	22647.02
526.84	22995.76
527.01	23091.73
527.18	23056.62
527.36	22951.29
527.53	23133.86
527.70	23468.55
527.87	23417.06
528.04	23232.16
528.21	23646.43
528.38	23227.48
528.55	23651.11
528.72	23648.77
528.89	23702.61
529.07	23573.88
529.24	23576.22
529.41	23522.38
529.58	23632.39
529.75	23391.31
529.92	23915.59
530.09	23644.09
530.26	23953.04
530.43	23768.14
530.60	23660.48
530.77	23599.62
530.94	23859.42
531.11	23775.16
531.28	23627.71
531.46	23882.83
531.63	23955.38
531.80	23899.21
531.97	24376.68
532.14	24470.30
532.31	23833.68
532.48	24077.09
532.65	24119.22
532.82	23990.49
532.99	23864.10
533.16	24233.91
533.33	24629.46
533.50	24594.35
533.67	24636.48
533.84	24575.62
534.01	24641.16
534.18	24369.66
534.35	24879.89
534.52	24606.05
534.69	24922.02
534.86	24847.13
535.03	24620.10
535.20	24776.91
535.37	24685.63
535.54	24692.65
535.71	24896.28
535.88	24566.26
536.05	25163.10
536.22	24931.39
536.38	25027.35
536.55	25228.63
536.72	25212.25
536.89	25191.19
537.06	24727.76
537.23	24907.98
537.40	24795.64
537.57	25249.70
537.74	25046.07
537.91	25525.88
538.08	25582.06
538.25	25139.69
538.42	25083.52
538.59	25652.27
538.75	24992.24
538.92	25413.54
539.09	25434.60
539.26	25202.89
539.43	25678.02
539.60	25355.02
539.77	25490.77
539.94	25745.89
540.11	25563.33
540.28	25806.75
540.44	25577.37
540.61	25596.10
540.78	25563.33
540.95	25708.44
541.12	25909.73
541.29	25958.88
541.46	26146.12
541.62	25600.78
541.79	25961.22
541.96	25560.99
542.13	25984.63
542.30	25813.77
542.47	26108.68
542.63	26235.06
542.80	26459.76
542.97	26321.66
543.14	26710.19
543.31	26536.99
543.48	26190.59
543.64	26604.87
543.81	27012.12
543.98	26574.44
544.15	26597.85
544.32	26955.95
544.48	27002.76
544.65	26801.47
544.82	26808.50
544.99	26267.83
545.16	26480.82
545.32	26831.90
545.49	26661.04
545.66	27026.17
545.83	27040.21
546.00	27084.68
546.16	26939.57
546.33	26499.55
546.50	26419.97
546.67	26902.12
546.83	26595.51
547.00	26731.26
547.17	26859.99
547.34	26984.04
547.50	27594.92
547.67	27311.71
547.84	26977.01
548.00	27042.55
548.17	27477.89
548.34	27283.62
548.51	27152.55
548.67	27496.61
548.84	27613.64
549.01	27295.33
549.18	27463.85
549.34	27569.17
549.51	27164.26
549.68	27435.76
549.84	27482.57
550.01	27381.93
550.18	27325.75
550.34	27707.26
550.51	27648.75
550.68	27400.65
550.84	27124.47
551.01	27742.37
551.18	27384.27
551.34	27098.72
551.51	27770.46
551.68	27634.71
551.84	28037.28
552.01	27686.20
552.18	27838.33
552.34	27534.06
552.51	27353.84
552.68	27742.37
552.84	27880.46
553.01	28163.67
553.18	27611.30
553.34	28114.52
553.51	27576.19
553.67	28034.94
553.84	28266.65
554.01	28133.24
554.17	27885.14
554.34	28306.44
554.51	27924.93
554.67	28196.43
554.84	28107.49
555.00	28180.05
555.17	28266.65
555.33	28456.23
555.50	28266.65
555.67	28219.84
555.83	28290.06
556.00	28126.22
556.16	28521.77
556.33	28430.49
556.50	28664.54
556.66	28795.61
556.83	28278.35
556.99	28814.34
557.16	28835.40
557.32	28636.45
557.49	28617.73
557.65	28343.89
557.82	28498.36
557.98	28636.45
558.15	28933.70
558.32	28226.86
558.48	28849.44
558.65	28793.27
558.81	28638.80
558.98	28563.90
559.14	28706.67
559.31	28388.36
559.47	28713.69
559.64	28879.87
559.80	28884.55
559.97	28833.06
560.13	28943.06
560.30	28804.97
560.46	28781.57
560.63	28971.15
560.79	29699.06
560.96	28577.94
561.12	28573.26
561.29	29050.73
561.45	29244.99
561.61	29125.63
561.78	28931.36
561.94	29106.90
562.11	28910.30
562.27	29134.99
562.44	28739.44
562.60	28814.34
562.77	28755.82
562.93	28727.74
563.10	28912.64
563.26	28936.04
563.42	29226.27
563.59	29336.27
563.75	29312.87
563.92	29326.91
564.08	29106.90
564.24	29078.82
564.41	28868.17
564.57	29226.27
564.74	28926.68
564.90	29273.08
565.07	29429.90
565.23	29097.54
565.39	29404.15
565.56	29621.82
565.72	29603.10
565.88	29366.70
566.05	29436.92
566.21	29158.39
566.38	29397.13
566.54	29385.43
566.70	29263.72
566.87	29668.63
567.03	29195.84
567.19	29750.55
567.36	29319.89
567.52	29567.99
567.68	29605.44
567.85	29202.86
568.01	29249.67
568.17	29345.64
568.34	29333.93
568.50	29357.34
568.66	29598.41
568.83	29942.47
568.99	29724.80
569.15	29614.80
569.32	29670.97
569.48	29214.57
569.64	29191.16
569.81	29773.95
569.97	29509.47
570.13	29631.18
570.30	29457.98
570.46	29605.44
570.62	29738.85
570.78	29572.67
570.95	29682.67
571.11	29331.59
571.27	29237.97
571.43	29418.19
571.60	29834.81
571.76	29675.65
571.92	29795.02
572.09	29596.07
572.25	30008.01
572.41	29467.34
572.57	29509.47
572.74	29813.74
572.90	29514.16
573.06	29673.31
573.22	29792.68
573.38	29820.77
573.55	29605.44
573.71	30103.97
573.87	30253.76
574.03	29617.14
574.20	29837.15
574.36	29551.60
574.52	29743.53
574.68	29584.37
574.84	29439.26
575.01	29862.90
575.17	30012.69
575.33	29748.21
575.49	30019.71
575.65	29923.75
575.82	29907.37
575.98	29633.52
576.14	29677.99
576.30	29874.60
576.46	29675.65
576.62	29390.11
576.79	30057.16
576.95	29762.25
577.11	30059.50
577.27	30057.16
577.43	29820.77
577.59	30038.44
577.75	29715.44
577.92	29668.63
578.08	29687.36
578.24	29860.55
578.40	29888.64
578.56	29504.79
578.72	29865.24
578.88	29860.55
579.04	29766.93
579.21	30134.40
579.37	29865.24
579.53	30251.42
579.69	29867.58
579.85	29919.07
580.01	29921.41
580.17	29759.91
580.33	29830.13
580.49	29883.96
580.65	30565.06
580.82	30258.45
580.98	29858.21
581.14	30019.71
581.30	30302.92
581.46	29813.74
581.62	29813.74
581.78	29900.34
581.94	29989.28
582.10	29614.80
582.26	29668.63
582.42	30110.99
582.58	30003.33
582.74	30094.61
582.90	29991.62
583.06	30024.39
583.22	30235.04
583.38	29890.98
583.54	30103.97
583.70	29783.32
583.86	29680.33
584.02	30029.07
584.18	30057.16
584.34	30092.27
584.50	30064.18
584.66	30307.60
584.82	29687.36
584.98	30174.19
585.14	29916.73
585.30	30036.09
585.46	29469.69
585.62	30101.63
585.78	30043.12
585.94	29919.07
586.10	29844.17
586.26	29600.76
586.42	30314.62
586.58	30272.49
586.74	30085.25
586.90	29979.92
587.06	29757.57
587.22	29783.32
587.38	29965.88
587.54	29982.26
587.70	30387.18
587.86	30246.74
588.02	30419.94
588.18	30389.52
588.34	30593.14
588.49	30082.91
588.65	30052.48
588.81	29804.38
588.97	30291.21
589.13	30132.06
589.29	30204.61
589.45	30396.54
589.61	30431.65
589.77	30228.02
589.93	30525.27
590.08	30370.79
590.24	30272.49
590.40	30448.03
590.56	30609.53
590.72	30394.20
590.88	30412.92
591.04	29888.64
591.20	30604.84
591.35	30543.99
591.51	30993.37
591.67	30754.64
591.83	30803.79
591.99	30209.29
