SpectraSuite Data File
++++++++++++++++++++++++++++++++++++
Date: Fri Oct 18 13:58:23 GMT-05:00 2013
User: bianchi
Dark Spectrum Present: No
Reference Spectrum Present: No
Number of Sampled Component Spectra: 1
Spectrometers: USB2+H05261
Integration Time (usec): 50000 (USB2+H05261)
Spectra Averaged: 1 (USB2+H05261)
Boxcar Smoothing: 0 (USB2+H05261)
Correct for Electrical Dark: No (USB2+H05261)
Strobe/Lamp Enabled: No (USB2+H05261)
Correct for Detector Non-linearity: No (USB2+H05261)
Correct for Stray Light: No (USB2+H05261)
Number of Pixels in Processed Spectrum: 2048
>>>>>Begin Processed Spectral Data<<<<<
365.73	0.00
365.92	0.00
366.12	0.00
366.32	0.00
366.52	0.00
366.72	0.00
366.91	0.00
367.11	0.00
367.31	0.00
367.51	0.00
367.70	0.00
367.90	0.00
368.10	0.00
368.30	0.00
368.49	0.00
368.69	0.00
368.89	0.00
369.09	0.00
369.28	0.00
369.48	0.00
369.68	0.00
369.87	0.00
370.07	0.00
370.27	0.00
370.47	0.00
370.66	114.69
370.86	105.32
371.06	65.54
371.25	95.96
371.45	95.96
371.65	194.26
371.84	205.97
372.04	173.20
372.24	110.01
372.44	220.01
372.63	201.29
372.83	220.01
373.03	217.67
373.22	224.69
373.42	166.18
373.62	175.54
373.81	180.22
374.01	299.59
374.21	262.14
374.40	269.16
374.60	269.16
374.79	187.24
374.99	222.35
375.19	250.44
375.38	294.91
375.58	301.93
375.78	236.39
375.97	210.65
376.17	266.82
376.37	264.48
376.56	259.80
376.76	278.52
376.95	231.71
377.15	285.55
377.35	238.73
377.54	367.46
377.74	255.12
377.93	276.18
378.13	327.68
378.33	327.68
378.52	346.40
378.72	238.73
378.91	297.25
379.11	243.42
379.31	332.36
379.50	332.36
379.70	280.86
379.89	287.89
380.09	308.95
380.28	299.59
380.48	287.89
380.68	301.93
380.87	337.04
381.07	290.23
381.26	299.59
381.46	285.55
381.65	355.76
381.85	337.04
382.04	327.68
382.24	351.08
382.43	334.70
382.63	383.85
382.83	290.23
383.02	369.80
383.22	351.08
383.41	365.12
383.61	311.29
383.80	355.76
384.00	383.85
384.19	416.62
384.39	351.08
384.58	386.19
384.78	297.25
384.97	383.85
385.17	341.72
385.36	409.59
385.56	379.17
385.75	409.59
385.95	360.44
386.14	456.40
386.34	440.02
386.53	454.06
386.72	376.83
386.92	430.66
387.11	440.02
387.31	421.30
387.50	477.47
387.70	365.12
387.89	411.93
388.09	423.64
388.28	341.72
388.48	538.32
388.67	517.26
388.86	444.70
389.06	493.85
389.25	470.45
389.45	416.62
389.64	437.68
389.84	416.62
390.03	447.04
390.22	498.53
390.42	519.60
390.61	510.24
390.81	535.98
391.00	493.85
391.19	444.70
391.39	498.53
391.58	482.15
391.78	533.64
391.97	608.54
392.16	454.06
392.36	603.86
392.55	587.47
392.75	512.58
392.94	531.30
393.13	613.22
393.33	505.56
393.52	543.00
393.71	582.79
393.91	571.09
394.10	589.82
394.29	503.22
394.49	566.41
394.68	617.90
394.88	594.50
395.07	624.92
395.26	629.60
395.46	540.66
395.65	575.77
395.84	603.86
396.04	695.14
396.23	664.71
396.42	587.47
396.62	608.54
396.81	692.80
397.00	650.67
397.19	650.67
397.39	627.26
397.58	636.63
397.77	723.23
397.97	638.97
398.16	732.59
398.35	704.50
398.55	650.67
398.74	676.41
398.93	695.14
399.12	641.31
399.32	690.46
399.51	702.16
399.70	650.67
399.90	781.74
400.09	765.36
400.28	760.67
400.47	781.74
400.67	774.72
400.86	835.57
401.05	779.40
401.24	863.66
401.44	837.91
401.63	880.04
401.82	826.21
402.01	856.64
402.21	856.64
402.40	821.53
402.59	868.34
402.78	847.27
402.97	823.87
403.17	880.04
403.36	945.58
403.55	870.68
403.74	887.06
403.93	884.72
404.13	943.24
404.32	905.79
404.51	947.92
404.70	990.05
404.89	905.79
405.09	924.51
405.28	917.49
405.47	877.70
405.66	990.05
405.85	1039.20
406.05	947.92
406.24	994.73
406.43	950.26
406.62	1064.94
406.81	1130.48
407.00	912.81
407.20	938.55
407.39	1062.60
407.58	1074.31
407.77	1139.84
407.96	973.66
408.15	978.34
408.34	1078.99
408.54	1200.69
408.73	1076.65
408.92	1086.01
409.11	1121.12
409.30	1118.78
409.49	1093.03
409.68	1135.16
409.87	1170.27
410.07	1193.67
410.26	1254.53
410.45	1156.22
410.64	1172.61
410.83	1177.29
411.02	1266.23
411.21	1303.68
411.40	1179.63
411.59	1296.66
411.78	1315.38
411.98	1280.27
412.17	1233.46
412.36	1291.98
412.55	1282.61
412.74	1296.66
412.93	1465.18
413.12	1350.49
413.31	1348.15
413.50	1406.66
413.69	1345.81
413.88	1418.36
414.07	1432.41
414.26	1476.88
414.45	1474.54
414.64	1458.15
414.83	1430.07
415.02	1462.83
415.22	1507.30
415.41	1563.48
415.60	1668.80
415.79	1596.25
415.98	1605.61
416.17	1603.27
416.36	1636.03
416.55	1664.12
416.74	1715.61
416.93	1741.36
417.12	1678.16
417.31	1703.91
417.50	1645.40
417.69	1818.60
417.88	1774.13
418.07	1652.42
418.26	1703.91
418.45	1795.19
418.64	1830.30
418.83	1816.26
419.02	1823.28
419.21	1893.49
419.39	1902.86
419.58	1902.86
419.77	1760.08
419.96	1851.36
420.15	1926.26
420.34	1823.28
420.53	1867.75
420.72	1872.43
420.91	1933.28
421.10	1874.77
421.29	1900.52
421.48	1940.30
421.67	2017.54
421.86	1912.22
422.05	1940.30
422.24	2010.52
422.43	2005.84
422.61	1907.54
422.80	2045.63
422.99	2003.50
423.18	1959.03
423.37	2003.50
423.56	2017.54
423.75	2015.20
423.94	1961.37
424.13	1783.49
424.32	1961.37
424.50	1984.77
424.69	2071.37
424.88	2118.18
425.07	2057.33
425.26	1996.48
425.45	2057.33
425.64	1984.77
425.83	2157.97
426.01	1984.77
426.20	2015.20
426.39	2026.90
426.58	2099.46
426.77	2080.74
426.96	2024.56
427.15	2069.03
427.33	2059.67
427.52	2216.49
427.71	2249.25
427.90	2094.78
428.09	2188.40
428.28	2335.85
428.46	2118.18
428.65	2169.68
428.84	2218.83
429.03	2169.68
429.22	2221.17
429.40	2221.17
429.59	2251.60
429.78	2172.02
429.97	2230.53
430.16	2230.53
430.34	2335.85
430.53	2300.75
430.72	2293.72
430.91	2197.76
431.10	2382.67
431.28	2375.64
431.47	2403.73
431.66	2375.64
431.85	2431.82
432.03	2452.88
432.22	2443.52
432.41	2473.95
432.60	2455.22
432.79	2403.73
432.97	2534.80
433.16	2464.58
433.35	2312.45
433.54	2534.80
433.72	2445.86
433.91	2506.71
434.10	2462.24
434.28	2443.52
434.47	2581.61
434.66	2663.53
434.85	2738.43
435.03	2628.42
435.22	2487.99
435.41	2658.85
435.59	2675.23
435.78	2572.25
435.97	2602.68
436.16	2595.65
436.34	2651.83
436.53	2635.44
436.72	2696.30
436.90	2668.21
437.09	2724.38
437.28	2710.34
437.46	2750.13
437.65	2792.26
437.84	2785.24
438.02	2754.81
438.21	2799.28
438.40	2778.22
438.58	2867.16
438.77	2946.73
438.96	2923.33
439.14	3052.06
439.33	2937.37
439.52	2958.44
439.70	2960.78
439.89	2881.20
440.08	3096.53
440.26	2984.18
440.45	3000.57
440.63	3014.61
440.82	3290.79
441.01	3084.83
441.19	3199.51
441.38	3274.41
441.57	3222.92
441.75	3309.52
441.94	3377.39
442.12	3262.71
442.31	3325.90
442.50	3351.65
442.68	3152.70
442.87	3370.37
443.05	3288.45
443.24	3379.73
443.43	3433.57
443.61	3419.52
443.80	3433.57
443.98	3410.16
444.17	3323.56
444.35	3386.76
444.54	3323.56
444.73	3398.46
444.91	3449.95
445.10	3419.52
445.28	3510.80
445.47	3328.24
445.65	3368.03
445.84	3545.91
446.02	3417.18
446.21	3513.14
446.39	3531.87
446.58	3515.48
446.77	3480.38
446.95	3487.40
447.14	3403.14
447.32	3405.48
447.51	3522.51
447.69	3557.61
447.88	3492.08
448.06	3555.27
448.25	3382.07
448.43	3513.14
448.62	3461.65
448.80	3707.41
448.99	3627.83
449.17	3588.04
449.36	3646.55
449.54	3723.79
449.73	3639.53
449.91	3749.54
450.10	3838.48
450.28	3686.34
450.46	3723.79
450.65	3838.48
450.83	3843.16
451.02	3803.37
451.20	3892.31
451.39	3826.78
451.57	3796.35
451.76	3826.78
451.94	3808.05
452.13	3936.78
452.31	3822.09
452.49	3779.97
452.68	3805.71
452.86	3885.29
453.05	3974.23
453.23	3871.25
453.42	3861.88
453.60	3861.88
453.78	3915.72
453.97	3896.99
454.15	4014.02
454.34	4072.53
454.52	4060.83
454.70	3922.74
454.89	4095.94
455.07	3953.16
455.26	4105.30
455.44	4241.05
455.62	4109.98
455.81	4023.38
455.99	4227.01
456.17	4154.45
456.36	4177.86
456.54	4236.37
456.73	4255.09
456.91	4248.07
457.09	4372.12
457.28	4334.67
457.46	4262.12
457.64	4369.78
457.83	4311.27
458.01	4360.42
458.19	4465.74
458.38	4477.44
458.56	4451.70
458.74	4503.19
458.93	4379.14
459.11	4461.06
459.29	4496.17
459.48	4409.57
459.66	4383.82
459.84	4601.49
460.03	4657.67
460.21	4561.70
460.39	4519.57
460.57	4589.79
460.76	4615.54
460.94	4737.24
461.12	4730.22
461.31	4519.57
461.49	4791.08
461.67	4681.07
461.85	4734.90
462.04	4699.80
462.22	4830.87
462.40	4685.75
462.59	4664.69
462.77	4835.55
462.95	4840.23
463.13	4748.95
463.32	4877.68
463.50	4732.56
463.68	4992.36
463.86	4842.57
464.05	4933.85
464.23	4896.40
464.41	4896.40
464.59	4823.84
464.78	4880.02
464.96	4847.25
465.14	4894.06
465.32	4968.96
465.50	4945.55
465.69	4917.47
465.87	4929.17
466.05	4950.23
466.23	5011.09
466.41	5071.94
466.60	5247.48
466.78	5060.24
466.96	4990.02
467.14	5004.07
467.32	5137.48
467.51	5130.45
467.69	5142.16
467.87	5329.40
468.05	5231.10
468.23	5294.29
468.41	5228.76
468.60	5259.18
468.78	5219.39
468.96	5193.65
469.14	5460.47
469.32	5371.53
469.50	5191.31
469.69	5350.46
469.87	5458.13
470.05	5551.75
470.23	5373.87
470.41	5486.22
470.59	5458.13
470.77	5399.62
470.95	5427.70
471.14	5547.07
471.32	5406.64
471.50	5659.42
471.68	5724.95
471.86	5638.35
472.04	5572.82
472.22	5785.80
472.40	5685.16
472.58	5682.82
472.77	5940.28
472.95	5891.13
473.13	5956.66
473.31	5949.64
473.49	5774.10
473.67	6080.71
473.85	5809.21
474.03	5959.00
474.21	5944.96
474.39	6104.12
474.57	6136.88
474.75	6083.05
474.93	6317.11
475.12	6282.00
475.30	6155.61
475.48	6101.78
475.66	6235.19
475.84	6195.40
476.02	6298.38
476.20	6483.28
476.38	6583.93
476.56	6677.55
476.74	6668.19
476.92	6602.65
477.10	6450.52
477.28	6670.53
477.46	6705.63
477.64	6750.10
477.82	6988.84
478.00	7063.74
478.18	6717.34
478.36	7225.23
478.54	7068.42
478.72	6946.71
478.90	7140.97
479.08	7101.19
479.26	7232.26
479.44	7356.30
479.62	7274.38
479.80	7501.42
479.98	7417.16
480.16	7616.10
480.34	7494.40
480.52	7662.91
480.70	7721.43
480.88	7602.06
481.06	7742.49
481.24	7843.14
481.41	8060.80
481.59	8037.40
481.77	8138.04
481.95	8156.77
482.13	8278.47
482.31	8231.66
482.49	8397.84
482.67	8493.80
482.85	8404.86
483.03	8521.89
483.21	8702.11
483.39	8442.31
483.57	8798.07
483.74	8655.30
483.92	8870.63
484.10	8809.78
484.28	8997.02
484.46	9179.58
484.64	9303.63
484.82	8990.00
485.00	9202.99
485.18	9500.23
485.35	9509.60
485.53	9322.35
485.71	9401.93
485.89	9551.73
486.07	9638.33
486.25	9678.12
486.43	9603.22
486.61	9834.93
486.78	10068.98
486.96	10129.84
487.14	10078.35
487.32	9991.75
487.50	10188.35
487.68	10326.44
487.85	10307.72
488.03	10415.38
488.21	10593.26
488.39	10534.75
488.57	10714.97
488.75	10839.02
488.92	10956.05
489.10	10799.23
489.28	10836.68
489.46	11424.15
489.64	11248.61
489.81	11328.19
489.99	11349.26
490.17	11468.62
490.35	11534.16
490.53	11417.13
490.70	11613.74
490.88	11932.05
491.06	11765.87
491.24	11564.59
491.41	11927.37
491.59	11962.48
491.77	12039.72
491.95	12404.84
492.13	12271.43
492.30	12308.88
492.48	12365.05
492.66	12245.68
492.84	12559.31
493.01	12519.53
493.19	12688.04
493.37	12758.26
493.54	12805.07
493.72	12903.37
493.90	12798.05
494.08	13078.91
494.25	13385.52
494.43	13291.90
494.61	13486.17
494.79	13308.29
494.96	13242.75
495.14	13385.52
495.32	13640.64
495.49	13774.05
495.67	13891.08
495.85	14019.81
496.02	13956.61
496.20	13933.21
496.38	14087.68
496.55	14080.66
496.73	14122.79
496.91	14335.78
497.09	14310.04
497.26	14677.50
497.44	14436.42
497.62	14274.93
497.79	14553.45
497.97	14792.19
498.14	14810.91
498.32	15000.49
498.50	15213.48
498.67	15089.43
498.85	14995.81
499.03	14949.00
499.20	15187.74
499.38	15150.29
499.56	15367.96
499.73	15215.82
499.91	15241.57
500.08	15356.25
500.26	15218.16
500.44	15609.03
500.61	15735.42
500.79	15798.62
500.97	15644.14
501.14	16065.44
501.32	15971.82
501.49	15709.68
501.67	15772.87
501.84	15875.85
502.02	15730.74
502.20	16084.16
502.37	16542.91
502.55	16231.62
502.72	16327.58
502.90	16311.19
503.07	16020.97
503.25	16255.02
503.43	16702.06
503.60	16671.64
503.78	16507.80
503.95	16854.20
504.13	16418.86
504.30	16730.15
504.48	16751.21
504.65	16828.45
504.83	16830.79
505.01	17432.31
505.18	17235.70
505.36	17137.40
505.53	17006.33
505.71	17329.33
505.88	17200.60
506.06	17209.96
506.23	17341.03
506.41	17427.63
506.58	17493.16
506.76	17308.26
506.93	17649.98
507.11	17444.01
507.28	17509.55
507.46	17687.43
507.63	17937.87
507.81	18010.42
507.98	17701.47
508.16	17610.19
508.33	17818.50
508.50	18373.21
508.68	18176.60
508.85	18469.17
509.03	18246.82
509.20	18104.04
509.38	18420.02
509.55	18682.16
509.73	18139.15
509.90	18279.58
510.08	18368.52
510.25	18523.00
510.42	18787.48
510.60	18457.46
510.77	18876.42
510.95	18691.52
511.12	18775.78
511.30	19070.68
511.47	19087.07
511.64	19300.06
511.82	19054.30
511.99	19049.62
512.17	19126.86
512.34	19339.85
512.51	19250.91
512.69	19452.19
512.86	19641.78
513.04	19073.03
513.21	19761.14
513.38	19374.95
513.56	19639.44
513.73	19700.29
513.90	19473.26
514.08	19452.19
514.25	19730.72
514.43	19810.29
514.60	20339.26
514.77	20283.08
514.95	19920.30
515.12	20056.05
515.29	19719.01
515.47	19974.13
515.64	19857.10
515.81	20297.13
515.99	20510.11
516.16	20009.24
516.33	20287.76
516.51	20456.28
516.68	20475.01
516.85	20524.16
517.03	20702.04
517.20	20500.75
517.37	20594.37
517.54	20472.67
517.72	20634.16
517.89	20779.28
518.06	20929.07
518.24	20692.68
518.41	20343.94
518.58	20716.08
518.75	20835.45
518.93	21010.99
519.10	20940.77
519.27	21109.29
519.45	21043.76
519.62	21259.09
519.79	21069.50
519.96	21153.76
520.14	21420.58
520.31	21261.43
520.48	21331.64
520.65	21757.62
520.83	21247.38
521.00	21649.96
521.17	21322.28
521.34	21621.87
521.52	21762.30
521.69	21647.61
521.86	21998.70
522.03	21862.94
522.20	22174.24
522.38	21891.03
522.55	21921.46
522.72	22071.25
522.89	22164.87
523.07	22309.99
523.24	22448.08
523.41	22361.48
523.58	22092.32
523.75	22317.01
523.92	21902.73
524.10	22307.65
524.27	22424.67
524.44	22562.76
524.61	22609.58
524.78	22602.55
524.96	22167.21
525.13	22672.77
525.30	22485.53
525.47	22635.32
525.64	22632.98
525.81	22757.03
525.98	22808.52
526.16	22742.99
526.33	22778.09
526.50	22934.91
526.67	22871.72
526.84	23016.83
527.01	23089.38
527.18	23124.49
527.36	23054.28
527.53	23236.84
527.70	23328.12
527.87	23412.38
528.04	23459.19
528.21	23192.37
528.38	23388.97
528.55	23295.35
528.72	23510.68
528.89	23704.95
529.07	23463.87
529.24	23618.35
529.41	23482.59
529.58	23534.09
529.75	23386.63
529.92	23798.57
530.09	23625.37
530.26	23587.92
530.43	23974.11
530.60	23740.05
530.77	23679.20
530.94	24018.58
531.11	24156.67
531.28	23906.23
531.46	24095.82
531.63	23896.87
531.80	24388.38
531.97	24020.92
532.14	24180.07
532.31	24386.04
532.48	24196.46
532.65	24355.61
532.82	24397.74
532.99	24472.64
533.16	24650.52
533.33	24243.27
533.50	24716.06
533.67	24603.71
533.84	24311.14
534.01	24603.71
534.18	24212.84
534.35	24634.14
534.52	24678.61
534.69	24706.70
534.86	24823.72
535.03	24823.72
535.20	24812.02
535.37	24994.58
535.54	25109.27
535.71	25022.67
535.88	25071.82
536.05	24863.51
536.22	25420.56
536.38	25160.76
536.55	25617.16
536.72	24840.11
536.89	25055.43
537.06	25153.74
537.23	25565.67
537.40	24917.34
537.57	24959.47
537.74	25544.61
537.91	25699.08
538.08	25331.62
538.25	25591.42
538.42	25685.04
538.59	25350.34
538.75	25282.47
538.92	25560.99
539.09	25340.98
539.26	25605.46
539.43	25656.95
539.60	25928.45
539.77	25603.12
539.94	25699.08
540.11	25570.35
540.28	25696.74
540.44	26012.71
540.61	25537.59
540.78	25652.27
540.95	25954.20
541.12	25694.40
541.29	25900.37
541.46	26141.44
541.62	25750.57
541.79	26033.78
541.96	25652.27
542.13	25853.56
542.30	26415.29
542.47	26607.21
542.63	25940.16
542.80	26333.37
542.97	26618.91
543.14	26775.73
543.31	26363.79
543.48	26511.25
543.64	26438.69
543.81	27000.42
543.98	26843.60
544.15	26689.13
544.32	26693.81
544.48	27044.89
544.65	26724.24
544.82	26925.52
544.99	26326.35
545.16	27161.92
545.32	27047.23
545.49	27136.17
545.66	27091.70
545.83	26972.33
546.00	27274.26
546.16	27166.60
546.33	27005.10
546.50	26766.37
546.67	26558.06
546.83	26822.54
547.00	26946.59
547.17	26771.05
547.34	26888.07
547.50	27126.81
547.67	27372.57
547.84	27339.80
548.00	27386.61
548.17	27620.66
548.34	27302.35
548.51	27484.91
548.67	27424.06
548.84	27585.55
549.01	27545.76
549.18	27461.51
549.34	27424.06
549.51	27702.58
549.68	27445.12
549.84	27384.27
550.01	27648.75
550.18	27314.05
550.34	27618.32
550.51	27639.39
550.68	27817.27
550.84	27854.72
551.01	27494.27
551.18	27438.10
551.34	27372.57
551.51	27754.07
551.68	27674.49
551.84	27969.40
552.01	27889.82
552.18	27990.47
552.34	28109.83
552.51	27782.16
552.68	27938.97
552.84	27721.30
553.01	27861.74
553.18	28116.86
553.34	28147.28
553.51	28247.93
553.67	28257.29
553.84	28531.13
554.01	28362.61
554.17	28341.55
554.34	28149.62
554.51	28357.93
554.67	28566.24
554.84	28126.22
555.00	28107.49
555.17	28355.59
555.33	28453.89
555.50	28357.93
555.67	28467.94
555.83	28521.77
556.00	28428.15
556.16	28524.11
556.33	28182.39
556.50	28510.07
556.66	28713.69
556.83	28388.36
556.99	29076.48
557.16	28568.58
557.32	28769.86
557.49	28905.62
557.65	28437.51
557.82	28306.44
557.98	28849.44
558.15	28678.58
558.32	29015.62
558.48	28800.29
558.65	28992.22
558.81	28570.92
558.98	28620.07
559.14	29032.00
559.31	28861.15
559.47	28753.48
559.64	28933.70
559.80	29151.37
559.97	29326.91
560.13	28971.15
560.30	29130.31
560.46	29076.48
560.63	29408.83
560.79	29048.39
560.96	28802.63
561.12	28650.50
561.29	28694.97
561.45	29083.50
561.61	28900.94
561.78	29472.03
561.94	29266.06
562.11	29109.24
562.27	28989.88
562.44	29017.96
562.60	29076.48
562.77	28870.51
562.93	29069.45
563.10	29254.36
563.26	29242.65
563.42	29383.09
563.59	29366.70
563.75	29001.58
563.92	29383.09
564.08	29411.17
564.24	29284.78
564.41	29333.93
564.57	28896.25
564.74	29130.31
564.90	29560.97
565.07	29677.99
565.23	29472.03
565.39	29551.60
565.56	29322.23
565.72	29563.31
565.88	29481.39
566.05	29401.81
566.21	29446.28
566.38	29542.24
566.54	29357.34
566.70	30008.01
566.87	29993.97
567.03	29450.96
567.19	29977.58
567.36	29649.91
567.52	29347.98
567.68	29628.84
567.85	29186.48
568.01	29783.32
568.17	29319.89
568.34	29640.54
568.50	29362.02
568.66	30010.35
568.83	29820.77
568.99	29296.49
569.15	29722.46
569.32	29631.18
569.48	29277.76
569.64	30085.25
569.81	29579.69
569.97	29504.79
570.13	29886.30
570.30	29497.77
570.46	29750.55
570.62	29813.74
570.78	29748.21
570.95	29319.89
571.11	29640.54
571.27	29352.66
571.43	29490.75
571.60	29465.00
571.76	29418.19
571.92	29647.57
572.09	29689.70
572.25	29649.91
572.41	29893.32
572.57	30108.65
572.74	30096.95
572.90	29553.94
573.06	29668.63
573.22	29570.33
573.38	29523.52
573.55	29572.67
573.71	30230.36
573.87	29972.90
574.03	29876.94
574.20	29954.18
574.36	29766.93
574.52	30195.25
574.68	29476.71
574.84	29839.49
575.01	29876.94
575.17	29722.46
575.33	29514.16
575.49	29776.30
575.65	29872.26
575.82	30015.03
575.98	29598.41
576.14	30345.05
576.30	30204.61
576.46	29853.53
576.62	29832.47
576.79	29586.71
576.95	29858.21
577.11	29900.34
577.27	29942.47
577.43	30057.16
577.59	29886.30
577.75	29862.90
577.92	29647.57
578.08	30211.64
578.24	29921.41
578.40	30010.35
578.56	30061.84
578.72	30061.84
578.88	30174.19
579.04	30125.04
579.21	30094.61
579.37	30096.95
579.53	30071.20
579.69	29792.68
579.85	29806.72
580.01	29979.92
580.17	29565.65
580.33	29928.43
580.49	30003.33
580.65	30110.99
580.82	30223.34
580.98	30164.82
581.14	30061.84
581.30	30054.82
581.46	29745.87
581.62	30213.98
581.78	29633.52
581.94	30146.10
582.10	30061.84
582.26	29823.11
582.42	30036.09
582.58	30373.13
582.74	29771.61
582.90	29848.85
583.06	30134.40
583.22	30314.62
583.38	30178.87
583.54	29991.62
583.70	29947.15
583.86	29858.21
584.02	30122.69
584.18	30256.11
584.34	30452.71
584.50	30518.25
584.66	30057.16
584.82	29783.32
584.98	29972.90
585.14	29940.13
585.30	29654.59
585.46	29940.13
585.62	29935.45
585.78	29944.81
585.94	29844.17
586.10	30492.50
586.26	30228.02
586.42	30445.69
586.58	30536.97
586.74	30232.70
586.90	30354.41
587.06	30143.76
587.22	30441.01
587.38	30455.05
587.54	30843.58
587.70	30286.53
587.86	30536.97
588.02	30391.86
588.18	30473.78
588.34	30326.32
588.49	30178.87
588.65	30244.40
588.81	30242.06
588.97	30403.56
589.13	30064.18
589.29	30319.30
589.45	30436.33
589.61	30874.01
589.77	30281.85
589.93	30129.72
590.08	30307.60
590.24	30771.02
590.40	30410.58
590.56	30611.87
590.72	30291.21
590.88	30125.04
591.04	30204.61
591.20	30651.66
591.35	30700.81
591.51	30813.15
591.67	30747.62
591.83	30696.13
591.99	30646.97
