SpectraSuite Data File
++++++++++++++++++++++++++++++++++++
Date: Fri Oct 18 13:58:06 GMT-05:00 2013
User: bianchi
Dark Spectrum Present: No
Reference Spectrum Present: No
Number of Sampled Component Spectra: 1
Spectrometers: USB2+H05261
Integration Time (usec): 50000 (USB2+H05261)
Spectra Averaged: 1 (USB2+H05261)
Boxcar Smoothing: 0 (USB2+H05261)
Correct for Electrical Dark: No (USB2+H05261)
Strobe/Lamp Enabled: No (USB2+H05261)
Correct for Detector Non-linearity: No (USB2+H05261)
Correct for Stray Light: No (USB2+H05261)
Number of Pixels in Processed Spectrum: 2048
>>>>>Begin Processed Spectral Data<<<<<
365.73	0.00
365.92	0.00
366.12	0.00
366.32	0.00
366.52	0.00
366.72	0.00
366.91	0.00
367.11	0.00
367.31	0.00
367.51	0.00
367.70	0.00
367.90	0.00
368.10	0.00
368.30	0.00
368.49	0.00
368.69	0.00
368.89	0.00
369.09	0.00
369.28	0.00
369.48	0.00
369.68	0.00
369.87	0.00
370.07	0.00
370.27	0.00
370.47	0.00
370.66	77.24
370.86	133.41
371.06	212.99
371.25	210.65
371.45	145.11
371.65	152.13
371.84	163.84
372.04	170.86
372.24	131.07
372.44	215.33
372.63	173.20
372.83	194.26
373.03	283.20
373.22	241.08
373.42	212.99
373.62	243.42
373.81	257.46
374.01	177.88
374.21	290.23
374.40	278.52
374.60	248.10
374.79	220.01
374.99	229.37
375.19	245.76
375.38	194.26
375.58	182.56
375.78	283.20
375.97	299.59
376.17	313.63
376.37	231.71
376.56	252.78
376.76	241.08
376.95	276.18
377.15	344.06
377.35	327.68
377.54	308.95
377.74	285.55
377.93	255.12
378.13	283.20
378.33	280.86
378.52	215.33
378.72	276.18
378.91	271.50
379.11	308.95
379.31	280.86
379.50	301.93
379.70	299.59
379.89	325.33
380.09	264.48
380.28	327.68
380.48	283.20
380.68	229.37
380.87	248.10
381.07	292.57
381.26	367.46
381.46	278.52
381.65	290.23
381.85	285.55
382.04	290.23
382.24	341.72
382.43	294.91
382.63	388.53
382.83	299.59
383.02	339.38
383.22	365.12
383.41	362.78
383.61	318.31
383.80	344.06
384.00	294.91
384.19	348.74
384.39	348.74
384.58	458.74
384.78	325.33
384.97	435.34
385.17	451.72
385.36	285.55
385.56	372.15
385.75	404.91
385.95	437.68
386.14	386.19
386.34	322.99
386.53	341.72
386.72	393.21
386.92	463.43
387.11	393.21
387.31	369.80
387.50	367.46
387.70	470.45
387.89	379.17
388.09	470.45
388.28	482.15
388.48	442.36
388.67	423.64
388.86	505.56
389.06	526.62
389.25	526.62
389.45	528.96
389.64	440.02
389.84	521.94
390.03	498.53
390.22	491.51
390.42	454.06
390.61	479.81
390.81	482.15
391.00	512.58
391.19	564.07
391.39	519.60
391.58	507.90
391.78	692.80
391.97	557.05
392.16	472.79
392.36	538.32
392.55	552.37
392.75	617.90
392.94	550.03
393.13	498.53
393.33	538.32
393.52	538.32
393.71	538.32
393.91	559.39
394.10	617.90
394.29	596.84
394.49	631.94
394.68	606.20
394.88	587.47
395.07	603.86
395.26	678.76
395.46	566.41
395.65	636.63
395.84	643.65
396.04	690.46
396.23	709.18
396.42	653.01
396.62	732.59
396.81	622.58
397.00	660.03
397.19	660.03
397.39	660.03
397.58	727.91
397.77	669.39
397.97	608.54
398.16	678.76
398.35	723.23
398.55	725.57
398.74	788.76
398.93	781.74
399.12	730.25
399.32	779.40
399.51	674.07
399.70	837.91
399.90	840.25
400.09	772.38
400.28	711.52
400.47	816.85
400.67	781.74
400.86	767.70
401.05	786.42
401.24	821.53
401.44	840.25
401.63	720.88
401.82	791.10
402.01	894.08
402.21	957.28
402.40	868.34
402.59	842.59
402.78	779.40
402.97	840.25
403.17	830.89
403.36	964.30
403.55	898.77
403.74	856.64
403.93	894.08
404.13	809.83
404.32	880.04
404.51	919.83
404.70	924.51
404.89	884.72
405.09	922.17
405.28	894.08
405.47	978.34
405.66	961.96
405.85	1048.56
406.05	957.28
406.24	968.98
406.43	1039.20
406.62	1078.99
406.81	1053.24
407.00	957.28
407.20	947.92
407.39	1018.13
407.58	1121.12
407.77	1022.81
407.96	1086.01
408.15	1107.07
408.34	1050.90
408.54	1217.08
408.73	1163.25
408.92	1128.14
409.11	1167.93
409.30	1118.78
409.49	1174.95
409.68	1128.14
409.87	1100.05
410.07	1261.55
410.26	1093.03
410.45	1226.44
410.64	1203.04
410.83	1170.27
411.02	1188.99
411.21	1296.66
411.40	1252.19
411.59	1146.86
411.78	1160.91
411.98	1273.25
412.17	1320.06
412.36	1284.95
412.55	1336.45
412.74	1329.42
412.93	1362.19
413.12	1371.55
413.31	1380.92
413.50	1345.81
413.69	1425.39
413.88	1404.32
414.07	1373.89
414.26	1474.54
414.45	1441.77
414.64	1465.18
414.83	1558.80
415.02	1577.52
415.22	1446.45
415.41	1507.30
415.60	1481.56
415.79	1643.06
415.98	1664.12
416.17	1610.29
416.36	1565.82
416.55	1540.07
416.74	1629.01
416.93	1706.25
417.12	1685.19
417.31	1647.74
417.50	1760.08
417.69	1802.21
417.88	1703.91
418.07	1802.21
418.26	1654.76
418.45	1755.40
418.64	1802.21
418.83	1856.04
419.02	1886.47
419.21	1891.15
419.39	1809.23
419.58	1900.52
419.77	1923.92
419.96	1923.92
420.15	1844.34
420.34	1928.60
420.53	1858.39
420.72	1968.39
420.91	1898.17
421.10	1930.94
421.29	1935.62
421.48	1886.47
421.67	1975.41
421.86	1940.30
422.05	1968.39
422.24	2029.24
422.43	2059.67
422.61	1944.99
422.80	2073.71
422.99	2047.97
423.18	2186.06
423.37	2104.14
423.56	2132.23
423.75	2069.03
423.94	2073.71
424.13	1926.26
424.32	2033.93
424.50	2078.40
424.69	2003.50
424.88	2036.27
425.07	2029.24
425.26	1980.09
425.45	2043.29
425.64	2165.00
425.83	1970.73
426.01	2101.80
426.20	2012.86
426.39	2017.54
426.58	2104.14
426.77	2146.27
426.96	2188.40
427.15	2099.46
427.33	2122.87
427.52	2071.37
427.71	2045.63
427.90	2132.23
428.09	2172.02
428.28	2141.59
428.46	2298.41
428.65	2235.21
428.84	2270.32
429.03	2197.76
429.22	2094.78
429.40	2225.85
429.59	2286.70
429.78	2218.83
429.97	2186.06
430.16	2242.23
430.34	2265.64
430.53	2445.86
430.72	2377.98
430.91	2286.70
431.10	2392.03
431.28	2356.92
431.47	2401.39
431.66	2487.99
431.85	2319.47
432.03	2546.50
432.22	2530.12
432.41	2499.69
432.60	2569.91
432.79	2429.48
432.97	2567.57
433.16	2506.71
433.35	2506.71
433.54	2502.03
433.72	2532.46
433.91	2466.92
434.10	2504.37
434.28	2516.08
434.47	2602.68
434.66	2607.36
434.85	2679.91
435.03	2616.72
435.22	2567.57
435.41	2684.59
435.59	2729.06
435.78	2736.09
435.97	2628.42
436.16	2621.40
436.34	2628.42
436.53	2672.89
436.72	2747.79
436.90	2693.96
437.09	2621.40
437.28	2768.85
437.46	2724.38
437.65	2722.04
437.84	2846.09
438.02	2787.58
438.21	2827.37
438.40	2745.45
438.58	2935.03
438.77	2958.44
438.96	2958.44
439.14	2967.80
439.33	3030.99
439.52	2960.78
439.70	2946.73
439.89	3119.93
440.08	3038.02
440.26	3136.32
440.45	3052.06
440.63	3038.02
440.82	3213.56
441.01	3208.87
441.19	2995.89
441.38	3297.81
441.57	3236.96
441.75	3269.73
441.94	3368.03
442.12	3281.43
442.31	3442.93
442.50	3300.16
442.68	3321.22
442.87	3557.61
443.05	3417.18
443.24	3295.47
443.43	3389.10
443.61	3400.80
443.80	3588.04
443.98	3442.93
444.17	3332.92
444.35	3398.46
444.54	3428.88
444.73	3515.48
444.91	3520.17
445.10	3524.85
445.28	3583.36
445.47	3419.52
445.65	3375.05
445.84	3503.78
446.02	3552.93
446.21	3466.33
446.39	3588.04
446.58	3672.30
446.77	3501.44
446.95	3389.10
447.14	3492.08
447.32	3510.80
447.51	3513.14
447.69	3510.80
447.88	3599.74
448.06	3557.61
448.25	3548.25
448.43	3520.17
448.62	3520.17
448.80	3552.93
448.99	3517.83
449.17	3641.87
449.36	3609.11
449.54	3882.95
449.73	3735.50
449.91	3805.71
450.10	3655.92
450.28	3812.73
450.46	3763.58
450.65	3859.54
450.83	3889.97
451.02	3796.35
451.20	3803.37
451.39	3932.10
451.57	3791.67
451.76	3922.74
451.94	3894.65
452.13	3918.06
452.31	3894.65
452.49	3777.62
452.68	3985.93
452.86	3911.04
453.05	3939.12
453.23	4084.23
453.42	3794.01
453.60	3913.38
453.78	3988.27
453.97	3943.80
454.15	3953.16
454.34	3936.78
454.52	4121.68
454.70	4023.38
454.89	4112.32
455.07	4065.51
455.26	4187.22
455.44	4238.71
455.62	4117.00
455.81	4280.84
455.99	4187.22
456.17	4166.15
456.36	4271.48
456.54	4430.63
456.73	4304.25
456.91	4440.00
457.09	4421.27
457.28	4311.27
457.46	4360.42
457.64	4442.34
457.83	4514.89
458.01	4465.74
458.19	4400.21
458.38	4360.42
458.56	4559.36
458.74	4388.50
458.93	4435.32
459.11	4365.10
459.29	4486.81
459.48	4739.58
459.66	4578.09
459.84	4550.00
460.03	4704.48
460.21	4674.05
460.39	4648.30
460.57	4571.07
460.76	4557.02
460.94	4692.77
461.12	4596.81
461.31	4655.33
461.49	4657.67
461.67	4557.02
461.85	4812.14
462.04	4758.31
462.22	5142.16
462.40	4762.99
462.59	4833.21
462.77	4702.14
462.95	4807.46
463.13	4851.93
463.32	4713.84
463.50	4882.36
463.68	4877.68
463.86	4800.44
464.05	4901.08
464.23	4800.44
464.41	4936.19
464.59	4905.76
464.78	4975.98
464.96	4990.02
465.14	5078.96
465.32	4931.51
465.50	5046.20
465.69	5090.67
465.87	5064.92
466.05	5249.82
466.23	5109.39
466.41	5095.35
466.60	5240.46
466.78	5039.17
466.96	5111.73
467.14	5036.83
467.32	5088.32
467.51	5210.03
467.69	5238.12
467.87	5048.54
468.05	5235.78
468.23	5139.82
468.41	5156.20
468.60	5100.03
468.78	5298.97
468.96	5210.03
469.14	5483.88
469.32	5336.42
469.50	5235.78
469.69	5458.13
469.87	5584.52
470.05	5509.62
470.23	5526.00
470.41	5507.28
470.59	5514.30
470.77	5313.02
470.95	5504.94
471.14	5678.14
471.32	5399.62
471.50	5671.12
471.68	5736.65
471.86	5738.99
472.04	5771.76
472.22	5804.53
472.40	5624.31
472.58	5820.91
472.77	5781.12
472.95	5841.98
473.13	6162.63
473.31	5809.21
473.49	5870.06
473.67	5865.38
473.85	5837.30
474.03	6150.93
474.21	6125.18
474.39	6129.86
474.57	6284.34
474.75	6106.46
474.93	6267.95
475.12	6125.18
475.30	6223.48
475.48	6174.33
475.66	6399.02
475.84	6303.06
476.02	6368.60
476.20	6258.59
476.38	6775.85
476.56	6745.42
476.74	6593.29
476.92	6513.71
477.10	6647.12
477.28	6771.17
477.46	6836.70
477.64	6799.26
477.82	6963.09
478.00	6911.60
478.18	6883.52
478.36	7192.47
478.54	7105.87
478.72	7253.32
478.90	7066.08
479.08	7155.02
479.26	7452.27
479.44	7365.67
479.62	7407.80
479.80	7604.40
479.98	7543.55
480.16	7688.66
480.34	7634.83
480.52	7749.51
480.70	7981.23
480.88	7789.30
481.06	7941.44
481.24	7962.50
481.41	8006.97
481.59	8037.40
481.77	8154.43
481.95	8201.24
482.13	8161.45
482.31	8079.53
482.49	8428.27
482.67	8348.69
482.85	8423.59
483.03	8407.20
483.21	8659.98
483.39	8786.37
483.57	8606.15
483.74	8674.03
483.92	8868.29
484.10	8823.82
484.28	8926.80
484.46	9308.31
484.64	9535.34
484.82	8978.30
485.00	9219.37
485.18	9533.00
485.35	9605.56
485.53	9734.29
485.71	9483.85
485.89	9516.62
486.07	9551.73
486.25	9525.98
486.43	9685.14
486.61	9795.14
486.78	10003.45
486.96	10050.26
487.14	10230.48
487.32	10178.99
487.50	10296.02
487.68	10562.84
487.85	10310.06
488.03	10614.33
488.21	10698.59
488.39	10654.12
488.57	10768.80
488.75	10871.79
488.92	11208.83
489.10	10951.37
489.28	11178.40
489.46	11218.19
489.64	11176.06
489.81	11342.24
489.99	11372.66
490.17	11480.33
490.35	11934.39
490.53	11761.19
490.70	11915.67
490.88	12011.63
491.06	11997.59
491.24	12123.98
491.41	12063.12
491.59	12362.71
491.77	12255.04
491.95	12367.39
492.13	12416.54
492.30	12379.09
492.48	12505.48
492.66	12381.43
492.84	12521.87
493.01	12589.74
493.19	12641.23
493.37	13062.53
493.54	13069.55
493.72	13050.83
493.90	13008.70
494.08	13132.75
494.25	13252.11
494.43	13355.10
494.61	13413.61
494.79	13614.90
494.96	13341.05
495.14	13535.32
495.32	13547.02
495.49	13846.61
495.67	13881.72
495.85	14059.60
496.02	14059.60
496.20	13973.00
496.38	14200.03
496.55	14178.97
496.73	14572.18
496.91	14342.80
497.09	14366.21
497.26	14787.50
497.44	14457.49
497.62	14651.75
497.79	14991.13
497.97	14663.46
498.14	14998.15
498.32	15161.99
498.50	15002.83
498.67	15192.42
498.85	15140.93
499.03	15257.95
499.20	15049.64
499.38	15651.16
499.56	15538.82
499.73	15669.89
499.91	15646.48
500.08	15630.10
500.26	15468.60
500.44	15604.35
500.61	15672.23
500.79	15770.53
500.97	15784.57
501.14	16149.70
501.32	16039.69
501.49	16074.80
501.67	16056.08
501.84	15822.02
502.02	16140.33
502.20	16325.24
502.37	16479.71
502.55	16535.88
502.72	16484.39
502.90	16306.51
503.07	16266.72
503.25	16732.49
503.43	16765.26
503.60	16772.28
503.78	16683.34
503.95	16755.90
504.13	16915.05
504.30	16786.32
504.48	16961.86
504.65	16767.60
504.83	17238.05
505.01	17504.87
505.18	17121.02
505.36	17317.62
505.53	17128.04
505.71	17191.23
505.88	17649.98
506.06	17282.52
506.23	17497.84
506.41	17729.56
506.58	17523.59
506.76	17701.47
506.93	17813.82
507.11	17980.00
507.28	17771.69
507.46	17811.48
507.63	17916.80
507.81	18181.28
507.98	18036.17
508.16	18047.87
508.33	18075.96
508.50	18012.76
508.68	17970.63
508.85	18459.81
509.03	18235.11
509.20	18675.13
509.38	18508.96
509.55	18635.35
509.73	18836.63
509.90	18743.01
510.08	18656.41
510.25	18703.22
510.42	18822.59
510.60	18995.79
510.77	19094.09
510.95	18981.74
511.12	19150.26
511.30	18925.57
511.47	18876.42
511.64	18988.77
511.82	19271.97
511.99	19257.93
512.17	19555.18
512.34	19229.84
512.51	19484.96
512.69	19791.57
512.86	19613.69
513.04	19543.47
513.21	19957.75
513.38	19683.91
513.56	19997.54
513.73	19719.01
513.90	19758.80
514.08	20006.90
514.25	19726.04
514.43	20236.27
514.60	19936.68
514.77	20161.37
514.95	20451.60
515.12	20133.29
515.29	20042.01
515.47	20173.08
515.64	20683.31
515.81	20116.90
515.99	20685.65
516.16	20435.22
516.33	20374.36
516.51	20737.15
516.68	20713.74
516.85	20554.58
517.03	20716.08
517.20	20505.43
517.37	20753.53
517.54	20702.04
517.72	21048.44
517.89	20755.87
518.06	20631.82
518.24	21151.42
518.41	20999.29
518.58	21039.08
518.75	21324.62
518.93	21612.51
519.10	21596.12
519.27	21261.43
519.45	21298.88
519.62	21280.15
519.79	21373.77
519.96	21640.59
520.14	21696.77
520.31	21525.91
520.48	21720.17
520.65	21242.70
520.83	21771.66
521.00	21722.51
521.17	21682.72
521.34	21905.07
521.52	21898.05
521.69	22085.30
521.86	22026.78
522.03	22216.36
522.20	22141.47
522.38	22183.60
522.55	21956.57
522.72	22040.82
522.89	22026.78
523.07	22707.88
523.24	22370.84
523.41	22249.13
523.58	22401.27
523.75	22356.80
523.92	22689.15
524.10	22705.54
524.27	22717.24
524.44	22663.41
524.61	22834.27
524.78	22953.63
524.96	23012.15
525.13	22857.67
525.30	22850.65
525.47	23435.78
525.64	22867.03
525.81	23047.26
525.98	22841.29
526.16	23410.04
526.33	23049.60
526.50	23070.66
526.67	22993.42
526.84	23353.87
527.01	23110.45
527.18	23150.24
527.36	23101.09
527.53	23585.58
527.70	23700.26
527.87	23662.82
528.04	23716.65
528.21	23658.14
528.38	23620.69
528.55	23770.48
528.72	23733.03
528.89	24067.73
529.07	24100.50
529.24	23690.90
529.41	24070.07
529.58	23988.15
529.75	23616.01
529.92	23716.65
530.09	23651.11
530.26	24051.34
530.43	24222.20
530.60	23995.17
530.77	24489.03
530.94	24135.60
531.11	24116.88
531.28	24114.54
531.46	24210.50
531.63	24322.85
531.80	24339.23
531.97	24126.24
532.14	24404.77
532.31	24734.78
532.48	24411.79
532.65	24421.15
532.82	24030.28
532.99	24542.86
533.16	24411.79
533.33	24807.34
533.50	24746.48
533.67	25032.03
533.84	24737.12
534.01	24964.15
534.18	24837.76
534.35	24950.11
534.52	25343.32
534.69	25284.81
534.86	25039.05
535.03	25039.05
535.20	24704.35
535.37	25017.99
535.54	25289.49
535.71	24971.18
535.88	25071.82
536.05	24898.62
536.22	25242.68
536.38	25656.95
536.55	25184.16
536.72	25350.34
536.89	25324.60
537.06	25568.01
537.23	25144.38
537.40	25289.49
537.57	25551.63
537.74	25600.78
537.91	25773.98
538.08	25465.03
538.25	25399.49
538.42	25654.61
538.59	25652.27
538.75	25371.41
538.92	25860.58
539.09	25617.16
539.26	26132.08
539.43	25755.26
539.60	25671.00
539.77	26178.89
539.94	26293.58
540.11	25895.69
540.28	26249.11
540.44	26129.74
540.61	26008.03
540.78	26405.92
540.95	26314.64
541.12	26012.71
541.29	26347.41
541.46	26363.79
541.62	26274.85
541.79	26581.46
541.96	25734.19
542.13	26078.25
542.30	26459.76
542.47	26506.57
542.63	26656.36
542.80	26967.65
542.97	26560.40
543.14	26984.04
543.31	26740.62
543.48	26436.35
543.64	26986.38
543.81	26728.92
543.98	26836.58
544.15	27269.58
544.32	27058.93
544.48	27182.98
544.65	27040.21
544.82	26876.37
544.99	26506.57
545.16	27007.44
545.32	27150.21
545.49	27016.80
545.66	27346.82
545.83	27477.89
546.00	27330.44
546.16	27213.41
546.33	27248.52
546.50	27164.26
546.67	27218.09
546.83	26998.08
547.00	27407.67
547.17	27508.32
547.34	27887.48
547.50	27606.62
547.67	27938.97
547.84	27477.89
548.00	27623.00
548.17	27604.28
548.34	27419.38
548.51	28016.21
548.67	27564.49
548.84	27620.66
549.01	27545.76
549.18	27637.05
549.34	27681.52
549.51	28053.66
549.68	27721.30
549.84	27683.86
550.01	27826.63
550.18	27669.81
550.34	28072.39
550.51	27950.68
550.68	28072.39
550.84	28002.17
551.01	27899.19
551.18	27929.61
551.34	27613.64
551.51	28091.11
551.68	28182.39
551.84	28009.19
552.01	27990.47
552.18	28444.53
552.34	28201.11
552.51	28463.25
552.68	28056.00
552.84	28261.97
553.01	28313.46
553.18	28313.46
553.34	28369.63
553.51	28699.65
553.67	28720.71
553.84	28531.13
554.01	28856.46
554.17	28418.78
554.34	28432.83
554.51	28711.35
554.67	28643.48
554.84	28575.60
555.00	28582.62
555.17	28486.66
555.33	28393.04
555.50	28645.82
555.67	28517.09
555.83	28842.42
556.00	28701.99
556.16	28891.57
556.33	28748.80
556.50	28886.89
556.66	28938.38
556.83	28713.69
556.99	29312.87
557.16	29195.84
557.32	29469.69
557.49	28737.10
557.65	29174.78
557.82	28505.38
557.98	28823.70
558.15	28776.89
558.32	29088.18
558.48	29006.26
558.65	29380.74
558.81	29481.39
558.98	28781.57
559.14	29027.32
559.31	28896.25
559.47	29198.18
559.64	29120.95
559.80	28978.17
559.97	29156.05
560.13	29277.76
560.30	29237.97
560.46	29067.11
560.63	29371.38
560.79	29184.14
560.96	29626.50
561.12	29359.68
561.29	29457.98
561.45	29401.81
561.61	29502.45
561.78	29450.96
561.94	29371.38
562.11	29415.85
562.27	29408.83
562.44	29500.11
562.60	29647.57
562.77	29476.71
562.93	29399.47
563.10	29343.30
563.26	29729.48
563.42	29638.20
563.59	29474.37
563.75	29268.40
563.92	29717.78
564.08	29465.00
564.24	29968.22
564.41	29537.56
564.57	29397.13
564.74	29834.81
564.90	29998.65
565.07	29631.18
565.23	29553.94
565.39	29692.04
565.56	29659.27
565.72	29673.31
565.88	29699.06
566.05	29535.22
566.21	29900.34
566.38	29886.30
566.54	29869.92
566.70	29951.84
566.87	30106.31
567.03	29804.38
567.19	30441.01
567.36	29881.62
567.52	30089.93
567.68	29827.79
567.85	29687.36
568.01	30008.01
568.17	30015.03
568.34	30061.84
568.50	29989.28
568.66	29989.28
568.83	30225.68
568.99	29769.27
569.15	29869.92
569.32	29921.41
569.48	29472.03
569.64	29944.81
569.81	29881.62
569.97	29930.77
570.13	30274.83
570.30	30127.38
570.46	30092.27
570.62	29832.47
570.78	29656.93
570.95	30040.78
571.11	30295.89
571.27	29869.92
571.43	29834.81
571.60	30368.45
571.76	30441.01
571.92	30347.39
572.09	30118.01
572.25	30462.07
572.41	30600.16
572.57	30401.22
572.74	30424.62
572.90	30223.34
573.06	30162.48
573.22	29888.64
573.38	30342.70
573.55	30267.81
573.71	30541.65
573.87	30272.49
574.03	30134.40
574.20	30302.92
574.36	30221.00
574.52	30228.02
574.68	30366.11
574.84	30349.73
575.01	30565.06
575.17	30309.94
575.33	30183.55
575.49	30073.54
575.65	30717.19
575.82	30773.36
575.98	30347.39
576.14	30302.92
576.30	30195.25
576.46	30305.26
576.62	30398.88
576.79	30300.58
576.95	30403.56
577.11	30590.80
577.27	30607.19
577.43	30850.60
577.59	30455.05
577.75	30040.78
577.92	30251.42
578.08	30391.86
578.24	30532.29
578.40	30307.60
578.56	30347.39
578.72	30342.70
578.88	30525.27
579.04	30852.94
579.21	30433.99
579.37	30883.37
579.53	30876.35
579.69	29921.41
579.85	30436.33
580.01	30679.74
580.17	30368.45
580.33	30295.89
580.49	30136.74
580.65	30462.07
580.82	30642.29
580.98	30415.26
581.14	30429.30
581.30	30614.21
581.46	30333.34
581.62	30696.13
581.78	30508.88
581.94	30417.60
582.10	30213.98
582.26	30356.75
582.42	30471.43
582.58	30361.43
582.74	30927.84
582.90	30845.92
583.06	30501.86
583.22	30707.83
583.38	30225.68
583.54	30408.24
583.70	30679.74
583.86	30628.25
584.02	30045.46
584.18	30717.19
584.34	30731.23
584.50	30829.54
584.66	30717.19
584.82	30452.71
584.98	30649.32
585.14	30541.65
585.30	30195.25
585.46	30485.48
585.62	30691.44
585.78	30583.78
585.94	30536.97
586.10	30932.52
586.26	30731.23
586.42	30651.66
586.58	30649.32
586.74	30546.33
586.90	30314.62
587.06	30307.60
587.22	30242.06
587.38	30548.67
587.54	30930.18
587.70	30906.77
587.86	30581.44
588.02	30969.97
588.18	30941.88
588.34	30820.17
588.49	30787.41
588.65	30625.91
588.81	30534.63
588.97	30541.65
589.13	30239.72
589.29	30742.94
589.45	30960.61
589.61	30972.31
589.77	30955.93
589.93	31087.00
590.08	31056.57
590.24	30689.10
590.40	31332.75
590.56	30724.21
590.72	30611.87
590.88	30553.35
591.04	30504.20
591.20	31117.42
591.35	31115.08
591.51	31374.88
591.67	30586.12
591.83	31026.14
591.99	31166.57
