SpectraSuite Data File
++++++++++++++++++++++++++++++++++++
Date: Fri Oct 18 13:58:02 GMT-05:00 2013
User: bianchi
Dark Spectrum Present: No
Reference Spectrum Present: No
Number of Sampled Component Spectra: 1
Spectrometers: USB2+H05261
Integration Time (usec): 50000 (USB2+H05261)
Spectra Averaged: 1 (USB2+H05261)
Boxcar Smoothing: 0 (USB2+H05261)
Correct for Electrical Dark: No (USB2+H05261)
Strobe/Lamp Enabled: No (USB2+H05261)
Correct for Detector Non-linearity: No (USB2+H05261)
Correct for Stray Light: No (USB2+H05261)
Number of Pixels in Processed Spectrum: 2048
>>>>>Begin Processed Spectral Data<<<<<
365.73	0.00
365.92	0.00
366.12	0.00
366.32	0.00
366.52	0.00
366.72	0.00
366.91	0.00
367.11	0.00
367.31	0.00
367.51	0.00
367.70	0.00
367.90	0.00
368.10	0.00
368.30	0.00
368.49	0.00
368.69	0.00
368.89	0.00
369.09	0.00
369.28	0.00
369.48	0.00
369.68	0.00
369.87	0.00
370.07	0.00
370.27	0.00
370.47	0.00
370.66	182.56
370.86	121.71
371.06	163.84
371.25	131.07
371.45	121.71
371.65	126.39
371.84	180.22
372.04	102.98
372.24	191.92
372.44	205.97
372.63	273.84
372.83	173.20
373.03	222.35
373.22	159.16
373.42	191.92
373.62	245.76
373.81	217.67
374.01	191.92
374.21	227.03
374.40	220.01
374.60	245.76
374.79	264.48
374.99	271.50
375.19	255.12
375.38	203.63
375.58	201.29
375.78	304.27
375.97	156.82
376.17	198.95
376.37	313.63
376.56	194.26
376.76	161.50
376.95	269.16
377.15	297.25
377.35	273.84
377.54	248.10
377.74	273.84
377.93	283.20
378.13	276.18
378.33	322.99
378.52	313.63
378.72	337.04
378.91	306.61
379.11	276.18
379.31	283.20
379.50	191.92
379.70	304.27
379.89	276.18
380.09	285.55
380.28	351.08
380.48	280.86
380.68	362.78
380.87	198.95
381.07	388.53
381.26	297.25
381.46	360.44
381.65	367.46
381.85	355.76
382.04	360.44
382.24	334.70
382.43	409.59
382.63	339.38
382.83	276.18
383.02	294.91
383.22	430.66
383.41	461.09
383.61	332.36
383.80	374.49
384.00	379.17
384.19	353.42
384.39	332.36
384.58	341.72
384.78	360.44
384.97	386.19
385.17	325.33
385.36	477.47
385.56	376.83
385.75	421.30
385.95	404.91
386.14	339.38
386.34	416.62
386.53	383.85
386.72	491.51
386.92	454.06
387.11	449.38
387.31	421.30
387.50	428.32
387.70	433.00
387.89	428.32
388.09	395.55
388.28	444.70
388.48	435.34
388.67	514.92
388.86	496.19
389.06	498.53
389.25	430.66
389.45	468.11
389.64	444.70
389.84	528.96
390.03	454.06
390.22	475.13
390.42	477.47
390.61	526.62
390.81	465.77
391.00	451.72
391.19	449.38
391.39	468.11
391.58	500.87
391.78	510.24
391.97	500.87
392.16	535.98
392.36	552.37
392.55	505.56
392.75	599.18
392.94	547.69
393.13	601.52
393.33	564.07
393.52	561.73
393.71	580.45
393.91	578.11
394.10	547.69
394.29	510.24
394.49	610.88
394.68	517.26
394.88	599.18
395.07	580.45
395.26	648.33
395.46	620.24
395.65	631.94
395.84	653.01
396.04	690.46
396.23	685.78
396.42	706.84
396.62	631.94
396.81	702.16
397.00	641.31
397.19	711.52
397.39	678.76
397.58	695.14
397.77	669.39
397.97	695.14
398.16	582.79
398.35	660.03
398.55	774.72
398.74	739.61
398.93	622.58
399.12	655.35
399.32	779.40
399.51	695.14
399.70	753.65
399.90	774.72
400.09	716.20
400.28	718.54
400.47	730.25
400.67	788.76
400.86	741.95
401.05	844.93
401.24	772.38
401.44	755.99
401.63	748.97
401.82	807.48
402.01	805.14
402.21	837.91
402.40	896.43
402.59	950.26
402.78	847.27
402.97	777.06
403.17	847.27
403.36	828.55
403.55	798.12
403.74	903.45
403.93	933.87
404.13	896.43
404.32	889.40
404.51	940.90
404.70	1006.43
404.89	940.90
405.09	1008.77
405.28	884.72
405.47	912.81
405.66	1074.31
405.85	1064.94
406.05	971.32
406.24	964.30
406.43	873.02
406.62	971.32
406.81	1057.92
407.00	1053.24
407.20	1008.77
407.39	987.71
407.58	1001.75
407.77	1034.52
407.96	1076.65
408.15	1111.75
408.34	1039.20
408.54	1179.63
408.73	1062.60
408.92	1123.46
409.11	1102.39
409.30	1135.16
409.49	1224.10
409.68	1137.50
409.87	1149.20
410.07	1287.29
410.26	1224.10
410.45	1256.87
410.64	1247.51
410.83	1172.61
411.02	1167.93
411.21	1256.87
411.40	1273.25
411.59	1362.19
411.78	1233.46
411.98	1240.48
412.17	1256.87
412.36	1224.10
412.55	1327.08
412.74	1378.58
412.93	1366.87
413.12	1259.21
413.31	1420.71
413.50	1394.96
413.69	1338.79
413.88	1469.86
414.07	1362.19
414.26	1423.05
414.45	1572.84
414.64	1357.51
414.83	1458.15
415.02	1551.78
415.22	1533.05
415.41	1614.97
415.60	1589.22
415.79	1619.65
415.98	1631.35
416.17	1610.29
416.36	1554.12
416.55	1689.87
416.74	1654.76
416.93	1636.03
417.12	1673.48
417.31	1736.68
417.50	1732.00
417.69	1750.72
417.88	1757.74
418.07	1748.38
418.26	1771.79
418.45	1764.76
418.64	1858.39
418.83	1762.42
419.02	1767.10
419.21	1792.85
419.39	1818.60
419.58	1856.04
419.77	1846.68
419.96	1884.13
420.15	1884.13
420.34	1926.26
420.53	1834.98
420.72	1914.56
420.91	1886.47
421.10	1942.64
421.29	1970.73
421.48	1888.81
421.67	1926.26
421.86	1977.75
422.05	2059.67
422.24	2003.50
422.43	1973.07
422.61	2026.90
422.80	2078.40
422.99	2015.20
423.18	2038.61
423.37	2083.08
423.56	1973.07
423.75	2148.61
423.94	1982.43
424.13	1820.94
424.32	1970.73
424.50	1994.14
424.69	2108.82
424.88	1977.75
425.07	2022.22
425.26	1949.67
425.45	2012.86
425.64	2136.91
425.83	2071.37
426.01	2122.87
426.20	2169.68
426.39	2062.01
426.58	2054.99
426.77	2174.36
426.96	2179.04
427.15	2019.88
427.33	2073.71
427.52	2090.10
427.71	2200.10
427.90	2108.82
428.09	2200.10
428.28	2239.89
428.46	2242.23
428.65	2214.15
428.84	2289.04
429.03	2361.60
429.22	2209.47
429.40	2225.85
429.59	2312.45
429.78	2092.44
429.97	2146.27
430.16	2342.88
430.34	2263.30
430.53	2312.45
430.72	2338.20
430.91	2188.40
431.10	2392.03
431.28	2356.92
431.47	2354.58
431.66	2415.43
431.85	2368.62
432.03	2333.51
432.22	2406.07
432.41	2392.03
432.60	2523.10
432.79	2450.54
432.97	2403.73
433.16	2434.16
433.35	2499.69
433.54	2382.67
433.72	2523.10
433.91	2523.10
434.10	2654.17
434.28	2600.34
434.47	2590.97
434.66	2539.48
434.85	2553.52
435.03	2602.68
435.22	2609.70
435.41	2703.32
435.59	2612.04
435.78	2621.40
435.97	2658.85
436.16	2708.00
436.34	2654.17
436.53	2794.60
436.72	2787.58
436.90	2642.46
437.09	2649.49
437.28	2637.78
437.46	2869.50
437.65	2834.39
437.84	2733.75
438.02	2796.94
438.21	2818.00
438.40	2712.68
438.58	2892.90
438.77	2860.13
438.96	2932.69
439.14	2895.24
439.33	3042.70
439.52	2986.52
439.70	2920.99
439.89	2890.56
440.08	3019.29
440.26	3082.49
440.45	3028.65
440.63	3115.25
440.82	3098.87
441.01	3023.97
441.19	2993.55
441.38	3251.00
441.57	3061.42
441.75	3150.36
441.94	3368.03
442.12	3304.84
442.31	3356.33
442.50	3344.63
442.68	3321.22
442.87	3314.20
443.05	3375.05
443.24	3342.28
443.43	3330.58
443.61	3403.14
443.80	3337.60
443.98	3389.10
444.17	3272.07
444.35	3454.63
444.54	3559.95
444.73	3407.82
444.91	3494.42
445.10	3466.33
445.28	3281.43
445.47	3307.18
445.65	3454.63
445.84	3515.48
446.02	3435.91
446.21	3339.94
446.39	3353.99
446.58	3691.02
446.77	3604.42
446.95	3407.82
447.14	3531.87
447.32	3590.38
447.51	3515.48
447.69	3478.04
447.88	3428.88
448.06	3456.97
448.25	3552.93
448.43	3475.70
448.62	3595.06
448.80	3536.55
448.99	3726.13
449.17	3410.16
449.36	3538.89
449.54	3719.11
449.73	3620.81
449.91	3686.34
450.10	3639.53
450.28	3693.37
450.46	3679.32
450.65	3777.62
450.83	3810.39
451.02	3723.79
451.20	3929.76
451.39	3911.04
451.57	3796.35
451.76	3850.18
451.94	3894.65
452.13	3880.61
452.31	3882.95
452.49	3882.95
452.68	3911.04
452.86	3775.28
453.05	4072.53
453.23	3967.21
453.42	3896.99
453.60	3857.20
453.78	3932.10
453.97	3868.91
454.15	3990.61
454.34	3995.29
454.52	4004.66
454.70	3967.21
454.89	4056.15
455.07	4009.34
455.26	3999.98
455.44	4042.11
455.62	4112.32
455.81	4124.02
455.99	4147.43
456.17	4147.43
456.36	4250.41
456.54	4227.01
456.73	4168.49
456.91	4390.84
457.09	4320.63
457.28	4313.61
457.46	4304.25
457.64	4435.32
457.83	4533.62
458.01	4205.94
458.19	4442.34
458.38	4381.48
458.56	4535.96
458.74	4421.27
458.93	4374.46
459.11	4477.44
459.29	4334.67
459.48	4601.49
459.66	4578.09
459.84	4643.62
460.03	4660.01
460.21	4587.45
460.39	4617.88
460.57	4440.00
460.76	4542.98
460.94	4678.73
461.12	4582.77
461.31	4650.64
461.49	4678.73
461.67	4643.62
461.85	4858.95
462.04	4795.76
462.22	4884.70
462.40	4903.42
462.59	4739.58
462.77	4657.67
462.95	4755.97
463.13	4954.91
463.32	4737.24
463.50	4945.55
463.68	4889.38
463.86	4791.08
464.05	4915.12
464.23	4903.42
464.41	4938.53
464.59	4791.08
464.78	4983.00
464.96	5121.09
465.14	4805.12
465.32	4865.97
465.50	4940.87
465.69	4882.36
465.87	5008.75
466.05	4877.68
466.23	4887.04
466.41	5034.49
466.60	5144.50
466.78	5053.22
466.96	5153.86
467.14	5111.73
467.32	4999.38
467.51	5144.50
467.69	4940.87
467.87	5322.38
468.05	5174.92
468.23	5025.13
468.41	5167.90
468.60	5015.77
468.78	5163.22
468.96	5205.35
469.14	5149.18
469.32	5320.04
469.50	5317.70
469.69	5476.85
469.87	5446.43
470.05	5280.25
470.23	5404.30
470.41	5544.73
470.59	5600.90
470.77	5502.60
470.95	5633.67
471.14	5593.88
471.32	5540.05
471.50	5610.26
471.68	5628.99
471.86	5699.20
472.04	5544.73
472.22	5865.38
472.40	5813.89
472.58	5760.06
472.77	5764.74
472.95	5834.96
473.13	5982.41
473.31	5846.66
473.49	5895.81
473.67	5916.87
473.85	5863.04
474.03	5987.09
474.21	5998.79
474.39	5963.68
474.57	6181.35
474.75	6167.31
474.93	6249.23
475.12	6186.04
475.30	6157.95
475.48	6148.59
475.66	6296.04
475.84	6293.70
476.02	6384.98
476.20	6279.66
476.38	6434.13
476.56	6581.59
476.74	6640.10
476.92	6541.80
477.10	6452.86
477.28	6705.63
477.46	6668.19
477.64	6686.91
477.82	6825.00
478.00	7040.33
478.18	7112.89
478.36	7002.88
478.54	7005.22
478.72	7030.97
478.90	7206.51
479.08	7262.68
479.26	7204.17
479.44	7232.26
479.62	7293.11
479.80	7428.86
479.98	7433.54
480.16	7548.23
480.34	7405.46
480.52	7529.50
480.70	7545.89
480.88	7473.33
481.06	7693.34
481.24	7721.43
481.41	7782.28
481.59	8058.46
481.77	8147.40
481.95	8116.98
482.13	8049.10
482.31	8194.22
482.49	8224.64
482.67	8210.60
482.85	8484.44
483.03	8578.06
483.21	8622.53
483.39	8674.03
483.57	8500.83
483.74	8603.81
483.92	8688.07
484.10	8631.90
484.28	8854.25
484.46	8943.19
484.64	9448.74
484.82	9048.51
485.00	9364.48
485.18	9256.82
485.35	9437.04
485.53	9472.15
485.71	9238.09
485.89	9734.29
486.07	9521.30
486.25	9654.71
486.43	9614.92
486.61	9998.77
486.78	9951.96
486.96	9923.87
487.14	10008.13
487.32	10136.86
487.50	10190.69
487.68	10214.10
487.85	10345.17
488.03	10534.75
488.21	10677.52
488.39	10513.69
488.57	10429.43
488.75	10633.05
488.92	10923.28
489.10	10972.43
489.28	11112.86
489.46	11183.08
489.64	11192.44
489.81	11393.73
489.99	11290.74
490.17	11346.92
490.35	11389.05
490.53	11477.99
490.70	11754.17
490.88	11499.05
491.06	11733.11
491.24	11693.32
491.41	11852.47
491.59	11833.75
491.77	11899.28
491.95	12294.83
492.13	12226.96
492.30	12430.59
492.48	12343.99
492.66	12376.75
492.84	12297.17
493.01	12809.75
493.19	12573.36
493.37	12631.87
493.54	12765.28
493.72	12805.07
493.90	12791.03
494.08	12959.55
494.25	13465.10
494.43	13240.41
494.61	13198.28
494.79	13385.52
494.96	13532.98
495.14	13591.49
495.32	13565.74
495.49	13523.62
495.67	13685.11
495.85	13813.84
496.02	13837.25
496.20	13921.51
496.38	13823.20
496.55	13935.55
496.73	14195.35
496.91	14185.99
497.09	14361.53
497.26	14087.68
497.44	14237.48
497.62	14459.83
497.79	14303.01
497.97	14712.61
498.14	14817.93
498.32	14801.55
498.50	14721.97
498.67	14988.79
498.85	15068.37
499.03	15016.88
499.20	15098.80
499.38	15136.24
499.56	15124.54
499.73	15019.22
499.91	15648.82
500.08	15697.97
500.26	15749.46
500.44	15653.50
500.61	15974.16
500.79	15667.55
500.97	15775.21
501.14	15676.91
501.32	16004.58
501.49	15843.09
501.67	15939.05
501.84	15939.05
502.02	15976.50
502.20	16240.98
502.37	15997.56
502.55	16262.04
502.72	16250.34
502.90	16049.05
503.07	16219.91
503.25	16322.90
503.43	16540.57
503.60	16456.31
503.78	16805.05
503.95	16617.80
504.13	16589.72
504.30	16681.00
504.48	16704.40
504.65	16655.25
504.83	16748.87
505.01	17135.06
505.18	17198.26
505.36	17301.24
505.53	17018.04
505.71	17057.82
505.88	17142.08
506.06	16781.64
506.23	17488.48
506.41	17200.60
506.58	17502.53
506.76	17479.12
506.93	17905.10
507.11	17488.48
507.28	17385.50
507.46	17659.34
507.63	17713.17
507.81	18075.96
507.98	17731.90
508.16	17809.14
508.33	17900.42
508.50	17928.50
508.68	17790.41
508.85	18064.25
509.03	18239.79
509.20	18401.29
509.38	18342.78
509.55	18359.16
509.73	18441.08
509.90	18366.18
510.08	18377.89
510.25	18349.80
510.42	18553.43
510.60	18794.50
510.77	18857.70
510.95	18988.77
511.12	18724.29
511.30	18984.09
511.47	19136.22
511.64	19176.01
511.82	18909.19
511.99	18888.12
512.17	18958.34
512.34	19229.84
512.51	19307.08
512.69	19735.40
512.86	19274.31
513.04	19592.62
513.21	19798.59
513.38	19585.60
513.56	19578.58
513.73	19414.74
513.90	19517.73
514.08	19669.86
514.25	19871.15
514.43	19744.76
514.60	19651.14
514.77	19861.79
514.95	20137.97
515.12	19878.17
515.29	19934.34
515.47	19983.49
515.64	20182.44
515.81	20009.24
515.99	20648.21
516.16	20411.81
516.33	20365.00
516.51	20631.82
516.68	20219.89
516.85	20416.49
517.03	20673.95
517.20	20666.93
517.37	20500.75
517.54	20767.57
517.72	20552.24
517.89	20737.15
518.06	20725.44
518.24	20816.72
518.41	20655.23
518.58	20915.03
518.75	20877.58
518.93	21254.40
519.10	21001.63
519.27	20950.14
519.45	21123.33
519.62	21216.96
519.79	21081.21
519.96	21006.31
520.14	21188.87
520.31	21214.62
520.48	21537.61
520.65	21355.05
520.83	21223.98
521.00	21696.77
521.17	21467.39
521.34	21497.82
521.52	21869.97
521.69	21823.16
521.86	22108.70
522.03	21790.39
522.20	22001.04
522.38	21891.03
522.55	21809.11
522.72	21872.31
522.89	22136.79
523.07	22106.36
523.24	21986.99
523.41	22258.49
523.58	22057.21
523.75	22232.75
523.92	22080.61
524.10	22183.60
524.27	22654.05
524.44	22522.98
524.61	22703.20
524.78	22637.66
524.96	22483.19
525.13	22424.67
525.30	22820.22
525.47	22551.06
525.64	22663.41
525.81	22995.76
525.98	22955.97
526.16	22548.72
526.33	22899.80
526.50	23007.47
526.67	22766.39
526.84	23042.57
527.01	22867.03
527.18	22902.14
527.36	23281.31
527.53	23058.96
527.70	23594.94
527.87	23250.88
528.04	23274.29
528.21	23616.01
528.38	23166.62
528.55	23583.24
528.72	23433.44
528.89	23639.41
529.07	23796.23
529.24	23363.23
529.41	23637.07
529.58	23672.18
529.75	23744.73
529.92	23557.49
530.09	23852.40
530.26	23831.33
530.43	23669.84
530.60	23620.69
530.77	24269.01
530.94	23995.17
531.11	23868.78
531.28	24009.22
531.46	23988.15
531.63	24283.06
531.80	24095.82
531.97	24280.72
532.14	24421.15
532.31	24004.53
532.48	24364.98
532.65	24208.16
532.82	24142.63
532.99	24442.21
533.16	24512.43
533.33	24589.67
533.50	24922.02
533.67	24346.25
533.84	24566.26
534.01	24301.78
534.18	24484.34
534.35	24774.57
534.52	24400.08
534.69	24821.38
534.86	24687.97
535.03	24484.34
535.20	24575.62
535.37	24842.45
535.54	24669.25
535.71	24608.39
535.88	24940.75
536.05	24858.83
536.22	25200.55
536.38	25298.85
536.55	25160.76
536.72	24828.40
536.89	25123.31
537.06	25322.26
537.23	25291.83
537.40	24952.45
537.57	25111.61
537.74	25242.68
537.91	25427.58
538.08	25633.55
538.25	25474.39
538.42	25528.22
538.59	25500.14
538.75	25099.90
538.92	25479.07
539.09	25668.66
539.26	25678.02
539.43	25671.00
539.60	25972.92
539.77	25518.86
539.94	25778.66
540.11	25673.34
540.28	25703.76
540.44	25303.53
540.61	25333.96
540.78	25752.91
540.95	25790.36
541.12	25900.37
541.29	25582.06
541.46	25923.77
541.62	25888.67
541.79	25935.48
541.96	25687.38
542.13	25989.31
542.30	26331.03
542.47	26033.78
542.63	26307.62
542.80	26345.07
542.97	26469.12
543.14	26462.10
543.31	26436.35
543.48	26143.78
543.64	26525.29
543.81	26813.18
543.98	26710.19
544.15	26628.27
544.32	26831.90
544.48	26747.64
544.65	26881.05
544.82	26672.74
544.99	26532.31
545.16	26604.87
545.32	26810.84
545.49	26684.45
545.66	26663.38
545.83	27000.42
546.00	27143.19
546.16	26925.52
546.33	26874.03
546.50	26562.74
546.67	27140.85
546.83	26831.90
547.00	26960.63
547.17	27129.15
547.34	27274.26
547.50	27632.36
547.67	26958.29
547.84	27243.84
548.00	26869.35
548.17	27077.66
548.34	27529.38
548.51	27627.68
548.67	27367.88
548.84	27232.13
549.01	27393.63
549.18	27250.86
549.34	27360.86
549.51	27386.61
549.68	27192.34
549.84	27218.09
550.01	27618.32
550.18	27573.85
550.34	27704.92
550.51	27779.82
550.68	27552.79
550.84	27690.88
551.01	27513.00
551.18	27604.28
551.34	27747.05
551.51	27798.54
551.68	27583.21
551.84	27835.99
552.01	27447.46
552.18	27946.00
552.34	27606.62
552.51	27964.72
552.68	28336.87
552.84	27768.12
553.01	28025.57
553.18	27976.42
553.34	28158.99
553.51	27873.44
553.67	28250.27
553.84	28350.91
554.01	28070.04
554.17	28294.74
554.34	28133.24
554.51	28313.46
554.67	28313.46
554.84	28322.82
555.00	27976.42
555.17	28292.40
555.33	28591.98
555.50	28648.16
555.67	28329.84
555.83	28336.87
556.00	28545.17
556.16	28348.57
556.33	28135.58
556.50	28547.51
556.66	28648.16
556.83	28166.01
556.99	28835.40
557.16	28538.15
557.32	28496.02
557.49	28819.02
557.65	28489.00
557.82	28989.88
557.98	28421.13
558.15	28690.29
558.32	28882.21
558.48	28664.54
558.65	28510.07
558.81	28854.12
558.98	28730.08
559.14	28882.21
559.31	28772.21
559.47	28950.09
559.64	29142.01
559.80	29174.78
559.97	29123.29
560.13	28821.36
560.30	28865.83
560.46	28870.51
560.63	28943.06
560.79	28975.83
560.96	29343.30
561.12	28638.80
561.29	28947.75
561.45	29230.95
561.61	28952.43
561.78	29097.54
561.94	28947.75
562.11	29200.52
562.27	29113.92
562.44	29130.31
562.60	29165.42
562.77	29097.54
562.93	29092.86
563.10	29270.74
563.26	29287.12
563.42	29558.63
563.59	29163.08
563.75	29481.39
563.92	29343.30
564.08	29223.93
564.24	29181.80
564.41	28968.81
564.57	29329.25
564.74	29097.54
564.90	29560.97
565.07	29315.21
565.23	29387.77
565.39	29457.98
565.56	30015.03
565.72	29310.53
565.88	29366.70
566.05	29380.74
566.21	29212.23
566.38	29291.80
566.54	29268.40
566.70	29532.88
566.87	29874.60
567.03	29638.20
567.19	29579.69
567.36	29572.67
567.52	29455.64
567.68	29963.54
567.85	29301.17
568.01	29291.80
568.17	29317.55
568.34	30059.50
568.50	29802.04
568.66	29575.01
568.83	29418.19
568.99	29759.91
569.15	29626.50
569.32	29687.36
569.48	29270.74
569.64	29675.65
569.81	29769.27
569.97	29619.48
570.13	29729.48
570.30	29645.23
570.46	29668.63
570.62	29418.19
570.78	29715.44
570.95	29427.56
571.11	30078.22
571.27	29710.76
571.43	29439.26
571.60	29771.61
571.76	29724.80
571.92	29649.91
572.09	29874.60
572.25	30075.88
572.41	30160.14
572.57	29869.92
572.74	29523.52
572.90	29600.76
573.06	29642.88
573.22	29909.71
573.38	29729.48
573.55	29972.90
573.71	29942.47
573.87	29841.83
574.03	30029.07
574.20	29977.58
574.36	29809.06
574.52	29589.05
574.68	29759.91
574.84	30092.27
575.01	29902.68
575.17	29855.87
575.33	29893.32
575.49	29883.96
575.65	29731.83
575.82	30251.42
575.98	29876.94
576.14	29830.13
576.30	29769.27
576.46	29542.24
576.62	30026.73
576.79	30338.02
576.95	29558.63
577.11	29935.45
577.27	30501.86
577.43	30075.88
577.59	29841.83
577.75	29942.47
577.92	29771.61
578.08	29900.34
578.24	29895.66
578.40	30075.88
578.56	30340.36
578.72	30000.99
578.88	30338.02
579.04	29996.31
579.21	30005.67
579.37	30272.49
579.53	30558.03
579.69	29975.24
579.85	29802.04
580.01	30499.52
580.17	29881.62
580.33	30010.35
580.49	29883.96
580.65	30403.56
580.82	30209.29
580.98	30228.02
581.14	30239.72
581.30	30115.67
581.46	29930.77
581.62	30071.20
581.78	29764.59
581.94	29858.21
582.10	30141.42
582.26	30106.31
582.42	30361.43
582.58	30085.25
582.74	29811.40
582.90	30230.36
583.06	30260.79
583.22	30162.48
583.38	30096.95
583.54	30256.11
583.70	29888.64
583.86	30134.40
584.02	30015.03
584.18	30433.99
584.34	30370.79
584.50	30405.90
584.66	29890.98
584.82	30139.08
584.98	30125.04
585.14	30639.95
585.30	29975.24
585.46	29666.29
585.62	29680.33
585.78	30103.97
585.94	29846.51
586.10	30721.87
586.26	30162.48
586.42	30375.47
586.58	30352.07
586.74	30270.15
586.90	29797.36
587.06	30228.02
587.22	30483.14
587.38	30174.19
587.54	30057.16
587.70	30216.32
587.86	30342.70
588.02	30349.73
588.18	30501.86
588.34	30464.41
588.49	30237.38
588.65	29575.01
588.81	30225.68
588.97	30387.18
589.13	30604.84
589.29	30438.67
589.45	30471.43
589.61	30464.41
589.77	30787.41
589.93	30642.29
590.08	30712.51
590.24	30890.39
590.40	30541.65
590.56	30494.84
590.72	30698.47
590.88	30162.48
591.04	30405.90
591.20	30831.88
591.35	30450.37
591.51	30927.84
591.67	30522.93
591.83	31000.40
591.99	30312.28
