SpectraSuite Data File
++++++++++++++++++++++++++++++++++++
Date: Fri Oct 18 13:58:34 GMT-05:00 2013
User: bianchi
Dark Spectrum Present: No
Reference Spectrum Present: No
Number of Sampled Component Spectra: 1
Spectrometers: USB2+H05261
Integration Time (usec): 50000 (USB2+H05261)
Spectra Averaged: 1 (USB2+H05261)
Boxcar Smoothing: 0 (USB2+H05261)
Correct for Electrical Dark: No (USB2+H05261)
Strobe/Lamp Enabled: No (USB2+H05261)
Correct for Detector Non-linearity: No (USB2+H05261)
Correct for Stray Light: No (USB2+H05261)
Number of Pixels in Processed Spectrum: 2048
>>>>>Begin Processed Spectral Data<<<<<
365.73	0.00
365.92	0.00
366.12	0.00
366.32	0.00
366.52	0.00
366.72	0.00
366.91	0.00
367.11	0.00
367.31	0.00
367.51	0.00
367.70	0.00
367.90	0.00
368.10	0.00
368.30	0.00
368.49	0.00
368.69	0.00
368.89	0.00
369.09	0.00
369.28	0.00
369.48	0.00
369.68	0.00
369.87	0.00
370.07	0.00
370.27	0.00
370.47	0.00
370.66	180.22
370.86	140.43
371.06	161.50
371.25	191.92
371.45	98.30
371.65	154.48
371.84	180.22
372.04	170.86
372.24	177.88
372.44	173.20
372.63	182.56
372.83	198.95
373.03	212.99
373.22	79.58
373.42	159.16
373.62	196.60
373.81	217.67
374.01	163.84
374.21	229.37
374.40	250.44
374.60	241.08
374.79	156.82
374.99	184.90
375.19	252.78
375.38	266.82
375.58	215.33
375.78	262.14
375.97	224.69
376.17	234.05
376.37	180.22
376.56	255.12
376.76	250.44
376.95	285.55
377.15	257.46
377.35	212.99
377.54	262.14
377.74	278.52
377.93	229.37
378.13	212.99
378.33	259.80
378.52	337.04
378.72	294.91
378.91	362.78
379.11	348.74
379.31	285.55
379.50	341.72
379.70	287.89
379.89	344.06
380.09	259.80
380.28	234.05
380.48	255.12
380.68	257.46
380.87	224.69
381.07	372.15
381.26	360.44
381.46	379.17
381.65	306.61
381.85	339.38
382.04	393.21
382.24	365.12
382.43	248.10
382.63	290.23
382.83	367.46
383.02	339.38
383.22	440.02
383.41	358.10
383.61	325.33
383.80	383.85
384.00	311.29
384.19	454.06
384.39	395.55
384.58	397.89
384.78	416.62
384.97	397.89
385.17	325.33
385.36	423.64
385.56	367.46
385.75	351.08
385.95	344.06
386.14	411.93
386.34	374.49
386.53	456.40
386.72	465.77
386.92	393.21
387.11	402.57
387.31	428.32
387.50	437.68
387.70	383.85
387.89	458.74
388.09	433.00
388.28	428.32
388.48	442.36
388.67	369.80
388.86	379.17
389.06	425.98
389.25	503.22
389.45	519.60
389.64	449.38
389.84	402.57
390.03	496.19
390.22	456.40
390.42	514.92
390.61	482.15
390.81	503.22
391.00	528.96
391.19	613.22
391.39	428.32
391.58	561.73
391.78	479.81
391.97	533.64
392.16	571.09
392.36	512.58
392.55	521.94
392.75	521.94
392.94	528.96
393.13	566.41
393.33	601.52
393.52	514.92
393.71	498.53
393.91	533.64
394.10	582.79
394.29	610.88
394.49	557.05
394.68	636.63
394.88	514.92
395.07	624.92
395.26	596.84
395.46	596.84
395.65	704.50
395.84	599.18
396.04	620.24
396.23	678.76
396.42	606.20
396.62	641.31
396.81	690.46
397.00	653.01
397.19	662.37
397.39	678.76
397.58	746.63
397.77	582.79
397.97	685.78
398.16	667.05
398.35	765.36
398.55	603.86
398.74	706.84
398.93	683.44
399.12	692.80
399.32	779.40
399.51	720.88
399.70	784.08
399.90	741.95
400.09	814.51
400.28	786.42
400.47	779.40
400.67	814.51
400.86	819.19
401.05	734.93
401.24	751.31
401.44	835.57
401.63	772.38
401.82	805.14
402.01	866.00
402.21	786.42
402.40	760.67
402.59	774.72
402.78	870.68
402.97	830.89
403.17	858.98
403.36	863.66
403.55	929.19
403.74	978.34
403.93	866.00
404.13	873.02
404.32	866.00
404.51	786.42
404.70	954.94
404.89	800.46
405.09	1013.45
405.28	954.94
405.47	933.87
405.66	1008.77
405.85	959.62
406.05	983.02
406.24	940.90
406.43	1130.48
406.62	1025.15
406.81	1057.92
407.00	1006.43
407.20	922.17
407.39	1015.79
407.58	983.02
407.77	1053.24
407.96	1142.18
408.15	1074.31
408.34	1097.71
408.54	1123.46
408.73	1060.26
408.92	1069.62
409.11	1116.44
409.30	1116.44
409.49	1174.95
409.68	1071.97
409.87	1132.82
410.07	1128.14
410.26	1196.01
410.45	1146.86
410.64	1181.97
410.83	1188.99
411.02	1181.97
411.21	1174.95
411.40	1207.72
411.59	1345.81
411.78	1284.95
411.98	1261.55
412.17	1275.59
412.36	1261.55
412.55	1259.21
412.74	1287.29
412.93	1434.75
413.12	1329.42
413.31	1460.49
413.50	1270.91
413.69	1366.87
413.88	1486.24
414.07	1451.13
414.26	1437.09
414.45	1467.52
414.64	1558.80
414.83	1462.83
415.02	1479.22
415.22	1483.90
415.41	1530.71
415.60	1558.80
415.79	1523.69
415.98	1619.65
416.17	1593.90
416.36	1682.85
416.55	1607.95
416.74	1638.38
416.93	1579.86
417.12	1680.50
417.31	1703.91
417.50	1797.53
417.69	1701.57
417.88	1643.06
418.07	1706.25
418.26	1748.38
418.45	1734.34
418.64	1874.77
418.83	1729.66
419.02	1727.32
419.21	1753.06
419.39	1797.53
419.58	1839.66
419.77	1774.13
419.96	1788.17
420.15	1893.49
420.34	1916.90
420.53	1783.49
420.72	1975.41
420.91	1902.86
421.10	1930.94
421.29	1863.07
421.48	1909.88
421.67	2031.58
421.86	1902.86
422.05	1996.48
422.24	1923.92
422.43	1966.05
422.61	2036.27
422.80	2104.14
422.99	2097.12
423.18	2036.27
423.37	1991.80
423.56	2069.03
423.75	2010.52
423.94	1975.41
424.13	1909.88
424.32	1893.49
424.50	2160.31
424.69	2090.10
424.88	2033.93
425.07	1867.75
425.26	2057.33
425.45	1944.99
425.64	2062.01
425.83	2047.97
426.01	2033.93
426.20	2031.58
426.39	1984.77
426.58	1973.07
426.77	2045.63
426.96	2113.50
427.15	2153.29
427.33	2277.34
427.52	2169.68
427.71	2193.08
427.90	2108.82
428.09	2047.97
428.28	2267.98
428.46	2296.07
428.65	2272.66
428.84	2291.38
429.03	2260.96
429.22	2125.21
429.40	2298.41
429.59	2256.28
429.78	2059.67
429.97	2129.89
430.16	2282.02
430.34	2352.24
430.53	2328.83
430.72	2277.34
430.91	2368.62
431.10	2380.32
431.28	2260.96
431.47	2347.56
431.66	2422.45
431.85	2314.79
432.03	2382.67
432.22	2457.56
432.41	2424.80
432.60	2504.37
432.79	2537.14
432.97	2438.84
433.16	2448.20
433.35	2469.27
433.54	2546.50
433.72	2532.46
433.91	2511.39
434.10	2459.90
434.28	2525.44
434.47	2548.84
434.66	2670.55
434.85	2656.51
435.03	2495.01
435.22	2593.31
435.41	2693.96
435.59	2532.46
435.78	2628.42
435.97	2583.95
436.16	2654.17
436.34	2686.94
436.53	2733.75
436.72	2708.00
436.90	2715.02
437.09	2661.19
437.28	2670.55
437.46	2637.78
437.65	2710.34
437.84	2733.75
438.02	2757.15
438.21	2766.51
438.40	2862.48
438.58	2977.16
438.77	2925.67
438.96	2885.88
439.14	2881.20
439.33	2864.82
439.52	2988.86
439.70	3066.10
439.89	2920.99
440.08	2949.08
440.26	3115.25
440.45	3119.93
440.63	3049.72
440.82	3073.12
441.01	3059.08
441.19	3176.11
441.38	3178.45
441.57	3246.32
441.75	3124.62
441.94	3262.71
442.12	3246.32
442.31	3290.79
442.50	3267.39
442.68	3222.92
442.87	3424.20
443.05	3386.76
443.24	3506.12
443.43	3382.07
443.61	3510.80
443.80	3389.10
443.98	3225.26
444.17	3269.73
444.35	3368.03
444.54	3447.61
444.73	3492.08
444.91	3513.14
445.10	3400.80
445.28	3421.86
445.47	3358.67
445.65	3368.03
445.84	3393.78
446.02	3463.99
446.21	3405.48
446.39	3426.54
446.58	3499.10
446.77	3492.08
446.95	3445.27
447.14	3433.57
447.32	3442.93
447.51	3433.57
447.69	3475.70
447.88	3492.08
448.06	3634.85
448.25	3428.88
448.43	3669.96
448.62	3538.89
448.80	3550.59
448.99	3602.08
449.17	3721.45
449.36	3574.00
449.54	3609.11
449.73	3889.97
449.91	3674.64
450.10	3761.24
450.28	3747.20
450.46	3693.37
450.65	3740.18
450.83	3693.37
451.02	3859.54
451.20	3796.35
451.39	3784.65
451.57	3705.07
451.76	3688.68
451.94	3714.43
452.13	3735.50
452.31	3801.03
452.49	3854.86
452.68	3922.74
452.86	3840.82
453.05	3904.01
453.23	3948.48
453.42	3967.21
453.60	3791.67
453.78	3873.59
453.97	3824.44
454.15	3920.40
454.34	3843.16
454.52	4025.72
454.70	4028.06
454.89	3953.16
455.07	4067.85
455.26	4117.00
455.44	3992.95
455.62	4065.51
455.81	4086.58
455.99	4121.68
456.17	4166.15
456.36	4262.12
456.54	4135.73
456.73	4058.49
456.91	4329.99
457.09	4262.12
457.28	4404.89
457.46	4238.71
457.64	4266.80
457.83	4353.40
458.01	4297.22
458.19	4390.84
458.38	4285.52
458.56	4463.40
458.74	4327.65
458.93	4402.55
459.11	4430.63
459.29	4346.37
459.48	4503.19
459.66	4617.88
459.84	4505.53
460.03	4571.07
460.21	4393.19
460.39	4718.52
460.57	4510.21
460.76	4568.73
460.94	4732.56
461.12	4746.61
461.31	4643.62
461.49	4608.51
461.67	4655.33
461.85	4650.64
462.04	4610.86
462.22	4791.08
462.40	4695.11
462.59	4678.73
462.77	4699.80
462.95	4760.65
463.13	4774.69
463.32	4795.76
463.50	4978.32
463.68	4950.23
463.86	4840.23
464.05	4873.00
464.23	4774.69
464.41	4908.10
464.59	4833.21
464.78	5055.56
464.96	4940.87
465.14	4765.33
465.32	5036.83
465.50	4889.38
465.69	5034.49
465.87	4936.19
466.05	5018.11
466.23	4795.76
466.41	4887.04
466.60	5076.62
466.78	4985.34
466.96	4992.36
467.14	5224.08
467.32	5221.74
467.51	5142.16
467.69	5069.60
467.87	5177.26
468.05	5235.78
468.23	5144.50
468.41	5184.29
468.60	5184.29
468.78	5104.71
468.96	5174.92
469.14	5247.48
469.32	5411.32
469.50	5273.23
469.69	5282.59
469.87	5359.83
470.05	5390.25
470.23	5242.80
470.41	5430.04
470.59	5497.92
470.77	5317.70
470.95	5533.03
471.14	5425.36
471.32	5446.43
471.50	5516.64
471.68	5575.16
471.86	5481.53
472.04	5603.24
472.22	5748.36
472.40	5713.25
472.58	5799.85
472.77	5741.33
472.95	5802.19
473.13	6076.03
473.31	5849.00
473.49	5753.04
473.67	5841.98
473.85	5827.93
474.03	5919.21
474.21	6139.23
474.39	5921.56
474.57	6125.18
474.75	6071.35
474.93	6127.52
475.12	6284.34
475.30	6188.38
475.48	6321.79
475.66	6291.36
475.84	6108.80
476.02	6244.55
476.20	6342.85
476.38	6352.21
476.56	6518.39
476.74	6483.28
476.92	6424.77
477.10	6604.99
477.28	6455.20
477.46	6518.39
477.64	6689.25
477.82	6707.98
478.00	6862.45
478.18	6984.16
478.36	7056.72
478.54	7108.21
478.72	7049.69
478.90	6930.33
479.08	7204.17
479.26	7096.50
479.44	7255.66
479.62	7459.29
479.80	7452.27
479.98	7435.88
480.16	7468.65
480.34	7496.74
480.52	7749.51
480.70	7702.70
480.88	7499.08
481.06	7777.60
481.24	7705.04
481.41	7772.92
481.59	7730.79
481.77	7700.36
481.95	7988.25
482.13	7936.76
482.31	8079.53
482.49	8145.06
482.67	8264.43
482.85	8421.25
483.03	8603.81
483.21	8592.11
483.39	8557.00
483.57	8531.25
483.74	8720.84
483.92	8840.20
484.10	8568.70
484.28	8870.63
484.46	9053.19
484.64	9090.64
484.82	8964.25
485.00	8971.27
485.18	9348.10
485.35	9476.83
485.53	9341.08
485.71	9455.76
485.89	9446.40
486.07	9504.92
486.25	9593.86
486.43	9315.33
486.61	9745.99
486.78	9879.40
486.96	9799.82
487.14	10113.45
487.32	9984.73
487.50	9783.44
487.68	10239.84
487.85	10424.75
488.03	10239.84
488.21	10829.66
488.39	10328.78
488.57	10490.28
488.75	10558.16
488.92	10721.99
489.10	10927.96
489.28	10857.75
489.46	10946.69
489.64	10937.32
489.81	11211.17
489.99	11147.97
490.17	11281.38
490.35	11269.68
490.53	11641.82
490.70	11641.82
490.88	11604.38
491.06	11829.07
491.24	11454.58
491.41	11681.61
491.59	11983.54
491.77	11698.00
491.95	12081.85
492.13	12091.21
492.30	12355.69
492.48	12163.76
492.66	12208.23
492.84	12231.64
493.01	12549.95
493.19	12631.87
493.37	12358.03
493.54	12683.36
493.72	12795.71
493.90	12744.22
494.08	12858.90
494.25	12994.65
494.43	13088.28
494.61	13226.37
494.79	13390.20
494.96	13465.10
495.14	13509.57
495.32	13619.58
495.49	13181.90
495.67	13626.60
495.85	13647.66
496.02	13853.63
496.20	13713.20
496.38	13748.31
496.55	13947.25
496.73	14139.18
496.91	14038.53
497.09	14295.99
497.26	14237.48
497.44	14164.92
497.62	14487.92
497.79	14391.95
497.97	14525.36
498.14	14560.47
498.32	14960.70
498.50	14995.81
498.67	14801.55
498.85	14972.41
499.03	15009.86
499.20	15014.54
499.38	15204.12
499.56	15154.97
499.73	15028.58
499.91	15442.85
500.08	15470.94
500.26	15068.37
500.44	15272.00
500.61	15695.63
500.79	15412.43
500.97	15449.88
501.14	15800.96
501.32	15941.39
501.49	15817.34
501.67	15749.46
501.84	15878.19
502.02	16046.71
502.20	16044.37
502.37	16107.57
502.55	15992.88
502.72	16088.84
502.90	16313.53
503.07	16123.95
503.25	16208.21
503.43	16374.39
503.60	16608.44
503.78	16355.66
503.95	16732.49
504.13	16489.07
504.30	16669.30
504.48	16655.25
504.65	16566.31
504.83	16657.59
505.01	16919.73
505.18	17160.81
505.36	16989.95
505.53	17118.68
505.71	17011.01
505.88	17039.10
506.06	17128.04
506.23	17139.74
506.41	17532.95
506.58	17364.43
506.76	17291.88
506.93	17415.93
507.11	17436.99
507.28	17523.59
507.46	17551.68
507.63	17802.11
507.81	17774.03
507.98	17830.20
508.16	17584.44
508.33	17717.86
508.50	18087.66
508.68	17834.88
508.85	18022.12
509.03	17886.37
509.20	17940.21
509.38	18188.30
509.55	18038.51
509.73	18185.96
509.90	18429.38
510.08	18405.97
510.25	17933.18
510.42	18420.02
510.60	18593.22
510.77	18382.57
510.95	18794.50
511.12	18518.32
511.30	18431.72
511.47	19012.17
511.64	18633.00
511.82	19061.32
511.99	18974.72
512.17	19033.24
512.34	19009.83
512.51	19094.09
512.69	19185.37
512.86	19047.28
513.04	18934.93
513.21	19246.23
513.38	19421.77
513.56	19477.94
513.73	19288.35
513.90	19414.74
514.08	19611.35
514.25	19545.81
514.43	19707.31
514.60	19618.37
514.77	19894.55
514.95	20023.28
515.12	19751.78
515.29	19807.95
515.47	19618.37
515.64	19807.95
515.81	20105.20
515.99	20285.42
516.16	20140.31
516.33	20285.42
516.51	20166.06
516.68	20140.31
516.85	20596.71
517.03	20341.60
517.20	20355.64
517.37	20348.62
517.54	20540.54
517.72	20037.33
517.89	20531.18
518.06	20624.80
518.24	20435.22
518.41	20688.00
518.58	20456.28
518.75	20379.04
518.93	20711.40
519.10	20746.51
519.27	20816.72
519.45	20884.60
519.62	21394.84
519.79	20875.24
519.96	21055.46
520.14	21139.72
520.31	21228.66
520.48	21245.04
520.65	21270.79
520.83	20961.84
521.00	21671.02
521.17	21050.78
521.34	21123.33
521.52	21289.51
521.69	21516.54
521.86	21640.59
522.03	21462.71
522.20	21699.11
522.38	21933.16
522.55	21895.71
522.72	21671.02
522.89	21928.48
523.07	21685.06
523.24	22108.70
523.41	22181.26
523.58	21879.33
523.75	22078.27
523.92	22019.76
524.10	21823.16
524.27	22387.22
524.44	22228.07
524.61	22256.15
524.78	22424.67
524.96	22405.95
525.13	22265.52
525.30	22492.55
525.47	22345.09
525.64	22438.72
525.81	22579.15
525.98	22583.83
526.16	22780.43
526.33	22771.07
526.50	22661.07
526.67	22340.41
526.84	22824.90
527.01	22600.21
527.18	22757.03
527.36	23166.62
527.53	23077.68
527.70	23178.33
527.87	23456.85
528.04	23068.32
528.21	23143.22
528.38	22963.00
528.55	23222.80
528.72	23421.74
528.89	23180.67
529.07	23180.67
529.24	23094.07
529.41	23501.32
529.58	22974.70
529.75	23740.05
529.92	23494.30
530.09	23545.79
530.26	23447.49
530.43	23604.30
530.60	23309.40
530.77	23456.85
530.94	23770.48
531.11	23215.77
531.28	23545.79
531.46	23997.51
531.63	23597.28
531.80	24098.16
531.97	23765.80
532.14	23948.36
532.31	23810.27
532.48	24315.83
532.65	24034.96
532.82	23824.31
532.99	24098.16
533.16	23836.02
533.33	24041.98
533.50	24411.79
533.67	24058.37
533.84	24250.29
534.01	24058.37
534.18	24524.13
534.35	24524.13
534.52	24142.63
534.69	24465.62
534.86	24386.04
535.03	24360.30
535.20	24346.25
535.37	24659.88
535.54	24535.84
535.71	24400.08
535.88	24657.54
536.05	24849.47
536.22	24767.55
536.38	24865.85
536.55	25076.50
536.72	24540.52
536.89	24711.38
537.06	25013.31
537.23	25191.19
537.40	24671.59
537.57	24982.88
537.74	24783.93
537.91	25570.35
538.08	25366.73
538.25	25036.71
538.42	25345.66
538.59	25078.84
538.75	24919.68
538.92	25137.35
539.09	25256.72
539.26	25064.80
539.43	25207.57
539.60	25418.22
539.77	25495.46
539.94	25759.94
540.11	25287.15
540.28	25649.93
540.44	25500.14
540.61	25621.84
540.78	25340.98
540.95	25371.41
541.12	25401.83
541.29	25982.29
541.46	25687.38
541.62	25605.46
541.79	25640.57
541.96	25656.95
542.13	25743.55
542.30	25832.49
542.47	26022.08
542.63	26167.19
542.80	25614.82
542.97	26256.13
543.14	26335.71
543.31	26075.91
543.48	26052.50
543.64	26511.25
543.81	26349.75
543.98	26384.86
544.15	26483.16
544.32	26572.10
544.48	26492.52
544.65	26525.29
544.82	26377.84
544.99	26576.78
545.16	26174.21
545.32	26387.20
545.49	26672.74
545.66	26927.86
545.83	26529.97
546.00	26909.14
546.16	26923.18
546.33	26817.86
546.50	26277.19
546.67	26918.50
546.83	26616.57
547.00	26923.18
547.17	27033.19
547.34	26485.50
547.50	27360.86
547.67	27131.49
547.84	27168.94
548.00	27260.22
548.17	26621.25
548.34	26581.46
548.51	27323.41
548.67	27143.19
548.84	27056.59
549.01	26967.65
549.18	26993.40
549.34	27239.15
549.51	27358.52
549.68	27300.01
549.84	27122.13
550.01	27037.87
550.18	27307.03
550.34	27283.62
550.51	27662.79
550.68	27564.49
550.84	27494.27
551.01	27676.83
551.18	27307.03
551.34	27016.80
551.51	27445.12
551.68	27480.23
551.84	27442.78
552.01	27489.59
552.18	27583.21
552.34	27440.44
552.51	28137.92
552.68	27374.91
552.84	27702.58
553.01	28034.94
553.18	27573.85
553.34	28130.90
553.51	27576.19
553.67	28025.57
553.84	28205.80
554.01	27892.16
554.17	27845.35
554.34	28212.82
554.51	28034.94
554.67	28158.99
554.84	28081.75
555.00	27955.36
555.17	28016.21
555.33	28013.87
555.50	28102.81
555.67	28121.54
555.83	28048.98
556.00	28137.92
556.16	28362.61
556.33	28105.15
556.50	28313.46
556.66	28357.93
556.83	28100.47
556.99	28278.35
557.16	28451.55
557.32	28474.96
557.49	28367.29
557.65	28240.90
557.82	28128.56
557.98	28245.58
558.15	28381.34
558.32	28521.77
558.48	28451.55
558.65	28854.12
558.81	28730.08
558.98	28496.02
559.14	28566.24
559.31	28694.97
559.47	28535.81
559.64	28594.32
559.80	28924.34
559.97	28425.81
560.13	28570.92
560.30	28725.39
560.46	28662.20
560.63	28425.81
560.79	28479.64
560.96	28844.76
561.12	28648.16
561.29	28521.77
561.45	28531.13
561.61	28734.76
561.78	28451.55
561.94	28910.30
562.11	29090.52
562.27	28671.56
562.44	28666.88
562.60	28755.82
562.77	28627.09
562.93	28388.36
563.10	28903.28
563.26	28753.48
563.42	29415.85
563.59	28694.97
563.75	28727.74
563.92	28676.24
564.08	28645.82
564.24	29083.50
564.41	29085.84
564.57	28999.24
564.74	29165.42
564.90	29399.47
565.07	28912.64
565.23	29343.30
565.39	29280.10
565.56	29322.23
565.72	28896.25
565.88	29156.05
566.05	28781.57
566.21	28992.22
566.38	29125.63
566.54	28758.16
566.70	29355.00
566.87	29373.72
567.03	29364.36
567.19	29399.47
567.36	29200.52
567.52	28945.41
567.68	29343.30
567.85	29179.46
568.01	29027.32
568.17	29041.37
568.34	29029.66
568.50	29462.66
568.66	29263.72
568.83	29427.56
568.99	29439.26
569.15	29153.71
569.32	29362.02
569.48	29240.31
569.64	29373.72
569.81	29223.93
569.97	29364.36
570.13	29816.08
570.30	29338.62
570.46	29390.11
570.62	29614.80
570.78	29319.89
570.95	29156.05
571.11	29427.56
571.27	28893.91
571.43	29577.35
571.60	29418.19
571.76	29156.05
571.92	29565.65
572.09	29296.49
572.25	29743.53
572.41	29340.96
572.57	29596.07
572.74	29486.07
572.90	29518.84
573.06	29340.96
573.22	29418.19
573.38	29795.02
573.55	29481.39
573.71	30038.44
573.87	29383.09
574.03	29713.10
574.20	29757.57
574.36	29376.06
574.52	29495.43
574.68	29369.04
574.84	29404.15
575.01	29743.53
575.17	29727.14
575.33	29462.66
575.49	29551.60
575.65	29851.19
575.82	29649.91
575.98	29528.20
576.14	29692.04
576.30	29530.54
576.46	29476.71
576.62	29308.19
576.79	29703.74
576.95	29495.43
577.11	29551.60
577.27	29905.02
577.43	29586.71
577.59	29565.65
577.75	29495.43
577.92	29277.76
578.08	29481.39
578.24	29357.34
578.40	29294.14
578.56	29586.71
578.72	29663.95
578.88	30113.33
579.04	29813.74
579.21	29532.88
579.37	29727.14
579.53	29685.01
579.69	29149.03
579.85	29605.44
580.01	29846.51
580.17	29472.03
580.33	29937.79
580.49	29518.84
580.65	30110.99
580.82	29820.77
580.98	29673.31
581.14	29862.90
581.30	29759.91
581.46	29486.07
581.62	29617.14
581.78	29563.31
581.94	29724.80
582.10	29254.36
582.26	29780.98
582.42	29954.18
582.58	30129.72
582.74	29776.30
582.90	30160.14
583.06	29914.39
583.22	29457.98
583.38	29556.28
583.54	29387.77
583.70	29575.01
583.86	29638.20
584.02	29544.58
584.18	30335.68
584.34	29776.30
584.50	29783.32
584.66	29771.61
584.82	29670.97
584.98	29993.97
585.14	29783.32
585.30	29694.38
585.46	29813.74
585.62	29273.08
585.78	29626.50
585.94	29256.70
586.10	29865.24
586.26	29839.49
586.42	29977.58
586.58	29905.02
586.74	29865.24
586.90	29607.78
587.06	29689.70
587.22	29935.45
587.38	29357.34
587.54	30281.85
587.70	29977.58
587.86	30047.80
588.02	30026.73
588.18	30015.03
588.34	29706.08
588.49	29890.98
588.65	30199.93
588.81	29895.66
588.97	30125.04
589.13	30520.59
589.29	29708.42
589.45	30003.33
589.61	29916.73
589.77	29954.18
589.93	30455.05
590.08	30218.66
590.24	30293.55
590.40	30218.66
590.56	30492.50
590.72	30251.42
590.88	29710.76
591.04	30171.85
591.20	30375.47
591.35	30377.81
591.51	30953.58
591.67	30258.45
591.83	30511.22
591.99	30003.33
