SpectraSuite Data File
++++++++++++++++++++++++++++++++++++
Date: Fri Oct 18 13:58:01 GMT-05:00 2013
User: bianchi
Dark Spectrum Present: No
Reference Spectrum Present: No
Number of Sampled Component Spectra: 1
Spectrometers: USB2+H05261
Integration Time (usec): 50000 (USB2+H05261)
Spectra Averaged: 1 (USB2+H05261)
Boxcar Smoothing: 0 (USB2+H05261)
Correct for Electrical Dark: No (USB2+H05261)
Strobe/Lamp Enabled: No (USB2+H05261)
Correct for Detector Non-linearity: No (USB2+H05261)
Correct for Stray Light: No (USB2+H05261)
Number of Pixels in Processed Spectrum: 2048
>>>>>Begin Processed Spectral Data<<<<<
365.73	0.00
365.92	0.00
366.12	0.00
366.32	0.00
366.52	0.00
366.72	0.00
366.91	0.00
367.11	0.00
367.31	0.00
367.51	0.00
367.70	0.00
367.90	0.00
368.10	0.00
368.30	0.00
368.49	0.00
368.69	0.00
368.89	0.00
369.09	0.00
369.28	0.00
369.48	0.00
369.68	0.00
369.87	0.00
370.07	0.00
370.27	0.00
370.47	0.00
370.66	79.58
370.86	91.28
371.06	138.09
371.25	67.88
371.45	128.73
371.65	194.26
371.84	81.92
372.04	201.29
372.24	184.90
372.44	173.20
372.63	212.99
372.83	322.99
373.03	163.84
373.22	212.99
373.42	259.80
373.62	175.54
373.81	241.08
374.01	269.16
374.21	212.99
374.40	248.10
374.60	311.29
374.79	269.16
374.99	182.56
375.19	313.63
375.38	306.61
375.58	205.97
375.78	334.70
375.97	215.33
376.17	297.25
376.37	334.70
376.56	297.25
376.76	269.16
376.95	245.76
377.15	325.33
377.35	220.01
377.54	201.29
377.74	278.52
377.93	208.31
378.13	175.54
378.33	299.59
378.52	238.73
378.72	330.02
378.91	294.91
379.11	299.59
379.31	243.42
379.50	346.40
379.70	320.65
379.89	308.95
380.09	276.18
380.28	290.23
380.48	362.78
380.68	379.17
380.87	308.95
381.07	330.02
381.26	339.38
381.46	358.10
381.65	290.23
381.85	320.65
382.04	383.85
382.24	386.19
382.43	418.96
382.63	379.17
382.83	320.65
383.02	425.98
383.22	292.57
383.41	330.02
383.61	381.51
383.80	339.38
384.00	437.68
384.19	397.89
384.39	374.49
384.58	332.36
384.78	400.23
384.97	341.72
385.17	355.76
385.36	397.89
385.56	409.59
385.75	304.27
385.95	395.55
386.14	404.91
386.34	409.59
386.53	454.06
386.72	355.76
386.92	472.79
387.11	367.46
387.31	348.74
387.50	472.79
387.70	365.12
387.89	390.87
388.09	411.93
388.28	425.98
388.48	430.66
388.67	400.23
388.86	447.04
389.06	435.34
389.25	550.03
389.45	477.47
389.64	447.04
389.84	486.83
390.03	526.62
390.22	496.19
390.42	447.04
390.61	449.38
390.81	493.85
391.00	512.58
391.19	526.62
391.39	505.56
391.58	491.51
391.78	498.53
391.97	601.52
392.16	552.37
392.36	545.34
392.55	498.53
392.75	440.02
392.94	503.22
393.13	538.32
393.33	489.17
393.52	575.77
393.71	533.64
393.91	535.98
394.10	643.65
394.29	550.03
394.49	531.30
394.68	578.11
394.88	550.03
395.07	470.45
395.26	533.64
395.46	655.35
395.65	608.54
395.84	631.94
396.04	657.69
396.23	610.88
396.42	568.75
396.62	688.12
396.81	636.63
397.00	564.07
397.19	681.10
397.39	685.78
397.58	557.05
397.77	617.90
397.97	711.52
398.16	730.25
398.35	739.61
398.55	718.54
398.74	645.99
398.93	767.70
399.12	716.20
399.32	706.84
399.51	737.27
399.70	819.19
399.90	760.67
400.09	732.59
400.28	748.97
400.47	732.59
400.67	805.14
400.86	730.25
401.05	800.46
401.24	746.63
401.44	734.93
401.63	704.50
401.82	854.30
402.01	861.32
402.21	826.21
402.40	819.19
402.59	800.46
402.78	805.14
402.97	866.00
403.17	770.04
403.36	826.21
403.55	931.53
403.74	809.83
403.93	870.68
404.13	835.57
404.32	880.04
404.51	950.26
404.70	936.21
404.89	908.13
405.09	959.62
405.28	954.94
405.47	861.32
405.66	968.98
405.85	896.43
406.05	896.43
406.24	966.64
406.43	1011.11
406.62	992.39
406.81	1039.20
407.00	1064.94
407.20	997.07
407.39	1008.77
407.58	943.24
407.77	1057.92
407.96	1128.14
408.15	1034.52
408.34	1083.67
408.54	1081.33
408.73	1167.93
408.92	1064.94
409.11	1109.41
409.30	1128.14
409.49	1074.31
409.68	1174.95
409.87	1039.20
410.07	1118.78
410.26	1144.52
410.45	1177.29
410.64	1156.22
410.83	1179.63
411.02	1191.33
411.21	1270.91
411.40	1254.53
411.59	1207.72
411.78	1287.29
411.98	1268.57
412.17	1238.14
412.36	1282.61
412.55	1284.95
412.74	1467.52
412.93	1406.66
413.12	1451.13
413.31	1369.21
413.50	1380.92
413.69	1397.30
413.88	1406.66
414.07	1425.39
414.26	1444.11
414.45	1490.92
414.64	1366.87
414.83	1462.83
415.02	1502.62
415.22	1542.41
415.41	1544.75
415.60	1589.22
415.79	1558.80
415.98	1631.35
416.17	1554.12
416.36	1561.14
416.55	1617.31
416.74	1699.23
416.93	1603.27
417.12	1710.93
417.31	1708.59
417.50	1699.23
417.69	1760.08
417.88	1746.04
418.07	1650.08
418.26	1710.93
418.45	1781.15
418.64	1856.04
418.83	1844.34
419.02	1783.49
419.21	1809.23
419.39	1853.70
419.58	1830.30
419.77	1867.75
419.96	1825.62
420.15	1830.30
420.34	1884.13
420.53	1813.92
420.72	1785.83
420.91	1966.05
421.10	1959.03
421.29	1966.05
421.48	1774.13
421.67	1928.60
421.86	1959.03
422.05	1905.20
422.24	1970.73
422.43	1961.37
422.61	2083.08
422.80	2038.61
422.99	1989.46
423.18	2050.31
423.37	2012.86
423.56	2040.95
423.75	2038.61
423.94	1909.88
424.13	1952.01
424.32	1893.49
424.50	2017.54
424.69	2024.56
424.88	2167.34
425.07	1968.39
425.26	1944.99
425.45	1933.28
425.64	1980.09
425.83	1947.33
426.01	2069.03
426.20	1947.33
426.39	2022.22
426.58	2052.65
426.77	2076.06
426.96	2076.06
427.15	2080.74
427.33	2045.63
427.52	2054.99
427.71	2181.38
427.90	2221.17
428.09	2104.14
428.28	2174.36
428.46	2289.04
428.65	2214.15
428.84	2186.06
429.03	2305.43
429.22	2122.87
429.40	2289.04
429.59	2204.78
429.78	2181.38
429.97	2169.68
430.16	2289.04
430.34	2342.88
430.53	2335.85
430.72	2303.09
430.91	2338.20
431.10	2270.32
431.28	2385.01
431.47	2326.49
431.66	2478.63
431.85	2387.35
432.03	2483.31
432.22	2473.95
432.41	2506.71
432.60	2452.88
432.79	2495.01
432.97	2455.22
433.16	2509.05
433.35	2452.88
433.54	2502.03
433.72	2513.74
433.91	2436.50
434.10	2590.97
434.28	2523.10
434.47	2567.57
434.66	2588.63
434.85	2576.93
435.03	2469.27
435.22	2698.64
435.41	2745.45
435.59	2614.38
435.78	2733.75
435.97	2558.21
436.16	2698.64
436.34	2715.02
436.53	2700.98
436.72	2902.26
436.90	2705.66
437.09	2771.19
437.28	2743.11
437.46	2649.49
437.65	2785.24
437.84	2818.00
438.02	2874.18
438.21	2930.35
438.40	2693.96
438.58	2846.09
438.77	2928.01
438.96	2871.84
439.14	2726.72
439.33	3077.80
439.52	2822.69
439.70	2942.05
439.89	2967.80
440.08	2991.20
440.26	3021.63
440.45	3000.57
440.63	3091.85
440.82	3038.02
441.01	3204.19
441.19	3103.55
441.38	3262.71
441.57	3150.36
441.75	3176.11
441.94	3253.34
442.12	3145.68
442.31	3293.13
442.50	3288.45
442.68	3276.75
442.87	3295.47
443.05	3353.99
443.24	3503.78
443.43	3339.94
443.61	3461.65
443.80	3508.46
443.98	3281.43
444.17	3353.99
444.35	3473.36
444.54	3492.08
444.73	3574.00
444.91	3433.57
445.10	3559.95
445.28	3456.97
445.47	3454.63
445.65	3414.84
445.84	3592.72
446.02	3520.17
446.21	3466.33
446.39	3463.99
446.58	3576.34
446.77	3344.63
446.95	3583.36
447.14	3634.85
447.32	3529.53
447.51	3536.55
447.69	3658.26
447.88	3609.11
448.06	3555.27
448.25	3398.46
448.43	3557.61
448.62	3574.00
448.80	3428.88
448.99	3555.27
449.17	3496.76
449.36	3583.36
449.54	3578.68
449.73	3478.04
449.91	3691.02
450.10	3688.68
450.28	3681.66
450.46	3634.85
450.65	3737.84
450.83	3838.48
451.02	3749.54
451.20	3719.11
451.39	3857.20
451.57	3737.84
451.76	3758.90
451.94	3742.52
452.13	3878.27
452.31	3833.80
452.49	3693.37
452.68	3871.25
452.86	4002.32
453.05	3941.46
453.23	3880.61
453.42	3918.06
453.60	3922.74
453.78	4074.87
453.97	3969.55
454.15	3927.42
454.34	3815.07
454.52	3983.59
454.70	4044.45
454.89	4060.83
455.07	3885.29
455.26	4011.68
455.44	4297.22
455.62	4086.58
455.81	4065.51
455.99	4133.39
456.17	4149.77
456.36	4154.45
456.54	4212.96
456.73	4297.22
456.91	4372.12
457.09	4425.95
457.28	4365.10
457.46	4285.52
457.64	4458.72
457.83	4442.34
458.01	4355.74
458.19	4535.96
458.38	4292.54
458.56	4500.85
458.74	4447.02
458.93	4496.17
459.11	4430.63
459.29	4458.72
459.48	4557.02
459.66	4564.04
459.84	4610.86
460.03	4463.40
460.21	4559.36
460.39	4470.42
460.57	4545.32
460.76	4585.11
460.94	4589.79
461.12	4463.40
461.31	4767.67
461.49	4702.14
461.67	4557.02
461.85	4734.90
462.04	4671.71
462.22	4959.60
462.40	4755.97
462.59	4753.63
462.77	4685.75
462.95	4865.97
463.13	4753.63
463.32	4751.29
463.50	4718.52
463.68	4835.55
463.86	4997.04
464.05	4870.65
464.23	4856.61
464.41	5032.15
464.59	4905.76
464.78	5046.20
464.96	4833.21
465.14	4959.60
465.32	5039.17
465.50	5025.13
465.69	5109.39
465.87	4973.64
466.05	4896.40
466.23	5116.41
466.41	5104.71
466.60	4894.06
466.78	5060.24
466.96	4973.64
467.14	4954.91
467.32	5118.75
467.51	5270.89
467.69	4873.00
467.87	5107.05
468.05	5170.24
468.23	5221.74
468.41	5085.98
468.60	5156.20
468.78	5324.72
468.96	5245.14
469.14	5373.87
469.32	5310.68
469.50	5219.39
469.69	5467.49
469.87	5439.40
470.05	5469.83
470.23	5331.74
470.41	5507.28
470.59	5551.75
470.77	5481.53
470.95	5563.45
471.14	5621.97
471.32	5472.17
471.50	5593.88
471.68	5593.88
471.86	5724.95
472.04	5582.18
472.22	5694.52
472.40	5654.73
472.58	5844.32
472.77	5874.74
472.95	5841.98
473.13	6031.56
473.31	5851.34
473.49	5799.85
473.67	5827.93
473.85	6001.13
474.03	6113.48
474.21	6040.92
474.39	6047.94
474.57	5849.00
474.75	6078.37
474.93	6260.93
475.12	6225.82
475.30	6363.92
475.48	6143.91
475.66	6164.97
475.84	6333.49
476.02	6284.34
476.20	6438.81
476.38	6471.58
476.56	6595.63
476.74	6661.16
476.92	6600.31
477.10	6647.12
477.28	6654.14
477.46	6825.00
477.64	6644.78
477.82	6839.05
478.00	7021.61
478.18	7026.29
478.36	7101.19
478.54	7035.65
478.72	7232.26
478.90	7094.16
479.08	7129.27
479.26	7365.67
479.44	7382.05
479.62	7398.43
479.80	7393.75
479.98	7445.24
480.16	7578.65
480.34	7433.54
480.52	7847.82
480.70	7686.32
480.88	7520.14
481.06	7873.56
481.24	7719.09
481.41	7705.04
481.59	7871.22
481.77	8065.49
481.95	8105.28
482.13	7922.71
482.31	8194.22
482.49	8301.88
482.67	8205.92
482.85	8360.39
483.03	8512.53
483.21	8493.80
483.39	8674.03
483.57	8676.37
483.74	8793.39
483.92	8849.57
484.10	8610.83
484.28	9034.47
484.46	9242.78
484.64	9252.14
484.82	9114.05
485.00	9170.22
485.18	9266.18
485.35	9523.64
485.53	9446.40
485.71	9462.79
485.89	9717.90
486.07	9523.64
486.25	9533.00
486.43	9762.37
486.61	9788.12
486.78	9919.19
486.96	9884.08
487.14	9980.04
487.32	10092.39
487.50	10167.29
487.68	10279.63
487.85	10340.49
488.03	10600.29
488.21	10553.48
488.39	10511.35
488.57	10637.73
488.75	10853.06
488.92	10810.93
489.10	11112.86
489.28	11206.48
489.46	11183.08
489.64	11133.93
489.81	11234.57
489.99	11391.39
490.17	11480.33
490.35	11527.14
490.53	11590.33
490.70	11845.45
490.88	11772.89
491.06	11882.90
491.24	11871.20
491.41	11857.15
491.59	11957.80
491.77	12241.00
491.95	12233.98
492.13	12540.59
492.30	12353.35
492.48	12102.91
492.66	12292.49
492.84	12259.73
493.01	12603.78
493.19	12645.91
493.37	12519.53
493.54	12613.15
493.72	12837.84
493.90	12821.45
494.08	13029.76
494.25	13095.30
494.43	13441.70
494.61	13348.08
494.79	13312.97
494.96	13408.93
495.14	13628.94
495.32	13687.45
495.49	13682.77
495.67	13626.60
495.85	13816.18
496.02	13799.80
496.20	13933.21
496.38	13954.27
496.55	13823.20
496.73	14176.62
496.91	14490.26
497.09	14312.38
497.26	14478.55
497.44	14389.61
497.62	14417.70
497.79	14796.87
497.97	14331.10
498.14	14820.27
498.32	14986.45
498.50	15028.58
498.67	15239.23
498.85	14939.64
499.03	14906.87
499.20	15049.64
499.38	15227.53
499.56	15353.91
499.73	15506.05
499.91	15342.21
500.08	15576.27
500.26	15442.85
500.44	15370.30
500.61	15400.72
500.79	15433.49
500.97	15906.28
501.14	15997.56
501.32	15922.66
501.49	16023.31
501.67	15995.22
501.84	15999.90
502.02	16065.44
502.20	16154.38
502.37	16271.40
502.55	16350.98
502.72	16425.88
502.90	16341.62
503.07	16161.40
503.25	16367.37
503.43	16489.07
503.60	16327.58
503.78	16727.81
503.95	16657.59
504.13	16465.67
504.30	17006.33
504.48	17050.80
504.65	16582.70
504.83	16872.92
505.01	17254.43
505.18	17109.32
505.36	17706.15
505.53	17071.87
505.71	17172.51
505.88	17165.49
506.06	17135.06
506.23	17291.88
506.41	17348.05
506.58	17626.57
506.76	17523.59
506.93	17329.33
507.11	17319.96
507.28	17783.39
507.46	17671.04
507.63	17799.77
507.81	18136.81
507.98	17961.27
508.16	17657.00
508.33	17722.54
508.50	17851.27
508.68	17998.72
508.85	18361.50
509.03	18408.31
509.20	18054.89
509.38	18370.86
509.55	18473.85
509.73	18331.08
509.90	18274.90
510.08	18548.75
510.25	18523.00
510.42	18665.77
510.60	18841.31
510.77	18981.74
510.95	18958.34
511.12	18815.57
511.30	18988.77
511.47	19068.34
511.64	19080.05
511.82	19316.44
511.99	19101.11
512.17	19321.12
512.34	19051.96
512.51	19520.07
512.69	19150.26
512.86	19424.11
513.04	19510.71
513.21	19524.75
513.38	19777.53
513.56	19559.86
513.73	19360.91
513.90	19784.55
514.08	19655.82
514.25	19782.21
514.43	19915.62
514.60	19999.88
514.77	20023.28
514.95	20032.65
515.12	19875.83
515.29	19814.98
515.47	19814.98
515.64	20107.54
515.81	20308.83
515.99	20226.91
516.16	20486.71
516.33	20505.43
516.51	20491.39
516.68	20311.17
516.85	20627.14
517.03	20547.56
517.20	20765.23
517.37	20741.83
517.54	20786.30
517.72	20608.42
517.89	20566.29
518.06	20868.22
518.24	20620.12
518.41	20908.01
518.58	21060.14
518.75	20947.79
518.93	21118.65
519.10	20959.50
519.27	21050.78
519.45	21146.74
519.62	21317.60
519.79	21326.96
519.96	21013.33
520.14	21467.39
520.31	21486.12
520.48	21453.35
520.65	21448.67
520.83	21284.83
521.00	21329.30
521.17	21481.44
521.34	21731.87
521.52	21790.39
521.69	21626.55
521.86	22174.24
522.03	22061.89
522.20	21867.63
522.38	21874.65
522.55	21738.90
522.72	21886.35
522.89	22160.19
523.07	22525.32
523.24	22139.13
523.41	22134.45
523.58	21986.99
523.75	22181.26
523.92	22129.77
524.10	22178.92
524.27	22125.08
524.44	22307.65
524.61	22448.08
524.78	22642.34
524.96	22480.85
525.13	22576.81
525.30	22710.22
525.47	22752.35
525.64	22602.55
525.81	22768.73
525.98	22913.84
526.16	22787.46
526.33	22869.37
526.50	23140.88
526.67	23051.94
526.84	22686.81
527.01	22810.86
527.18	23030.87
527.36	23133.86
527.53	23281.31
527.70	23721.33
527.87	23381.95
528.04	23391.31
528.21	23278.97
528.38	23480.25
528.55	23173.64
528.72	23171.30
528.89	23763.46
529.07	23545.79
529.24	23531.75
529.41	23550.47
529.58	23681.54
529.75	23571.54
529.92	23854.74
530.09	23744.73
530.26	23454.51
530.43	23777.50
530.60	23845.38
530.77	23974.11
530.94	23941.34
531.11	23967.09
531.28	23992.83
531.46	24226.89
531.63	23871.12
531.80	23899.21
531.97	24460.94
532.14	24269.01
532.31	24240.93
532.48	24198.80
532.65	24498.39
532.82	24203.48
532.99	24170.71
533.16	24327.53
533.33	24702.01
533.50	24933.73
533.67	24610.73
533.84	24835.42
534.01	24372.00
534.18	24341.57
534.35	24634.14
534.52	24629.46
534.69	25015.65
534.86	25036.71
535.03	24496.05
535.20	24790.95
535.37	25216.93
535.54	25184.16
535.71	24599.03
535.88	25167.78
536.05	24694.99
536.22	25095.22
536.38	25074.16
536.55	25465.03
536.72	25289.49
536.89	24957.13
537.06	24968.84
537.23	25081.18
537.40	24996.92
537.57	25266.08
537.74	25326.94
537.91	25745.89
538.08	25682.70
538.25	25146.72
538.42	25799.73
538.59	25696.74
538.75	25170.12
538.92	25436.94
539.09	25724.83
539.26	25790.36
539.43	25752.91
539.60	25439.28
539.77	25696.74
539.94	26073.57
540.11	25692.06
540.28	25701.42
540.44	25851.22
540.61	25486.09
540.78	25689.72
540.95	25921.43
541.12	25916.75
541.29	26012.71
541.46	26010.37
541.62	25865.26
541.79	26066.55
541.96	25919.09
542.13	26029.10
542.30	26064.21
542.47	26061.87
542.63	26305.28
542.80	26497.20
542.97	26602.53
543.14	26551.04
543.31	26235.06
543.48	26522.95
543.64	26778.07
543.81	26806.16
543.98	26836.58
544.15	26803.82
544.32	26806.16
544.48	26796.79
544.65	26881.05
544.82	26899.78
544.99	26551.04
545.16	26717.22
545.32	27065.96
545.49	27021.48
545.66	26897.44
545.83	27068.30
546.00	27356.18
546.16	26705.51
546.33	27112.77
546.50	26689.13
546.67	27016.80
546.83	26682.11
547.00	27002.76
547.17	26857.65
547.34	27023.83
547.50	27058.93
547.67	27054.25
547.84	27218.09
548.00	27185.32
548.17	27367.88
548.34	27222.77
548.51	27538.74
548.67	27646.41
548.84	27470.87
549.01	27234.47
549.18	27402.99
549.34	27501.29
549.51	27690.88
549.68	27482.57
549.84	27222.77
550.01	27398.31
550.18	27393.63
550.34	27828.97
550.51	28079.41
550.68	27814.93
550.84	27594.92
551.01	27845.35
551.18	27353.84
551.34	27800.88
551.51	27707.26
551.68	28250.27
551.84	28034.94
552.01	27971.74
552.18	27857.06
552.34	27946.00
552.51	27838.33
552.68	27718.96
552.84	28215.16
553.01	28095.79
553.18	28187.07
553.34	28514.75
553.51	28381.34
553.67	28194.09
553.84	28615.39
554.01	28496.02
554.17	27962.38
554.34	28409.42
554.51	28013.87
554.67	28254.95
554.84	28355.59
555.00	28294.74
555.17	28456.23
555.33	28687.95
555.50	28379.00
555.67	28311.12
555.83	28084.09
556.00	28587.30
556.16	28650.50
556.33	28489.00
556.50	28573.26
556.66	28453.89
556.83	28364.95
556.99	28701.99
557.16	28748.80
557.32	28765.18
557.49	28826.04
557.65	28329.84
557.82	28685.61
557.98	28074.73
558.15	28833.06
558.32	28797.95
558.48	28683.27
558.65	28751.14
558.81	28823.70
558.98	28601.35
559.14	28905.62
559.31	29071.79
559.47	28975.83
559.64	29027.32
559.80	29024.98
559.97	29322.23
560.13	29097.54
560.30	28982.85
560.46	28982.85
560.63	28910.30
560.79	28905.62
560.96	29186.48
561.12	28905.62
561.29	28842.42
561.45	29104.56
561.61	28835.40
561.78	29167.76
561.94	28898.59
562.11	29546.92
562.27	29319.89
562.44	28847.10
562.60	29167.76
562.77	29212.23
562.93	28987.53
563.10	29851.19
563.26	29078.82
563.42	29469.69
563.59	29771.61
563.75	29397.13
563.92	29303.51
564.08	29151.37
564.24	29191.16
564.41	29064.77
564.57	29310.53
564.74	29235.63
564.90	29626.50
565.07	29682.67
565.23	29647.57
565.39	29282.44
565.56	29633.52
565.72	29427.56
565.88	29518.84
566.05	29095.20
566.21	29179.46
566.38	29069.45
566.54	29322.23
566.70	29401.81
566.87	29303.51
567.03	29324.57
567.19	29504.79
567.36	29610.12
567.52	29551.60
567.68	29853.53
567.85	29315.21
568.01	29986.94
568.17	29713.10
568.34	29465.00
568.50	29563.31
568.66	29509.47
568.83	29890.98
568.99	29544.58
569.15	29935.45
569.32	29818.42
569.48	29017.96
569.64	29497.77
569.81	29677.99
569.97	29577.35
570.13	29921.41
570.30	29343.30
570.46	29397.13
570.62	29457.98
570.78	29556.28
570.95	29647.57
571.11	29741.19
571.27	29610.12
571.43	29446.28
571.60	29532.88
571.76	29694.38
571.92	30003.33
572.09	29600.76
572.25	29874.60
572.41	29783.32
572.57	30139.08
572.74	29998.65
572.90	29701.40
573.06	29472.03
573.22	29586.71
573.38	29860.55
573.55	29621.82
573.71	30106.31
573.87	30043.12
574.03	29895.66
574.20	29841.83
574.36	29467.34
574.52	29970.56
574.68	30082.91
574.84	29694.38
575.01	29844.17
575.17	29912.05
575.33	29811.40
575.49	30015.03
575.65	30113.33
575.82	30089.93
575.98	30148.44
576.14	30005.67
576.30	29811.40
576.46	29937.79
576.62	29888.64
576.79	29720.12
576.95	30134.40
577.11	29989.28
577.27	30263.13
577.43	30281.85
577.59	29919.07
577.75	30340.36
577.92	29837.15
578.08	29755.23
578.24	29717.78
578.40	30057.16
578.56	30181.21
578.72	30295.89
578.88	30394.20
579.04	30164.82
579.21	30232.70
579.37	30010.35
579.53	30106.31
579.69	29764.59
579.85	29940.13
580.01	29970.56
580.17	29654.59
580.33	29773.95
580.49	29935.45
580.65	29986.94
580.82	30352.07
580.98	30338.02
581.14	30108.65
581.30	30148.44
581.46	29858.21
581.62	30115.67
581.78	29713.10
581.94	30075.88
582.10	29909.71
582.26	29834.81
582.42	30307.60
582.58	30101.63
582.74	29970.56
582.90	30235.04
583.06	30515.90
583.22	30452.71
583.38	29965.88
583.54	30164.82
583.70	30127.38
583.86	30342.70
584.02	30008.01
584.18	30052.48
584.34	30328.66
584.50	30256.11
584.66	29848.85
584.82	30101.63
584.98	30543.99
585.14	29738.85
585.30	29975.24
585.46	29825.45
585.62	29797.36
585.78	30213.98
585.94	29830.13
586.10	30288.87
586.26	30328.66
586.42	30518.25
586.58	30548.67
586.74	30347.39
586.90	29717.78
587.06	30103.97
587.22	30352.07
587.38	30080.56
587.54	30242.06
587.70	30349.73
587.86	30251.42
588.02	30433.99
588.18	30368.45
588.34	30658.68
588.49	30455.05
588.65	30230.36
588.81	29951.84
588.97	30431.65
589.13	30368.45
589.29	30469.09
589.45	30562.72
589.61	30319.30
589.77	30522.93
589.93	30707.83
590.08	30623.57
590.24	30560.37
590.40	31061.25
590.56	30536.97
590.72	30520.59
590.88	30384.83
591.04	30384.83
591.20	30635.27
591.35	30883.37
591.51	30728.89
591.67	30920.82
591.83	30712.51
591.99	31012.10
