SpectraSuite Data File
++++++++++++++++++++++++++++++++++++
Date: Fri Oct 18 13:57:56 GMT-05:00 2013
User: bianchi
Dark Spectrum Present: No
Reference Spectrum Present: No
Number of Sampled Component Spectra: 1
Spectrometers: USB2+H05261
Integration Time (usec): 50000 (USB2+H05261)
Spectra Averaged: 1 (USB2+H05261)
Boxcar Smoothing: 0 (USB2+H05261)
Correct for Electrical Dark: No (USB2+H05261)
Strobe/Lamp Enabled: No (USB2+H05261)
Correct for Detector Non-linearity: No (USB2+H05261)
Correct for Stray Light: No (USB2+H05261)
Number of Pixels in Processed Spectrum: 2048
>>>>>Begin Processed Spectral Data<<<<<
365.73	0.00
365.92	0.00
366.12	0.00
366.32	0.00
366.52	0.00
366.72	0.00
366.91	0.00
367.11	0.00
367.31	0.00
367.51	0.00
367.70	0.00
367.90	0.00
368.10	0.00
368.30	0.00
368.49	0.00
368.69	0.00
368.89	0.00
369.09	0.00
369.28	0.00
369.48	0.00
369.68	0.00
369.87	0.00
370.07	0.00
370.27	0.00
370.47	0.00
370.66	149.79
370.86	39.79
371.06	128.73
371.25	86.60
371.45	126.39
371.65	117.03
371.84	140.43
372.04	191.92
372.24	220.01
372.44	224.69
372.63	161.50
372.83	245.76
373.03	110.01
373.22	229.37
373.42	234.05
373.62	212.99
373.81	280.86
374.01	205.97
374.21	308.95
374.40	184.90
374.60	222.35
374.79	285.55
374.99	294.91
375.19	212.99
375.38	294.91
375.58	177.88
375.78	248.10
375.97	353.42
376.17	283.20
376.37	241.08
376.56	278.52
376.76	252.78
376.95	327.68
377.15	257.46
377.35	287.89
377.54	306.61
377.74	292.57
377.93	297.25
378.13	365.12
378.33	234.05
378.52	315.97
378.72	290.23
378.91	262.14
379.11	311.29
379.31	276.18
379.50	278.52
379.70	337.04
379.89	372.15
380.09	257.46
380.28	262.14
380.48	292.57
380.68	271.50
380.87	346.40
381.07	304.27
381.26	327.68
381.46	358.10
381.65	332.36
381.85	334.70
382.04	311.29
382.24	367.46
382.43	299.59
382.63	353.42
382.83	360.44
383.02	374.49
383.22	416.62
383.41	421.30
383.61	334.70
383.80	348.74
384.00	421.30
384.19	346.40
384.39	346.40
384.58	475.13
384.78	379.17
384.97	407.25
385.17	428.32
385.36	360.44
385.56	468.11
385.75	411.93
385.95	416.62
386.14	456.40
386.34	456.40
386.53	404.91
386.72	470.45
386.92	498.53
387.11	397.89
387.31	444.70
387.50	442.36
387.70	505.56
387.89	498.53
388.09	428.32
388.28	458.74
388.48	435.34
388.67	465.77
388.86	482.15
389.06	489.17
389.25	468.11
389.45	442.36
389.64	489.17
389.84	489.17
390.03	533.64
390.22	510.24
390.42	449.38
390.61	454.06
390.81	503.22
391.00	540.66
391.19	428.32
391.39	550.03
391.58	472.79
391.78	552.37
391.97	580.45
392.16	482.15
392.36	580.45
392.55	589.82
392.75	608.54
392.94	550.03
393.13	559.39
393.33	582.79
393.52	638.97
393.71	601.52
393.91	662.37
394.10	725.57
394.29	664.71
394.49	620.24
394.68	617.90
394.88	557.05
395.07	636.63
395.26	608.54
395.46	545.34
395.65	622.58
395.84	716.20
396.04	706.84
396.23	664.71
396.42	674.07
396.62	678.76
396.81	636.63
397.00	709.18
397.19	807.48
397.39	697.48
397.58	706.84
397.77	641.31
397.97	746.63
398.16	760.67
398.35	744.29
398.55	770.04
398.74	746.63
398.93	816.85
399.12	770.04
399.32	636.63
399.51	676.41
399.70	812.17
399.90	763.01
400.09	774.72
400.28	837.91
400.47	819.19
400.67	861.32
400.86	844.93
401.05	814.51
401.24	828.55
401.44	809.83
401.63	851.96
401.82	823.87
402.01	823.87
402.21	788.76
402.40	788.76
402.59	863.66
402.78	901.11
402.97	847.27
403.17	861.32
403.36	868.34
403.55	952.60
403.74	861.32
403.93	938.55
404.13	873.02
404.32	992.39
404.51	994.73
404.70	894.08
404.89	983.02
405.09	1013.45
405.28	978.34
405.47	980.68
405.66	1039.20
405.85	959.62
406.05	985.37
406.24	1025.15
406.43	1018.13
406.62	987.71
406.81	1083.67
407.00	1116.44
407.20	1006.43
407.39	1046.22
407.58	1027.50
407.77	1029.84
407.96	1224.10
408.15	1198.35
408.34	1144.52
408.54	1128.14
408.73	1132.82
408.92	1167.93
409.11	1186.65
409.30	1153.88
409.49	1167.93
409.68	1181.97
409.87	1170.27
410.07	1256.87
410.26	1198.35
410.45	1095.37
410.64	1245.16
410.83	1296.66
411.02	1198.35
411.21	1107.07
411.40	1327.08
411.59	1320.06
411.78	1299.00
411.98	1231.12
412.17	1231.12
412.36	1266.23
412.55	1306.02
412.74	1451.13
412.93	1322.40
413.12	1282.61
413.31	1432.41
413.50	1364.53
413.69	1387.94
413.88	1462.83
414.07	1439.43
414.26	1612.63
414.45	1439.43
414.64	1516.67
414.83	1465.18
415.02	1640.72
415.22	1519.01
415.41	1703.91
415.60	1563.48
415.79	1607.95
415.98	1530.71
416.17	1589.22
416.36	1638.38
416.55	1607.95
416.74	1673.48
416.93	1703.91
417.12	1717.95
417.31	1701.57
417.50	1645.40
417.69	1767.10
417.88	1849.02
418.07	1783.49
418.26	1762.42
418.45	1706.25
418.64	1937.96
418.83	1849.02
419.02	1832.64
419.21	1830.30
419.39	1879.45
419.58	1820.94
419.77	1760.08
419.96	1860.73
420.15	1860.73
420.34	1966.05
420.53	1977.75
420.72	1942.64
420.91	1940.30
421.10	2087.76
421.29	1966.05
421.48	1860.73
421.67	1987.11
421.86	1963.71
422.05	1970.73
422.24	2057.33
422.43	2031.58
422.61	2122.87
422.80	2073.71
422.99	2129.89
423.18	2076.06
423.37	2087.76
423.56	2092.44
423.75	2169.68
423.94	2050.31
424.13	1870.09
424.32	1933.28
424.50	2111.16
424.69	2090.10
424.88	2195.42
425.07	2064.35
425.26	2038.61
425.45	2012.86
425.64	2120.53
425.83	2129.89
426.01	2118.18
426.20	2094.78
426.39	2108.82
426.58	2099.46
426.77	2172.02
426.96	2104.14
427.15	1996.48
427.33	2083.08
427.52	2169.68
427.71	2078.40
427.90	2209.47
428.09	2195.42
428.28	2237.55
428.46	2305.43
428.65	2230.53
428.84	2218.83
429.03	2333.51
429.22	2298.41
429.40	2319.47
429.59	2366.28
429.78	2108.82
429.97	2216.49
430.16	2221.17
430.34	2293.72
430.53	2277.34
430.72	2310.11
430.91	2394.37
431.10	2256.28
431.28	2366.28
431.47	2356.92
431.66	2518.42
431.85	2410.75
432.03	2506.71
432.22	2473.95
432.41	2551.18
432.60	2534.80
432.79	2490.33
432.97	2560.55
433.16	2576.93
433.35	2583.95
433.54	2546.50
433.72	2509.05
433.91	2565.23
434.10	2565.23
434.28	2649.49
434.47	2586.29
434.66	2619.06
434.85	2700.98
435.03	2600.34
435.22	2738.43
435.41	2740.77
435.59	2565.23
435.78	2677.57
435.97	2733.75
436.16	2689.28
436.34	2715.02
436.53	2731.41
436.72	2703.32
436.90	2658.85
437.09	2750.13
437.28	2768.85
437.46	2731.41
437.65	2843.75
437.84	2761.83
438.02	2836.73
438.21	2967.80
438.40	2759.49
438.58	2963.12
438.77	2967.80
438.96	3042.70
439.14	3040.36
439.33	3023.97
439.52	3143.34
439.70	3126.96
439.89	3103.55
440.08	3019.29
440.26	3049.72
440.45	3119.93
440.63	3159.72
440.82	3220.58
441.01	3302.50
441.19	3208.87
441.38	3290.79
441.57	3269.73
441.75	3421.86
441.94	3194.83
442.12	3330.58
442.31	3480.38
442.50	3403.14
442.68	3442.93
442.87	3393.78
443.05	3314.20
443.24	3562.30
443.43	3412.50
443.61	3452.29
443.80	3590.38
443.98	3405.48
444.17	3255.69
444.35	3473.36
444.54	3569.32
444.73	3431.23
444.91	3552.93
445.10	3520.17
445.28	3566.98
445.47	3386.76
445.65	3452.29
445.84	3407.82
446.02	3627.83
446.21	3492.08
446.39	3599.74
446.58	3562.30
446.77	3576.34
446.95	3503.78
447.14	3506.12
447.32	3492.08
447.51	3506.12
447.69	3733.15
447.88	3566.98
448.06	3641.87
448.25	3492.08
448.43	3653.58
448.62	3581.02
448.80	3597.40
448.99	3609.11
449.17	3861.88
449.36	3555.27
449.54	3688.68
449.73	3908.69
449.91	3747.20
450.10	3721.45
450.28	3859.54
450.46	3932.10
450.65	3735.50
450.83	3756.56
451.02	3892.31
451.20	3967.21
451.39	3880.61
451.57	3971.89
451.76	3843.16
451.94	3908.69
452.13	3969.55
452.31	3948.48
452.49	4056.15
452.68	3981.25
452.86	3861.88
453.05	3948.48
453.23	4124.02
453.42	3941.46
453.60	3936.78
453.78	4053.81
453.97	3927.42
454.15	4084.23
454.34	4032.74
454.52	4142.75
454.70	4056.15
454.89	4035.08
455.07	4166.15
455.26	4077.21
455.44	4159.13
455.62	4187.22
455.81	4187.22
455.99	4168.49
456.17	4191.90
456.36	4353.40
456.54	4308.93
456.73	4271.48
456.91	4355.74
457.09	4271.48
457.28	4573.41
457.46	4360.42
457.64	4414.25
457.83	4348.72
458.01	4468.08
458.19	4353.40
458.38	4346.37
458.56	4542.98
458.74	4610.86
458.93	4624.90
459.11	4461.06
459.29	4667.03
459.48	4575.75
459.66	4507.87
459.84	4723.20
460.03	4709.16
460.21	4608.51
460.39	4699.80
460.57	4608.51
460.76	4610.86
460.94	4772.35
461.12	4685.75
461.31	4655.33
461.49	4765.33
461.67	4685.75
461.85	4718.52
462.04	4840.23
462.22	4800.44
462.40	4973.64
462.59	4753.63
462.77	4898.74
462.95	4840.23
463.13	4922.15
463.32	4980.66
463.50	4940.87
463.68	4975.98
463.86	4933.85
464.05	5034.49
464.23	4887.04
464.41	5093.01
464.59	5006.41
464.78	5114.07
464.96	4884.70
465.14	5078.96
465.32	5139.82
465.50	5130.45
465.69	5160.88
465.87	5067.26
466.05	5064.92
466.23	5025.13
466.41	5203.01
466.60	5245.14
466.78	5142.16
466.96	4940.87
467.14	5224.08
467.32	5090.67
467.51	5252.16
467.69	5186.63
467.87	5320.04
468.05	5231.10
468.23	5177.26
468.41	5284.93
468.60	5303.65
468.78	5301.31
468.96	5284.93
469.14	5481.53
469.32	5507.28
469.50	5446.43
469.69	5448.77
469.87	5614.95
470.05	5657.07
470.23	5556.43
470.41	5474.51
470.59	5514.30
470.77	5497.92
470.95	5584.52
471.14	5591.54
471.32	5621.97
471.50	5837.30
471.68	5724.95
471.86	5696.86
472.04	5879.43
472.22	5980.07
472.40	5696.86
472.58	5804.53
472.77	5881.77
472.95	5895.81
473.13	6221.14
473.31	5860.70
473.49	6024.54
473.67	6127.52
473.85	6038.58
474.03	6019.86
474.21	6111.14
474.39	6146.25
474.57	6331.15
474.75	6361.58
474.93	6406.05
475.12	6328.81
475.30	6286.68
475.48	6401.37
475.66	6408.39
475.84	6525.41
476.02	6588.61
476.20	6459.88
476.38	6642.44
476.56	6717.34
476.74	6616.69
476.92	6696.27
477.10	6719.68
477.28	6857.77
477.46	6895.22
477.64	6829.68
477.82	6724.36
478.00	7063.74
478.18	7059.06
478.36	7178.42
478.54	7133.95
478.72	7082.46
478.90	7283.75
479.08	7438.22
479.26	7510.78
479.44	7529.50
479.62	7557.59
479.80	7786.96
479.98	7447.58
480.16	7653.55
480.34	7609.08
480.52	7850.16
480.70	7861.86
480.88	7786.96
481.06	7836.11
481.24	7962.50
481.41	8009.31
481.59	8091.23
481.77	8182.51
481.95	8210.60
482.13	8365.07
482.31	8088.89
482.49	8486.78
482.67	8517.21
482.85	8524.23
483.03	8709.13
483.21	8741.90
483.39	8809.78
483.57	8662.32
483.74	9043.83
483.92	8922.12
484.10	8940.85
484.28	9022.77
484.46	9376.19
484.64	9310.65
484.82	9411.29
485.00	9415.98
485.18	9432.36
485.35	9465.13
485.53	9320.01
485.71	9727.27
485.89	9783.44
486.07	9743.65
486.25	9834.93
486.43	9877.06
486.61	10012.81
486.78	10174.31
486.96	10408.36
487.14	10307.72
487.32	10413.04
487.50	10328.78
487.68	10609.65
487.85	10548.79
488.03	10642.42
488.21	11026.26
488.39	10834.34
488.57	10960.73
488.75	10998.18
488.92	11269.68
489.10	10923.28
489.28	11070.73
489.46	11314.15
489.64	11386.71
489.81	11253.30
489.99	11496.71
490.17	11578.63
490.35	11878.22
490.53	11707.36
490.70	12067.80
490.88	11545.86
491.06	12112.27
491.24	12156.74
491.41	11978.86
491.59	12318.24
491.77	12351.01
491.95	12559.31
492.13	12332.28
492.30	12606.13
492.48	12594.42
492.66	12720.81
492.84	12573.36
493.01	12863.58
493.19	12894.01
493.37	12954.87
493.54	12961.89
493.72	13305.95
493.90	13495.53
494.08	13280.20
494.25	13341.05
494.43	13577.45
494.61	13568.09
494.79	13858.31
494.96	13650.00
495.14	13678.09
495.32	13841.93
495.49	14118.11
495.67	13928.53
495.85	14389.61
496.02	13930.87
496.20	14455.15
496.38	14228.12
496.55	14368.55
496.73	14787.50
496.91	14260.88
497.09	14633.03
497.26	14869.42
497.44	14693.88
497.62	14527.71
497.79	14806.23
497.97	14981.77
498.14	15169.01
498.32	15150.29
498.50	15276.68
498.67	15461.58
498.85	15520.09
499.03	15337.53
499.20	15414.77
499.38	15501.37
499.56	15545.84
499.73	15513.07
499.91	15758.83
500.08	15782.23
500.26	15367.96
500.44	15861.81
500.61	16046.71
500.79	15782.23
500.97	15943.73
501.14	16245.66
501.32	16280.77
501.49	16428.22
501.67	16409.50
501.84	16126.29
502.02	16226.93
502.20	16919.73
502.37	16695.04
502.55	16517.16
502.72	16578.01
502.90	16559.29
503.07	16535.88
503.25	16807.39
503.43	16943.14
503.60	17043.78
503.78	17053.14
503.95	16812.07
504.13	17111.66
504.30	17184.21
504.48	17060.16
504.65	17179.53
504.83	17399.54
505.01	17631.26
505.18	17584.44
505.36	17912.12
505.53	17547.00
505.71	17748.28
505.88	17563.38
506.06	17617.21
506.23	17507.21
506.41	17610.19
506.58	17575.08
506.76	17905.10
506.93	17898.08
507.11	17776.37
507.28	18078.30
507.46	18008.08
507.63	18251.50
507.81	18066.60
507.98	18394.27
508.16	18384.91
508.33	18361.50
508.50	18293.63
508.68	18515.98
508.85	18508.96
509.03	18412.99
509.20	18785.14
509.38	18515.98
509.55	18824.93
509.73	18909.19
509.90	18794.50
510.08	18820.25
510.25	18831.95
510.42	18932.59
510.60	19405.38
510.77	19349.21
510.95	19161.97
511.12	19033.24
511.30	19454.53
511.47	19344.53
511.64	19412.40
511.82	19407.72
511.99	19454.53
512.17	19775.19
512.34	19513.05
512.51	19625.39
512.69	19386.66
512.86	19637.09
513.04	20009.24
513.21	20250.32
513.38	19630.07
513.56	19819.66
513.73	20128.61
513.90	20236.27
514.08	19878.17
514.25	19880.51
514.43	20348.62
514.60	20341.60
514.77	20053.71
514.95	20603.74
515.12	20257.34
515.29	20063.07
515.47	20659.91
515.64	20470.33
515.81	20224.57
515.99	20725.44
516.16	21170.15
516.33	21060.14
516.51	20683.31
516.68	21041.42
516.85	20528.84
517.03	21076.52
517.20	21542.29
517.37	21296.53
517.54	21130.36
517.72	21060.14
517.89	21097.59
518.06	21088.23
518.24	21228.66
518.41	20908.01
518.58	21614.85
518.75	21200.57
518.93	21724.85
519.10	21436.97
519.27	21766.98
519.45	21516.54
519.62	21869.97
519.79	21724.85
519.96	21575.06
520.14	21837.20
520.31	21823.16
520.48	22071.25
520.65	22312.33
520.83	22331.05
521.00	22008.06
521.17	21970.61
521.34	22125.08
521.52	22146.15
521.69	22167.21
521.86	22080.61
522.03	22427.01
522.20	22216.36
522.38	22377.86
522.55	22352.12
522.72	22293.60
522.89	22806.18
523.07	23161.94
523.24	22848.31
523.41	22712.56
523.58	22750.01
523.75	22836.61
523.92	22693.83
524.10	22906.82
524.27	22742.99
524.44	23133.86
524.61	22977.04
524.78	23365.57
524.96	23061.30
525.13	22799.16
525.30	22939.59
525.47	23255.56
525.64	23101.09
525.81	23503.66
525.98	23318.76
526.16	23248.54
526.33	23608.98
526.50	23548.13
526.67	23517.70
526.84	23145.56
527.01	23517.70
527.18	23604.30
527.36	23482.59
527.53	23536.43
527.70	24013.90
527.87	23737.71
528.04	23967.09
528.21	23744.73
528.38	23796.23
528.55	24159.01
528.72	24079.43
528.89	24049.00
529.07	23833.68
529.24	23910.91
529.41	24269.01
529.58	24027.94
529.75	23995.17
529.92	24280.72
530.09	24367.32
530.26	24112.20
530.43	24458.60
530.60	24528.81
530.77	24245.61
530.94	24521.79
531.11	24617.75
531.28	24559.24
531.46	24479.66
531.63	24603.71
531.80	24872.87
531.97	25025.01
532.14	24624.78
532.31	24566.26
532.48	24636.48
532.65	24797.98
532.82	24760.53
532.99	25123.31
533.16	24697.33
533.33	25083.52
533.50	25041.39
533.67	25071.82
533.84	24884.58
534.01	25043.73
534.18	24903.30
534.35	25247.36
534.52	25233.32
534.69	25399.49
534.86	25427.58
535.03	25104.59
535.20	24835.42
535.37	25483.75
535.54	25436.94
535.71	25348.00
535.88	25553.97
536.05	25598.44
536.22	25338.64
536.38	26019.74
536.55	25923.77
536.72	25745.89
536.89	25556.31
537.06	25537.59
537.23	26080.59
537.40	25879.30
537.57	25860.58
537.74	25745.89
537.91	25771.64
538.08	25820.79
538.25	26136.76
538.42	25673.34
538.59	26436.35
538.75	26017.40
538.92	25979.95
539.09	26429.33
539.26	26167.19
539.43	26073.57
539.60	26169.53
539.77	26188.25
539.94	26363.79
540.11	26370.82
540.28	26579.12
540.44	26251.45
540.61	26408.26
540.78	26300.60
540.95	26223.36
541.12	26314.64
541.29	26642.32
541.46	26462.10
541.62	26288.90
541.79	26438.69
541.96	26499.55
542.13	26623.59
542.30	26644.66
542.47	27056.59
542.63	26436.35
542.80	27061.27
542.97	27239.15
543.14	27140.85
543.31	26815.52
543.48	27133.83
543.64	27023.83
543.81	27501.29
543.98	27218.09
544.15	27199.37
544.32	27112.77
544.48	27501.29
544.65	27002.76
544.82	27157.24
544.99	26803.82
545.16	27309.37
545.32	27398.31
545.49	27857.06
545.66	27435.76
545.83	27590.24
546.00	27604.28
546.16	27522.36
546.33	27360.86
546.50	27398.31
546.67	27810.25
546.83	27410.01
547.00	27520.02
547.17	27899.19
547.34	27866.42
547.50	27824.29
547.67	27903.87
547.84	28308.78
548.00	28032.60
548.17	27835.99
548.34	27978.76
548.51	28353.25
548.67	28189.41
548.84	27988.13
549.01	27749.39
549.18	27873.44
549.34	28070.04
549.51	28252.61
549.68	28606.03
549.84	27934.29
550.01	28299.42
550.18	28208.14
550.34	28126.22
550.51	28697.31
550.68	28327.50
550.84	28086.43
551.01	28388.36
551.18	28276.01
551.34	28400.06
551.51	27878.12
551.68	28182.39
551.84	28685.61
552.01	28280.69
552.18	28952.43
552.34	28510.07
552.51	28725.39
552.68	28680.92
552.84	28540.49
553.01	28350.91
553.18	28149.62
553.34	28552.20
553.51	28439.85
553.67	28755.82
553.84	29237.97
554.01	28842.42
554.17	28929.02
554.34	28631.77
554.51	28711.35
554.67	28884.55
554.84	28648.16
555.00	29123.29
555.17	28896.25
555.33	28802.63
555.50	29371.38
555.67	29088.18
555.83	29071.79
556.00	29036.69
556.16	28985.19
556.33	29188.82
556.50	28940.72
556.66	29181.80
556.83	29048.39
556.99	29472.03
557.16	29511.81
557.32	29228.61
557.49	29088.18
557.65	29179.46
557.82	29233.29
557.98	29041.37
558.15	29413.51
558.32	29301.17
558.48	29582.03
558.65	29411.17
558.81	29839.49
558.98	29422.87
559.14	29373.72
559.31	29710.76
559.47	29385.43
559.64	29551.60
559.80	30005.67
559.97	29631.18
560.13	29612.46
560.30	29549.26
560.46	29528.20
560.63	29326.91
560.79	29476.71
560.96	29743.53
561.12	29479.05
561.29	29825.45
561.45	29722.46
561.61	29851.19
561.78	29617.14
561.94	29759.91
562.11	30087.59
562.27	29701.40
562.44	30059.50
562.60	29788.00
562.77	30066.52
562.93	29876.94
563.10	29713.10
563.26	29898.00
563.42	30335.68
563.59	29975.24
563.75	29954.18
563.92	30012.69
564.08	29715.44
564.24	29947.15
564.41	29729.48
564.57	29628.84
564.74	29799.70
564.90	30295.89
565.07	29603.10
565.23	29888.64
565.39	30415.26
565.56	30417.60
565.72	30059.50
565.88	29968.22
566.05	29923.75
566.21	29830.13
566.38	30284.19
566.54	30129.72
566.70	30204.61
566.87	30415.26
567.03	30026.73
567.19	30384.83
567.36	30464.41
567.52	30155.46
567.68	30396.54
567.85	30012.69
568.01	30005.67
568.17	30536.97
568.34	30279.51
568.50	30424.62
568.66	30071.20
568.83	30525.27
568.99	30190.57
569.15	30148.44
569.32	30099.29
569.48	30319.30
569.64	30195.25
569.81	30735.92
569.97	30281.85
570.13	30333.34
570.30	30146.10
570.46	30415.26
570.62	30433.99
570.78	30288.87
570.95	30190.57
571.11	30286.53
571.27	30129.72
571.43	30476.12
571.60	30520.59
571.76	30424.62
571.92	30359.09
572.09	30607.19
572.25	30632.93
572.41	30754.64
572.57	30745.28
572.74	30771.02
572.90	30712.51
573.06	30525.27
573.22	30312.28
573.38	30258.45
573.55	30349.73
573.71	30560.37
573.87	30876.35
574.03	30373.13
574.20	30796.77
574.36	30745.28
574.52	30501.86
574.68	30309.94
574.84	30480.80
575.01	30452.71
575.17	30780.39
575.33	30693.79
575.49	30567.40
575.65	30614.21
575.82	31133.81
575.98	30567.40
576.14	30785.07
576.30	30705.49
576.46	30431.65
576.62	30618.89
576.79	30508.88
576.95	30471.43
577.11	30817.83
577.27	30764.00
577.43	30939.54
577.59	30745.28
577.75	30342.70
577.92	30740.60
578.08	30319.30
578.24	30455.05
578.40	30806.13
578.56	30728.89
578.72	30796.77
578.88	30932.52
579.04	31061.25
579.21	30731.23
579.37	30588.46
579.53	30761.66
579.69	30288.87
579.85	30595.48
580.01	30529.95
580.17	30614.21
580.33	30745.28
580.49	30672.72
580.65	31019.12
580.82	30806.13
580.98	31000.40
581.14	30848.26
581.30	30794.43
581.46	30618.89
581.62	30551.01
581.78	30403.56
581.94	30850.60
582.10	30583.78
582.26	31005.08
582.42	30473.78
582.58	30897.41
582.74	31079.97
582.90	30785.07
583.06	30916.14
583.22	30843.58
583.38	30773.36
583.54	30771.02
583.70	30742.94
583.86	30714.85
584.02	30518.25
584.18	31084.65
584.34	31337.43
584.50	30827.20
584.66	31103.38
584.82	30658.68
584.98	30806.13
585.14	30621.23
585.30	30965.29
585.46	30883.37
585.62	30951.24
585.78	30707.83
585.94	30595.48
586.10	30604.84
586.26	31197.00
586.42	31021.46
586.58	30909.11
586.74	31068.27
586.90	30501.86
587.06	30728.89
587.22	30974.65
587.38	30703.15
587.54	30974.65
587.70	31016.78
587.86	30845.92
588.02	31159.55
588.18	31346.79
588.34	31012.10
588.49	31232.11
588.65	30850.60
588.81	30934.86
588.97	30988.69
589.13	30801.45
589.29	31030.82
589.45	30689.10
589.61	31044.87
589.77	31508.29
589.93	31503.61
590.08	31498.93
590.24	31562.12
590.40	31456.80
590.56	31260.20
590.72	30995.71
590.88	31105.72
591.04	31070.61
591.20	31323.39
591.35	31405.31
591.51	31861.71
591.67	31152.53
591.83	31861.71
