SpectraSuite Data File
++++++++++++++++++++++++++++++++++++
Date: Fri Oct 18 13:58:25 GMT-05:00 2013
User: bianchi
Dark Spectrum Present: No
Reference Spectrum Present: No
Number of Sampled Component Spectra: 1
Spectrometers: USB2+H05261
Integration Time (usec): 50000 (USB2+H05261)
Spectra Averaged: 1 (USB2+H05261)
Boxcar Smoothing: 0 (USB2+H05261)
Correct for Electrical Dark: No (USB2+H05261)
Strobe/Lamp Enabled: No (USB2+H05261)
Correct for Detector Non-linearity: No (USB2+H05261)
Correct for Stray Light: No (USB2+H05261)
Number of Pixels in Processed Spectrum: 2048
>>>>>Begin Processed Spectral Data<<<<<
365.73	9.36
365.92	9.36
366.12	9.36
366.32	0.00
366.52	0.00
366.72	0.00
366.91	0.00
367.11	0.00
367.31	0.00
367.51	0.00
367.70	0.00
367.90	0.00
368.10	0.00
368.30	0.00
368.49	0.00
368.69	0.00
368.89	0.00
369.09	0.00
369.28	0.00
369.48	0.00
369.68	0.00
369.87	0.00
370.07	0.00
370.27	0.00
370.47	0.00
370.66	121.71
370.86	63.19
371.06	117.03
371.25	105.32
371.45	161.50
371.65	126.39
371.84	93.62
372.04	159.16
372.24	177.88
372.44	138.09
372.63	189.58
372.83	166.18
373.03	187.24
373.22	224.69
373.42	189.58
373.62	229.37
373.81	217.67
374.01	283.20
374.21	280.86
374.40	266.82
374.60	271.50
374.79	189.58
374.99	208.31
375.19	245.76
375.38	332.36
375.58	259.80
375.78	278.52
375.97	255.12
376.17	264.48
376.37	276.18
376.56	351.08
376.76	297.25
376.95	184.90
377.15	313.63
377.35	292.57
377.54	241.08
377.74	301.93
377.93	229.37
378.13	198.95
378.33	266.82
378.52	201.29
378.72	262.14
378.91	215.33
379.11	322.99
379.31	290.23
379.50	238.73
379.70	238.73
379.89	241.08
380.09	208.31
380.28	212.99
380.48	257.46
380.68	320.65
380.87	299.59
381.07	351.08
381.26	358.10
381.46	355.76
381.65	250.44
381.85	306.61
382.04	351.08
382.24	376.83
382.43	355.76
382.63	376.83
382.83	304.27
383.02	348.74
383.22	332.36
383.41	313.63
383.61	379.17
383.80	362.78
384.00	325.33
384.19	362.78
384.39	344.06
384.58	308.95
384.78	409.59
384.97	369.80
385.17	411.93
385.36	353.42
385.56	404.91
385.75	376.83
385.95	320.65
386.14	425.98
386.34	360.44
386.53	397.89
386.72	423.64
386.92	463.43
387.11	425.98
387.31	409.59
387.50	416.62
387.70	383.85
387.89	482.15
388.09	404.91
388.28	454.06
388.48	397.89
388.67	477.47
388.86	358.10
389.06	470.45
389.25	564.07
389.45	395.55
389.64	440.02
389.84	395.55
390.03	447.04
390.22	463.43
390.42	458.74
390.61	416.62
390.81	430.66
391.00	524.28
391.19	528.96
391.39	528.96
391.58	421.30
391.78	482.15
391.97	451.72
392.16	482.15
392.36	470.45
392.55	451.72
392.75	500.87
392.94	531.30
393.13	493.85
393.33	463.43
393.52	573.43
393.71	561.73
393.91	538.32
394.10	540.66
394.29	592.16
394.49	601.52
394.68	634.29
394.88	613.22
395.07	606.20
395.26	620.24
395.46	561.73
395.65	613.22
395.84	634.29
396.04	650.67
396.23	671.73
396.42	582.79
396.62	578.11
396.81	648.33
397.00	702.16
397.19	685.78
397.39	671.73
397.58	641.31
397.77	676.41
397.97	667.05
398.16	589.82
398.35	713.86
398.55	697.48
398.74	732.59
398.93	725.57
399.12	650.67
399.32	716.20
399.51	699.82
399.70	746.63
399.90	758.33
400.09	720.88
400.28	622.58
400.47	758.33
400.67	821.53
400.86	821.53
401.05	781.74
401.24	725.57
401.44	779.40
401.63	800.46
401.82	840.25
402.01	788.76
402.21	763.01
402.40	779.40
402.59	863.66
402.78	748.97
402.97	823.87
403.17	866.00
403.36	917.49
403.55	835.57
403.74	858.98
403.93	915.15
404.13	858.98
404.32	945.58
404.51	875.36
404.70	919.83
404.89	933.87
405.09	940.90
405.28	947.92
405.47	915.15
405.66	1034.52
405.85	994.73
406.05	889.40
406.24	903.45
406.43	957.28
406.62	1025.15
406.81	1032.18
407.00	933.87
407.20	1004.09
407.39	964.30
407.58	992.39
407.77	1043.88
407.96	1043.88
408.15	1076.65
408.34	1034.52
408.54	1118.78
408.73	1163.25
408.92	1071.97
409.11	1088.35
409.30	1123.46
409.49	1118.78
409.68	1095.37
409.87	1146.86
410.07	1198.35
410.26	1123.46
410.45	1174.95
410.64	1064.94
410.83	1198.35
411.02	1125.80
411.21	1266.23
411.40	1226.44
411.59	1287.29
411.78	1245.16
411.98	1252.19
412.17	1287.29
412.36	1224.10
412.55	1329.42
412.74	1254.53
412.93	1378.58
413.12	1371.55
413.31	1338.79
413.50	1331.76
413.69	1406.66
413.88	1446.45
414.07	1322.40
414.26	1282.61
414.45	1458.15
414.64	1373.89
414.83	1511.99
415.02	1420.71
415.22	1600.93
415.41	1568.16
415.60	1638.38
415.79	1586.88
415.98	1598.59
416.17	1582.20
416.36	1614.97
416.55	1575.18
416.74	1685.19
416.93	1692.21
417.12	1659.44
417.31	1612.63
417.50	1629.01
417.69	1778.81
417.88	1734.34
418.07	1598.59
418.26	1764.76
418.45	1762.42
418.64	1757.74
418.83	1809.23
419.02	1795.19
419.21	1867.75
419.39	1769.44
419.58	1811.57
419.77	1673.48
419.96	1675.82
420.15	1842.00
420.34	1753.06
420.53	1858.39
420.72	1930.94
420.91	2010.52
421.10	1912.22
421.29	1975.41
421.48	1968.39
421.67	1844.34
421.86	2024.56
422.05	1956.69
422.24	1907.54
422.43	1982.43
422.61	1949.67
422.80	1949.67
422.99	1928.60
423.18	1867.75
423.37	1954.35
423.56	2043.29
423.75	1954.35
423.94	1827.96
424.13	1818.60
424.32	1982.43
424.50	2125.21
424.69	2031.58
424.88	2066.69
425.07	2057.33
425.26	2005.84
425.45	2022.22
425.64	2045.63
425.83	1973.07
426.01	2083.08
426.20	2090.10
426.39	1998.82
426.58	2083.08
426.77	2090.10
426.96	2111.16
427.15	2029.24
427.33	2129.89
427.52	2153.29
427.71	2078.40
427.90	2195.42
428.09	2024.56
428.28	2125.21
428.46	2202.44
428.65	2153.29
428.84	2345.22
429.03	2162.66
429.22	2134.57
429.40	2256.28
429.59	2312.45
429.78	2157.97
429.97	2148.61
430.16	2230.53
430.34	2218.83
430.53	2282.02
430.72	2370.96
430.91	2326.49
431.10	2263.30
431.28	2338.20
431.47	2272.66
431.66	2422.45
431.85	2377.98
432.03	2516.08
432.22	2408.41
432.41	2410.75
432.60	2335.85
432.79	2410.75
432.97	2373.30
433.16	2382.67
433.35	2497.35
433.54	2525.44
433.72	2511.39
433.91	2436.50
434.10	2457.56
434.28	2562.89
434.47	2502.03
434.66	2560.55
434.85	2609.70
435.03	2600.34
435.22	2548.84
435.41	2635.44
435.59	2612.04
435.78	2619.06
435.97	2541.82
436.16	2619.06
436.34	2736.09
436.53	2710.34
436.72	2654.17
436.90	2562.89
437.09	2731.41
437.28	2672.89
437.46	2595.65
437.65	2649.49
437.84	2853.11
438.02	2705.66
438.21	2754.81
438.40	2799.28
438.58	2942.05
438.77	2815.66
438.96	2850.77
439.14	2867.16
439.33	2862.48
439.52	2888.22
439.70	2923.33
439.89	3030.99
440.08	2988.86
440.26	2998.23
440.45	3066.10
440.63	3068.44
440.82	3141.00
441.01	3122.27
441.19	3159.72
441.38	3243.98
441.57	3204.19
441.75	3112.91
441.94	3197.17
442.12	3194.83
442.31	3229.94
442.50	3337.60
442.68	3400.80
442.87	3304.84
443.05	3375.05
443.24	3260.37
443.43	3361.01
443.61	3346.97
443.80	3517.83
443.98	3419.52
444.17	3274.41
444.35	3445.27
444.54	3368.03
444.73	3421.86
444.91	3440.59
445.10	3435.91
445.28	3510.80
445.47	3414.84
445.65	3421.86
445.84	3468.67
446.02	3522.51
446.21	3438.25
446.39	3463.99
446.58	3604.42
446.77	3438.25
446.95	3346.97
447.14	3421.86
447.32	3632.51
447.51	3529.53
447.69	3463.99
447.88	3590.38
448.06	3634.85
448.25	3492.08
448.43	3660.60
448.62	3576.34
448.80	3646.55
448.99	3566.98
449.17	3693.37
449.36	3513.14
449.54	3662.94
449.73	3646.55
449.91	3667.62
450.10	3693.37
450.28	3777.62
450.46	3695.71
450.65	3662.94
450.83	3733.15
451.02	3796.35
451.20	3705.07
451.39	3747.20
451.57	3784.65
451.76	3786.99
451.94	3871.25
452.13	3770.60
452.31	3740.18
452.49	3801.03
452.68	3857.20
452.86	3971.89
453.05	3964.87
453.23	4009.34
453.42	3826.78
453.60	3803.37
453.78	3873.59
453.97	3784.65
454.15	3812.73
454.34	3875.93
454.52	4086.58
454.70	4039.76
454.89	4014.02
455.07	3950.82
455.26	4070.19
455.44	4018.70
455.62	4133.39
455.81	4091.26
455.99	4023.38
456.17	4102.96
456.36	4215.30
456.54	3967.21
456.73	4257.43
456.91	4248.07
457.09	4187.22
457.28	4355.74
457.46	4152.11
457.64	4175.52
457.83	4315.95
458.01	4313.61
458.19	4327.65
458.38	4243.39
458.56	4430.63
458.74	4203.60
458.93	4290.20
459.11	4442.34
459.29	4210.62
459.48	4325.31
459.66	4430.63
459.84	4465.74
460.03	4638.94
460.21	4372.12
460.39	4496.17
460.57	4468.08
460.76	4528.94
460.94	4519.57
461.12	4540.64
461.31	4512.55
461.49	4627.24
461.67	4564.04
461.85	4713.84
462.04	4802.78
462.22	4723.20
462.40	4760.65
462.59	4671.71
462.77	4802.78
462.95	4807.46
463.13	4777.03
463.32	4465.74
463.50	4772.35
463.68	4830.87
463.86	4737.24
464.05	4983.00
464.23	4641.28
464.41	4814.48
464.59	4774.69
464.78	4915.12
464.96	4971.30
465.14	4758.31
465.32	4943.21
465.50	4973.64
465.69	5013.43
465.87	4894.06
466.05	4943.21
466.23	5081.30
466.41	4973.64
466.60	5151.52
466.78	4938.53
466.96	5076.62
467.14	4952.57
467.32	5039.17
467.51	5020.45
467.69	4999.38
467.87	5184.29
468.05	5139.82
468.23	5263.86
468.41	5149.18
468.60	5207.69
468.78	5210.03
468.96	5139.82
469.14	5348.12
469.32	5317.70
469.50	5226.42
469.69	5242.80
469.87	5315.36
470.05	5280.25
470.23	5467.49
470.41	5378.55
470.59	5432.38
470.77	5373.87
470.95	5390.25
471.14	5638.35
471.32	5434.72
471.50	5521.32
471.68	5650.05
471.86	5533.03
472.04	5818.57
472.22	5717.93
472.40	5687.50
472.58	5724.95
472.77	5830.27
472.95	5830.27
473.13	5909.85
473.31	5673.46
473.49	5851.34
473.67	5813.89
473.85	5900.49
474.03	5872.40
474.21	5856.02
474.39	5989.43
474.57	6001.13
474.75	6181.35
474.93	6047.94
475.12	6244.55
475.30	6054.97
475.48	6073.69
475.66	6211.78
475.84	6059.65
476.02	6338.17
476.20	6321.79
476.38	6249.23
476.56	6429.45
476.74	6431.79
476.92	6471.58
477.10	6417.75
477.28	6530.09
477.46	6473.92
477.64	6719.68
477.82	6700.95
478.00	7077.78
478.18	6942.03
478.36	6960.75
478.54	6888.20
478.72	7035.65
478.90	6801.60
479.08	7052.03
479.26	7171.40
479.44	7225.23
479.62	7468.65
479.80	7311.83
479.98	7297.79
480.16	7545.89
480.34	7459.29
480.52	7550.57
480.70	7798.66
480.88	7452.27
481.06	7583.34
481.24	7747.17
481.41	7653.55
481.59	7974.21
481.77	7953.14
481.95	7927.39
482.13	8030.38
482.31	7974.21
482.49	8187.19
482.67	8290.18
482.85	8238.69
483.03	8451.67
483.21	8444.65
483.39	8683.39
483.57	8554.66
483.74	8617.85
483.92	8709.13
484.10	8671.68
484.28	8669.34
484.46	9027.45
484.64	8865.95
484.82	8856.59
485.00	9062.55
485.18	9210.01
485.35	9401.93
485.53	9345.76
485.71	9408.95
485.89	9418.32
486.07	9570.45
486.25	9537.68
486.43	9504.92
486.61	9720.24
486.78	9827.91
486.96	9942.60
487.14	9958.98
487.32	10122.82
487.50	10164.95
487.68	9921.53
487.85	10146.22
488.03	10310.06
488.21	10530.07
488.39	10572.20
488.57	10576.88
488.75	10448.15
488.92	10729.02
489.10	10944.34
489.28	10946.69
489.46	10988.82
489.64	10789.87
489.81	11178.40
489.99	11197.12
490.17	11185.42
490.35	11431.18
490.53	11403.09
490.70	11454.58
490.88	11623.10
491.06	11655.87
491.24	11576.29
491.41	11726.08
491.59	12016.31
491.77	11831.41
491.95	11836.09
492.13	12070.14
492.30	12322.92
492.48	12067.80
492.66	12142.70
492.84	12196.53
493.01	12461.01
493.19	12524.21
493.37	12414.20
493.54	12987.63
493.72	12957.21
493.90	12559.31
494.08	12779.32
494.25	13081.25
494.43	13174.88
494.61	13301.26
494.79	13018.06
494.96	13289.56
495.14	13135.09
495.32	13362.12
495.49	13399.57
495.67	13476.80
495.85	13717.88
496.02	13521.27
496.20	13811.50
496.38	13769.37
496.55	13771.71
496.73	14342.80
496.91	13900.44
497.09	14284.29
497.26	14122.79
497.44	14057.26
497.62	14178.97
497.79	14527.71
497.97	14391.95
498.14	14736.01
498.32	14637.71
498.50	14520.68
498.67	14986.45
498.85	14663.46
499.03	14773.46
499.20	14796.87
499.38	15007.52
499.56	15169.01
499.73	15288.38
499.91	15309.44
500.08	14895.17
500.26	15197.10
500.44	15517.75
500.61	15449.88
500.79	15468.60
500.97	15370.30
501.14	15744.78
501.32	15866.49
501.49	15506.05
501.67	15681.59
501.84	16030.33
502.02	15805.64
502.20	15845.43
502.37	15875.85
502.55	16149.70
502.72	16081.82
502.90	16215.23
503.07	16042.03
503.25	16240.98
503.43	16072.46
503.60	16362.69
503.78	16486.73
503.95	16388.43
504.13	16641.21
504.30	16463.33
504.48	16313.53
504.65	16430.56
504.83	16606.10
505.01	16828.45
505.18	16905.69
505.36	16882.28
505.53	16783.98
505.71	16891.65
505.88	17050.80
506.06	16809.73
506.23	17195.92
506.41	16985.27
506.58	17202.94
506.76	17151.45
506.93	17137.40
507.11	17420.61
507.28	17586.79
507.46	17219.32
507.63	17495.50
507.81	17734.24
507.98	17617.21
508.16	17514.23
508.33	17699.13
508.50	17659.34
508.68	17547.00
508.85	18139.15
509.03	18342.78
509.20	17788.07
509.38	18209.37
509.55	17987.02
509.73	18036.17
509.90	18080.64
510.08	18431.72
510.25	17994.04
510.42	18431.72
510.60	18558.11
510.77	18457.46
510.95	18513.64
511.12	18719.60
511.30	18698.54
511.47	18930.25
511.64	18492.57
511.82	18773.44
511.99	18623.64
512.17	18785.14
512.34	18853.02
512.51	19002.81
512.69	18972.38
512.86	19026.21
513.04	19206.44
513.21	19321.12
513.38	19323.46
513.56	19461.55
513.73	19197.07
513.90	19606.67
514.08	19494.32
514.25	19576.24
514.43	19477.94
514.60	19466.24
514.77	19688.59
514.95	19552.84
515.12	19789.23
515.29	19859.45
515.47	19681.56
515.64	19932.00
515.81	20042.01
515.99	20175.42
516.16	20175.42
516.33	20006.90
516.51	20404.79
516.68	20137.97
516.85	19997.54
517.03	20121.59
517.20	20130.95
517.37	20446.92
517.54	20374.36
517.72	20542.88
517.89	20470.33
518.06	20346.28
518.24	20482.03
518.41	20339.26
518.58	20503.09
518.75	20582.67
518.93	20830.77
519.10	20599.05
519.27	20891.62
519.45	20519.48
519.62	20884.60
519.79	20760.55
519.96	20868.22
520.14	20891.62
520.31	20968.86
520.48	21324.62
520.65	20957.16
520.83	21135.04
521.00	21303.56
521.17	21137.38
521.34	21137.38
521.52	21352.71
521.69	21345.69
521.86	21369.09
522.03	21642.93
522.20	21546.97
522.38	21654.64
522.55	21673.36
522.72	21055.46
522.89	21565.70
523.07	22054.87
523.24	21984.65
523.41	21921.46
523.58	21853.58
523.75	22136.79
523.92	21795.07
524.10	22026.78
524.27	22185.94
524.44	22221.05
524.61	22249.13
524.78	22267.86
524.96	22260.84
525.13	22705.54
525.30	22394.25
525.47	22436.38
525.64	22759.37
525.81	22427.01
525.98	22787.46
526.16	22335.73
526.33	22630.64
526.50	22808.52
526.67	22588.51
526.84	22703.20
527.01	22553.40
527.18	22857.67
527.36	22897.46
527.53	23026.19
527.70	22831.93
527.87	23246.20
528.04	22904.48
528.21	23007.47
528.38	22984.06
528.55	23119.81
528.72	23285.99
528.89	23103.43
529.07	23166.62
529.24	22970.02
529.41	23714.31
529.58	23175.98
529.75	23517.70
529.92	22991.08
530.09	23461.53
530.26	23702.61
530.43	23646.43
530.60	23098.75
530.77	23370.25
530.94	23606.64
531.11	23501.32
531.28	23674.52
531.46	23737.71
531.63	23639.41
531.80	23854.74
531.97	23901.55
532.14	24079.43
532.31	23641.75
532.48	23793.89
532.65	24032.62
532.82	23885.17
532.99	24243.27
533.16	23667.50
533.33	24266.67
533.50	24444.56
533.67	24196.46
533.84	24123.90
534.01	24231.57
534.18	24006.87
534.35	24500.73
534.52	23971.77
534.69	24322.85
534.86	24748.82
535.03	24322.85
535.20	24648.18
535.37	24610.73
535.54	24477.32
535.71	24472.64
535.88	24381.36
536.05	24547.54
536.22	24767.55
536.38	24500.73
536.55	25062.46
536.72	25102.25
536.89	25025.01
537.06	24805.00
537.23	24994.58
537.40	24875.21
537.57	24891.60
537.74	24938.41
537.91	25120.97
538.08	25158.42
538.25	24737.12
538.42	24926.71
538.59	24989.90
538.75	24725.42
538.92	25184.16
539.09	25336.30
539.26	25671.00
539.43	25331.62
539.60	25233.32
539.77	24968.84
539.94	25252.04
540.11	25450.99
540.28	24943.09
540.44	25425.24
540.61	25373.75
540.78	25252.04
540.95	25252.04
541.12	25439.28
541.29	25647.59
541.46	25605.46
541.62	25259.06
541.79	25799.73
541.96	25399.49
542.13	25514.18
542.30	25570.35
542.47	26045.48
542.63	25776.32
542.80	25905.05
542.97	26132.08
543.14	26246.77
543.31	25654.61
543.48	25937.82
543.64	26096.97
543.81	26232.72
543.98	26029.10
544.15	26324.01
544.32	26494.86
544.48	26630.62
544.65	26387.20
544.82	26132.08
544.99	26153.15
545.16	26298.26
545.32	26281.88
545.49	26501.89
545.66	26527.63
545.83	26654.02
546.00	26658.70
546.16	26405.92
546.33	26462.10
546.50	26174.21
546.67	26532.31
546.83	26415.29
547.00	26635.30
547.17	26590.83
547.34	26654.02
547.50	26602.53
547.67	26986.38
547.84	26801.47
548.00	26913.82
548.17	26843.60
548.34	27044.89
548.51	27175.96
548.67	27133.83
548.84	27096.38
549.01	26862.33
549.18	27131.49
549.34	26721.90
549.51	26897.44
549.68	27033.19
549.84	27180.64
550.01	26829.56
550.18	26965.31
550.34	27101.06
550.51	27239.15
550.68	27246.18
550.84	27199.37
551.01	27260.22
551.18	27218.09
551.34	26632.96
551.51	27168.94
551.68	27309.37
551.84	27283.62
552.01	27297.67
552.18	27828.97
552.34	27255.54
552.51	27510.66
552.68	27391.29
552.84	27388.95
553.01	27407.67
553.18	27391.29
553.34	27999.83
553.51	27564.49
553.67	27810.25
553.84	27700.24
554.01	27597.26
554.17	27985.79
554.34	27843.01
554.51	27985.79
554.67	27414.69
554.84	27686.20
555.00	27803.22
555.17	27683.86
555.33	28006.85
555.50	27807.90
555.67	27810.25
555.83	27789.18
556.00	27541.08
556.16	27899.19
556.33	27908.55
556.50	27929.61
556.66	27496.61
556.83	28254.95
556.99	28166.01
557.16	28301.76
557.32	28173.03
557.49	28486.66
557.65	27896.85
557.82	28442.19
557.98	28051.32
558.15	28322.82
558.32	28072.39
558.48	28238.56
558.65	28325.16
558.81	28257.29
558.98	28451.55
559.14	28430.49
559.31	28507.72
559.47	28379.00
559.64	28793.27
559.80	28161.33
559.97	28287.71
560.13	28233.88
560.30	28158.99
560.46	28348.57
560.63	28676.24
560.79	28397.72
560.96	28685.61
561.12	27988.13
561.29	28346.23
561.45	28133.24
561.61	28575.60
561.78	28914.98
561.94	28734.76
562.11	28671.56
562.27	28748.80
562.44	28432.83
562.60	28622.41
562.77	28575.60
562.93	28622.41
563.10	28627.09
563.26	28804.97
563.42	28924.34
563.59	28900.94
563.75	28704.33
563.92	28936.04
564.08	28451.55
564.24	28720.71
564.41	28388.36
564.57	28631.77
564.74	28821.36
564.90	28177.71
565.07	29106.90
565.23	28739.44
565.39	28830.72
565.56	28936.04
565.72	28617.73
565.88	28657.52
566.05	29259.04
566.21	28938.38
566.38	28538.15
566.54	29071.79
566.70	29252.02
566.87	28905.62
567.03	29324.57
567.19	29050.73
567.36	29530.54
567.52	28933.70
567.68	28971.15
567.85	29284.78
568.01	29142.01
568.17	29319.89
568.34	29053.07
568.50	28929.02
568.66	29184.14
568.83	29350.32
568.99	28816.68
569.15	29076.48
569.32	28725.39
569.48	29097.54
569.64	29186.48
569.81	28973.49
569.97	28877.53
570.13	28947.75
570.30	29010.94
570.46	28987.53
570.62	29130.31
570.78	29312.87
570.95	28982.85
571.11	29134.99
571.27	28744.12
571.43	29582.03
571.60	29102.22
571.76	29359.68
571.92	29743.53
572.09	29301.17
572.25	29029.66
572.41	29408.83
572.57	29106.90
572.74	29233.29
572.90	29404.15
573.06	29273.08
573.22	28868.17
573.38	28938.38
573.55	29378.40
573.71	29582.03
573.87	29685.01
574.03	29312.87
574.20	29202.86
574.36	29214.57
574.52	29198.18
574.68	29259.04
574.84	29329.25
575.01	29598.41
575.17	29399.47
575.33	29244.99
575.49	29647.57
575.65	29411.17
575.82	29436.92
575.98	29303.51
576.14	29209.89
576.30	29294.14
576.46	29165.42
576.62	29542.24
576.79	29528.20
576.95	29415.85
577.11	29453.30
577.27	29317.55
577.43	29570.33
577.59	29390.11
577.75	29373.72
577.92	29174.78
578.08	29364.36
578.24	29771.61
578.40	29525.86
578.56	29589.05
578.72	29446.28
578.88	29366.70
579.04	29785.66
579.21	29401.81
579.37	29462.66
579.53	29369.04
579.69	29001.58
579.85	29425.22
580.01	29666.29
580.17	29385.43
580.33	29577.35
580.49	29345.64
580.65	29441.60
580.82	29755.23
580.98	29792.68
581.14	29642.88
581.30	29567.99
581.46	29303.51
581.62	29579.69
581.78	29654.59
581.94	29408.83
582.10	29633.52
582.26	29516.50
582.42	29209.89
582.58	29450.96
582.74	29914.39
582.90	29905.02
583.06	29518.84
583.22	29563.31
583.38	29715.44
583.54	29483.73
583.70	29766.93
583.86	29326.91
584.02	29134.99
584.18	29865.24
584.34	29411.17
584.50	29956.52
584.66	29722.46
584.82	29474.37
584.98	29163.08
585.14	29685.01
585.30	29048.39
585.46	29537.56
585.62	29312.87
585.78	29715.44
585.94	29273.08
586.10	29560.97
586.26	29427.56
586.42	29521.18
586.58	29710.76
586.74	29050.73
586.90	29535.22
587.06	29383.09
587.22	29736.51
587.38	29530.54
587.54	29773.95
587.70	30162.48
587.86	29750.55
588.02	29717.78
588.18	29841.83
588.34	29998.65
588.49	29832.47
588.65	29530.54
588.81	29708.42
588.97	29315.21
589.13	29518.84
589.29	29956.52
589.45	29610.12
589.61	29472.03
589.77	30178.87
589.93	30071.20
590.08	30284.19
590.24	29706.08
590.40	30036.09
590.56	30157.80
590.72	30134.40
590.88	29766.93
591.04	30103.97
591.20	29874.60
591.35	30005.67
591.51	30384.83
591.67	30078.22
591.83	30260.79
591.99	29804.38
