SpectraSuite Data File
++++++++++++++++++++++++++++++++++++
Date: Fri Oct 18 13:58:25 GMT-05:00 2013
User: bianchi
Dark Spectrum Present: No
Reference Spectrum Present: No
Number of Sampled Component Spectra: 1
Spectrometers: USB2+H05261
Integration Time (usec): 50000 (USB2+H05261)
Spectra Averaged: 1 (USB2+H05261)
Boxcar Smoothing: 0 (USB2+H05261)
Correct for Electrical Dark: No (USB2+H05261)
Strobe/Lamp Enabled: No (USB2+H05261)
Correct for Detector Non-linearity: No (USB2+H05261)
Correct for Stray Light: No (USB2+H05261)
Number of Pixels in Processed Spectrum: 2048
>>>>>Begin Processed Spectral Data<<<<<
365.73	0.00
365.92	0.00
366.12	0.00
366.32	0.00
366.52	0.00
366.72	0.00
366.91	0.00
367.11	0.00
367.31	0.00
367.51	0.00
367.70	0.00
367.90	0.00
368.10	0.00
368.30	0.00
368.49	0.00
368.69	0.00
368.89	0.00
369.09	0.00
369.28	0.00
369.48	0.00
369.68	0.00
369.87	0.00
370.07	0.00
370.27	0.00
370.47	25.75
370.66	28.09
370.86	84.26
371.06	105.32
371.25	154.48
371.45	131.07
371.65	145.11
371.84	182.56
372.04	121.71
372.24	168.52
372.44	135.75
372.63	196.60
372.83	191.92
373.03	210.65
373.22	184.90
373.42	180.22
373.62	196.60
373.81	273.84
374.01	180.22
374.21	271.50
374.40	208.31
374.60	203.63
374.79	187.24
374.99	215.33
375.19	217.67
375.38	205.97
375.58	290.23
375.78	187.24
375.97	301.93
376.17	308.95
376.37	208.31
376.56	194.26
376.76	191.92
376.95	278.52
377.15	290.23
377.35	290.23
377.54	224.69
377.74	273.84
377.93	252.78
378.13	224.69
378.33	304.27
378.52	278.52
378.72	271.50
378.91	325.33
379.11	259.80
379.31	313.63
379.50	292.57
379.70	346.40
379.89	365.12
380.09	231.71
380.28	313.63
380.48	297.25
380.68	273.84
380.87	332.36
381.07	376.83
381.26	285.55
381.46	332.36
381.65	264.48
381.85	330.02
382.04	304.27
382.24	344.06
382.43	376.83
382.63	374.49
382.83	299.59
383.02	381.51
383.22	411.93
383.41	311.29
383.61	383.85
383.80	367.46
384.00	379.17
384.19	355.76
384.39	397.89
384.58	330.02
384.78	381.51
384.97	325.33
385.17	346.40
385.36	390.87
385.56	386.19
385.75	355.76
385.95	430.66
386.14	381.51
386.34	365.12
386.53	351.08
386.72	374.49
386.92	430.66
387.11	425.98
387.31	395.55
387.50	418.96
387.70	451.72
387.89	416.62
388.09	367.46
388.28	479.81
388.48	386.19
388.67	479.81
388.86	442.36
389.06	416.62
389.25	414.27
389.45	425.98
389.64	414.27
389.84	482.15
390.03	437.68
390.22	461.09
390.42	454.06
390.61	524.28
390.81	423.64
391.00	479.81
391.19	526.62
391.39	547.69
391.58	540.66
391.78	526.62
391.97	500.87
392.16	482.15
392.36	540.66
392.55	528.96
392.75	496.19
392.94	557.05
393.13	582.79
393.33	538.32
393.52	540.66
393.71	547.69
393.91	650.67
394.10	578.11
394.29	557.05
394.49	550.03
394.68	521.94
394.88	538.32
395.07	585.13
395.26	599.18
395.46	655.35
395.65	627.26
395.84	606.20
396.04	648.33
396.23	517.26
396.42	692.80
396.62	603.86
396.81	613.22
397.00	669.39
397.19	655.35
397.39	751.31
397.58	819.19
397.77	662.37
397.97	678.76
398.16	692.80
398.35	713.86
398.55	781.74
398.74	751.31
398.93	608.54
399.12	676.41
399.32	760.67
399.51	657.69
399.70	763.01
399.90	739.61
400.09	798.12
400.28	812.17
400.47	753.65
400.67	748.97
400.86	795.78
401.05	791.10
401.24	770.04
401.44	746.63
401.63	814.51
401.82	805.14
402.01	812.17
402.21	765.36
402.40	741.95
402.59	896.43
402.78	837.91
402.97	765.36
403.17	823.87
403.36	823.87
403.55	784.08
403.74	912.81
403.93	877.70
404.13	929.19
404.32	868.34
404.51	940.90
404.70	938.55
404.89	966.64
405.09	908.13
405.28	875.36
405.47	887.06
405.66	1001.75
405.85	875.36
406.05	896.43
406.24	926.85
406.43	940.90
406.62	994.73
406.81	1160.91
407.00	994.73
407.20	994.73
407.39	1071.97
407.58	994.73
407.77	929.19
407.96	1069.62
408.15	1036.86
408.34	1132.82
408.54	1053.24
408.73	1020.47
408.92	1172.61
409.11	1170.27
409.30	1149.20
409.49	1125.80
409.68	1132.82
409.87	1123.46
410.07	1165.59
410.26	1121.12
410.45	1111.75
410.64	1165.59
410.83	1240.48
411.02	1191.33
411.21	1228.78
411.40	1226.44
411.59	1221.76
411.78	1191.33
411.98	1294.32
412.17	1284.95
412.36	1266.23
412.55	1357.51
412.74	1350.49
412.93	1317.72
413.12	1179.63
413.31	1453.47
413.50	1345.81
413.69	1418.36
413.88	1479.22
414.07	1497.94
414.26	1437.09
414.45	1497.94
414.64	1467.52
414.83	1563.48
415.02	1350.49
415.22	1465.18
415.41	1540.07
415.60	1570.50
415.79	1561.14
415.98	1577.52
416.17	1547.09
416.36	1610.29
416.55	1638.38
416.74	1633.69
416.93	1591.56
417.12	1760.08
417.31	1603.27
417.50	1638.38
417.69	1682.85
417.88	1652.42
418.07	1739.02
418.26	1746.04
418.45	1675.82
418.64	1717.95
418.83	1806.89
419.02	1769.44
419.21	1736.68
419.39	1799.87
419.58	1739.02
419.77	1802.21
419.96	1825.62
420.15	1860.73
420.34	1837.32
420.53	1928.60
420.72	1891.15
420.91	1926.26
421.10	1973.07
421.29	1916.90
421.48	2026.90
421.67	1921.58
421.86	1895.83
422.05	1881.79
422.24	1914.56
422.43	1954.35
422.61	1952.01
422.80	2099.46
422.99	1980.09
423.18	2076.06
423.37	1952.01
423.56	1968.39
423.75	2005.84
423.94	1982.43
424.13	1856.04
424.32	1891.15
424.50	2134.57
424.69	2085.42
424.88	2134.57
425.07	1994.14
425.26	2001.16
425.45	1994.14
425.64	2012.86
425.83	2062.01
426.01	2188.40
426.20	2078.40
426.39	2026.90
426.58	2019.88
426.77	2057.33
426.96	2033.93
427.15	1940.30
427.33	2029.24
427.52	2076.06
427.71	2104.14
427.90	2202.44
428.09	2104.14
428.28	2172.02
428.46	2043.29
428.65	2167.34
428.84	2214.15
429.03	2307.77
429.22	2197.76
429.40	2204.78
429.59	2282.02
429.78	2136.91
429.97	2179.04
430.16	2279.68
430.34	2324.15
430.53	2277.34
430.72	2228.19
430.91	2413.09
431.10	2307.77
431.28	2310.11
431.47	2291.38
431.66	2338.20
431.85	2291.38
432.03	2392.03
432.22	2452.88
432.41	2541.82
432.60	2373.30
432.79	2396.71
432.97	2373.30
433.16	2476.29
433.35	2502.03
433.54	2558.21
433.72	2392.03
433.91	2520.76
434.10	2558.21
434.28	2471.61
434.47	2567.57
434.66	2619.06
434.85	2520.76
435.03	2700.98
435.22	2588.63
435.41	2684.59
435.59	2715.02
435.78	2567.57
435.97	2600.34
436.16	2654.17
436.34	2696.30
436.53	2597.99
436.72	2708.00
436.90	2628.42
437.09	2698.64
437.28	2588.63
437.46	2654.17
437.65	2647.15
437.84	2843.75
438.02	2754.81
438.21	2752.47
438.40	2796.94
438.58	2794.60
438.77	2813.32
438.96	2911.63
439.14	2857.79
439.33	2857.79
439.52	2963.12
439.70	2977.16
439.89	2988.86
440.08	3077.80
440.26	3023.97
440.45	3070.78
440.63	2956.10
440.82	3070.78
441.01	3066.10
441.19	3098.87
441.38	3225.26
441.57	3138.66
441.75	3241.64
441.94	3325.90
442.12	3325.90
442.31	3375.05
442.50	3206.53
442.68	3297.81
442.87	3323.56
443.05	3328.24
443.24	3389.10
443.43	3342.28
443.61	3403.14
443.80	3246.32
443.98	3304.84
444.17	3035.67
444.35	3365.69
444.54	3440.59
444.73	3318.88
444.91	3407.82
445.10	3318.88
445.28	3508.46
445.47	3431.23
445.65	3330.58
445.84	3424.20
446.02	3557.61
446.21	3405.48
446.39	3461.65
446.58	3471.01
446.77	3520.17
446.95	3468.67
447.14	3459.31
447.32	3595.06
447.51	3431.23
447.69	3522.51
447.88	3361.01
448.06	3372.71
448.25	3480.38
448.43	3426.54
448.62	3442.93
448.80	3503.78
448.99	3644.21
449.17	3473.36
449.36	3501.44
449.54	3604.42
449.73	3616.13
449.91	3693.37
450.10	3597.40
450.28	3709.75
450.46	3618.47
450.65	3506.12
450.83	3871.25
451.02	3803.37
451.20	3782.31
451.39	3852.52
451.57	3749.54
451.76	3796.35
451.94	3815.07
452.13	3833.80
452.31	3768.26
452.49	3658.26
452.68	3922.74
452.86	3751.88
453.05	3829.12
453.23	3913.38
453.42	3889.97
453.60	3747.20
453.78	3990.61
453.97	3885.29
454.15	3857.20
454.34	3894.65
454.52	3950.82
454.70	3896.99
454.89	4053.81
455.07	4081.89
455.26	3964.87
455.44	4091.26
455.62	4046.79
455.81	4067.85
455.99	4142.75
456.17	3992.95
456.36	4070.19
456.54	4166.15
456.73	4264.46
456.91	4250.41
457.09	4400.21
457.28	4465.74
457.46	4156.79
457.64	4470.42
457.83	4227.01
458.01	4222.33
458.19	4360.42
458.38	4278.50
458.56	4367.44
458.74	4393.19
458.93	4477.44
459.11	4400.21
459.29	4308.93
459.48	4245.73
459.66	4411.91
459.84	4367.44
460.03	4540.64
460.21	4535.96
460.39	4533.62
460.57	4496.17
460.76	4594.47
460.94	4592.13
461.12	4552.34
461.31	4564.04
461.49	4636.60
461.67	4652.98
461.85	4627.24
462.04	4662.35
462.22	4844.91
462.40	4816.82
462.59	4681.07
462.77	4603.83
462.95	4603.83
463.13	4702.14
463.32	4784.06
463.50	4830.87
463.68	4760.65
463.86	4795.76
464.05	4648.30
464.23	4812.14
464.41	4997.04
464.59	4830.87
464.78	4823.84
464.96	4873.00
465.14	4800.44
465.32	4961.94
465.50	4896.40
465.69	5020.45
465.87	4968.96
466.05	5025.13
466.23	4912.78
466.41	4929.17
466.60	5041.51
466.78	4957.25
466.96	5001.72
467.14	4983.00
467.32	5029.81
467.51	5064.92
467.69	5121.09
467.87	5128.11
468.05	4959.60
468.23	5048.54
468.41	5165.56
468.60	5055.56
468.78	5280.25
468.96	5177.26
469.14	5256.84
469.32	5313.02
469.50	5102.37
469.69	5322.38
469.87	5406.64
470.05	5392.59
470.23	5287.27
470.41	5207.69
470.59	5472.17
470.77	5593.88
470.95	5563.45
471.14	5472.17
471.32	5476.85
471.50	5495.58
471.68	5453.45
471.86	5685.16
472.04	5701.54
472.22	5666.44
472.40	5500.26
472.58	5720.27
472.77	5689.84
472.95	5888.79
473.13	6015.18
473.31	5544.73
473.49	5823.25
473.67	5900.49
473.85	5916.87
474.03	5874.74
474.21	5954.32
474.39	6183.70
474.57	6066.67
474.75	6179.01
474.93	6069.01
475.12	6094.76
475.30	6195.40
475.48	6146.25
475.66	6242.21
475.84	6157.95
476.02	6167.31
476.20	6363.92
476.38	6422.43
476.56	6551.16
476.74	6635.42
476.92	6473.92
477.10	6537.12
477.28	6656.48
477.46	6628.40
477.64	6410.73
477.82	6626.06
478.00	6867.13
478.18	7021.61
478.36	6958.41
478.54	6668.19
478.72	6923.30
478.90	7059.06
479.08	7119.91
479.26	7082.46
479.44	7171.40
479.62	7169.06
479.80	7445.24
479.98	7489.71
480.16	7473.33
480.34	7288.43
480.52	7503.76
480.70	7747.17
480.88	7564.61
481.06	7637.17
481.24	7683.98
481.41	7662.91
481.59	7906.33
481.77	7810.37
481.95	8053.78
482.13	8011.65
482.31	7999.95
482.49	8184.85
482.67	8313.58
482.85	8154.43
483.03	8505.51
483.21	8470.40
483.39	8664.66
483.57	8442.31
483.74	8713.81
483.92	8774.67
484.10	8753.60
484.28	8697.43
484.46	8985.32
484.64	8992.34
484.82	8898.72
485.00	9144.47
485.18	9296.61
485.35	9327.03
485.53	9231.07
485.71	9338.74
485.89	9509.60
486.07	9516.62
486.25	9390.23
486.43	9479.17
486.61	9689.82
486.78	9848.97
486.96	10087.71
487.14	9966.00
487.32	9846.63
487.50	9874.72
487.68	10059.62
487.85	10286.65
488.03	10296.02
488.21	10370.91
488.39	10420.06
488.57	10548.79
488.75	10588.58
488.92	10853.06
489.10	10972.43
489.28	10960.73
489.46	10794.55
489.64	11091.80
489.81	11166.70
489.99	11349.26
490.17	10974.77
490.35	11438.20
490.53	11288.40
490.70	11681.61
490.88	11604.38
491.06	11686.29
491.24	11590.33
491.41	11758.85
491.59	11859.49
491.77	11929.71
491.95	12142.70
492.13	12067.80
492.30	12269.09
492.48	12306.54
492.66	12217.60
492.84	12243.34
493.01	12564.00
493.19	12477.40
493.37	12676.34
493.54	12428.24
493.72	12610.81
493.90	12814.43
494.08	12837.84
494.25	12996.99
494.43	13085.94
494.61	13261.48
494.79	13060.19
494.96	12961.89
495.14	13341.05
495.32	13551.70
495.49	13495.53
495.67	13633.62
495.85	13544.68
496.02	13785.76
496.20	13783.41
496.38	14015.13
496.55	13806.82
496.73	14183.65
496.91	13905.12
497.09	14169.60
497.26	14284.29
497.44	14178.97
497.62	14235.14
497.79	14354.51
497.97	14349.82
498.14	14579.20
498.32	14714.95
498.50	14885.81
498.67	14810.91
498.85	14972.41
499.03	14740.69
499.20	14857.72
499.38	14895.17
499.56	15225.18
499.73	15374.98
499.91	15140.93
500.08	15463.92
500.26	15283.70
500.44	15250.93
500.61	15494.35
500.79	15697.97
500.97	15208.80
501.14	15520.09
501.32	15604.35
501.49	15754.15
501.67	15749.46
501.84	15662.86
502.02	15917.98
502.20	15913.30
502.37	15985.86
502.55	16051.39
502.72	15917.98
502.90	16135.65
503.07	15964.79
503.25	16137.99
503.43	16262.04
503.60	16248.00
503.78	16418.86
503.95	16460.99
504.13	16648.23
504.30	16638.87
504.48	16465.67
504.65	16692.70
504.83	16573.33
505.01	17081.23
505.18	17172.51
505.36	17109.32
505.53	16711.42
505.71	16709.08
505.88	16947.82
506.06	16922.07
506.23	17050.80
506.41	16982.93
506.58	17231.02
506.76	17270.81
506.93	17308.26
507.11	17254.43
507.28	17139.74
507.46	17170.17
507.63	17582.10
507.81	17537.63
507.98	17687.43
508.16	17565.72
508.33	17661.68
508.50	17860.63
508.68	17582.10
508.85	18185.96
509.03	18017.44
509.20	18073.62
509.38	18317.03
509.55	18150.85
509.73	18181.28
509.90	18214.05
510.08	18136.81
510.25	18200.01
510.42	18527.68
510.60	18312.35
510.77	18471.51
510.95	18583.85
511.12	18614.28
511.30	18633.00
511.47	18773.44
511.64	18735.99
511.82	19080.05
511.99	18920.89
512.17	18934.93
512.34	18965.36
512.51	18817.91
512.69	19063.66
512.86	19061.32
513.04	19300.06
513.21	19634.75
513.38	19140.90
513.56	19728.38
513.73	19332.82
513.90	19183.03
514.08	19349.21
514.25	19250.91
514.43	19508.37
514.60	19454.53
514.77	19468.58
514.95	19908.60
515.12	19627.73
515.29	19452.19
515.47	19796.25
515.64	19887.53
515.81	19871.15
515.99	20144.99
516.16	20037.33
516.33	20177.76
516.51	20222.23
516.68	19941.36
516.85	20105.20
517.03	20262.02
517.20	20411.81
517.37	20278.40
517.54	20159.03
517.72	20404.79
517.89	20386.07
518.06	20470.33
518.24	20535.86
518.41	20552.24
518.58	20706.72
518.75	20765.23
518.93	20814.38
519.10	20702.04
519.27	20638.84
519.45	20753.53
519.62	20798.00
519.79	20760.55
519.96	21125.68
520.14	21275.47
520.31	20760.55
520.48	21252.06
520.65	21184.19
520.83	21326.96
521.00	21144.40
521.17	21362.07
521.34	21064.82
521.52	21378.45
521.69	21530.59
521.86	21493.14
522.03	21689.74
522.20	22031.46
522.38	21514.20
522.55	21703.79
522.72	21600.80
522.89	21619.53
523.07	21961.25
523.24	21766.98
523.41	21724.85
523.58	21926.14
523.75	22050.19
523.92	21579.74
524.10	21874.65
524.27	22097.00
524.44	22115.72
524.61	22579.15
524.78	22174.24
524.96	22043.17
525.13	22197.64
525.30	22253.81
525.47	22600.21
525.64	22412.97
525.81	22361.48
525.98	22569.79
526.16	22679.79
526.33	22389.56
526.50	22827.24
526.67	22494.89
526.84	22483.19
527.01	22703.20
527.18	22574.47
527.36	22834.27
527.53	22831.93
527.70	22970.02
527.87	23183.01
528.04	23040.23
528.21	23133.86
528.38	22647.02
528.55	23103.43
528.72	23040.23
528.89	23281.31
529.07	23386.63
529.24	23124.49
529.41	23019.17
529.58	23082.36
529.75	23126.83
529.92	23456.85
530.09	23103.43
530.26	23344.50
530.43	23480.25
530.60	23662.82
530.77	23683.88
530.94	23730.69
531.11	23616.01
531.28	23316.42
531.46	23821.97
531.63	23396.00
531.80	23709.63
531.97	24114.54
532.14	24114.54
532.31	23608.98
532.48	23971.77
532.65	23627.71
532.82	23779.84
532.99	24058.37
533.16	23693.24
533.33	24395.40
533.50	24074.75
533.67	24292.42
533.84	24121.56
534.01	24114.54
534.18	23864.10
534.35	24102.84
534.52	24210.50
534.69	24332.21
534.86	24900.96
535.03	24299.44
535.20	24577.97
535.37	24755.85
535.54	24472.64
535.71	24587.33
535.88	24507.75
536.05	24528.81
536.22	24496.05
536.38	24388.38
536.55	24809.68
536.72	25165.44
536.89	24599.03
537.06	24404.77
537.23	25142.03
537.40	24905.64
537.57	24615.41
537.74	24802.66
537.91	25238.00
538.08	25013.31
538.25	25127.99
538.42	25097.56
538.59	24868.19
538.75	25116.29
538.92	24886.92
539.09	25039.05
539.26	25088.20
539.43	25331.62
539.60	25102.25
539.77	24819.04
539.94	25153.74
540.11	25123.31
540.28	25184.16
540.44	25481.41
540.61	25202.89
540.78	25469.71
540.95	25568.01
541.12	25488.43
541.29	25542.27
541.46	25507.16
541.62	25181.82
541.79	25570.35
541.96	25387.79
542.13	25837.17
542.30	25582.06
542.47	25883.98
542.63	25743.55
542.80	25813.77
542.97	26370.82
543.14	25926.11
543.31	26363.79
543.48	25680.36
543.64	26059.52
543.81	26260.81
543.98	26401.24
544.15	26206.98
544.32	26211.66
544.48	26647.00
544.65	26089.95
544.82	26005.69
544.99	25937.82
545.16	26370.82
545.32	26309.96
545.49	26534.65
545.66	26492.52
545.83	26122.72
546.00	26703.17
546.16	26527.63
546.33	26316.98
546.50	26565.08
546.67	26595.51
546.83	26242.09
547.00	26527.63
547.17	26544.02
547.34	26885.73
547.50	26988.72
547.67	26965.31
547.84	26859.99
548.00	27122.13
548.17	26766.37
548.34	26782.75
548.51	27042.55
548.67	27358.52
548.84	27166.60
549.01	27014.46
549.18	27278.94
549.34	27035.53
549.51	26845.94
549.68	27049.57
549.84	26955.95
550.01	27145.53
550.18	26920.84
550.34	27152.55
550.51	27468.53
550.68	27419.38
550.84	26948.93
551.01	26920.84
551.18	27152.55
551.34	26998.08
551.51	27185.32
551.68	27143.19
551.84	27482.57
552.01	27236.81
552.18	26965.31
552.34	27026.17
552.51	27297.67
552.68	27248.52
552.84	27552.79
553.01	27604.28
553.18	27302.35
553.34	27789.18
553.51	27421.72
553.67	27704.92
553.84	27936.63
554.01	27524.70
554.17	27828.97
554.34	27962.38
554.51	27515.34
554.67	27428.74
554.84	27641.73
555.00	27470.87
555.17	27527.04
555.33	27749.39
555.50	27707.26
555.67	27758.75
555.83	27723.65
556.00	27978.76
556.16	28229.20
556.33	27828.97
556.50	28252.61
556.66	28102.81
556.83	28130.90
556.99	28011.53
557.16	28161.33
557.32	28383.68
557.49	28222.18
557.65	27786.84
557.82	27782.16
557.98	28180.05
558.15	27817.27
558.32	28306.44
558.48	27955.36
558.65	28446.87
558.81	28367.29
558.98	28285.37
559.14	27992.81
559.31	28261.97
559.47	28140.26
559.64	28444.53
559.80	28493.68
559.97	28709.01
560.13	28364.95
560.30	28273.67
560.46	28500.70
560.63	28273.67
560.79	28322.82
560.96	28374.31
561.12	28563.90
561.29	28189.41
561.45	28650.50
561.61	28472.62
561.78	28601.35
561.94	28493.68
562.11	28875.19
562.27	28599.01
562.44	28472.62
562.60	28636.45
562.77	28416.44
562.93	28453.89
563.10	28748.80
563.26	28652.84
563.42	29130.31
563.59	28442.19
563.75	28781.57
563.92	28432.83
564.08	28811.99
564.24	28748.80
564.41	28622.41
564.57	28442.19
564.74	28664.54
564.90	28727.74
565.07	28809.65
565.23	29095.20
565.39	28720.71
565.56	29069.45
565.72	28753.48
565.88	28664.54
566.05	28526.45
566.21	28833.06
566.38	29062.43
566.54	28957.11
566.70	29013.28
566.87	29247.33
567.03	29160.73
567.19	29532.88
567.36	29029.66
567.52	28727.74
567.68	28863.49
567.85	28725.39
568.01	29060.09
568.17	28814.34
568.34	29209.89
568.50	29200.52
568.66	29046.05
568.83	29048.39
568.99	29326.91
569.15	28957.11
569.32	28847.10
569.48	28931.36
569.64	29502.45
569.81	29612.46
569.97	29179.46
570.13	29291.80
570.30	28826.04
570.46	29317.55
570.62	29184.14
570.78	29109.24
570.95	28690.29
571.11	29249.67
571.27	28716.03
571.43	29254.36
571.60	29008.60
571.76	29207.55
571.92	29371.38
572.09	29610.12
572.25	29247.33
572.41	29343.30
572.57	29378.40
572.74	29390.11
572.90	29120.95
573.06	29177.12
573.22	29535.22
573.38	29298.83
573.55	29027.32
573.71	29514.16
573.87	29549.26
574.03	29476.71
574.20	29305.85
574.36	29134.99
574.52	29291.80
574.68	29275.42
574.84	29317.55
575.01	28987.53
575.17	29198.18
575.33	29289.46
575.49	29235.63
575.65	28987.53
575.82	29757.57
575.98	29502.45
576.14	29453.30
576.30	29675.65
576.46	29415.85
576.62	29149.03
576.79	29530.54
576.95	29165.42
577.11	29076.48
577.27	29326.91
577.43	29551.60
577.59	29560.97
577.75	29773.95
577.92	29317.55
578.08	29205.20
578.24	29542.24
578.40	29736.51
578.56	29275.42
578.72	29397.13
578.88	29530.54
579.04	29832.47
579.21	29092.86
579.37	29439.26
579.53	29385.43
579.69	29146.69
579.85	29493.09
580.01	29418.19
580.17	29134.99
580.33	29289.46
580.49	29776.30
580.65	29713.10
580.82	29624.16
580.98	29457.98
581.14	29687.36
581.30	29448.62
581.46	29867.58
581.62	29558.63
581.78	29163.08
581.94	29661.61
582.10	29284.78
582.26	29434.58
582.42	29715.44
582.58	29776.30
582.74	29556.28
582.90	29603.10
583.06	29617.14
583.22	29495.43
583.38	29647.57
583.54	29649.91
583.70	29635.86
583.86	29649.91
584.02	29450.96
584.18	29579.69
584.34	29748.21
584.50	29406.49
584.66	29579.69
584.82	29532.88
584.98	29441.60
585.14	29326.91
585.30	29418.19
585.46	29563.31
585.62	29488.41
585.78	29626.50
585.94	29291.80
586.10	29750.55
586.26	29762.25
586.42	29982.26
586.58	29596.07
586.74	29584.37
586.90	29294.14
587.06	29727.14
587.22	30033.75
587.38	29132.65
587.54	29825.45
587.70	29890.98
587.86	29977.58
588.02	29743.53
588.18	30279.51
588.34	29890.98
588.49	29486.07
588.65	29764.59
588.81	29823.11
588.97	29692.04
589.13	29656.93
589.29	29371.38
589.45	29846.51
589.61	29977.58
589.77	29986.94
589.93	30284.19
590.08	30096.95
590.24	29991.62
590.40	29914.39
590.56	29949.50
590.72	29443.94
590.88	29755.23
591.04	29961.20
591.20	30445.69
591.35	29942.47
591.51	30672.72
591.67	30162.48
591.83	30199.93
591.99	29979.92
