SpectraSuite Data File
++++++++++++++++++++++++++++++++++++
Date: Fri Oct 18 13:58:18 GMT-05:00 2013
User: bianchi
Dark Spectrum Present: No
Reference Spectrum Present: No
Number of Sampled Component Spectra: 1
Spectrometers: USB2+H05261
Integration Time (usec): 50000 (USB2+H05261)
Spectra Averaged: 1 (USB2+H05261)
Boxcar Smoothing: 0 (USB2+H05261)
Correct for Electrical Dark: No (USB2+H05261)
Strobe/Lamp Enabled: No (USB2+H05261)
Correct for Detector Non-linearity: No (USB2+H05261)
Correct for Stray Light: No (USB2+H05261)
Number of Pixels in Processed Spectrum: 2048
>>>>>Begin Processed Spectral Data<<<<<
365.73	0.00
365.92	0.00
366.12	0.00
366.32	0.00
366.52	0.00
366.72	0.00
366.91	0.00
367.11	0.00
367.31	0.00
367.51	0.00
367.70	0.00
367.90	0.00
368.10	0.00
368.30	0.00
368.49	0.00
368.69	0.00
368.89	0.00
369.09	0.00
369.28	0.00
369.48	0.00
369.68	0.00
369.87	0.00
370.07	0.00
370.27	0.00
370.47	0.00
370.66	0.00
370.86	124.05
371.06	175.54
371.25	159.16
371.45	166.18
371.65	121.71
371.84	65.54
372.04	203.63
372.24	168.52
372.44	212.99
372.63	124.05
372.83	147.45
373.03	198.95
373.22	187.24
373.42	168.52
373.62	224.69
373.81	243.42
374.01	191.92
374.21	201.29
374.40	182.56
374.60	210.65
374.79	224.69
374.99	217.67
375.19	266.82
375.38	238.73
375.58	215.33
375.78	271.50
375.97	262.14
376.17	292.57
376.37	194.26
376.56	294.91
376.76	273.84
376.95	280.86
377.15	182.56
377.35	311.29
377.54	306.61
377.74	283.20
377.93	269.16
378.13	280.86
378.33	264.48
378.52	187.24
378.72	276.18
378.91	322.99
379.11	304.27
379.31	334.70
379.50	287.89
379.70	327.68
379.89	259.80
380.09	241.08
380.28	315.97
380.48	294.91
380.68	266.82
380.87	248.10
381.07	402.57
381.26	379.17
381.46	308.95
381.65	330.02
381.85	341.72
382.04	292.57
382.24	346.40
382.43	327.68
382.63	311.29
382.83	386.19
383.02	353.42
383.22	346.40
383.41	355.76
383.61	315.97
383.80	381.51
384.00	376.83
384.19	362.78
384.39	402.57
384.58	351.08
384.78	372.15
384.97	311.29
385.17	381.51
385.36	393.21
385.56	339.38
385.75	355.76
385.95	454.06
386.14	404.91
386.34	479.81
386.53	395.55
386.72	367.46
386.92	395.55
387.11	433.00
387.31	386.19
387.50	351.08
387.70	386.19
387.89	332.36
388.09	409.59
388.28	456.40
388.48	472.79
388.67	440.02
388.86	425.98
389.06	486.83
389.25	421.30
389.45	477.47
389.64	472.79
389.84	543.00
390.03	524.28
390.22	470.45
390.42	489.17
390.61	477.47
390.81	528.96
391.00	465.77
391.19	505.56
391.39	533.64
391.58	535.98
391.78	519.60
391.97	589.82
392.16	533.64
392.36	477.47
392.55	585.13
392.75	491.51
392.94	524.28
393.13	449.38
393.33	479.81
393.52	566.41
393.71	596.84
393.91	620.24
394.10	468.11
394.29	552.37
394.49	610.88
394.68	622.58
394.88	533.64
395.07	702.16
395.26	624.92
395.46	650.67
395.65	585.13
395.84	620.24
396.04	674.07
396.23	634.29
396.42	592.16
396.62	636.63
396.81	650.67
397.00	610.88
397.19	615.56
397.39	744.29
397.58	613.22
397.77	660.03
397.97	702.16
398.16	660.03
398.35	706.84
398.55	650.67
398.74	704.50
398.93	706.84
399.12	667.05
399.32	671.73
399.51	634.29
399.70	760.67
399.90	786.42
400.09	711.52
400.28	702.16
400.47	767.70
400.67	828.55
400.86	706.84
401.05	816.85
401.24	734.93
401.44	844.93
401.63	781.74
401.82	767.70
402.01	746.63
402.21	828.55
402.40	856.64
402.59	877.70
402.78	793.44
402.97	851.96
403.17	882.38
403.36	856.64
403.55	868.34
403.74	926.85
403.93	887.06
404.13	875.36
404.32	870.68
404.51	856.64
404.70	905.79
404.89	973.66
405.09	1004.09
405.28	933.87
405.47	905.79
405.66	966.64
405.85	1043.88
406.05	973.66
406.24	922.17
406.43	884.72
406.62	971.32
406.81	1069.62
407.00	1118.78
407.20	987.71
407.39	985.37
407.58	987.71
407.77	1004.09
407.96	1130.48
408.15	1097.71
408.34	1046.22
408.54	1114.10
408.73	1078.99
408.92	1048.56
409.11	1172.61
409.30	1111.75
409.49	1172.61
409.68	1184.31
409.87	1135.16
410.07	1109.41
410.26	1207.72
410.45	1142.18
410.64	1217.08
410.83	1224.10
411.02	1151.54
411.21	1212.40
411.40	1149.20
411.59	1263.89
411.78	1242.82
411.98	1280.27
412.17	1313.04
412.36	1252.19
412.55	1256.87
412.74	1369.21
412.93	1331.76
413.12	1263.89
413.31	1341.13
413.50	1329.42
413.69	1411.34
413.88	1425.39
414.07	1490.92
414.26	1479.22
414.45	1486.24
414.64	1453.47
414.83	1547.09
415.02	1467.52
415.22	1490.92
415.41	1554.12
415.60	1593.90
415.79	1579.86
415.98	1528.37
416.17	1540.07
416.36	1568.16
416.55	1591.56
416.74	1724.97
416.93	1535.39
417.12	1647.74
417.31	1657.10
417.50	1781.15
417.69	1673.48
417.88	1816.26
418.07	1809.23
418.26	1703.91
418.45	1736.68
418.64	1774.13
418.83	1809.23
419.02	1764.76
419.21	1860.73
419.39	1825.62
419.58	1652.42
419.77	1774.13
419.96	1830.30
420.15	1832.64
420.34	1818.60
420.53	1818.60
420.72	1912.22
420.91	1912.22
421.10	1907.54
421.29	1998.82
421.48	2045.63
421.67	1977.75
421.86	1933.28
422.05	1987.11
422.24	1912.22
422.43	1912.22
422.61	1975.41
422.80	2022.22
422.99	2047.97
423.18	2052.65
423.37	2026.90
423.56	1973.07
423.75	1888.81
423.94	1947.33
424.13	1935.62
424.32	1895.83
424.50	2113.50
424.69	1987.11
424.88	2139.25
425.07	2024.56
425.26	1961.37
425.45	2062.01
425.64	2031.58
425.83	2090.10
426.01	2111.16
426.20	2031.58
426.39	2008.18
426.58	1963.71
426.77	2087.76
426.96	2106.48
427.15	2118.18
427.33	2132.23
427.52	1989.46
427.71	2204.78
427.90	2179.04
428.09	2104.14
428.28	2146.27
428.46	2202.44
428.65	2324.15
428.84	2221.17
429.03	2146.27
429.22	2207.13
429.40	2188.40
429.59	2249.25
429.78	2188.40
429.97	2146.27
430.16	2242.23
430.34	2230.53
430.53	2312.45
430.72	2321.81
430.91	2209.47
431.10	2272.66
431.28	2328.83
431.47	2394.37
431.66	2377.98
431.85	2349.90
432.03	2429.48
432.22	2385.01
432.41	2506.71
432.60	2427.14
432.79	2422.45
432.97	2537.14
433.16	2480.97
433.35	2429.48
433.54	2471.61
433.72	2403.73
433.91	2473.95
434.10	2443.52
434.28	2492.67
434.47	2539.48
434.66	2579.27
434.85	2588.63
435.03	2616.72
435.22	2490.33
435.41	2647.15
435.59	2677.57
435.78	2579.27
435.97	2700.98
436.16	2738.43
436.34	2677.57
436.53	2672.89
436.72	2679.91
436.90	2530.12
437.09	2551.18
437.28	2579.27
437.46	2743.11
437.65	2715.02
437.84	2836.73
438.02	2890.56
438.21	2862.48
438.40	2780.56
438.58	2778.22
438.77	2906.95
438.96	2712.68
439.14	2850.77
439.33	2942.05
439.52	3000.57
439.70	2855.45
439.89	2876.52
440.08	3014.61
440.26	3178.45
440.45	2920.99
440.63	3087.17
440.82	3204.19
441.01	3148.02
441.19	3131.64
441.38	3145.68
441.57	3075.46
441.75	3119.93
441.94	3208.87
442.12	3269.73
442.31	3316.54
442.50	3262.71
442.68	3262.71
442.87	3368.03
443.05	3316.54
443.24	3325.90
443.43	3353.99
443.61	3482.72
443.80	3487.40
443.98	3379.73
444.17	3208.87
444.35	3323.56
444.54	3494.42
444.73	3480.38
444.91	3386.76
445.10	3330.58
445.28	3300.16
445.47	3337.60
445.65	3417.18
445.84	3517.83
446.02	3499.10
446.21	3386.76
446.39	3478.04
446.58	3564.64
446.77	3592.72
446.95	3396.12
447.14	3508.46
447.32	3590.38
447.51	3496.76
447.69	3506.12
447.88	3499.10
448.06	3522.51
448.25	3454.63
448.43	3604.42
448.62	3482.72
448.80	3569.32
448.99	3630.17
449.17	3740.18
449.36	3534.21
449.54	3721.45
449.73	3581.02
449.91	3700.39
450.10	3637.19
450.28	3698.05
450.46	3747.20
450.65	3782.31
450.83	3735.50
451.02	3665.28
451.20	3786.99
451.39	3733.15
451.57	3765.92
451.76	3660.60
451.94	3786.99
452.13	3728.47
452.31	3801.03
452.49	3885.29
452.68	3817.41
452.86	3826.78
453.05	3880.61
453.23	3976.57
453.42	3892.31
453.60	3840.82
453.78	4011.68
453.97	3709.75
454.15	3976.57
454.34	3946.14
454.52	3974.23
454.70	4032.74
454.89	4152.11
455.07	4072.53
455.26	4086.58
455.44	4166.15
455.62	4098.28
455.81	3981.25
455.99	4095.94
456.17	4032.74
456.36	4093.60
456.54	4149.77
456.73	4278.50
456.91	4404.89
457.09	4234.03
457.28	4390.84
457.46	4308.93
457.64	4369.78
457.83	4212.96
458.01	4264.46
458.19	4306.59
458.38	4327.65
458.56	4535.96
458.74	4545.32
458.93	4559.36
459.11	4440.00
459.29	4360.42
459.48	4301.90
459.66	4496.17
459.84	4648.30
460.03	4550.00
460.21	4400.21
460.39	4624.90
460.57	4533.62
460.76	4723.20
460.94	4596.81
461.12	4795.76
461.31	4610.86
461.49	4465.74
461.67	4638.94
461.85	4697.46
462.04	4557.02
462.22	5006.41
462.40	4603.83
462.59	4683.41
462.77	4781.71
462.95	4692.77
463.13	4641.28
463.32	4648.30
463.50	4800.44
463.68	4723.20
463.86	4751.29
464.05	4695.11
464.23	4905.76
464.41	4912.78
464.59	4795.76
464.78	5053.22
464.96	4954.91
465.14	4912.78
465.32	4983.00
465.50	5057.90
465.69	4968.96
465.87	5128.11
466.05	5048.54
466.23	4943.21
466.41	5036.83
466.60	5093.01
466.78	5064.92
466.96	5100.03
467.14	5090.67
467.32	5195.99
467.51	5219.39
467.69	4990.02
467.87	5100.03
468.05	5083.64
468.23	5165.56
468.41	5081.30
468.60	5090.67
468.78	5266.21
468.96	5177.26
469.14	5270.89
469.32	5280.25
469.50	5177.26
469.69	5259.18
469.87	5481.53
470.05	5387.91
470.23	5437.06
470.41	5277.91
470.59	5640.69
470.77	5462.81
470.95	5465.15
471.14	5575.16
471.32	5390.25
471.50	5694.52
471.68	5572.82
471.86	5558.77
472.04	5696.86
472.22	5795.17
472.40	5607.92
472.58	5769.42
472.77	5638.35
472.95	5792.83
473.13	6024.54
473.31	5753.04
473.49	5799.85
473.67	6012.84
473.85	5902.83
474.03	5867.72
474.21	6104.12
474.39	6040.92
474.57	5951.98
474.75	6022.20
474.93	6043.26
475.12	6061.99
475.30	6340.51
475.48	6235.19
475.66	6214.12
475.84	6251.57
476.02	6375.62
476.20	6417.75
476.38	6593.29
476.56	6562.86
476.74	6387.32
476.92	6696.27
477.10	6607.33
477.28	6672.87
477.46	6637.76
477.64	6602.65
477.82	6799.26
478.00	6731.38
478.18	6895.22
478.36	6953.73
478.54	7023.95
478.72	7052.03
478.90	7052.03
479.08	7192.47
479.26	7344.60
479.44	7307.15
479.62	7360.98
479.80	7342.26
479.98	7255.66
480.16	7653.55
480.34	7368.01
480.52	7595.04
480.70	7386.73
480.88	7569.29
481.06	7723.77
481.24	7782.28
481.41	7861.86
481.59	7892.29
481.77	7908.67
481.95	7913.35
482.13	7999.95
482.31	8086.55
482.49	8212.94
482.67	8063.15
482.85	8245.71
483.03	8294.86
483.21	8552.32
483.39	8662.32
483.57	8493.80
483.74	8709.13
483.92	8549.98
484.10	8706.79
484.28	8706.79
484.46	8997.02
484.64	9001.70
484.82	9015.74
485.00	9118.73
485.18	9160.86
485.35	9315.33
485.53	9252.14
485.71	9404.27
485.89	9792.80
486.07	9364.48
486.25	9652.37
486.43	9692.16
486.61	9647.69
486.78	9863.02
486.96	9839.61
487.14	10120.48
487.32	10164.95
487.50	10139.20
487.68	10094.73
487.85	10408.36
488.03	10375.59
488.21	10333.47
488.39	10490.28
488.57	10569.86
488.75	10651.78
488.92	10815.62
489.10	11082.44
489.28	10939.66
489.46	11044.99
489.64	10960.73
489.81	11199.46
489.99	11194.78
490.17	11330.53
490.35	11576.29
490.53	11669.91
490.70	11716.72
490.88	11506.07
491.06	11779.92
491.24	11878.22
491.41	11616.08
491.59	11768.21
491.77	11932.05
491.95	12212.92
492.13	12276.11
492.30	12365.05
492.48	12224.62
492.66	12348.67
492.84	12208.23
493.01	12737.20
493.19	12617.83
493.37	12594.42
493.54	12732.51
493.72	12725.49
493.90	12814.43
494.08	12865.92
494.25	13146.79
494.43	13184.24
494.61	13284.88
494.79	13446.38
494.96	13263.82
495.14	13231.05
495.32	13472.12
495.49	13610.22
495.67	13579.79
495.85	13540.00
496.02	13806.82
496.20	13598.51
496.38	13830.23
496.55	13907.46
496.73	14230.46
496.91	14340.46
497.09	14326.42
497.26	14471.53
497.44	14246.84
497.62	14377.91
497.79	14480.89
497.97	14530.05
498.14	14422.38
498.32	14977.09
498.50	14803.89
498.67	14937.30
498.85	14925.60
499.03	15035.60
499.20	15080.07
499.38	14981.77
499.56	15124.54
499.73	15119.86
499.91	15419.45
500.08	15311.78
500.26	15077.73
500.44	15517.75
500.61	15452.22
500.79	15452.22
500.97	15506.05
501.14	15819.68
501.32	16009.26
501.49	15623.08
501.67	15681.59
501.84	16006.92
502.02	15976.50
502.20	16294.81
502.37	16119.27
502.55	16079.48
502.72	16187.14
502.90	16250.34
503.07	16159.06
503.25	16133.31
503.43	16182.46
503.60	16327.58
503.78	16624.83
503.95	16460.99
504.13	16568.65
504.30	16627.17
504.48	16510.14
504.65	16812.07
504.83	16856.54
505.01	17039.10
505.18	17046.12
505.36	17050.80
505.53	17081.23
505.71	16957.18
505.88	16945.48
506.06	17067.19
506.23	17282.52
506.41	17184.21
506.58	17399.54
506.76	17254.43
506.93	17453.37
507.11	17528.27
507.28	17399.54
507.46	17460.40
507.63	17640.62
507.81	17582.10
507.98	17738.92
508.16	17781.05
508.33	17738.92
508.50	18017.44
508.68	17727.22
508.85	18293.63
509.03	18272.56
509.20	17778.71
509.38	18286.61
509.55	18459.81
509.73	18281.92
509.90	18136.81
510.08	18359.16
510.25	18230.43
510.42	18551.09
510.60	18745.35
510.77	18752.37
510.95	18930.25
511.12	18551.09
511.30	18988.77
511.47	18581.51
511.64	18698.54
511.82	19084.73
511.99	19075.37
512.17	19140.90
512.34	18642.37
512.51	19358.57
512.69	19007.49
512.86	19084.73
513.04	18923.23
513.21	19503.68
513.38	19264.95
513.56	19716.67
513.73	19220.48
513.90	19480.28
514.08	19548.15
514.25	19763.48
514.43	20016.26
514.60	20203.50
514.77	19396.02
514.95	19840.72
515.12	19447.51
515.29	19578.58
515.47	19726.04
515.64	19971.79
515.81	20189.46
515.99	19936.68
516.16	20320.53
516.33	20191.80
516.51	20336.91
516.68	20430.54
516.85	20313.51
517.03	20240.95
517.20	20439.90
517.37	20423.51
517.54	20702.04
517.72	20500.75
517.89	20273.72
518.06	20257.34
518.24	20152.01
518.41	20711.40
518.58	20739.49
518.75	20772.25
518.93	20673.95
519.10	20751.19
519.27	20954.82
519.45	20566.29
519.62	20905.66
519.79	20774.60
519.96	20758.21
520.14	21214.62
520.31	21205.25
520.48	21301.22
520.65	21205.25
520.83	21039.08
521.00	21380.79
521.17	21289.51
521.34	21420.58
521.52	21439.31
521.69	21844.22
521.86	21764.64
522.03	21727.19
522.20	21530.59
522.38	21759.96
522.55	21858.26
522.72	22054.87
522.89	21776.34
523.07	22319.35
523.24	21844.22
523.41	22317.01
523.58	22059.55
523.75	22155.51
523.92	21741.24
524.10	22122.74
524.27	22221.05
524.44	22429.35
524.61	22515.95
524.78	22401.27
524.96	22190.62
525.13	22429.35
525.30	22539.36
525.47	22518.29
525.64	22600.21
525.81	22654.05
525.98	22499.57
526.16	22499.57
526.33	22892.78
526.50	23119.81
526.67	22445.74
526.84	22995.76
527.01	22939.59
527.18	22939.59
527.36	23000.44
527.53	23152.58
527.70	23304.71
527.87	23571.54
528.04	22878.74
528.21	23042.57
528.38	23215.77
528.55	23063.64
528.72	23051.94
528.89	23412.38
529.07	23571.54
529.24	23367.91
529.41	23517.70
529.58	23283.65
529.75	23377.27
529.92	23438.12
530.09	23445.15
530.26	23290.67
530.43	23651.11
530.60	23894.53
530.77	23880.49
530.94	23683.88
531.11	23601.96
531.28	23868.78
531.46	23599.62
531.63	23957.72
531.80	24168.37
531.97	24093.47
532.14	23903.89
532.31	23826.65
532.48	23889.85
532.65	23997.51
532.82	24233.91
532.99	24599.03
533.16	24140.29
533.33	24554.56
533.50	24430.51
533.67	24364.98
533.84	24020.92
534.01	24400.08
534.18	24163.69
534.35	24505.41
534.52	24664.57
534.69	24592.01
534.86	24439.87
535.03	24496.05
535.20	24776.91
535.37	25022.67
535.54	24912.66
535.71	24570.94
535.88	24601.37
536.05	24533.50
536.22	24692.65
536.38	24966.49
536.55	25020.33
536.72	24931.39
536.89	24631.80
537.06	24994.58
537.23	25006.28
537.40	24900.96
537.57	24912.66
537.74	24999.26
537.91	25263.74
538.08	25338.64
538.25	25137.35
538.42	25287.15
538.59	25282.47
538.75	25277.79
538.92	24943.09
539.09	25605.46
539.26	25481.41
539.43	25614.82
539.60	25619.50
539.77	25369.07
539.94	25511.84
540.11	25376.09
540.28	25694.40
540.44	25345.66
540.61	25467.37
540.78	25479.07
540.95	25996.33
541.12	25418.22
541.29	25458.01
541.46	25675.68
541.62	25575.03
541.79	25612.48
541.96	25462.69
542.13	25736.53
542.30	25773.98
542.47	26192.94
542.63	25869.94
542.80	26279.54
542.97	26394.22
543.14	26473.80
543.31	26267.83
543.48	26106.34
543.64	26408.26
543.81	26656.36
543.98	26391.88
544.15	26391.88
544.32	26541.68
544.48	26937.23
544.65	26415.29
544.82	26134.42
544.99	26518.27
545.16	26405.92
545.32	26518.27
545.49	26885.73
545.66	26735.94
545.83	26455.08
546.00	27058.93
546.16	26841.26
546.33	26398.90
546.50	26349.75
546.67	26499.55
546.83	26579.12
547.00	27044.89
547.17	26618.91
547.34	26817.86
547.50	27292.99
547.67	27054.25
547.84	26567.42
548.00	26768.71
548.17	27351.50
548.34	26871.69
548.51	27236.81
548.67	27590.24
548.84	27154.90
549.01	27021.48
549.18	27140.85
549.34	27372.57
549.51	27185.32
549.68	27199.37
549.84	26974.67
550.01	27456.82
550.18	27152.55
550.34	27798.54
550.51	27473.21
550.68	27763.43
550.84	27201.71
551.01	27307.03
551.18	27531.72
551.34	27342.14
551.51	27131.49
551.68	27536.40
551.84	27545.76
552.01	27557.47
552.18	27599.60
552.34	27817.27
552.51	27744.71
552.68	27730.67
552.84	27653.43
553.01	27960.04
553.18	28140.26
553.34	28056.00
553.51	27758.75
553.67	27955.36
553.84	28126.22
554.01	28037.28
554.17	27775.14
554.34	27903.87
554.51	27651.09
554.67	27885.14
554.84	28280.69
555.00	28184.73
555.17	28166.01
555.33	28194.09
555.50	27838.33
555.67	27978.76
555.83	28065.36
556.00	27910.89
556.16	28084.09
556.33	28390.70
556.50	28549.85
556.66	28655.18
556.83	28020.89
556.99	28666.88
557.16	28561.56
557.32	28437.51
557.49	28563.90
557.65	28439.85
557.82	28034.94
557.98	28397.72
558.15	28713.69
558.32	28481.98
558.48	28472.62
558.65	28629.43
558.81	28442.19
558.98	28402.40
559.14	28800.29
559.31	28243.24
559.47	28161.33
559.64	28694.97
559.80	28292.40
559.97	28566.24
560.13	28868.17
560.30	28414.10
560.46	28821.36
560.63	28685.61
560.79	28802.63
560.96	29022.64
561.12	28753.48
561.29	28451.55
561.45	29062.43
561.61	28622.41
561.78	28884.55
561.94	28856.46
562.11	29071.79
562.27	28676.24
562.44	28987.53
562.60	28622.41
562.77	28706.67
562.93	28505.38
563.10	29069.45
563.26	28828.38
563.42	29039.03
563.59	29139.67
563.75	28936.04
563.92	28982.85
564.08	28573.26
564.24	29039.03
564.41	29062.43
564.57	28716.03
564.74	28931.36
564.90	28952.43
565.07	29397.13
565.23	29270.74
565.39	29123.29
565.56	29055.41
565.72	28844.76
565.88	29085.84
566.05	28828.38
566.21	29340.96
566.38	28999.24
566.54	29362.02
566.70	29420.53
566.87	29336.27
567.03	29230.95
567.19	29759.91
567.36	29668.63
567.52	29214.57
567.68	29067.11
567.85	29455.64
568.01	28989.88
568.17	29214.57
568.34	29450.96
568.50	29223.93
568.66	29191.16
568.83	29544.58
568.99	29249.67
569.15	29359.68
569.32	29113.92
569.48	28725.39
569.64	29322.23
569.81	29074.13
569.97	29092.86
570.13	29521.18
570.30	29443.94
570.46	29717.78
570.62	29474.37
570.78	29310.53
570.95	29305.85
571.11	29673.31
571.27	29380.74
571.43	28718.37
571.60	29766.93
571.76	29106.90
571.92	29465.00
572.09	29422.87
572.25	29717.78
572.41	29329.25
572.57	29488.41
572.74	29916.73
572.90	29434.58
573.06	29472.03
573.22	29708.42
573.38	29399.47
573.55	29214.57
573.71	29717.78
573.87	29865.24
574.03	29436.92
574.20	29490.75
574.36	29149.03
574.52	29483.73
574.68	29462.66
574.84	29780.98
575.01	29422.87
575.17	29626.50
575.33	29312.87
575.49	29687.36
575.65	30003.33
575.82	29858.21
575.98	29759.91
576.14	29614.80
576.30	29596.07
576.46	29607.78
576.62	29233.29
576.79	29614.80
576.95	29570.33
577.11	29649.91
577.27	29544.58
577.43	29759.91
577.59	29780.98
577.75	29771.61
577.92	29619.48
578.08	29483.73
578.24	29256.70
578.40	29490.75
578.56	29907.37
578.72	29591.39
578.88	29741.19
579.04	29853.53
579.21	29640.54
579.37	29614.80
579.53	29720.12
579.69	29827.79
579.85	29701.40
580.01	30019.71
580.17	29621.82
580.33	29479.05
580.49	29933.11
580.65	30073.54
580.82	30127.38
580.98	29848.85
581.14	29848.85
581.30	29926.09
581.46	30054.82
581.62	29495.43
581.78	29593.73
581.94	29970.56
582.10	29544.58
582.26	29720.12
582.42	29685.01
582.58	29834.81
582.74	30094.61
582.90	30101.63
583.06	29919.07
583.22	29734.17
583.38	29816.08
583.54	29708.42
583.70	29504.79
583.86	29867.58
584.02	29699.06
584.18	30024.39
584.34	30040.78
584.50	29748.21
584.66	29598.41
584.82	29532.88
584.98	29844.17
585.14	29666.29
585.30	29916.73
585.46	29890.98
585.62	29766.93
585.78	29951.84
585.94	29785.66
586.10	29993.97
586.26	30099.29
586.42	30202.27
586.58	29865.24
586.74	29766.93
586.90	29706.08
587.06	29954.18
587.22	29862.90
587.38	29607.78
587.54	29951.84
587.70	30115.67
587.86	30113.33
588.02	30101.63
588.18	30188.23
588.34	30103.97
588.49	29928.43
588.65	29921.41
588.81	29443.94
588.97	29984.60
589.13	29860.55
589.29	29956.52
589.45	29958.86
589.61	29986.94
589.77	30335.68
589.93	30125.04
590.08	30501.86
590.24	30188.23
590.40	30480.80
590.56	30644.63
590.72	30204.61
590.88	29736.51
591.04	30040.78
591.20	30661.02
591.35	30164.82
591.51	30368.45
591.67	30618.89
591.83	30293.55
591.99	30450.37
