SpectraSuite Data File
++++++++++++++++++++++++++++++++++++
Date: Fri Oct 18 13:58:06 GMT-05:00 2013
User: bianchi
Dark Spectrum Present: No
Reference Spectrum Present: No
Number of Sampled Component Spectra: 1
Spectrometers: USB2+H05261
Integration Time (usec): 50000 (USB2+H05261)
Spectra Averaged: 1 (USB2+H05261)
Boxcar Smoothing: 0 (USB2+H05261)
Correct for Electrical Dark: No (USB2+H05261)
Strobe/Lamp Enabled: No (USB2+H05261)
Correct for Detector Non-linearity: No (USB2+H05261)
Correct for Stray Light: No (USB2+H05261)
Number of Pixels in Processed Spectrum: 2048
>>>>>Begin Processed Spectral Data<<<<<
365.73	0.00
365.92	0.00
366.12	0.00
366.32	0.00
366.52	0.00
366.72	0.00
366.91	0.00
367.11	0.00
367.31	0.00
367.51	0.00
367.70	0.00
367.90	0.00
368.10	0.00
368.30	0.00
368.49	0.00
368.69	0.00
368.89	0.00
369.09	0.00
369.28	0.00
369.48	0.00
369.68	0.00
369.87	0.00
370.07	0.00
370.27	0.00
370.47	0.00
370.66	23.41
370.86	105.32
371.06	175.54
371.25	154.48
371.45	117.03
371.65	142.77
371.84	184.90
372.04	124.05
372.24	227.03
372.44	91.28
372.63	201.29
372.83	220.01
373.03	227.03
373.22	191.92
373.42	220.01
373.62	138.09
373.81	145.11
374.01	187.24
374.21	227.03
374.40	315.97
374.60	294.91
374.79	245.76
374.99	257.46
375.19	264.48
375.38	220.01
375.58	252.78
375.78	222.35
375.97	196.60
376.17	215.33
376.37	269.16
376.56	306.61
376.76	241.08
376.95	306.61
377.15	266.82
377.35	255.12
377.54	280.86
377.74	332.36
377.93	191.92
378.13	250.44
378.33	337.04
378.52	227.03
378.72	299.59
378.91	294.91
379.11	278.52
379.31	304.27
379.50	280.86
379.70	278.52
379.89	252.78
380.09	278.52
380.28	390.87
380.48	322.99
380.68	276.18
380.87	313.63
381.07	360.44
381.26	301.93
381.46	374.49
381.65	285.55
381.85	362.78
382.04	299.59
382.24	334.70
382.43	341.72
382.63	341.72
382.83	327.68
383.02	400.23
383.22	421.30
383.41	322.99
383.61	297.25
383.80	308.95
384.00	365.12
384.19	395.55
384.39	369.80
384.58	372.15
384.78	411.93
384.97	395.55
385.17	411.93
385.36	388.53
385.56	386.19
385.75	390.87
385.95	461.09
386.14	442.36
386.34	365.12
386.53	428.32
386.72	390.87
386.92	313.63
387.11	365.12
387.31	442.36
387.50	383.85
387.70	388.53
387.89	414.27
388.09	397.89
388.28	440.02
388.48	472.79
388.67	491.51
388.86	435.34
389.06	463.43
389.25	456.40
389.45	451.72
389.64	454.06
389.84	449.38
390.03	456.40
390.22	472.79
390.42	421.30
390.61	479.81
390.81	456.40
391.00	540.66
391.19	538.32
391.39	533.64
391.58	519.60
391.78	451.72
391.97	585.13
392.16	594.50
392.36	636.63
392.55	505.56
392.75	433.00
392.94	568.75
393.13	535.98
393.33	538.32
393.52	535.98
393.71	592.16
393.91	636.63
394.10	594.50
394.29	528.96
394.49	620.24
394.68	566.41
394.88	603.86
395.07	622.58
395.26	589.82
395.46	575.77
395.65	655.35
395.84	552.37
396.04	608.54
396.23	622.58
396.42	692.80
396.62	615.56
396.81	657.69
397.00	603.86
397.19	664.71
397.39	713.86
397.58	765.36
397.77	678.76
397.97	674.07
398.16	645.99
398.35	702.16
398.55	727.91
398.74	755.99
398.93	798.12
399.12	774.72
399.32	613.22
399.51	683.44
399.70	709.18
399.90	772.38
400.09	755.99
400.28	702.16
400.47	758.33
400.67	786.42
400.86	851.96
401.05	830.89
401.24	875.36
401.44	786.42
401.63	819.19
401.82	812.17
402.01	767.70
402.21	826.21
402.40	891.74
402.59	938.55
402.78	877.70
402.97	833.23
403.17	835.57
403.36	873.02
403.55	954.94
403.74	971.32
403.93	908.13
404.13	884.72
404.32	889.40
404.51	929.19
404.70	999.41
404.89	1004.09
405.09	922.17
405.28	1020.47
405.47	919.83
405.66	901.11
405.85	945.58
406.05	929.19
406.24	1013.45
406.43	994.73
406.62	1015.79
406.81	968.98
407.00	1071.97
407.20	1013.45
407.39	971.32
407.58	961.96
407.77	997.07
407.96	1109.41
408.15	1088.35
408.34	1107.07
408.54	1125.80
408.73	1076.65
408.92	1144.52
409.11	1219.42
409.30	1280.27
409.49	1219.42
409.68	1149.20
409.87	1144.52
410.07	1198.35
410.26	1172.61
410.45	1172.61
410.64	1226.44
410.83	1313.04
411.02	1249.85
411.21	1315.38
411.40	1167.93
411.59	1322.40
411.78	1207.72
411.98	1366.87
412.17	1275.59
412.36	1331.76
412.55	1469.86
412.74	1366.87
412.93	1371.55
413.12	1397.30
413.31	1441.77
413.50	1446.45
413.69	1362.19
413.88	1427.73
414.07	1439.43
414.26	1418.36
414.45	1453.47
414.64	1490.92
414.83	1476.88
415.02	1598.59
415.22	1486.24
415.41	1638.38
415.60	1554.12
415.79	1605.61
415.98	1661.78
416.17	1743.70
416.36	1600.93
416.55	1547.09
416.74	1593.90
416.93	1682.85
417.12	1640.72
417.31	1701.57
417.50	1703.91
417.69	1802.21
417.88	1804.55
418.07	1699.23
418.26	1717.95
418.45	1818.60
418.64	1781.15
418.83	1804.55
419.02	1856.04
419.21	1813.92
419.39	1923.92
419.58	1874.77
419.77	1842.00
419.96	1893.49
420.15	1898.17
420.34	1952.01
420.53	1916.90
420.72	1963.71
420.91	2057.33
421.10	1959.03
421.29	2043.29
421.48	1933.28
421.67	1996.48
421.86	1975.41
422.05	1952.01
422.24	2029.24
422.43	1961.37
422.61	1954.35
422.80	1994.14
422.99	2069.03
423.18	2078.40
423.37	1980.09
423.56	2017.54
423.75	2059.67
423.94	1905.20
424.13	1809.23
424.32	1982.43
424.50	1987.11
424.69	2085.42
424.88	2150.95
425.07	2026.90
425.26	1937.96
425.45	2008.18
425.64	1968.39
425.83	2045.63
426.01	2160.31
426.20	2078.40
426.39	2150.95
426.58	2136.91
426.77	2052.65
426.96	2183.72
427.15	2099.46
427.33	2160.31
427.52	2186.06
427.71	2113.50
427.90	2195.42
428.09	2230.53
428.28	2174.36
428.46	2202.44
428.65	2181.38
428.84	2359.26
429.03	2291.38
429.22	2324.15
429.40	2389.69
429.59	2270.32
429.78	2165.00
429.97	2111.16
430.16	2172.02
430.34	2312.45
430.53	2356.92
430.72	2312.45
430.91	2321.81
431.10	2375.64
431.28	2457.56
431.47	2450.54
431.66	2366.28
431.85	2188.40
432.03	2518.42
432.22	2527.78
432.41	2490.33
432.60	2459.90
432.79	2417.77
432.97	2539.48
433.16	2523.10
433.35	2509.05
433.54	2506.71
433.72	2499.69
433.91	2499.69
434.10	2619.06
434.28	2583.95
434.47	2602.68
434.66	2628.42
434.85	2628.42
435.03	2626.08
435.22	2607.36
435.41	2717.36
435.59	2651.83
435.78	2745.45
435.97	2724.38
436.16	2572.25
436.34	2619.06
436.53	2686.94
436.72	2839.07
436.90	2780.56
437.09	2827.37
437.28	2682.25
437.46	2689.28
437.65	2759.49
437.84	2827.37
438.02	2846.09
438.21	2920.99
438.40	2778.22
438.58	2970.14
438.77	3035.67
438.96	3005.25
439.14	3012.27
439.33	2937.37
439.52	3049.72
439.70	3014.61
439.89	2974.82
440.08	3091.85
440.26	3047.38
440.45	3087.17
440.63	3222.92
440.82	3215.90
441.01	2986.52
441.19	3169.09
441.38	3321.22
441.57	3082.49
441.75	3300.16
441.94	3248.66
442.12	3346.97
442.31	3412.50
442.50	3365.69
442.68	3421.86
442.87	3368.03
443.05	3265.05
443.24	3403.14
443.43	3449.95
443.61	3496.76
443.80	3576.34
443.98	3342.28
444.17	3323.56
444.35	3438.25
444.54	3503.78
444.73	3403.14
444.91	3534.21
445.10	3548.25
445.28	3538.89
445.47	3400.80
445.65	3480.38
445.84	3475.70
446.02	3595.06
446.21	3569.32
446.39	3627.83
446.58	3730.81
446.77	3398.46
446.95	3421.86
447.14	3639.53
447.32	3648.90
447.51	3506.12
447.69	3428.88
447.88	3555.27
448.06	3646.55
448.25	3585.70
448.43	3667.62
448.62	3506.12
448.80	3681.66
448.99	3583.36
449.17	3658.26
449.36	3559.95
449.54	3662.94
449.73	3737.84
449.91	3726.13
450.10	3955.51
450.28	3723.79
450.46	3838.48
450.65	3810.39
450.83	3768.26
451.02	3911.04
451.20	3756.56
451.39	4007.00
451.57	3875.93
451.76	3843.16
451.94	3824.44
452.13	3997.64
452.31	3878.27
452.49	3918.06
452.68	4002.32
452.86	3866.56
453.05	3962.53
453.23	3946.14
453.42	3934.44
453.60	3751.88
453.78	4102.96
453.97	3929.76
454.15	3955.51
454.34	3819.75
454.52	4145.09
454.70	3990.61
454.89	3929.76
455.07	4023.38
455.26	4156.79
455.44	4252.75
455.62	4060.83
455.81	4124.02
455.99	4191.90
456.17	4229.35
456.36	4140.41
456.54	4280.84
456.73	4318.29
456.91	4374.46
457.09	4372.12
457.28	4540.64
457.46	4332.33
457.64	4360.42
457.83	4416.59
458.01	4430.63
458.19	4542.98
458.38	4437.66
458.56	4442.34
458.74	4430.63
458.93	4409.57
459.11	4566.39
459.29	4561.70
459.48	4617.88
459.66	4594.47
459.84	4692.77
460.03	4664.69
460.21	4524.26
460.39	4669.37
460.57	4468.08
460.76	4451.70
460.94	4770.01
461.12	4746.61
461.31	4667.03
461.49	4741.93
461.67	4725.54
461.85	4910.44
462.04	4779.37
462.22	5158.54
462.40	4844.91
462.59	4727.88
462.77	4809.80
462.95	4924.49
463.13	4779.37
463.32	4739.58
463.50	4858.95
463.68	4985.34
463.86	4898.74
464.05	4870.65
464.23	4856.61
464.41	4910.44
464.59	4887.04
464.78	5170.24
464.96	4940.87
465.14	4908.10
465.32	4929.17
465.50	4990.02
465.69	5191.31
465.87	5188.97
466.05	5291.95
466.23	5219.39
466.41	5245.14
466.60	5359.83
466.78	5093.01
466.96	5294.29
467.14	5022.79
467.32	5186.63
467.51	5217.05
467.69	5128.11
467.87	5392.59
468.05	5179.61
468.23	5095.35
468.41	5151.52
468.60	5280.25
468.78	5282.59
468.96	5254.50
469.14	5315.36
469.32	5460.47
469.50	5128.11
469.69	5495.58
469.87	5570.48
470.05	5458.13
470.23	5664.10
470.41	5420.68
470.59	5502.60
470.77	5568.13
470.95	5776.44
471.14	5633.67
471.32	5565.79
471.50	5638.35
471.68	5624.31
471.86	5710.91
472.04	5689.84
472.22	5760.06
472.40	5624.31
472.58	5909.85
472.77	6003.47
472.95	5928.58
473.13	6069.01
473.31	5893.47
473.49	5863.04
473.67	5959.00
473.85	6052.63
474.03	6174.33
474.21	6057.31
474.39	6153.27
474.57	6120.50
474.75	6204.76
474.93	6406.05
475.12	6251.57
475.30	6274.98
475.48	6181.35
475.66	6541.80
475.84	6258.59
476.02	6487.96
476.20	6572.22
476.38	6527.75
476.56	6750.10
476.74	6530.09
476.92	6604.99
477.10	6677.55
477.28	6705.63
477.46	6715.00
477.64	6892.88
477.82	7040.33
478.00	7028.63
478.18	6993.52
478.36	6942.03
478.54	7070.76
478.72	7297.79
478.90	7225.23
479.08	7339.92
479.26	7424.18
479.44	7281.41
479.62	7517.80
479.80	7489.71
479.98	7449.93
480.16	7630.15
480.34	7541.21
480.52	7819.73
480.70	7852.50
480.88	7786.96
481.06	7995.27
481.24	7775.26
481.41	7955.48
481.59	7939.10
481.77	8060.80
481.95	8046.76
482.13	8212.94
482.31	8266.77
482.49	8428.27
482.67	8336.99
482.85	8470.40
483.03	8559.34
483.21	8737.22
483.39	8645.94
483.57	8655.30
483.74	8582.74
483.92	8908.08
484.10	8915.10
484.28	9022.77
484.46	9116.39
484.64	9376.19
484.82	9118.73
485.00	9111.71
485.18	9516.62
485.35	9479.17
485.53	9465.13
485.71	9547.05
485.89	9848.97
486.07	9610.24
486.25	9790.46
486.43	9900.47
486.61	9856.00
486.78	10160.27
486.96	10223.46
487.14	10197.71
487.32	10228.14
487.50	10361.55
487.68	10183.67
487.85	10230.48
488.03	10834.34
488.21	10665.82
488.39	10642.42
488.57	10731.36
488.75	11143.29
488.92	11000.52
489.10	11197.12
489.28	11187.76
489.46	11318.83
489.64	11281.38
489.81	11552.88
489.99	11288.40
490.17	11606.72
490.35	11728.42
490.53	11475.65
490.70	11885.24
490.88	11964.82
491.06	12231.64
491.24	11896.94
491.41	12030.35
491.59	12131.00
491.77	12098.23
491.95	12648.26
492.13	12182.49
492.30	12428.24
492.48	12571.02
492.66	12383.77
492.84	12521.87
493.01	12812.09
493.19	12847.20
493.37	12819.11
493.54	12940.82
493.72	13118.70
493.90	12926.78
494.08	13149.13
494.25	13373.82
494.43	13383.18
494.61	13502.55
494.79	13556.38
494.96	13591.49
495.14	13589.15
495.32	13762.35
495.49	13923.85
495.67	13837.25
495.85	13916.83
496.02	14099.39
496.20	14303.01
496.38	14160.24
496.55	13954.27
496.73	14382.59
496.91	14352.16
497.09	14469.19
497.26	14618.99
497.44	14672.82
497.62	14820.27
497.79	14724.31
497.97	14527.71
498.14	15117.52
498.32	15054.33
498.50	15253.27
498.67	15412.43
498.85	15473.28
499.03	15180.71
499.20	15604.35
499.38	15382.00
499.56	15283.70
499.73	15550.52
499.91	15552.86
500.08	15826.70
500.26	15634.78
500.44	15625.42
500.61	15910.96
500.79	15901.60
500.97	15887.56
501.14	16081.82
501.32	16084.16
501.49	15988.20
501.67	16175.44
501.84	16285.45
502.02	16250.34
502.20	16491.41
502.37	16556.95
502.55	16425.88
502.72	16746.53
502.90	16592.06
503.07	16528.86
503.25	16601.42
503.43	16669.30
503.60	16905.69
503.78	16746.53
503.95	16755.90
504.13	16812.07
504.30	17076.55
504.48	16559.29
504.65	17071.87
504.83	17135.06
505.01	17420.61
505.18	17275.49
505.36	17476.78
505.53	16947.82
505.71	17371.46
505.88	17380.82
506.06	17422.95
506.23	17820.84
506.41	17767.01
506.58	17818.50
506.76	17661.68
506.93	17853.61
507.11	17738.92
507.28	18036.17
507.46	17717.86
507.63	18052.55
507.81	18185.96
507.98	18017.44
508.16	18192.98
508.33	18235.11
508.50	18314.69
508.68	18611.94
508.85	18539.38
509.03	18525.34
509.20	18675.13
509.38	18663.43
509.55	19007.49
509.73	18427.04
509.90	18675.13
510.08	18640.03
510.25	18934.93
510.42	19129.20
510.60	18998.13
510.77	19042.60
510.95	19180.69
511.12	18838.97
511.30	18970.04
511.47	19403.04
511.64	19192.39
511.82	19318.78
511.99	19302.40
512.17	19641.78
512.34	19543.47
512.51	19611.35
512.69	19541.13
512.86	19590.28
513.04	19611.35
513.21	19566.88
513.38	19861.79
513.56	20175.42
513.73	20042.01
513.90	20119.24
514.08	19943.70
514.25	20133.29
514.43	20084.14
514.60	20084.14
514.77	20053.71
514.95	20208.19
515.12	19871.15
515.29	20140.31
515.47	20519.48
515.64	20603.74
515.81	20783.96
515.99	20772.25
516.16	20547.56
516.33	20692.68
516.51	20732.47
516.68	20666.93
516.85	20695.02
517.03	21018.01
517.20	20727.78
517.37	20912.69
517.54	21106.95
517.72	21163.12
517.89	20889.28
518.06	20943.11
518.24	21125.68
518.41	20627.14
518.58	21310.58
518.75	21055.46
518.93	21259.09
519.10	21371.43
519.27	21294.19
519.45	21352.71
519.62	21273.13
519.79	21242.70
519.96	21556.33
520.14	21757.62
520.31	21514.20
520.48	21986.99
520.65	21841.88
520.83	21956.57
521.00	21909.75
521.17	21830.18
521.34	21923.80
521.52	22045.51
521.69	21942.52
521.86	21968.27
522.03	22192.96
522.20	22326.37
522.38	22305.31
522.55	22267.86
522.72	22022.10
522.89	22441.06
523.07	22562.76
523.24	22721.92
523.41	22759.37
523.58	22387.22
523.75	22719.58
523.92	22434.03
524.10	22899.80
524.27	22845.97
524.44	23075.34
524.61	22663.41
524.78	22890.44
524.96	22920.87
525.13	23058.96
525.30	23091.73
525.47	23035.55
525.64	23070.66
525.81	22932.57
525.98	23108.11
526.16	23433.44
526.33	23178.33
526.50	23566.85
526.67	23255.56
526.84	23447.49
527.01	23290.67
527.18	23702.61
527.36	23461.53
527.53	23634.73
527.70	23995.17
527.87	23688.56
528.04	23730.69
528.21	23672.18
528.38	23733.03
528.55	23882.83
528.72	23821.97
528.89	23702.61
529.07	23679.20
529.24	23859.42
529.41	24088.79
529.58	23976.45
529.75	23950.70
529.92	23875.80
530.09	24409.45
530.26	24065.39
530.43	24311.14
530.60	24421.15
530.77	24292.42
530.94	24503.07
531.11	24339.23
531.28	24428.17
531.46	24381.36
531.63	23709.63
531.80	24531.15
531.97	24486.68
532.14	24606.05
532.31	24680.95
532.48	24685.63
532.65	24779.25
532.82	24542.86
532.99	24790.95
533.16	24851.81
533.33	24861.17
533.50	25015.65
533.67	25069.48
533.84	24872.87
534.01	24634.14
534.18	24814.36
534.35	24971.18
534.52	25106.93
534.69	25614.82
534.86	25343.32
535.03	25001.60
535.20	25404.17
535.37	25406.52
535.54	25202.89
535.71	24643.50
535.88	25270.76
536.05	24917.34
536.22	25242.68
536.38	25518.86
536.55	25355.02
536.72	25546.95
536.89	25591.42
537.06	25628.87
537.23	25759.94
537.40	25418.22
537.57	25666.31
537.74	25514.18
537.91	25738.87
538.08	25759.94
538.25	25776.32
538.42	25729.51
538.59	25905.05
538.75	25745.89
538.92	25855.90
539.09	25862.92
539.26	25928.45
539.43	26174.21
539.60	25846.54
539.77	26246.77
539.94	26314.64
540.11	26314.64
540.28	26284.22
540.44	26214.00
540.61	26026.76
540.78	26087.61
540.95	26024.42
541.12	26228.04
541.29	26426.99
541.46	26389.54
541.62	26204.64
541.79	26368.48
541.96	26349.75
542.13	26314.64
542.30	26455.08
542.47	26958.29
542.63	26885.73
542.80	26782.75
542.97	26939.57
543.14	26991.06
543.31	26946.59
543.48	26735.94
543.64	26874.03
543.81	27026.17
543.98	27363.20
544.15	27559.81
544.32	26986.38
544.48	27381.93
544.65	26998.08
544.82	27225.11
544.99	26817.86
545.16	27147.87
545.32	27030.85
545.49	27770.46
545.66	27271.92
545.83	27667.47
546.00	27339.80
546.16	27398.31
546.33	27318.73
546.50	27108.08
546.67	27178.30
546.83	27613.64
547.00	27695.56
547.17	27475.55
547.34	27283.62
547.50	27646.41
547.67	27920.25
547.84	27583.21
548.00	27538.74
548.17	28100.47
548.34	27730.67
548.51	27590.24
548.67	27896.85
548.84	28072.39
549.01	27711.94
549.18	27999.83
549.34	27641.73
549.51	27704.92
549.68	28168.35
549.84	27838.33
550.01	27887.48
550.18	27770.46
550.34	28386.02
550.51	28158.99
550.68	28273.67
550.84	28020.89
551.01	28325.16
551.18	27908.55
551.34	27943.66
551.51	28177.71
551.68	27969.40
551.84	28039.62
552.01	28177.71
552.18	28437.51
552.34	28002.17
552.51	28542.83
552.68	27843.01
552.84	28402.40
553.01	28285.37
553.18	28322.82
553.34	28474.96
553.51	28542.83
553.67	28905.62
553.84	28837.74
554.01	28858.81
554.17	28872.85
554.34	28332.18
554.51	28451.55
554.67	29216.91
554.84	28360.27
555.00	28809.65
555.17	28727.74
555.33	29172.44
555.50	28692.63
555.67	28896.25
555.83	29076.48
556.00	28577.94
556.16	29247.33
556.33	28741.78
556.50	29055.41
556.66	28826.04
556.83	29116.26
556.99	29394.79
557.16	29380.74
557.32	29584.37
557.49	29266.06
557.65	28786.25
557.82	28989.88
557.98	29270.74
558.15	29420.53
558.32	29263.72
558.48	28950.09
558.65	29701.40
558.81	29200.52
558.98	29252.02
559.14	29352.66
559.31	29099.88
559.47	29376.06
559.64	29439.26
559.80	29507.13
559.97	29214.57
560.13	29626.50
560.30	29605.44
560.46	29355.00
560.63	29450.96
560.79	29713.10
560.96	29472.03
561.12	29851.19
561.29	29532.88
561.45	29415.85
561.61	29647.57
561.78	29724.80
561.94	29706.08
562.11	29862.90
562.27	29890.98
562.44	29699.06
562.60	29514.16
562.77	29558.63
562.93	29752.89
563.10	29869.92
563.26	29600.76
563.42	30134.40
563.59	29642.88
563.75	29738.85
563.92	29621.82
564.08	29823.11
564.24	30054.82
564.41	29516.50
564.57	30019.71
564.74	30005.67
564.90	29916.73
565.07	30026.73
565.23	29724.80
565.39	30272.49
565.56	29736.51
565.72	29818.42
565.88	29661.61
566.05	29921.41
566.21	29706.08
566.38	30022.05
566.54	30036.09
566.70	30061.84
566.87	30178.87
567.03	30031.41
567.19	30455.05
567.36	30300.58
567.52	30075.88
567.68	29881.62
567.85	29862.90
568.01	30244.40
568.17	29986.94
568.34	30141.42
568.50	30108.65
568.66	29802.04
568.83	30122.69
568.99	30167.16
569.15	30199.93
569.32	30000.99
569.48	29991.62
569.64	30352.07
569.81	29851.19
569.97	30005.67
570.13	30602.50
570.30	30125.04
570.46	30218.66
570.62	30391.86
570.78	29876.94
570.95	30274.83
571.11	30522.93
571.27	30050.14
571.43	30235.04
571.60	30321.64
571.76	30597.82
571.92	30363.77
572.09	30338.02
572.25	30209.29
572.41	30228.02
572.57	30389.52
572.74	30441.01
572.90	30389.52
573.06	30396.54
573.22	30160.14
573.38	30494.84
573.55	30164.82
573.71	30759.32
573.87	30651.66
574.03	30717.19
574.20	30181.21
574.36	29954.18
574.52	30471.43
574.68	30288.87
574.84	30431.65
575.01	30588.46
575.17	30494.84
575.33	30270.15
575.49	30279.51
575.65	30682.08
575.82	30871.67
575.98	30485.48
576.14	30253.76
576.30	30508.88
576.46	30120.35
576.62	30108.65
576.79	30314.62
576.95	30450.37
577.11	30441.01
577.27	30579.10
577.43	30829.54
577.59	30703.15
577.75	30487.82
577.92	30726.55
578.08	30443.35
578.24	30419.94
578.40	30377.81
578.56	30616.55
578.72	30939.54
578.88	30649.32
579.04	31246.15
579.21	30370.79
579.37	30738.26
579.53	30558.03
579.69	30354.41
579.85	30525.27
580.01	30202.27
580.17	30691.44
580.33	30714.85
580.49	30480.80
580.65	30705.49
580.82	30979.33
580.98	30656.34
581.14	30422.28
581.30	30719.53
581.46	30651.66
581.62	30583.78
581.78	30412.92
581.94	30703.15
582.10	30235.04
582.26	30785.07
582.42	30843.58
582.58	30698.47
582.74	30923.16
582.90	30918.48
583.06	30684.42
583.22	30799.11
583.38	30536.97
583.54	30803.79
583.70	30096.95
583.86	30801.45
584.02	30342.70
584.18	30497.18
584.34	30712.51
584.50	31110.40
584.66	30471.43
584.82	30106.31
584.98	30574.42
585.14	30948.90
585.30	30129.72
585.46	30558.03
585.62	30518.25
585.78	30459.73
585.94	30817.83
586.10	30803.79
586.26	30572.08
586.42	30899.75
586.58	31079.97
586.74	30396.54
586.90	30469.09
587.06	30618.89
587.22	30513.56
587.38	30593.14
587.54	30506.54
587.70	30841.24
587.86	31091.68
588.02	31178.28
588.18	31089.34
588.34	30988.69
588.49	30871.67
588.65	30572.08
588.81	30855.28
588.97	30824.86
589.13	30911.46
589.29	30686.76
589.45	30916.14
589.61	31412.33
589.77	31072.95
589.93	31236.79
590.08	31323.39
590.24	31068.27
590.40	31353.82
590.56	31332.75
590.72	30899.75
590.88	30969.97
591.04	31009.76
591.20	31087.00
591.35	31236.79
591.51	31440.42
591.67	31339.77
591.83	31379.56
591.99	31522.34
