SpectraSuite Data File
++++++++++++++++++++++++++++++++++++
Date: Fri Oct 18 13:57:58 GMT-05:00 2013
User: bianchi
Dark Spectrum Present: No
Reference Spectrum Present: No
Number of Sampled Component Spectra: 1
Spectrometers: USB2+H05261
Integration Time (usec): 50000 (USB2+H05261)
Spectra Averaged: 1 (USB2+H05261)
Boxcar Smoothing: 0 (USB2+H05261)
Correct for Electrical Dark: No (USB2+H05261)
Strobe/Lamp Enabled: No (USB2+H05261)
Correct for Detector Non-linearity: No (USB2+H05261)
Correct for Stray Light: No (USB2+H05261)
Number of Pixels in Processed Spectrum: 2048
>>>>>Begin Processed Spectral Data<<<<<
365.73	0.00
365.92	0.00
366.12	0.00
366.32	0.00
366.52	0.00
366.72	0.00
366.91	0.00
367.11	0.00
367.31	0.00
367.51	0.00
367.70	0.00
367.90	0.00
368.10	0.00
368.30	0.00
368.49	0.00
368.69	0.00
368.89	0.00
369.09	0.00
369.28	0.00
369.48	0.00
369.68	0.00
369.87	0.00
370.07	0.00
370.27	0.00
370.47	0.00
370.66	91.28
370.86	79.58
371.06	117.03
371.25	128.73
371.45	121.71
371.65	140.43
371.84	173.20
372.04	128.73
372.24	156.82
372.44	152.13
372.63	257.46
372.83	168.52
373.03	163.84
373.22	208.31
373.42	215.33
373.62	220.01
373.81	287.89
374.01	292.57
374.21	180.22
374.40	224.69
374.60	273.84
374.79	243.42
374.99	285.55
375.19	210.65
375.38	322.99
375.58	243.42
375.78	248.10
375.97	255.12
376.17	376.83
376.37	255.12
376.56	191.92
376.76	241.08
376.95	252.78
377.15	252.78
377.35	217.67
377.54	238.73
377.74	278.52
377.93	311.29
378.13	320.65
378.33	332.36
378.52	273.84
378.72	304.27
378.91	297.25
379.11	280.86
379.31	346.40
379.50	294.91
379.70	201.29
379.89	306.61
380.09	297.25
380.28	332.36
380.48	330.02
380.68	292.57
380.87	308.95
381.07	435.34
381.26	428.32
381.46	278.52
381.65	414.27
381.85	381.51
382.04	496.19
382.24	367.46
382.43	362.78
382.63	339.38
382.83	367.46
383.02	337.04
383.22	393.21
383.41	297.25
383.61	337.04
383.80	379.17
384.00	379.17
384.19	372.15
384.39	421.30
384.58	395.55
384.78	451.72
384.97	339.38
385.17	407.25
385.36	360.44
385.56	437.68
385.75	461.09
385.95	351.08
386.14	458.74
386.34	393.21
386.53	491.51
386.72	425.98
386.92	372.15
387.11	461.09
387.31	461.09
387.50	374.49
387.70	430.66
387.89	418.96
388.09	535.98
388.28	430.66
388.48	486.83
388.67	465.77
388.86	486.83
389.06	456.40
389.25	465.77
389.45	491.51
389.64	437.68
389.84	482.15
390.03	449.38
390.22	430.66
390.42	568.75
390.61	470.45
390.81	447.04
391.00	533.64
391.19	578.11
391.39	428.32
391.58	505.56
391.78	496.19
391.97	489.17
392.16	456.40
392.36	521.94
392.55	582.79
392.75	620.24
392.94	491.51
393.13	550.03
393.33	531.30
393.52	580.45
393.71	601.52
393.91	653.01
394.10	514.92
394.29	528.96
394.49	582.79
394.68	601.52
394.88	557.05
395.07	575.77
395.26	629.60
395.46	667.05
395.65	655.35
395.84	671.73
396.04	674.07
396.23	636.63
396.42	634.29
396.62	669.39
396.81	655.35
397.00	662.37
397.19	716.20
397.39	631.94
397.58	660.03
397.77	662.37
397.97	713.86
398.16	697.48
398.35	702.16
398.55	648.33
398.74	805.14
398.93	713.86
399.12	741.95
399.32	676.41
399.51	774.72
399.70	748.97
399.90	753.65
400.09	779.40
400.28	786.42
400.47	798.12
400.67	758.33
400.86	795.78
401.05	767.70
401.24	837.91
401.44	992.39
401.63	861.32
401.82	929.19
402.01	800.46
402.21	861.32
402.40	835.57
402.59	823.87
402.78	828.55
402.97	835.57
403.17	887.06
403.36	961.96
403.55	863.66
403.74	889.40
403.93	973.66
404.13	959.62
404.32	912.81
404.51	807.48
404.70	964.30
404.89	966.64
405.09	961.96
405.28	957.28
405.47	961.96
405.66	933.87
405.85	945.58
406.05	945.58
406.24	1039.20
406.43	971.32
406.62	1062.60
406.81	1043.88
407.00	1088.35
407.20	1053.24
407.39	1060.26
407.58	1039.20
407.77	1102.39
407.96	1029.84
408.15	1135.16
408.34	1170.27
408.54	1153.88
408.73	1111.75
408.92	1188.99
409.11	1242.82
409.30	1132.82
409.49	1060.26
409.68	1095.37
409.87	1177.29
410.07	1224.10
410.26	1219.42
410.45	1266.23
410.64	1186.65
410.83	1301.34
411.02	1338.79
411.21	1217.08
411.40	1238.14
411.59	1268.57
411.78	1371.55
411.98	1240.48
412.17	1266.23
412.36	1310.70
412.55	1390.28
412.74	1432.41
412.93	1469.86
413.12	1493.26
413.31	1376.24
413.50	1366.87
413.69	1516.67
413.88	1544.75
414.07	1544.75
414.26	1514.33
414.45	1533.05
414.64	1657.10
414.83	1652.42
415.02	1547.09
415.22	1652.42
415.41	1547.09
415.60	1598.59
415.79	1584.54
415.98	1657.10
416.17	1689.87
416.36	1626.67
416.55	1678.16
416.74	1645.40
416.93	1722.63
417.12	1769.44
417.31	1736.68
417.50	1781.15
417.69	1809.23
417.88	1741.36
418.07	1776.47
418.26	1858.39
418.45	1783.49
418.64	1837.32
418.83	1813.92
419.02	1776.47
419.21	1790.51
419.39	1937.96
419.58	1813.92
419.77	2024.56
419.96	1970.73
420.15	1909.88
420.34	1947.33
420.53	1907.54
420.72	1912.22
420.91	2076.06
421.10	1874.77
421.29	2059.67
421.48	1944.99
421.67	1968.39
421.86	2050.31
422.05	1963.71
422.24	2062.01
422.43	2001.16
422.61	2073.71
422.80	2052.65
422.99	2136.91
423.18	2043.29
423.37	2216.49
423.56	2092.44
423.75	2003.50
423.94	2050.31
424.13	1980.09
424.32	1926.26
424.50	2064.35
424.69	2064.35
424.88	2127.55
425.07	2026.90
425.26	2155.63
425.45	2092.44
425.64	2062.01
425.83	1980.09
426.01	2076.06
426.20	2047.97
426.39	2097.12
426.58	2090.10
426.77	2122.87
426.96	2146.27
427.15	2200.10
427.33	2162.66
427.52	2167.34
427.71	2172.02
427.90	2228.19
428.09	2111.16
428.28	2092.44
428.46	2263.30
428.65	2232.87
428.84	2167.34
429.03	2267.98
429.22	2218.83
429.40	2345.22
429.59	2303.09
429.78	2153.29
429.97	2183.72
430.16	2291.38
430.34	2356.92
430.53	2387.35
430.72	2296.07
430.91	2443.52
431.10	2382.67
431.28	2354.58
431.47	2413.09
431.66	2487.99
431.85	2340.54
432.03	2581.61
432.22	2574.59
432.41	2380.32
432.60	2478.63
432.79	2459.90
432.97	2448.20
433.16	2593.31
433.35	2478.63
433.54	2438.84
433.72	2665.87
433.91	2520.76
434.10	2574.59
434.28	2530.12
434.47	2642.46
434.66	2565.23
434.85	2663.53
435.03	2647.15
435.22	2572.25
435.41	2733.75
435.59	2663.53
435.78	2768.85
435.97	2633.10
436.16	2752.47
436.34	2708.00
436.53	2710.34
436.72	2876.52
436.90	2696.30
437.09	2682.25
437.28	2693.96
437.46	2752.47
437.65	2920.99
437.84	2803.96
438.02	2913.97
438.21	2995.89
438.40	2813.32
438.58	2960.78
438.77	2963.12
438.96	2895.24
439.14	3019.29
439.33	3070.78
439.52	2981.84
439.70	3042.70
439.89	3096.53
440.08	3243.98
440.26	3197.17
440.45	3176.11
440.63	3199.51
440.82	3159.72
441.01	3136.32
441.19	3162.06
441.38	3335.26
441.57	3304.84
441.75	3335.26
441.94	3335.26
442.12	3389.10
442.31	3372.71
442.50	3389.10
442.68	3358.67
442.87	3297.81
443.05	3456.97
443.24	3454.63
443.43	3435.91
443.61	3330.58
443.80	3632.51
443.98	3438.25
444.17	3302.50
444.35	3569.32
444.54	3515.48
444.73	3597.40
444.91	3524.85
445.10	3632.51
445.28	3574.00
445.47	3442.93
445.65	3513.14
445.84	3578.68
446.02	3585.70
446.21	3646.55
446.39	3606.77
446.58	3620.81
446.77	3623.15
446.95	3625.49
447.14	3693.37
447.32	3625.49
447.51	3655.92
447.69	3660.60
447.88	3723.79
448.06	3641.87
448.25	3562.30
448.43	3756.56
448.62	3618.47
448.80	3627.83
448.99	3777.62
449.17	3705.07
449.36	3637.19
449.54	3726.13
449.73	3836.14
449.91	3854.86
450.10	3721.45
450.28	3889.97
450.46	3819.75
450.65	3728.47
450.83	3918.06
451.02	3747.20
451.20	3904.01
451.39	3934.44
451.57	3782.31
451.76	3850.18
451.94	3871.25
452.13	4163.81
452.31	3990.61
452.49	4037.42
452.68	3847.84
452.86	4051.47
453.05	4107.64
453.23	4070.19
453.42	4035.08
453.60	3913.38
453.78	4044.45
453.97	3957.85
454.15	4039.76
454.34	4063.17
454.52	4121.68
454.70	4046.79
454.89	4100.62
455.07	4147.43
455.26	4257.43
455.44	4339.35
455.62	4133.39
455.81	4234.03
455.99	4128.70
456.17	4290.20
456.36	4168.49
456.54	4440.00
456.73	4250.41
456.91	4519.57
457.09	4273.82
457.28	4526.60
457.46	4337.01
457.64	4425.95
457.83	4489.15
458.01	4472.76
458.19	4449.36
458.38	4379.14
458.56	4608.51
458.74	4486.81
458.93	4437.66
459.11	4538.30
459.29	4589.79
459.48	4489.15
459.66	4685.75
459.84	4664.69
460.03	4538.30
460.21	4683.41
460.39	4582.77
460.57	4690.43
460.76	4830.87
460.94	4755.97
461.12	4746.61
461.31	4751.29
461.49	4664.69
461.67	4802.78
461.85	4812.14
462.04	4828.53
462.22	5107.05
462.40	4985.34
462.59	4807.46
462.77	4814.48
462.95	5013.43
463.13	4940.87
463.32	4978.32
463.50	4978.32
463.68	5036.83
463.86	4933.85
464.05	4938.53
464.23	5032.15
464.41	5104.71
464.59	5011.09
464.78	5146.84
464.96	4997.04
465.14	5074.28
465.32	5076.62
465.50	5310.68
465.69	5172.58
465.87	4971.30
466.05	5210.03
466.23	5085.98
466.41	5053.22
466.60	5385.57
466.78	5118.75
466.96	5247.48
467.14	5224.08
467.32	5444.09
467.51	5294.29
467.69	5268.55
467.87	5294.29
468.05	5294.29
468.23	5385.57
468.41	5231.10
468.60	5242.80
468.78	5437.06
468.96	5507.28
469.14	5425.36
469.32	5579.84
469.50	5322.38
469.69	5563.45
469.87	5462.81
470.05	5593.88
470.23	5596.22
470.41	5460.47
470.59	5687.50
470.77	5537.71
470.95	5657.07
471.14	5738.99
471.32	5542.39
471.50	5757.72
471.68	5610.26
471.86	5689.84
472.04	5846.66
472.22	5907.51
472.40	5743.67
472.58	5975.39
472.77	6038.58
472.95	5795.17
473.13	6167.31
473.31	5998.79
473.49	5832.62
473.67	5977.73
473.85	6160.29
474.03	6134.54
474.21	6389.66
474.39	6382.64
474.57	6073.69
474.75	6417.75
474.93	6312.42
475.12	6394.34
475.30	6392.00
475.48	6244.55
475.66	6373.28
475.84	6562.86
476.02	6490.31
476.20	6504.35
476.38	6565.20
476.56	6939.69
476.74	6834.36
476.92	6766.49
477.10	6668.19
477.28	6991.18
477.46	6883.52
477.64	7054.37
477.82	7126.93
478.00	6981.82
478.18	7194.81
478.36	7368.01
478.54	7316.51
478.72	7283.75
478.90	7330.56
479.08	7349.28
479.26	7410.14
479.44	7468.65
479.62	7463.97
479.80	7639.51
479.98	7599.72
480.16	7761.22
480.34	7674.62
480.52	7749.51
480.70	7726.11
480.88	7861.86
481.06	7997.61
481.24	8049.10
481.41	8049.10
481.59	8203.58
481.77	8360.39
481.95	8353.37
482.13	8421.25
482.31	8446.99
482.49	8402.52
482.67	8643.60
482.85	8524.23
483.03	8561.68
483.21	8922.12
483.39	8795.73
483.57	8858.93
483.74	9100.00
483.92	8997.02
484.10	8802.75
484.28	8994.68
484.46	9263.84
484.64	9432.36
484.82	9287.25
485.00	9357.46
485.18	9689.82
485.35	9535.34
485.53	9533.00
485.71	9701.52
485.89	10083.03
486.07	9860.68
486.25	9778.76
486.43	9774.08
486.61	9973.02
486.78	10246.87
486.96	10153.24
487.14	10455.17
487.32	10361.55
487.50	10518.37
487.68	10352.19
487.85	10485.60
488.03	10712.63
488.21	11044.99
488.39	11052.01
488.57	10953.71
488.75	11255.64
488.92	11101.16
489.10	11358.62
489.28	11375.00
489.46	11269.68
489.64	11330.53
489.81	11550.54
489.99	11522.46
490.17	11740.13
490.35	11889.92
490.53	11683.95
490.70	12044.40
490.88	12109.93
491.06	12088.87
491.24	12121.63
491.41	12215.26
491.59	12388.46
491.77	12369.73
491.95	12461.01
492.13	12559.31
492.30	12669.32
492.48	12535.91
492.66	12950.18
492.84	12727.83
493.01	12772.30
493.19	13029.76
493.37	13444.04
493.54	12947.84
493.72	13156.15
493.90	13294.24
494.08	13329.35
494.25	13399.57
494.43	13528.30
494.61	13631.28
494.79	13495.53
494.96	13355.10
495.14	13809.16
495.32	14061.94
495.49	14242.16
495.67	13916.83
495.85	14452.81
496.02	14200.03
496.20	14544.09
496.38	14136.84
496.55	14483.24
496.73	14628.35
496.91	14413.02
497.09	14595.58
497.26	14810.91
497.44	14860.06
497.62	15089.43
497.79	14951.34
497.97	15108.16
498.14	15016.88
498.32	15335.19
498.50	15257.95
498.67	15704.99
498.85	15459.24
499.03	15524.77
499.20	15442.85
499.38	15651.16
499.56	15712.02
499.73	15468.60
499.91	15866.49
500.08	16072.46
500.26	15683.93
500.44	15992.88
500.61	16180.12
500.79	16145.02
500.97	16283.11
501.14	16521.84
501.32	16381.41
501.49	16334.60
501.67	16418.86
501.84	16592.06
502.02	16620.14
502.20	16673.98
502.37	16521.84
502.55	16510.14
502.72	16386.09
502.90	17207.62
503.07	16915.05
503.25	16734.83
503.43	16730.15
503.60	17001.65
503.78	17451.03
503.95	17083.57
504.13	16847.18
504.30	17200.60
504.48	17078.89
504.65	17406.56
504.83	17294.22
505.01	17441.67
505.18	17453.37
505.36	17675.73
505.53	17184.21
505.71	17516.57
505.88	17839.56
506.06	17603.17
506.23	17909.78
506.41	17809.14
506.58	18010.42
506.76	18024.47
506.93	17928.50
507.11	17802.11
507.28	18106.38
507.46	17977.65
507.63	18061.91
507.81	18246.82
507.98	18279.58
508.16	18333.42
508.33	18113.41
508.50	18672.79
508.68	18469.17
508.85	18574.49
509.03	18520.66
509.20	18773.44
509.38	18946.64
509.55	19037.92
509.73	18831.95
509.90	18948.98
510.08	19194.73
510.25	19030.90
510.42	19033.24
510.60	18998.13
510.77	19405.38
510.95	19440.49
511.12	19222.82
511.30	19576.24
511.47	19445.17
511.64	19569.22
511.82	19817.32
511.99	19412.40
512.17	19831.36
512.34	19641.78
512.51	19569.22
512.69	19929.66
512.86	19758.80
513.04	20107.54
513.21	20109.88
513.38	19922.64
513.56	19985.83
513.73	19768.16
513.90	19964.77
514.08	20065.41
514.25	20489.05
514.43	20379.04
514.60	20496.07
514.77	20411.81
514.95	20662.25
515.12	20821.41
515.29	20372.02
515.47	20636.50
515.64	20823.75
515.81	20849.49
515.99	20730.12
516.16	20772.25
516.33	21057.80
516.51	21198.23
516.68	20709.06
516.85	20966.52
517.03	21245.04
517.20	21172.49
517.37	21135.04
517.54	21530.59
517.72	21191.21
517.89	21191.21
518.06	21097.59
518.24	21303.56
518.41	21238.02
518.58	21544.63
518.75	21628.89
518.93	21734.21
519.10	21586.76
519.27	21923.80
519.45	21385.47
519.62	21678.04
519.79	21965.93
519.96	21694.43
520.14	21816.13
520.31	21799.75
520.48	22001.04
520.65	21970.61
520.83	22012.74
521.00	21996.35
521.17	21975.29
521.34	21799.75
521.52	22314.67
521.69	22176.58
521.86	22726.60
522.03	22560.42
522.20	22464.46
522.38	22581.49
522.55	22658.73
522.72	22417.65
522.89	22670.43
523.07	22834.27
523.24	22778.09
523.41	22867.03
523.58	22586.17
523.75	23126.83
523.92	22771.07
524.10	23096.41
524.27	22932.57
524.44	23278.97
524.61	23372.59
524.78	23101.09
524.96	23103.43
525.13	23328.12
525.30	23091.73
525.47	23236.84
525.64	23159.60
525.81	23370.25
525.98	23627.71
526.16	23363.23
526.33	23440.47
526.50	23571.54
526.67	23400.68
526.84	23651.11
527.01	23683.88
527.18	23601.96
527.36	23948.36
527.53	23896.87
527.70	24236.25
527.87	23936.66
528.04	23889.85
528.21	24102.84
528.38	24032.62
528.55	23950.70
528.72	23892.19
528.89	24458.60
529.07	24170.71
529.24	24329.87
529.41	24224.54
529.58	23875.80
529.75	24439.87
529.92	24273.70
530.09	24386.04
530.26	24589.67
530.43	24582.65
530.60	24301.78
530.77	24332.21
530.94	24837.76
531.11	24381.36
531.28	24397.74
531.46	24662.22
531.63	24769.89
531.80	24617.75
531.97	24968.84
532.14	24929.05
532.31	24856.49
532.48	24980.54
532.65	24788.61
532.82	24896.28
532.99	24713.72
533.16	25238.00
533.33	24971.18
533.50	25378.43
533.67	25373.75
533.84	25062.46
534.01	25425.24
534.18	25219.27
534.35	25362.04
534.52	25207.57
534.69	25472.05
534.86	25439.28
535.03	25097.56
535.20	25537.59
535.37	25532.90
535.54	25631.21
535.71	25930.80
535.88	25521.20
536.05	25797.38
536.22	25731.85
536.38	25846.54
536.55	25982.29
536.72	25762.28
536.89	25675.68
537.06	26019.74
537.23	25846.54
537.40	25935.48
537.57	25748.23
537.74	25984.63
537.91	26410.60
538.08	25940.16
538.25	26202.30
538.42	25886.32
538.59	26040.80
538.75	26068.89
538.92	26260.81
539.09	26354.43
539.26	26199.96
539.43	26298.26
539.60	26366.13
539.77	25804.41
539.94	26438.69
540.11	26677.43
540.28	26661.04
540.44	26647.00
540.61	26382.52
540.78	26455.08
540.95	26511.25
541.12	26403.58
541.29	26677.43
541.46	26780.41
541.62	26759.34
541.79	26885.73
541.96	26492.52
542.13	26628.27
542.30	26735.94
542.47	26937.23
542.63	26831.90
542.80	27271.92
542.97	27278.94
543.14	27503.64
543.31	27044.89
543.48	27126.81
543.64	27407.67
543.81	27133.83
543.98	27821.95
544.15	27323.41
544.32	27625.34
544.48	27960.04
544.65	27206.39
544.82	27199.37
544.99	26801.47
545.16	27365.54
545.32	27744.71
545.49	27740.03
545.66	27997.49
545.83	27812.59
546.00	27754.07
546.16	27459.16
546.33	27557.47
546.50	27262.56
546.67	27796.20
546.83	27367.88
547.00	27737.69
547.17	27754.07
547.34	28044.30
547.50	28112.17
547.67	28182.39
547.84	27805.56
548.00	27962.38
548.17	28278.35
548.34	28173.03
548.51	28301.76
548.67	28453.89
548.84	28109.83
549.01	28184.73
549.18	28231.54
549.34	28287.71
549.51	28402.40
549.68	28276.01
549.84	28208.14
550.01	28018.55
550.18	28212.82
550.34	28617.73
550.51	28533.47
550.68	28386.02
550.84	28116.86
551.01	28732.42
551.18	28491.34
551.34	28126.22
551.51	28135.58
551.68	29006.26
551.84	28989.88
552.01	28968.81
552.18	28797.95
552.34	28680.92
552.51	28325.16
552.68	28393.04
552.84	28739.44
553.01	28926.68
553.18	28769.86
553.34	28610.71
553.51	28673.90
553.67	28631.77
553.84	29013.28
554.01	29350.32
554.17	29010.94
554.34	29596.07
554.51	28776.89
554.67	29179.46
554.84	28973.49
555.00	29043.71
555.17	29071.79
555.33	29453.30
555.50	29118.60
555.67	29053.07
555.83	29144.35
556.00	29397.13
556.16	29326.91
556.33	29111.58
556.50	29326.91
556.66	29790.34
556.83	29497.77
556.99	29598.41
557.16	29553.94
557.32	29523.52
557.49	29420.53
557.65	29081.16
557.82	29376.06
557.98	29832.47
558.15	29249.67
558.32	29603.10
558.48	29565.65
558.65	29748.21
558.81	29757.57
558.98	29572.67
559.14	29504.79
559.31	29319.89
559.47	29708.42
559.64	29638.20
559.80	29537.56
559.97	29841.83
560.13	29692.04
560.30	30045.46
560.46	29993.97
560.63	29839.49
560.79	29663.95
560.96	30029.07
561.12	29883.96
561.29	29839.49
561.45	29317.55
561.61	29703.74
561.78	29635.86
561.94	29785.66
562.11	29958.86
562.27	29968.22
562.44	29593.73
562.60	29872.26
562.77	29949.50
562.93	29804.38
563.10	30309.94
563.26	29879.28
563.42	30237.38
563.59	30394.20
563.75	30153.12
563.92	30513.56
564.08	30036.09
564.24	30089.93
564.41	30000.99
564.57	30054.82
564.74	30244.40
564.90	29947.15
565.07	30309.94
565.23	30132.06
565.39	30043.12
565.56	30101.63
565.72	30658.68
565.88	30300.58
566.05	30108.65
566.21	29839.49
566.38	30265.47
566.54	30307.60
566.70	30422.28
566.87	30625.91
567.03	30548.67
567.19	30764.00
567.36	30441.01
567.52	30256.11
567.68	30934.86
567.85	30352.07
568.01	30202.27
568.17	30548.67
568.34	30373.13
568.50	30581.44
568.66	30300.58
568.83	30087.59
568.99	30546.33
569.15	30677.40
569.32	30316.96
569.48	30536.97
569.64	30260.79
569.81	30792.09
569.97	30529.95
570.13	30476.12
570.30	30288.87
570.46	30368.45
570.62	30824.86
570.78	30703.15
570.95	30188.23
571.11	30569.74
571.27	30370.79
571.43	30160.14
571.60	30794.43
571.76	30679.74
571.92	30443.35
572.09	30639.95
572.25	30778.04
572.41	30590.80
572.57	30558.03
572.74	30642.29
572.90	30834.22
573.06	30684.42
573.22	30445.69
573.38	30665.70
573.55	30738.26
573.71	31103.38
573.87	31033.16
574.03	30712.51
574.20	30604.84
574.36	30859.96
574.52	30820.17
574.68	30309.94
574.84	31075.29
575.01	31199.34
575.17	31030.82
575.33	30712.51
575.49	31152.53
575.65	31007.42
575.82	30995.71
575.98	30684.42
576.14	30993.37
576.30	30843.58
576.46	30721.87
576.62	30724.21
576.79	30981.67
576.95	30642.29
577.11	30904.43
577.27	30850.60
577.43	30635.27
577.59	31000.40
577.75	30874.01
577.92	30654.00
578.08	30560.37
578.24	30855.28
578.40	30948.90
578.56	30904.43
578.72	30569.74
578.88	30756.98
579.04	30888.05
579.21	30869.33
579.37	30923.16
579.53	31372.54
579.69	30838.90
579.85	30981.67
580.01	30689.10
580.17	30689.10
580.33	31002.74
580.49	30897.41
580.65	30925.50
580.82	31213.38
580.98	31267.22
581.14	31101.04
581.30	30834.22
581.46	30646.97
581.62	30967.63
581.78	30597.82
581.94	30972.31
582.10	30789.75
582.26	31112.74
582.42	31037.84
582.58	31019.12
582.74	31239.13
582.90	31323.39
583.06	31021.46
583.22	30522.93
583.38	31225.09
583.54	30925.50
583.70	30614.21
583.86	31042.53
584.02	31037.84
584.18	30895.07
584.34	31218.07
584.50	31178.28
584.66	31051.89
584.82	31087.00
584.98	31049.55
585.14	30698.47
585.30	31087.00
585.46	31037.84
585.62	30937.20
585.78	31175.94
585.94	30799.11
586.10	31082.31
586.26	31103.38
586.42	31283.60
586.58	30955.93
586.74	31147.85
586.90	30724.21
587.06	30848.26
587.22	30724.21
587.38	30764.00
587.54	31431.05
587.70	31164.23
587.86	31421.69
588.02	31264.88
588.18	31454.46
588.34	31419.35
588.49	31456.80
588.65	31204.02
588.81	31189.98
588.97	31079.97
589.13	31051.89
589.29	31597.23
589.45	31302.32
589.61	31527.02
589.77	31536.38
589.93	31328.07
590.08	31580.85
590.24	31213.38
590.40	31421.69
590.56	31630.00
590.72	31124.44
590.88	31393.61
591.04	31178.28
591.20	31468.50
591.35	31477.86
591.51	32205.77
591.67	31857.03
591.83	32070.02
591.99	31550.42
