SpectraSuite Data File
++++++++++++++++++++++++++++++++++++
Date: Fri Oct 18 13:58:34 GMT-05:00 2013
User: bianchi
Dark Spectrum Present: No
Reference Spectrum Present: No
Number of Sampled Component Spectra: 1
Spectrometers: USB2+H05261
Integration Time (usec): 50000 (USB2+H05261)
Spectra Averaged: 1 (USB2+H05261)
Boxcar Smoothing: 0 (USB2+H05261)
Correct for Electrical Dark: No (USB2+H05261)
Strobe/Lamp Enabled: No (USB2+H05261)
Correct for Detector Non-linearity: No (USB2+H05261)
Correct for Stray Light: No (USB2+H05261)
Number of Pixels in Processed Spectrum: 2048
>>>>>Begin Processed Spectral Data<<<<<
365.73	0.00
365.92	0.00
366.12	0.00
366.32	0.00
366.52	0.00
366.72	0.00
366.91	0.00
367.11	0.00
367.31	0.00
367.51	0.00
367.70	0.00
367.90	0.00
368.10	0.00
368.30	0.00
368.49	0.00
368.69	0.00
368.89	0.00
369.09	0.00
369.28	0.00
369.48	0.00
369.68	0.00
369.87	0.00
370.07	0.00
370.27	0.00
370.47	23.41
370.66	49.15
370.86	102.98
371.06	212.99
371.25	184.90
371.45	156.82
371.65	166.18
371.84	198.95
372.04	126.39
372.24	159.16
372.44	180.22
372.63	224.69
372.83	194.26
373.03	163.84
373.22	212.99
373.42	203.63
373.62	182.56
373.81	208.31
374.01	278.52
374.21	266.82
374.40	269.16
374.60	238.73
374.79	168.52
374.99	273.84
375.19	215.33
375.38	266.82
375.58	252.78
375.78	191.92
375.97	180.22
376.17	248.10
376.37	259.80
376.56	245.76
376.76	278.52
376.95	222.35
377.15	255.12
377.35	224.69
377.54	271.50
377.74	203.63
377.93	212.99
378.13	372.15
378.33	292.57
378.52	266.82
378.72	313.63
378.91	285.55
379.11	248.10
379.31	271.50
379.50	198.95
379.70	304.27
379.89	367.46
380.09	217.67
380.28	264.48
380.48	285.55
380.68	287.89
380.87	259.80
381.07	332.36
381.26	330.02
381.46	308.95
381.65	390.87
381.85	287.89
382.04	294.91
382.24	381.51
382.43	376.83
382.63	388.53
382.83	362.78
383.02	351.08
383.22	318.31
383.41	332.36
383.61	327.68
383.80	484.49
384.00	442.36
384.19	346.40
384.39	381.51
384.58	400.23
384.78	334.70
384.97	440.02
385.17	374.49
385.36	372.15
385.56	367.46
385.75	386.19
385.95	353.42
386.14	421.30
386.34	400.23
386.53	381.51
386.72	294.91
386.92	404.91
387.11	461.09
387.31	395.55
387.50	409.59
387.70	402.57
387.89	411.93
388.09	428.32
388.28	407.25
388.48	390.87
388.67	519.60
388.86	498.53
389.06	407.25
389.25	444.70
389.45	418.96
389.64	404.91
389.84	458.74
390.03	489.17
390.22	498.53
390.42	521.94
390.61	510.24
390.81	486.83
391.00	514.92
391.19	524.28
391.39	521.94
391.58	440.02
391.78	491.51
391.97	571.09
392.16	463.43
392.36	543.00
392.55	503.22
392.75	545.34
392.94	627.26
393.13	573.43
393.33	489.17
393.52	547.69
393.71	566.41
393.91	613.22
394.10	606.20
394.29	533.64
394.49	594.50
394.68	545.34
394.88	587.47
395.07	578.11
395.26	622.58
395.46	587.47
395.65	610.88
395.84	648.33
396.04	674.07
396.23	650.67
396.42	599.18
396.62	613.22
396.81	725.57
397.00	676.41
397.19	681.10
397.39	674.07
397.58	648.33
397.77	594.50
397.97	688.12
398.16	723.23
398.35	699.82
398.55	671.73
398.74	657.69
398.93	716.20
399.12	746.63
399.32	723.23
399.51	760.67
399.70	702.16
399.90	800.46
400.09	795.78
400.28	849.61
400.47	814.51
400.67	894.08
400.86	711.52
401.05	828.55
401.24	814.51
401.44	777.06
401.63	709.18
401.82	842.59
402.01	770.04
402.21	800.46
402.40	772.38
402.59	748.97
402.78	786.42
402.97	823.87
403.17	882.38
403.36	929.19
403.55	943.24
403.74	905.79
403.93	992.39
404.13	880.04
404.32	884.72
404.51	849.61
404.70	861.32
404.89	952.60
405.09	1029.84
405.28	978.34
405.47	915.15
405.66	978.34
405.85	947.92
406.05	938.55
406.24	908.13
406.43	910.47
406.62	1041.54
406.81	894.08
407.00	1090.69
407.20	978.34
407.39	1022.81
407.58	1057.92
407.77	1046.22
407.96	1008.77
408.15	1050.90
408.34	908.13
408.54	1196.01
408.73	1139.84
408.92	1128.14
409.11	1097.71
409.30	1123.46
409.49	1184.31
409.68	1184.31
409.87	1174.95
410.07	1142.18
410.26	1151.54
410.45	1181.97
410.64	1174.95
410.83	1210.06
411.02	1266.23
411.21	1158.57
411.40	1172.61
411.59	1261.55
411.78	1303.68
411.98	1301.34
412.17	1242.82
412.36	1259.21
412.55	1310.70
412.74	1373.89
412.93	1282.61
413.12	1322.40
413.31	1313.04
413.50	1338.79
413.69	1350.49
413.88	1423.05
414.07	1497.94
414.26	1465.18
414.45	1434.75
414.64	1511.99
414.83	1411.34
415.02	1495.60
415.22	1568.16
415.41	1511.99
415.60	1631.35
415.79	1523.69
415.98	1519.01
416.17	1626.67
416.36	1579.86
416.55	1612.63
416.74	1593.90
416.93	1673.48
417.12	1706.25
417.31	1673.48
417.50	1617.31
417.69	1694.55
417.88	1764.76
418.07	1750.72
418.26	1715.61
418.45	1727.32
418.64	1757.74
418.83	1839.66
419.02	1851.36
419.21	1834.98
419.39	1727.32
419.58	1753.06
419.77	1863.07
419.96	1771.79
420.15	1806.89
420.34	1888.81
420.53	1916.90
420.72	1888.81
420.91	1860.73
421.10	1888.81
421.29	1980.09
421.48	1905.20
421.67	1952.01
421.86	1928.60
422.05	1968.39
422.24	1942.64
422.43	1914.56
422.61	1947.33
422.80	1956.69
422.99	1921.58
423.18	2001.16
423.37	2031.58
423.56	1902.86
423.75	2052.65
423.94	1975.41
424.13	1856.04
424.32	1977.75
424.50	2069.03
424.69	2150.95
424.88	1996.48
425.07	1933.28
425.26	1998.82
425.45	2024.56
425.64	2090.10
425.83	1968.39
426.01	2122.87
426.20	2008.18
426.39	2045.63
426.58	2052.65
426.77	2083.08
426.96	2139.25
427.15	2108.82
427.33	2024.56
427.52	2005.84
427.71	2125.21
427.90	2172.02
428.09	2230.53
428.28	2207.13
428.46	2186.06
428.65	2094.78
428.84	2188.40
429.03	2228.19
429.22	2232.87
429.40	2253.94
429.59	2361.60
429.78	2069.03
429.97	2214.15
430.16	2162.66
430.34	2232.87
430.53	2267.98
430.72	2298.41
430.91	2270.32
431.10	2310.11
431.28	2387.35
431.47	2335.85
431.66	2310.11
431.85	2438.84
432.03	2527.78
432.22	2438.84
432.41	2471.61
432.60	2438.84
432.79	2408.41
432.97	2513.74
433.16	2459.90
433.35	2497.35
433.54	2626.08
433.72	2569.91
433.91	2413.09
434.10	2473.95
434.28	2588.63
434.47	2504.37
434.66	2579.27
434.85	2562.89
435.03	2612.04
435.22	2572.25
435.41	2682.25
435.59	2574.59
435.78	2609.70
435.97	2642.46
436.16	2658.85
436.34	2663.53
436.53	2649.49
436.72	2750.13
436.90	2630.76
437.09	2651.83
437.28	2726.72
437.46	2794.60
437.65	2726.72
437.84	2761.83
438.02	2761.83
438.21	2885.88
438.40	2818.00
438.58	2967.80
438.77	2892.90
438.96	2736.09
439.14	2932.69
439.33	2949.08
439.52	2974.82
439.70	3033.33
439.89	3101.21
440.08	3019.29
440.26	2970.14
440.45	3000.57
440.63	3089.51
440.82	3131.64
441.01	3194.83
441.19	3091.85
441.38	3124.62
441.57	3220.58
441.75	3227.60
441.94	3323.56
442.12	3337.60
442.31	3318.88
442.50	3307.18
442.68	3141.00
442.87	3309.52
443.05	3377.39
443.24	3379.73
443.43	3517.83
443.61	3407.82
443.80	3471.01
443.98	3288.45
444.17	3225.26
444.35	3452.29
444.54	3403.14
444.73	3272.07
444.91	3368.03
445.10	3330.58
445.28	3330.58
445.47	3534.21
445.65	3375.05
445.84	3529.53
446.02	3522.51
446.21	3361.01
446.39	3335.26
446.58	3478.04
446.77	3522.51
446.95	3496.76
447.14	3449.95
447.32	3494.42
447.51	3447.61
447.69	3342.28
447.88	3590.38
448.06	3527.19
448.25	3541.23
448.43	3503.78
448.62	3599.74
448.80	3566.98
448.99	3581.02
449.17	3536.55
449.36	3445.27
449.54	3562.30
449.73	3625.49
449.91	3768.26
450.10	3606.77
450.28	3740.18
450.46	3595.06
450.65	3644.21
450.83	3688.68
451.02	3756.56
451.20	3815.07
451.39	3822.09
451.57	3768.26
451.76	3688.68
451.94	3779.97
452.13	3817.41
452.31	3737.84
452.49	3583.36
452.68	3833.80
452.86	3822.09
453.05	4016.36
453.23	3901.67
453.42	3796.35
453.60	3899.33
453.78	3922.74
453.97	3913.38
454.15	3866.56
454.34	3925.08
454.52	4016.36
454.70	4060.83
454.89	3967.21
455.07	4030.40
455.26	3948.48
455.44	4049.13
455.62	4119.34
455.81	4156.79
455.99	4046.79
456.17	4039.76
456.36	4086.58
456.54	4264.46
456.73	4201.26
456.91	4299.56
457.09	4290.20
457.28	4313.61
457.46	4177.86
457.64	4285.52
457.83	4372.12
458.01	4203.60
458.19	4379.14
458.38	4414.25
458.56	4362.76
458.74	4428.29
458.93	4400.21
459.11	4440.00
459.29	4355.74
459.48	4353.40
459.66	4519.57
459.84	4482.13
460.03	4664.69
460.21	4475.10
460.39	4498.51
460.57	4414.25
460.76	4540.64
460.94	4514.89
461.12	4603.83
461.31	4554.68
461.49	4568.73
461.67	4575.75
461.85	4645.96
462.04	4655.33
462.22	4865.97
462.40	4725.54
462.59	4636.60
462.77	4622.56
462.95	4842.57
463.13	4793.42
463.32	4746.61
463.50	4758.31
463.68	4898.74
463.86	4915.12
464.05	4746.61
464.23	4823.84
464.41	4896.40
464.59	4807.46
464.78	4971.30
464.96	4938.53
465.14	4964.28
465.32	4994.70
465.50	4947.89
465.69	4924.49
465.87	4826.18
466.05	4854.27
466.23	4980.66
466.41	5128.11
466.60	5233.44
466.78	5062.58
466.96	4910.44
467.14	5004.07
467.32	5032.15
467.51	5266.21
467.69	5102.37
467.87	5210.03
468.05	5097.69
468.23	5018.11
468.41	4985.34
468.60	5224.08
468.78	5123.43
468.96	5167.90
469.14	5289.61
469.32	5439.40
469.50	5195.99
469.69	5266.21
469.87	5317.70
470.05	5460.47
470.23	5366.85
470.41	5350.46
470.59	5404.30
470.77	5331.74
470.95	5430.04
471.14	5584.52
471.32	5303.65
471.50	5518.98
471.68	5469.83
471.86	5591.54
472.04	5671.12
472.22	5724.95
472.40	5516.64
472.58	5467.49
472.77	5937.94
472.95	5713.25
473.13	6040.92
473.31	5795.17
473.49	5884.11
473.67	5804.53
473.85	5849.00
474.03	5991.77
474.21	5841.98
474.39	5947.30
474.57	6073.69
474.75	6076.03
474.93	6076.03
475.12	6129.86
475.30	6104.12
475.48	6090.07
475.66	6211.78
475.84	6211.78
476.02	6352.21
476.20	6272.64
476.38	6548.82
476.56	6513.71
476.74	6551.16
476.92	6401.37
477.10	6429.45
477.28	6600.31
477.46	6516.05
477.64	6733.72
477.82	6853.09
478.00	6899.90
478.18	6925.65
478.36	6960.75
478.54	7061.40
478.72	6902.24
478.90	6979.48
479.08	7269.70
479.26	7133.95
479.44	7272.04
479.62	7225.23
479.80	7442.90
479.98	7410.14
480.16	7485.03
480.34	7400.77
480.52	7529.50
480.70	7707.38
480.88	7644.19
481.06	7674.62
481.24	7688.66
481.41	7946.12
481.59	8074.85
481.77	7786.96
481.95	8028.04
482.13	8042.08
482.31	8011.65
482.49	8081.87
482.67	8196.56
482.85	8196.56
483.03	8372.10
483.21	8456.36
483.39	8418.91
483.57	8409.54
483.74	8671.68
483.92	8571.04
484.10	8697.43
484.28	8887.01
484.46	8959.57
484.64	9046.17
484.82	8922.12
485.00	8938.51
485.18	9256.82
485.35	9334.06
485.53	9263.84
485.71	9341.08
485.89	9699.18
486.07	9401.93
486.25	9432.36
486.43	9638.33
486.61	9832.59
486.78	9736.63
486.96	9809.19
487.14	9900.47
487.32	10071.33
487.50	10064.30
487.68	10272.61
487.85	10076.01
488.03	10265.59
488.21	10370.91
488.39	10408.36
488.57	10565.18
488.75	10675.18
488.92	10700.93
489.10	10888.17
489.28	10846.04
489.46	10899.87
489.64	10946.69
489.81	11215.85
489.99	11066.05
490.17	11363.30
490.35	11517.78
490.53	11351.60
490.70	11623.10
490.88	11625.44
491.06	11833.75
491.24	11566.93
491.41	11913.33
491.59	12053.76
491.77	12102.91
491.95	12098.23
492.13	11903.96
492.30	12189.51
492.48	12093.55
492.66	12219.94
492.84	12159.08
493.01	12461.01
493.19	12343.99
493.37	12685.70
493.54	12517.18
493.72	12898.69
493.90	12929.12
494.08	12725.49
494.25	13317.65
494.43	13263.82
494.61	13177.22
494.79	13116.36
494.96	13350.42
495.14	13373.82
495.32	13521.27
495.49	13696.82
495.67	13607.87
495.85	13884.06
496.02	13984.70
496.20	13776.39
496.38	13893.42
496.55	13867.67
496.73	14284.29
496.91	13998.74
497.09	13984.70
497.26	14272.59
497.44	14160.24
497.62	14040.87
497.79	14427.06
497.97	14672.82
498.14	14836.66
498.32	14710.27
498.50	14937.30
498.67	14831.97
498.85	14813.25
499.03	14878.79
499.20	14977.09
499.38	15040.28
499.56	14995.81
499.73	15215.82
499.91	15133.90
500.08	15440.51
500.26	15309.44
500.44	15360.94
500.61	15396.04
500.79	15506.05
500.97	15559.88
501.14	15805.64
501.32	15695.63
501.49	15765.85
501.67	15955.43
501.84	15803.30
502.02	15946.07
502.20	16088.84
502.37	16198.85
502.55	16198.85
502.72	16039.69
502.90	16308.85
503.07	16009.26
503.25	16224.59
503.43	16142.67
503.60	16358.00
503.78	16599.08
503.95	16514.82
504.13	16442.26
504.30	16409.50
504.48	16578.01
504.65	16578.01
504.83	16706.74
505.01	16992.29
505.18	16805.05
505.36	16886.97
505.53	17170.17
505.71	16985.27
505.88	17025.06
506.06	16877.60
506.23	16980.59
506.41	17266.13
506.58	17369.12
506.76	17296.56
506.93	17387.84
507.11	17090.59
507.28	17816.16
507.46	17867.65
507.63	17481.46
507.81	18185.96
507.98	17774.03
508.16	17963.61
508.33	17724.88
508.50	17776.37
508.68	17654.66
508.85	17741.26
509.03	17982.34
509.20	18274.90
509.38	18132.13
509.55	18221.07
509.73	18190.64
509.90	17963.61
510.08	18150.85
510.25	18148.51
510.42	18291.29
510.60	18614.28
510.77	18595.56
510.95	18752.37
511.12	18359.16
511.30	18644.71
511.47	18658.75
511.64	18609.60
511.82	18991.11
511.99	19124.52
512.17	18787.48
512.34	18965.36
512.51	18958.34
512.69	18967.70
512.86	19147.92
513.04	19201.76
513.21	19126.86
513.38	19524.75
513.56	19552.84
513.73	19274.31
513.90	19087.07
514.08	19454.53
514.25	19367.93
514.43	19695.61
514.60	19721.35
514.77	19597.31
514.95	19885.19
515.12	19646.46
515.29	19655.82
515.47	20051.37
515.64	20290.10
515.81	19730.72
515.99	19882.85
516.16	20184.78
516.33	20063.07
516.51	20278.40
516.68	20360.32
516.85	20098.18
517.03	20210.53
517.20	20430.54
517.37	20615.44
517.54	20367.34
517.72	20695.02
517.89	20215.21
518.06	20528.84
518.24	20580.33
518.41	20411.81
518.58	20774.60
518.75	20622.46
518.93	21015.67
519.10	20933.75
519.27	21069.50
519.45	20926.73
519.62	20718.42
519.79	20570.97
519.96	20727.78
520.14	21156.10
520.31	21369.09
520.48	21319.94
520.65	21280.15
520.83	21198.23
521.00	21195.89
521.17	21476.76
521.34	21378.45
521.52	21394.84
521.69	21685.06
521.86	21352.71
522.03	21837.20
522.20	21568.04
522.38	21675.70
522.55	21502.50
522.72	21923.80
522.89	21563.36
523.07	22237.43
523.24	21975.29
523.41	22141.47
523.58	21682.72
523.75	22230.41
523.92	21958.91
524.10	22118.06
524.27	22101.68
524.44	22307.65
524.61	22441.06
524.78	22174.24
524.96	22253.81
525.13	22221.05
525.30	22288.92
525.47	22614.26
525.64	22441.06
525.81	22705.54
525.98	22551.06
526.16	22679.79
526.33	22614.26
526.50	22970.02
526.67	22377.86
526.84	23152.58
527.01	22726.60
527.18	22682.13
527.36	22986.40
527.53	22871.72
527.70	23220.45
527.87	22988.74
528.04	23442.81
528.21	22703.20
528.38	23236.84
528.55	23372.59
528.72	23253.22
528.89	23152.58
529.07	22965.34
529.24	23325.78
529.41	23138.54
529.58	23412.38
529.75	23353.87
529.92	23063.64
530.09	23370.25
530.26	23304.71
530.43	23819.63
530.60	23571.54
530.77	23639.41
530.94	23641.75
531.11	23332.80
531.28	23854.74
531.46	23403.02
531.63	23885.17
531.80	23906.23
531.97	23695.58
532.14	24025.60
532.31	23828.99
532.48	24009.22
532.65	24041.98
532.82	24088.79
532.99	24259.65
533.16	23768.14
533.33	24002.19
533.50	24372.00
533.67	24283.06
533.84	23971.77
534.01	23924.96
534.18	23978.79
534.35	24505.41
534.52	24128.58
534.69	24456.26
534.86	24386.04
535.03	24491.37
535.20	24727.76
535.37	24346.25
535.54	24641.16
535.71	24407.11
535.88	24631.80
536.05	24355.61
536.22	24725.42
536.38	24996.92
536.55	24746.48
536.72	24556.90
536.89	24828.40
537.06	25088.20
537.23	24861.17
537.40	24788.61
537.57	25186.50
537.74	25095.22
537.91	25238.00
538.08	25343.32
538.25	25242.68
538.42	25383.11
538.59	25174.80
538.75	25081.18
538.92	24926.71
539.09	25352.68
539.26	25411.20
539.43	25263.74
539.60	25181.82
539.77	25429.92
539.94	25638.23
540.11	25090.54
540.28	25324.60
540.44	25296.51
540.61	25460.35
540.78	25366.73
540.95	25589.08
541.12	25404.17
541.29	25883.98
541.46	25809.09
541.62	25486.09
541.79	25420.56
541.96	25366.73
542.13	25696.74
542.30	25720.15
542.47	25996.33
542.63	25708.44
542.80	26038.46
542.97	26302.94
543.14	26309.96
543.31	26085.27
543.48	25949.52
543.64	26389.54
543.81	26190.59
543.98	26209.32
544.15	26324.01
544.32	26576.78
544.48	26511.25
544.65	26380.18
544.82	26188.25
544.99	26054.84
545.16	26281.88
545.32	26244.43
545.49	26635.30
545.66	26892.76
545.83	26508.91
546.00	26686.79
546.16	26668.06
546.33	26434.01
546.50	25972.92
546.67	26527.63
546.83	26623.59
547.00	26623.59
547.17	27061.27
547.34	26953.61
547.50	26962.97
547.67	26979.36
547.84	26981.70
548.00	27150.21
548.17	27072.98
548.34	26923.18
548.51	26747.64
548.67	26939.57
548.84	27241.50
549.01	26995.74
549.18	27040.21
549.34	26789.77
549.51	26911.48
549.68	27309.37
549.84	27283.62
550.01	27072.98
550.18	27019.14
550.34	27400.65
550.51	27494.27
550.68	27309.37
550.84	27342.14
551.01	27452.14
551.18	27239.15
551.34	27033.19
551.51	27342.14
551.68	27225.11
551.84	27679.18
552.01	27508.32
552.18	27510.66
552.34	27339.80
552.51	27768.12
552.68	27791.52
552.84	27412.35
553.01	27569.17
553.18	27538.74
553.34	27978.76
553.51	27571.51
553.67	27754.07
553.84	27744.71
554.01	27934.29
554.17	27662.79
554.34	27885.14
554.51	27562.15
554.67	27653.43
554.84	27716.62
555.00	27821.95
555.17	27896.85
555.33	27924.93
555.50	27683.86
555.67	27850.03
555.83	28044.30
556.00	27931.95
556.16	28226.86
556.33	27896.85
556.50	27566.83
556.66	28444.53
556.83	28325.16
556.99	28549.85
557.16	28252.61
557.32	28416.44
557.49	28182.39
557.65	27974.08
557.82	28187.07
557.98	28236.22
558.15	28538.15
558.32	28292.40
558.48	28301.76
558.65	28170.69
558.81	28250.27
558.98	28357.93
559.14	28116.86
559.31	28119.20
559.47	28285.37
559.64	28439.85
559.80	28276.01
559.97	28491.34
560.13	28369.63
560.30	28538.15
560.46	28788.59
560.63	28591.98
560.79	28327.50
560.96	28697.31
561.12	28484.32
561.29	28254.95
561.45	28446.87
561.61	28566.24
561.78	28505.38
561.94	28802.63
562.11	28470.28
562.27	28737.10
562.44	28554.54
562.60	28774.55
562.77	28308.78
562.93	28418.78
563.10	29055.41
563.26	28638.80
563.42	29221.59
563.59	29163.08
563.75	28982.85
563.92	29046.05
564.08	28809.65
564.24	28877.53
564.41	28814.34
564.57	28975.83
564.74	28884.55
564.90	29046.05
565.07	28968.81
565.23	29081.16
565.39	29106.90
565.56	28734.76
565.72	28671.56
565.88	28709.01
566.05	28912.64
566.21	29088.18
566.38	28933.70
566.54	28994.56
566.70	28980.51
566.87	29324.57
567.03	28720.71
567.19	29355.00
567.36	29308.19
567.52	29268.40
567.68	29221.59
567.85	28898.59
568.01	28964.13
568.17	29266.06
568.34	28950.09
568.50	29254.36
568.66	29235.63
568.83	29530.54
568.99	29453.30
569.15	29380.74
569.32	29125.63
569.48	29076.48
569.64	28978.17
569.81	29476.71
569.97	29071.79
570.13	29315.21
570.30	29373.72
570.46	29617.14
570.62	29357.34
570.78	29221.59
570.95	29273.08
571.11	29296.49
571.27	29034.35
571.43	28610.71
571.60	29153.71
571.76	29284.78
571.92	29165.42
572.09	29338.62
572.25	29237.97
572.41	29401.81
572.57	29188.82
572.74	29530.54
572.90	29273.08
573.06	29420.53
573.22	29111.58
573.38	29432.24
573.55	29560.97
573.71	29280.10
573.87	29645.23
574.03	29364.36
574.20	29214.57
574.36	29158.39
574.52	29160.73
574.68	28685.61
574.84	29558.63
575.01	29462.66
575.17	29497.77
575.33	29488.41
575.49	29310.53
575.65	29565.65
575.82	29553.94
575.98	29542.24
576.14	29289.46
576.30	29530.54
576.46	29446.28
576.62	29722.46
576.79	29406.49
576.95	29406.49
577.11	29401.81
577.27	29890.98
577.43	29532.88
577.59	29638.20
577.75	29198.18
577.92	29200.52
578.08	29448.62
578.24	29509.47
578.40	29575.01
578.56	29596.07
578.72	29392.45
578.88	29586.71
579.04	29834.81
579.21	29558.63
579.37	29628.84
579.53	29649.91
579.69	29364.36
579.85	29326.91
580.01	29392.45
580.17	29219.25
580.33	29352.66
580.49	29743.53
580.65	30036.09
580.82	29497.77
580.98	29792.68
581.14	29551.60
581.30	29570.33
581.46	29542.24
581.62	29582.03
581.78	29273.08
581.94	29834.81
582.10	29425.22
582.26	29340.96
582.42	29766.93
582.58	29919.07
582.74	29713.10
582.90	29792.68
583.06	30022.05
583.22	29902.68
583.38	29755.23
583.54	29708.42
583.70	29586.71
583.86	29811.40
584.02	29851.19
584.18	29544.58
584.34	29652.25
584.50	29844.17
584.66	29731.83
584.82	29556.28
584.98	29673.31
585.14	29860.55
585.30	29432.24
585.46	29425.22
585.62	29530.54
585.78	29780.98
585.94	29469.69
586.10	29724.80
586.26	29450.96
586.42	30033.75
586.58	29729.48
586.74	29809.06
586.90	29493.09
587.06	29635.86
587.22	29567.99
587.38	29584.37
587.54	29532.88
587.70	30174.19
587.86	30101.63
588.02	29689.70
588.18	30373.13
588.34	30155.46
588.49	29727.14
588.65	29425.22
588.81	29626.50
588.97	29867.58
589.13	29706.08
589.29	30073.54
589.45	29593.73
589.61	29883.96
589.77	30125.04
589.93	30359.09
590.08	30096.95
590.24	29736.51
590.40	30228.02
590.56	29998.65
590.72	30181.21
590.88	29701.40
591.04	29905.02
591.20	30169.51
591.35	30267.81
591.51	30221.00
591.67	30150.78
591.83	30258.45
591.99	30022.05
