SpectraSuite Data File
++++++++++++++++++++++++++++++++++++
Date: Fri Oct 18 13:58:01 GMT-05:00 2013
User: bianchi
Dark Spectrum Present: No
Reference Spectrum Present: No
Number of Sampled Component Spectra: 1
Spectrometers: USB2+H05261
Integration Time (usec): 50000 (USB2+H05261)
Spectra Averaged: 1 (USB2+H05261)
Boxcar Smoothing: 0 (USB2+H05261)
Correct for Electrical Dark: No (USB2+H05261)
Strobe/Lamp Enabled: No (USB2+H05261)
Correct for Detector Non-linearity: No (USB2+H05261)
Correct for Stray Light: No (USB2+H05261)
Number of Pixels in Processed Spectrum: 2048
>>>>>Begin Processed Spectral Data<<<<<
365.73	0.00
365.92	0.00
366.12	0.00
366.32	0.00
366.52	0.00
366.72	0.00
366.91	0.00
367.11	0.00
367.31	0.00
367.51	0.00
367.70	0.00
367.90	0.00
368.10	0.00
368.30	0.00
368.49	0.00
368.69	0.00
368.89	0.00
369.09	0.00
369.28	0.00
369.48	0.00
369.68	0.00
369.87	0.00
370.07	0.00
370.27	0.00
370.47	0.00
370.66	110.01
370.86	95.96
371.06	84.26
371.25	163.84
371.45	124.05
371.65	156.82
371.84	124.05
372.04	163.84
372.24	224.69
372.44	112.35
372.63	238.73
372.83	257.46
373.03	163.84
373.22	220.01
373.42	189.58
373.62	231.71
373.81	229.37
374.01	231.71
374.21	220.01
374.40	215.33
374.60	250.44
374.79	173.20
374.99	245.76
375.19	212.99
375.38	280.86
375.58	227.03
375.78	379.17
375.97	278.52
376.17	355.76
376.37	220.01
376.56	255.12
376.76	301.93
376.95	276.18
377.15	203.63
377.35	236.39
377.54	227.03
377.74	322.99
377.93	285.55
378.13	271.50
378.33	248.10
378.52	325.33
378.72	292.57
378.91	252.78
379.11	306.61
379.31	332.36
379.50	180.22
379.70	318.31
379.89	290.23
380.09	308.95
380.28	292.57
380.48	264.48
380.68	292.57
380.87	259.80
381.07	327.68
381.26	348.74
381.46	383.85
381.65	341.72
381.85	327.68
382.04	348.74
382.24	276.18
382.43	257.46
382.63	337.04
382.83	379.17
383.02	290.23
383.22	355.76
383.41	255.12
383.61	388.53
383.80	374.49
384.00	388.53
384.19	437.68
384.39	414.27
384.58	341.72
384.78	379.17
384.97	383.85
385.17	367.46
385.36	351.08
385.56	334.70
385.75	437.68
385.95	475.13
386.14	374.49
386.34	411.93
386.53	456.40
386.72	447.04
386.92	337.04
387.11	393.21
387.31	444.70
387.50	456.40
387.70	423.64
387.89	491.51
388.09	416.62
388.28	397.89
388.48	444.70
388.67	341.72
388.86	458.74
389.06	512.58
389.25	449.38
389.45	524.28
389.64	386.19
389.84	524.28
390.03	538.32
390.22	477.47
390.42	444.70
390.61	479.81
390.81	442.36
391.00	526.62
391.19	498.53
391.39	454.06
391.58	528.96
391.78	575.77
391.97	491.51
392.16	482.15
392.36	578.11
392.55	486.83
392.75	519.60
392.94	538.32
393.13	547.69
393.33	617.90
393.52	620.24
393.71	596.84
393.91	601.52
394.10	589.82
394.29	578.11
394.49	594.50
394.68	603.86
394.88	510.24
395.07	599.18
395.26	550.03
395.46	606.20
395.65	603.86
395.84	610.88
396.04	617.90
396.23	681.10
396.42	587.47
396.62	664.71
396.81	706.84
397.00	683.44
397.19	683.44
397.39	601.52
397.58	732.59
397.77	711.52
397.97	678.76
398.16	678.76
398.35	744.29
398.55	643.65
398.74	711.52
398.93	737.27
399.12	606.20
399.32	664.71
399.51	636.63
399.70	812.17
399.90	760.67
400.09	793.44
400.28	814.51
400.47	784.08
400.67	793.44
400.86	739.61
401.05	760.67
401.24	835.57
401.44	748.97
401.63	798.12
401.82	851.96
402.01	805.14
402.21	870.68
402.40	896.43
402.59	901.11
402.78	842.59
402.97	882.38
403.17	833.23
403.36	898.77
403.55	781.74
403.74	880.04
403.93	903.45
404.13	929.19
404.32	798.12
404.51	959.62
404.70	957.28
404.89	940.90
405.09	999.41
405.28	966.64
405.47	1013.45
405.66	929.19
405.85	1022.81
406.05	1013.45
406.24	915.15
406.43	983.02
406.62	954.94
406.81	1008.77
407.00	1015.79
407.20	954.94
407.39	1006.43
407.58	1050.90
407.77	1076.65
407.96	1032.18
408.15	1125.80
408.34	1128.14
408.54	1107.07
408.73	1032.18
408.92	1186.65
409.11	1186.65
409.30	1193.67
409.49	1048.56
409.68	1170.27
409.87	1114.10
410.07	1174.95
410.26	1329.42
410.45	1242.82
410.64	1188.99
410.83	1240.48
411.02	1156.22
411.21	1210.06
411.40	1261.55
411.59	1193.67
411.78	1224.10
411.98	1411.34
412.17	1291.98
412.36	1249.85
412.55	1387.94
412.74	1343.47
412.93	1378.58
413.12	1249.85
413.31	1392.62
413.50	1338.79
413.69	1394.96
413.88	1455.81
414.07	1448.79
414.26	1273.25
414.45	1423.05
414.64	1441.77
414.83	1481.56
415.02	1490.92
415.22	1504.96
415.41	1568.16
415.60	1490.92
415.79	1556.46
415.98	1558.80
416.17	1666.46
416.36	1626.67
416.55	1561.14
416.74	1645.40
416.93	1640.72
417.12	1652.42
417.31	1673.48
417.50	1689.87
417.69	1790.51
417.88	1767.10
418.07	1771.79
418.26	1739.02
418.45	1778.81
418.64	1795.19
418.83	1760.08
419.02	1741.36
419.21	1746.04
419.39	1877.11
419.58	1792.85
419.77	1802.21
419.96	1863.07
420.15	1799.87
420.34	1799.87
420.53	1926.26
420.72	1884.13
420.91	1987.11
421.10	1944.99
421.29	1905.20
421.48	1870.09
421.67	1902.86
421.86	1888.81
422.05	2029.24
422.24	1996.48
422.43	1980.09
422.61	1891.15
422.80	1989.46
422.99	1984.77
423.18	2024.56
423.37	2069.03
423.56	2176.70
423.75	2017.54
423.94	1963.71
424.13	1914.56
424.32	1921.58
424.50	1998.82
424.69	2094.78
424.88	2108.82
425.07	2033.93
425.26	1973.07
425.45	2010.52
425.64	1994.14
425.83	1973.07
426.01	2165.00
426.20	2092.44
426.39	2040.95
426.58	2069.03
426.77	2118.18
426.96	2132.23
427.15	2057.33
427.33	2097.12
427.52	2120.53
427.71	2214.15
427.90	2157.97
428.09	2174.36
428.28	2136.91
428.46	2106.48
428.65	2265.64
428.84	2272.66
429.03	2385.01
429.22	2253.94
429.40	2195.42
429.59	2076.06
429.78	2310.11
429.97	2090.10
430.16	2214.15
430.34	2333.51
430.53	2389.69
430.72	2321.81
430.91	2331.17
431.10	2275.00
431.28	2347.56
431.47	2399.05
431.66	2392.03
431.85	2476.29
432.03	2389.69
432.22	2422.45
432.41	2431.82
432.60	2483.31
432.79	2377.98
432.97	2483.31
433.16	2438.84
433.35	2511.39
433.54	2410.75
433.72	2450.54
433.91	2396.71
434.10	2492.67
434.28	2490.33
434.47	2530.12
434.66	2544.16
434.85	2548.84
435.03	2588.63
435.22	2593.31
435.41	2684.59
435.59	2553.52
435.78	2661.19
435.97	2562.89
436.16	2752.47
436.34	2717.36
436.53	2747.79
436.72	2637.78
436.90	2778.22
437.09	2708.00
437.28	2689.28
437.46	2733.75
437.65	2792.26
437.84	2726.72
438.02	2792.26
438.21	2778.22
438.40	2771.19
438.58	2904.60
438.77	2853.11
438.96	2803.96
439.14	2792.26
439.33	2995.89
439.52	3023.97
439.70	2998.23
439.89	3023.97
440.08	3023.97
440.26	3103.55
440.45	2918.65
440.63	2960.78
440.82	3049.72
441.01	3208.87
441.19	3131.64
441.38	3262.71
441.57	3265.05
441.75	3274.41
441.94	3358.67
442.12	3295.47
442.31	3241.64
442.50	3215.90
442.68	3325.90
442.87	3225.26
443.05	3295.47
443.24	3368.03
443.43	3391.44
443.61	3363.35
443.80	3527.19
443.98	3330.58
444.17	3302.50
444.35	3421.86
444.54	3496.76
444.73	3492.08
444.91	3478.04
445.10	3396.12
445.28	3461.65
445.47	3297.81
445.65	3424.20
445.84	3473.36
446.02	3492.08
446.21	3449.95
446.39	3323.56
446.58	3548.25
446.77	3454.63
446.95	3461.65
447.14	3602.08
447.32	3639.53
447.51	3641.87
447.69	3571.66
447.88	3496.76
448.06	3452.29
448.25	3463.99
448.43	3475.70
448.62	3515.48
448.80	3499.10
448.99	3578.68
449.17	3590.38
449.36	3569.32
449.54	3597.40
449.73	3641.87
449.91	3566.98
450.10	3740.18
450.28	3864.22
450.46	3805.71
450.65	3691.02
450.83	3892.31
451.02	3716.77
451.20	3779.97
451.39	3777.62
451.57	3672.30
451.76	3843.16
451.94	3803.37
452.13	4060.83
452.31	3843.16
452.49	3744.86
452.68	3911.04
452.86	3798.69
453.05	3929.76
453.23	4074.87
453.42	3889.97
453.60	4016.36
453.78	3946.14
453.97	4058.49
454.15	4119.34
454.34	3985.93
454.52	4079.55
454.70	4046.79
454.89	4112.32
455.07	4084.23
455.26	4035.08
455.44	4107.64
455.62	4182.54
455.81	4037.42
455.99	4159.13
456.17	4177.86
456.36	4072.53
456.54	4238.71
456.73	4294.88
456.91	4348.72
457.09	4264.46
457.28	4287.86
457.46	4278.50
457.64	4418.93
457.83	4414.25
458.01	4266.80
458.19	4454.04
458.38	4269.14
458.56	4470.42
458.74	4491.49
458.93	4463.40
459.11	4521.92
459.29	4449.36
459.48	4524.26
459.66	4461.06
459.84	4622.56
460.03	4624.90
460.21	4627.24
460.39	4458.72
460.57	4477.44
460.76	4634.26
460.94	4566.39
461.12	4594.47
461.31	4554.68
461.49	4669.37
461.67	4793.42
461.85	4770.01
462.04	4645.96
462.22	4994.70
462.40	4854.27
462.59	4704.48
462.77	4821.50
462.95	4786.40
463.13	4751.29
463.32	4819.16
463.50	4851.93
463.68	4908.10
463.86	4861.29
464.05	4807.46
464.23	4746.61
464.41	5165.56
464.59	4753.63
464.78	4959.60
464.96	4985.34
465.14	4889.38
465.32	5015.77
465.50	4954.91
465.69	4997.04
465.87	5130.45
466.05	5034.49
466.23	5128.11
466.41	5022.79
466.60	5146.84
466.78	4901.08
466.96	5151.52
467.14	5046.20
467.32	5184.29
467.51	5135.14
467.69	4917.47
467.87	5081.30
468.05	5277.91
468.23	5085.98
468.41	5217.05
468.60	5231.10
468.78	5277.91
468.96	5247.48
469.14	5174.92
469.32	5245.14
469.50	5266.21
469.69	5298.97
469.87	5444.09
470.05	5481.53
470.23	5432.38
470.41	5516.64
470.59	5266.21
470.77	5399.62
470.95	5526.00
471.14	5425.36
471.32	5451.11
471.50	5636.01
471.68	5657.07
471.86	5729.63
472.04	5678.14
472.22	5858.36
472.40	5734.31
472.58	5914.53
472.77	5909.85
472.95	5811.55
473.13	5933.26
473.31	5827.93
473.49	5832.62
473.67	5874.74
473.85	5919.21
474.03	6024.54
474.21	6155.61
474.39	6174.33
474.57	6094.76
474.75	6122.84
474.93	6307.74
475.12	6132.20
475.30	6399.02
475.48	6274.98
475.66	6263.27
475.84	6363.92
476.02	6286.68
476.20	6347.53
476.38	6469.24
476.56	6544.14
476.74	6389.66
476.92	6551.16
477.10	6438.81
477.28	6775.85
477.46	6569.88
477.64	6677.55
477.82	6794.58
478.00	6967.77
478.18	7030.97
478.36	6867.13
478.54	6946.71
478.72	7173.74
478.90	7162.04
479.08	7239.28
479.26	7206.51
479.44	7499.08
479.62	7478.01
479.80	7487.37
479.98	7637.17
480.16	7550.57
480.34	7562.27
480.52	7676.96
480.70	7758.88
480.88	7641.85
481.06	7976.55
481.24	7843.14
481.41	7932.08
481.59	8079.53
481.77	8074.85
481.95	8184.85
482.13	8081.87
482.31	8046.76
482.49	8360.39
482.67	8219.96
482.85	8402.52
483.03	8423.59
483.21	8681.05
483.39	8713.81
483.57	8596.79
483.74	8690.41
483.92	8788.71
484.10	8730.20
484.28	8919.78
484.46	9069.58
484.64	9303.63
484.82	8889.35
485.00	9359.80
485.18	9214.69
485.35	9486.19
485.53	9317.67
485.71	9591.52
485.89	9745.99
486.07	9603.22
486.25	9745.99
486.43	9673.43
486.61	9734.29
486.78	9823.23
486.96	10097.07
487.14	10052.60
487.32	10129.84
487.50	10375.59
487.68	10249.21
487.85	10455.17
488.03	10661.14
488.21	10717.31
488.39	10604.97
488.57	10792.21
488.75	10806.25
488.92	11033.29
489.10	11136.27
489.28	10771.15
489.46	11150.31
489.64	11384.37
489.81	11311.81
489.99	11595.01
490.17	11328.19
490.35	11590.33
490.53	11714.38
490.70	11744.81
490.88	11679.27
491.06	11712.04
491.24	11824.39
491.41	11992.90
491.59	11969.50
491.77	12039.72
491.95	12142.70
492.13	12233.98
492.30	12322.92
492.48	12123.98
492.66	12547.61
492.84	12416.54
493.01	12624.85
493.19	12489.10
493.37	12879.97
493.54	12760.60
493.72	13011.04
493.90	12830.82
494.08	12791.03
494.25	13188.92
494.43	13011.04
494.61	13434.68
494.79	13397.23
494.96	13245.09
495.14	13469.78
495.32	13561.06
495.49	13453.40
495.67	13638.30
495.85	13696.82
496.02	13874.70
496.20	13980.02
496.38	13879.38
496.55	13907.46
496.73	14406.00
496.91	14260.88
497.09	14534.73
497.26	14363.87
497.44	14527.71
497.62	14579.20
497.79	14670.48
497.97	14628.35
498.14	14953.68
498.32	14824.95
498.50	14820.27
498.67	15070.71
498.85	15044.96
499.03	15047.30
499.20	14895.17
499.38	14986.45
499.56	15220.50
499.73	15316.47
499.91	15534.14
500.08	15461.58
500.26	15349.23
500.44	15550.52
500.61	15637.12
500.79	15594.99
500.97	15793.94
501.14	16187.14
501.32	15948.41
501.49	15758.83
501.67	15859.47
501.84	15819.68
502.02	15990.54
502.20	16212.89
502.37	16353.32
502.55	16159.06
502.72	16060.76
502.90	16255.02
503.07	16428.22
503.25	16531.20
503.43	16212.89
503.60	16711.42
503.78	16599.08
503.95	16566.31
504.13	16629.51
504.30	16795.68
504.48	16610.78
504.65	16690.36
504.83	16961.86
505.01	17240.39
505.18	17212.30
505.36	17048.46
505.53	17032.08
505.71	17067.19
505.88	17104.64
506.06	17069.53
506.23	17518.91
506.41	17364.43
506.58	17411.25
506.76	17486.14
506.93	17429.97
507.11	17577.42
507.28	17668.70
507.46	17685.09
507.63	17762.33
507.81	17961.27
507.98	18050.21
508.16	17708.49
508.33	18026.81
508.50	17848.93
508.68	17998.72
508.85	18604.92
509.03	18146.17
509.20	18127.45
509.38	18492.57
509.55	18204.69
509.73	18331.08
509.90	18396.61
510.08	18593.22
510.25	18686.84
510.42	18625.98
510.60	18820.25
510.77	18925.57
510.95	19178.35
511.12	18785.14
511.30	18326.39
511.47	18574.49
511.64	19063.66
511.82	18867.06
511.99	19073.03
512.17	19344.53
512.34	18932.59
512.51	19307.08
512.69	19360.91
512.86	19459.21
513.04	19667.52
513.21	19758.80
513.38	19438.15
513.56	19569.22
513.73	19496.66
513.90	19529.43
514.08	19503.68
514.25	20182.44
514.43	19599.65
514.60	19990.52
514.77	20149.67
514.95	20203.50
515.12	19660.50
515.29	19721.35
515.47	20346.28
515.64	20027.96
515.81	19978.81
515.99	20341.60
516.16	20283.08
516.33	20727.78
516.51	20582.67
516.68	20341.60
516.85	20297.13
517.03	20702.04
517.20	20449.26
517.37	20821.41
517.54	20856.51
517.72	20716.08
517.89	20683.31
518.06	20744.17
518.24	20622.46
518.41	20746.51
518.58	20842.47
518.75	21041.42
518.93	20877.58
519.10	21003.97
519.27	21191.21
519.45	21146.74
519.62	21139.72
519.79	21254.40
519.96	20996.95
520.14	21275.47
520.31	21329.30
520.48	21343.35
520.65	21422.92
520.83	21741.24
521.00	21406.54
521.17	21528.25
521.34	21509.52
521.52	21876.99
521.69	21837.20
521.86	21937.84
522.03	21884.01
522.20	21982.31
522.38	21909.75
522.55	22022.10
522.72	22281.90
522.89	21968.27
523.07	22307.65
523.24	22207.00
523.41	22164.87
523.58	22008.06
523.75	22574.47
523.92	22087.64
524.10	22155.51
524.27	22300.62
524.44	22834.27
524.61	22522.98
524.78	22630.64
524.96	22841.29
525.13	22541.70
525.30	22827.24
525.47	22611.92
525.64	22569.79
525.81	23192.37
525.98	23075.34
526.16	22640.00
526.33	23304.71
526.50	23063.64
526.67	22684.47
526.84	22726.60
527.01	23126.83
527.18	23094.07
527.36	22827.24
527.53	23330.46
527.70	23580.90
527.87	23761.12
528.04	23365.57
528.21	23494.30
528.38	23159.60
528.55	23510.68
528.72	23344.50
528.89	23426.42
529.07	23580.90
529.24	23683.88
529.41	23690.90
529.58	23517.70
529.75	23498.98
529.92	23723.67
530.09	23548.13
530.26	23962.40
530.43	23700.26
530.60	23838.36
530.77	23770.48
530.94	23812.61
531.11	23861.76
531.28	24159.01
531.46	24060.71
531.63	24046.66
531.80	24367.32
531.97	24219.86
532.14	24423.49
532.31	24100.50
532.48	24240.93
532.65	24304.12
532.82	24084.11
532.99	24027.94
533.16	24084.11
533.33	24386.04
533.50	24720.74
533.67	24624.78
533.84	24364.98
534.01	24381.36
534.18	24493.71
534.35	24931.39
534.52	24594.35
534.69	24753.51
534.86	24858.83
535.03	24844.79
535.20	24430.51
535.37	24809.68
535.54	24847.13
535.71	24566.26
535.88	24795.64
536.05	25074.16
536.22	24882.24
536.38	25263.74
536.55	25146.72
536.72	25495.46
536.89	25048.41
537.06	25390.13
537.23	25460.35
537.40	25453.33
537.57	25376.09
537.74	25242.68
537.91	25582.06
538.08	25378.43
538.25	25193.53
538.42	25720.15
538.59	25462.69
538.75	25041.39
538.92	25378.43
539.09	25488.43
539.26	25551.63
539.43	25666.31
539.60	25869.94
539.77	25518.86
539.94	25591.42
540.11	25661.63
540.28	25867.60
540.44	25762.28
540.61	25806.75
540.78	25820.79
540.95	26092.29
541.12	26202.30
541.29	25958.88
541.46	26094.63
541.62	25855.90
541.79	26085.27
541.96	25806.75
542.13	25869.94
542.30	26003.35
542.47	26307.62
542.63	26214.00
542.80	26635.30
542.97	26415.29
543.14	26757.00
543.31	26146.12
543.48	26614.23
543.64	26813.18
543.81	26476.14
543.98	26745.30
544.15	26544.02
544.32	26803.82
544.48	26871.69
544.65	26647.00
544.82	26616.57
544.99	26518.27
545.16	26513.59
545.32	26834.24
545.49	26941.91
545.66	27082.34
545.83	26749.98
546.00	27356.18
546.16	26569.76
546.33	27023.83
546.50	26752.32
546.67	26913.82
546.83	26841.26
547.00	26892.76
547.17	27283.62
547.34	27220.43
547.50	27311.71
547.67	27262.56
547.84	27159.58
548.00	27365.54
548.17	27697.90
548.34	26988.72
548.51	27393.63
548.67	27573.85
548.84	27445.12
549.01	27131.49
549.18	27225.11
549.34	27309.37
549.51	27201.71
549.68	27370.22
549.84	27576.19
550.01	27346.82
550.18	27477.89
550.34	27407.67
550.51	27971.74
550.68	27459.16
550.84	27775.14
551.01	27810.25
551.18	27480.23
551.34	27384.27
551.51	27330.44
551.68	27704.92
551.84	27957.70
552.01	27861.74
552.18	27992.81
552.34	27866.42
552.51	27990.47
552.68	27604.28
552.84	27714.28
553.01	28072.39
553.18	27754.07
553.34	27845.35
553.51	28051.32
553.67	28072.39
553.84	28613.05
554.01	28025.57
554.17	28327.50
554.34	28542.83
554.51	28093.45
554.67	27967.06
554.84	28243.24
555.00	27950.68
555.17	27896.85
555.33	28245.58
555.50	28098.13
555.67	28266.65
555.83	28168.35
556.00	28383.68
556.16	28444.53
556.33	28268.99
556.50	28606.03
556.66	28690.29
556.83	28374.31
556.99	29127.97
557.16	28418.78
557.32	28826.04
557.49	28865.83
557.65	28655.18
557.82	28423.47
557.98	28496.02
558.15	28500.70
558.32	28982.85
558.48	28659.86
558.65	29186.48
558.81	28875.19
558.98	28886.89
559.14	28425.81
559.31	28767.52
559.47	28786.25
559.64	28723.05
559.80	29003.92
559.97	29495.43
560.13	28837.74
560.30	28964.13
560.46	28952.43
560.63	29418.19
560.79	29160.73
560.96	29214.57
561.12	28802.63
561.29	29060.09
561.45	29001.58
561.61	28994.56
561.78	28950.09
561.94	29146.69
562.11	29326.91
562.27	28879.87
562.44	28950.09
562.60	28746.46
562.77	29060.09
562.93	29027.32
563.10	29291.80
563.26	29001.58
563.42	29378.40
563.59	29202.86
563.75	28961.79
563.92	29638.20
564.08	29411.17
564.24	29116.26
564.41	29008.60
564.57	29032.00
564.74	29549.26
564.90	29247.33
565.07	29544.58
565.23	29474.37
565.39	29186.48
565.56	29355.00
565.72	29294.14
565.88	29345.64
566.05	28950.09
566.21	29294.14
566.38	29090.52
566.54	29542.24
566.70	29729.48
566.87	30096.95
567.03	29799.70
567.19	29626.50
567.36	29652.25
567.52	29268.40
567.68	29977.58
567.85	29195.84
568.01	29385.43
568.17	29139.67
568.34	29146.69
568.50	29593.73
568.66	29301.17
568.83	30085.25
568.99	29741.19
569.15	29984.60
569.32	29685.01
569.48	29572.67
569.64	29521.18
569.81	29773.95
569.97	29497.77
570.13	29507.13
570.30	29518.84
570.46	30054.82
570.62	29752.89
570.78	29614.80
570.95	29612.46
571.11	29649.91
571.27	29474.37
571.43	29500.11
571.60	29792.68
571.76	29521.18
571.92	29762.25
572.09	29710.76
572.25	29741.19
572.41	29619.48
572.57	29872.26
572.74	29848.85
572.90	29434.58
573.06	29455.64
573.22	29621.82
573.38	30251.42
573.55	29848.85
573.71	30230.36
573.87	30197.59
574.03	29907.37
574.20	30073.54
574.36	29799.70
574.52	29603.10
574.68	29977.58
574.84	29879.28
575.01	29996.31
575.17	29907.37
575.33	29975.24
575.49	29670.97
575.65	29661.61
575.82	29968.22
575.98	29996.31
576.14	29923.75
576.30	30452.71
576.46	30110.99
576.62	29958.86
576.79	30108.65
576.95	29783.32
577.11	30040.78
577.27	30277.17
577.43	29949.50
577.59	30153.12
577.75	30174.19
577.92	30043.12
578.08	29680.33
578.24	30293.55
578.40	29844.17
578.56	29830.13
578.72	30129.72
578.88	30405.90
579.04	30073.54
579.21	30068.86
579.37	30155.46
579.53	30279.51
579.69	30103.97
579.85	30029.07
580.01	29577.35
580.17	29596.07
580.33	29937.79
580.49	30216.32
580.65	30047.80
580.82	30164.82
580.98	30024.39
581.14	29834.81
581.30	30267.81
581.46	30066.52
581.62	30022.05
581.78	29816.08
581.94	29970.56
582.10	30031.41
582.26	29961.20
582.42	29989.28
582.58	30335.68
582.74	30125.04
582.90	30153.12
583.06	30206.95
583.22	30118.01
583.38	30141.42
583.54	30228.02
583.70	30403.56
583.86	30110.99
584.02	29912.05
584.18	30593.14
584.34	30209.29
584.50	30675.06
584.66	30108.65
584.82	30108.65
584.98	29867.58
585.14	30122.69
585.30	30075.88
585.46	30185.89
585.62	30003.33
585.78	30237.38
585.94	30071.20
586.10	30356.75
586.26	29827.79
586.42	30487.82
586.58	30195.25
586.74	29968.22
586.90	29914.39
587.06	30008.01
587.22	30120.35
587.38	30000.99
587.54	30424.62
587.70	30443.35
587.86	30277.17
588.02	30307.60
588.18	30441.01
588.34	30382.49
588.49	30279.51
588.65	30185.89
588.81	29905.02
588.97	30436.33
589.13	30394.20
589.29	30221.00
589.45	30403.56
589.61	30565.06
589.77	30522.93
589.93	31166.57
590.08	31033.16
590.24	30768.68
590.40	30604.84
590.56	30646.97
590.72	30658.68
590.88	30127.38
591.04	30398.88
591.20	30953.58
591.35	30534.63
591.51	31082.31
591.67	30656.34
591.83	30728.89
591.99	30719.53
