SpectraSuite Data File
++++++++++++++++++++++++++++++++++++
Date: Fri Oct 18 13:58:13 GMT-05:00 2013
User: bianchi
Dark Spectrum Present: No
Reference Spectrum Present: No
Number of Sampled Component Spectra: 1
Spectrometers: USB2+H05261
Integration Time (usec): 50000 (USB2+H05261)
Spectra Averaged: 1 (USB2+H05261)
Boxcar Smoothing: 0 (USB2+H05261)
Correct for Electrical Dark: No (USB2+H05261)
Strobe/Lamp Enabled: No (USB2+H05261)
Correct for Detector Non-linearity: No (USB2+H05261)
Correct for Stray Light: No (USB2+H05261)
Number of Pixels in Processed Spectrum: 2048
>>>>>Begin Processed Spectral Data<<<<<
365.73	0.00
365.92	0.00
366.12	0.00
366.32	0.00
366.52	0.00
366.72	0.00
366.91	0.00
367.11	0.00
367.31	0.00
367.51	0.00
367.70	0.00
367.90	0.00
368.10	0.00
368.30	0.00
368.49	0.00
368.69	0.00
368.89	0.00
369.09	0.00
369.28	0.00
369.48	0.00
369.68	0.00
369.87	0.00
370.07	0.00
370.27	0.00
370.47	0.00
370.66	114.69
370.86	112.35
371.06	126.39
371.25	208.31
371.45	30.43
371.65	184.90
371.84	168.52
372.04	112.35
372.24	168.52
372.44	215.33
372.63	255.12
372.83	170.86
373.03	189.58
373.22	224.69
373.42	205.97
373.62	222.35
373.81	252.78
374.01	201.29
374.21	191.92
374.40	236.39
374.60	236.39
374.79	208.31
374.99	236.39
375.19	227.03
375.38	294.91
375.58	297.25
375.78	283.20
375.97	210.65
376.17	337.04
376.37	297.25
376.56	250.44
376.76	255.12
376.95	222.35
377.15	243.42
377.35	304.27
377.54	308.95
377.74	306.61
377.93	217.67
378.13	318.31
378.33	285.55
378.52	306.61
378.72	266.82
378.91	299.59
379.11	248.10
379.31	264.48
379.50	304.27
379.70	327.68
379.89	341.72
380.09	386.19
380.28	294.91
380.48	297.25
380.68	294.91
380.87	294.91
381.07	339.38
381.26	344.06
381.46	334.70
381.65	292.57
381.85	283.20
382.04	411.93
382.24	308.95
382.43	348.74
382.63	327.68
382.83	348.74
383.02	447.04
383.22	346.40
383.41	308.95
383.61	367.46
383.80	437.68
384.00	381.51
384.19	414.27
384.39	409.59
384.58	425.98
384.78	454.06
384.97	442.36
385.17	449.38
385.36	393.21
385.56	337.04
385.75	393.21
385.95	381.51
386.14	402.57
386.34	437.68
386.53	374.49
386.72	390.87
386.92	491.51
387.11	461.09
387.31	374.49
387.50	332.36
387.70	468.11
387.89	407.25
388.09	416.62
388.28	496.19
388.48	425.98
388.67	418.96
388.86	454.06
389.06	437.68
389.25	557.05
389.45	463.43
389.64	451.72
389.84	507.90
390.03	484.49
390.22	479.81
390.42	552.37
390.61	507.90
390.81	493.85
391.00	500.87
391.19	540.66
391.39	498.53
391.58	475.13
391.78	472.79
391.97	596.84
392.16	531.30
392.36	578.11
392.55	559.39
392.75	559.39
392.94	620.24
393.13	599.18
393.33	545.34
393.52	580.45
393.71	657.69
393.91	519.60
394.10	566.41
394.29	599.18
394.49	533.64
394.68	566.41
394.88	561.73
395.07	606.20
395.26	512.58
395.46	631.94
395.65	585.13
395.84	641.31
396.04	706.84
396.23	622.58
396.42	641.31
396.62	631.94
396.81	704.50
397.00	648.33
397.19	660.03
397.39	716.20
397.58	667.05
397.77	685.78
397.97	711.52
398.16	676.41
398.35	720.88
398.55	671.73
398.74	716.20
398.93	711.52
399.12	711.52
399.32	741.95
399.51	725.57
399.70	807.48
399.90	727.91
400.09	814.51
400.28	704.50
400.47	760.67
400.67	851.96
400.86	786.42
401.05	770.04
401.24	849.61
401.44	849.61
401.63	737.27
401.82	896.43
402.01	833.23
402.21	770.04
402.40	849.61
402.59	917.49
402.78	830.89
402.97	849.61
403.17	821.53
403.36	945.58
403.55	896.43
403.74	891.74
403.93	1011.11
404.13	922.17
404.32	908.13
404.51	873.02
404.70	957.28
404.89	959.62
405.09	938.55
405.28	947.92
405.47	877.70
405.66	945.58
405.85	947.92
406.05	1055.58
406.24	978.34
406.43	1008.77
406.62	1006.43
406.81	1139.84
407.00	1095.37
407.20	1032.18
407.39	1046.22
407.58	1104.73
407.77	1107.07
407.96	1060.26
408.15	1118.78
408.34	1097.71
408.54	1184.31
408.73	1095.37
408.92	1184.31
409.11	1170.27
409.30	1153.88
409.49	1231.12
409.68	1111.75
409.87	1151.54
410.07	1188.99
410.26	1086.01
410.45	1191.33
410.64	1214.74
410.83	1217.08
411.02	1212.40
411.21	1259.21
411.40	1329.42
411.59	1294.32
411.78	1343.47
411.98	1334.11
412.17	1439.43
412.36	1373.89
412.55	1425.39
412.74	1371.55
412.93	1329.42
413.12	1425.39
413.31	1558.80
413.50	1434.75
413.69	1504.96
413.88	1451.13
414.07	1401.98
414.26	1481.56
414.45	1558.80
414.64	1465.18
414.83	1561.14
415.02	1509.65
415.22	1486.24
415.41	1551.78
415.60	1521.35
415.79	1537.73
415.98	1633.69
416.17	1575.18
416.36	1661.78
416.55	1614.97
416.74	1685.19
416.93	1591.56
417.12	1664.12
417.31	1710.93
417.50	1757.74
417.69	1923.92
417.88	1823.28
418.07	1778.81
418.26	1842.00
418.45	1687.53
418.64	1825.62
418.83	1891.15
419.02	1860.73
419.21	1877.11
419.39	1865.41
419.58	1884.13
419.77	1867.75
419.96	1956.69
420.15	1919.24
420.34	1907.54
420.53	1865.41
420.72	2015.20
420.91	1975.41
421.10	1952.01
421.29	2069.03
421.48	1937.96
421.67	1961.37
421.86	2022.22
422.05	2143.93
422.24	2029.24
422.43	2017.54
422.61	1966.05
422.80	2111.16
422.99	2073.71
423.18	2017.54
423.37	2052.65
423.56	1858.39
423.75	2057.33
423.94	2080.74
424.13	1947.33
424.32	1952.01
424.50	2113.50
424.69	2127.55
424.88	2059.67
425.07	2139.25
425.26	1998.82
425.45	2026.90
425.64	2087.76
425.83	2125.21
426.01	2113.50
426.20	2024.56
426.39	2047.97
426.58	2071.37
426.77	2134.57
426.96	2146.27
427.15	2069.03
427.33	2050.31
427.52	2090.10
427.71	2176.70
427.90	2157.97
428.09	2279.68
428.28	2221.17
428.46	2260.96
428.65	2312.45
428.84	2310.11
429.03	2260.96
429.22	2263.30
429.40	2312.45
429.59	2312.45
429.78	2239.89
429.97	2202.44
430.16	2286.70
430.34	2352.24
430.53	2406.07
430.72	2431.82
430.91	2385.01
431.10	2314.79
431.28	2296.07
431.47	2427.14
431.66	2443.52
431.85	2380.32
432.03	2445.86
432.22	2511.39
432.41	2523.10
432.60	2387.35
432.79	2555.86
432.97	2642.46
433.16	2429.48
433.35	2455.22
433.54	2516.08
433.72	2431.82
433.91	2593.31
434.10	2593.31
434.28	2705.66
434.47	2565.23
434.66	2633.10
434.85	2651.83
435.03	2663.53
435.22	2661.19
435.41	2743.11
435.59	2715.02
435.78	2658.85
435.97	2782.90
436.16	2661.19
436.34	2609.70
436.53	2705.66
436.72	2717.36
436.90	2740.77
437.09	2724.38
437.28	2818.00
437.46	2841.41
437.65	2806.30
437.84	2881.20
438.02	2705.66
438.21	2810.98
438.40	2764.17
438.58	2925.67
438.77	2972.48
438.96	2904.60
439.14	3005.25
439.33	2946.73
439.52	3007.59
439.70	3012.27
439.89	2981.84
440.08	3155.04
440.26	3159.72
440.45	3138.66
440.63	3143.34
440.82	3243.98
441.01	3222.92
441.19	3136.32
441.38	3300.16
441.57	3197.17
441.75	3255.69
441.94	3363.35
442.12	3417.18
442.31	3414.84
442.50	3375.05
442.68	3403.14
442.87	3377.39
443.05	3351.65
443.24	3461.65
443.43	3445.27
443.61	3522.51
443.80	3529.53
443.98	3349.31
444.17	3309.52
444.35	3433.57
444.54	3435.91
444.73	3555.27
444.91	3569.32
445.10	3412.50
445.28	3452.29
445.47	3452.29
445.65	3447.61
445.84	3655.92
446.02	3541.23
446.21	3492.08
446.39	3447.61
446.58	3508.46
446.77	3520.17
446.95	3478.04
447.14	3581.02
447.32	3562.30
447.51	3534.21
447.69	3604.42
447.88	3625.49
448.06	3625.49
448.25	3515.48
448.43	3590.38
448.62	3545.91
448.80	3595.06
448.99	3630.17
449.17	3662.94
449.36	3709.75
449.54	3765.92
449.73	3768.26
449.91	3794.01
450.10	3716.77
450.28	3882.95
450.46	3857.20
450.65	3810.39
450.83	3978.91
451.02	3719.11
451.20	3857.20
451.39	3810.39
451.57	3808.05
451.76	3866.56
451.94	3798.69
452.13	3955.51
452.31	4007.00
452.49	3822.09
452.68	3932.10
452.86	3904.01
453.05	4011.68
453.23	4081.89
453.42	3775.28
453.60	3894.65
453.78	3892.31
453.97	4079.55
454.15	4086.58
454.34	3880.61
454.52	4184.88
454.70	4163.81
454.89	4149.77
455.07	4161.47
455.26	4154.45
455.44	3992.95
455.62	4175.52
455.81	4201.26
455.99	4243.39
456.17	4304.25
456.36	4191.90
456.54	4283.18
456.73	4315.95
456.91	4447.02
457.09	4259.78
457.28	4496.17
457.46	4444.68
457.64	4428.29
457.83	4407.23
458.01	4367.44
458.19	4423.61
458.38	4547.66
458.56	4461.06
458.74	4622.56
458.93	4575.75
459.11	4528.94
459.29	4381.48
459.48	4615.54
459.66	4596.81
459.84	4748.95
460.03	4685.75
460.21	4690.43
460.39	4671.71
460.57	4629.58
460.76	4662.35
460.94	4784.06
461.12	4760.65
461.31	4781.71
461.49	4765.33
461.67	4643.62
461.85	4800.44
462.04	4751.29
462.22	4945.55
462.40	4954.91
462.59	4793.42
462.77	4931.51
462.95	4957.25
463.13	4915.12
463.32	4964.28
463.50	4971.30
463.68	4842.57
463.86	5015.77
464.05	5001.72
464.23	4987.68
464.41	5139.82
464.59	4889.38
464.78	4975.98
464.96	5088.32
465.14	4919.81
465.32	5046.20
465.50	5114.07
465.69	5210.03
465.87	5100.03
466.05	5233.44
466.23	5128.11
466.41	5128.11
466.60	5320.04
466.78	5104.71
466.96	5034.49
467.14	5174.92
467.32	5212.37
467.51	5268.55
467.69	5160.88
467.87	5193.65
468.05	5331.74
468.23	5317.70
468.41	5200.67
468.60	5313.02
468.78	5493.24
468.96	5200.67
469.14	5558.77
469.32	5378.55
469.50	5294.29
469.69	5479.19
469.87	5593.88
470.05	5556.43
470.23	5556.43
470.41	5474.51
470.59	5486.22
470.77	5502.60
470.95	5500.26
471.14	5729.63
471.32	5589.20
471.50	5771.76
471.68	5729.63
471.86	5636.01
472.04	5895.81
472.22	6026.88
472.40	5753.04
472.58	5930.92
472.77	5907.51
472.95	5888.79
473.13	6022.20
473.31	5841.98
473.49	5912.19
473.67	5916.87
473.85	6019.86
474.03	6073.69
474.21	6069.01
474.39	6186.04
474.57	6115.82
474.75	6277.32
474.93	6487.96
475.12	6164.97
475.30	6314.77
475.48	6193.06
475.66	6377.96
475.84	6354.55
476.02	6410.73
476.20	6619.04
476.38	6642.44
476.56	6715.00
476.74	6707.98
476.92	6787.55
477.10	6799.26
477.28	6796.92
477.46	6768.83
477.64	6885.86
477.82	6981.82
478.00	7073.10
478.18	6993.52
478.36	7047.35
478.54	7255.66
478.72	7386.73
478.90	7407.80
479.08	7295.45
479.26	7435.88
479.44	7468.65
479.62	7625.47
479.80	7585.68
479.98	7789.30
480.16	7676.96
480.34	7665.25
480.52	7775.26
480.70	7939.10
480.88	7705.04
481.06	7934.42
481.24	7716.75
481.41	7978.89
481.59	8081.87
481.77	8084.21
481.95	8119.32
482.13	8231.66
482.31	8376.78
482.49	8402.52
482.67	8549.98
482.85	8545.30
483.03	8755.94
483.21	8674.03
483.39	8631.90
483.57	8683.39
483.74	8793.39
483.92	8994.68
484.10	9034.47
484.28	9064.89
484.46	9210.01
484.64	9336.40
484.82	9158.52
485.00	9254.48
485.18	9273.20
485.35	9600.88
485.53	9458.10
485.71	9703.86
485.89	9832.59
486.07	9844.29
486.25	9734.29
486.43	9750.67
486.61	9795.14
486.78	10181.33
486.96	10312.40
487.14	10366.23
487.32	10382.62
487.50	10141.54
487.68	10478.58
487.85	10544.11
488.03	10832.00
488.21	10846.04
488.39	10754.76
488.57	10869.45
488.75	10860.09
488.92	11136.27
489.10	11234.57
489.28	11187.76
489.46	11213.51
489.64	11456.92
489.81	11705.02
489.99	11419.47
490.17	11573.95
490.35	11637.14
490.53	11700.34
490.70	11712.04
490.88	11784.60
491.06	12105.25
491.24	11939.07
491.41	12187.17
491.59	12210.57
491.77	12301.86
491.95	12482.08
492.13	12437.61
492.30	12652.94
492.48	12489.10
492.66	12453.99
492.84	12491.44
493.01	12957.21
493.19	12901.03
493.37	12812.09
493.54	13184.24
493.72	13116.36
493.90	13149.13
494.08	13383.18
494.25	13385.52
494.43	13502.55
494.61	13724.90
494.79	13530.64
494.96	13504.89
495.14	13488.51
495.32	14031.51
495.49	13907.46
495.67	13762.35
495.85	14256.20
496.02	14272.59
496.20	14303.01
496.38	14160.24
496.55	14242.16
496.73	14415.36
496.91	14398.98
497.09	14576.86
497.26	14560.47
497.44	14754.74
497.62	14743.03
497.79	14775.80
497.97	14949.00
498.14	15201.78
498.32	15246.25
498.50	15300.08
498.67	15169.01
498.85	15232.21
499.03	15269.66
499.20	15243.91
499.38	15328.17
499.56	15391.36
499.73	15515.41
499.91	15950.75
500.08	16065.44
500.26	15587.97
500.44	15768.19
500.61	15948.41
500.79	15948.41
500.97	15953.09
501.14	16163.74
501.32	16114.59
501.49	16023.31
501.67	16248.00
501.84	16465.67
502.02	16545.25
502.20	16568.65
502.37	16678.66
502.55	16273.74
502.72	16776.96
502.90	16659.93
503.07	16383.75
503.25	16704.40
503.43	16734.83
503.60	17160.81
503.78	16727.81
503.95	16926.75
504.13	16875.26
504.30	17142.08
504.48	16879.94
504.65	17043.78
504.83	17504.87
505.01	17444.01
505.18	17502.53
505.36	17577.42
505.53	17376.14
505.71	17661.68
505.88	17502.53
506.06	17472.10
506.23	17605.51
506.41	17532.95
506.58	18003.40
506.76	18022.12
506.93	17848.93
507.11	18026.81
507.28	17989.36
507.46	17933.18
507.63	18003.40
507.81	18340.44
507.98	18321.71
508.16	18239.79
508.33	18370.86
508.50	18450.44
508.68	18361.50
508.85	18394.27
509.03	18738.33
509.20	18621.30
509.38	18845.99
509.55	18750.03
509.73	18913.87
509.90	18967.70
510.08	18876.42
510.25	18904.51
510.42	19033.24
510.60	19044.94
510.77	19126.86
510.95	19534.11
511.12	19325.80
511.30	19250.91
511.47	19208.78
511.64	19257.93
511.82	19508.37
511.99	19178.35
512.17	19653.48
512.34	19686.25
512.51	19616.03
512.69	19786.89
512.86	19878.17
513.04	19742.42
513.21	19646.46
513.38	19796.25
513.56	19836.04
513.73	19960.09
513.90	19690.93
514.08	20201.16
514.25	20133.29
514.43	20182.44
514.60	20266.70
514.77	20245.63
514.95	20437.56
515.12	20245.63
515.29	20018.60
515.47	20500.75
515.64	20418.83
515.81	20439.90
515.99	20926.73
516.16	20695.02
516.33	21003.97
516.51	20938.43
516.68	20891.62
516.85	20720.76
517.03	20769.91
517.20	20922.05
517.37	21135.04
517.54	20980.56
517.72	20966.52
517.89	20872.90
518.06	21158.44
518.24	21280.15
518.41	21312.92
518.58	21647.61
518.75	21432.29
518.93	21357.39
519.10	21664.00
519.27	21408.88
519.45	21231.00
519.62	21441.65
519.79	21371.43
519.96	21823.16
520.14	21675.70
520.31	21764.64
520.48	21715.49
520.65	21610.17
520.83	21682.72
521.00	21886.35
521.17	21413.56
521.34	22012.74
521.52	22258.49
521.69	22078.27
521.86	22251.47
522.03	22415.31
522.20	22452.76
522.38	22691.49
522.55	22324.03
522.72	22251.47
522.89	22630.64
523.07	22347.44
523.24	22640.00
523.41	22607.23
523.58	22436.38
523.75	22803.84
523.92	22621.28
524.10	22913.84
524.27	22892.78
524.44	23073.00
524.61	22834.27
524.78	23000.44
524.96	23091.73
525.13	23122.15
525.30	23307.05
525.47	23220.45
525.64	22958.31
525.81	23328.12
525.98	23491.96
526.16	23374.93
526.33	23349.18
526.50	23913.25
526.67	23339.82
526.84	23447.49
527.01	23192.37
527.18	23410.04
527.36	23721.33
527.53	23798.57
527.70	23917.93
527.87	24046.66
528.04	23840.70
528.21	23735.37
528.38	23644.09
528.55	23969.43
528.72	23847.72
528.89	24049.00
529.07	23880.49
529.24	23782.18
529.41	23819.63
529.58	23922.62
529.75	23857.08
529.92	23761.12
530.09	23955.38
530.26	24161.35
530.43	24276.04
530.60	24250.29
530.77	24458.60
530.94	24554.56
531.11	24367.32
531.28	24116.88
531.46	24247.95
531.63	24510.09
531.80	24524.13
531.97	24938.41
532.14	24847.13
532.31	24463.28
532.48	24610.73
532.65	24851.81
532.82	24514.77
532.99	25039.05
533.16	24730.10
533.33	24807.34
533.50	25104.59
533.67	25057.78
533.84	25020.33
534.01	25266.08
534.18	24973.52
534.35	25294.17
534.52	25490.77
534.69	25373.75
534.86	25305.87
535.03	25165.44
535.20	25174.80
535.37	25036.71
535.54	25359.70
535.71	25270.76
535.88	25336.30
536.05	25366.73
536.22	25912.07
536.38	25596.10
536.55	25387.79
536.72	25394.81
536.89	25502.48
537.06	25474.39
537.23	25617.16
537.40	25972.92
537.57	25846.54
537.74	25652.27
537.91	26148.46
538.08	26057.18
538.25	25654.61
538.42	25844.20
538.59	26071.23
538.75	25748.23
538.92	25546.95
539.09	26359.11
539.26	25970.58
539.43	26286.56
539.60	25933.14
539.77	26321.66
539.94	26181.23
540.11	26167.19
540.28	26572.10
540.44	26412.95
540.61	26160.17
540.78	26328.69
540.95	26328.69
541.12	26237.41
541.29	26799.13
541.46	26511.25
541.62	26492.52
541.79	26426.99
541.96	26033.78
542.13	26359.11
542.30	26644.66
542.47	26689.13
542.63	26478.48
542.80	26881.05
542.97	27040.21
543.14	26918.50
543.31	27000.42
543.48	27110.43
543.64	27395.97
543.81	27459.16
543.98	27016.80
544.15	27356.18
544.32	27410.01
544.48	27494.27
544.65	27058.93
544.82	27559.81
544.99	27309.37
545.16	27435.76
545.32	27131.49
545.49	27716.62
545.66	27721.30
545.83	27611.30
546.00	27524.70
546.16	27391.29
546.33	27220.43
546.50	27398.31
546.67	27592.58
546.83	27124.47
547.00	27814.93
547.17	27697.90
547.34	27541.08
547.50	27627.68
547.67	27915.57
547.84	27592.58
548.00	27737.69
548.17	28030.26
548.34	27573.85
548.51	27693.22
548.67	27899.19
548.84	27580.87
549.01	28067.70
549.18	27892.16
549.34	27868.76
549.51	27953.02
549.68	28030.26
549.84	28224.52
550.01	27857.06
550.18	27962.38
550.34	28119.20
550.51	28273.67
550.68	28182.39
550.84	27847.69
551.01	28505.38
551.18	28191.75
551.34	27805.56
551.51	28128.56
551.68	28210.48
551.84	28341.55
552.01	28402.40
552.18	28348.57
552.34	28334.53
552.51	28575.60
552.68	28292.40
552.84	28507.72
553.01	28676.24
553.18	28697.31
553.34	28631.77
553.51	28594.32
553.67	28968.81
553.84	29104.56
554.01	29083.50
554.17	28952.43
554.34	28568.58
554.51	28837.74
554.67	28767.52
554.84	28687.95
555.00	28753.48
555.17	29050.73
555.33	28964.13
555.50	28922.00
555.67	29212.23
555.83	29043.71
556.00	29268.40
556.16	29106.90
556.33	29156.05
556.50	29027.32
556.66	29268.40
556.83	28982.85
556.99	29455.64
557.16	29352.66
557.32	28898.59
557.49	29507.13
557.65	29032.00
557.82	29305.85
557.98	29294.14
558.15	28922.00
558.32	29085.84
558.48	28996.90
558.65	29514.16
558.81	29584.37
558.98	29364.36
559.14	29160.73
559.31	28982.85
559.47	29446.28
559.64	29261.38
559.80	29596.07
559.97	29673.31
560.13	29263.72
560.30	29518.84
560.46	29453.30
560.63	29647.57
560.79	29577.35
560.96	29750.55
561.12	29659.27
561.29	29673.31
561.45	29738.85
561.61	29472.03
561.78	29734.17
561.94	29797.36
562.11	29696.72
562.27	29855.87
562.44	29521.18
562.60	29621.82
562.77	29296.49
562.93	29813.74
563.10	30005.67
563.26	29989.28
563.42	30192.91
563.59	29687.36
563.75	29979.92
563.92	29944.81
564.08	29825.45
564.24	30216.32
564.41	30092.27
564.57	29984.60
564.74	29610.12
564.90	30164.82
565.07	29874.60
565.23	30075.88
565.39	29741.19
565.56	30508.88
565.72	29766.93
565.88	29944.81
566.05	30103.97
566.21	29867.58
566.38	29848.85
566.54	29762.25
566.70	30345.05
566.87	30583.78
567.03	30115.67
567.19	30340.36
567.36	30057.16
567.52	29846.51
567.68	30380.15
567.85	30366.11
568.01	30101.63
568.17	30008.01
568.34	30419.94
568.50	30480.80
568.66	30160.14
568.83	30452.71
568.99	30483.14
569.15	29825.45
569.32	30155.46
569.48	29750.55
569.64	29991.62
569.81	30155.46
569.97	30431.65
570.13	30520.59
570.30	30162.48
570.46	30298.23
570.62	30265.47
570.78	30424.62
570.95	30242.06
571.11	30389.52
571.27	30508.88
571.43	29881.62
571.60	30338.02
571.76	30361.43
571.92	30312.28
572.09	30171.85
572.25	30103.97
572.41	30637.61
572.57	30396.54
572.74	30593.14
572.90	30555.69
573.06	30274.83
573.22	30558.03
573.38	30852.94
573.55	30274.83
573.71	31016.78
573.87	31033.16
574.03	30679.74
574.20	30515.90
574.36	30370.79
574.52	30569.74
574.68	30522.93
574.84	30600.16
575.01	30443.35
575.17	30703.15
575.33	30710.17
575.49	30438.67
575.65	30443.35
575.82	30387.18
575.98	30604.84
576.14	30892.73
576.30	30579.10
576.46	30218.66
576.62	30637.61
576.79	30864.64
576.95	30794.43
577.11	30862.30
577.27	30593.14
577.43	30721.87
577.59	30670.38
577.75	30464.41
577.92	30314.62
578.08	30382.49
578.24	30965.29
578.40	30590.80
578.56	30436.33
578.72	30487.82
578.88	30958.27
579.04	30689.10
579.21	30543.99
579.37	30719.53
579.53	30881.03
579.69	30431.65
579.85	30323.98
580.01	30602.50
580.17	30583.78
580.33	30508.88
580.49	30370.79
580.65	30705.49
580.82	30724.21
580.98	30560.37
581.14	30869.33
581.30	30429.30
581.46	30852.94
581.62	30635.27
581.78	30764.00
581.94	31056.57
582.10	30675.06
582.26	30923.16
582.42	30747.62
582.58	30654.00
582.74	30724.21
582.90	30892.73
583.06	30998.06
583.22	30677.40
583.38	30354.41
583.54	30866.98
583.70	30583.78
583.86	30586.12
584.02	30782.73
584.18	31030.82
584.34	30705.49
584.50	31543.40
584.66	30934.86
584.82	30829.54
584.98	30923.16
585.14	31023.80
585.30	30876.35
585.46	30600.16
585.62	30572.08
585.78	30974.65
585.94	30721.87
586.10	30909.11
586.26	31147.85
586.42	31065.93
586.58	31175.94
586.74	30700.81
586.90	30618.89
587.06	30284.19
587.22	31075.29
587.38	30644.63
587.54	30918.48
587.70	31166.57
587.86	31435.74
588.02	30988.69
588.18	31201.68
588.34	31508.29
588.49	30859.96
588.65	30728.89
588.81	31063.59
588.97	30724.21
589.13	31236.79
589.29	30761.66
589.45	30759.32
589.61	31091.68
589.77	31218.07
589.93	31157.21
590.08	31274.24
590.24	31065.93
590.40	31115.08
590.56	31143.17
590.72	30986.35
590.88	30998.06
591.04	30930.18
591.20	31037.84
591.35	31414.67
591.51	31363.18
591.67	31152.53
591.83	31075.29
