SpectraSuite Data File
++++++++++++++++++++++++++++++++++++
Date: Fri Oct 18 13:58:09 GMT-05:00 2013
User: bianchi
Dark Spectrum Present: No
Reference Spectrum Present: No
Number of Sampled Component Spectra: 1
Spectrometers: USB2+H05261
Integration Time (usec): 50000 (USB2+H05261)
Spectra Averaged: 1 (USB2+H05261)
Boxcar Smoothing: 0 (USB2+H05261)
Correct for Electrical Dark: No (USB2+H05261)
Strobe/Lamp Enabled: No (USB2+H05261)
Correct for Detector Non-linearity: No (USB2+H05261)
Correct for Stray Light: No (USB2+H05261)
Number of Pixels in Processed Spectrum: 2048
>>>>>Begin Processed Spectral Data<<<<<
365.73	0.00
365.92	0.00
366.12	0.00
366.32	0.00
366.52	0.00
366.72	0.00
366.91	0.00
367.11	0.00
367.31	0.00
367.51	0.00
367.70	0.00
367.90	0.00
368.10	0.00
368.30	0.00
368.49	0.00
368.69	0.00
368.89	0.00
369.09	0.00
369.28	0.00
369.48	0.00
369.68	0.00
369.87	0.00
370.07	0.00
370.27	0.00
370.47	0.00
370.66	42.13
370.86	91.28
371.06	149.79
371.25	145.11
371.45	117.03
371.65	107.66
371.84	154.48
372.04	154.48
372.24	189.58
372.44	140.43
372.63	196.60
372.83	227.03
373.03	88.94
373.22	187.24
373.42	250.44
373.62	184.90
373.81	273.84
374.01	147.45
374.21	299.59
374.40	243.42
374.60	250.44
374.79	238.73
374.99	269.16
375.19	241.08
375.38	264.48
375.58	381.51
375.78	311.29
375.97	269.16
376.17	236.39
376.37	224.69
376.56	337.04
376.76	196.60
376.95	208.31
377.15	262.14
377.35	297.25
377.54	184.90
377.74	278.52
377.93	269.16
378.13	313.63
378.33	238.73
378.52	273.84
378.72	287.89
378.91	390.87
379.11	322.99
379.31	304.27
379.50	241.08
379.70	299.59
379.89	362.78
380.09	243.42
380.28	325.33
380.48	344.06
380.68	294.91
380.87	311.29
381.07	388.53
381.26	332.36
381.46	348.74
381.65	332.36
381.85	379.17
382.04	278.52
382.24	442.36
382.43	346.40
382.63	313.63
382.83	341.72
383.02	418.96
383.22	437.68
383.41	374.49
383.61	313.63
383.80	294.91
384.00	332.36
384.19	372.15
384.39	355.76
384.58	386.19
384.78	393.21
384.97	372.15
385.17	337.04
385.36	395.55
385.56	451.72
385.75	421.30
385.95	407.25
386.14	409.59
386.34	425.98
386.53	475.13
386.72	365.12
386.92	365.12
387.11	463.43
387.31	425.98
387.50	440.02
387.70	393.21
387.89	409.59
388.09	346.40
388.28	465.77
388.48	454.06
388.67	463.43
388.86	514.92
389.06	428.32
389.25	423.64
389.45	489.17
389.64	482.15
389.84	470.45
390.03	482.15
390.22	486.83
390.42	465.77
390.61	475.13
390.81	510.24
391.00	521.94
391.19	538.32
391.39	566.41
391.58	538.32
391.78	519.60
391.97	538.32
392.16	514.92
392.36	538.32
392.55	496.19
392.75	634.29
392.94	550.03
393.13	617.90
393.33	564.07
393.52	573.43
393.71	479.81
393.91	596.84
394.10	592.16
394.29	587.47
394.49	561.73
394.68	606.20
394.88	578.11
395.07	667.05
395.26	613.22
395.46	662.37
395.65	688.12
395.84	610.88
396.04	699.82
396.23	638.97
396.42	678.76
396.62	650.67
396.81	634.29
397.00	610.88
397.19	723.23
397.39	739.61
397.58	716.20
397.77	692.80
397.97	671.73
398.16	690.46
398.35	667.05
398.55	746.63
398.74	690.46
398.93	767.70
399.12	781.74
399.32	645.99
399.51	739.61
399.70	678.76
399.90	748.97
400.09	770.04
400.28	833.23
400.47	774.72
400.67	807.48
400.86	697.48
401.05	898.77
401.24	866.00
401.44	856.64
401.63	823.87
401.82	898.77
402.01	805.14
402.21	842.59
402.40	863.66
402.59	821.53
402.78	847.27
402.97	898.77
403.17	877.70
403.36	880.04
403.55	837.91
403.74	912.81
403.93	938.55
404.13	875.36
404.32	861.32
404.51	884.72
404.70	919.83
404.89	849.61
405.09	898.77
405.28	987.71
405.47	994.73
405.66	971.32
405.85	1013.45
406.05	954.94
406.24	978.34
406.43	1076.65
406.62	1022.81
406.81	1062.60
407.00	980.68
407.20	1025.15
407.39	1086.01
407.58	1062.60
407.77	1060.26
407.96	1177.29
408.15	1081.33
408.34	1116.44
408.54	1207.72
408.73	1083.67
408.92	1100.05
409.11	1181.97
409.30	1078.99
409.49	1146.86
409.68	1109.41
409.87	1163.25
410.07	1191.33
410.26	1179.63
410.45	1303.68
410.64	1167.93
410.83	1210.06
411.02	1181.97
411.21	1301.34
411.40	1289.64
411.59	1308.36
411.78	1282.61
411.98	1259.21
412.17	1254.53
412.36	1317.72
412.55	1390.28
412.74	1348.15
412.93	1416.02
413.12	1348.15
413.31	1486.24
413.50	1427.73
413.69	1380.92
413.88	1474.54
414.07	1441.77
414.26	1533.05
414.45	1504.96
414.64	1481.56
414.83	1481.56
415.02	1530.71
415.22	1563.48
415.41	1640.72
415.60	1563.48
415.79	1523.69
415.98	1612.63
416.17	1556.46
416.36	1556.46
416.55	1624.33
416.74	1568.16
416.93	1692.21
417.12	1689.87
417.31	1717.95
417.50	1645.40
417.69	1867.75
417.88	1757.74
418.07	1804.55
418.26	1732.00
418.45	1816.26
418.64	1827.96
418.83	1736.68
419.02	1804.55
419.21	1898.17
419.39	1916.90
419.58	1842.00
419.77	1846.68
419.96	1788.17
420.15	1926.26
420.34	1900.52
420.53	1937.96
420.72	1966.05
420.91	2059.67
421.10	1977.75
421.29	2012.86
421.48	1909.88
421.67	2024.56
421.86	1921.58
422.05	1968.39
422.24	1952.01
422.43	1970.73
422.61	1998.82
422.80	2052.65
422.99	1947.33
423.18	2036.27
423.37	1940.30
423.56	2003.50
423.75	2043.29
423.94	2015.20
424.13	1886.47
424.32	1923.92
424.50	2045.63
424.69	2015.20
424.88	2195.42
425.07	2094.78
425.26	2015.20
425.45	2094.78
425.64	2022.22
425.83	2200.10
426.01	2143.93
426.20	2064.35
426.39	2057.33
426.58	2073.71
426.77	2083.08
426.96	2090.10
427.15	2143.93
427.33	2143.93
427.52	2237.55
427.71	2195.42
427.90	2169.68
428.09	2328.83
428.28	2181.38
428.46	2242.23
428.65	2232.87
428.84	2272.66
429.03	2361.60
429.22	2242.23
429.40	2256.28
429.59	2375.64
429.78	2275.00
429.97	2052.65
430.16	2200.10
430.34	2335.85
430.53	2319.47
430.72	2429.48
430.91	2354.58
431.10	2204.78
431.28	2326.49
431.47	2385.01
431.66	2307.77
431.85	2382.67
432.03	2565.23
432.22	2562.89
432.41	2569.91
432.60	2459.90
432.79	2478.63
432.97	2445.86
433.16	2499.69
433.35	2394.37
433.54	2483.31
433.72	2532.46
433.91	2595.65
434.10	2480.97
434.28	2499.69
434.47	2607.36
434.66	2506.71
434.85	2691.62
435.03	2548.84
435.22	2651.83
435.41	2717.36
435.59	2670.55
435.78	2633.10
435.97	2612.04
436.16	2724.38
436.34	2794.60
436.53	2766.51
436.72	2909.29
436.90	2663.53
437.09	2825.03
437.28	2719.70
437.46	2775.88
437.65	2794.60
437.84	2775.88
438.02	2743.11
438.21	2841.41
438.40	2834.39
438.58	2899.92
438.77	2881.20
438.96	2956.10
439.14	2885.88
439.33	3035.67
439.52	2991.20
439.70	3084.83
439.89	2998.23
440.08	3103.55
440.26	3028.65
440.45	3124.62
440.63	3185.47
440.82	3213.56
441.01	3075.46
441.19	3246.32
441.38	3398.46
441.57	3274.41
441.75	3253.34
441.94	3274.41
442.12	3353.99
442.31	3358.67
442.50	3304.84
442.68	3337.60
442.87	3318.88
443.05	3433.57
443.24	3473.36
443.43	3421.86
443.61	3473.36
443.80	3541.23
443.98	3426.54
444.17	3288.45
444.35	3478.04
444.54	3482.72
444.73	3480.38
444.91	3574.00
445.10	3363.35
445.28	3492.08
445.47	3527.19
445.65	3609.11
445.84	3625.49
446.02	3592.72
446.21	3440.59
446.39	3386.76
446.58	3597.40
446.77	3651.24
446.95	3449.95
447.14	3590.38
447.32	3538.89
447.51	3597.40
447.69	3482.72
447.88	3595.06
448.06	3602.08
448.25	3536.55
448.43	3571.66
448.62	3609.11
448.80	3520.17
448.99	3754.22
449.17	3775.28
449.36	3515.48
449.54	3866.56
449.73	3768.26
449.91	3789.33
450.10	3875.93
450.28	3896.99
450.46	3864.22
450.65	3756.56
450.83	3885.29
451.02	3728.47
451.20	3831.46
451.39	3892.31
451.57	3791.67
451.76	3815.07
451.94	3761.24
452.13	3974.23
452.31	3908.69
452.49	3744.86
452.68	3864.22
452.86	3997.64
453.05	4042.11
453.23	3920.40
453.42	4004.66
453.60	3913.38
453.78	4018.70
453.97	3992.95
454.15	4081.89
454.34	3955.51
454.52	4156.79
454.70	4044.45
454.89	4032.74
455.07	4131.05
455.26	4245.73
455.44	4095.94
455.62	4084.23
455.81	4070.19
455.99	4161.47
456.17	4245.73
456.36	4259.78
456.54	4259.78
456.73	4283.18
456.91	4390.84
457.09	4271.48
457.28	4236.37
457.46	4442.34
457.64	4374.46
457.83	4484.47
458.01	4407.23
458.19	4643.62
458.38	4416.59
458.56	4573.41
458.74	4571.07
458.93	4484.47
459.11	4458.72
459.29	4458.72
459.48	4559.36
459.66	4521.92
459.84	4734.90
460.03	4585.11
460.21	4681.07
460.39	4545.32
460.57	4596.81
460.76	4589.79
460.94	4774.69
461.12	4784.06
461.31	4645.96
461.49	4683.41
461.67	4741.93
461.85	4856.61
462.04	4798.10
462.22	4990.02
462.40	4964.28
462.59	4741.93
462.77	4870.65
462.95	4837.89
463.13	4748.95
463.32	4823.84
463.50	4919.81
463.68	4908.10
463.86	4961.94
464.05	4826.18
464.23	4912.78
464.41	4924.49
464.59	4781.71
464.78	5036.83
464.96	4861.29
465.14	4849.59
465.32	5008.75
465.50	5067.26
465.69	5308.34
465.87	5069.60
466.05	5011.09
466.23	4936.19
466.41	5174.92
466.60	5305.99
466.78	5060.24
466.96	5109.39
467.14	5074.28
467.32	5231.10
467.51	5247.48
467.69	5100.03
467.87	5198.33
468.05	5263.86
468.23	5313.02
468.41	5177.26
468.60	5198.33
468.78	5317.70
468.96	5355.15
469.14	5430.04
469.32	5298.97
469.50	5401.96
469.69	5521.32
469.87	5528.35
470.05	5380.89
470.23	5448.77
470.41	5518.98
470.59	5556.43
470.77	5526.00
470.95	5645.37
471.14	5605.58
471.32	5556.43
471.50	5668.78
471.68	5694.52
471.86	5565.79
472.04	5682.82
472.22	5877.09
472.40	5748.36
472.58	5659.42
472.77	5753.04
472.95	5792.83
473.13	6073.69
473.31	5858.36
473.49	5982.41
473.67	5977.73
473.85	5940.28
474.03	6186.04
474.21	6097.10
474.39	6087.73
474.57	6094.76
474.75	6307.74
474.93	6417.75
475.12	6345.19
475.30	6452.86
475.48	6249.23
475.66	6363.92
475.84	6452.86
476.02	6588.61
476.20	6541.80
476.38	6504.35
476.56	6700.95
476.74	6675.21
476.92	6520.73
477.10	6633.08
477.28	6738.40
477.46	6782.87
477.64	6827.34
477.82	6979.48
478.00	6993.52
478.18	7014.59
478.36	7014.59
478.54	7080.12
478.72	7080.12
478.90	7290.77
479.08	7176.08
479.26	7173.74
479.44	7368.01
479.62	7265.02
479.80	7524.82
479.98	7669.94
480.16	7721.43
480.34	7691.00
480.52	7723.77
480.70	7875.90
480.88	7693.34
481.06	7765.90
481.24	7861.86
481.41	8060.80
481.59	8030.38
481.77	8065.49
481.95	8191.88
482.13	8217.62
482.31	8421.25
482.49	8320.60
482.67	8454.02
482.85	8582.74
483.03	8444.65
483.21	8725.52
483.39	8718.50
483.57	8667.00
483.74	8716.16
483.92	8835.52
484.10	8830.84
484.28	9006.38
484.46	9039.15
484.64	9348.10
484.82	9081.28
485.00	9256.82
485.18	9430.02
485.35	9540.02
485.53	9610.24
485.71	9673.43
485.89	9493.21
486.07	9830.25
486.25	9914.51
486.43	9872.38
486.61	9966.00
486.78	10150.90
486.96	10097.07
487.14	10256.23
487.32	10464.54
487.50	10380.28
487.68	10492.62
487.85	10438.79
488.03	10780.51
488.21	10806.25
488.39	10693.91
488.57	10853.06
488.75	10757.10
488.92	11126.91
489.10	11243.93
489.28	11089.46
489.46	11344.58
489.64	11461.60
489.81	11398.41
489.99	11716.72
490.17	11672.25
490.35	11679.27
490.53	11810.34
490.70	11906.31
490.88	11967.16
491.06	11817.36
491.24	11826.73
491.41	12025.67
491.59	12098.23
491.77	11906.31
491.95	12159.08
492.13	12453.99
492.30	12662.30
492.48	12519.53
492.66	12397.82
492.84	12613.15
493.01	12863.58
493.19	12999.34
493.37	12973.59
493.54	12957.21
493.72	13385.52
493.90	13083.59
494.08	13202.96
494.25	13446.38
494.43	13425.31
494.61	13439.36
494.79	13547.02
494.96	13535.32
495.14	13767.03
495.32	13755.33
495.49	13820.86
495.67	13942.57
495.85	13855.97
496.02	14143.86
496.20	13984.70
496.38	14115.77
496.55	14211.73
496.73	14258.54
496.91	14370.89
497.09	14757.08
497.26	14682.18
497.44	14644.73
497.62	14588.56
497.79	14892.83
497.97	14780.48
498.14	14970.07
498.32	15105.82
498.50	15131.56
498.67	15456.90
498.85	15328.17
499.03	15487.32
499.20	15269.66
499.38	15082.41
499.56	15201.78
499.73	15742.44
499.91	15707.34
500.08	15793.94
500.26	15508.39
500.44	15735.42
500.61	15854.79
500.79	15714.36
500.97	15969.48
501.14	16133.31
501.32	16205.87
501.49	15929.69
501.67	16074.80
501.84	15964.79
502.02	16147.36
502.20	16648.23
502.37	16329.92
502.55	16482.05
502.72	16475.03
502.90	16617.80
503.07	16641.21
503.25	16762.92
503.43	16442.26
503.60	16922.07
503.78	17046.12
503.95	16762.92
504.13	16805.05
504.30	16751.21
504.48	16996.97
504.65	17053.14
504.83	17397.20
505.01	17537.63
505.18	17200.60
505.36	17610.19
505.53	17308.26
505.71	17465.08
505.88	17579.76
506.06	17598.49
506.23	17565.72
506.41	17591.47
506.58	17769.35
506.76	17834.88
506.93	17762.33
507.11	17877.01
507.28	17862.97
507.46	17926.16
507.63	17865.31
507.81	18221.07
507.98	17970.63
508.16	18120.43
508.33	18066.60
508.50	18328.74
508.68	18310.01
508.85	18368.52
509.03	18384.91
509.20	18445.76
509.38	18747.69
509.55	18525.34
509.73	18647.05
509.90	18581.51
510.08	18764.07
510.25	18743.01
510.42	18649.39
510.60	18633.00
510.77	18925.57
510.95	19325.80
511.12	19138.56
511.30	18867.06
511.47	19386.66
511.64	19304.74
511.82	19412.40
511.99	19225.16
512.17	19644.12
512.34	19630.07
512.51	19597.31
512.69	19742.42
512.86	19543.47
513.04	19625.39
513.21	19948.39
513.38	19878.17
513.56	19861.79
513.73	19768.16
513.90	19803.27
514.08	20034.99
514.25	20273.72
514.43	20446.92
514.60	20208.19
514.77	20353.30
514.95	20187.12
515.12	20130.95
515.29	20388.41
515.47	20500.75
515.64	20711.40
515.81	20362.66
515.99	20545.22
516.16	20613.10
516.33	20627.14
516.51	20872.90
516.68	20587.35
516.85	20903.32
517.03	20606.08
517.20	21006.31
517.37	21032.05
517.54	21006.31
517.72	20889.28
517.89	20992.26
518.06	21022.69
518.24	20938.43
518.41	21097.59
518.58	21338.66
518.75	21219.30
518.93	21139.72
519.10	21441.65
519.27	21273.13
519.45	21380.79
519.62	21376.11
519.79	21069.50
519.96	21467.39
520.14	21809.11
520.31	21586.76
520.48	21998.70
520.65	21659.32
520.83	21860.60
521.00	21575.06
521.17	21748.26
521.34	22101.68
521.52	21640.59
521.69	22092.32
521.86	22576.81
522.03	22548.72
522.20	22068.91
522.38	22155.51
522.55	22085.30
522.72	22291.26
522.89	22438.72
523.07	22492.55
523.24	22354.46
523.41	22452.76
523.58	22654.05
523.75	22569.79
523.92	22796.82
524.10	22396.59
524.27	22822.56
524.44	23077.68
524.61	23150.24
524.78	22977.04
524.96	23204.07
525.13	22845.97
525.30	23073.00
525.47	22965.34
525.64	23054.28
525.81	23019.17
525.98	23711.97
526.16	23220.45
526.33	23297.69
526.50	23637.07
526.67	23433.44
526.84	23185.35
527.01	23115.13
527.18	23344.50
527.36	23594.94
527.53	23484.94
527.70	23709.63
527.87	23597.28
528.04	23564.51
528.21	23962.40
528.38	23653.45
528.55	23770.48
528.72	23611.32
528.89	24049.00
529.07	23707.29
529.24	23557.49
529.41	24215.18
529.58	23936.66
529.75	23843.04
529.92	24023.26
530.09	24346.25
530.26	23793.89
530.43	24390.72
530.60	24025.60
530.77	24386.04
530.94	24379.02
531.11	24112.20
531.28	24191.78
531.46	24254.97
531.63	24208.16
531.80	25111.61
531.97	24432.85
532.14	24559.24
532.31	24599.03
532.48	24470.30
532.65	24664.57
532.82	24692.65
532.99	24783.93
533.16	24444.56
533.33	24676.27
533.50	24982.88
533.67	24987.56
533.84	24694.99
534.01	25071.82
534.18	24917.34
534.35	25050.75
534.52	25036.71
534.69	25029.69
534.86	25329.28
535.03	24891.60
535.20	25193.53
535.37	25144.38
535.54	25090.54
535.71	25268.42
535.88	24926.71
536.05	25315.23
536.22	25408.86
536.38	25626.53
536.55	25586.74
536.72	25621.84
536.89	25448.64
537.06	25308.21
537.23	25762.28
537.40	25818.45
537.57	25474.39
537.74	25671.00
537.91	25883.98
538.08	25783.34
538.25	25532.90
538.42	25869.94
538.59	25874.62
538.75	25528.22
538.92	25839.51
539.09	25699.08
539.26	26143.78
539.43	25944.84
539.60	26300.60
539.77	26321.66
539.94	25933.14
540.11	26033.78
540.28	25846.54
540.44	26143.78
540.61	26022.08
540.78	25919.09
540.95	26511.25
541.12	26368.48
541.29	26373.16
541.46	26520.61
541.62	26008.03
541.79	26532.31
541.96	26150.81
542.13	26536.99
542.30	26600.19
542.47	26700.83
542.63	26946.59
542.80	26710.19
542.97	26916.16
543.14	26899.78
543.31	26885.73
543.48	26735.94
543.64	27297.67
543.81	27126.81
543.98	27239.15
544.15	27297.67
544.32	27346.82
544.48	27124.47
544.65	27063.61
544.82	26937.23
544.99	26977.01
545.16	27321.07
545.32	26988.72
545.49	27695.56
545.66	27388.95
545.83	27477.89
546.00	27377.25
546.16	27328.10
546.33	27192.34
546.50	27281.28
546.67	27557.47
546.83	27145.53
547.00	27182.98
547.17	27906.21
547.34	27323.41
547.50	27314.05
547.67	27850.03
547.84	27522.36
548.00	27449.80
548.17	27608.96
548.34	27576.19
548.51	28002.17
548.67	28077.07
548.84	27908.55
549.01	27819.61
549.18	27653.43
549.34	28048.98
549.51	28084.09
549.68	27969.40
549.84	27915.57
550.01	27873.44
550.18	27536.40
550.34	27985.79
550.51	28297.08
550.68	28112.17
550.84	27878.12
551.01	28280.69
551.18	28154.30
551.34	27999.83
551.51	28154.30
551.68	28112.17
551.84	28224.52
552.01	28229.20
552.18	28315.80
552.34	28294.74
552.51	28608.37
552.68	28343.89
552.84	28599.01
553.01	28636.45
553.18	28460.91
553.34	28245.58
553.51	28620.07
553.67	28634.11
553.84	28830.72
554.01	28914.98
554.17	28575.60
554.34	28470.28
554.51	28753.48
554.67	28947.75
554.84	28711.35
555.00	28912.64
555.17	28669.22
555.33	28748.80
555.50	28533.47
555.67	28718.37
555.83	28872.85
556.00	28800.29
556.16	28954.77
556.33	28844.76
556.50	28896.25
556.66	29191.16
556.83	29226.27
556.99	29193.50
557.16	29146.69
557.32	28783.91
557.49	29053.07
557.65	29184.14
557.82	28716.03
557.98	29156.05
558.15	28945.41
558.32	29219.25
558.48	29560.97
558.65	29261.38
558.81	28882.21
558.98	29340.96
559.14	29598.41
559.31	28912.64
559.47	29212.23
559.64	29106.90
559.80	29490.75
559.97	29727.14
560.13	29406.49
560.30	29338.62
560.46	29502.45
560.63	29244.99
560.79	29481.39
560.96	29163.08
561.12	29715.44
561.29	29347.98
561.45	29504.79
561.61	29663.95
561.78	29504.79
561.94	29701.40
562.11	29553.94
562.27	29701.40
562.44	29504.79
562.60	29460.32
562.77	29724.80
562.93	29804.38
563.10	30118.01
563.26	29579.69
563.42	30085.25
563.59	29659.27
563.75	29738.85
563.92	30092.27
564.08	29806.72
564.24	29656.93
564.41	29642.88
564.57	29509.47
564.74	29647.57
564.90	29998.65
565.07	30040.78
565.23	29905.02
565.39	29785.66
565.56	29996.31
565.72	29738.85
565.88	29823.11
566.05	29785.66
566.21	30012.69
566.38	29624.16
566.54	29472.03
566.70	29949.50
566.87	30316.96
567.03	29799.70
567.19	30244.40
567.36	30082.91
567.52	30167.16
567.68	29993.97
567.85	30087.59
568.01	30036.09
568.17	29713.10
568.34	30047.80
568.50	29926.09
568.66	30401.22
568.83	30235.04
568.99	29713.10
569.15	30183.55
569.32	29993.97
569.48	30263.13
569.64	29635.86
569.81	30129.72
569.97	30312.28
570.13	30162.48
570.30	30221.00
570.46	30391.86
570.62	30033.75
570.78	30239.72
570.95	30043.12
571.11	30536.97
571.27	29708.42
571.43	29738.85
571.60	30136.74
571.76	30045.46
571.92	30515.90
572.09	30323.98
572.25	30457.39
572.41	30455.05
572.57	30246.74
572.74	30073.54
572.90	30164.82
573.06	30113.33
573.22	30412.92
573.38	30352.07
573.55	30230.36
573.71	30672.72
573.87	30527.61
574.03	30213.98
574.20	30253.76
574.36	30368.45
574.52	30529.95
574.68	30256.11
574.84	30384.83
575.01	30155.46
575.17	30508.88
575.33	30569.74
575.49	30335.68
575.65	30150.78
575.82	30742.94
575.98	30567.40
576.14	30366.11
576.30	30487.82
576.46	30295.89
576.62	30305.26
576.79	30281.85
576.95	29755.23
577.11	30532.29
577.27	30277.17
577.43	30546.33
577.59	30869.33
577.75	29979.92
577.92	30511.22
578.08	30450.37
578.24	30120.35
578.40	30483.14
578.56	30412.92
578.72	30663.36
578.88	30738.26
579.04	30801.45
579.21	30277.17
579.37	30724.21
579.53	30433.99
579.69	30314.62
579.85	30328.66
580.01	30642.29
580.17	30464.41
580.33	30609.53
580.49	30855.28
580.65	30553.35
580.82	30773.36
580.98	30649.32
581.14	30373.13
581.30	30581.44
581.46	30349.73
581.62	30747.62
581.78	30558.03
581.94	30897.41
582.10	30033.75
582.26	30441.01
582.42	30670.38
582.58	30705.49
582.74	30941.88
582.90	30675.06
583.06	30693.79
583.22	30473.78
583.38	30913.80
583.54	30363.77
583.70	30281.85
583.86	30609.53
584.02	30412.92
584.18	30808.47
584.34	30583.78
584.50	30852.94
584.66	30375.47
584.82	30340.36
584.98	30639.95
585.14	30618.89
585.30	30520.59
585.46	30738.26
585.62	30265.47
585.78	30670.38
585.94	30656.34
586.10	30864.64
586.26	30944.22
586.42	30852.94
586.58	31168.91
586.74	30548.67
586.90	30579.10
587.06	30721.87
587.22	30904.43
587.38	30611.87
587.54	30773.36
587.70	30920.82
587.86	30885.71
588.02	30934.86
588.18	30969.97
588.34	30675.06
588.49	30902.09
588.65	30595.48
588.81	30548.67
588.97	31157.21
589.13	30466.75
589.29	30792.09
589.45	30518.25
589.61	31143.17
589.77	31122.10
589.93	31229.77
590.08	31082.31
590.24	31173.60
590.40	30937.20
590.56	31023.80
590.72	30773.36
590.88	30733.57
591.04	30920.82
591.20	31388.92
591.35	31264.88
591.51	31154.87
591.67	31417.01
591.83	31218.07
591.99	30885.71
