SpectraSuite Data File
++++++++++++++++++++++++++++++++++++
Date: Fri Oct 18 13:58:14 GMT-05:00 2013
User: bianchi
Dark Spectrum Present: No
Reference Spectrum Present: No
Number of Sampled Component Spectra: 1
Spectrometers: USB2+H05261
Integration Time (usec): 50000 (USB2+H05261)
Spectra Averaged: 1 (USB2+H05261)
Boxcar Smoothing: 0 (USB2+H05261)
Correct for Electrical Dark: No (USB2+H05261)
Strobe/Lamp Enabled: No (USB2+H05261)
Correct for Detector Non-linearity: No (USB2+H05261)
Correct for Stray Light: No (USB2+H05261)
Number of Pixels in Processed Spectrum: 2048
>>>>>Begin Processed Spectral Data<<<<<
365.73	0.00
365.92	0.00
366.12	0.00
366.32	0.00
366.52	0.00
366.72	0.00
366.91	0.00
367.11	0.00
367.31	0.00
367.51	0.00
367.70	0.00
367.90	0.00
368.10	0.00
368.30	0.00
368.49	0.00
368.69	0.00
368.89	0.00
369.09	0.00
369.28	0.00
369.48	0.00
369.68	0.00
369.87	0.00
370.07	0.00
370.27	0.00
370.47	0.00
370.66	67.88
370.86	161.50
371.06	138.09
371.25	126.39
371.45	124.05
371.65	84.26
371.84	163.84
372.04	189.58
372.24	173.20
372.44	135.75
372.63	88.94
372.83	210.65
373.03	243.42
373.22	159.16
373.42	161.50
373.62	224.69
373.81	290.23
374.01	304.27
374.21	201.29
374.40	222.35
374.60	271.50
374.79	273.84
374.99	210.65
375.19	220.01
375.38	208.31
375.58	236.39
375.78	217.67
375.97	266.82
376.17	229.37
376.37	170.86
376.56	330.02
376.76	224.69
376.95	184.90
377.15	306.61
377.35	280.86
377.54	280.86
377.74	250.44
377.93	245.76
378.13	208.31
378.33	262.14
378.52	257.46
378.72	273.84
378.91	304.27
379.11	301.93
379.31	266.82
379.50	297.25
379.70	287.89
379.89	344.06
380.09	236.39
380.28	276.18
380.48	278.52
380.68	262.14
380.87	266.82
381.07	332.36
381.26	320.65
381.46	362.78
381.65	313.63
381.85	369.80
382.04	358.10
382.24	365.12
382.43	257.46
382.63	353.42
382.83	367.46
383.02	332.36
383.22	365.12
383.41	341.72
383.61	369.80
383.80	388.53
384.00	280.86
384.19	372.15
384.39	334.70
384.58	294.91
384.78	386.19
384.97	294.91
385.17	395.55
385.36	339.38
385.56	362.78
385.75	337.04
385.95	318.31
386.14	388.53
386.34	423.64
386.53	402.57
386.72	458.74
386.92	353.42
387.11	444.70
387.31	458.74
387.50	409.59
387.70	341.72
387.89	393.21
388.09	435.34
388.28	423.64
388.48	517.26
388.67	440.02
388.86	421.30
389.06	433.00
389.25	482.15
389.45	440.02
389.64	409.59
389.84	535.98
390.03	479.81
390.22	517.26
390.42	533.64
390.61	538.32
390.81	482.15
391.00	468.11
391.19	498.53
391.39	514.92
391.58	575.77
391.78	486.83
391.97	510.24
392.16	482.15
392.36	543.00
392.55	477.47
392.75	531.30
392.94	507.90
393.13	587.47
393.33	559.39
393.52	454.06
393.71	472.79
393.91	592.16
394.10	564.07
394.29	456.40
394.49	550.03
394.68	559.39
394.88	587.47
395.07	641.31
395.26	596.84
395.46	624.92
395.65	622.58
395.84	599.18
396.04	564.07
396.23	613.22
396.42	596.84
396.62	655.35
396.81	587.47
397.00	559.39
397.19	678.76
397.39	660.03
397.58	627.26
397.77	627.26
397.97	713.86
398.16	758.33
398.35	634.29
398.55	638.97
398.74	683.44
398.93	779.40
399.12	704.50
399.32	678.76
399.51	645.99
399.70	725.57
399.90	723.23
400.09	800.46
400.28	751.31
400.47	695.14
400.67	774.72
400.86	753.65
401.05	706.84
401.24	753.65
401.44	777.06
401.63	795.78
401.82	725.57
402.01	821.53
402.21	840.25
402.40	805.14
402.59	784.08
402.78	851.96
402.97	830.89
403.17	877.70
403.36	868.34
403.55	861.32
403.74	816.85
403.93	938.55
404.13	842.59
404.32	830.89
404.51	929.19
404.70	880.04
404.89	915.15
405.09	917.49
405.28	931.53
405.47	990.05
405.66	924.51
405.85	976.00
406.05	940.90
406.24	987.71
406.43	1013.45
406.62	999.41
406.81	1025.15
407.00	1104.73
407.20	987.71
407.39	1027.50
407.58	1057.92
407.77	1013.45
407.96	1046.22
408.15	1107.07
408.34	945.58
408.54	1060.26
408.73	1018.13
408.92	1090.69
409.11	1212.40
409.30	1111.75
409.49	1118.78
409.68	1074.31
409.87	1158.57
410.07	1142.18
410.26	1172.61
410.45	1184.31
410.64	1100.05
410.83	1212.40
411.02	1280.27
411.21	1228.78
411.40	1156.22
411.59	1228.78
411.78	1366.87
411.98	1299.00
412.17	1231.12
412.36	1294.32
412.55	1291.98
412.74	1345.81
412.93	1252.19
413.12	1242.82
413.31	1322.40
413.50	1310.70
413.69	1397.30
413.88	1423.05
414.07	1303.68
414.26	1577.52
414.45	1500.28
414.64	1497.94
414.83	1481.56
415.02	1490.92
415.22	1521.35
415.41	1661.78
415.60	1481.56
415.79	1549.43
415.98	1568.16
416.17	1535.39
416.36	1519.01
416.55	1638.38
416.74	1680.50
416.93	1689.87
417.12	1577.52
417.31	1603.27
417.50	1675.82
417.69	1732.00
417.88	1746.04
418.07	1806.89
418.26	1631.35
418.45	1776.47
418.64	1764.76
418.83	1806.89
419.02	1757.74
419.21	1853.70
419.39	1849.02
419.58	1760.08
419.77	1792.85
419.96	1923.92
420.15	1954.35
420.34	1837.32
420.53	1879.45
420.72	2003.50
420.91	1853.70
421.10	1942.64
421.29	2029.24
421.48	1994.14
421.67	1937.96
421.86	2003.50
422.05	1942.64
422.24	1928.60
422.43	1991.80
422.61	1909.88
422.80	1970.73
422.99	2001.16
423.18	1987.11
423.37	1923.92
423.56	1961.37
423.75	1947.33
423.94	2038.61
424.13	1834.98
424.32	1914.56
424.50	1902.86
424.69	2092.44
424.88	2043.29
425.07	2038.61
425.26	1989.46
425.45	1998.82
425.64	2059.67
425.83	1921.58
426.01	2052.65
426.20	2071.37
426.39	2031.58
426.58	2033.93
426.77	2045.63
426.96	2101.80
427.15	2015.20
427.33	2211.81
427.52	2057.33
427.71	2200.10
427.90	2115.84
428.09	2176.70
428.28	2317.13
428.46	2101.80
428.65	2204.78
428.84	2246.91
429.03	2375.64
429.22	2125.21
429.40	2251.60
429.59	2239.89
429.78	2190.74
429.97	2143.93
430.16	2202.44
430.34	2284.36
430.53	2420.11
430.72	2368.62
430.91	2251.60
431.10	2246.91
431.28	2300.75
431.47	2368.62
431.66	2363.94
431.85	2174.36
432.03	2406.07
432.22	2525.44
432.41	2375.64
432.60	2480.97
432.79	2464.58
432.97	2413.09
433.16	2462.24
433.35	2438.84
433.54	2605.02
433.72	2490.33
433.91	2616.72
434.10	2502.03
434.28	2422.45
434.47	2525.44
434.66	2537.14
434.85	2476.29
435.03	2560.55
435.22	2593.31
435.41	2644.81
435.59	2583.95
435.78	2576.93
435.97	2546.50
436.16	2600.34
436.34	2644.81
436.53	2782.90
436.72	2890.56
436.90	2693.96
437.09	2708.00
437.28	2672.89
437.46	2785.24
437.65	2700.98
437.84	2738.43
438.02	2679.91
438.21	2780.56
438.40	2675.23
438.58	2827.37
438.77	2878.86
438.96	2942.05
439.14	3005.25
439.33	2752.47
439.52	2984.18
439.70	2853.11
439.89	3026.31
440.08	3035.67
440.26	3038.02
440.45	3030.99
440.63	3178.45
440.82	3089.51
441.01	3059.08
441.19	3176.11
441.38	3162.06
441.57	3122.27
441.75	3262.71
441.94	3192.49
442.12	3251.00
442.31	3288.45
442.50	3265.05
442.68	3293.13
442.87	3412.50
443.05	3276.75
443.24	3361.01
443.43	3407.82
443.61	3297.81
443.80	3473.36
443.98	3236.96
444.17	3274.41
444.35	3269.73
444.54	3358.67
444.73	3534.21
444.91	3234.62
445.10	3396.12
445.28	3300.16
445.47	3311.86
445.65	3449.95
445.84	3346.97
446.02	3351.65
446.21	3445.27
446.39	3393.78
446.58	3520.17
446.77	3538.89
446.95	3358.67
447.14	3494.42
447.32	3494.42
447.51	3398.46
447.69	3466.33
447.88	3583.36
448.06	3569.32
448.25	3538.89
448.43	3538.89
448.62	3688.68
448.80	3609.11
448.99	3550.59
449.17	3613.79
449.36	3473.36
449.54	3574.00
449.73	3702.73
449.91	3686.34
450.10	3723.79
450.28	3634.85
450.46	3742.52
450.65	3658.26
450.83	3833.80
451.02	3833.80
451.20	3845.50
451.39	3751.88
451.57	3728.47
451.76	3749.54
451.94	3901.67
452.13	3875.93
452.31	3796.35
452.49	3747.20
452.68	3742.52
452.86	3815.07
453.05	3985.93
453.23	3859.54
453.42	3833.80
453.60	3836.14
453.78	3824.44
453.97	3983.59
454.15	3829.12
454.34	3817.41
454.52	3922.74
454.70	3908.69
454.89	3990.61
455.07	3988.27
455.26	3794.01
455.44	3985.93
455.62	4060.83
455.81	3964.87
455.99	4084.23
456.17	4114.66
456.36	4201.26
456.54	4168.49
456.73	4379.14
456.91	4208.28
457.09	4292.54
457.28	4259.78
457.46	4402.55
457.64	4140.41
457.83	4322.97
458.01	4248.07
458.19	4383.82
458.38	4379.14
458.56	4383.82
458.74	4325.31
458.93	4414.25
459.11	4500.85
459.29	4409.57
459.48	4301.90
459.66	4510.21
459.84	4470.42
460.03	4498.51
460.21	4507.87
460.39	4447.02
460.57	4503.19
460.76	4603.83
460.94	4718.52
461.12	4624.90
461.31	4744.27
461.49	4559.36
461.67	4514.89
461.85	4697.46
462.04	4547.66
462.22	5001.72
462.40	4697.46
462.59	4681.07
462.77	4737.24
462.95	4770.01
463.13	4873.00
463.32	4805.12
463.50	4767.67
463.68	4870.65
463.86	4856.61
464.05	4685.75
464.23	4751.29
464.41	4812.14
464.59	4807.46
464.78	4997.04
464.96	4905.76
465.14	4819.16
465.32	5018.11
465.50	4929.17
465.69	4997.04
465.87	5006.41
466.05	5093.01
466.23	5111.73
466.41	4975.98
466.60	5224.08
466.78	4840.23
466.96	4938.53
467.14	5130.45
467.32	4929.17
467.51	5200.67
467.69	5188.97
467.87	4929.17
468.05	5128.11
468.23	5062.58
468.41	5200.67
468.60	5090.67
468.78	5289.61
468.96	5195.99
469.14	5200.67
469.32	5233.44
469.50	5095.35
469.69	5380.89
469.87	5444.09
470.05	5313.02
470.23	5320.04
470.41	5350.46
470.59	5469.83
470.77	5439.40
470.95	5481.53
471.14	5479.19
471.32	5434.72
471.50	5563.45
471.68	5582.18
471.86	5650.05
472.04	5640.69
472.22	5760.06
472.40	5453.45
472.58	5582.18
472.77	5701.54
472.95	5886.45
473.13	5982.41
473.31	5633.67
473.49	5605.58
473.67	5806.87
473.85	5912.19
474.03	5916.87
474.21	6043.26
474.39	6026.88
474.57	5970.71
474.75	5877.09
474.93	6370.94
475.12	6043.26
475.30	6291.36
475.48	5968.37
475.66	6228.17
475.84	6141.57
476.02	6263.27
476.20	6340.51
476.38	6511.37
476.56	6490.31
476.74	6338.17
476.92	6399.02
477.10	6546.48
477.28	6644.78
477.46	6532.44
477.64	6651.80
477.82	6885.86
478.00	7019.27
478.18	7035.65
478.36	6712.66
478.54	7028.63
478.72	7152.68
478.90	6995.86
479.08	7194.81
479.26	7103.53
479.44	7176.08
479.62	7501.42
479.80	7475.67
479.98	7253.32
480.16	7604.40
480.34	7407.80
480.52	7651.21
480.70	7756.54
480.88	7503.76
481.06	7620.78
481.24	7449.93
481.41	7667.60
481.59	7999.95
481.77	7861.86
481.95	7960.16
482.13	7997.61
482.31	8081.87
482.49	8262.09
482.67	8109.96
482.85	8264.43
483.03	8362.73
483.21	8388.48
483.39	8468.06
483.57	8753.60
483.74	8587.43
483.92	8585.08
484.10	8730.20
484.28	9008.72
484.46	9212.35
484.64	9102.34
484.82	8746.58
485.00	9149.15
485.18	9399.59
485.35	9226.39
485.53	9420.66
485.71	9390.23
485.89	9568.11
486.07	9441.72
486.25	9708.54
486.43	9439.38
486.61	9558.75
486.78	9781.10
486.96	9664.07
487.14	9870.04
487.32	9989.41
487.50	10029.20
487.68	10218.78
487.85	10384.96
488.03	10441.13
488.21	10431.77
488.39	10368.57
488.57	10509.01
488.75	10490.28
488.92	10890.51
489.10	10965.41
489.28	11049.67
489.46	11012.22
489.64	10930.30
489.81	11140.95
489.99	11028.60
490.17	11236.91
490.35	11211.17
490.53	11227.55
490.70	11477.99
490.88	11632.46
491.06	11868.86
491.24	11391.39
491.41	11768.21
491.59	11908.65
491.77	11819.71
491.95	11871.20
492.13	12147.38
492.30	12283.13
492.48	12336.96
492.66	12315.90
492.84	12201.21
493.01	12226.96
493.19	12585.06
493.37	12603.78
493.54	12491.44
493.72	12837.84
493.90	12840.18
494.08	12786.35
494.25	13095.30
494.43	12950.18
494.61	13116.36
494.79	12926.78
494.96	13193.60
495.14	13324.67
495.32	13411.27
495.49	13645.32
495.67	13703.84
495.85	13570.43
496.02	13860.65
496.20	13916.83
496.38	13799.80
496.55	13614.90
496.73	13973.00
496.91	14075.98
497.09	14239.82
497.26	14207.05
497.44	14197.69
497.62	14305.35
497.79	14478.55
497.97	14415.36
498.14	14675.16
498.32	14635.37
498.50	14960.70
498.67	14906.87
498.85	15115.18
499.03	14867.08
499.20	14597.92
499.38	15225.18
499.56	15007.52
499.73	15384.34
499.91	15365.62
500.08	15506.05
500.26	15201.78
500.44	15435.83
500.61	15370.30
500.79	15316.47
500.97	15620.74
501.14	15618.39
501.32	15676.91
501.49	15569.24
501.67	15609.03
501.84	15653.50
502.02	15721.38
502.20	15847.77
502.37	16037.35
502.55	15859.47
502.72	16233.96
502.90	16187.14
503.07	15997.56
503.25	16081.82
503.43	16187.14
503.60	16437.58
503.78	16500.78
503.95	16365.03
504.13	16547.59
504.30	16552.27
504.48	16645.89
504.65	16573.33
504.83	16699.72
505.01	17076.55
505.18	17011.01
505.36	16910.37
505.53	17032.08
505.71	16945.48
505.88	17226.34
506.06	16926.75
506.23	16964.20
506.41	17242.73
506.58	17097.61
506.76	17228.68
506.93	17539.97
507.11	17312.94
507.28	17429.97
507.46	17542.32
507.63	17596.15
507.81	17855.95
507.98	17343.37
508.16	17736.58
508.33	17708.49
508.50	17797.43
508.68	17762.33
508.85	18073.62
509.03	17958.93
509.20	18258.52
509.38	18267.88
509.55	18354.48
509.73	18080.64
509.90	18134.47
510.08	18263.20
510.25	18185.96
510.42	18345.12
510.60	18633.00
510.77	18523.00
510.95	18829.61
511.12	18602.58
511.30	18436.40
511.47	18717.26
511.64	18817.91
511.82	18890.46
511.99	18757.05
512.17	18991.11
512.34	18824.93
512.51	19438.15
512.69	19066.00
512.86	19147.92
513.04	19377.30
513.21	19424.11
513.38	19330.48
513.56	19400.70
513.73	19538.79
513.90	19070.68
514.08	19335.17
514.25	19782.21
514.43	19578.58
514.60	19557.52
514.77	19674.54
514.95	19817.32
515.12	19508.37
515.29	19632.41
515.47	19786.89
515.64	20058.39
515.81	20119.24
515.99	20119.24
516.16	20252.66
516.33	20210.53
516.51	19964.77
516.68	19988.18
516.85	20121.59
517.03	20243.29
517.20	20105.20
517.37	20449.26
517.54	20493.73
517.72	20357.98
517.89	20472.67
518.06	20540.54
518.24	20540.54
518.41	20482.03
518.58	20755.87
518.75	20933.75
518.93	21006.31
519.10	20634.16
519.27	20931.41
519.45	20938.43
519.62	21118.65
519.79	21359.73
519.96	21184.19
520.14	21177.17
520.31	20950.14
520.48	21142.06
520.65	21130.36
520.83	21481.44
521.00	21448.67
521.17	21514.20
521.34	21406.54
521.52	21507.18
521.69	21570.38
521.86	21572.72
522.03	21680.38
522.20	21797.41
522.38	21455.69
522.55	21774.00
522.72	21921.46
522.89	21729.53
523.07	21977.63
523.24	21965.93
523.41	22071.25
523.58	22043.17
523.75	22136.79
523.92	22204.66
524.10	22302.96
524.27	21949.54
524.44	22370.84
524.61	22284.24
524.78	22607.23
524.96	22527.66
525.13	22417.65
525.30	22684.47
525.47	22780.43
525.64	22338.07
525.81	22403.61
525.98	22661.07
526.16	22927.89
526.33	22562.76
526.50	22827.24
526.67	22899.80
526.84	22803.84
527.01	22572.13
527.18	22864.69
527.36	23021.51
527.53	23183.01
527.70	23269.61
527.87	23110.45
528.04	23026.19
528.21	23171.30
528.38	23014.49
528.55	23145.56
528.72	23431.10
528.89	23080.02
529.07	23433.44
529.24	23276.63
529.41	23667.50
529.58	23154.92
529.75	23431.10
529.92	23545.79
530.09	23541.11
530.26	23641.75
530.43	23552.81
530.60	23391.31
530.77	23358.55
530.94	23473.23
531.11	23374.93
531.28	23599.62
531.46	23543.45
531.63	23765.80
531.80	23723.67
531.97	23852.40
532.14	23971.77
532.31	24133.26
532.48	24287.74
532.65	23964.75
532.82	24046.66
532.99	23854.74
533.16	24243.27
533.33	24353.27
533.50	24512.43
533.67	24135.60
533.84	24325.19
534.01	24023.26
534.18	24093.47
534.35	24278.38
534.52	24198.80
534.69	24570.94
534.86	24367.32
535.03	24369.66
535.20	24486.68
535.37	24671.59
535.54	24769.89
535.71	24418.81
535.88	24608.39
536.05	24545.20
536.22	24779.25
536.38	24697.33
536.55	24863.51
536.72	24999.26
536.89	24805.00
537.06	25120.97
537.23	24774.57
537.40	25006.28
537.57	24753.51
537.74	25172.46
537.91	25249.70
538.08	24945.43
538.25	25106.93
538.42	25214.59
538.59	25160.76
538.75	25238.00
538.92	25371.41
539.09	25331.62
539.26	25280.13
539.43	25127.99
539.60	25572.69
539.77	25223.95
539.94	25575.03
540.11	25408.86
540.28	25563.33
540.44	25312.89
540.61	25467.37
540.78	25680.36
540.95	25830.15
541.12	25502.48
541.29	25647.59
541.46	25591.42
541.62	25823.13
541.79	25876.96
541.96	25387.79
542.13	25717.81
542.30	25825.47
542.47	25975.27
542.63	26080.59
542.80	26071.23
542.97	26141.44
543.14	26298.26
543.31	26232.72
543.48	26183.57
543.64	26272.51
543.81	26321.66
543.98	26625.93
544.15	26583.80
544.32	26876.37
544.48	26742.96
544.65	26101.65
544.82	25942.50
544.99	26366.13
545.16	26616.57
545.32	26632.96
545.49	26668.06
545.66	26504.23
545.83	26742.96
546.00	27161.92
546.16	26771.05
546.33	26499.55
546.50	26422.31
546.67	26794.45
546.83	26555.72
547.00	26707.85
547.17	26843.60
547.34	26944.25
547.50	26958.29
547.67	27112.77
547.84	26984.04
548.00	27049.57
548.17	26925.52
548.34	27009.78
548.51	27065.96
548.67	27133.83
548.84	27424.06
549.01	26981.70
549.18	27026.17
549.34	27363.20
549.51	27072.98
549.68	27133.83
549.84	26817.86
550.01	27285.97
550.18	27276.60
550.34	27580.87
550.51	27304.69
550.68	27475.55
550.84	27285.97
551.01	27335.12
551.18	27115.11
551.34	26993.40
551.51	27424.06
551.68	27187.66
551.84	27723.65
552.01	27651.09
552.18	27803.22
552.34	27360.86
552.51	27625.34
552.68	27356.18
552.84	27372.57
553.01	27641.73
553.18	27723.65
553.34	27761.09
553.51	27800.88
553.67	28013.87
553.84	28142.60
554.01	28121.54
554.17	28098.13
554.34	27985.79
554.51	27538.74
554.67	28114.52
554.84	27644.07
555.00	27847.69
555.17	27885.14
555.33	27697.90
555.50	27775.14
555.67	27667.47
555.83	28231.54
556.00	28025.57
556.16	28294.74
556.33	27936.63
556.50	28023.23
556.66	28343.89
556.83	27840.67
556.99	27737.69
557.16	28606.03
557.32	28580.28
557.49	28336.87
557.65	28496.02
557.82	28294.74
557.98	28056.00
558.15	28254.95
558.32	28554.54
558.48	28278.35
558.65	28629.43
558.81	28285.37
558.98	28243.24
559.14	28634.11
559.31	28486.66
559.47	28577.94
559.64	28474.96
559.80	28577.94
559.97	29174.78
560.13	28627.09
560.30	28776.89
560.46	28568.58
560.63	28166.01
560.79	28591.98
560.96	29137.33
561.12	28545.17
561.29	28648.16
561.45	28779.23
561.61	28481.98
561.78	28711.35
561.94	28931.36
562.11	28819.02
562.27	28627.09
562.44	28587.30
562.60	28292.40
562.77	28989.88
562.93	28493.68
563.10	29209.89
563.26	28711.35
563.42	29020.30
563.59	28954.77
563.75	28879.87
563.92	28989.88
564.08	29188.82
564.24	28748.80
564.41	29118.60
564.57	28643.48
564.74	28814.34
564.90	28732.42
565.07	29071.79
565.23	29364.36
565.39	28987.53
565.56	29472.03
565.72	28924.34
565.88	29125.63
566.05	28842.42
566.21	28966.47
566.38	29319.89
566.54	29046.05
566.70	29017.96
566.87	29149.03
567.03	29099.88
567.19	29404.15
567.36	29322.23
567.52	29235.63
567.68	29252.02
567.85	28898.59
568.01	29429.90
568.17	29378.40
568.34	29399.47
568.50	29221.59
568.66	29450.96
568.83	29362.02
568.99	29343.30
569.15	29139.67
569.32	29376.06
569.48	29013.28
569.64	29275.42
569.81	29390.11
569.97	29598.41
570.13	29764.59
570.30	29273.08
570.46	29446.28
570.62	29244.99
570.78	29352.66
570.95	28952.43
571.11	29149.03
571.27	29048.39
571.43	29287.12
571.60	29347.98
571.76	29127.97
571.92	29453.30
572.09	29769.27
572.25	29516.50
572.41	29322.23
572.57	29614.80
572.74	29228.61
572.90	29043.71
573.06	29406.49
573.22	29593.73
573.38	29860.55
573.55	29443.94
573.71	29736.51
573.87	29795.02
574.03	29497.77
574.20	29727.14
574.36	29544.58
574.52	29530.54
574.68	29467.34
574.84	29422.87
575.01	29462.66
575.17	29556.28
575.33	29780.98
575.49	29226.27
575.65	29378.40
575.82	29591.39
575.98	29275.42
576.14	29715.44
576.30	29406.49
576.46	29472.03
576.62	29537.56
576.79	29493.09
576.95	29713.10
577.11	29558.63
577.27	29474.37
577.43	29673.31
577.59	29509.47
577.75	29673.31
577.92	29504.79
578.08	29406.49
578.24	29394.79
578.40	29340.96
578.56	29668.63
578.72	29919.07
578.88	29930.77
579.04	29937.79
579.21	29778.64
579.37	29502.45
579.53	29596.07
579.69	29788.00
579.85	29366.70
580.01	29649.91
580.17	29759.91
580.33	29558.63
580.49	29572.67
580.65	29724.80
580.82	29947.15
580.98	30139.08
581.14	29893.32
581.30	29717.78
581.46	29420.53
581.62	29839.49
581.78	29706.08
581.94	30003.33
582.10	29771.61
582.26	29577.35
582.42	29504.79
582.58	29937.79
582.74	29631.18
582.90	29926.09
583.06	29682.67
583.22	29790.34
583.38	29572.67
583.54	30012.69
583.70	29837.15
583.86	29898.00
584.02	29593.73
584.18	29907.37
584.34	29905.02
584.50	29944.81
584.66	29975.24
584.82	29455.64
584.98	29752.89
585.14	30010.35
585.30	29628.84
585.46	29577.35
585.62	29542.24
585.78	29834.81
585.94	29759.91
586.10	29722.46
586.26	30209.29
586.42	30101.63
586.58	29996.31
586.74	29876.94
586.90	29830.13
587.06	29773.95
587.22	29839.49
587.38	29516.50
587.54	29862.90
587.70	30286.53
587.86	29998.65
588.02	30005.67
588.18	30609.53
588.34	30206.95
588.49	29802.04
588.65	29591.39
588.81	29972.90
588.97	29961.20
589.13	29841.83
589.29	30068.86
589.45	29668.63
589.61	30094.61
589.77	30441.01
589.93	30146.10
590.08	30096.95
590.24	30132.06
590.40	30258.45
590.56	30384.83
590.72	30036.09
590.88	29832.47
591.04	30071.20
591.20	29949.50
591.35	30270.15
591.51	31021.46
591.67	30242.06
591.83	30352.07
591.99	30354.41
