SpectraSuite Data File
++++++++++++++++++++++++++++++++++++
Date: Fri Oct 18 13:58:42 GMT-05:00 2013
User: bianchi
Dark Spectrum Present: No
Reference Spectrum Present: No
Number of Sampled Component Spectra: 1
Spectrometers: USB2+H05261
Integration Time (usec): 50000 (USB2+H05261)
Spectra Averaged: 1 (USB2+H05261)
Boxcar Smoothing: 0 (USB2+H05261)
Correct for Electrical Dark: No (USB2+H05261)
Strobe/Lamp Enabled: No (USB2+H05261)
Correct for Detector Non-linearity: No (USB2+H05261)
Correct for Stray Light: No (USB2+H05261)
Number of Pixels in Processed Spectrum: 2048
>>>>>Begin Processed Spectral Data<<<<<
365.73	0.00
365.92	0.00
366.12	0.00
366.32	0.00
366.52	0.00
366.72	0.00
366.91	0.00
367.11	0.00
367.31	0.00
367.51	0.00
367.70	0.00
367.90	0.00
368.10	0.00
368.30	0.00
368.49	0.00
368.69	0.00
368.89	0.00
369.09	0.00
369.28	0.00
369.48	0.00
369.68	0.00
369.87	0.00
370.07	0.00
370.27	0.00
370.47	0.00
370.66	42.13
370.86	121.71
371.06	102.98
371.25	163.84
371.45	149.79
371.65	102.98
371.84	156.82
372.04	133.41
372.24	194.26
372.44	142.77
372.63	187.24
372.83	231.71
373.03	201.29
373.22	243.42
373.42	215.33
373.62	152.13
373.81	196.60
374.01	215.33
374.21	191.92
374.40	262.14
374.60	236.39
374.79	203.63
374.99	234.05
375.19	191.92
375.38	210.65
375.58	290.23
375.78	220.01
375.97	290.23
376.17	297.25
376.37	299.59
376.56	318.31
376.76	227.03
376.95	248.10
377.15	252.78
377.35	280.86
377.54	250.44
377.74	259.80
377.93	283.20
378.13	348.74
378.33	262.14
378.52	248.10
378.72	334.70
378.91	194.26
379.11	360.44
379.31	248.10
379.50	224.69
379.70	196.60
379.89	325.33
380.09	379.17
380.28	311.29
380.48	243.42
380.68	294.91
380.87	273.84
381.07	301.93
381.26	374.49
381.46	379.17
381.65	383.85
381.85	330.02
382.04	297.25
382.24	285.55
382.43	283.20
382.63	346.40
382.83	344.06
383.02	273.84
383.22	318.31
383.41	339.38
383.61	379.17
383.80	376.83
384.00	311.29
384.19	313.63
384.39	393.21
384.58	374.49
384.78	390.87
384.97	456.40
385.17	461.09
385.36	383.85
385.56	400.23
385.75	388.53
385.95	423.64
386.14	322.99
386.34	397.89
386.53	437.68
386.72	358.10
386.92	465.77
387.11	428.32
387.31	409.59
387.50	322.99
387.70	498.53
387.89	414.27
388.09	449.38
388.28	421.30
388.48	491.51
388.67	521.94
388.86	369.80
389.06	444.70
389.25	507.90
389.45	468.11
389.64	433.00
389.84	449.38
390.03	470.45
390.22	451.72
390.42	468.11
390.61	400.23
390.81	507.90
391.00	444.70
391.19	535.98
391.39	547.69
391.58	461.09
391.78	491.51
391.97	475.13
392.16	500.87
392.36	512.58
392.55	519.60
392.75	519.60
392.94	552.37
393.13	634.29
393.33	564.07
393.52	489.17
393.71	643.65
393.91	601.52
394.10	599.18
394.29	608.54
394.49	631.94
394.68	582.79
394.88	594.50
395.07	580.45
395.26	655.35
395.46	608.54
395.65	662.37
395.84	552.37
396.04	613.22
396.23	638.97
396.42	641.31
396.62	645.99
396.81	617.90
397.00	657.69
397.19	674.07
397.39	660.03
397.58	617.90
397.77	648.33
397.97	739.61
398.16	709.18
398.35	660.03
398.55	716.20
398.74	667.05
398.93	685.78
399.12	676.41
399.32	667.05
399.51	674.07
399.70	866.00
399.90	760.67
400.09	713.86
400.28	793.44
400.47	741.95
400.67	877.70
400.86	753.65
401.05	741.95
401.24	837.91
401.44	767.70
401.63	826.21
401.82	842.59
402.01	716.20
402.21	823.87
402.40	851.96
402.59	772.38
402.78	760.67
402.97	835.57
403.17	875.36
403.36	889.40
403.55	898.77
403.74	774.72
403.93	887.06
404.13	833.23
404.32	919.83
404.51	896.43
404.70	854.30
404.89	931.53
405.09	1004.09
405.28	938.55
405.47	971.32
405.66	973.66
405.85	959.62
406.05	952.60
406.24	978.34
406.43	896.43
406.62	1053.24
406.81	966.64
407.00	980.68
407.20	959.62
407.39	997.07
407.58	1104.73
407.77	1015.79
407.96	1097.71
408.15	1025.15
408.34	1076.65
408.54	1181.97
408.73	1086.01
408.92	1048.56
409.11	1064.94
409.30	1067.28
409.49	1067.28
409.68	1097.71
409.87	1128.14
410.07	1128.14
410.26	1158.57
410.45	1163.25
410.64	1196.01
410.83	1240.48
411.02	1266.23
411.21	1270.91
411.40	1228.78
411.59	1252.19
411.78	1233.46
411.98	1247.51
412.17	1226.44
412.36	1366.87
412.55	1294.32
412.74	1296.66
412.93	1369.21
413.12	1306.02
413.31	1385.60
413.50	1387.94
413.69	1343.47
413.88	1502.62
414.07	1406.66
414.26	1514.33
414.45	1397.30
414.64	1376.24
414.83	1404.32
415.02	1535.39
415.22	1490.92
415.41	1519.01
415.60	1451.13
415.79	1614.97
415.98	1596.25
416.17	1593.90
416.36	1687.53
416.55	1643.06
416.74	1554.12
416.93	1657.10
417.12	1696.89
417.31	1593.90
417.50	1577.52
417.69	1722.63
417.88	1727.32
418.07	1813.92
418.26	1703.91
418.45	1659.44
418.64	1788.17
418.83	1827.96
419.02	1757.74
419.21	1748.38
419.39	1717.95
419.58	1764.76
419.77	1757.74
419.96	1788.17
420.15	1895.83
420.34	1907.54
420.53	1804.55
420.72	1778.81
420.91	1877.11
421.10	1989.46
421.29	1940.30
421.48	1898.17
421.67	1975.41
421.86	1900.52
422.05	2008.18
422.24	1940.30
422.43	1952.01
422.61	1947.33
422.80	2064.35
422.99	2017.54
423.18	1916.90
423.37	1980.09
423.56	2059.67
423.75	2005.84
423.94	2031.58
424.13	1825.62
424.32	1802.21
424.50	1891.15
424.69	2057.33
424.88	2029.24
425.07	2022.22
425.26	1961.37
425.45	1954.35
425.64	2062.01
425.83	2040.95
426.01	2045.63
426.20	2047.97
426.39	2139.25
426.58	2134.57
426.77	1977.75
426.96	2085.42
427.15	2015.20
427.33	1991.80
427.52	2057.33
427.71	2136.91
427.90	2162.66
428.09	2202.44
428.28	2115.84
428.46	2172.02
428.65	2265.64
428.84	2165.00
429.03	2190.74
429.22	2190.74
429.40	2181.38
429.59	2286.70
429.78	2155.63
429.97	2071.37
430.16	2146.27
430.34	2307.77
430.53	2370.96
430.72	2244.57
430.91	2354.58
431.10	2282.02
431.28	2410.75
431.47	2382.67
431.66	2377.98
431.85	2396.71
432.03	2422.45
432.22	2359.26
432.41	2464.58
432.60	2392.03
432.79	2385.01
432.97	2359.26
433.16	2462.24
433.35	2532.46
433.54	2403.73
433.72	2527.78
433.91	2406.07
434.10	2436.50
434.28	2565.23
434.47	2452.88
434.66	2537.14
434.85	2551.18
435.03	2679.91
435.22	2593.31
435.41	2546.50
435.59	2544.16
435.78	2593.31
435.97	2757.15
436.16	2675.23
436.34	2562.89
436.53	2654.17
436.72	2731.41
436.90	2733.75
437.09	2705.66
437.28	2656.51
437.46	2736.09
437.65	2736.09
437.84	2864.82
438.02	2731.41
438.21	2780.56
438.40	2698.64
438.58	2860.13
438.77	2867.16
438.96	2759.49
439.14	2871.84
439.33	2832.05
439.52	2860.13
439.70	3026.31
439.89	3012.27
440.08	2967.80
440.26	2951.42
440.45	2958.44
440.63	3084.83
440.82	3082.49
441.01	3096.53
441.19	3255.69
441.38	3262.71
441.57	3150.36
441.75	3265.05
441.94	3232.28
442.12	3365.69
442.31	3368.03
442.50	3272.07
442.68	3393.78
442.87	3363.35
443.05	3251.00
443.24	3281.43
443.43	3325.90
443.61	3555.27
443.80	3396.12
443.98	3384.41
444.17	3297.81
444.35	3492.08
444.54	3552.93
444.73	3330.58
444.91	3363.35
445.10	3353.99
445.28	3218.24
445.47	3456.97
445.65	3379.73
445.84	3499.10
446.02	3480.38
446.21	3412.50
446.39	3590.38
446.58	3417.18
446.77	3478.04
446.95	3492.08
447.14	3379.73
447.32	3452.29
447.51	3302.50
447.69	3398.46
447.88	3520.17
448.06	3578.68
448.25	3440.59
448.43	3445.27
448.62	3433.57
448.80	3536.55
448.99	3566.98
449.17	3599.74
449.36	3438.25
449.54	3641.87
449.73	3655.92
449.91	3843.16
450.10	3574.00
450.28	3763.58
450.46	3833.80
450.65	3719.11
450.83	3726.13
451.02	3756.56
451.20	3744.86
451.39	3833.80
451.57	3777.62
451.76	3740.18
451.94	3892.31
452.13	3852.52
452.31	3747.20
452.49	3712.09
452.68	3831.46
452.86	3712.09
453.05	3927.42
453.23	3763.58
453.42	3852.52
453.60	3857.20
453.78	3934.44
453.97	3805.71
454.15	3836.14
454.34	3829.12
454.52	4147.43
454.70	3969.55
454.89	3983.59
455.07	3995.29
455.26	4070.19
455.44	4109.98
455.62	4016.36
455.81	4086.58
455.99	4124.02
456.17	4086.58
456.36	4159.13
456.54	4395.53
456.73	4189.56
456.91	4306.59
457.09	4301.90
457.28	4353.40
457.46	4294.88
457.64	4248.07
457.83	4320.63
458.01	4255.09
458.19	4557.02
458.38	4369.78
458.56	4442.34
458.74	4273.82
458.93	4528.94
459.11	4351.06
459.29	4503.19
459.48	4402.55
459.66	4416.59
459.84	4334.67
460.03	4753.63
460.21	4613.20
460.39	4500.85
460.57	4533.62
460.76	4636.60
460.94	4641.28
461.12	4486.81
461.31	4650.64
461.49	4594.47
461.67	4582.77
461.85	4671.71
462.04	4564.04
462.22	4697.46
462.40	4713.84
462.59	4758.31
462.77	4730.22
462.95	4861.29
463.13	4784.06
463.32	4723.20
463.50	4798.10
463.68	4875.34
463.86	4746.61
464.05	4887.04
464.23	4856.61
464.41	4980.66
464.59	4737.24
464.78	4865.97
464.96	4910.44
465.14	4685.75
465.32	4875.34
465.50	5027.47
465.69	4922.15
465.87	4891.72
466.05	4950.23
466.23	4978.32
466.41	4851.93
466.60	5205.35
466.78	4952.57
466.96	5107.05
467.14	5011.09
467.32	5064.92
467.51	5167.90
467.69	4912.78
467.87	5163.22
468.05	5181.95
468.23	5100.03
468.41	5121.09
468.60	5088.32
468.78	5156.20
468.96	5207.69
469.14	5305.99
469.32	5282.59
469.50	5298.97
469.69	5404.30
469.87	5305.99
470.05	5233.44
470.23	5453.45
470.41	5261.52
470.59	5455.79
470.77	5455.79
470.95	5399.62
471.14	5493.24
471.32	5350.46
471.50	5530.69
471.68	5551.75
471.86	5626.65
472.04	5645.37
472.22	5706.23
472.40	5474.51
472.58	5738.99
472.77	5678.14
472.95	5678.14
473.13	6003.47
473.31	5703.89
473.49	5923.90
473.67	5818.57
473.85	5776.44
474.03	6022.20
474.21	6153.27
474.39	6069.01
474.57	6160.29
474.75	5942.62
474.93	6303.06
475.12	6054.97
475.30	6085.39
475.48	6150.93
475.66	6225.82
475.84	6279.66
476.02	6162.63
476.20	6399.02
476.38	6338.17
476.56	6551.16
476.74	6443.49
476.92	6516.05
477.10	6359.24
477.28	6719.68
477.46	6707.98
477.64	6567.54
477.82	6935.01
478.00	7000.54
478.18	7192.47
478.36	6803.94
478.54	7164.38
478.72	7145.66
478.90	7054.37
479.08	7187.79
479.26	7236.94
479.44	7349.28
479.62	7258.00
479.80	7332.90
479.98	7239.28
480.16	7449.93
480.34	7543.55
480.52	7470.99
480.70	7660.57
480.88	7492.05
481.06	7679.30
481.24	7793.98
481.41	7627.81
481.59	7908.67
481.77	8100.59
481.95	7955.48
482.13	7960.16
482.31	8098.25
482.49	8226.98
482.67	8177.83
482.85	8236.35
483.03	8540.61
483.21	8477.42
483.39	8489.12
483.57	8582.74
483.74	8599.13
483.92	8725.52
484.10	8554.66
484.28	8856.59
484.46	8947.87
484.64	9181.92
484.82	8975.95
485.00	8898.72
485.18	9270.86
485.35	9390.23
485.53	9298.95
485.71	9305.97
485.89	9575.13
486.07	9467.47
486.25	9643.01
486.43	9577.47
486.61	10136.86
486.78	9872.38
486.96	9767.06
487.14	10108.77
487.32	9954.30
487.50	10047.92
487.68	10064.30
487.85	10448.15
488.03	10441.13
488.21	10539.43
488.39	10443.47
488.57	10738.38
488.75	10698.59
488.92	10960.73
489.10	10925.62
489.28	10881.15
489.46	11044.99
489.64	11159.67
489.81	11318.83
489.99	11470.97
490.17	11094.14
490.35	11417.13
490.53	11417.13
490.70	11632.46
490.88	11653.53
491.06	11517.78
491.24	11548.20
491.41	11662.89
491.59	11728.42
491.77	11730.76
491.95	12023.33
492.13	12222.28
492.30	12308.88
492.48	12163.76
492.66	12287.81
492.84	12432.93
493.01	12400.16
493.19	12624.85
493.37	12837.84
493.54	12491.44
493.72	12636.55
493.90	12636.55
494.08	12842.52
494.25	13022.74
494.43	13102.32
494.61	13170.19
494.79	13331.69
494.96	13488.51
495.14	13488.51
495.32	13453.40
495.49	13259.13
495.67	13741.29
495.85	13678.09
496.02	13816.18
496.20	13785.76
496.38	13987.04
496.55	13816.18
496.73	13991.72
496.91	13870.01
497.09	14146.20
497.26	14258.54
497.44	14075.98
497.62	14438.76
497.79	14225.78
497.97	14230.46
498.14	14651.75
498.32	14761.76
498.50	14579.20
498.67	14860.06
498.85	14759.42
499.03	14937.30
499.20	14806.23
499.38	14953.68
499.56	14965.39
499.73	15236.89
499.91	14904.53
500.08	15293.06
500.26	15094.11
500.44	15110.50
500.61	15428.81
500.79	15674.57
500.97	15506.05
501.14	15782.23
501.32	15683.93
501.49	15838.41
501.67	15744.78
501.84	15939.05
502.02	15807.98
502.20	15871.17
502.37	16360.34
502.55	15892.24
502.72	15962.45
502.90	16072.46
503.07	16042.03
503.25	16287.79
503.43	16292.47
503.60	16074.80
503.78	16320.56
503.95	16620.14
504.13	16652.91
504.30	16695.04
504.48	16695.04
504.65	16716.11
504.83	16915.05
505.01	17076.55
505.18	16950.16
505.36	16905.69
505.53	16826.11
505.71	17025.06
505.88	17121.02
506.06	16847.18
506.23	17202.94
506.41	17006.33
506.58	17373.80
506.76	17390.18
506.93	17322.30
507.11	17233.36
507.28	17467.42
507.46	17310.60
507.63	17605.51
507.81	18085.32
507.98	17324.65
508.16	17565.72
508.33	17439.33
508.50	17617.21
508.68	17958.93
508.85	17792.75
509.03	18075.96
509.20	18204.69
509.38	18408.31
509.55	18307.67
509.73	18120.43
509.90	18431.72
510.08	18314.69
510.25	18216.39
510.42	18562.79
510.60	18831.95
510.77	18544.06
510.95	18759.39
511.12	18384.91
511.30	18499.59
511.47	18572.15
511.64	18700.88
511.82	18642.37
511.99	18712.58
512.17	19047.28
512.34	19066.00
512.51	19005.15
512.69	18735.99
512.86	19262.61
513.04	19356.23
513.21	19026.21
513.38	19381.98
513.56	19300.06
513.73	19183.03
513.90	19510.71
514.08	19342.19
514.25	19824.34
514.43	20086.48
514.60	19587.94
514.77	19679.22
514.95	19824.34
515.12	19601.99
515.29	19744.76
515.47	19894.55
515.64	20245.63
515.81	19871.15
515.99	20042.01
516.16	20262.02
516.33	20201.16
516.51	20290.10
516.68	19927.32
516.85	20308.83
517.03	20168.40
517.20	20269.04
517.37	20573.31
517.54	20517.14
517.72	20397.77
517.89	20592.03
518.06	20402.45
518.24	20400.11
518.41	20266.70
518.58	20601.40
518.75	20622.46
518.93	20690.34
519.10	20865.88
519.27	20940.77
519.45	20683.31
519.62	21310.58
519.79	20908.01
519.96	20868.22
520.14	21291.85
520.31	20912.69
520.48	21050.78
520.65	21083.55
520.83	21455.69
521.00	21532.93
521.17	21266.11
521.34	21315.26
521.52	21593.78
521.69	21376.11
521.86	21628.89
522.03	21472.07
522.20	21680.38
522.38	21832.52
522.55	21858.26
522.72	21893.37
522.89	21640.59
523.07	21846.56
523.24	21867.63
523.41	21986.99
523.58	21855.92
523.75	21891.03
523.92	22302.96
524.10	21919.12
524.27	22153.17
524.44	22429.35
524.61	22230.41
524.78	22494.89
524.96	22345.09
525.13	22565.10
525.30	22333.39
525.47	22583.83
525.64	22817.88
525.81	22539.36
525.98	22637.66
526.16	22857.67
526.33	23147.90
526.50	23077.68
526.67	22764.05
526.84	22775.75
527.01	22752.35
527.18	22618.94
527.36	23056.62
527.53	23351.52
527.70	23412.38
527.87	23239.18
528.04	23159.60
528.21	23117.47
528.38	22888.10
528.55	23075.34
528.72	23171.30
528.89	23035.55
529.07	23040.23
529.24	23278.97
529.41	23573.88
529.58	23342.16
529.75	23632.39
529.92	23716.65
530.09	23374.93
530.26	23494.30
530.43	23651.11
530.60	23653.45
530.77	23634.73
530.94	23616.01
531.11	23330.46
531.28	23756.44
531.46	23583.24
531.63	23676.86
531.80	23990.49
531.97	23967.09
532.14	24236.25
532.31	24100.50
532.48	24240.93
532.65	24208.16
532.82	23833.68
532.99	24154.33
533.16	24006.87
533.33	24257.31
533.50	24205.82
533.67	24269.01
533.84	24006.87
534.01	24203.48
534.18	24306.46
534.35	24437.53
534.52	24327.53
534.69	24432.85
534.86	24917.34
535.03	24807.34
535.20	24769.89
535.37	24812.02
535.54	24702.01
535.71	24383.70
535.88	24437.53
536.05	24428.17
536.22	24704.35
536.38	24812.02
536.55	25076.50
536.72	24975.86
536.89	24790.95
537.06	25130.33
537.23	24891.60
537.40	25067.14
537.57	24924.36
537.74	25046.07
537.91	24833.08
538.08	25429.92
538.25	24620.10
538.42	25010.96
538.59	25249.70
538.75	25130.33
538.92	25090.54
539.09	25455.67
539.26	25614.82
539.43	25338.64
539.60	25497.80
539.77	25532.90
539.94	25589.08
540.11	25458.01
540.28	25556.31
540.44	25488.43
540.61	25434.60
540.78	25369.07
540.95	25450.99
541.12	25362.04
541.29	25415.88
541.46	25891.01
541.62	25928.45
541.79	25434.60
541.96	25521.20
542.13	25699.08
542.30	25783.34
542.47	26082.93
542.63	25769.30
542.80	26129.74
542.97	26003.35
543.14	26445.71
543.31	26143.78
543.48	26396.56
543.64	26153.15
543.81	26209.32
543.98	26363.79
544.15	26380.18
544.32	26581.46
544.48	26522.95
544.65	26347.41
544.82	26513.59
544.99	26302.94
545.16	26387.20
545.32	26398.90
545.49	26548.70
545.66	26635.30
545.83	26876.37
546.00	26789.77
546.16	26574.44
546.33	26705.51
546.50	26469.12
546.67	26806.16
546.83	26405.92
547.00	26609.55
547.17	26775.73
547.34	27335.12
547.50	26911.48
547.67	27080.00
547.84	26703.17
548.00	27091.70
548.17	27051.91
548.34	26953.61
548.51	26911.48
548.67	26951.27
548.84	27323.41
549.01	27206.39
549.18	26817.86
549.34	27063.61
549.51	27101.06
549.68	27145.53
549.84	27300.01
550.01	27126.81
550.18	26876.37
550.34	27475.55
550.51	27536.40
550.68	27484.91
550.84	27075.32
551.01	27349.16
551.18	27175.96
551.34	27475.55
551.51	27515.34
551.68	27674.49
551.84	27597.26
552.01	27321.07
552.18	27819.61
552.34	27309.37
552.51	27484.91
552.68	27735.35
552.84	27543.42
553.01	27737.69
553.18	27697.90
553.34	27515.34
553.51	27751.73
553.67	28191.75
553.84	28016.21
554.01	27686.20
554.17	28105.15
554.34	27798.54
554.51	27690.88
554.67	27871.10
554.84	28041.96
555.00	27859.40
555.17	28011.53
555.33	27889.82
555.50	28168.35
555.67	28011.53
555.83	27754.07
556.00	27953.02
556.16	28460.91
556.33	27985.79
556.50	27950.68
556.66	28552.20
556.83	28126.22
556.99	28517.09
557.16	28411.76
557.32	28746.46
557.49	28606.03
557.65	28016.21
557.82	28486.66
557.98	27913.23
558.15	28273.67
558.32	28350.91
558.48	28460.91
558.65	28830.72
558.81	28589.64
558.98	28477.30
559.14	28322.82
559.31	28650.50
559.47	28617.73
559.64	28233.88
559.80	28367.29
559.97	28767.52
560.13	28355.59
560.30	28587.30
560.46	28800.29
560.63	28496.02
560.79	28776.89
560.96	28535.81
561.12	28517.09
561.29	27931.95
561.45	28713.69
561.61	28875.19
561.78	28758.16
561.94	29078.82
562.11	28697.31
562.27	28802.63
562.44	29076.48
562.60	28706.67
562.77	28804.97
562.93	28716.03
563.10	29153.71
563.26	28922.00
563.42	29062.43
563.59	28931.36
563.75	29083.50
563.92	28914.98
564.08	28783.91
564.24	28641.14
564.41	28989.88
564.57	29153.71
564.74	28788.59
564.90	29001.58
565.07	29287.12
565.23	28627.09
565.39	29008.60
565.56	28814.34
565.72	29085.84
565.88	29067.11
566.05	28830.72
566.21	29043.71
566.38	29015.62
566.54	29081.16
566.70	29504.79
566.87	29558.63
567.03	28975.83
567.19	29057.75
567.36	29284.78
567.52	29521.18
567.68	29078.82
567.85	29099.88
568.01	29404.15
568.17	29186.48
568.34	29729.48
568.50	29549.26
568.66	29415.85
568.83	29649.91
568.99	28886.89
569.15	29111.58
569.32	29483.73
569.48	29261.38
569.64	29310.53
569.81	29216.91
569.97	29347.98
570.13	29340.96
570.30	28870.51
570.46	29535.22
570.62	29350.32
570.78	29532.88
570.95	29226.27
571.11	29476.71
571.27	28996.90
571.43	29312.87
571.60	29621.82
571.76	29397.13
571.92	29448.62
572.09	29500.11
572.25	29577.35
572.41	29317.55
572.57	29376.06
572.74	29560.97
572.90	29043.71
573.06	29387.77
573.22	29619.48
573.38	29324.57
573.55	28924.34
573.71	29661.61
573.87	29570.33
574.03	29539.90
574.20	29537.56
574.36	29596.07
574.52	29387.77
574.68	29567.99
574.84	29460.32
575.01	29247.33
575.17	29563.31
575.33	29670.97
575.49	29656.93
575.65	29685.01
575.82	29411.17
575.98	29626.50
576.14	29853.53
576.30	29579.69
576.46	29453.30
576.62	29528.20
576.79	29188.82
576.95	29324.57
577.11	29722.46
577.27	29823.11
577.43	29937.79
577.59	29645.23
577.75	29422.87
577.92	29713.10
578.08	29493.09
578.24	29425.22
578.40	29795.02
578.56	29752.89
578.72	29949.50
578.88	29844.17
579.04	29912.05
579.21	29460.32
579.37	29682.67
579.53	29603.10
579.69	29493.09
579.85	29776.30
580.01	29565.65
580.17	29350.32
580.33	29244.99
580.49	29701.40
580.65	29914.39
580.82	29539.90
580.98	29788.00
581.14	29949.50
581.30	29511.81
581.46	29504.79
581.62	29968.22
581.78	29373.72
581.94	29645.23
582.10	29563.31
582.26	29713.10
582.42	29902.68
582.58	29867.58
582.74	29509.47
582.90	30132.06
583.06	29818.42
583.22	29991.62
583.38	29961.20
583.54	29493.09
583.70	29788.00
583.86	29731.83
584.02	29654.59
584.18	29799.70
584.34	29820.77
584.50	29617.14
584.66	29652.25
584.82	29317.55
584.98	29902.68
585.14	29621.82
585.30	29516.50
585.46	29750.55
585.62	29855.87
585.78	29635.86
585.94	29727.14
586.10	29912.05
586.26	30052.48
586.42	30087.59
586.58	30089.93
586.74	29404.15
586.90	29710.76
587.06	29223.93
587.22	29872.26
587.38	29869.92
587.54	30024.39
587.70	29982.26
587.86	30155.46
588.02	29752.89
588.18	29991.62
588.34	29837.15
588.49	29886.30
588.65	29867.58
588.81	29806.72
588.97	29661.61
589.13	30150.78
589.29	29689.70
589.45	30012.69
589.61	29935.45
589.77	30366.11
589.93	30244.40
590.08	30368.45
590.24	30031.41
590.40	30300.58
590.56	30405.90
590.72	30118.01
590.88	30000.99
591.04	29841.83
591.20	30134.40
591.35	30164.82
591.51	30380.15
591.67	29610.12
591.83	30260.79
591.99	30153.12
