SpectraSuite Data File
++++++++++++++++++++++++++++++++++++
Date: Fri Oct 18 13:58:20 GMT-05:00 2013
User: bianchi
Dark Spectrum Present: No
Reference Spectrum Present: No
Number of Sampled Component Spectra: 1
Spectrometers: USB2+H05261
Integration Time (usec): 50000 (USB2+H05261)
Spectra Averaged: 1 (USB2+H05261)
Boxcar Smoothing: 0 (USB2+H05261)
Correct for Electrical Dark: No (USB2+H05261)
Strobe/Lamp Enabled: No (USB2+H05261)
Correct for Detector Non-linearity: No (USB2+H05261)
Correct for Stray Light: No (USB2+H05261)
Number of Pixels in Processed Spectrum: 2048
>>>>>Begin Processed Spectral Data<<<<<
365.73	0.00
365.92	0.00
366.12	0.00
366.32	0.00
366.52	0.00
366.72	0.00
366.91	0.00
367.11	0.00
367.31	0.00
367.51	0.00
367.70	0.00
367.90	0.00
368.10	0.00
368.30	0.00
368.49	0.00
368.69	0.00
368.89	0.00
369.09	0.00
369.28	0.00
369.48	0.00
369.68	0.00
369.87	0.00
370.07	0.00
370.27	0.00
370.47	0.00
370.66	63.19
370.86	135.75
371.06	105.32
371.25	168.52
371.45	154.48
371.65	180.22
371.84	121.71
372.04	161.50
372.24	248.10
372.44	187.24
372.63	203.63
372.83	229.37
373.03	203.63
373.22	210.65
373.42	170.86
373.62	227.03
373.81	196.60
374.01	238.73
374.21	177.88
374.40	271.50
374.60	248.10
374.79	210.65
374.99	248.10
375.19	191.92
375.38	198.95
375.58	262.14
375.78	262.14
375.97	236.39
376.17	264.48
376.37	257.46
376.56	294.91
376.76	318.31
376.95	301.93
377.15	285.55
377.35	315.97
377.54	248.10
377.74	315.97
377.93	259.80
378.13	262.14
378.33	339.38
378.52	283.20
378.72	250.44
378.91	285.55
379.11	362.78
379.31	306.61
379.50	257.46
379.70	372.15
379.89	339.38
380.09	238.73
380.28	276.18
380.48	259.80
380.68	330.02
380.87	280.86
381.07	308.95
381.26	369.80
381.46	379.17
381.65	330.02
381.85	339.38
382.04	404.91
382.24	395.55
382.43	367.46
382.63	337.04
382.83	327.68
383.02	341.72
383.22	332.36
383.41	402.57
383.61	346.40
383.80	259.80
384.00	325.33
384.19	400.23
384.39	313.63
384.58	395.55
384.78	374.49
384.97	348.74
385.17	330.02
385.36	355.76
385.56	435.34
385.75	404.91
385.95	388.53
386.14	447.04
386.34	311.29
386.53	407.25
386.72	353.42
386.92	393.21
387.11	440.02
387.31	430.66
387.50	381.51
387.70	456.40
387.89	407.25
388.09	454.06
388.28	428.32
388.48	414.27
388.67	444.70
388.86	454.06
389.06	547.69
389.25	451.72
389.45	472.79
389.64	437.68
389.84	411.93
390.03	526.62
390.22	517.26
390.42	505.56
390.61	479.81
390.81	552.37
391.00	503.22
391.19	507.90
391.39	526.62
391.58	545.34
391.78	533.64
391.97	540.66
392.16	482.15
392.36	540.66
392.55	503.22
392.75	528.96
392.94	456.40
393.13	535.98
393.33	547.69
393.52	491.51
393.71	585.13
393.91	552.37
394.10	561.73
394.29	589.82
394.49	571.09
394.68	585.13
394.88	606.20
395.07	568.75
395.26	617.90
395.46	566.41
395.65	676.41
395.84	601.52
396.04	657.69
396.23	657.69
396.42	798.12
396.62	610.88
396.81	545.34
397.00	634.29
397.19	650.67
397.39	655.35
397.58	702.16
397.77	594.50
397.97	734.93
398.16	617.90
398.35	711.52
398.55	711.52
398.74	758.33
398.93	758.33
399.12	732.59
399.32	725.57
399.51	690.46
399.70	704.50
399.90	763.01
400.09	788.76
400.28	716.20
400.47	858.98
400.67	779.40
400.86	854.30
401.05	774.72
401.24	767.70
401.44	840.25
401.63	821.53
401.82	805.14
402.01	718.54
402.21	823.87
402.40	791.10
402.59	760.67
402.78	814.51
402.97	786.42
403.17	894.08
403.36	891.74
403.55	870.68
403.74	856.64
403.93	858.98
404.13	908.13
404.32	851.96
404.51	933.87
404.70	947.92
404.89	980.68
405.09	957.28
405.28	952.60
405.47	1008.77
405.66	936.21
405.85	992.39
406.05	971.32
406.24	971.32
406.43	990.05
406.62	1011.11
406.81	1071.97
407.00	978.34
407.20	1022.81
407.39	1076.65
407.58	1093.03
407.77	1121.12
407.96	1004.09
408.15	1107.07
408.34	1167.93
408.54	1043.88
408.73	1130.48
408.92	1078.99
409.11	1090.69
409.30	1158.57
409.49	1123.46
409.68	1205.38
409.87	1167.93
410.07	1146.86
410.26	1181.97
410.45	1170.27
410.64	1193.67
410.83	1214.74
411.02	1165.59
411.21	1256.87
411.40	1203.04
411.59	1245.16
411.78	1203.04
411.98	1284.95
412.17	1322.40
412.36	1221.76
412.55	1270.91
412.74	1310.70
412.93	1329.42
413.12	1406.66
413.31	1493.26
413.50	1446.45
413.69	1432.41
413.88	1514.33
414.07	1472.20
414.26	1535.39
414.45	1430.07
414.64	1465.18
414.83	1509.65
415.02	1528.37
415.22	1554.12
415.41	1572.84
415.60	1486.24
415.79	1521.35
415.98	1558.80
416.17	1645.40
416.36	1558.80
416.55	1584.54
416.74	1661.78
416.93	1547.09
417.12	1626.67
417.31	1732.00
417.50	1757.74
417.69	1701.57
417.88	1720.29
418.07	1764.76
418.26	1804.55
418.45	1783.49
418.64	1877.11
418.83	1816.26
419.02	1912.22
419.21	1795.19
419.39	1802.21
419.58	1811.57
419.77	1884.13
419.96	1952.01
420.15	1909.88
420.34	1937.96
420.53	1888.81
420.72	1907.54
420.91	1874.77
421.10	1912.22
421.29	2005.84
421.48	2038.61
421.67	2024.56
421.86	1989.46
422.05	1928.60
422.24	2031.58
422.43	1909.88
422.61	2047.97
422.80	2122.87
422.99	2078.40
423.18	2001.16
423.37	1937.96
423.56	2017.54
423.75	2012.86
423.94	1930.94
424.13	1802.21
424.32	1865.41
424.50	2012.86
424.69	2031.58
424.88	2087.76
425.07	2036.27
425.26	2010.52
425.45	2036.27
425.64	2071.37
425.83	2024.56
426.01	2059.67
426.20	2031.58
426.39	2001.16
426.58	2038.61
426.77	2118.18
426.96	2169.68
427.15	2122.87
427.33	2113.50
427.52	2256.28
427.71	2256.28
427.90	2235.21
428.09	2200.10
428.28	2165.00
428.46	2275.00
428.65	2193.08
428.84	2237.55
429.03	2272.66
429.22	2218.83
429.40	2286.70
429.59	2373.30
429.78	2200.10
429.97	2223.51
430.16	2209.47
430.34	2251.60
430.53	2375.64
430.72	2363.94
430.91	2307.77
431.10	2246.91
431.28	2286.70
431.47	2558.21
431.66	2382.67
431.85	2340.54
432.03	2415.43
432.22	2331.17
432.41	2403.73
432.60	2429.48
432.79	2466.92
432.97	2485.65
433.16	2478.63
433.35	2534.80
433.54	2518.42
433.72	2605.02
433.91	2504.37
434.10	2602.68
434.28	2628.42
434.47	2637.78
434.66	2539.48
434.85	2579.27
435.03	2574.59
435.22	2539.48
435.41	2642.46
435.59	2642.46
435.78	2516.08
435.97	2672.89
436.16	2630.76
436.34	2686.94
436.53	2595.65
436.72	2764.17
436.90	2691.62
437.09	2670.55
437.28	2700.98
437.46	2696.30
437.65	2736.09
437.84	2885.88
438.02	2640.12
438.21	2862.48
438.40	2743.11
438.58	2857.79
438.77	2874.18
438.96	2906.95
439.14	2843.75
439.33	2974.82
439.52	2967.80
439.70	2988.86
439.89	3073.12
440.08	3136.32
440.26	3141.00
440.45	2951.42
440.63	3133.98
440.82	3105.89
441.01	3098.87
441.19	3122.27
441.38	3185.47
441.57	3227.60
441.75	3236.96
441.94	3260.37
442.12	3243.98
442.31	3398.46
442.50	3274.41
442.68	3351.65
442.87	3300.16
443.05	3379.73
443.24	3389.10
443.43	3241.64
443.61	3496.76
443.80	3513.14
443.98	3309.52
444.17	3236.96
444.35	3442.93
444.54	3424.20
444.73	3520.17
444.91	3445.27
445.10	3461.65
445.28	3459.31
445.47	3466.33
445.65	3449.95
445.84	3452.29
446.02	3529.53
446.21	3496.76
446.39	3475.70
446.58	3552.93
446.77	3480.38
446.95	3461.65
447.14	3611.45
447.32	3548.25
447.51	3545.91
447.69	3576.34
447.88	3548.25
448.06	3566.98
448.25	3637.19
448.43	3557.61
448.62	3456.97
448.80	3595.06
448.99	3660.60
449.17	3630.17
449.36	3552.93
449.54	3662.94
449.73	3651.24
449.91	3789.33
450.10	3674.64
450.28	3749.54
450.46	3623.15
450.65	3597.40
450.83	3875.93
451.02	3772.94
451.20	3878.27
451.39	3882.95
451.57	3887.63
451.76	3850.18
451.94	3733.15
452.13	3887.63
452.31	3971.89
452.49	3702.73
452.68	3915.72
452.86	3789.33
453.05	3864.22
453.23	3906.35
453.42	3995.29
453.60	3901.67
453.78	3880.61
453.97	3911.04
454.15	3936.78
454.34	3817.41
454.52	4016.36
454.70	3934.44
454.89	3962.53
455.07	4189.56
455.26	4109.98
455.44	4208.28
455.62	4021.04
455.81	4030.40
455.99	4088.92
456.17	4285.52
456.36	4269.14
456.54	4100.62
456.73	4189.56
456.91	4355.74
457.09	4212.96
457.28	4440.00
457.46	4292.54
457.64	4486.81
457.83	4416.59
458.01	4381.48
458.19	4526.60
458.38	4489.15
458.56	4383.82
458.74	4528.94
458.93	4386.16
459.11	4428.29
459.29	4538.30
459.48	4397.87
459.66	4505.53
459.84	4449.36
460.03	4613.20
460.21	4517.23
460.39	4540.64
460.57	4634.26
460.76	4535.96
460.94	4762.99
461.12	4568.73
461.31	4667.03
461.49	4559.36
461.67	4603.83
461.85	4734.90
462.04	4683.41
462.22	5104.71
462.40	4922.15
462.59	4889.38
462.77	4685.75
462.95	4896.40
463.13	4802.78
463.32	4847.25
463.50	4774.69
463.68	4798.10
463.86	4638.94
464.05	4793.42
464.23	5018.11
464.41	4896.40
464.59	4865.97
464.78	4992.36
464.96	4959.60
465.14	4933.85
465.32	5177.26
465.50	5233.44
465.69	5043.85
465.87	5004.07
466.05	4994.70
466.23	5004.07
466.41	5055.56
466.60	5221.74
466.78	5095.35
466.96	5078.96
467.14	5085.98
467.32	5149.18
467.51	5132.79
467.69	5001.72
467.87	5226.42
468.05	5172.58
468.23	5217.05
468.41	5046.20
468.60	5242.80
468.78	5233.44
468.96	5160.88
469.14	5228.76
469.32	5273.23
469.50	5200.67
469.69	5287.27
469.87	5518.98
470.05	5472.17
470.23	5437.06
470.41	5380.89
470.59	5404.30
470.77	5504.94
470.95	5617.29
471.14	5472.17
471.32	5500.26
471.50	5671.12
471.68	5579.84
471.86	5717.93
472.04	5682.82
472.22	5778.78
472.40	5425.36
472.58	5753.04
472.77	5806.87
472.95	5666.44
473.13	6031.56
473.31	5944.96
473.49	5699.20
473.67	5954.32
473.85	5900.49
474.03	5856.02
474.21	6015.18
474.39	6129.86
474.57	6094.76
474.75	6090.07
474.93	6324.13
475.12	6284.34
475.30	6197.74
475.48	6328.81
475.66	6464.56
475.84	6270.30
476.02	6420.09
476.20	6335.83
476.38	6494.99
476.56	6597.97
476.74	6518.39
476.92	6616.69
477.10	6565.20
477.28	6906.92
477.46	6691.59
477.64	6590.95
477.82	6689.25
478.00	7042.67
478.18	7033.31
478.36	7136.29
478.54	7169.06
478.72	6965.43
478.90	7077.78
479.08	7265.02
479.26	7382.05
479.44	7414.82
479.62	7286.09
479.80	7468.65
479.98	7405.46
480.16	7906.33
480.34	7454.61
480.52	7751.85
480.70	7719.09
480.88	7620.78
481.06	7733.13
481.24	7798.66
481.41	7894.63
481.59	7885.26
481.77	8119.32
481.95	7978.89
482.13	8109.96
482.31	8109.96
482.49	8449.33
482.67	8360.39
482.85	8442.31
483.03	8454.02
483.21	8592.11
483.39	8685.73
483.57	8547.64
483.74	8767.65
483.92	8765.31
484.10	8858.93
484.28	8819.14
484.46	8929.14
484.64	9146.81
484.82	9149.15
485.00	9256.82
485.18	9256.82
485.35	9476.83
485.53	9437.04
485.71	9638.33
485.89	9542.36
486.07	9617.26
486.25	9813.87
486.43	9490.87
486.61	9701.52
486.78	10153.24
486.96	9816.21
487.14	10106.43
487.32	10178.99
487.50	10167.29
487.68	10399.00
487.85	10457.51
488.03	10354.53
488.21	10410.70
488.39	10548.79
488.57	10764.12
488.75	10707.95
488.92	10977.11
489.10	11152.65
489.28	10878.81
489.46	11101.16
489.64	11103.50
489.81	11295.43
489.99	11105.84
490.17	11527.14
490.35	11644.17
490.53	11550.54
490.70	11658.21
490.88	11686.29
491.06	11915.67
491.24	11857.15
491.41	11925.03
491.59	12044.40
491.77	11974.18
491.95	12098.23
492.13	12145.04
492.30	12177.81
492.48	12280.79
492.66	12463.35
492.84	12645.91
493.01	12592.08
493.19	12643.57
493.37	12718.47
493.54	12847.20
493.72	12858.90
493.90	12849.54
494.08	12938.48
494.25	12971.25
494.43	13280.20
494.61	13514.25
494.79	13437.02
494.96	13385.52
495.14	13350.42
495.32	13675.75
495.49	13715.54
495.67	13923.85
495.85	13907.46
496.02	14169.60
496.20	14012.79
496.38	13898.10
496.55	13980.02
496.73	14239.82
496.91	14338.12
497.09	14256.20
497.26	14293.65
497.44	14462.17
497.62	14583.88
497.79	14796.87
497.97	14668.14
498.14	14806.23
498.32	15030.92
498.50	14883.47
498.67	15150.29
498.85	15051.99
499.03	15138.58
499.20	15068.37
499.38	15466.26
499.56	15239.23
499.73	15239.23
499.91	15374.98
500.08	15768.19
500.26	15211.14
500.44	15351.57
500.61	15555.20
500.79	15541.16
500.97	15683.93
501.14	15992.88
501.32	15936.71
501.49	16180.12
501.67	16011.60
501.84	15709.68
502.02	15960.11
502.20	16194.17
502.37	16119.27
502.55	16081.82
502.72	16201.19
502.90	16449.28
503.07	16196.51
503.25	16252.68
503.43	16430.56
503.60	16339.28
503.78	16409.50
503.95	16610.78
504.13	16695.04
504.30	16720.79
504.48	16905.69
504.65	16915.05
504.83	16922.07
505.01	17462.74
505.18	17029.74
505.36	17394.86
505.53	16985.27
505.71	17224.00
505.88	17116.34
506.06	17434.65
506.23	17453.37
506.41	17291.88
506.58	17493.16
506.76	17591.47
506.93	17448.69
507.11	17275.49
507.28	17572.74
507.46	17701.47
507.63	17795.09
507.81	18162.56
507.98	17734.24
508.16	17792.75
508.33	17699.13
508.50	17968.29
508.68	18195.32
508.85	18235.11
509.03	18033.83
509.20	18324.05
509.38	18499.59
509.55	18317.03
509.73	18384.91
509.90	18712.58
510.08	18656.41
510.25	18560.45
510.42	18665.77
510.60	18443.42
510.77	18759.39
510.95	19037.92
511.12	18867.06
511.30	18642.37
511.47	18850.67
511.64	19112.81
511.82	19098.77
511.99	18780.46
512.17	19131.54
512.34	19356.23
512.51	19325.80
512.69	19503.68
512.86	19143.24
513.04	19604.33
513.21	19559.86
513.38	19475.60
513.56	19761.14
513.73	19616.03
513.90	19466.24
514.08	19403.04
514.25	19700.29
514.43	20255.00
514.60	19805.61
514.77	19976.47
514.95	20152.01
515.12	19704.97
515.29	20116.90
515.47	20034.99
515.64	20203.50
515.81	20187.12
515.99	20369.68
516.16	20627.14
516.33	20566.29
516.51	20285.42
516.68	20210.53
516.85	20203.50
517.03	20606.08
517.20	20716.08
517.37	20678.63
517.54	20596.71
517.72	20830.77
517.89	20814.38
518.06	20732.47
518.24	21022.69
518.41	20772.25
518.58	21191.21
518.75	21085.89
518.93	20959.50
519.10	21029.71
519.27	21249.72
519.45	21043.76
519.62	21284.83
519.79	21137.38
519.96	21219.30
520.14	21476.76
520.31	21277.81
520.48	21458.03
520.65	21221.64
520.83	21701.45
521.00	21748.26
521.17	21649.96
521.34	21514.20
521.52	21568.04
521.69	21776.34
521.86	21834.86
522.03	22003.38
522.20	22148.49
522.38	22015.08
522.55	22127.42
522.72	21954.22
522.89	22256.15
523.07	22183.60
523.24	22251.47
523.41	22485.53
523.58	21947.20
523.75	22228.07
523.92	22031.46
524.10	22473.82
524.27	22256.15
524.44	22932.57
524.61	22808.52
524.78	22672.77
524.96	22616.60
525.13	22824.90
525.30	22522.98
525.47	23077.68
525.64	22738.30
525.81	22918.53
525.98	23161.94
526.16	23185.35
526.33	22834.27
526.50	23150.24
526.67	23023.85
526.84	22881.08
527.01	22764.05
527.18	22916.19
527.36	23386.63
527.53	23225.14
527.70	23651.11
527.87	23555.15
528.04	23433.44
528.21	23063.64
528.38	23475.57
528.55	23756.44
528.72	23524.72
528.89	23571.54
529.07	23730.69
529.24	23550.47
529.41	23761.12
529.58	23625.37
529.75	23468.55
529.92	23522.38
530.09	23688.56
530.26	23934.32
530.43	23920.28
530.60	23747.08
530.77	23992.83
530.94	24093.47
531.11	24009.22
531.28	24058.37
531.46	24013.90
531.63	24079.43
531.80	24271.36
531.97	24203.48
532.14	24430.51
532.31	24397.74
532.48	24205.82
532.65	24439.87
532.82	24196.46
532.99	24341.57
533.16	24580.31
533.33	24320.51
533.50	24512.43
533.67	24474.98
533.84	24266.67
534.01	24269.01
534.18	24535.84
534.35	24844.79
534.52	24713.72
534.69	24805.00
534.86	24856.49
535.03	24758.19
535.20	24854.15
535.37	24840.11
535.54	25167.78
535.71	24907.98
535.88	24826.06
536.05	24781.59
536.22	24943.09
536.38	25130.33
536.55	25193.53
536.72	25261.40
536.89	25025.01
537.06	24968.84
537.23	25095.22
537.40	25057.78
537.57	25198.21
537.74	25373.75
537.91	25333.96
538.08	25699.08
538.25	25263.74
538.42	25387.79
538.59	25570.35
538.75	25149.06
538.92	25530.56
539.09	25720.15
539.26	25483.75
539.43	25497.80
539.60	25853.56
539.77	25633.55
539.94	25914.41
540.11	25710.78
540.28	25736.53
540.44	25516.52
540.61	25528.22
540.78	25921.43
540.95	25839.51
541.12	25993.99
541.29	25855.90
541.46	25811.43
541.62	26160.17
541.79	25841.85
541.96	25912.07
542.13	26085.27
542.30	25853.56
542.47	26108.68
542.63	26085.27
542.80	26637.64
542.97	26368.48
543.14	26668.06
543.31	26146.12
543.48	26836.58
543.64	26602.53
543.81	27084.68
543.98	26492.52
544.15	26618.91
544.32	26951.27
544.48	26890.41
544.65	26422.31
544.82	26572.10
544.99	26176.55
545.16	26855.31
545.32	26618.91
545.49	26677.43
545.66	27288.31
545.83	26977.01
546.00	27278.94
546.16	27026.17
546.33	26761.69
546.50	26366.13
546.67	27061.27
546.83	26855.31
547.00	26991.06
547.17	27199.37
547.34	26995.74
547.50	26934.88
547.67	27321.07
547.84	27145.53
548.00	27672.15
548.17	27365.54
548.34	26977.01
548.51	27304.69
548.67	27428.74
548.84	27578.53
549.01	27234.47
549.18	27524.70
549.34	27330.44
549.51	27253.20
549.68	27459.16
549.84	27510.66
550.01	27590.24
550.18	27449.80
550.34	27915.57
550.51	27587.89
550.68	27704.92
550.84	27431.08
551.01	27711.94
551.18	27718.96
551.34	27529.38
551.51	27651.09
551.68	27679.18
551.84	27662.79
552.01	28056.00
552.18	28201.11
552.34	27550.45
552.51	27967.06
552.68	28025.57
552.84	28346.23
553.01	28020.89
553.18	28205.80
553.34	28180.05
553.51	28130.90
553.67	28081.75
553.84	28634.11
554.01	28215.16
554.17	28098.13
554.34	28313.46
554.51	28306.44
554.67	28336.87
554.84	27955.36
555.00	28486.66
555.17	28067.70
555.33	28266.65
555.50	28161.33
555.67	28306.44
555.83	28224.52
556.00	28718.37
556.16	28816.68
556.33	28313.46
556.50	28458.57
556.66	28444.53
556.83	28826.04
556.99	28512.41
557.16	28830.72
557.32	28858.81
557.49	28535.81
557.65	28481.98
557.82	28439.85
557.98	28484.32
558.15	29048.39
558.32	28847.10
558.48	28631.77
558.65	28795.61
558.81	28968.81
558.98	28999.24
559.14	28664.54
559.31	28900.94
559.47	28781.57
559.64	28809.65
559.80	28570.92
559.97	28992.22
560.13	29125.63
560.30	28842.42
560.46	29027.32
560.63	29392.45
560.79	28929.02
560.96	28849.44
561.12	28870.51
561.29	29329.25
561.45	29022.64
561.61	29336.27
561.78	28985.19
561.94	29249.67
562.11	29195.84
562.27	29202.86
562.44	28900.94
562.60	29177.12
562.77	29099.88
562.93	28996.90
563.10	29652.25
563.26	29158.39
563.42	29537.56
563.59	29230.95
563.75	29343.30
563.92	29387.77
564.08	29427.56
564.24	29462.66
564.41	29390.11
564.57	29193.50
564.74	29071.79
564.90	29408.83
565.07	29289.46
565.23	29418.19
565.39	29460.32
565.56	29617.14
565.72	29420.53
565.88	29336.27
566.05	29399.47
566.21	29359.68
566.38	29394.79
566.54	29584.37
566.70	29326.91
566.87	29619.48
567.03	29710.76
567.19	29998.65
567.36	29336.27
567.52	29350.32
567.68	29371.38
567.85	29303.51
568.01	29291.80
568.17	28975.83
568.34	29439.26
568.50	29563.31
568.66	29710.76
568.83	29944.81
568.99	29411.17
569.15	29865.24
569.32	29514.16
569.48	29170.10
569.64	29640.54
569.81	29549.26
569.97	29560.97
570.13	29972.90
570.30	29956.52
570.46	29429.90
570.62	29619.48
570.78	29331.59
570.95	30092.27
571.11	29640.54
571.27	29399.47
571.43	29570.33
571.60	29837.15
571.76	29898.00
571.92	29837.15
572.09	29825.45
572.25	29525.86
572.41	29886.30
572.57	29869.92
572.74	29916.73
572.90	29560.97
573.06	29230.95
573.22	29558.63
573.38	29750.55
573.55	29457.98
573.71	30288.87
573.87	30223.34
574.03	29797.36
574.20	29694.38
574.36	29785.66
574.52	29715.44
574.68	29757.57
574.84	29949.50
575.01	30073.54
575.17	30057.16
575.33	29722.46
575.49	29893.32
575.65	30050.14
575.82	30132.06
575.98	30061.84
576.14	29816.08
576.30	29951.84
576.46	29677.99
576.62	29766.93
576.79	29745.87
576.95	29750.55
577.11	30099.29
577.27	30270.15
577.43	30045.46
577.59	30160.14
577.75	30157.80
577.92	29816.08
578.08	29769.27
578.24	29764.59
578.40	29968.22
578.56	30110.99
578.72	30080.56
578.88	30141.42
579.04	30087.59
579.21	29874.60
579.37	30136.74
579.53	30129.72
579.69	29963.54
579.85	29837.15
580.01	29951.84
580.17	29769.27
580.33	29895.66
580.49	30239.72
580.65	30232.70
580.82	29933.11
580.98	29783.32
581.14	29797.36
581.30	30061.84
581.46	30003.33
581.62	29715.44
581.78	30265.47
581.94	29888.64
582.10	29738.85
582.26	29947.15
582.42	29876.94
582.58	29851.19
582.74	30024.39
582.90	30298.23
583.06	30160.14
583.22	30515.90
583.38	29965.88
583.54	30094.61
583.70	30176.53
583.86	30422.28
584.02	29979.92
584.18	30043.12
584.34	30497.18
584.50	30398.88
584.66	30405.90
584.82	29956.52
584.98	29947.15
585.14	30424.62
585.30	29989.28
585.46	29837.15
585.62	30267.81
585.78	30274.83
585.94	29853.53
586.10	29907.37
586.26	30239.72
586.42	30448.03
586.58	30588.46
586.74	30476.12
586.90	30279.51
587.06	29656.93
587.22	30438.67
587.38	30188.23
587.54	30323.98
587.70	30382.49
587.86	30756.98
588.02	30225.68
588.18	30518.25
588.34	30171.85
588.49	29949.50
588.65	30132.06
588.81	30340.36
588.97	30373.13
589.13	30394.20
589.29	29991.62
589.45	30476.12
589.61	30518.25
589.77	30560.37
589.93	30452.71
590.08	30536.97
590.24	30277.17
590.40	30583.78
590.56	30759.32
590.72	30590.80
590.88	30272.49
591.04	30637.61
591.20	30483.14
591.35	30562.72
591.51	30625.91
591.67	30710.17
591.83	30576.76
591.99	30497.18
