SpectraSuite Data File
++++++++++++++++++++++++++++++++++++
Date: Fri Oct 18 13:58:18 GMT-05:00 2013
User: bianchi
Dark Spectrum Present: No
Reference Spectrum Present: No
Number of Sampled Component Spectra: 1
Spectrometers: USB2+H05261
Integration Time (usec): 50000 (USB2+H05261)
Spectra Averaged: 1 (USB2+H05261)
Boxcar Smoothing: 0 (USB2+H05261)
Correct for Electrical Dark: No (USB2+H05261)
Strobe/Lamp Enabled: No (USB2+H05261)
Correct for Detector Non-linearity: No (USB2+H05261)
Correct for Stray Light: No (USB2+H05261)
Number of Pixels in Processed Spectrum: 2048
>>>>>Begin Processed Spectral Data<<<<<
365.73	0.00
365.92	0.00
366.12	0.00
366.32	0.00
366.52	0.00
366.72	0.00
366.91	0.00
367.11	0.00
367.31	0.00
367.51	0.00
367.70	0.00
367.90	0.00
368.10	0.00
368.30	0.00
368.49	0.00
368.69	0.00
368.89	0.00
369.09	0.00
369.28	0.00
369.48	0.00
369.68	0.00
369.87	0.00
370.07	0.00
370.27	0.00
370.47	0.00
370.66	95.96
370.86	168.52
371.06	163.84
371.25	166.18
371.45	88.94
371.65	102.98
371.84	159.16
372.04	135.75
372.24	236.39
372.44	166.18
372.63	163.84
372.83	168.52
373.03	231.71
373.22	142.77
373.42	238.73
373.62	182.56
373.81	152.13
374.01	252.78
374.21	252.78
374.40	220.01
374.60	252.78
374.79	262.14
374.99	257.46
375.19	292.57
375.38	255.12
375.58	280.86
375.78	220.01
375.97	227.03
376.17	252.78
376.37	292.57
376.56	283.20
376.76	231.71
376.95	210.65
377.15	257.46
377.35	187.24
377.54	212.99
377.74	248.10
377.93	301.93
378.13	276.18
378.33	255.12
378.52	301.93
378.72	271.50
378.91	210.65
379.11	290.23
379.31	276.18
379.50	236.39
379.70	257.46
379.89	322.99
380.09	322.99
380.28	334.70
380.48	360.44
380.68	344.06
380.87	278.52
381.07	236.39
381.26	234.05
381.46	315.97
381.65	322.99
381.85	358.10
382.04	290.23
382.24	313.63
382.43	327.68
382.63	287.89
382.83	353.42
383.02	290.23
383.22	435.34
383.41	184.90
383.61	315.97
383.80	332.36
384.00	416.62
384.19	369.80
384.39	390.87
384.58	393.21
384.78	315.97
384.97	330.02
385.17	346.40
385.36	388.53
385.56	430.66
385.75	367.46
385.95	351.08
386.14	376.83
386.34	400.23
386.53	409.59
386.72	393.21
386.92	449.38
387.11	447.04
387.31	393.21
387.50	383.85
387.70	381.51
387.89	456.40
388.09	468.11
388.28	390.87
388.48	365.12
388.67	468.11
388.86	428.32
389.06	484.49
389.25	493.85
389.45	477.47
389.64	421.30
389.84	500.87
390.03	493.85
390.22	447.04
390.42	423.64
390.61	479.81
390.81	498.53
391.00	451.72
391.19	514.92
391.39	465.77
391.58	491.51
391.78	512.58
391.97	550.03
392.16	550.03
392.36	564.07
392.55	538.32
392.75	503.22
392.94	564.07
393.13	552.37
393.33	552.37
393.52	629.60
393.71	610.88
393.91	512.58
394.10	613.22
394.29	580.45
394.49	582.79
394.68	538.32
394.88	636.63
395.07	617.90
395.26	641.31
395.46	557.05
395.65	594.50
395.84	538.32
396.04	589.82
396.23	587.47
396.42	697.48
396.62	603.86
396.81	599.18
397.00	657.69
397.19	648.33
397.39	718.54
397.58	709.18
397.77	753.65
397.97	660.03
398.16	660.03
398.35	699.82
398.55	744.29
398.74	650.67
398.93	798.12
399.12	709.18
399.32	645.99
399.51	727.91
399.70	763.01
399.90	634.29
400.09	636.63
400.28	781.74
400.47	753.65
400.67	725.57
400.86	748.97
401.05	791.10
401.24	699.82
401.44	835.57
401.63	830.89
401.82	809.83
402.01	697.48
402.21	791.10
402.40	777.06
402.59	833.23
402.78	875.36
402.97	837.91
403.17	950.26
403.36	812.17
403.55	866.00
403.74	926.85
403.93	833.23
404.13	940.90
404.32	971.32
404.51	837.91
404.70	821.53
404.89	973.66
405.09	959.62
405.28	945.58
405.47	968.98
405.66	1001.75
405.85	992.39
406.05	1041.54
406.24	875.36
406.43	1001.75
406.62	1088.35
406.81	1041.54
407.00	961.96
407.20	954.94
407.39	964.30
407.58	1027.50
407.77	1032.18
407.96	1034.52
408.15	1121.12
408.34	1020.47
408.54	1067.28
408.73	1104.73
408.92	1104.73
409.11	1107.07
409.30	1114.10
409.49	1100.05
409.68	1135.16
409.87	1167.93
410.07	1146.86
410.26	1160.91
410.45	1107.07
410.64	1205.38
410.83	1165.59
411.02	1142.18
411.21	1273.25
411.40	1301.34
411.59	1219.42
411.78	1376.24
411.98	1320.06
412.17	1231.12
412.36	1273.25
412.55	1261.55
412.74	1310.70
412.93	1310.70
413.12	1331.76
413.31	1437.09
413.50	1371.55
413.69	1371.55
413.88	1413.68
414.07	1359.85
414.26	1373.89
414.45	1448.79
414.64	1406.66
414.83	1523.69
415.02	1537.73
415.22	1572.84
415.41	1514.33
415.60	1500.28
415.79	1556.46
415.98	1565.82
416.17	1619.65
416.36	1502.62
416.55	1432.41
416.74	1739.02
416.93	1638.38
417.12	1694.55
417.31	1760.08
417.50	1727.32
417.69	1661.78
417.88	1778.81
418.07	1818.60
418.26	1668.80
418.45	1724.97
418.64	1792.85
418.83	1675.82
419.02	1750.72
419.21	1799.87
419.39	1827.96
419.58	1874.77
419.77	1767.10
419.96	1830.30
420.15	1853.70
420.34	1898.17
420.53	1858.39
420.72	1989.46
420.91	1867.75
421.10	1884.13
421.29	1963.71
421.48	1891.15
421.67	1916.90
421.86	1870.09
422.05	2001.16
422.24	1914.56
422.43	1989.46
422.61	1914.56
422.80	1909.88
422.99	2057.33
423.18	1898.17
423.37	2083.08
423.56	1996.48
423.75	1916.90
423.94	2083.08
424.13	1846.68
424.32	1912.22
424.50	2024.56
424.69	2045.63
424.88	2090.10
425.07	2019.88
425.26	2001.16
425.45	1991.80
425.64	2059.67
425.83	2064.35
426.01	2139.25
426.20	1975.41
426.39	2111.16
426.58	2031.58
426.77	2045.63
426.96	2001.16
427.15	2106.48
427.33	2083.08
427.52	2087.76
427.71	2036.27
427.90	2118.18
428.09	2106.48
428.28	2153.29
428.46	2167.34
428.65	2120.53
428.84	2223.51
429.03	2190.74
429.22	2204.78
429.40	2291.38
429.59	2246.91
429.78	2207.13
429.97	2195.42
430.16	2106.48
430.34	2270.32
430.53	2253.94
430.72	2270.32
430.91	2305.43
431.10	2232.87
431.28	2293.72
431.47	2310.11
431.66	2394.37
431.85	2305.43
432.03	2272.66
432.22	2457.56
432.41	2410.75
432.60	2399.05
432.79	2326.49
432.97	2331.17
433.16	2616.72
433.35	2401.39
433.54	2565.23
433.72	2497.35
433.91	2450.54
434.10	2544.16
434.28	2558.21
434.47	2623.74
434.66	2565.23
434.85	2593.31
435.03	2497.35
435.22	2663.53
435.41	2717.36
435.59	2670.55
435.78	2605.02
435.97	2574.59
436.16	2567.57
436.34	2628.42
436.53	2691.62
436.72	2785.24
436.90	2656.51
437.09	2675.23
437.28	2696.30
437.46	2715.02
437.65	2736.09
437.84	2773.53
438.02	2689.28
438.21	2729.06
438.40	2794.60
438.58	2869.50
438.77	2949.08
438.96	2881.20
439.14	2909.29
439.33	3023.97
439.52	2911.63
439.70	2928.01
439.89	2958.44
440.08	2920.99
440.26	3066.10
440.45	2944.39
440.63	3023.97
440.82	3185.47
441.01	3098.87
441.19	3141.00
441.38	3180.79
441.57	3133.98
441.75	3229.94
441.94	3288.45
442.12	3260.37
442.31	3222.92
442.50	3365.69
442.68	3297.81
442.87	3246.32
443.05	3288.45
443.24	3442.93
443.43	3414.84
443.61	3232.28
443.80	3419.52
443.98	3187.81
444.17	3260.37
444.35	3433.57
444.54	3485.06
444.73	3410.16
444.91	3485.06
445.10	3314.20
445.28	3344.63
445.47	3438.25
445.65	3548.25
445.84	3342.28
446.02	3482.72
446.21	3358.67
446.39	3501.44
446.58	3372.71
446.77	3419.52
446.95	3353.99
447.14	3297.81
447.32	3499.10
447.51	3510.80
447.69	3482.72
447.88	3616.13
448.06	3559.95
448.25	3513.14
448.43	3475.70
448.62	3578.68
448.80	3555.27
448.99	3529.53
449.17	3564.64
449.36	3468.67
449.54	3588.04
449.73	3669.96
449.91	3693.37
450.10	3641.87
450.28	3632.51
450.46	3730.81
450.65	3744.86
450.83	3747.20
451.02	3632.51
451.20	3665.28
451.39	3801.03
451.57	3695.71
451.76	3691.02
451.94	3740.18
452.13	3861.88
452.31	3908.69
452.49	3672.30
452.68	3779.97
452.86	3964.87
453.05	3859.54
453.23	3845.50
453.42	3852.52
453.60	3782.31
453.78	3707.41
453.97	3852.52
454.15	3859.54
454.34	3875.93
454.52	4098.28
454.70	4042.11
454.89	3925.08
455.07	3953.16
455.26	4105.30
455.44	3943.80
455.62	4035.08
455.81	4271.48
455.99	4042.11
456.17	4126.36
456.36	4145.09
456.54	4060.83
456.73	4184.88
456.91	4285.52
457.09	4358.08
457.28	4360.42
457.46	4149.77
457.64	4458.72
457.83	4365.10
458.01	4250.41
458.19	4360.42
458.38	4325.31
458.56	4416.59
458.74	4472.76
458.93	4287.86
459.11	4308.93
459.29	4329.99
459.48	4550.00
459.66	4503.19
459.84	4451.70
460.03	4517.23
460.21	4472.76
460.39	4535.96
460.57	4440.00
460.76	4552.34
460.94	4503.19
461.12	4496.17
461.31	4568.73
461.49	4592.13
461.67	4533.62
461.85	4645.96
462.04	4648.30
462.22	4807.46
462.40	4751.29
462.59	4713.84
462.77	4676.39
462.95	4795.76
463.13	4662.35
463.32	4800.44
463.50	4875.34
463.68	4709.16
463.86	4784.06
464.05	4683.41
464.23	4755.97
464.41	4887.04
464.59	4800.44
464.78	4828.53
464.96	4968.96
465.14	4849.59
465.32	4858.95
465.50	4966.62
465.69	4922.15
465.87	4854.27
466.05	4985.34
466.23	5090.67
466.41	5097.69
466.60	5062.58
466.78	5116.41
466.96	4917.47
467.14	4980.66
467.32	4975.98
467.51	5018.11
467.69	5022.79
467.87	5165.56
468.05	5107.05
468.23	5043.85
468.41	5149.18
468.60	5153.86
468.78	5282.59
468.96	5083.64
469.14	5165.56
469.32	5184.29
469.50	5242.80
469.69	5238.12
469.87	5231.10
470.05	5371.53
470.23	5401.96
470.41	5366.85
470.59	5401.96
470.77	5451.11
470.95	5540.05
471.14	5572.82
471.32	5413.66
471.50	5472.17
471.68	5481.53
471.86	5521.32
472.04	5633.67
472.22	5591.54
472.40	5530.69
472.58	5729.63
472.77	5970.71
472.95	5907.51
473.13	5923.90
473.31	5830.27
473.49	5640.69
473.67	5748.36
473.85	5802.19
474.03	5888.79
474.21	5944.96
474.39	6127.52
474.57	5940.28
474.75	6132.20
474.93	6214.12
475.12	6031.56
475.30	6132.20
475.48	6080.71
475.66	6157.95
475.84	6258.59
476.02	6331.15
476.20	6174.33
476.38	6331.15
476.56	6551.16
476.74	6539.46
476.92	6520.73
477.10	6590.95
477.28	6761.81
477.46	6616.69
477.64	6572.22
477.82	6663.51
478.00	6829.68
478.18	6869.47
478.36	6988.84
478.54	7108.21
478.72	7056.72
478.90	7122.25
479.08	7274.38
479.26	7115.23
479.44	7159.70
479.62	7293.11
479.80	7339.92
479.98	7410.14
480.16	7513.12
480.34	7414.82
480.52	7454.61
480.70	7405.46
480.88	7527.16
481.06	7845.48
481.24	7700.36
481.41	7702.70
481.59	7805.69
481.77	8023.36
481.95	7922.71
482.13	7939.10
482.31	7765.90
482.49	8039.74
482.67	8245.71
482.85	8128.68
483.03	8533.59
483.21	8454.02
483.39	8498.49
483.57	8257.41
483.74	8601.47
483.92	8741.90
484.10	8648.28
484.28	8901.06
484.46	9022.77
484.64	9083.62
484.82	8908.08
485.00	9048.51
485.18	9062.55
485.35	9312.99
485.53	9331.72
485.71	9298.95
485.89	9289.59
486.07	9282.56
486.25	9399.59
486.43	9577.47
486.61	9659.39
486.78	9633.64
486.96	9724.93
487.14	10052.60
487.32	9895.78
487.50	10118.14
487.68	10059.62
487.85	10249.21
488.03	10228.14
488.21	10574.54
488.39	10391.98
488.57	10537.09
488.75	10534.75
488.92	10740.72
489.10	10703.27
489.28	10918.60
489.46	11014.56
489.64	11009.88
489.81	11077.76
489.99	11084.78
490.17	11255.64
490.35	11363.30
490.53	11391.39
490.70	11433.52
490.88	11555.22
491.06	11618.42
491.24	11728.42
491.41	11669.91
491.59	11882.90
491.77	11939.07
491.95	12095.89
492.13	12018.65
492.30	12241.00
492.48	12173.13
492.66	12070.14
492.84	12264.41
493.01	12367.39
493.19	12346.33
493.37	12669.32
493.54	12865.92
493.72	12854.22
493.90	12535.91
494.08	12868.27
494.25	13118.70
494.43	13235.73
494.61	13025.08
494.79	13195.94
494.96	13233.39
495.14	13467.44
495.32	13415.95
495.49	13383.18
495.67	13490.85
495.85	13872.36
496.02	13741.29
496.20	13982.36
496.38	13776.39
496.55	13811.50
496.73	14127.47
496.91	13940.23
497.09	14026.83
497.26	13991.72
497.44	14052.58
497.62	14284.29
497.79	14438.76
497.97	14579.20
498.14	14218.75
498.32	14593.24
498.50	14782.82
498.67	14721.97
498.85	14663.46
499.03	14937.30
499.20	14890.49
499.38	14949.00
499.56	15054.33
499.73	15222.84
499.91	15349.23
500.08	15342.21
500.26	15302.42
500.44	15400.72
500.61	15426.47
500.79	15194.76
500.97	15627.76
501.14	15681.59
501.32	15571.58
501.49	15602.01
501.67	15730.74
501.84	15880.53
502.02	15775.21
502.20	15800.96
502.37	15735.42
502.55	16123.95
502.72	16353.32
502.90	16056.08
503.07	16248.00
503.25	16100.55
503.43	15763.51
503.60	16435.24
503.78	16526.52
503.95	16266.72
504.13	16484.39
504.30	16585.04
504.48	16578.01
504.65	16407.16
504.83	16842.50
505.01	17048.46
505.18	17020.38
505.36	17240.39
505.53	16823.77
505.71	16943.14
505.88	16807.39
506.06	16791.00
506.23	17214.64
506.41	17118.68
506.58	17219.32
506.76	17296.56
506.93	17415.93
507.11	17341.03
507.28	17383.16
507.46	17469.76
507.63	17661.68
507.81	17415.93
507.98	17642.96
508.16	17874.67
508.33	17628.92
508.50	17790.41
508.68	17998.72
508.85	17895.74
509.03	17804.46
509.20	18251.50
509.38	18256.18
509.55	18251.50
509.73	18305.33
509.90	18394.27
510.08	18204.69
510.25	18171.92
510.42	18302.99
510.60	18417.68
510.77	18546.40
510.95	18420.02
511.12	18586.19
511.30	18398.95
511.47	18738.33
511.64	19117.50
511.82	18761.73
511.99	18780.46
512.17	19150.26
512.34	18890.46
512.51	19311.76
512.69	18808.54
512.86	19194.73
513.04	19199.41
513.21	19356.23
513.38	19105.79
513.56	19323.46
513.73	19440.49
513.90	19091.75
514.08	19145.58
514.25	19836.04
514.43	19590.28
514.60	19653.48
514.77	19695.61
514.95	19737.74
515.12	19477.94
515.29	19754.12
515.47	19861.79
515.64	20018.60
515.81	19866.47
515.99	19824.34
516.16	20116.90
516.33	20088.82
516.51	20135.63
516.68	19791.57
516.85	19962.43
517.03	20233.93
517.20	20601.40
517.37	20365.00
517.54	20568.63
517.72	20491.39
517.89	20812.04
518.06	20271.38
518.24	20519.48
518.41	20350.96
518.58	20465.64
518.75	20800.34
518.93	20980.56
519.10	20439.90
519.27	20685.65
519.45	20751.19
519.62	21025.03
519.79	21223.98
519.96	20833.11
520.14	20945.45
520.31	20865.88
520.48	21156.10
520.65	21099.93
520.83	21069.50
521.00	21034.39
521.17	21181.85
521.34	21198.23
521.52	21322.28
521.69	21289.51
521.86	21514.20
522.03	21495.48
522.20	21509.52
522.38	21621.87
522.55	21649.96
522.72	21612.51
522.89	21671.02
523.07	21898.05
523.24	21820.81
523.41	21876.99
523.58	21654.64
523.75	21799.75
523.92	21610.17
524.10	21715.49
524.27	21710.81
524.44	22232.75
524.61	22286.58
524.78	22120.40
524.96	22237.43
525.13	22005.72
525.30	22405.95
525.47	22373.18
525.64	22342.75
525.81	22419.99
525.98	22293.60
526.16	22630.64
526.33	22834.27
526.50	22780.43
526.67	22450.42
526.84	22843.63
527.01	22691.49
527.18	22635.32
527.36	22852.99
527.53	22890.44
527.70	23035.55
527.87	23126.83
528.04	22548.72
528.21	22932.57
528.38	22988.74
528.55	23152.58
528.72	23124.49
528.89	23173.64
529.07	23459.19
529.24	23288.33
529.41	23428.76
529.58	23323.44
529.75	23477.91
529.92	23047.26
530.09	23293.01
530.26	23718.99
530.43	23541.11
530.60	23527.06
530.77	23360.89
530.94	23763.46
531.11	23358.55
531.28	23484.94
531.46	23552.81
531.63	23616.01
531.80	23641.75
531.97	24027.94
532.14	23665.16
532.31	23821.97
532.48	23836.02
532.65	23854.74
532.82	23915.59
532.99	24002.19
533.16	24051.34
533.33	24285.40
533.50	24339.23
533.67	24266.67
533.84	24140.29
534.01	24329.87
534.18	24140.29
534.35	24620.10
534.52	24107.52
534.69	24423.49
534.86	24437.53
535.03	24114.54
535.20	24285.40
535.37	24608.39
535.54	24577.97
535.71	24353.27
535.88	24524.13
536.05	24465.62
536.22	24400.08
536.38	24636.48
536.55	24676.27
536.72	24678.61
536.89	24634.14
537.06	24800.32
537.23	25041.39
537.40	24896.28
537.57	24779.25
537.74	24762.87
537.91	24868.19
538.08	24875.21
538.25	25202.89
538.42	25090.54
538.59	24989.90
538.75	24978.20
538.92	25343.32
539.09	24903.30
539.26	25532.90
539.43	25256.72
539.60	25769.30
539.77	25378.43
539.94	25432.26
540.11	25074.16
540.28	25282.47
540.44	25387.79
540.61	25266.08
540.78	25345.66
540.95	25511.84
541.12	25460.35
541.29	25359.70
541.46	25455.67
541.62	25610.14
541.79	25577.37
541.96	25558.65
542.13	25514.18
542.30	25366.73
542.47	26064.21
542.63	26026.76
542.80	26082.93
542.97	26356.77
543.14	26052.50
543.31	25965.90
543.48	25923.77
543.64	26190.59
543.81	26061.87
543.98	26815.52
544.15	26361.45
544.32	26394.22
544.48	26237.41
544.65	26103.99
544.82	26216.34
544.99	26129.74
545.16	26368.48
545.32	26494.86
545.49	26504.23
545.66	26319.32
545.83	26382.52
546.00	26841.26
546.16	26279.54
546.33	26513.59
546.50	26061.87
546.67	26380.18
546.83	26305.28
547.00	26815.52
547.17	26911.48
547.34	26724.24
547.50	26867.01
547.67	26969.99
547.84	26885.73
548.00	26948.93
548.17	26745.30
548.34	26696.15
548.51	27201.71
548.67	26759.34
548.84	26988.72
549.01	26937.23
549.18	26661.04
549.34	27140.85
549.51	26635.30
549.68	27171.28
549.84	27257.88
550.01	26895.10
550.18	27314.05
550.34	27122.13
550.51	27016.80
550.68	27131.49
550.84	27119.79
551.01	27297.67
551.18	27023.83
551.34	26906.80
551.51	27225.11
551.68	27077.66
551.84	27527.04
552.01	27606.62
552.18	27381.93
552.34	27594.92
552.51	27665.13
552.68	27285.97
552.84	27480.23
553.01	27587.89
553.18	27185.32
553.34	28009.19
553.51	27410.01
553.67	27747.05
553.84	27723.65
554.01	28002.17
554.17	27999.83
554.34	27538.74
554.51	27765.78
554.67	27704.92
554.84	27765.78
555.00	27789.18
555.17	27861.74
555.33	27651.09
555.50	28109.83
555.67	27669.81
555.83	27948.34
556.00	27742.37
556.16	27934.29
556.33	28189.41
556.50	27648.75
556.66	28173.03
556.83	28477.30
556.99	28507.72
557.16	28215.16
557.32	28030.26
557.49	28264.31
557.65	28006.85
557.82	28566.24
557.98	28025.57
558.15	27936.63
558.32	28439.85
558.48	28648.16
558.65	28418.78
558.81	28407.08
558.98	28343.89
559.14	28304.10
559.31	28498.36
559.47	28402.40
559.64	28500.70
559.80	28563.90
559.97	28114.52
560.13	28107.49
560.30	28582.62
560.46	28561.56
560.63	28606.03
560.79	28519.43
560.96	28723.05
561.12	28505.38
561.29	28320.48
561.45	28819.02
561.61	28276.01
561.78	28521.77
561.94	28402.40
562.11	28760.50
562.27	28631.77
562.44	28861.15
562.60	28739.44
562.77	28996.90
562.93	28421.13
563.10	29132.65
563.26	28851.78
563.42	29270.74
563.59	28746.46
563.75	29010.94
563.92	29102.22
564.08	28432.83
564.24	28634.11
564.41	28776.89
564.57	29001.58
564.74	28790.93
564.90	29144.35
565.07	28872.85
565.23	29020.30
565.39	28802.63
565.56	29261.38
565.72	29090.52
565.88	28861.15
566.05	28819.02
566.21	28701.99
566.38	28760.50
566.54	28982.85
566.70	28999.24
566.87	29120.95
567.03	29198.18
567.19	29453.30
567.36	29315.21
567.52	29102.22
567.68	29263.72
567.85	28697.31
568.01	29659.27
568.17	28828.38
568.34	29294.14
568.50	29226.27
568.66	29015.62
568.83	29242.65
568.99	29205.20
569.15	29036.69
569.32	28711.35
569.48	29057.75
569.64	29336.27
569.81	29383.09
569.97	29273.08
570.13	29738.85
570.30	29001.58
570.46	29305.85
570.62	29570.33
570.78	29048.39
570.95	28989.88
571.11	29504.79
571.27	28875.19
571.43	29029.66
571.60	29055.41
571.76	29181.80
571.92	29287.12
572.09	29392.45
572.25	29537.56
572.41	29661.61
572.57	29607.78
572.74	29525.86
572.90	29310.53
573.06	29404.15
573.22	29425.22
573.38	29429.90
573.55	29179.46
573.71	29752.89
573.87	29570.33
574.03	29427.56
574.20	29607.78
574.36	29081.16
574.52	29476.71
574.68	29586.71
574.84	29553.94
575.01	29598.41
575.17	29528.20
575.33	29235.63
575.49	29516.50
575.65	29633.52
575.82	29680.33
575.98	29507.13
576.14	29619.48
576.30	29357.34
576.46	29134.99
576.62	28924.34
576.79	29308.19
576.95	29317.55
577.11	29268.40
577.27	29226.27
577.43	29717.78
577.59	29507.13
577.75	29799.70
577.92	29366.70
578.08	29399.47
578.24	29542.24
578.40	29670.97
578.56	29572.67
578.72	30012.69
578.88	29935.45
579.04	30064.18
579.21	29713.10
579.37	29319.89
579.53	29659.27
579.69	29216.91
579.85	29392.45
580.01	29406.49
580.17	29647.57
580.33	29362.02
580.49	29490.75
580.65	29633.52
580.82	29696.72
580.98	29795.02
581.14	29642.88
581.30	29844.17
581.46	29640.54
581.62	29406.49
581.78	29149.03
581.94	29759.91
582.10	29567.99
582.26	29537.56
582.42	29553.94
582.58	29406.49
582.74	29422.87
582.90	30050.14
583.06	29708.42
583.22	29773.95
583.38	29771.61
583.54	29685.01
583.70	29542.24
583.86	29872.26
584.02	29591.39
584.18	29914.39
584.34	29933.11
584.50	29813.74
584.66	29734.17
584.82	29605.44
584.98	29675.65
585.14	29596.07
585.30	28940.72
585.46	29692.04
585.62	29663.95
585.78	29898.00
585.94	29345.64
586.10	29825.45
586.26	29937.79
586.42	30134.40
586.58	29844.17
586.74	29493.09
586.90	29703.74
587.06	29633.52
587.22	29834.81
587.38	29806.72
587.54	30054.82
587.70	29963.54
587.86	30040.78
588.02	30054.82
588.18	30284.19
588.34	29617.14
588.49	30174.19
588.65	29869.92
588.81	29605.44
588.97	29792.68
589.13	29584.37
589.29	29830.13
589.45	30040.78
589.61	30094.61
589.77	30169.51
589.93	30005.67
590.08	30082.91
590.24	30108.65
590.40	29902.68
590.56	30309.94
590.72	30096.95
590.88	29539.90
591.04	30120.35
591.20	30426.96
591.35	30377.81
591.51	30221.00
591.67	30209.29
591.83	30415.26
591.99	30405.90
