SpectraSuite Data File
++++++++++++++++++++++++++++++++++++
Date: Fri Oct 18 13:58:37 GMT-05:00 2013
User: bianchi
Dark Spectrum Present: No
Reference Spectrum Present: No
Number of Sampled Component Spectra: 1
Spectrometers: USB2+H05261
Integration Time (usec): 50000 (USB2+H05261)
Spectra Averaged: 1 (USB2+H05261)
Boxcar Smoothing: 0 (USB2+H05261)
Correct for Electrical Dark: No (USB2+H05261)
Strobe/Lamp Enabled: No (USB2+H05261)
Correct for Detector Non-linearity: No (USB2+H05261)
Correct for Stray Light: No (USB2+H05261)
Number of Pixels in Processed Spectrum: 2048
>>>>>Begin Processed Spectral Data<<<<<
365.73	0.00
365.92	0.00
366.12	0.00
366.32	0.00
366.52	0.00
366.72	0.00
366.91	0.00
367.11	0.00
367.31	0.00
367.51	0.00
367.70	0.00
367.90	0.00
368.10	0.00
368.30	0.00
368.49	0.00
368.69	0.00
368.89	0.00
369.09	0.00
369.28	0.00
369.48	0.00
369.68	0.00
369.87	0.00
370.07	0.00
370.27	0.00
370.47	35.11
370.66	86.60
370.86	140.43
371.06	86.60
371.25	191.92
371.45	65.54
371.65	149.79
371.84	88.94
372.04	212.99
372.24	84.26
372.44	166.18
372.63	203.63
372.83	212.99
373.03	126.39
373.22	154.48
373.42	222.35
373.62	194.26
373.81	222.35
374.01	238.73
374.21	248.10
374.40	220.01
374.60	278.52
374.79	241.08
374.99	313.63
375.19	217.67
375.38	203.63
375.58	273.84
375.78	297.25
375.97	297.25
376.17	318.31
376.37	161.50
376.56	283.20
376.76	276.18
376.95	243.42
377.15	222.35
377.35	231.71
377.54	255.12
377.74	269.16
377.93	248.10
378.13	320.65
378.33	248.10
378.52	224.69
378.72	236.39
378.91	276.18
379.11	248.10
379.31	344.06
379.50	308.95
379.70	290.23
379.89	292.57
380.09	337.04
380.28	271.50
380.48	344.06
380.68	362.78
380.87	308.95
381.07	306.61
381.26	365.12
381.46	388.53
381.65	271.50
381.85	348.74
382.04	381.51
382.24	334.70
382.43	337.04
382.63	311.29
382.83	313.63
383.02	423.64
383.22	325.33
383.41	376.83
383.61	341.72
383.80	395.55
384.00	301.93
384.19	341.72
384.39	358.10
384.58	367.46
384.78	430.66
384.97	318.31
385.17	358.10
385.36	374.49
385.56	383.85
385.75	414.27
385.95	402.57
386.14	337.04
386.34	369.80
386.53	400.23
386.72	332.36
386.92	425.98
387.11	397.89
387.31	475.13
387.50	451.72
387.70	444.70
387.89	400.23
388.09	397.89
388.28	400.23
388.48	425.98
388.67	491.51
388.86	454.06
389.06	489.17
389.25	526.62
389.45	390.87
389.64	461.09
389.84	477.47
390.03	491.51
390.22	531.30
390.42	517.26
390.61	433.00
390.81	442.36
391.00	491.51
391.19	552.37
391.39	512.58
391.58	491.51
391.78	528.96
391.97	571.09
392.16	603.86
392.36	559.39
392.55	521.94
392.75	582.79
392.94	540.66
393.13	594.50
393.33	564.07
393.52	547.69
393.71	617.90
393.91	535.98
394.10	582.79
394.29	566.41
394.49	587.47
394.68	550.03
394.88	538.32
395.07	587.47
395.26	543.00
395.46	554.71
395.65	580.45
395.84	730.25
396.04	685.78
396.23	631.94
396.42	634.29
396.62	631.94
396.81	734.93
397.00	697.48
397.19	751.31
397.39	695.14
397.58	648.33
397.77	725.57
397.97	671.73
398.16	622.58
398.35	734.93
398.55	748.97
398.74	704.50
398.93	709.18
399.12	697.48
399.32	718.54
399.51	732.59
399.70	704.50
399.90	826.21
400.09	765.36
400.28	744.29
400.47	753.65
400.67	709.18
400.86	758.33
401.05	770.04
401.24	772.38
401.44	873.02
401.63	692.80
401.82	763.01
402.01	779.40
402.21	912.81
402.40	833.23
402.59	734.93
402.78	858.98
402.97	880.04
403.17	933.87
403.36	898.77
403.55	816.85
403.74	840.25
403.93	877.70
404.13	987.71
404.32	882.38
404.51	896.43
404.70	1083.67
404.89	1008.77
405.09	992.39
405.28	940.90
405.47	1006.43
405.66	926.85
405.85	952.60
406.05	931.53
406.24	957.28
406.43	950.26
406.62	1034.52
406.81	1013.45
407.00	1034.52
407.20	1001.75
407.39	1109.41
407.58	1062.60
407.77	1086.01
407.96	1006.43
408.15	1062.60
408.34	1032.18
408.54	1055.58
408.73	1081.33
408.92	1078.99
409.11	1226.44
409.30	1048.56
409.49	1083.67
409.68	1181.97
409.87	1186.65
410.07	1156.22
410.26	1116.44
410.45	1235.80
410.64	1313.04
410.83	1224.10
411.02	1266.23
411.21	1277.93
411.40	1261.55
411.59	1256.87
411.78	1287.29
411.98	1247.51
412.17	1303.68
412.36	1352.83
412.55	1385.60
412.74	1310.70
412.93	1366.87
413.12	1324.74
413.31	1341.13
413.50	1303.68
413.69	1387.94
413.88	1423.05
414.07	1399.64
414.26	1380.92
414.45	1490.92
414.64	1507.30
414.83	1460.49
415.02	1519.01
415.22	1483.90
415.41	1549.43
415.60	1593.90
415.79	1516.67
415.98	1598.59
416.17	1598.59
416.36	1664.12
416.55	1589.22
416.74	1556.46
416.93	1680.50
417.12	1664.12
417.31	1638.38
417.50	1722.63
417.69	1659.44
417.88	1729.66
418.07	1689.87
418.26	1717.95
418.45	1799.87
418.64	1802.21
418.83	1802.21
419.02	1767.10
419.21	1792.85
419.39	1834.98
419.58	1757.74
419.77	1827.96
419.96	1863.07
420.15	1954.35
420.34	1909.88
420.53	1858.39
420.72	1863.07
420.91	1947.33
421.10	1886.47
421.29	1956.69
421.48	1895.83
421.67	2038.61
421.86	1912.22
422.05	1994.14
422.24	2038.61
422.43	1921.58
422.61	2022.22
422.80	2031.58
422.99	2012.86
423.18	2038.61
423.37	1998.82
423.56	2108.82
423.75	1998.82
423.94	1973.07
424.13	1926.26
424.32	1919.24
424.50	2066.69
424.69	2073.71
424.88	2040.95
425.07	1984.77
425.26	2022.22
425.45	2024.56
425.64	2087.76
425.83	1968.39
426.01	2136.91
426.20	2136.91
426.39	2080.74
426.58	2076.06
426.77	2012.86
426.96	2076.06
427.15	1996.48
427.33	2085.42
427.52	2134.57
427.71	2162.66
427.90	2225.85
428.09	2214.15
428.28	2134.57
428.46	2188.40
428.65	2113.50
428.84	2293.72
429.03	2237.55
429.22	2106.48
429.40	2230.53
429.59	2235.21
429.78	2143.93
429.97	2157.97
430.16	2200.10
430.34	2345.22
430.53	2450.54
430.72	2422.45
430.91	2258.62
431.10	2324.15
431.28	2506.71
431.47	2466.92
431.66	2289.04
431.85	2235.21
432.03	2368.62
432.22	2499.69
432.41	2382.67
432.60	2532.46
432.79	2534.80
432.97	2375.64
433.16	2427.14
433.35	2588.63
433.54	2495.01
433.72	2527.78
433.91	2387.35
434.10	2579.27
434.28	2480.97
434.47	2459.90
434.66	2553.52
434.85	2532.46
435.03	2576.93
435.22	2593.31
435.41	2642.46
435.59	2602.68
435.78	2700.98
435.97	2609.70
436.16	2548.84
436.34	2672.89
436.53	2682.25
436.72	2726.72
436.90	2630.76
437.09	2715.02
437.28	2651.83
437.46	2670.55
437.65	2715.02
437.84	2832.05
438.02	2803.96
438.21	2829.71
438.40	2766.51
438.58	2796.94
438.77	3009.93
438.96	2810.98
439.14	2937.37
439.33	2946.73
439.52	2977.16
439.70	2951.42
439.89	2993.55
440.08	2923.33
440.26	2956.10
440.45	3059.08
440.63	2979.50
440.82	3178.45
441.01	3068.44
441.19	3119.93
441.38	3213.56
441.57	3180.79
441.75	3173.77
441.94	3290.79
442.12	3346.97
442.31	3262.71
442.50	3185.47
442.68	3279.09
442.87	3438.25
443.05	3335.26
443.24	3403.14
443.43	3265.05
443.61	3396.12
443.80	3452.29
443.98	3314.20
444.17	3241.64
444.35	3258.03
444.54	3562.30
444.73	3435.91
444.91	3407.82
445.10	3391.44
445.28	3534.21
445.47	3412.50
445.65	3377.39
445.84	3482.72
446.02	3452.29
446.21	3375.05
446.39	3529.53
446.58	3499.10
446.77	3463.99
446.95	3510.80
447.14	3506.12
447.32	3466.33
447.51	3403.14
447.69	3517.83
447.88	3630.17
448.06	3452.29
448.25	3447.61
448.43	3595.06
448.62	3604.42
448.80	3562.30
448.99	3674.64
449.17	3494.42
449.36	3674.64
449.54	3655.92
449.73	3662.94
449.91	3852.52
450.10	3674.64
450.28	3702.73
450.46	3789.33
450.65	3815.07
450.83	3772.94
451.02	3756.56
451.20	3772.94
451.39	3744.86
451.57	3920.40
451.76	3817.41
451.94	3801.03
452.13	3843.16
452.31	3875.93
452.49	3784.65
452.68	3843.16
452.86	3803.37
453.05	3810.39
453.23	3995.29
453.42	3812.73
453.60	3941.46
453.78	3969.55
453.97	3791.67
454.15	3794.01
454.34	3875.93
454.52	4032.74
454.70	4009.34
454.89	4023.38
455.07	4053.81
455.26	3866.56
455.44	3981.25
455.62	4084.23
455.81	4161.47
455.99	4187.22
456.17	4070.19
456.36	4170.83
456.54	4135.73
456.73	4311.27
456.91	4266.80
457.09	4217.65
457.28	4215.30
457.46	4329.99
457.64	4337.01
457.83	4341.69
458.01	4238.71
458.19	4428.29
458.38	4437.66
458.56	4355.74
458.74	4442.34
458.93	4470.42
459.11	4418.93
459.29	4498.51
459.48	4519.57
459.66	4498.51
459.84	4493.83
460.03	4524.26
460.21	4566.39
460.39	4655.33
460.57	4505.53
460.76	4526.60
460.94	4620.22
461.12	4638.94
461.31	4678.73
461.49	4716.18
461.67	4613.20
461.85	4622.56
462.04	4664.69
462.22	4744.27
462.40	4744.27
462.59	4788.74
462.77	4718.52
462.95	4809.80
463.13	4875.34
463.32	4746.61
463.50	4812.14
463.68	4786.40
463.86	4940.87
464.05	4772.35
464.23	4814.48
464.41	4856.61
464.59	4725.54
464.78	4975.98
464.96	4943.21
465.14	4777.03
465.32	5102.37
465.50	5048.54
465.69	5008.75
465.87	5053.22
466.05	4983.00
466.23	5001.72
466.41	4933.85
466.60	5247.48
466.78	5001.72
466.96	4999.38
467.14	5050.88
467.32	5170.24
467.51	5268.55
467.69	5064.92
467.87	5247.48
468.05	4992.36
468.23	5085.98
468.41	5078.96
468.60	5200.67
468.78	5249.82
468.96	5025.13
469.14	5219.39
469.32	5451.11
469.50	5277.91
469.69	5132.79
469.87	5453.45
470.05	5432.38
470.23	5383.23
470.41	5259.18
470.59	5467.49
470.77	5380.89
470.95	5362.17
471.14	5481.53
471.32	5270.89
471.50	5591.54
471.68	5689.84
471.86	5731.97
472.04	5544.73
472.22	5628.99
472.40	5715.59
472.58	5858.36
472.77	5694.52
472.95	5790.49
473.13	6078.37
473.31	5935.60
473.49	5736.65
473.67	5888.79
473.85	5996.45
474.03	5947.30
474.21	6113.48
474.39	5935.60
474.57	6050.28
474.75	6052.63
474.93	6324.13
475.12	6097.10
475.30	6207.10
475.48	6090.07
475.66	6249.23
475.84	6422.43
476.02	6363.92
476.20	6417.75
476.38	6464.56
476.56	6656.48
476.74	6457.54
476.92	6593.29
477.10	6576.91
477.28	6544.14
477.46	6492.65
477.64	6874.15
477.82	6595.63
478.00	7049.69
478.18	6986.50
478.36	6897.56
478.54	7122.25
478.72	7101.19
478.90	6979.48
479.08	7190.13
479.26	7318.86
479.44	7140.97
479.62	7456.95
479.80	7403.11
479.98	7255.66
480.16	7421.84
480.34	7431.20
480.52	7538.87
480.70	7786.96
480.88	7786.96
481.06	7695.68
481.24	7691.00
481.41	7808.03
481.59	7896.97
481.77	7988.25
481.95	8035.06
482.13	8046.76
482.31	8042.08
482.49	8439.97
482.67	8435.29
482.85	8381.46
483.03	8568.70
483.21	8725.52
483.39	8531.25
483.57	8446.99
483.74	8634.24
483.92	8779.35
484.10	8681.05
484.28	8879.99
484.46	9067.24
484.64	9142.13
484.82	8954.89
485.00	9350.44
485.18	9341.08
485.35	9397.25
485.53	9385.55
485.71	9558.75
485.89	9610.24
486.07	9610.24
486.25	9654.71
486.43	9607.90
486.61	9785.78
486.78	9820.89
486.96	10047.92
487.14	9984.73
487.32	10104.09
487.50	10054.94
487.68	10157.92
487.85	10291.34
488.03	10408.36
488.21	10647.10
488.39	10710.29
488.57	10583.90
488.75	10754.76
488.92	10670.50
489.10	10956.05
489.28	11012.22
489.46	11171.38
489.64	10853.06
489.81	11110.52
489.99	11398.41
490.17	11293.08
490.35	11487.35
490.53	11641.82
490.70	11637.14
490.88	11651.19
491.06	11871.20
491.24	11667.57
491.41	11864.18
491.59	12065.46
491.77	11908.65
491.95	12236.32
492.13	12086.53
492.30	12299.52
492.48	12175.47
492.66	12360.37
492.84	12329.94
493.01	12545.27
493.19	12594.42
493.37	12659.96
493.54	12711.45
493.72	12915.08
493.90	12718.47
494.08	12802.73
494.25	13092.96
494.43	13195.94
494.61	13413.61
494.79	13287.22
494.96	13462.76
495.14	13455.74
495.32	13671.07
495.49	13706.18
495.67	13589.15
495.85	13839.59
496.02	13987.04
496.20	14003.43
496.38	14038.53
496.55	14143.86
496.73	14312.38
496.91	14181.31
497.09	14375.57
497.26	14459.83
497.44	14008.11
497.62	14640.05
497.79	14546.43
497.97	14703.25
498.14	14764.10
498.32	14911.55
498.50	15073.05
498.67	15019.22
498.85	14815.59
499.03	14836.66
499.20	15049.64
499.38	15105.82
499.56	15239.23
499.73	15250.93
499.91	15587.97
500.08	15314.13
500.26	15176.03
500.44	15213.48
500.61	15487.32
500.79	15391.36
500.97	15782.23
501.14	15967.13
501.32	15861.81
501.49	15871.17
501.67	15974.16
501.84	15875.85
502.02	15941.39
502.20	15932.03
502.37	16313.53
502.55	16032.67
502.72	16395.45
502.90	16421.20
503.07	16175.44
503.25	16126.29
503.43	15992.88
503.60	16486.73
503.78	16477.37
503.95	16489.07
504.13	16737.17
504.30	16730.15
504.48	16542.91
504.65	17003.99
504.83	16835.47
505.01	17015.69
505.18	16950.16
505.36	17441.67
505.53	17088.25
505.71	17146.76
505.88	17231.02
506.06	17551.68
506.23	17439.33
506.41	17539.97
506.58	17610.19
506.76	17455.72
506.93	17968.29
507.11	17504.87
507.28	17509.55
507.46	17579.76
507.63	17549.34
507.81	17708.49
507.98	17657.00
508.16	17891.06
508.33	17614.87
508.50	17853.61
508.68	17771.69
508.85	18024.47
509.03	18143.83
509.20	18225.75
509.38	18258.52
509.55	18389.59
509.73	18455.12
509.90	18633.00
510.08	18204.69
510.25	18331.08
510.42	18600.24
510.60	18801.52
510.77	18682.16
510.95	18974.72
511.12	18457.46
511.30	18534.70
511.47	18750.03
511.64	18583.85
511.82	19215.80
511.99	18972.38
512.17	18946.64
512.34	18944.30
512.51	19070.68
512.69	19309.42
512.86	19194.73
513.04	19267.29
513.21	19482.62
513.38	19735.40
513.56	19463.90
513.73	19398.36
513.90	19356.23
514.08	19606.67
514.25	19597.31
514.43	20013.92
514.60	19910.94
514.77	20037.33
514.95	19992.86
515.12	19716.67
515.29	19873.49
515.47	20112.22
515.64	20292.44
515.81	19854.76
515.99	19985.83
516.16	19964.77
516.33	20622.46
516.51	20418.83
516.68	20137.97
516.85	19978.81
517.03	20409.47
517.20	20793.32
517.37	20599.05
517.54	20748.85
517.72	20739.49
517.89	20446.92
518.06	20554.58
518.24	20816.72
518.41	20896.30
518.58	20676.29
518.75	20917.37
518.93	20992.26
519.10	21064.82
519.27	21097.59
519.45	21046.10
519.62	21120.99
519.79	21441.65
519.96	21020.35
520.14	21071.84
520.31	21270.79
520.48	21373.77
520.65	20886.94
520.83	21277.81
521.00	21439.31
521.17	21186.53
521.34	21474.42
521.52	21600.80
521.69	21687.40
521.86	21614.85
522.03	21806.77
522.20	21935.50
522.38	21937.84
522.55	21783.37
522.72	21811.45
522.89	22033.80
523.07	22377.86
523.24	21844.22
523.41	22342.75
523.58	21909.75
523.75	22382.54
523.92	22286.58
524.10	22118.06
524.27	22384.88
524.44	22295.94
524.61	22647.02
524.78	22459.78
524.96	22731.28
525.13	22675.11
525.30	22569.79
525.47	22768.73
525.64	22801.50
525.81	22766.39
525.98	22860.01
526.16	22759.37
526.33	22885.76
526.50	23000.44
526.67	22616.60
526.84	22588.51
527.01	22721.92
527.18	23040.23
527.36	23122.15
527.53	23197.05
527.70	23232.16
527.87	23091.73
528.04	23201.73
528.21	23391.31
528.38	23515.36
528.55	23442.81
528.72	23049.60
528.89	23365.57
529.07	23330.46
529.24	23386.63
529.41	23704.95
529.58	23630.05
529.75	23454.51
529.92	23328.12
530.09	23573.88
530.26	23644.09
530.43	23695.58
530.60	23927.30
530.77	23550.47
530.94	23796.23
531.11	24177.73
531.28	23662.82
531.46	24116.88
531.63	23726.01
531.80	23735.37
531.97	24121.56
532.14	24355.61
532.31	24088.79
532.48	24332.21
532.65	24364.98
532.82	24166.03
532.99	24074.75
533.16	24116.88
533.33	24383.70
533.50	24687.97
533.67	24835.42
533.84	24425.83
534.01	24175.39
534.18	24346.25
534.35	24533.50
534.52	24755.85
534.69	24650.52
534.86	24683.29
535.03	24659.88
535.20	24968.84
535.37	24877.55
535.54	24854.15
535.71	24816.70
535.88	24482.00
536.05	24882.24
536.22	24854.15
536.38	24947.77
536.55	24907.98
536.72	24987.56
536.89	25099.90
537.06	25062.46
537.23	25521.20
537.40	25181.82
537.57	25104.59
537.74	24961.81
537.91	25802.07
538.08	25528.22
538.25	25069.48
538.42	25160.76
538.59	25755.26
538.75	25240.34
538.92	25287.15
539.09	25748.23
539.26	25095.22
539.43	25790.36
539.60	25619.50
539.77	25401.83
539.94	25565.67
540.11	25830.15
540.28	25633.55
540.44	25600.78
540.61	25436.94
540.78	25333.96
540.95	25432.26
541.12	25783.34
541.29	25984.63
541.46	25624.18
541.62	25876.96
541.79	25685.04
541.96	25619.50
542.13	26075.91
542.30	26017.40
542.47	25954.20
542.63	25923.77
542.80	26209.32
542.97	26532.31
543.14	26361.45
543.31	26197.62
543.48	26164.85
543.64	26518.27
543.81	26867.01
543.98	26661.04
544.15	26536.99
544.32	26724.24
544.48	26794.45
544.65	26593.17
544.82	26436.35
544.99	26485.50
545.16	26815.52
545.32	26649.34
545.49	26841.26
545.66	26984.04
545.83	26939.57
546.00	26939.57
546.16	26883.39
546.33	26871.69
546.50	26478.48
546.67	27005.10
546.83	26593.17
547.00	26792.11
547.17	26895.10
547.34	27016.80
547.50	27314.05
547.67	26981.70
547.84	27325.75
548.00	27262.56
548.17	27435.76
548.34	27117.45
548.51	27590.24
548.67	27372.57
548.84	27508.32
549.01	27182.98
549.18	27276.60
549.34	27222.77
549.51	27517.68
549.68	27353.84
549.84	27309.37
550.01	27510.66
550.18	27466.19
550.34	27737.69
550.51	27428.74
550.68	27297.67
550.84	27468.53
551.01	27669.81
551.18	27477.89
551.34	26953.61
551.51	27548.11
551.68	27501.29
551.84	27548.11
552.01	28025.57
552.18	27381.93
552.34	27440.44
552.51	28140.26
552.68	27843.01
552.84	28121.54
553.01	27845.35
553.18	27786.84
553.34	27894.50
553.51	27889.82
553.67	28353.25
553.84	28009.19
554.01	28140.26
554.17	27997.49
554.34	28222.18
554.51	28100.47
554.67	28135.58
554.84	28063.02
555.00	28027.92
555.17	28290.06
555.33	28051.32
555.50	28418.78
555.67	28257.29
555.83	28414.10
556.00	28292.40
556.16	27941.32
556.33	28093.45
556.50	28430.49
556.66	28498.36
556.83	28589.64
556.99	28910.30
557.16	28341.55
557.32	28620.07
557.49	28552.20
557.65	28332.18
557.82	28395.38
557.98	28257.29
558.15	28713.69
558.32	28769.86
558.48	28652.84
558.65	28510.07
558.81	28718.37
558.98	28591.98
559.14	28624.75
559.31	28765.18
559.47	28339.21
559.64	28535.81
559.80	28591.98
559.97	28851.78
560.13	28556.88
560.30	28989.88
560.46	28615.39
560.63	28711.35
560.79	28774.55
560.96	28783.91
561.12	28898.59
561.29	28662.20
561.45	28664.54
561.61	28938.38
561.78	28957.11
561.94	28795.61
562.11	29106.90
562.27	29081.16
562.44	29078.82
562.60	28842.42
562.77	28877.53
562.93	28629.43
563.10	28999.24
563.26	29350.32
563.42	29436.92
563.59	29153.71
563.75	29369.04
563.92	29446.28
564.08	29252.02
564.24	28973.49
564.41	28704.33
564.57	28922.00
564.74	29113.92
564.90	29099.88
565.07	29214.57
565.23	29153.71
565.39	29486.07
565.56	29668.63
565.72	29642.88
565.88	29373.72
566.05	29291.80
566.21	28882.21
566.38	29235.63
566.54	29469.69
566.70	29687.36
566.87	29523.52
567.03	29549.26
567.19	29706.08
567.36	29509.47
567.52	29092.86
567.68	29439.26
567.85	29317.55
568.01	29722.46
568.17	29216.91
568.34	29827.79
568.50	29380.74
568.66	29170.10
568.83	29832.47
568.99	29106.90
569.15	29570.33
569.32	29713.10
569.48	29369.04
569.64	29202.86
569.81	29935.45
569.97	29317.55
570.13	29284.78
570.30	29600.76
570.46	29270.74
570.62	29579.69
570.78	29685.01
570.95	29443.94
571.11	29259.04
571.27	29336.27
571.43	29371.38
571.60	29668.63
571.76	29364.36
571.92	29488.41
572.09	29420.53
572.25	29589.05
572.41	29514.16
572.57	30326.32
572.74	29163.08
572.90	29851.19
573.06	29429.90
573.22	29631.18
573.38	29715.44
573.55	29743.53
573.71	29944.81
573.87	29677.99
574.03	29397.13
574.20	29703.74
574.36	29376.06
574.52	29898.00
574.68	29769.27
574.84	29586.71
575.01	29912.05
575.17	29521.18
575.33	29827.79
575.49	29724.80
575.65	30085.25
575.82	29563.31
575.98	29773.95
576.14	29837.15
576.30	30010.35
576.46	29598.41
576.62	29546.92
576.79	29734.17
576.95	29853.53
577.11	30096.95
577.27	29804.38
577.43	29605.44
577.59	29692.04
577.75	29673.31
577.92	29715.44
578.08	29919.07
578.24	29968.22
578.40	29886.30
578.56	29937.79
578.72	30052.48
578.88	30089.93
579.04	30246.74
579.21	30033.75
579.37	30141.42
579.53	30017.37
579.69	29839.49
579.85	29905.02
580.01	29881.62
580.17	30017.37
580.33	29851.19
580.49	29989.28
580.65	29797.36
580.82	30029.07
580.98	29975.24
581.14	29912.05
581.30	29776.30
581.46	29778.64
581.62	29680.33
581.78	29771.61
581.94	29390.11
582.10	29656.93
582.26	30146.10
582.42	30218.66
582.58	30265.47
582.74	29935.45
582.90	29881.62
583.06	30363.77
583.22	29862.90
583.38	29942.47
583.54	29902.68
583.70	29921.41
583.86	30061.84
584.02	30221.00
584.18	29694.38
584.34	30340.36
584.50	30026.73
584.66	29598.41
584.82	30075.88
584.98	30113.33
585.14	29722.46
585.30	29614.80
585.46	29780.98
585.62	29752.89
585.78	30492.50
585.94	29734.17
586.10	30066.52
586.26	30705.49
586.42	30160.14
586.58	30717.19
586.74	29860.55
586.90	30120.35
587.06	29502.45
587.22	29832.47
587.38	29935.45
587.54	30150.78
587.70	30415.26
587.86	30176.53
588.02	30267.81
588.18	30342.70
588.34	30110.99
588.49	30300.58
588.65	29965.88
588.81	30501.86
588.97	30150.78
589.13	30508.88
589.29	30005.67
589.45	30050.14
589.61	30698.47
589.77	30199.93
589.93	30305.26
590.08	30354.41
590.24	30583.78
590.40	30331.00
590.56	30536.97
590.72	30459.73
590.88	30127.38
591.04	30305.26
591.20	30085.25
591.35	30349.73
591.51	30934.86
591.67	30780.39
591.83	30841.24
591.99	30520.59
