SpectraSuite Data File
++++++++++++++++++++++++++++++++++++
Date: Fri Oct 18 13:58:04 GMT-05:00 2013
User: bianchi
Dark Spectrum Present: No
Reference Spectrum Present: No
Number of Sampled Component Spectra: 1
Spectrometers: USB2+H05261
Integration Time (usec): 50000 (USB2+H05261)
Spectra Averaged: 1 (USB2+H05261)
Boxcar Smoothing: 0 (USB2+H05261)
Correct for Electrical Dark: No (USB2+H05261)
Strobe/Lamp Enabled: No (USB2+H05261)
Correct for Detector Non-linearity: No (USB2+H05261)
Correct for Stray Light: No (USB2+H05261)
Number of Pixels in Processed Spectrum: 2048
>>>>>Begin Processed Spectral Data<<<<<
365.73	0.00
365.92	0.00
366.12	0.00
366.32	0.00
366.52	0.00
366.72	0.00
366.91	0.00
367.11	0.00
367.31	0.00
367.51	0.00
367.70	0.00
367.90	0.00
368.10	0.00
368.30	0.00
368.49	0.00
368.69	0.00
368.89	0.00
369.09	0.00
369.28	0.00
369.48	0.00
369.68	0.00
369.87	0.00
370.07	0.00
370.27	0.00
370.47	0.00
370.66	91.28
370.86	98.30
371.06	140.43
371.25	135.75
371.45	191.92
371.65	175.54
371.84	215.33
372.04	114.69
372.24	161.50
372.44	184.90
372.63	173.20
372.83	217.67
373.03	154.48
373.22	224.69
373.42	234.05
373.62	217.67
373.81	262.14
374.01	180.22
374.21	227.03
374.40	278.52
374.60	245.76
374.79	306.61
374.99	217.67
375.19	222.35
375.38	168.52
375.58	222.35
375.78	194.26
375.97	229.37
376.17	271.50
376.37	205.97
376.56	215.33
376.76	269.16
376.95	273.84
377.15	266.82
377.35	325.33
377.54	400.23
377.74	252.78
377.93	299.59
378.13	259.80
378.33	271.50
378.52	262.14
378.72	231.71
378.91	315.97
379.11	339.38
379.31	257.46
379.50	301.93
379.70	234.05
379.89	341.72
380.09	264.48
380.28	297.25
380.48	341.72
380.68	290.23
380.87	257.46
381.07	290.23
381.26	341.72
381.46	322.99
381.65	376.83
381.85	313.63
382.04	337.04
382.24	353.42
382.43	372.15
382.63	308.95
382.83	404.91
383.02	372.15
383.22	360.44
383.41	320.65
383.61	285.55
383.80	334.70
384.00	299.59
384.19	472.79
384.39	440.02
384.58	353.42
384.78	334.70
384.97	395.55
385.17	337.04
385.36	428.32
385.56	365.12
385.75	383.85
385.95	400.23
386.14	423.64
386.34	388.53
386.53	423.64
386.72	440.02
386.92	390.87
387.11	414.27
387.31	451.72
387.50	447.04
387.70	423.64
387.89	379.17
388.09	433.00
388.28	418.96
388.48	423.64
388.67	489.17
388.86	465.77
389.06	386.19
389.25	400.23
389.45	470.45
389.64	543.00
389.84	477.47
390.03	456.40
390.22	543.00
390.42	519.60
390.61	503.22
390.81	561.73
391.00	489.17
391.19	498.53
391.39	545.34
391.58	578.11
391.78	521.94
391.97	519.60
392.16	528.96
392.36	580.45
392.55	543.00
392.75	610.88
392.94	545.34
393.13	547.69
393.33	547.69
393.52	624.92
393.71	543.00
393.91	564.07
394.10	624.92
394.29	517.26
394.49	524.28
394.68	564.07
394.88	568.75
395.07	610.88
395.26	606.20
395.46	601.52
395.65	650.67
395.84	699.82
396.04	629.60
396.23	622.58
396.42	606.20
396.62	631.94
396.81	674.07
397.00	599.18
397.19	678.76
397.39	617.90
397.58	697.48
397.77	734.93
397.97	692.80
398.16	678.76
398.35	660.03
398.55	692.80
398.74	730.25
398.93	840.25
399.12	660.03
399.32	674.07
399.51	711.52
399.70	819.19
399.90	741.95
400.09	788.76
400.28	795.78
400.47	734.93
400.67	781.74
400.86	814.51
401.05	786.42
401.24	786.42
401.44	873.02
401.63	877.70
401.82	795.78
402.01	854.30
402.21	786.42
402.40	833.23
402.59	896.43
402.78	868.34
402.97	858.98
403.17	896.43
403.36	840.25
403.55	833.23
403.74	863.66
403.93	884.72
404.13	905.79
404.32	1001.75
404.51	943.24
404.70	1004.09
404.89	940.90
405.09	971.32
405.28	917.49
405.47	961.96
405.66	1062.60
405.85	954.94
406.05	987.71
406.24	933.87
406.43	1027.50
406.62	1029.84
406.81	1071.97
407.00	1008.77
407.20	1050.90
407.39	1011.11
407.58	1102.39
407.77	1057.92
407.96	1086.01
408.15	1146.86
408.34	1060.26
408.54	1128.14
408.73	1167.93
408.92	1181.97
409.11	1078.99
409.30	1174.95
409.49	1123.46
409.68	1156.22
409.87	1200.69
410.07	1217.08
410.26	1303.68
410.45	1214.74
410.64	1156.22
410.83	1231.12
411.02	1254.53
411.21	1210.06
411.40	1238.14
411.59	1334.11
411.78	1303.68
411.98	1315.38
412.17	1320.06
412.36	1226.44
412.55	1334.11
412.74	1306.02
412.93	1338.79
413.12	1296.66
413.31	1371.55
413.50	1404.32
413.69	1352.83
413.88	1533.05
414.07	1462.83
414.26	1437.09
414.45	1413.68
414.64	1561.14
414.83	1504.96
415.02	1432.41
415.22	1636.03
415.41	1516.67
415.60	1549.43
415.79	1640.72
415.98	1610.29
416.17	1643.06
416.36	1516.67
416.55	1638.38
416.74	1715.61
416.93	1636.03
417.12	1781.15
417.31	1790.51
417.50	1703.91
417.69	1863.07
417.88	1757.74
418.07	1788.17
418.26	1722.63
418.45	1842.00
418.64	1921.58
418.83	1863.07
419.02	1846.68
419.21	1781.15
419.39	1837.32
419.58	1909.88
419.77	1799.87
419.96	1909.88
420.15	1830.30
420.34	1781.15
420.53	1944.99
420.72	1923.92
420.91	1998.82
421.10	1998.82
421.29	1923.92
421.48	1959.03
421.67	1980.09
421.86	1956.69
422.05	2043.29
422.24	1825.62
422.43	1942.64
422.61	2005.84
422.80	2073.71
422.99	2062.01
423.18	2094.78
423.37	2022.22
423.56	1982.43
423.75	1994.14
423.94	1940.30
424.13	1863.07
424.32	1944.99
424.50	2033.93
424.69	2094.78
424.88	2078.40
425.07	2132.23
425.26	2008.18
425.45	2008.18
425.64	2005.84
425.83	1963.71
426.01	2237.55
426.20	2052.65
426.39	2033.93
426.58	2087.76
426.77	2115.84
426.96	2022.22
427.15	2108.82
427.33	2139.25
427.52	2136.91
427.71	2277.34
427.90	2190.74
428.09	2181.38
428.28	2251.60
428.46	2251.60
428.65	2249.25
428.84	2265.64
429.03	2275.00
429.22	2183.72
429.40	2214.15
429.59	2408.41
429.78	2115.84
429.97	2146.27
430.16	2314.79
430.34	2363.94
430.53	2293.72
430.72	2246.91
430.91	2289.04
431.10	2392.03
431.28	2345.22
431.47	2464.58
431.66	2445.86
431.85	2385.01
432.03	2471.61
432.22	2483.31
432.41	2445.86
432.60	2413.09
432.79	2480.97
432.97	2455.22
433.16	2516.08
433.35	2495.01
433.54	2546.50
433.72	2569.91
433.91	2424.80
434.10	2497.35
434.28	2504.37
434.47	2450.54
434.66	2558.21
434.85	2635.44
435.03	2640.12
435.22	2560.55
435.41	2593.31
435.59	2759.49
435.78	2775.88
435.97	2715.02
436.16	2637.78
436.34	2757.15
436.53	2700.98
436.72	2827.37
436.90	2651.83
437.09	2761.83
437.28	2565.23
437.46	2916.31
437.65	2626.08
437.84	2715.02
438.02	2747.79
438.21	2883.54
438.40	2722.04
438.58	2787.58
438.77	2909.29
438.96	2930.35
439.14	2951.42
439.33	3005.25
439.52	2888.22
439.70	2953.76
439.89	3122.27
440.08	3063.76
440.26	3012.27
440.45	3131.64
440.63	3141.00
440.82	3138.66
441.01	3201.85
441.19	3236.96
441.38	3061.42
441.57	3159.72
441.75	3236.96
441.94	3377.39
442.12	3269.73
442.31	3328.24
442.50	3302.50
442.68	3234.62
442.87	3384.41
443.05	3370.37
443.24	3578.68
443.43	3414.84
443.61	3557.61
443.80	3548.25
443.98	3496.76
444.17	3398.46
444.35	3569.32
444.54	3485.06
444.73	3494.42
444.91	3534.21
445.10	3487.40
445.28	3513.14
445.47	3407.82
445.65	3592.72
445.84	3623.15
446.02	3672.30
446.21	3461.65
446.39	3517.83
446.58	3616.13
446.77	3585.70
446.95	3487.40
447.14	3473.36
447.32	3686.34
447.51	3562.30
447.69	3480.38
447.88	3501.44
448.06	3506.12
448.25	3583.36
448.43	3564.64
448.62	3592.72
448.80	3557.61
448.99	3606.77
449.17	3688.68
449.36	3726.13
449.54	3744.86
449.73	3772.94
449.91	3803.37
450.10	3824.44
450.28	3674.64
450.46	3803.37
450.65	3819.75
450.83	3775.28
451.02	3868.91
451.20	3784.65
451.39	3882.95
451.57	3843.16
451.76	3768.26
451.94	3772.94
452.13	3960.19
452.31	3978.91
452.49	3904.01
452.68	3953.16
452.86	3943.80
453.05	3967.21
453.23	3866.56
453.42	3885.29
453.60	3904.01
453.78	4021.04
453.97	4056.15
454.15	4009.34
454.34	4023.38
454.52	4105.30
454.70	4231.69
454.89	4138.07
455.07	4114.66
455.26	4081.89
455.44	4126.36
455.62	4025.72
455.81	4077.21
455.99	4198.92
456.17	4196.58
456.36	4173.18
456.54	4231.69
456.73	4290.20
456.91	4383.82
457.09	4318.29
457.28	4440.00
457.46	4308.93
457.64	4344.03
457.83	4486.81
458.01	4348.72
458.19	4542.98
458.38	4468.08
458.56	4432.97
458.74	4524.26
458.93	4500.85
459.11	4416.59
459.29	4524.26
459.48	4561.70
459.66	4564.04
459.84	4657.67
460.03	4723.20
460.21	4643.62
460.39	4557.02
460.57	4550.00
460.76	4610.86
460.94	4816.82
461.12	4475.10
461.31	4652.98
461.49	4685.75
461.67	4638.94
461.85	4784.06
462.04	4734.90
462.22	5095.35
462.40	4966.62
462.59	4809.80
462.77	5006.41
462.95	4901.08
463.13	4858.95
463.32	4830.87
463.50	4847.25
463.68	4990.02
463.86	4849.59
464.05	4826.18
464.23	4905.76
464.41	5011.09
464.59	4910.44
464.78	4994.70
464.96	5095.35
465.14	5053.22
465.32	5069.60
465.50	5018.11
465.69	5160.88
465.87	4983.00
466.05	5128.11
466.23	4999.38
466.41	5210.03
466.60	5334.08
466.78	5179.61
466.96	5111.73
467.14	4933.85
467.32	5111.73
467.51	5184.29
467.69	5018.11
467.87	5231.10
468.05	5050.88
468.23	5235.78
468.41	5193.65
468.60	5280.25
468.78	5261.52
468.96	5322.38
469.14	5275.57
469.32	5296.63
469.50	5364.51
469.69	5261.52
469.87	5568.13
470.05	5638.35
470.23	5390.25
470.41	5509.62
470.59	5631.33
470.77	5526.00
470.95	5605.58
471.14	5678.14
471.32	5511.96
471.50	5624.31
471.68	5643.03
471.86	5738.99
472.04	5706.23
472.22	5769.42
472.40	5591.54
472.58	5614.95
472.77	5788.14
472.95	5872.40
473.13	6069.01
473.31	5940.28
473.49	6019.86
473.67	5816.23
473.85	5980.07
474.03	5827.93
474.21	6003.47
474.39	6118.16
474.57	6179.01
474.75	6134.54
474.93	6239.87
475.12	6258.59
475.30	6209.44
475.48	6289.02
475.66	6338.17
475.84	6497.33
476.02	6628.40
476.20	6260.93
476.38	6490.31
476.56	6642.44
476.74	6621.38
476.92	6553.50
477.10	6691.59
477.28	6871.81
477.46	6731.38
477.64	6693.93
477.82	6998.20
478.00	7173.74
478.18	6944.37
478.36	6939.69
478.54	7133.95
478.72	7222.89
478.90	7253.32
479.08	7201.83
479.26	7339.92
479.44	7239.28
479.62	7571.63
479.80	7461.63
479.98	7459.29
480.16	7620.78
480.34	7688.66
480.52	7632.49
480.70	7728.45
480.88	7613.76
481.06	7885.26
481.24	7655.89
481.41	7887.61
481.59	8091.23
481.77	8145.06
481.95	8203.58
482.13	8365.07
482.31	8124.00
482.49	8374.44
482.67	8423.59
482.85	8351.03
483.03	8648.28
483.21	8681.05
483.39	8777.01
483.57	8725.52
483.74	8779.35
483.92	8833.18
484.10	8957.23
484.28	8985.32
484.46	9334.06
484.64	9432.36
484.82	9198.31
485.00	9219.37
485.18	9493.21
485.35	9509.60
485.53	9493.21
485.71	9547.05
485.89	9863.02
486.07	9713.22
486.25	9668.75
486.43	9867.70
486.61	10134.52
486.78	10169.63
486.96	9949.62
487.14	10366.23
487.32	10300.70
487.50	10284.31
487.68	10307.72
487.85	10541.77
488.03	10319.42
488.21	10778.17
488.39	10588.58
488.57	10817.96
488.75	10850.72
488.92	10874.13
489.10	11040.31
489.28	11225.21
489.46	11159.67
489.64	11162.01
489.81	11557.57
489.99	11632.46
490.17	11503.73
490.35	11487.35
490.53	11653.53
490.70	11749.49
490.88	11791.62
491.06	12149.72
491.24	12030.35
491.41	12046.74
491.59	12030.35
491.77	12100.57
491.95	12549.95
492.13	12355.69
492.30	12374.41
492.48	12355.69
492.66	12542.93
492.84	12503.14
493.01	12791.03
493.19	12835.50
493.37	12938.48
493.54	12828.48
493.72	13034.44
493.90	12861.24
494.08	13153.81
494.25	13359.78
494.43	13418.29
494.61	13483.83
494.79	13317.65
494.96	13327.01
495.14	13757.67
495.32	13757.67
495.49	13783.41
495.67	13895.76
495.85	13949.59
496.02	13940.23
496.20	14085.34
496.38	14429.40
496.55	14134.50
496.73	14438.76
496.91	14359.19
497.09	14478.55
497.26	14452.81
497.44	14656.43
497.62	14707.93
497.79	14829.63
497.97	14850.70
498.14	15136.24
498.32	15122.20
498.50	15007.52
498.67	15452.22
498.85	15021.56
499.03	15295.40
499.20	15283.70
499.38	15372.64
499.56	15330.51
499.73	15501.37
499.91	15620.74
500.08	15452.22
500.26	15569.24
500.44	15620.74
500.61	15707.34
500.79	15800.96
500.97	15903.94
501.14	16044.37
501.32	16009.26
501.49	16065.44
501.67	16112.25
501.84	16201.19
502.02	16112.25
502.20	16322.90
502.37	16503.12
502.55	16362.69
502.72	16231.62
502.90	16318.22
503.07	16596.74
503.25	16664.61
503.43	16676.32
503.60	16496.10
503.78	16732.49
503.95	16702.06
504.13	16645.89
504.30	16629.51
504.48	17032.08
504.65	16891.65
504.83	17184.21
505.01	17390.18
505.18	17123.36
505.36	17303.58
505.53	17280.18
505.71	17348.05
505.88	17668.70
506.06	17280.18
506.23	17600.83
506.41	17612.53
506.58	17788.07
506.76	17790.41
506.93	17640.62
507.11	17591.47
507.28	17722.54
507.46	17933.18
507.63	18136.81
507.81	18209.37
507.98	17673.39
508.16	18106.38
508.33	18080.64
508.50	18015.10
508.68	18270.22
508.85	18464.49
509.03	18380.23
509.20	18604.92
509.38	18721.95
509.55	18827.27
509.73	18705.56
509.90	18576.83
510.08	18761.73
510.25	18532.36
510.42	18991.11
510.60	18939.62
510.77	19054.30
510.95	19098.77
511.12	18918.55
511.30	19250.91
511.47	19044.94
511.64	19040.26
511.82	19480.28
511.99	19321.12
512.17	19337.51
512.34	19300.06
512.51	19555.18
512.69	19690.93
512.86	19637.09
513.04	19733.06
513.21	19761.14
513.38	19686.25
513.56	19477.94
513.73	19889.87
513.90	19887.53
514.08	20009.24
514.25	20217.55
514.43	20002.22
514.60	20339.26
514.77	19992.86
514.95	20135.63
515.12	20198.82
515.29	20231.59
515.47	20198.82
515.64	20503.09
515.81	20233.93
515.99	20383.73
516.16	20748.85
516.33	20765.23
516.51	20849.49
516.68	20570.97
516.85	20692.68
517.03	20535.86
517.20	20664.59
517.37	20861.19
517.54	20882.26
517.72	20833.11
517.89	21062.48
518.06	20828.43
518.24	20879.92
518.41	20702.04
518.58	21102.27
518.75	20938.43
518.93	21135.04
519.10	21076.52
519.27	21645.27
519.45	21364.41
519.62	21263.77
519.79	21289.51
519.96	21425.26
520.14	21322.28
520.31	21261.43
520.48	21673.36
520.65	21757.62
520.83	21617.19
521.00	21495.48
521.17	21797.41
521.34	21720.17
521.52	21633.57
521.69	22178.92
521.86	21972.95
522.03	21998.70
522.20	22551.06
522.38	22141.47
522.55	22101.68
522.72	22239.77
522.89	22195.30
523.07	22359.14
523.24	22352.12
523.41	22291.26
523.58	22359.14
523.75	22560.42
523.92	22335.73
524.10	22562.76
524.27	22845.97
524.44	22794.48
524.61	22822.56
524.78	22944.27
524.96	22759.37
525.13	23035.55
525.30	22883.42
525.47	22909.16
525.64	22871.72
525.81	23110.45
525.98	22860.01
526.16	23131.51
526.33	23150.24
526.50	23440.47
526.67	23215.77
526.84	23175.98
527.01	23590.26
527.18	23325.78
527.36	23784.52
527.53	23840.70
527.70	23564.51
527.87	23810.27
528.04	23646.43
528.21	23669.84
528.38	23861.76
528.55	23817.29
528.72	23770.48
528.89	23831.33
529.07	23590.26
529.24	23721.33
529.41	23948.36
529.58	23828.99
529.75	23690.90
529.92	23651.11
530.09	24273.70
530.26	23922.62
530.43	24067.73
530.60	23934.32
530.77	23924.96
530.94	24173.05
531.11	23936.66
531.28	24355.61
531.46	24453.92
531.63	24545.20
531.80	24620.10
531.97	24482.00
532.14	24453.92
532.31	24369.66
532.48	24680.95
532.65	24702.01
532.82	24437.53
532.99	24758.19
533.16	24741.80
533.33	24545.20
533.50	25025.01
533.67	24917.34
533.84	24725.42
534.01	24416.47
534.18	24683.29
534.35	25067.14
534.52	24985.22
534.69	24950.11
534.86	25228.63
535.03	24891.60
535.20	25195.87
535.37	25486.09
535.54	25476.73
535.71	24884.58
535.88	25256.72
536.05	25394.81
536.22	25184.16
536.38	25820.79
536.55	25563.33
536.72	25502.48
536.89	25163.10
537.06	25123.31
537.23	25514.18
537.40	25432.26
537.57	25668.66
537.74	25516.52
537.91	26401.24
538.08	25450.99
538.25	25748.23
538.42	25720.15
538.59	25785.68
538.75	25635.89
538.92	25741.21
539.09	25830.15
539.26	25565.67
539.43	25757.60
539.60	26291.24
539.77	25710.78
539.94	26174.21
540.11	25965.90
540.28	25783.34
540.44	26078.25
540.61	25900.37
540.78	26204.64
540.95	26192.94
541.12	25935.48
541.29	26270.17
541.46	26356.77
541.62	26590.83
541.79	26373.16
541.96	26103.99
542.13	26279.54
542.30	26265.49
542.47	26663.38
542.63	26553.38
542.80	26651.68
542.97	26768.71
543.14	26707.85
543.31	26906.80
543.48	26647.00
543.64	26890.41
543.81	27019.14
543.98	27065.96
544.15	26927.86
544.32	27002.76
544.48	27466.19
544.65	27089.36
544.82	26960.63
544.99	26843.60
545.16	27276.60
545.32	27103.40
545.49	27381.93
545.66	27119.79
545.83	27344.48
546.00	27587.89
546.16	27534.06
546.33	27112.77
546.50	27122.13
546.67	27250.86
546.83	27243.84
547.00	27222.77
547.17	27185.32
547.34	27377.25
547.50	27845.35
547.67	27662.79
547.84	27761.09
548.00	27683.86
548.17	27901.53
548.34	27637.05
548.51	27707.26
548.67	28163.67
548.84	27791.52
549.01	27648.75
549.18	27435.76
549.34	27545.76
549.51	27634.71
549.68	27761.09
549.84	28023.23
550.01	28240.90
550.18	27601.94
550.34	27922.59
550.51	27983.44
550.68	28603.69
550.84	27934.29
551.01	28037.28
551.18	28584.96
551.34	27878.12
551.51	28194.09
551.68	28229.20
551.84	28397.72
552.01	27784.50
552.18	28362.61
552.34	28313.46
552.51	28458.57
552.68	28107.49
552.84	28198.77
553.01	28332.18
553.18	28428.15
553.34	28334.53
553.51	28292.40
553.67	28858.81
553.84	28629.43
554.01	28500.70
554.17	28596.67
554.34	28694.97
554.51	28414.10
554.67	28657.52
554.84	28563.90
555.00	28730.08
555.17	28458.57
555.33	28706.67
555.50	28720.71
555.67	28409.42
555.83	28975.83
556.00	28549.85
556.16	29355.00
556.33	28568.58
556.50	28907.96
556.66	29130.31
556.83	28739.44
556.99	29352.66
557.16	29165.42
557.32	28966.47
557.49	29137.33
557.65	28861.15
557.82	28685.61
557.98	29048.39
558.15	29406.49
558.32	29446.28
558.48	28971.15
558.65	29064.77
558.81	29312.87
558.98	28868.17
559.14	28982.85
559.31	28624.75
559.47	28989.88
559.64	29184.14
559.80	29259.04
559.97	29092.86
560.13	29085.84
560.30	29434.58
560.46	29598.41
560.63	29275.42
560.79	29418.19
560.96	29369.04
561.12	29202.86
561.29	29048.39
561.45	29589.05
561.61	29350.32
561.78	29486.07
561.94	29621.82
562.11	29486.07
562.27	29542.24
562.44	29846.51
562.60	29284.78
562.77	29713.10
562.93	28964.13
563.10	29673.31
563.26	29647.57
563.42	29879.28
563.59	29898.00
563.75	29308.19
563.92	29886.30
564.08	29326.91
564.24	29605.44
564.41	29359.68
564.57	29373.72
564.74	29273.08
564.90	29766.93
565.07	29846.51
565.23	29717.78
565.39	29701.40
565.56	29902.68
565.72	29525.86
565.88	29912.05
566.05	29553.94
566.21	29795.02
566.38	29806.72
566.54	29448.62
566.70	30485.48
566.87	29975.24
567.03	29951.84
567.19	30141.42
567.36	29895.66
567.52	29879.28
567.68	30132.06
567.85	29603.10
568.01	29923.75
568.17	29965.88
568.34	30204.61
568.50	29996.31
568.66	29696.72
568.83	30265.47
568.99	30089.93
569.15	29736.51
569.32	29776.30
569.48	29895.66
569.64	29970.56
569.81	30052.48
569.97	30089.93
570.13	30073.54
570.30	29844.17
570.46	29848.85
570.62	30026.73
570.78	30024.39
570.95	29792.68
571.11	30092.27
571.27	29799.70
571.43	29937.79
571.60	30504.20
571.76	29823.11
571.92	30223.34
572.09	30312.28
572.25	30515.90
572.41	30569.74
572.57	30134.40
572.74	30345.05
572.90	30300.58
573.06	29853.53
573.22	30122.69
573.38	30045.46
573.55	30197.59
573.71	30211.64
573.87	30354.41
574.03	30331.00
574.20	30513.56
574.36	30361.43
574.52	30270.15
574.68	30363.77
574.84	30548.67
575.01	30487.82
575.17	30389.52
575.33	30253.76
575.49	30335.68
575.65	30396.54
575.82	30288.87
575.98	30298.23
576.14	30143.76
576.30	30237.38
576.46	30216.32
576.62	30354.41
576.79	30359.09
576.95	30118.01
577.11	30721.87
577.27	30312.28
577.43	30670.38
577.59	30642.29
577.75	30068.86
577.92	30036.09
578.08	29916.73
578.24	30405.90
578.40	30075.88
578.56	30382.49
578.72	30525.27
578.88	30581.44
579.04	30810.81
579.21	30272.49
579.37	30604.84
579.53	30455.05
579.69	30235.04
579.85	29991.62
580.01	30286.53
580.17	30284.19
580.33	30223.34
580.49	30347.39
580.65	30448.03
580.82	30654.00
580.98	30848.26
581.14	30429.30
581.30	30646.97
581.46	30232.70
581.62	30452.71
581.78	30075.88
581.94	30654.00
582.10	30216.32
582.26	30256.11
582.42	30911.46
582.58	30398.88
582.74	30185.89
582.90	30565.06
583.06	30635.27
583.22	30536.97
583.38	30274.83
583.54	30274.83
583.70	30452.71
583.86	30621.23
584.02	30501.86
584.18	30625.91
584.34	30511.22
584.50	30838.90
584.66	30302.92
584.82	30515.90
584.98	30974.65
585.14	30567.40
585.30	30272.49
585.46	30611.87
585.62	30089.93
585.78	30410.58
585.94	30375.47
586.10	30487.82
586.26	30412.92
586.42	30387.18
586.58	30782.73
586.74	30448.03
586.90	30403.56
587.06	30677.40
587.22	30672.72
587.38	30389.52
587.54	30654.00
587.70	30581.44
587.86	30487.82
588.02	30890.39
588.18	31211.04
588.34	30548.67
588.49	30719.53
588.65	30831.88
588.81	30597.82
588.97	30848.26
589.13	30719.53
589.29	30782.73
589.45	30464.41
589.61	30902.09
589.77	30955.93
589.93	31152.53
590.08	31435.74
590.24	30670.38
590.40	31229.77
590.56	30698.47
590.72	30698.47
590.88	30724.21
591.04	30656.34
591.20	30993.37
591.35	31182.96
591.51	31335.09
591.67	30930.18
591.83	31227.43
