SpectraSuite Data File
++++++++++++++++++++++++++++++++++++
Date: Fri Oct 18 13:58:07 GMT-05:00 2013
User: bianchi
Dark Spectrum Present: No
Reference Spectrum Present: No
Number of Sampled Component Spectra: 1
Spectrometers: USB2+H05261
Integration Time (usec): 50000 (USB2+H05261)
Spectra Averaged: 1 (USB2+H05261)
Boxcar Smoothing: 0 (USB2+H05261)
Correct for Electrical Dark: No (USB2+H05261)
Strobe/Lamp Enabled: No (USB2+H05261)
Correct for Detector Non-linearity: No (USB2+H05261)
Correct for Stray Light: No (USB2+H05261)
Number of Pixels in Processed Spectrum: 2048
>>>>>Begin Processed Spectral Data<<<<<
365.73	0.00
365.92	0.00
366.12	0.00
366.32	0.00
366.52	0.00
366.72	0.00
366.91	0.00
367.11	0.00
367.31	0.00
367.51	0.00
367.70	0.00
367.90	0.00
368.10	0.00
368.30	0.00
368.49	0.00
368.69	0.00
368.89	0.00
369.09	0.00
369.28	0.00
369.48	0.00
369.68	0.00
369.87	0.00
370.07	0.00
370.27	0.00
370.47	0.00
370.66	25.75
370.86	102.98
371.06	67.88
371.25	166.18
371.45	133.41
371.65	205.97
371.84	154.48
372.04	222.35
372.24	173.20
372.44	88.94
372.63	276.18
372.83	196.60
373.03	205.97
373.22	243.42
373.42	189.58
373.62	224.69
373.81	224.69
374.01	238.73
374.21	224.69
374.40	198.95
374.60	238.73
374.79	297.25
374.99	243.42
375.19	252.78
375.38	280.86
375.58	224.69
375.78	306.61
375.97	320.65
376.17	285.55
376.37	337.04
376.56	273.84
376.76	252.78
376.95	257.46
377.15	287.89
377.35	287.89
377.54	285.55
377.74	311.29
377.93	315.97
378.13	262.14
378.33	280.86
378.52	294.91
378.72	257.46
378.91	299.59
379.11	252.78
379.31	285.55
379.50	360.44
379.70	360.44
379.89	280.86
380.09	351.08
380.28	252.78
380.48	372.15
380.68	194.26
380.87	280.86
381.07	334.70
381.26	390.87
381.46	278.52
381.65	332.36
381.85	280.86
382.04	346.40
382.24	322.99
382.43	365.12
382.63	315.97
382.83	381.51
383.02	365.12
383.22	320.65
383.41	379.17
383.61	355.76
383.80	383.85
384.00	325.33
384.19	386.19
384.39	447.04
384.58	425.98
384.78	376.83
384.97	437.68
385.17	393.21
385.36	397.89
385.56	379.17
385.75	353.42
385.95	393.21
386.14	458.74
386.34	407.25
386.53	365.12
386.72	402.57
386.92	433.00
387.11	491.51
387.31	416.62
387.50	458.74
387.70	402.57
387.89	477.47
388.09	468.11
388.28	444.70
388.48	458.74
388.67	430.66
388.86	451.72
389.06	493.85
389.25	472.79
389.45	524.28
389.64	526.62
389.84	543.00
390.03	524.28
390.22	531.30
390.42	454.06
390.61	533.64
390.81	472.79
391.00	482.15
391.19	451.72
391.39	545.34
391.58	557.05
391.78	498.53
391.97	608.54
392.16	496.19
392.36	528.96
392.55	526.62
392.75	517.26
392.94	484.49
393.13	547.69
393.33	596.84
393.52	475.13
393.71	468.11
393.91	596.84
394.10	550.03
394.29	575.77
394.49	613.22
394.68	615.56
394.88	573.43
395.07	664.71
395.26	578.11
395.46	599.18
395.65	620.24
395.84	573.43
396.04	706.84
396.23	599.18
396.42	669.39
396.62	629.60
396.81	641.31
397.00	664.71
397.19	636.63
397.39	692.80
397.58	655.35
397.77	718.54
397.97	662.37
398.16	697.48
398.35	699.82
398.55	685.78
398.74	667.05
398.93	695.14
399.12	671.73
399.32	741.95
399.51	767.70
399.70	723.23
399.90	706.84
400.09	753.65
400.28	866.00
400.47	765.36
400.67	891.74
400.86	826.21
401.05	821.53
401.24	802.80
401.44	821.53
401.63	720.88
401.82	751.31
402.01	847.27
402.21	812.17
402.40	793.44
402.59	898.77
402.78	919.83
402.97	847.27
403.17	875.36
403.36	866.00
403.55	973.66
403.74	896.43
403.93	933.87
404.13	903.45
404.32	898.77
404.51	884.72
404.70	903.45
404.89	987.71
405.09	994.73
405.28	992.39
405.47	917.49
405.66	1057.92
405.85	1060.26
406.05	1048.56
406.24	1046.22
406.43	973.66
406.62	1078.99
406.81	1107.07
407.00	1046.22
407.20	1015.79
407.39	983.02
407.58	1060.26
407.77	1055.58
407.96	1034.52
408.15	1149.20
408.34	1200.69
408.54	1050.90
408.73	1071.97
408.92	1174.95
409.11	1111.75
409.30	1109.41
409.49	1172.61
409.68	1200.69
409.87	1116.44
410.07	1123.46
410.26	1235.80
410.45	1203.04
410.64	1109.41
410.83	1151.54
411.02	1137.50
411.21	1226.44
411.40	1200.69
411.59	1336.45
411.78	1224.10
411.98	1320.06
412.17	1313.04
412.36	1221.76
412.55	1282.61
412.74	1336.45
412.93	1369.21
413.12	1238.14
413.31	1352.83
413.50	1338.79
413.69	1458.15
413.88	1483.90
414.07	1500.28
414.26	1514.33
414.45	1460.49
414.64	1483.90
414.83	1448.79
415.02	1558.80
415.22	1563.48
415.41	1572.84
415.60	1504.96
415.79	1633.69
415.98	1657.10
416.17	1624.33
416.36	1612.63
416.55	1547.09
416.74	1736.68
416.93	1654.76
417.12	1624.33
417.31	1692.21
417.50	1671.14
417.69	1764.76
417.88	1631.35
418.07	1755.40
418.26	1739.02
418.45	1790.51
418.64	1902.86
418.83	1827.96
419.02	1809.23
419.21	1874.77
419.39	1732.00
419.58	1888.81
419.77	1776.47
419.96	1809.23
420.15	1858.39
420.34	1849.02
420.53	1949.67
420.72	1788.17
420.91	1947.33
421.10	1930.94
421.29	2076.06
421.48	1959.03
421.67	1935.62
421.86	2008.18
422.05	2022.22
422.24	2078.40
422.43	2043.29
422.61	1980.09
422.80	1944.99
422.99	1975.41
423.18	2001.16
423.37	2106.48
423.56	1975.41
423.75	2050.31
423.94	2001.16
424.13	1949.67
424.32	1851.36
424.50	2040.95
424.69	2024.56
424.88	2221.17
425.07	2008.18
425.26	2022.22
425.45	2134.57
425.64	2029.24
425.83	2054.99
426.01	2097.12
426.20	2050.31
426.39	2083.08
426.58	2078.40
426.77	2146.27
426.96	2134.57
427.15	2054.99
427.33	2076.06
427.52	2160.31
427.71	2071.37
427.90	2195.42
428.09	2157.97
428.28	2162.66
428.46	2211.81
428.65	2251.60
428.84	2331.17
429.03	2300.75
429.22	2183.72
429.40	2310.11
429.59	2335.85
429.78	2094.78
429.97	2197.76
430.16	2125.21
430.34	2380.32
430.53	2370.96
430.72	2349.90
430.91	2373.30
431.10	2349.90
431.28	2347.56
431.47	2516.08
431.66	2389.69
431.85	2359.26
432.03	2480.97
432.22	2499.69
432.41	2424.80
432.60	2422.45
432.79	2459.90
432.97	2532.46
433.16	2443.52
433.35	2429.48
433.54	2518.42
433.72	2581.61
433.91	2579.27
434.10	2523.10
434.28	2558.21
434.47	2602.68
434.66	2590.97
434.85	2651.83
435.03	2729.06
435.22	2616.72
435.41	2747.79
435.59	2689.28
435.78	2551.18
435.97	2717.36
436.16	2677.57
436.34	2829.71
436.53	2689.28
436.72	2726.72
436.90	2588.63
437.09	2726.72
437.28	2679.91
437.46	2803.96
437.65	2750.13
437.84	2888.22
438.02	2745.45
438.21	2834.39
438.40	2773.53
438.58	2841.41
438.77	2988.86
438.96	2956.10
439.14	3019.29
439.33	2864.82
439.52	2993.55
439.70	3075.46
439.89	3016.95
440.08	3059.08
440.26	3122.27
440.45	2974.82
440.63	3110.57
440.82	3178.45
441.01	3162.06
441.19	3243.98
441.38	3302.50
441.57	3260.37
441.75	3267.39
441.94	3194.83
442.12	3382.07
442.31	3421.86
442.50	3358.67
442.68	3368.03
442.87	3297.81
443.05	3332.92
443.24	3433.57
443.43	3403.14
443.61	3335.26
443.80	3522.51
443.98	3356.33
444.17	3234.62
444.35	3375.05
444.54	3482.72
444.73	3588.04
444.91	3508.46
445.10	3389.10
445.28	3480.38
445.47	3318.88
445.65	3499.10
445.84	3578.68
446.02	3531.87
446.21	3548.25
446.39	3482.72
446.58	3548.25
446.77	3646.55
446.95	3496.76
447.14	3595.06
447.32	3665.28
447.51	3534.21
447.69	3368.03
447.88	3468.67
448.06	3691.02
448.25	3480.38
448.43	3552.93
448.62	3555.27
448.80	3548.25
448.99	3557.61
449.17	3651.24
449.36	3665.28
449.54	3693.37
449.73	3707.41
449.91	3768.26
450.10	3721.45
450.28	3794.01
450.46	3843.16
450.65	3744.86
450.83	3721.45
451.02	3852.52
451.20	3854.86
451.39	3864.22
451.57	3857.20
451.76	3810.39
451.94	3803.37
452.13	3925.08
452.31	3999.98
452.49	3939.12
452.68	4007.00
452.86	3871.25
453.05	3857.20
453.23	3988.27
453.42	3929.76
453.60	3915.72
453.78	3950.82
453.97	3904.01
454.15	3882.95
454.34	3871.25
454.52	4072.53
454.70	3964.87
454.89	4114.66
455.07	4112.32
455.26	4140.41
455.44	4152.11
455.62	4084.23
455.81	4189.56
455.99	4215.30
456.17	4180.20
456.36	4257.43
456.54	4217.65
456.73	4219.99
456.91	4365.10
457.09	4285.52
457.28	4418.93
457.46	4320.63
457.64	4447.02
457.83	4383.82
458.01	4369.78
458.19	4407.23
458.38	4351.06
458.56	4472.76
458.74	4477.44
458.93	4440.00
459.11	4610.86
459.29	4489.15
459.48	4622.56
459.66	4456.38
459.84	4531.28
460.03	4730.22
460.21	4580.43
460.39	4313.61
460.57	4550.00
460.76	4669.37
460.94	4718.52
461.12	4622.56
461.31	4655.33
461.49	4622.56
461.67	4784.06
461.85	4856.61
462.04	4751.29
462.22	4973.64
462.40	4807.46
462.59	4720.86
462.77	4870.65
462.95	4835.55
463.13	4842.57
463.32	4873.00
463.50	4739.58
463.68	4748.95
463.86	4924.49
464.05	4828.53
464.23	4964.28
464.41	4896.40
464.59	4840.23
464.78	4873.00
464.96	4961.94
465.14	4858.95
465.32	4954.91
465.50	5060.24
465.69	4985.34
465.87	4910.44
466.05	5039.17
466.23	5135.14
466.41	5114.07
466.60	5322.38
466.78	5025.13
466.96	5107.05
467.14	4919.81
467.32	5210.03
467.51	5228.76
467.69	5069.60
467.87	5252.16
468.05	5158.54
468.23	5034.49
468.41	5153.86
468.60	5357.49
468.78	5254.50
468.96	5195.99
469.14	5270.89
469.32	5488.56
469.50	5277.91
469.69	5399.62
469.87	5437.06
470.05	5439.40
470.23	5507.28
470.41	5556.43
470.59	5589.20
470.77	5313.02
470.95	5568.13
471.14	5547.07
471.32	5418.34
471.50	5806.87
471.68	5614.95
471.86	5727.29
472.04	5675.80
472.22	5839.64
472.40	5621.97
472.58	5877.09
472.77	5846.66
472.95	5858.36
473.13	6015.18
473.31	5900.49
473.49	5914.53
473.67	5888.79
473.85	5881.77
474.03	5865.38
474.21	5909.85
474.39	6118.16
474.57	6066.67
474.75	6069.01
474.93	6319.45
475.12	6150.93
475.30	6179.01
475.48	6195.40
475.66	6279.66
475.84	6429.45
476.02	6410.73
476.20	6487.96
476.38	6408.39
476.56	6548.82
476.74	6572.22
476.92	6459.88
477.10	6644.78
477.28	6642.44
477.46	6782.87
477.64	6754.79
477.82	6871.81
478.00	7070.76
478.18	6984.16
478.36	7084.80
478.54	7124.59
478.72	7068.42
478.90	7199.49
479.08	7372.69
479.26	7311.83
479.44	7419.50
479.62	7325.88
479.80	7290.77
479.98	7473.33
480.16	7583.34
480.34	7588.02
480.52	7555.25
480.70	7644.19
480.88	7691.00
481.06	7726.11
481.24	7969.52
481.41	8023.36
481.59	7932.08
481.77	8037.40
481.95	8084.21
482.13	8196.56
482.31	8201.24
482.49	8184.85
482.67	8365.07
482.85	8568.70
483.03	8402.52
483.21	8709.13
483.39	8741.90
483.57	8748.92
483.74	8755.94
483.92	8786.37
484.10	8805.10
484.28	9109.36
484.46	9188.94
484.64	9338.74
484.82	9116.39
485.00	9217.03
485.18	9479.17
485.35	9579.81
485.53	9432.36
485.71	9415.98
485.89	9762.37
486.07	9678.12
486.25	9633.64
486.43	9811.53
486.61	9820.89
486.78	10015.15
486.96	10134.52
487.14	10153.24
487.32	10155.58
487.50	10228.14
487.68	10235.16
487.85	10422.41
488.03	10600.29
488.21	10663.48
488.39	10586.24
488.57	10820.30
488.75	10743.06
488.92	10808.59
489.10	10927.96
489.28	10883.49
489.46	11204.14
489.64	11293.08
489.81	11566.93
489.99	11208.83
490.17	11365.64
490.35	11669.91
490.53	11587.99
490.70	11826.73
490.88	11805.66
491.06	11960.14
491.24	12011.63
491.41	11969.50
491.59	12285.47
491.77	12266.75
491.95	12311.22
492.13	12098.23
492.30	12287.81
492.48	12414.20
492.66	12507.82
492.84	12556.97
493.01	12629.53
493.19	12774.64
493.37	12807.41
493.54	13104.66
493.72	12957.21
493.90	13001.68
494.08	13092.96
494.25	13170.19
494.43	13174.88
494.61	13312.97
494.79	13298.92
494.96	13418.29
495.14	13383.18
495.32	13565.74
495.49	13837.25
495.67	13680.43
495.85	13846.61
496.02	14059.60
496.20	14022.15
496.38	14024.49
496.55	14111.09
496.73	14389.61
496.91	14157.90
497.09	14616.65
497.26	14506.64
497.44	14553.45
497.62	14651.75
497.79	14862.40
497.97	14490.26
498.14	14984.11
498.32	14885.81
498.50	14972.41
498.67	15192.42
498.85	15136.24
499.03	15215.82
499.20	15241.57
499.38	15307.10
499.56	15248.59
499.73	15606.69
499.91	15716.70
500.08	15669.89
500.26	15473.28
500.44	15770.53
500.61	15583.29
500.79	15925.00
500.97	15899.26
501.14	16030.33
501.32	16013.95
501.49	15768.19
501.67	15995.22
501.84	16222.25
502.02	15843.09
502.20	16114.59
502.37	16437.58
502.55	16505.46
502.72	16402.47
502.90	16229.27
503.07	16189.49
503.25	16402.47
503.43	16362.69
503.60	16629.51
503.78	16828.45
503.95	16856.54
504.13	16919.73
504.30	17125.70
504.48	16685.68
504.65	16898.67
504.83	17256.77
505.01	17305.92
505.18	17207.62
505.36	17294.22
505.53	17315.28
505.71	17245.07
505.88	17181.87
506.06	17163.15
506.23	17404.22
506.41	17259.11
506.58	17682.75
506.76	17884.03
506.93	17642.96
507.11	17621.89
507.28	17558.70
507.46	17998.72
507.63	17942.55
507.81	18335.76
507.98	17804.46
508.16	18111.07
508.33	18099.36
508.50	18029.15
508.68	18125.11
508.85	18530.02
509.03	18094.68
509.20	19012.17
509.38	18691.52
509.55	18611.94
509.73	18705.56
509.90	18565.13
510.08	18389.59
510.25	18595.56
510.42	18773.44
510.60	19042.60
510.77	19082.39
510.95	18977.06
511.12	18827.27
511.30	18956.00
511.47	19035.58
511.64	19264.95
511.82	19229.84
511.99	19115.16
512.17	19459.21
512.34	19140.90
512.51	19353.89
512.69	19225.16
512.86	19527.09
513.04	19997.54
513.21	19538.79
513.38	19569.22
513.56	19618.37
513.73	19868.81
513.90	19913.28
514.08	19726.04
514.25	20198.82
514.43	20063.07
514.60	20161.37
514.77	19981.15
514.95	20240.95
515.12	20177.76
515.29	20154.35
515.47	19910.94
515.64	20425.86
515.81	20432.88
515.99	20482.03
516.16	20365.00
516.33	20388.41
516.51	20807.36
516.68	20402.45
516.85	20645.87
517.03	20844.81
517.20	20718.42
517.37	20851.83
517.54	20783.96
517.72	21013.33
517.89	20929.07
518.06	20999.29
518.24	21125.68
518.41	21212.28
518.58	20823.75
518.75	21036.74
518.93	21123.33
519.10	21460.37
519.27	21235.68
519.45	20952.48
519.62	21528.25
519.79	21106.95
519.96	21193.55
520.14	21500.16
520.31	21701.45
520.48	21865.28
520.65	21525.91
520.83	21722.51
521.00	21694.43
521.17	21661.66
521.34	22097.00
521.52	21916.78
521.69	22382.54
521.86	21994.01
522.03	22487.87
522.20	21998.70
522.38	22270.20
522.55	21979.97
522.72	22167.21
522.89	22349.78
523.07	22640.00
523.24	22312.33
523.41	22717.24
523.58	22436.38
523.75	22459.78
523.92	22450.42
524.10	22548.72
524.27	22801.50
524.44	22668.09
524.61	22609.58
524.78	22457.44
524.96	22567.45
525.13	22419.99
525.30	22871.72
525.47	22813.20
525.64	22799.16
525.81	23084.70
525.98	23016.83
526.16	23122.15
526.33	23297.69
526.50	23166.62
526.67	23171.30
526.84	22925.55
527.01	22963.00
527.18	23190.03
527.36	23578.56
527.53	23166.62
527.70	23538.77
527.87	23648.77
528.04	23798.57
528.21	23459.19
528.38	23388.97
528.55	23583.24
528.72	23428.76
528.89	24072.41
529.07	23587.92
529.24	23751.76
529.41	23800.91
529.58	23894.53
529.75	24030.28
529.92	24070.07
530.09	23744.73
530.26	24002.19
530.43	23765.80
530.60	23761.12
530.77	24170.71
530.94	24283.06
531.11	24496.05
531.28	24336.89
531.46	24041.98
531.63	24348.59
531.80	24538.18
531.97	23971.77
532.14	24437.53
532.31	24215.18
532.48	24357.96
532.65	24573.28
532.82	24341.57
532.99	24198.80
533.16	24334.55
533.33	24692.65
533.50	24919.68
533.67	24769.89
533.84	24505.41
534.01	24503.07
534.18	24786.27
534.35	24978.20
534.52	24582.65
534.69	24982.88
534.86	25027.35
535.03	24704.35
535.20	24929.05
535.37	24828.40
535.54	25177.14
535.71	25064.80
535.88	24978.20
536.05	25319.92
536.22	25418.22
536.38	25715.47
536.55	25436.94
536.72	25427.58
536.89	25338.64
537.06	25338.64
537.23	25614.82
537.40	25572.69
537.57	25497.80
537.74	25362.04
537.91	25975.27
538.08	25860.58
538.25	25659.29
538.42	25563.33
538.59	25532.90
538.75	25387.79
538.92	25465.03
539.09	25741.21
539.26	25785.68
539.43	25399.49
539.60	25781.00
539.77	25855.90
539.94	26085.27
540.11	26087.61
540.28	25818.45
540.44	26176.55
540.61	25944.84
540.78	25874.62
540.95	25895.69
541.12	25968.24
541.29	26405.92
541.46	26094.63
541.62	26054.84
541.79	26087.61
541.96	26263.15
542.13	26202.30
542.30	26424.65
542.47	26300.60
542.63	26394.22
542.80	26663.38
542.97	26909.14
543.14	26710.19
543.31	26529.97
543.48	26628.27
543.64	26771.05
543.81	26876.37
543.98	27129.15
544.15	27122.13
544.32	26829.56
544.48	27323.41
544.65	27206.39
544.82	26955.95
544.99	26885.73
545.16	26859.99
545.32	27136.17
545.49	27505.98
545.66	27475.55
545.83	27522.36
546.00	27232.13
546.16	27466.19
546.33	27126.81
546.50	26527.63
546.67	26988.72
546.83	27068.30
547.00	27040.21
547.17	27215.75
547.34	27328.10
547.50	27468.53
547.67	27456.82
547.84	27660.45
548.00	27171.28
548.17	27667.47
548.34	27335.12
548.51	27810.25
548.67	27880.46
548.84	27854.72
549.01	27917.91
549.18	27206.39
549.34	27840.67
549.51	27419.38
549.68	27693.22
549.84	27864.08
550.01	27482.57
550.18	27782.16
550.34	27953.02
550.51	28151.96
550.68	27700.24
550.84	27960.04
551.01	28093.45
551.18	28067.70
551.34	27789.18
551.51	27559.81
551.68	27981.10
551.84	28205.80
552.01	27934.29
552.18	28081.75
552.34	28053.66
552.51	28313.46
552.68	27953.02
552.84	27976.42
553.01	28446.87
553.18	27934.29
553.34	28451.55
553.51	28458.57
553.67	28552.20
553.84	28563.90
554.01	28589.64
554.17	28430.49
554.34	28070.04
554.51	28650.50
554.67	28505.38
554.84	28453.89
555.00	28402.40
555.17	28467.94
555.33	28723.05
555.50	28505.38
555.67	28519.43
555.83	28503.04
556.00	28245.58
556.16	28753.48
556.33	28772.21
556.50	28692.63
556.66	28638.80
556.83	28613.05
556.99	29032.00
557.16	29010.94
557.32	28856.46
557.49	29036.69
557.65	28676.24
557.82	28603.69
557.98	28554.54
558.15	28917.32
558.32	29027.32
558.48	28985.19
558.65	28896.25
558.81	29518.84
558.98	28821.36
559.14	28971.15
559.31	28994.56
559.47	29046.05
559.64	29259.04
559.80	29165.42
559.97	29146.69
560.13	29270.74
560.30	28931.36
560.46	28968.81
560.63	28912.64
560.79	29413.51
560.96	29305.85
561.12	29111.58
561.29	29088.18
561.45	29553.94
561.61	29635.86
561.78	29163.08
561.94	29687.36
562.11	29448.62
562.27	29270.74
562.44	29539.90
562.60	29649.91
562.77	29088.18
562.93	29446.28
563.10	29710.76
563.26	29785.66
563.42	29670.97
563.59	29390.11
563.75	29195.84
563.92	29563.31
564.08	29326.91
564.24	29399.47
564.41	29359.68
564.57	29565.65
564.74	29486.07
564.90	29687.36
565.07	29558.63
565.23	29825.45
565.39	29553.94
565.56	29558.63
565.72	29184.14
565.88	29832.47
566.05	29638.20
566.21	29764.59
566.38	29722.46
566.54	29797.36
566.70	30043.12
566.87	29603.10
567.03	29790.34
567.19	29907.37
567.36	30183.55
567.52	30206.95
567.68	30118.01
567.85	29659.27
568.01	30000.99
568.17	29504.79
568.34	29839.49
568.50	30024.39
568.66	30286.53
568.83	30279.51
568.99	29975.24
569.15	29874.60
569.32	29750.55
569.48	29493.09
569.64	29914.39
569.81	29923.75
569.97	30235.04
570.13	30251.42
570.30	30143.76
570.46	29968.22
570.62	30235.04
570.78	30033.75
570.95	30024.39
571.11	29907.37
571.27	29972.90
571.43	29912.05
571.60	29553.94
571.76	29773.95
571.92	30218.66
572.09	30045.46
572.25	29846.51
572.41	29993.97
572.57	30150.78
572.74	30459.73
572.90	29706.08
573.06	29888.64
573.22	29914.39
573.38	30211.64
573.55	29818.42
573.71	30431.65
573.87	30103.97
574.03	30075.88
574.20	30462.07
574.36	30270.15
574.52	30298.23
574.68	29949.50
574.84	30576.76
575.01	30244.40
575.17	30314.62
575.33	30157.80
575.49	30286.53
575.65	30572.08
575.82	30029.07
575.98	30457.39
576.14	30309.94
576.30	30040.78
576.46	30441.01
576.62	29809.06
576.79	30632.93
576.95	30047.80
577.11	30485.48
577.27	29788.00
577.43	30487.82
577.59	30298.23
577.75	30134.40
577.92	30415.26
578.08	30106.31
578.24	30291.21
578.40	30270.15
578.56	30082.91
578.72	30419.94
578.88	30668.04
579.04	30731.23
579.21	30356.75
579.37	30284.19
579.53	30426.96
579.69	29961.20
579.85	30331.00
580.01	30089.93
580.17	29729.48
580.33	30398.88
580.49	30504.20
580.65	30602.50
580.82	30148.44
580.98	30541.65
581.14	30600.16
581.30	30251.42
581.46	30000.99
581.62	30541.65
581.78	30092.27
581.94	30197.59
582.10	30183.55
582.26	30476.12
582.42	30309.94
582.58	30445.69
582.74	30366.11
582.90	30703.15
583.06	30408.24
583.22	30417.60
583.38	30387.18
583.54	30436.33
583.70	30572.08
583.86	30426.96
584.02	30728.89
584.18	30389.52
584.34	30277.17
584.50	30611.87
584.66	30511.22
584.82	30288.87
584.98	30749.96
585.14	30389.52
585.30	30354.41
585.46	30059.50
585.62	30548.67
585.78	30539.31
585.94	30206.95
586.10	30682.08
586.26	30295.89
586.42	30686.76
586.58	30714.85
586.74	30733.57
586.90	30026.73
587.06	30328.66
587.22	30504.20
587.38	30560.37
587.54	30864.64
587.70	30614.21
587.86	30232.70
588.02	30539.31
588.18	30815.49
588.34	30878.69
588.49	30738.26
588.65	30682.08
588.81	30558.03
588.97	30618.89
589.13	30562.72
589.29	30661.02
589.45	30756.98
589.61	30824.86
589.77	30834.22
589.93	30792.09
590.08	30759.32
590.24	31363.18
590.40	30836.56
590.56	30991.03
590.72	30771.02
590.88	30665.70
591.04	30775.70
591.20	31136.15
591.35	30682.08
591.51	31002.74
591.67	31007.42
591.83	30974.65
591.99	31103.38
