SpectraSuite Data File
++++++++++++++++++++++++++++++++++++
Date: Fri Oct 18 13:58:00 GMT-05:00 2013
User: bianchi
Dark Spectrum Present: No
Reference Spectrum Present: No
Number of Sampled Component Spectra: 1
Spectrometers: USB2+H05261
Integration Time (usec): 50000 (USB2+H05261)
Spectra Averaged: 1 (USB2+H05261)
Boxcar Smoothing: 0 (USB2+H05261)
Correct for Electrical Dark: No (USB2+H05261)
Strobe/Lamp Enabled: No (USB2+H05261)
Correct for Detector Non-linearity: No (USB2+H05261)
Correct for Stray Light: No (USB2+H05261)
Number of Pixels in Processed Spectrum: 2048
>>>>>Begin Processed Spectral Data<<<<<
365.73	0.00
365.92	0.00
366.12	0.00
366.32	0.00
366.52	0.00
366.72	0.00
366.91	0.00
367.11	0.00
367.31	0.00
367.51	0.00
367.70	0.00
367.90	0.00
368.10	0.00
368.30	0.00
368.49	0.00
368.69	0.00
368.89	0.00
369.09	0.00
369.28	0.00
369.48	0.00
369.68	0.00
369.87	0.00
370.07	0.00
370.27	0.00
370.47	0.00
370.66	98.30
370.86	152.13
371.06	100.64
371.25	98.30
371.45	124.05
371.65	140.43
371.84	135.75
372.04	196.60
372.24	184.90
372.44	154.48
372.63	81.92
372.83	182.56
373.03	243.42
373.22	234.05
373.42	203.63
373.62	334.70
373.81	208.31
374.01	290.23
374.21	168.52
374.40	173.20
374.60	250.44
374.79	259.80
374.99	189.58
375.19	299.59
375.38	243.42
375.58	325.33
375.78	285.55
375.97	304.27
376.17	292.57
376.37	229.37
376.56	152.13
376.76	264.48
376.95	259.80
377.15	287.89
377.35	341.72
377.54	322.99
377.74	243.42
377.93	271.50
378.13	257.46
378.33	266.82
378.52	306.61
378.72	208.31
378.91	355.76
379.11	248.10
379.31	292.57
379.50	297.25
379.70	292.57
379.89	313.63
380.09	304.27
380.28	322.99
380.48	315.97
380.68	262.14
380.87	271.50
381.07	266.82
381.26	337.04
381.46	308.95
381.65	313.63
381.85	332.36
382.04	369.80
382.24	334.70
382.43	266.82
382.63	332.36
382.83	395.55
383.02	374.49
383.22	367.46
383.41	353.42
383.61	341.72
383.80	346.40
384.00	304.27
384.19	294.91
384.39	379.17
384.58	372.15
384.78	411.93
384.97	411.93
385.17	358.10
385.36	383.85
385.56	407.25
385.75	409.59
385.95	472.79
386.14	451.72
386.34	353.42
386.53	477.47
386.72	404.91
386.92	388.53
387.11	374.49
387.31	416.62
387.50	479.81
387.70	475.13
387.89	372.15
388.09	411.93
388.28	498.53
388.48	425.98
388.67	433.00
388.86	477.47
389.06	517.26
389.25	484.49
389.45	477.47
389.64	463.43
389.84	489.17
390.03	475.13
390.22	531.30
390.42	489.17
390.61	435.34
390.81	526.62
391.00	543.00
391.19	482.15
391.39	606.20
391.58	489.17
391.78	519.60
391.97	526.62
392.16	440.02
392.36	594.50
392.55	571.09
392.75	554.71
392.94	470.45
393.13	589.82
393.33	533.64
393.52	603.86
393.71	526.62
393.91	631.94
394.10	589.82
394.29	613.22
394.49	582.79
394.68	564.07
394.88	671.73
395.07	596.84
395.26	599.18
395.46	634.29
395.65	573.43
395.84	650.67
396.04	615.56
396.23	589.82
396.42	674.07
396.62	660.03
396.81	629.60
397.00	720.88
397.19	667.05
397.39	592.16
397.58	650.67
397.77	566.41
397.97	713.86
398.16	606.20
398.35	660.03
398.55	615.56
398.74	662.37
398.93	704.50
399.12	671.73
399.32	645.99
399.51	753.65
399.70	723.23
399.90	744.29
400.09	767.70
400.28	779.40
400.47	755.99
400.67	767.70
400.86	713.86
401.05	814.51
401.24	751.31
401.44	781.74
401.63	765.36
401.82	833.23
402.01	760.67
402.21	854.30
402.40	798.12
402.59	840.25
402.78	837.91
402.97	877.70
403.17	844.93
403.36	847.27
403.55	882.38
403.74	910.47
403.93	873.02
404.13	950.26
404.32	875.36
404.51	952.60
404.70	950.26
404.89	823.87
405.09	884.72
405.28	997.07
405.47	947.92
405.66	915.15
405.85	999.41
406.05	954.94
406.24	1053.24
406.43	1064.94
406.62	964.30
406.81	968.98
407.00	1036.86
407.20	1071.97
407.39	1043.88
407.58	1020.47
407.77	1069.62
407.96	1015.79
408.15	1001.75
408.34	1027.50
408.54	1097.71
408.73	1027.50
408.92	1181.97
409.11	1100.05
409.30	1137.50
409.49	1186.65
409.68	1203.04
409.87	1184.31
410.07	1160.91
410.26	1266.23
410.45	1158.57
410.64	1198.35
410.83	1231.12
411.02	1308.36
411.21	1345.81
411.40	1235.80
411.59	1268.57
411.78	1313.04
411.98	1390.28
412.17	1315.38
412.36	1343.47
412.55	1320.06
412.74	1364.53
412.93	1259.21
413.12	1338.79
413.31	1390.28
413.50	1320.06
413.69	1411.34
413.88	1390.28
414.07	1481.56
414.26	1490.92
414.45	1474.54
414.64	1453.47
414.83	1523.69
415.02	1420.71
415.22	1476.88
415.41	1479.22
415.60	1551.78
415.79	1434.75
415.98	1528.37
416.17	1689.87
416.36	1689.87
416.55	1577.52
416.74	1558.80
416.93	1746.04
417.12	1682.85
417.31	1734.34
417.50	1785.83
417.69	1820.94
417.88	1692.21
418.07	1757.74
418.26	1694.55
418.45	1753.06
418.64	1816.26
418.83	1776.47
419.02	1760.08
419.21	1715.61
419.39	1839.66
419.58	1816.26
419.77	1729.66
419.96	1802.21
420.15	1881.79
420.34	1736.68
420.53	1813.92
420.72	1956.69
420.91	1912.22
421.10	1863.07
421.29	1940.30
421.48	1881.79
421.67	1891.15
421.86	1977.75
422.05	1977.75
422.24	1996.48
422.43	1947.33
422.61	1991.80
422.80	2043.29
422.99	2045.63
423.18	2038.61
423.37	2050.31
423.56	1944.99
423.75	1989.46
423.94	2078.40
424.13	1961.37
424.32	2019.88
424.50	2045.63
424.69	2146.27
424.88	2165.00
425.07	2012.86
425.26	2069.03
425.45	2099.46
425.64	1994.14
425.83	1963.71
426.01	1912.22
426.20	2118.18
426.39	2200.10
426.58	2050.31
426.77	2104.14
426.96	2127.55
427.15	2108.82
427.33	2094.78
427.52	2118.18
427.71	2193.08
427.90	2200.10
428.09	2305.43
428.28	2132.23
428.46	2157.97
428.65	2186.06
428.84	2260.96
429.03	2422.45
429.22	2260.96
429.40	2328.83
429.59	2307.77
429.78	2260.96
429.97	2157.97
430.16	2230.53
430.34	2387.35
430.53	2349.90
430.72	2310.11
430.91	2258.62
431.10	2328.83
431.28	2312.45
431.47	2303.09
431.66	2406.07
431.85	2228.19
432.03	2480.97
432.22	2487.99
432.41	2317.13
432.60	2532.46
432.79	2436.50
432.97	2370.96
433.16	2455.22
433.35	2466.92
433.54	2569.91
433.72	2466.92
433.91	2513.74
434.10	2630.76
434.28	2534.80
434.47	2527.78
434.66	2560.55
434.85	2616.72
435.03	2647.15
435.22	2661.19
435.41	2630.76
435.59	2539.48
435.78	2623.74
435.97	2647.15
436.16	2743.11
436.34	2614.38
436.53	2747.79
436.72	2789.92
436.90	2686.94
437.09	2715.02
437.28	2689.28
437.46	2658.85
437.65	2712.68
437.84	2815.66
438.02	2827.37
438.21	2874.18
438.40	2750.13
438.58	2754.81
438.77	2949.08
438.96	2820.35
439.14	3028.65
439.33	2984.18
439.52	2970.14
439.70	2897.58
439.89	2981.84
440.08	3068.44
440.26	3012.27
440.45	3073.12
440.63	3190.15
440.82	3155.04
441.01	3047.38
441.19	3138.66
441.38	3178.45
441.57	3222.92
441.75	3234.62
441.94	3213.56
442.12	3293.13
442.31	3236.96
442.50	3370.37
442.68	3316.54
442.87	3370.37
443.05	3365.69
443.24	3372.71
443.43	3461.65
443.61	3379.73
443.80	3499.10
443.98	3255.69
444.17	3218.24
444.35	3433.57
444.54	3375.05
444.73	3480.38
444.91	3424.20
445.10	3478.04
445.28	3454.63
445.47	3393.78
445.65	3571.66
445.84	3442.93
446.02	3543.57
446.21	3485.06
446.39	3459.31
446.58	3559.95
446.77	3489.74
446.95	3487.40
447.14	3440.59
447.32	3452.29
447.51	3686.34
447.69	3468.67
447.88	3662.94
448.06	3588.04
448.25	3555.27
448.43	3646.55
448.62	3454.63
448.80	3538.89
448.99	3749.54
449.17	3653.58
449.36	3604.42
449.54	3674.64
449.73	3714.43
449.91	3658.26
450.10	3768.26
450.28	3838.48
450.46	3847.84
450.65	3648.90
450.83	3723.79
451.02	3765.92
451.20	3716.77
451.39	3655.92
451.57	3831.46
451.76	3751.88
451.94	3887.63
452.13	3779.97
452.31	3836.14
452.49	3896.99
452.68	3829.12
452.86	3934.44
453.05	3887.63
453.23	3962.53
453.42	3868.91
453.60	4002.32
453.78	4039.76
453.97	4079.55
454.15	3798.69
454.34	3817.41
454.52	3988.27
454.70	4046.79
454.89	4042.11
455.07	4028.06
455.26	4095.94
455.44	4098.28
455.62	4088.92
455.81	4065.51
455.99	4105.30
456.17	4109.98
456.36	4264.46
456.54	4353.40
456.73	4182.54
456.91	4369.78
457.09	4276.16
457.28	4421.27
457.46	4308.93
457.64	4325.31
457.83	4346.37
458.01	4367.44
458.19	4423.61
458.38	4273.82
458.56	4421.27
458.74	4423.61
458.93	4418.93
459.11	4519.57
459.29	4362.76
459.48	4496.17
459.66	4608.51
459.84	4479.79
460.03	4634.26
460.21	4461.06
460.39	4610.86
460.57	4393.19
460.76	4477.44
460.94	4627.24
461.12	4472.76
461.31	4575.75
461.49	4624.90
461.67	4634.26
461.85	4702.14
462.04	4624.90
462.22	4905.76
462.40	4713.84
462.59	4753.63
462.77	4554.68
462.95	4865.97
463.13	4788.74
463.32	4819.16
463.50	4858.95
463.68	4933.85
463.86	4844.91
464.05	4704.48
464.23	4861.29
464.41	4903.42
464.59	4847.25
464.78	4889.38
464.96	4821.50
465.14	4905.76
465.32	4966.62
465.50	5022.79
465.69	5015.77
465.87	5062.58
466.05	4858.95
466.23	4994.70
466.41	5083.64
466.60	5104.71
466.78	5095.35
466.96	5317.70
467.14	5069.60
467.32	5186.63
467.51	5235.78
467.69	5046.20
467.87	5242.80
468.05	5156.20
468.23	5095.35
468.41	5074.28
468.60	5149.18
468.78	5207.69
468.96	5219.39
469.14	5242.80
469.32	5406.64
469.50	5310.68
469.69	5289.61
469.87	5420.68
470.05	5408.98
470.23	5465.15
470.41	5383.23
470.59	5467.49
470.77	5565.79
470.95	5446.43
471.14	5659.42
471.32	5544.73
471.50	5558.77
471.68	5706.23
471.86	5621.97
472.04	5668.78
472.22	5753.04
472.40	5661.76
472.58	5811.55
472.77	5753.04
472.95	5858.36
473.13	5937.94
473.31	5762.40
473.49	5844.32
473.67	5940.28
473.85	5933.26
474.03	5973.05
474.21	5956.66
474.39	6129.86
474.57	6164.97
474.75	6183.70
474.93	6282.00
475.12	6193.06
475.30	6265.61
475.48	6352.21
475.66	6190.72
475.84	6317.11
476.02	6485.62
476.20	6338.17
476.38	6478.60
476.56	6686.91
476.74	6588.61
476.92	6516.05
477.10	6523.07
477.28	6731.38
477.46	6738.40
477.64	6949.05
477.82	6677.55
478.00	7140.97
478.18	6867.13
478.36	6995.86
478.54	7225.23
478.72	7140.97
478.90	7152.68
479.08	7089.48
479.26	7243.96
479.44	7307.15
479.62	7302.47
479.80	7419.50
479.98	7421.84
480.16	7688.66
480.34	7529.50
480.52	7775.26
480.70	7789.30
480.88	7611.42
481.06	7691.00
481.24	7672.28
481.41	7920.37
481.59	7941.44
481.77	8039.74
481.95	8067.83
482.13	8180.17
482.31	8070.17
482.49	8297.20
482.67	8131.02
482.85	8334.65
483.03	8587.43
483.21	8549.98
483.39	8664.66
483.57	8695.09
483.74	8592.11
483.92	8662.32
484.10	8746.58
484.28	8877.65
484.46	8896.38
484.64	9188.94
484.82	9001.70
485.00	9167.88
485.18	9158.52
485.35	9420.66
485.53	9420.66
485.71	9483.85
485.89	9659.39
486.07	9708.54
486.25	9434.70
486.43	9341.08
486.61	9914.51
486.78	9998.77
486.96	10033.88
487.14	10057.28
487.32	10197.71
487.50	10246.87
487.68	10274.95
487.85	10326.44
488.03	10487.94
488.21	10509.01
488.39	10569.86
488.57	10747.74
488.75	10895.19
488.92	11016.90
489.10	11035.63
489.28	10824.98
489.46	11080.10
489.64	11049.67
489.81	11627.78
489.99	11485.01
490.17	11265.00
490.35	11417.13
490.53	11726.08
490.70	11585.65
490.88	11861.84
491.06	11609.06
491.24	11782.26
491.41	11782.26
491.59	11915.67
491.77	11995.25
491.95	12166.10
492.13	12133.34
492.30	12311.22
492.48	12353.35
492.66	12313.56
492.84	12585.06
493.01	12456.33
493.19	12430.59
493.37	12748.90
493.54	12840.18
493.72	12814.43
493.90	13095.30
494.08	13060.19
494.25	13018.06
494.43	13275.52
494.61	13060.19
494.79	13224.03
494.96	13245.09
495.14	13551.70
495.32	13619.58
495.49	13589.15
495.67	13521.27
495.85	13776.39
496.02	13841.93
496.20	13914.48
496.38	13947.25
496.55	13806.82
496.73	14185.99
496.91	14125.13
497.09	14345.14
497.26	14331.10
497.44	14211.73
497.62	14595.58
497.79	14621.33
497.97	14663.46
498.14	14771.12
498.32	14850.70
498.50	14951.34
498.67	14843.68
498.85	14932.62
499.03	15028.58
499.20	15077.73
499.38	15066.03
499.56	15164.33
499.73	15454.56
499.91	15543.50
500.08	15346.89
500.26	15487.32
500.44	15510.73
500.61	15707.34
500.79	15564.56
500.97	15592.65
501.14	15913.30
501.32	15920.32
501.49	15590.31
501.67	16016.29
501.84	16044.37
502.02	16056.08
502.20	15845.43
502.37	16184.80
502.55	16161.40
502.72	16130.97
502.90	16257.36
503.07	16051.39
503.25	16601.42
503.43	16528.86
503.60	16711.42
503.78	16456.31
503.95	16835.47
504.13	16549.93
504.30	16594.40
504.48	16561.63
504.65	16779.30
504.83	16964.20
505.01	16886.97
505.18	17425.29
505.36	17104.64
505.53	16875.26
505.71	17249.75
505.88	16978.25
506.06	16898.67
506.23	17649.98
506.41	17432.31
506.58	17357.41
506.76	17387.84
506.93	17397.20
507.11	17303.58
507.28	17593.81
507.46	17640.62
507.63	17942.55
507.81	18068.94
507.98	17806.80
508.16	17645.30
508.33	17961.27
508.50	18064.25
508.68	18052.55
508.85	18211.71
509.03	17909.78
509.20	18113.41
509.38	18642.37
509.55	18773.44
509.73	18497.25
509.90	18459.81
510.08	18132.13
510.25	18169.58
510.42	18431.72
510.60	18766.42
510.77	18864.72
510.95	19101.11
511.12	18897.49
511.30	18703.22
511.47	18813.23
511.64	19087.07
511.82	18953.66
511.99	19278.99
512.17	19276.65
512.34	19056.64
512.51	19302.40
512.69	19351.55
512.86	19293.04
513.04	19543.47
513.21	19630.07
513.38	19782.21
513.56	19386.66
513.73	19222.82
513.90	19260.27
514.08	19637.09
514.25	19796.25
514.43	19601.99
514.60	19765.82
514.77	19999.88
514.95	20203.50
515.12	19934.34
515.29	20034.99
515.47	19936.68
515.64	20252.66
515.81	20414.15
515.99	20336.91
516.16	20360.32
516.33	20594.37
516.51	20460.96
516.68	20336.91
516.85	20432.88
517.03	20563.95
517.20	20577.99
517.37	20514.80
517.54	20540.54
517.72	20802.68
517.89	20526.50
518.06	20554.58
518.24	21083.55
518.41	20872.90
518.58	20849.49
518.75	20931.41
518.93	21163.12
519.10	21223.98
519.27	21184.19
519.45	20950.14
519.62	21198.23
519.79	21055.46
519.96	21275.47
520.14	21434.63
520.31	21165.46
520.48	21228.66
520.65	21406.54
520.83	21617.19
521.00	21465.05
521.17	21656.98
521.34	22012.74
521.52	21881.67
521.69	21844.22
521.86	21944.86
522.03	21942.52
522.20	21769.32
522.38	21839.54
522.55	21748.26
522.72	21907.41
522.89	21940.18
523.07	22429.35
523.24	22281.90
523.41	22148.49
523.58	22164.87
523.75	22567.45
523.92	22277.22
524.10	22539.36
524.27	22246.79
524.44	22607.23
524.61	22661.07
524.78	22586.17
524.96	22602.55
525.13	22457.44
525.30	23002.78
525.47	22649.36
525.64	22647.02
525.81	22661.07
525.98	22883.42
526.16	22764.05
526.33	22932.57
526.50	22864.69
526.67	22707.88
526.84	23154.92
527.01	23110.45
527.18	23199.39
527.36	23131.51
527.53	23283.65
527.70	23501.32
527.87	23342.16
528.04	22991.08
528.21	22946.61
528.38	23035.55
528.55	23508.34
528.72	23447.49
528.89	23468.55
529.07	23606.64
529.24	23517.70
529.41	23658.14
529.58	23613.66
529.75	23473.23
529.92	23625.37
530.09	23733.03
530.26	23693.24
530.43	23836.02
530.60	23878.15
530.77	23768.14
530.94	24116.88
531.11	24009.22
531.28	23976.45
531.46	23833.68
531.63	24032.62
531.80	23974.11
531.97	24301.78
532.14	24140.29
532.31	24428.17
532.48	24372.00
532.65	24400.08
532.82	23913.25
532.99	24276.04
533.16	24039.64
533.33	24559.24
533.50	24503.07
533.67	24435.19
533.84	24423.49
534.01	24638.82
534.18	24320.51
534.35	24666.91
534.52	24451.58
534.69	24769.89
534.86	24819.04
535.03	24669.25
535.20	24875.21
535.37	24786.27
535.54	24753.51
535.71	24755.85
535.88	24870.53
536.05	24451.58
536.22	25104.59
536.38	25355.02
536.55	24896.28
536.72	25074.16
536.89	25195.87
537.06	24896.28
537.23	25425.24
537.40	25301.19
537.57	25399.49
537.74	25268.42
537.91	25427.58
538.08	25142.03
538.25	25174.80
538.42	25200.55
538.59	25427.58
538.75	25263.74
538.92	25376.09
539.09	25352.68
539.26	25195.87
539.43	25692.06
539.60	25940.16
539.77	26012.71
539.94	25532.90
540.11	25500.14
540.28	25727.17
540.44	25790.36
540.61	25652.27
540.78	25649.93
540.95	25743.55
541.12	25813.77
541.29	25762.28
541.46	25795.04
541.62	26066.55
541.79	26066.55
541.96	25729.51
542.13	26263.15
542.30	26103.99
542.47	26038.46
542.63	25942.50
542.80	26703.17
542.97	26644.66
543.14	26815.52
543.31	26473.80
543.48	26609.55
543.64	26600.19
543.81	26850.63
543.98	26604.87
544.15	26871.69
544.32	26792.11
544.48	26955.95
544.65	26679.77
544.82	26696.15
544.99	26532.31
545.16	26780.41
545.32	26820.20
545.49	26845.94
545.66	27152.55
545.83	27065.96
546.00	26574.44
546.16	26953.61
546.33	26820.20
546.50	26464.44
546.67	26911.48
546.83	27108.08
547.00	26869.35
547.17	26611.89
547.34	27171.28
547.50	27157.24
547.67	27386.61
547.84	27285.97
548.00	27424.06
548.17	27480.23
548.34	27007.44
548.51	27232.13
548.67	27470.87
548.84	27601.94
549.01	27379.59
549.18	27442.78
549.34	27246.18
549.51	27365.54
549.68	27180.64
549.84	27824.29
550.01	27480.23
550.18	27220.43
550.34	27328.10
550.51	27927.27
550.68	27690.88
550.84	27513.00
551.01	27737.69
551.18	27522.36
551.34	27477.89
551.51	27257.88
551.68	27864.08
551.84	27812.59
552.01	27597.26
552.18	27913.23
552.34	27653.43
552.51	27814.93
552.68	27934.29
552.84	27934.29
553.01	28210.48
553.18	28187.07
553.34	27997.49
553.51	28086.43
553.67	28229.20
553.84	28210.48
554.01	28547.51
554.17	28203.46
554.34	28114.52
554.51	28063.02
554.67	28212.82
554.84	28037.28
555.00	28215.16
555.17	28458.57
555.33	28531.13
555.50	28208.14
555.67	28135.58
555.83	28364.95
556.00	28266.65
556.16	28772.21
556.33	28390.70
556.50	28489.00
556.66	28774.55
556.83	28362.61
556.99	28975.83
557.16	28718.37
557.32	28711.35
557.49	28538.15
557.65	28273.67
557.82	28503.04
557.98	28638.80
558.15	28725.39
558.32	28994.56
558.48	28573.26
558.65	28755.82
558.81	29081.16
558.98	28863.49
559.14	28641.14
559.31	28926.68
559.47	28849.44
559.64	29067.11
559.80	28849.44
559.97	29212.23
560.13	28655.18
560.30	29017.96
560.46	29003.92
560.63	28924.34
560.79	29134.99
560.96	29106.90
561.12	29378.40
561.29	28950.09
561.45	28744.12
561.61	29425.22
561.78	29097.54
561.94	29247.33
562.11	29099.88
562.27	28868.17
562.44	29001.58
562.60	28678.58
562.77	29207.55
562.93	29312.87
563.10	29450.96
563.26	28772.21
563.42	29193.50
563.59	29315.21
563.75	29376.06
563.92	29511.81
564.08	29027.32
564.24	29067.11
564.41	29303.51
564.57	29153.71
564.74	29212.23
564.90	29343.30
565.07	29413.51
565.23	29736.51
565.39	29596.07
565.56	29216.91
565.72	29177.12
565.88	29432.24
566.05	29149.03
566.21	29422.87
566.38	29291.80
566.54	29553.94
566.70	29537.56
566.87	29336.27
567.03	29436.92
567.19	29802.04
567.36	29710.76
567.52	29240.31
567.68	29390.11
567.85	29516.50
568.01	29647.57
568.17	29385.43
568.34	29553.94
568.50	29603.10
568.66	29572.67
568.83	29993.97
568.99	29422.87
569.15	29687.36
569.32	29312.87
569.48	29460.32
569.64	29481.39
569.81	29654.59
569.97	29621.82
570.13	29818.42
570.30	29537.56
570.46	29584.37
570.62	29460.32
570.78	29570.33
570.95	29441.60
571.11	29261.38
571.27	29755.23
571.43	29380.74
571.60	29809.06
571.76	29685.01
571.92	29839.49
572.09	30024.39
572.25	29621.82
572.41	29647.57
572.57	29862.90
572.74	30047.80
572.90	29750.55
573.06	29502.45
573.22	29467.34
573.38	29542.24
573.55	29923.75
573.71	30150.78
573.87	30375.47
574.03	30031.41
574.20	29869.92
574.36	29811.40
574.52	29846.51
574.68	29766.93
574.84	29986.94
575.01	29902.68
575.17	29759.91
575.33	29914.39
575.49	29771.61
575.65	29757.57
575.82	29553.94
575.98	29926.09
576.14	30195.25
576.30	30071.20
576.46	29619.48
576.62	29806.72
576.79	30094.61
576.95	29895.66
577.11	29876.94
577.27	29912.05
577.43	30389.52
577.59	30305.26
577.75	29989.28
577.92	30024.39
578.08	30202.27
578.24	29809.06
578.40	29661.61
578.56	29848.85
578.72	29921.41
578.88	30471.43
579.04	30045.46
579.21	29752.89
579.37	29986.94
579.53	30160.14
579.69	30005.67
579.85	29743.53
580.01	29872.26
580.17	30089.93
580.33	29752.89
580.49	30017.37
580.65	30448.03
580.82	30600.16
580.98	30431.65
581.14	30274.83
581.30	29991.62
581.46	30005.67
581.62	29890.98
581.78	29649.91
581.94	29820.77
582.10	29963.54
582.26	29956.52
582.42	30256.11
582.58	29886.30
582.74	30073.54
582.90	29919.07
583.06	30258.45
583.22	30279.51
583.38	30197.59
583.54	30017.37
583.70	29713.10
583.86	29972.90
584.02	30038.44
584.18	30497.18
584.34	30003.33
584.50	30604.84
584.66	30391.86
584.82	29846.51
584.98	30562.72
585.14	30387.18
585.30	29874.60
585.46	29701.40
585.62	29895.66
585.78	30457.39
585.94	30089.93
586.10	30139.08
586.26	30785.07
586.42	30239.72
586.58	30759.32
586.74	30192.91
586.90	30066.52
587.06	30363.77
587.22	30087.59
587.38	30349.73
587.54	30618.89
587.70	30473.78
587.86	30714.85
588.02	30756.98
588.18	30302.92
588.34	30389.52
588.49	30167.16
588.65	30583.78
588.81	30242.06
588.97	30511.22
589.13	30176.53
589.29	30536.97
589.45	30490.16
589.61	30553.35
589.77	30731.23
589.93	30263.13
590.08	30958.27
590.24	30852.94
590.40	30644.63
590.56	30574.42
590.72	30438.67
590.88	30319.30
591.04	30356.75
591.20	30520.59
591.35	30525.27
591.51	30948.90
591.67	30843.58
591.83	30948.90
591.99	30424.62
