SpectraSuite Data File
++++++++++++++++++++++++++++++++++++
Date: Fri Oct 18 13:58:35 GMT-05:00 2013
User: bianchi
Dark Spectrum Present: No
Reference Spectrum Present: No
Number of Sampled Component Spectra: 1
Spectrometers: USB2+H05261
Integration Time (usec): 50000 (USB2+H05261)
Spectra Averaged: 1 (USB2+H05261)
Boxcar Smoothing: 0 (USB2+H05261)
Correct for Electrical Dark: No (USB2+H05261)
Strobe/Lamp Enabled: No (USB2+H05261)
Correct for Detector Non-linearity: No (USB2+H05261)
Correct for Stray Light: No (USB2+H05261)
Number of Pixels in Processed Spectrum: 2048
>>>>>Begin Processed Spectral Data<<<<<
365.73	35.11
365.92	35.11
366.12	35.11
366.32	0.00
366.52	0.00
366.72	0.00
366.91	0.00
367.11	0.00
367.31	0.00
367.51	0.00
367.70	0.00
367.90	0.00
368.10	0.00
368.30	0.00
368.49	0.00
368.69	0.00
368.89	0.00
369.09	0.00
369.28	0.00
369.48	0.00
369.68	0.00
369.87	0.00
370.07	0.00
370.27	0.00
370.47	0.00
370.66	70.22
370.86	39.79
371.06	91.28
371.25	152.13
371.45	154.48
371.65	173.20
371.84	189.58
372.04	175.54
372.24	159.16
372.44	168.52
372.63	154.48
372.83	236.39
373.03	196.60
373.22	166.18
373.42	304.27
373.62	194.26
373.81	234.05
374.01	224.69
374.21	280.86
374.40	257.46
374.60	273.84
374.79	278.52
374.99	194.26
375.19	217.67
375.38	250.44
375.58	264.48
375.78	252.78
375.97	292.57
376.17	276.18
376.37	205.97
376.56	273.84
376.76	269.16
376.95	210.65
377.15	234.05
377.35	194.26
377.54	259.80
377.74	259.80
377.93	271.50
378.13	306.61
378.33	255.12
378.52	306.61
378.72	327.68
378.91	294.91
379.11	266.82
379.31	337.04
379.50	285.55
379.70	269.16
379.89	306.61
380.09	266.82
380.28	187.24
380.48	234.05
380.68	285.55
380.87	306.61
381.07	313.63
381.26	308.95
381.46	322.99
381.65	264.48
381.85	278.52
382.04	299.59
382.24	271.50
382.43	273.84
382.63	337.04
382.83	318.31
383.02	397.89
383.22	381.51
383.41	381.51
383.61	393.21
383.80	341.72
384.00	325.33
384.19	360.44
384.39	423.64
384.58	344.06
384.78	348.74
384.97	376.83
385.17	330.02
385.36	386.19
385.56	397.89
385.75	416.62
385.95	409.59
386.14	418.96
386.34	372.15
386.53	383.85
386.72	423.64
386.92	416.62
387.11	484.49
387.31	428.32
387.50	402.57
387.70	346.40
387.89	416.62
388.09	400.23
388.28	411.93
388.48	421.30
388.67	475.13
388.86	540.66
389.06	383.85
389.25	440.02
389.45	461.09
389.64	517.26
389.84	496.19
390.03	470.45
390.22	559.39
390.42	437.68
390.61	437.68
390.81	421.30
391.00	472.79
391.19	458.74
391.39	505.56
391.58	507.90
391.78	547.69
391.97	524.28
392.16	472.79
392.36	456.40
392.55	468.11
392.75	503.22
392.94	578.11
393.13	603.86
393.33	535.98
393.52	528.96
393.71	613.22
393.91	587.47
394.10	533.64
394.29	645.99
394.49	552.37
394.68	543.00
394.88	624.92
395.07	554.71
395.26	638.97
395.46	554.71
395.65	603.86
395.84	608.54
396.04	578.11
396.23	704.50
396.42	723.23
396.62	608.54
396.81	734.93
397.00	606.20
397.19	695.14
397.39	669.39
397.58	695.14
397.77	727.91
397.97	681.10
398.16	622.58
398.35	704.50
398.55	732.59
398.74	746.63
398.93	688.12
399.12	648.33
399.32	744.29
399.51	777.06
399.70	716.20
399.90	718.54
400.09	713.86
400.28	833.23
400.47	713.86
400.67	681.10
400.86	793.44
401.05	737.27
401.24	777.06
401.44	751.31
401.63	842.59
401.82	809.83
402.01	713.86
402.21	807.48
402.40	830.89
402.59	868.34
402.78	793.44
402.97	788.76
403.17	966.64
403.36	844.93
403.55	854.30
403.74	940.90
403.93	891.74
404.13	802.80
404.32	997.07
404.51	863.66
404.70	903.45
404.89	971.32
405.09	961.96
405.28	945.58
405.47	924.51
405.66	959.62
405.85	980.68
406.05	922.17
406.24	1050.90
406.43	1015.79
406.62	1036.86
406.81	1064.94
407.00	980.68
407.20	994.73
407.39	917.49
407.58	1001.75
407.77	1060.26
407.96	1097.71
408.15	1025.15
408.34	1078.99
408.54	1097.71
408.73	1114.10
408.92	990.05
409.11	1078.99
409.30	1053.24
409.49	1090.69
409.68	1130.48
409.87	1125.80
410.07	1233.46
410.26	1158.57
410.45	1221.76
410.64	1151.54
410.83	1240.48
411.02	1275.59
411.21	1289.64
411.40	1238.14
411.59	1219.42
411.78	1205.38
411.98	1315.38
412.17	1315.38
412.36	1277.93
412.55	1369.21
412.74	1263.89
412.93	1231.12
413.12	1413.68
413.31	1493.26
413.50	1444.11
413.69	1371.55
413.88	1394.96
414.07	1406.66
414.26	1399.64
414.45	1488.58
414.64	1430.07
414.83	1500.28
415.02	1476.88
415.22	1444.11
415.41	1621.99
415.60	1528.37
415.79	1528.37
415.98	1605.61
416.17	1596.25
416.36	1572.84
416.55	1633.69
416.74	1753.06
416.93	1664.12
417.12	1591.56
417.31	1680.50
417.50	1762.42
417.69	1722.63
417.88	1767.10
418.07	1727.32
418.26	1764.76
418.45	1811.57
418.64	1877.11
418.83	1743.70
419.02	1790.51
419.21	1856.04
419.39	1834.98
419.58	1760.08
419.77	1757.74
419.96	1926.26
420.15	1851.36
420.34	1989.46
420.53	1921.58
420.72	1898.17
420.91	1935.62
421.10	1898.17
421.29	1961.37
421.48	1898.17
421.67	2097.12
421.86	1916.90
422.05	1926.26
422.24	1891.15
422.43	1959.03
422.61	1989.46
422.80	1928.60
422.99	1984.77
423.18	1952.01
423.37	2017.54
423.56	1956.69
423.75	2001.16
423.94	1994.14
424.13	1877.11
424.32	1984.77
424.50	1959.03
424.69	1994.14
424.88	2017.54
425.07	1991.80
425.26	2069.03
425.45	1989.46
425.64	2043.29
425.83	2090.10
426.01	2019.88
426.20	2094.78
426.39	1980.09
426.58	2045.63
426.77	2054.99
426.96	2188.40
427.15	2218.83
427.33	2120.53
427.52	2186.06
427.71	2092.44
427.90	2153.29
428.09	2258.62
428.28	2218.83
428.46	2202.44
428.65	2228.19
428.84	2174.36
429.03	2300.75
429.22	2195.42
429.40	2218.83
429.59	2265.64
429.78	2195.42
429.97	2153.29
430.16	2202.44
430.34	2267.98
430.53	2338.20
430.72	2429.48
430.91	2366.28
431.10	2349.90
431.28	2270.32
431.47	2333.51
431.66	2410.75
431.85	2279.68
432.03	2462.24
432.22	2452.88
432.41	2473.95
432.60	2448.20
432.79	2361.60
432.97	2466.92
433.16	2354.58
433.35	2385.01
433.54	2466.92
433.72	2487.99
433.91	2537.14
434.10	2654.17
434.28	2443.52
434.47	2464.58
434.66	2530.12
434.85	2523.10
435.03	2651.83
435.22	2651.83
435.41	2712.68
435.59	2637.78
435.78	2581.61
435.97	2605.02
436.16	2466.92
436.34	2679.91
436.53	2672.89
436.72	2745.45
436.90	2602.68
437.09	2682.25
437.28	2677.57
437.46	2761.83
437.65	2778.22
437.84	2729.06
438.02	2771.19
438.21	2747.79
438.40	2581.61
438.58	2839.07
438.77	2892.90
438.96	2822.69
439.14	2951.42
439.33	2874.18
439.52	3049.72
439.70	2928.01
439.89	2923.33
440.08	3061.42
440.26	3028.65
440.45	3045.04
440.63	3056.74
440.82	3091.85
441.01	3166.74
441.19	3166.74
441.38	3403.14
441.57	3143.34
441.75	3281.43
441.94	3253.34
442.12	3267.39
442.31	3321.22
442.50	3302.50
442.68	3272.07
442.87	3225.26
443.05	3201.85
443.24	3337.60
443.43	3304.84
443.61	3400.80
443.80	3342.28
443.98	3318.88
444.17	3290.79
444.35	3414.84
444.54	3454.63
444.73	3403.14
444.91	3342.28
445.10	3459.31
445.28	3534.21
445.47	3391.44
445.65	3433.57
445.84	3426.54
446.02	3478.04
446.21	3461.65
446.39	3466.33
446.58	3534.21
446.77	3370.37
446.95	3447.61
447.14	3463.99
447.32	3489.74
447.51	3393.78
447.69	3405.48
447.88	3520.17
448.06	3503.78
448.25	3538.89
448.43	3475.70
448.62	3452.29
448.80	3791.67
448.99	3494.42
449.17	3524.85
449.36	3552.93
449.54	3637.19
449.73	3712.09
449.91	3569.32
450.10	3709.75
450.28	3705.07
450.46	3740.18
450.65	3740.18
450.83	3824.44
451.02	3735.50
451.20	3850.18
451.39	3665.28
451.57	3817.41
451.76	3801.03
451.94	3847.84
452.13	3983.59
452.31	3737.84
452.49	3737.84
452.68	3892.31
452.86	3962.53
453.05	3808.05
453.23	3962.53
453.42	3810.39
453.60	3817.41
453.78	3829.12
453.97	3925.08
454.15	3906.35
454.34	3974.23
454.52	3983.59
454.70	3971.89
454.89	4053.81
455.07	4028.06
455.26	4009.34
455.44	4142.75
455.62	4086.58
455.81	4117.00
455.99	4135.73
456.17	4208.28
456.36	4133.39
456.54	4241.05
456.73	4180.20
456.91	4264.46
457.09	4252.75
457.28	4414.25
457.46	4348.72
457.64	4276.16
457.83	4395.53
458.01	4168.49
458.19	4332.33
458.38	4257.43
458.56	4341.69
458.74	4456.38
458.93	4376.80
459.11	4418.93
459.29	4432.97
459.48	4561.70
459.66	4416.59
459.84	4554.68
460.03	4545.32
460.21	4442.34
460.39	4498.51
460.57	4561.70
460.76	4622.56
460.94	4559.36
461.12	4603.83
461.31	4585.11
461.49	4519.57
461.67	4697.46
461.85	4840.23
462.04	4599.15
462.22	4603.83
462.40	4730.22
462.59	4692.77
462.77	4624.90
462.95	5011.09
463.13	4819.16
463.32	4723.20
463.50	4744.27
463.68	4849.59
463.86	4889.38
464.05	4816.82
464.23	4950.23
464.41	4863.63
464.59	4814.48
464.78	4971.30
464.96	4945.55
465.14	5027.47
465.32	5114.07
465.50	4978.32
465.69	4931.51
465.87	4887.04
466.05	4954.91
466.23	4943.21
466.41	4987.68
466.60	5172.58
466.78	5018.11
466.96	4929.17
467.14	5081.30
467.32	5043.85
467.51	5217.05
467.69	4929.17
467.87	5085.98
468.05	5242.80
468.23	4931.51
468.41	5022.79
468.60	5280.25
468.78	5247.48
468.96	5078.96
469.14	5418.34
469.32	5261.52
469.50	5163.22
469.69	5448.77
469.87	5364.51
470.05	5458.13
470.23	5345.78
470.41	5308.34
470.59	5481.53
470.77	5507.28
470.95	5275.57
471.14	5451.11
471.32	5308.34
471.50	5645.37
471.68	5540.05
471.86	5755.38
472.04	5565.79
472.22	5666.44
472.40	5689.84
472.58	5748.36
472.77	5743.67
472.95	5912.19
473.13	5956.66
473.31	5722.61
473.49	5881.77
473.67	5802.19
473.85	5914.53
474.03	5944.96
474.21	5968.37
474.39	6186.04
474.57	6146.25
474.75	6225.82
474.93	6237.53
475.12	6059.65
475.30	6289.02
475.48	6169.65
475.66	6307.74
475.84	6251.57
476.02	6380.30
476.20	6363.92
476.38	6450.52
476.56	6630.74
476.74	6572.22
476.92	6656.48
477.10	6513.71
477.28	6862.45
477.46	6576.91
477.64	6768.83
477.82	6757.13
478.00	6862.45
478.18	7070.76
478.36	6967.77
478.54	7040.33
478.72	7241.62
478.90	7241.62
479.08	7117.57
479.26	7201.83
479.44	7459.29
479.62	7351.62
479.80	7562.27
479.98	7564.61
480.16	7414.82
480.34	7604.40
480.52	7763.56
480.70	7737.81
480.88	7693.34
481.06	7536.52
481.24	7742.49
481.41	7894.63
481.59	7918.03
481.77	7976.55
481.95	8173.15
482.13	8163.79
482.31	8280.82
482.49	8189.53
482.67	8229.32
482.85	8409.54
483.03	8542.96
483.21	8491.46
483.39	8636.58
483.57	8404.86
483.74	8657.64
483.92	8592.11
484.10	8723.18
484.28	8751.26
484.46	9001.70
484.64	9186.60
484.82	9081.28
485.00	9226.39
485.18	9352.78
485.35	9280.22
485.53	9439.38
485.71	9469.81
485.89	9685.14
486.07	9518.96
486.25	9703.86
486.43	9689.82
486.61	9764.72
486.78	9919.19
486.96	9987.07
487.14	10171.97
487.32	10010.47
487.50	9947.28
487.68	10193.03
487.85	10338.15
488.03	10555.82
488.21	10761.78
488.39	10668.16
488.57	10712.63
488.75	10705.61
488.92	10787.53
489.10	10895.19
489.28	11077.76
489.46	11037.97
489.64	11178.40
489.81	11293.08
489.99	11349.26
490.17	11332.87
490.35	11449.90
490.53	11316.49
490.70	11396.07
490.88	11506.07
491.06	11613.74
491.24	11667.57
491.41	11777.58
491.59	12093.55
491.77	11887.58
491.95	12046.74
492.13	12184.83
492.30	12332.28
492.48	12147.38
492.66	12393.14
492.84	12320.58
493.01	12578.04
493.19	12512.50
493.37	12758.26
493.54	12739.54
493.72	12861.24
493.90	12779.32
494.08	12959.55
494.25	13268.50
494.43	12964.23
494.61	13415.95
494.79	13240.41
494.96	13198.28
495.14	13418.29
495.32	13582.13
495.49	13516.59
495.67	13437.02
495.85	13614.90
496.02	13809.16
496.20	13891.08
496.38	13767.03
496.55	14022.15
496.73	14429.40
496.91	14391.95
497.09	14340.46
497.26	14494.94
497.44	14394.29
497.62	14359.19
497.79	14511.32
497.97	14485.58
498.14	14609.62
498.32	14934.96
498.50	15119.86
498.67	14984.11
498.85	14937.30
499.03	15225.18
499.20	14897.51
499.38	15042.62
499.56	15239.23
499.73	15351.57
499.91	15220.50
500.08	15592.65
500.26	15264.97
500.44	15325.83
500.61	15660.52
500.79	15400.72
500.97	15424.13
501.14	15770.53
501.32	15960.11
501.49	15630.10
501.67	15632.44
501.84	15971.82
502.02	15957.77
502.20	16168.42
502.37	16205.87
502.55	16065.44
502.72	16409.50
502.90	16175.44
503.07	15999.90
503.25	16358.00
503.43	16496.10
503.60	16369.71
503.78	16538.23
503.95	16662.27
504.13	16369.71
504.30	16847.18
504.48	16671.64
504.65	16652.91
504.83	16985.27
505.01	17025.06
505.18	16814.41
505.36	17170.17
505.53	17202.94
505.71	16989.95
505.88	17076.55
506.06	16908.03
506.23	17385.50
506.41	17219.32
506.58	17198.26
506.76	17401.88
506.93	17549.34
507.11	17364.43
507.28	17685.09
507.46	17399.54
507.63	17745.94
507.81	17893.40
507.98	17713.17
508.16	17722.54
508.33	17797.43
508.50	18090.00
508.68	18132.13
508.85	18188.30
509.03	18225.75
509.20	18230.43
509.38	18450.44
509.55	18396.61
509.73	18321.71
509.90	18349.80
510.08	18305.33
510.25	18560.45
510.42	18637.69
510.60	18658.75
510.77	18845.99
510.95	18555.77
511.12	18794.50
511.30	18630.66
511.47	18663.43
511.64	19199.41
511.82	18728.97
511.99	19122.18
512.17	18836.63
512.34	19138.56
512.51	18827.27
512.69	19321.12
512.86	18843.65
513.04	19611.35
513.21	19576.24
513.38	19393.68
513.56	19248.57
513.73	19396.02
513.90	19328.14
514.08	19358.57
514.25	19679.22
514.43	19571.56
514.60	19714.33
514.77	19810.29
514.95	19782.21
515.12	19845.40
515.29	19826.68
515.47	20084.14
515.64	20318.19
515.81	20086.48
515.99	20201.16
516.16	20372.02
516.33	20034.99
516.51	20297.13
516.68	20184.78
516.85	20315.85
517.03	20482.03
517.20	20383.73
517.37	20645.87
517.54	20863.54
517.72	20599.05
517.89	20229.25
518.06	20903.32
518.24	20599.05
518.41	20629.48
518.58	20786.30
518.75	20823.75
518.93	20863.54
519.10	21118.65
519.27	21277.81
519.45	20779.28
519.62	21022.69
519.79	20915.03
519.96	21394.84
520.14	20943.11
520.31	21137.38
520.48	21429.94
520.65	21563.36
520.83	21418.24
521.00	21401.86
521.17	21516.54
521.34	21715.49
521.52	21345.69
521.69	21429.94
521.86	21764.64
522.03	21841.88
522.20	21851.24
522.38	22099.34
522.55	21876.99
522.72	21876.99
522.89	22221.05
523.07	22270.20
523.24	22150.83
523.41	21954.22
523.58	22115.72
523.75	21937.84
523.92	22387.22
524.10	22017.42
524.27	22595.53
524.44	22637.66
524.61	22487.87
524.78	22324.03
524.96	22558.08
525.13	22555.74
525.30	22438.72
525.47	22679.79
525.64	22312.33
525.81	22747.67
525.98	22487.87
526.16	22738.30
526.33	22775.75
526.50	23136.20
526.67	22637.66
526.84	23073.00
527.01	22621.28
527.18	23246.20
527.36	23264.92
527.53	23166.62
527.70	23241.52
527.87	23051.94
528.04	23271.95
528.21	23222.80
528.38	23197.05
528.55	23403.02
528.72	22944.27
528.89	23129.17
529.07	23372.59
529.24	23349.18
529.41	23704.95
529.58	23674.52
529.75	23679.20
529.92	23618.35
530.09	23229.82
530.26	23531.75
530.43	23522.38
530.60	23648.77
530.77	23679.20
530.94	23772.82
531.11	23491.96
531.28	23821.97
531.46	23838.36
531.63	23800.91
531.80	23704.95
531.97	24294.76
532.14	24091.13
532.31	24449.24
532.48	24285.40
532.65	24074.75
532.82	24112.20
532.99	24226.89
533.16	24002.19
533.33	24327.53
533.50	24421.15
533.67	24517.11
533.84	24159.01
534.01	24170.71
534.18	24587.33
534.35	24519.45
534.52	24173.05
534.69	24453.92
534.86	24535.84
535.03	24793.29
535.20	24741.80
535.37	24994.58
535.54	24947.77
535.71	24865.85
535.88	24783.93
536.05	24669.25
536.22	24781.59
536.38	25207.57
536.55	25144.38
536.72	25254.38
536.89	24809.68
537.06	24877.55
537.23	25163.10
537.40	25078.84
537.57	25212.25
537.74	25348.00
537.91	25207.57
538.08	25331.62
538.25	25207.57
538.42	24950.11
538.59	25355.02
538.75	25146.72
538.92	25404.17
539.09	25312.89
539.26	25343.32
539.43	25546.95
539.60	25254.38
539.77	25546.95
539.94	25872.28
540.11	25598.44
540.28	25575.03
540.44	25759.94
540.61	25600.78
540.78	25544.61
540.95	25469.71
541.12	25500.14
541.29	25773.98
541.46	25830.15
541.62	25659.29
541.79	25530.56
541.96	25825.47
542.13	25656.95
542.30	25933.14
542.47	26057.18
542.63	25839.51
542.80	26445.71
542.97	26373.16
543.14	26553.38
543.31	26539.33
543.48	26272.51
543.64	26913.82
543.81	26345.07
543.98	26375.50
544.15	26267.83
544.32	26221.02
544.48	26958.29
544.65	26377.84
544.82	26452.73
544.99	26684.45
545.16	26586.15
545.32	26478.48
545.49	26984.04
545.66	27091.70
545.83	26888.07
546.00	26698.49
546.16	26808.50
546.33	26639.98
546.50	26387.20
546.67	26918.50
546.83	26455.08
547.00	27047.23
547.17	27070.64
547.34	26810.84
547.50	27168.94
547.67	27271.92
547.84	27157.24
548.00	27033.19
548.17	27154.90
548.34	26726.58
548.51	27381.93
548.67	27019.14
548.84	27321.07
549.01	27330.44
549.18	27110.43
549.34	27168.94
549.51	27323.41
549.68	27449.80
549.84	27491.93
550.01	27435.76
550.18	27131.49
550.34	27627.68
550.51	27597.26
550.68	27438.10
550.84	27346.82
551.01	27585.55
551.18	27445.12
551.34	27379.59
551.51	27456.82
551.68	27653.43
551.84	27688.54
552.01	27545.76
552.18	27714.28
552.34	27496.61
552.51	27866.42
552.68	27725.99
552.84	27482.57
553.01	28032.60
553.18	27931.95
553.34	27922.59
553.51	27491.93
553.67	28149.62
553.84	28175.37
554.01	28058.34
554.17	28264.31
554.34	27882.80
554.51	27828.97
554.67	28343.89
554.84	28112.17
555.00	28119.20
555.17	27779.82
555.33	28011.53
555.50	28044.30
555.67	28034.94
555.83	27906.21
556.00	28016.21
556.16	28538.15
556.33	28334.53
556.50	28379.00
556.66	28322.82
556.83	28175.37
556.99	28397.72
557.16	28280.69
557.32	28510.07
557.49	28821.36
557.65	28140.26
557.82	28119.20
557.98	28390.70
558.15	28460.91
558.32	28655.18
558.48	28659.86
558.65	28683.27
558.81	28460.91
558.98	28608.37
559.14	28444.53
559.31	28439.85
559.47	28451.55
559.64	28456.23
559.80	28727.74
559.97	28999.24
560.13	28371.97
560.30	28615.39
560.46	29174.78
560.63	28790.93
560.79	28882.21
560.96	29113.92
561.12	28584.96
561.29	28390.70
561.45	28879.87
561.61	28961.79
561.78	29113.92
561.94	28802.63
562.11	29008.60
562.27	28936.04
562.44	28744.12
562.60	28931.36
562.77	28943.06
562.93	28797.95
563.10	28964.13
563.26	28994.56
563.42	29202.86
563.59	28868.17
563.75	29289.46
563.92	29092.86
564.08	29057.75
564.24	29041.37
564.41	28985.19
564.57	29191.16
564.74	28893.91
564.90	29362.02
565.07	29153.71
565.23	29177.12
565.39	29088.18
565.56	29097.54
565.72	29001.58
565.88	29142.01
566.05	29029.66
566.21	29046.05
566.38	28933.70
566.54	29221.59
566.70	29266.06
566.87	29261.38
567.03	29312.87
567.19	29259.04
567.36	29277.76
567.52	29273.08
567.68	29490.75
567.85	28964.13
568.01	29715.44
568.17	29392.45
568.34	29371.38
568.50	29591.39
568.66	29312.87
568.83	29317.55
568.99	29523.52
569.15	28992.22
569.32	29221.59
569.48	29142.01
569.64	29376.06
569.81	29677.99
569.97	29261.38
570.13	29441.60
570.30	29392.45
570.46	29610.12
570.62	29710.76
570.78	29404.15
570.95	29432.24
571.11	29598.41
571.27	29303.51
571.43	29677.99
571.60	29413.51
571.76	29317.55
571.92	29453.30
572.09	29872.26
572.25	29736.51
572.41	29694.38
572.57	29579.69
572.74	29780.98
572.90	29411.17
573.06	29415.85
573.22	29528.20
573.38	29689.70
573.55	29195.84
573.71	30029.07
573.87	29607.78
574.03	29727.14
574.20	29818.42
574.36	29741.19
574.52	28940.72
574.68	29823.11
574.84	29734.17
575.01	29640.54
575.17	29429.90
575.33	29326.91
575.49	29549.26
575.65	29490.75
575.82	30141.42
575.98	29509.47
576.14	29912.05
576.30	29439.26
576.46	30073.54
576.62	29764.59
576.79	29909.71
576.95	29797.36
577.11	29914.39
577.27	29677.99
577.43	29883.96
577.59	29919.07
577.75	29720.12
577.92	29511.81
578.08	29738.85
578.24	29591.39
578.40	30038.44
578.56	29830.13
578.72	29832.47
578.88	30096.95
579.04	30054.82
579.21	29848.85
579.37	29848.85
579.53	29743.53
579.69	29687.36
579.85	29535.22
580.01	30239.72
580.17	29579.69
580.33	29766.93
580.49	30022.05
580.65	30263.13
580.82	29919.07
580.98	30103.97
581.14	30164.82
581.30	29666.29
581.46	29699.06
581.62	29572.67
581.78	29649.91
581.94	29680.33
582.10	29612.46
582.26	29909.71
582.42	29898.00
582.58	30122.69
582.74	29439.26
582.90	30309.94
583.06	30237.38
583.22	30110.99
583.38	29830.13
583.54	30092.27
583.70	29575.01
583.86	29958.86
584.02	29486.07
584.18	29790.34
584.34	29804.38
584.50	29614.80
584.66	29919.07
584.82	29876.94
584.98	29984.60
585.14	30045.46
585.30	29956.52
585.46	29942.47
585.62	29846.51
585.78	30017.37
585.94	29991.62
586.10	29930.77
586.26	29909.71
586.42	30103.97
586.58	29975.24
586.74	30073.54
586.90	29525.86
587.06	29535.22
587.22	29933.11
587.38	29607.78
587.54	30125.04
587.70	30228.02
587.86	29968.22
588.02	30047.80
588.18	30293.55
588.34	30197.59
588.49	30232.70
588.65	30008.01
588.81	29783.32
588.97	30115.67
589.13	29921.41
589.29	30082.91
589.45	30162.48
589.61	30160.14
589.77	30366.11
589.93	30160.14
590.08	29991.62
590.24	30221.00
590.40	30436.33
590.56	30600.16
590.72	30361.43
590.88	30218.66
591.04	30228.02
591.20	30630.59
591.35	30260.79
591.51	30370.79
591.67	30480.80
591.83	30691.44
591.99	30426.96
