SpectraSuite Data File
++++++++++++++++++++++++++++++++++++
Date: Fri Oct 18 13:58:32 GMT-05:00 2013
User: bianchi
Dark Spectrum Present: No
Reference Spectrum Present: No
Number of Sampled Component Spectra: 1
Spectrometers: USB2+H05261
Integration Time (usec): 50000 (USB2+H05261)
Spectra Averaged: 1 (USB2+H05261)
Boxcar Smoothing: 0 (USB2+H05261)
Correct for Electrical Dark: No (USB2+H05261)
Strobe/Lamp Enabled: No (USB2+H05261)
Correct for Detector Non-linearity: No (USB2+H05261)
Correct for Stray Light: No (USB2+H05261)
Number of Pixels in Processed Spectrum: 2048
>>>>>Begin Processed Spectral Data<<<<<
365.73	0.00
365.92	0.00
366.12	0.00
366.32	0.00
366.52	0.00
366.72	0.00
366.91	0.00
367.11	0.00
367.31	0.00
367.51	0.00
367.70	0.00
367.90	0.00
368.10	0.00
368.30	0.00
368.49	0.00
368.69	0.00
368.89	0.00
369.09	0.00
369.28	0.00
369.48	0.00
369.68	0.00
369.87	0.00
370.07	0.00
370.27	0.00
370.47	0.00
370.66	110.01
370.86	79.58
371.06	74.90
371.25	147.45
371.45	60.85
371.65	110.01
371.84	196.60
372.04	145.11
372.24	154.48
372.44	250.44
372.63	236.39
372.83	285.55
373.03	203.63
373.22	121.71
373.42	201.29
373.62	182.56
373.81	266.82
374.01	243.42
374.21	234.05
374.40	196.60
374.60	227.03
374.79	224.69
374.99	224.69
375.19	264.48
375.38	243.42
375.58	215.33
375.78	241.08
375.97	327.68
376.17	269.16
376.37	245.76
376.56	276.18
376.76	273.84
376.95	278.52
377.15	276.18
377.35	234.05
377.54	294.91
377.74	313.63
377.93	407.25
378.13	271.50
378.33	198.95
378.52	337.04
378.72	238.73
378.91	238.73
379.11	248.10
379.31	243.42
379.50	322.99
379.70	334.70
379.89	320.65
380.09	411.93
380.28	306.61
380.48	299.59
380.68	308.95
380.87	287.89
381.07	285.55
381.26	299.59
381.46	320.65
381.65	273.84
381.85	322.99
382.04	297.25
382.24	320.65
382.43	290.23
382.63	311.29
382.83	306.61
383.02	308.95
383.22	304.27
383.41	320.65
383.61	348.74
383.80	290.23
384.00	416.62
384.19	341.72
384.39	407.25
384.58	430.66
384.78	313.63
384.97	409.59
385.17	280.86
385.36	376.83
385.56	383.85
385.75	411.93
385.95	355.76
386.14	397.89
386.34	386.19
386.53	395.55
386.72	449.38
386.92	425.98
387.11	447.04
387.31	404.91
387.50	397.89
387.70	428.32
387.89	454.06
388.09	416.62
388.28	486.83
388.48	454.06
388.67	461.09
388.86	486.83
389.06	383.85
389.25	465.77
389.45	500.87
389.64	479.81
389.84	414.27
390.03	421.30
390.22	442.36
390.42	456.40
390.61	451.72
390.81	496.19
391.00	496.19
391.19	489.17
391.39	561.73
391.58	451.72
391.78	489.17
391.97	535.98
392.16	543.00
392.36	547.69
392.55	596.84
392.75	512.58
392.94	599.18
393.13	606.20
393.33	521.94
393.52	533.64
393.71	566.41
393.91	519.60
394.10	528.96
394.29	484.49
394.49	580.45
394.68	524.28
394.88	603.86
395.07	589.82
395.26	599.18
395.46	622.58
395.65	578.11
395.84	636.63
396.04	744.29
396.23	533.64
396.42	657.69
396.62	669.39
396.81	667.05
397.00	617.90
397.19	678.76
397.39	655.35
397.58	671.73
397.77	758.33
397.97	671.73
398.16	671.73
398.35	674.07
398.55	685.78
398.74	664.71
398.93	732.59
399.12	709.18
399.32	709.18
399.51	568.75
399.70	737.27
399.90	732.59
400.09	662.37
400.28	767.70
400.47	809.83
400.67	760.67
400.86	819.19
401.05	709.18
401.24	760.67
401.44	702.16
401.63	781.74
401.82	751.31
402.01	709.18
402.21	786.42
402.40	763.01
402.59	816.85
402.78	856.64
402.97	858.98
403.17	819.19
403.36	812.17
403.55	882.38
403.74	809.83
403.93	894.08
404.13	884.72
404.32	882.38
404.51	952.60
404.70	884.72
404.89	915.15
405.09	905.79
405.28	938.55
405.47	966.64
405.66	987.71
405.85	947.92
406.05	908.13
406.24	964.30
406.43	992.39
406.62	1022.81
406.81	1053.24
407.00	966.64
407.20	976.00
407.39	1069.62
407.58	987.71
407.77	1081.33
407.96	1020.47
408.15	1025.15
408.34	947.92
408.54	987.71
408.73	1137.50
408.92	1083.67
409.11	1130.48
409.30	1107.07
409.49	1111.75
409.68	990.05
409.87	1179.63
410.07	1125.80
410.26	1078.99
410.45	1139.84
410.64	1034.52
410.83	1086.01
411.02	1130.48
411.21	1273.25
411.40	1224.10
411.59	1275.59
411.78	1196.01
411.98	1179.63
412.17	1270.91
412.36	1270.91
412.55	1203.04
412.74	1261.55
412.93	1252.19
413.12	1369.21
413.31	1432.41
413.50	1355.17
413.69	1383.26
413.88	1399.64
414.07	1446.45
414.26	1474.54
414.45	1516.67
414.64	1425.39
414.83	1423.05
415.02	1549.43
415.22	1446.45
415.41	1582.20
415.60	1596.25
415.79	1519.01
415.98	1511.99
416.17	1621.99
416.36	1561.14
416.55	1621.99
416.74	1638.38
416.93	1572.84
417.12	1675.82
417.31	1647.74
417.50	1640.72
417.69	1753.06
417.88	1703.91
418.07	1727.32
418.26	1797.53
418.45	1680.50
418.64	1762.42
418.83	1802.21
419.02	1746.04
419.21	1870.09
419.39	1753.06
419.58	1879.45
419.77	1853.70
419.96	1811.57
420.15	1820.94
420.34	1830.30
420.53	1884.13
420.72	1907.54
420.91	1907.54
421.10	1830.30
421.29	1823.28
421.48	1804.55
421.67	1919.24
421.86	1923.92
422.05	1919.24
422.24	1956.69
422.43	1834.98
422.61	1991.80
422.80	2017.54
422.99	1963.71
423.18	1982.43
423.37	1959.03
423.56	2076.06
423.75	1961.37
423.94	1947.33
424.13	1776.47
424.32	1818.60
424.50	2050.31
424.69	2143.93
424.88	2071.37
425.07	2031.58
425.26	1966.05
425.45	1987.11
425.64	2087.76
425.83	1827.96
426.01	2047.97
426.20	2057.33
426.39	2008.18
426.58	2031.58
426.77	1996.48
426.96	1956.69
427.15	2054.99
427.33	2141.59
427.52	2094.78
427.71	2118.18
427.90	2160.31
428.09	2108.82
428.28	2167.34
428.46	2113.50
428.65	2136.91
428.84	2162.66
429.03	2284.36
429.22	2094.78
429.40	2160.31
429.59	2310.11
429.78	2132.23
429.97	2101.80
430.16	2260.96
430.34	2160.31
430.53	2347.56
430.72	2392.03
430.91	2256.28
431.10	2326.49
431.28	2263.30
431.47	2401.39
431.66	2305.43
431.85	2396.71
432.03	2473.95
432.22	2448.20
432.41	2387.35
432.60	2377.98
432.79	2394.37
432.97	2466.92
433.16	2574.59
433.35	2382.67
433.54	2672.89
433.72	2586.29
433.91	2490.33
434.10	2476.29
434.28	2530.12
434.47	2438.84
434.66	2532.46
434.85	2492.67
435.03	2553.52
435.22	2576.93
435.41	2576.93
435.59	2560.55
435.78	2626.08
435.97	2675.23
436.16	2677.57
436.34	2597.99
436.53	2703.32
436.72	2792.26
436.90	2581.61
437.09	2686.94
437.28	2640.12
437.46	2738.43
437.65	2750.13
437.84	2731.41
438.02	2846.09
438.21	2726.72
438.40	2754.81
438.58	2930.35
438.77	2967.80
438.96	2780.56
439.14	2785.24
439.33	2911.63
439.52	2981.84
439.70	2867.16
439.89	2928.01
440.08	3038.02
440.26	3000.57
440.45	3035.67
440.63	3082.49
440.82	3155.04
441.01	3009.93
441.19	3087.17
441.38	3094.19
441.57	3185.47
441.75	3129.30
441.94	3241.64
442.12	3246.32
442.31	3225.26
442.50	3288.45
442.68	3211.22
442.87	3487.40
443.05	3232.28
443.24	3311.86
443.43	3419.52
443.61	3361.01
443.80	3339.94
443.98	3309.52
444.17	3234.62
444.35	3265.05
444.54	3370.37
444.73	3478.04
444.91	3485.06
445.10	3384.41
445.28	3421.86
445.47	3339.94
445.65	3412.50
445.84	3440.59
446.02	3536.55
446.21	3473.36
446.39	3358.67
446.58	3442.93
446.77	3496.76
446.95	3419.52
447.14	3435.91
447.32	3456.97
447.51	3447.61
447.69	3447.61
447.88	3550.59
448.06	3536.55
448.25	3398.46
448.43	3496.76
448.62	3468.67
448.80	3466.33
448.99	3599.74
449.17	3590.38
449.36	3520.17
449.54	3712.09
449.73	3632.51
449.91	3676.98
450.10	3674.64
450.28	3702.73
450.46	3688.68
450.65	3756.56
450.83	3896.99
451.02	3829.12
451.20	3712.09
451.39	3723.79
451.57	3723.79
451.76	3688.68
451.94	3756.56
452.13	3882.95
452.31	3782.31
452.49	3770.60
452.68	3801.03
452.86	3784.65
453.05	3983.59
453.23	3894.65
453.42	3782.31
453.60	3772.94
453.78	3946.14
453.97	3955.51
454.15	3920.40
454.34	3861.88
454.52	3913.38
454.70	4018.70
454.89	3899.33
455.07	3911.04
455.26	4018.70
455.44	3985.93
455.62	4114.66
455.81	4105.30
455.99	4126.36
456.17	4018.70
456.36	4030.40
456.54	4147.43
456.73	4084.23
456.91	4327.65
457.09	4280.84
457.28	4315.95
457.46	4194.24
457.64	4344.03
457.83	4355.74
458.01	4341.69
458.19	4362.76
458.38	4315.95
458.56	4397.87
458.74	4341.69
458.93	4416.59
459.11	4304.25
459.29	4351.06
459.48	4451.70
459.66	4311.27
459.84	4440.00
460.03	4449.36
460.21	4629.58
460.39	4475.10
460.57	4510.21
460.76	4442.34
460.94	4564.04
461.12	4510.21
461.31	4585.11
461.49	4367.44
461.67	4678.73
461.85	4760.65
462.04	4748.95
462.22	4690.43
462.40	4737.24
462.59	4760.65
462.77	4847.25
462.95	4830.87
463.13	4973.64
463.32	4697.46
463.50	4814.48
463.68	4662.35
463.86	4800.44
464.05	4851.93
464.23	4826.18
464.41	4795.76
464.59	4823.84
464.78	4898.74
464.96	4737.24
465.14	4975.98
465.32	5036.83
465.50	4877.68
465.69	4880.02
465.87	4973.64
466.05	5064.92
466.23	4856.61
466.41	4931.51
466.60	5029.81
466.78	5004.07
466.96	5095.35
467.14	4936.19
467.32	5050.88
467.51	5095.35
467.69	5001.72
467.87	5149.18
468.05	5085.98
468.23	5130.45
468.41	5076.62
468.60	5212.37
468.78	5224.08
468.96	5046.20
469.14	5114.07
469.32	5291.95
469.50	5179.61
469.69	5270.89
469.87	5373.87
470.05	5392.59
470.23	5432.38
470.41	5210.03
470.59	5397.28
470.77	5518.98
470.95	5406.64
471.14	5511.96
471.32	5563.45
471.50	5497.92
471.68	5423.02
471.86	5713.25
472.04	5540.05
472.22	5750.70
472.40	5722.61
472.58	5713.25
472.77	5680.48
472.95	5710.91
473.13	5755.38
473.31	5636.01
473.49	5720.27
473.67	5947.30
473.85	5738.99
474.03	5783.46
474.21	5783.46
474.39	5989.43
474.57	5921.56
474.75	6029.22
474.93	6197.74
475.12	6040.92
475.30	5977.73
475.48	5991.77
475.66	6246.89
475.84	6193.06
476.02	6260.93
476.20	6169.65
476.38	6422.43
476.56	6487.96
476.74	6410.73
476.92	6537.12
477.10	6548.82
477.28	6651.80
477.46	6530.09
477.64	6656.48
477.82	6750.10
478.00	6878.83
478.18	6782.87
478.36	6937.35
478.54	6890.54
478.72	7101.19
478.90	6951.39
479.08	7169.06
479.26	7353.96
479.44	7176.08
479.62	7176.08
479.80	7213.53
479.98	7384.39
480.16	7456.95
480.34	7538.87
480.52	7576.31
480.70	7487.37
480.88	7494.40
481.06	7538.87
481.24	7639.51
481.41	7744.83
481.59	7906.33
481.77	7901.65
481.95	7911.01
482.13	7824.41
482.31	8224.64
482.49	8257.41
482.67	8119.32
482.85	8189.53
483.03	8212.94
483.21	8500.83
483.39	8533.59
483.57	8444.65
483.74	8400.18
483.92	8830.84
484.10	8493.80
484.28	8688.07
484.46	8828.50
484.64	9111.71
484.82	8898.72
485.00	9015.74
485.18	9142.13
485.35	9453.42
485.53	9366.82
485.71	9671.09
485.89	9570.45
486.07	9298.95
486.25	9533.00
486.43	9617.26
486.61	9596.20
486.78	9865.36
486.96	9790.46
487.14	9975.36
487.32	9951.96
487.50	9877.06
487.68	10136.86
487.85	10143.88
488.03	10530.07
488.21	10462.19
488.39	10427.09
488.57	10686.89
488.75	10698.59
488.92	10806.25
489.10	10752.42
489.28	10773.49
489.46	11030.94
489.64	10855.40
489.81	11021.58
489.99	11133.93
490.17	11096.48
490.35	11438.20
490.53	11351.60
490.70	11616.08
490.88	11407.77
491.06	11473.31
491.24	11566.93
491.41	11803.32
491.59	11941.41
491.77	11948.43
491.95	11978.86
492.13	12107.59
492.30	12105.25
492.48	12159.08
492.66	12325.26
492.84	12318.24
493.01	12292.49
493.19	12318.24
493.37	12517.18
493.54	12772.30
493.72	12580.38
493.90	12627.19
494.08	12746.56
494.25	12901.03
494.43	12865.92
494.61	12884.65
494.79	13252.11
494.96	13224.03
495.14	13156.15
495.32	13429.99
495.49	13385.52
495.67	13488.51
495.85	13652.34
496.02	13621.92
496.20	13474.46
496.38	13771.71
496.55	13720.22
496.73	14047.90
496.91	13886.40
497.09	13944.91
497.26	14010.45
497.44	14085.34
497.62	14211.73
497.79	14420.04
497.97	14347.48
498.14	14586.22
498.32	14871.76
498.50	14607.28
498.67	14771.12
498.85	14881.13
499.03	14953.68
499.20	15021.56
499.38	14881.13
499.56	14920.92
499.73	15044.96
499.91	15225.18
500.08	15208.80
500.26	15068.37
500.44	15215.82
500.61	15475.62
500.79	15393.70
500.97	15489.67
501.14	15604.35
501.32	15829.04
501.49	15674.57
501.67	15627.76
501.84	15688.61
502.02	15948.41
502.20	15695.63
502.37	15817.34
502.55	15672.23
502.72	16035.01
502.90	16039.69
503.07	16166.08
503.25	16327.58
503.43	16224.59
503.60	16065.44
503.78	16381.41
503.95	16159.06
504.13	16563.97
504.30	16463.33
504.48	16563.97
504.65	16547.59
504.83	16582.70
505.01	16727.81
505.18	16704.40
505.36	16795.68
505.53	16692.70
505.71	17011.01
505.88	17205.28
506.06	16889.31
506.23	17109.32
506.41	17301.24
506.58	17025.06
506.76	17226.34
506.93	17312.94
507.11	17221.66
507.28	17460.40
507.46	17053.14
507.63	17401.88
507.81	17759.98
507.98	17666.36
508.16	17834.88
508.33	17436.99
508.50	18031.49
508.68	17631.26
508.85	17820.84
509.03	17916.80
509.20	17984.68
509.38	18125.11
509.55	18120.43
509.73	17783.39
509.90	18068.94
510.08	18024.47
510.25	18174.26
510.42	18132.13
510.60	18551.09
510.77	18389.59
510.95	18640.03
511.12	18134.47
511.30	18373.21
511.47	18750.03
511.64	18726.63
511.82	18757.05
511.99	18647.05
512.17	18995.79
512.34	18670.45
512.51	18672.79
512.69	19047.28
512.86	18911.53
513.04	19243.88
513.21	19136.22
513.38	19255.59
513.56	19400.70
513.73	19066.00
513.90	19215.80
514.08	19016.85
514.25	19456.87
514.43	19527.09
514.60	19393.68
514.77	19728.38
514.95	19831.36
515.12	19480.28
515.29	19482.62
515.47	19817.32
515.64	19859.45
515.81	19971.79
515.99	20077.12
516.16	20093.50
516.33	19957.75
516.51	20126.27
516.68	19943.70
516.85	20091.16
517.03	20063.07
517.20	20264.36
517.37	20240.95
517.54	20432.88
517.72	20046.69
517.89	20060.73
518.06	20411.81
518.24	20643.52
518.41	20032.65
518.58	20346.28
518.75	20666.93
518.93	20613.10
519.10	20685.65
519.27	21008.65
519.45	20774.60
519.62	20879.92
519.79	20535.86
519.96	20828.43
520.14	21383.13
520.31	21022.69
520.48	20978.22
520.65	21357.39
520.83	21020.35
521.00	20908.01
521.17	21036.74
521.34	20847.15
521.52	21242.70
521.69	21209.93
521.86	21720.17
522.03	21481.44
522.20	21689.74
522.38	21996.35
522.55	21284.83
522.72	21813.79
522.89	21549.31
523.07	21790.39
523.24	21612.51
523.41	21844.22
523.58	21598.46
523.75	21757.62
523.92	21862.94
524.10	21614.85
524.27	21977.63
524.44	22003.38
524.61	22312.33
524.78	22099.34
524.96	21982.31
525.13	22272.54
525.30	22190.62
525.47	22211.68
525.64	22047.85
525.81	22565.10
525.98	22572.13
526.16	22677.45
526.33	22506.59
526.50	22551.06
526.67	22593.19
526.84	22562.76
527.01	22473.82
527.18	22504.25
527.36	22845.97
527.53	22871.72
527.70	22930.23
527.87	23026.19
528.04	22717.24
528.21	22932.57
528.38	22911.50
528.55	23101.09
528.72	23363.23
528.89	23016.83
529.07	22970.02
529.24	22883.42
529.41	23314.08
529.58	23028.53
529.75	23332.80
529.92	23330.46
530.09	23068.32
530.26	23281.31
530.43	23344.50
530.60	23349.18
530.77	23164.28
530.94	23674.52
531.11	23321.10
531.28	23557.49
531.46	23349.18
531.63	23494.30
531.80	23644.09
531.97	23662.82
532.14	24065.39
532.31	24056.03
532.48	23843.04
532.65	23660.48
532.82	23875.80
532.99	23707.29
533.16	24119.22
533.33	24016.24
533.50	24107.52
533.67	24334.55
533.84	23953.04
534.01	24259.65
534.18	23971.77
534.35	24348.59
534.52	24299.44
534.69	24261.99
534.86	24566.26
535.03	24322.85
535.20	24390.72
535.37	24685.63
535.54	24329.87
535.71	24528.81
535.88	24655.20
536.05	24130.92
536.22	24685.63
536.38	24950.11
536.55	24453.92
536.72	24549.88
536.89	24395.40
537.06	24765.21
537.23	24774.57
537.40	24697.33
537.57	24929.05
537.74	24739.46
537.91	24872.87
538.08	25055.43
538.25	24978.20
538.42	25174.80
538.59	24971.18
538.75	24884.58
538.92	25184.16
539.09	25090.54
539.26	25259.06
539.43	25111.61
539.60	25455.67
539.77	25165.44
539.94	25659.29
540.11	25605.46
540.28	25296.51
540.44	25025.01
540.61	25060.12
540.78	25483.75
540.95	25221.61
541.12	25317.57
541.29	25748.23
541.46	25661.63
541.62	25523.54
541.79	25673.34
541.96	25352.68
542.13	25476.73
542.30	25469.71
542.47	25869.94
542.63	25855.90
542.80	25848.88
542.97	26054.84
543.14	25874.62
543.31	26209.32
543.48	25621.84
543.64	26008.03
543.81	26167.19
543.98	26057.18
544.15	26206.98
544.32	26352.09
544.48	26345.07
544.65	26008.03
544.82	26082.93
544.99	26195.28
545.16	26087.61
545.32	26349.75
545.49	26586.15
545.66	26813.18
545.83	26749.98
546.00	26799.13
546.16	26356.77
546.33	26169.53
546.50	26284.22
546.67	26286.56
546.83	26176.55
547.00	26319.32
547.17	26558.06
547.34	26635.30
547.50	26937.23
547.67	27002.76
547.84	26635.30
548.00	26848.29
548.17	26859.99
548.34	26759.34
548.51	26960.63
548.67	27103.40
548.84	26782.75
549.01	26984.04
549.18	26738.28
549.34	27065.96
549.51	27000.42
549.68	27007.44
549.84	27035.53
550.01	26878.71
550.18	26906.80
550.34	26745.30
550.51	27683.86
550.68	27325.75
550.84	27489.59
551.01	27211.07
551.18	27285.97
551.34	27197.02
551.51	27115.11
551.68	27660.45
551.84	27239.15
552.01	27080.00
552.18	27482.57
552.34	27454.48
552.51	27833.65
552.68	27459.16
552.84	27491.93
553.01	27459.16
553.18	27220.43
553.34	27641.73
553.51	27459.16
553.67	27646.41
553.84	27587.89
554.01	27597.26
554.17	27651.09
554.34	27653.43
554.51	27608.96
554.67	27463.85
554.84	27639.39
555.00	27534.06
555.17	27828.97
555.33	27915.57
555.50	27868.76
555.67	27908.55
555.83	27988.13
556.00	27419.38
556.16	27910.89
556.33	27960.04
556.50	27583.21
556.66	27541.08
556.83	27798.54
556.99	28105.15
557.16	28407.08
557.32	28053.66
557.49	28451.55
557.65	27768.12
557.82	28180.05
557.98	28168.35
558.15	28362.61
558.32	28119.20
558.48	28144.94
558.65	28016.21
558.81	28339.21
558.98	28177.71
559.14	28383.68
559.31	28149.62
559.47	28119.20
559.64	28322.82
559.80	28395.38
559.97	28463.25
560.13	28119.20
560.30	28680.92
560.46	28519.43
560.63	28500.70
560.79	28678.58
560.96	28226.86
561.12	28268.99
561.29	28048.98
561.45	28727.74
561.61	28519.43
561.78	28381.34
561.94	28299.42
562.11	28989.88
562.27	28725.39
562.44	28388.36
562.60	28580.28
562.77	28191.75
562.93	28411.76
563.10	28811.99
563.26	28336.87
563.42	28802.63
563.59	28577.94
563.75	28725.39
563.92	28837.74
564.08	28126.22
564.24	28671.56
564.41	28638.80
564.57	28666.88
564.74	28535.81
564.90	29165.42
565.07	28655.18
565.23	28741.78
565.39	28570.92
565.56	28987.53
565.72	28428.15
565.88	28980.51
566.05	28889.23
566.21	28629.43
566.38	28692.63
566.54	28879.87
566.70	29142.01
566.87	28650.50
567.03	28966.47
567.19	29432.24
567.36	29153.71
567.52	28659.86
567.68	29109.24
567.85	28999.24
568.01	28861.15
568.17	28774.55
568.34	29184.14
568.50	29137.33
568.66	29221.59
568.83	29053.07
568.99	28837.74
569.15	28896.25
569.32	28868.17
569.48	28718.37
569.64	29111.58
569.81	29158.39
569.97	29237.97
570.13	29116.26
570.30	28886.89
570.46	29055.41
570.62	28814.34
570.78	29048.39
570.95	29039.03
571.11	28975.83
571.27	28889.23
571.43	28900.94
571.60	29139.67
571.76	28851.78
571.92	29046.05
572.09	29064.77
572.25	29027.32
572.41	29170.10
572.57	29404.15
572.74	29666.29
572.90	28804.97
573.06	29022.64
573.22	29369.04
573.38	29383.09
573.55	29448.62
573.71	29296.49
573.87	29422.87
574.03	28891.57
574.20	29256.70
574.36	29053.07
574.52	29036.69
574.68	29237.97
574.84	29111.58
575.01	29209.89
575.17	29488.41
575.33	29439.26
575.49	29350.32
575.65	29582.03
575.82	29439.26
575.98	29209.89
576.14	29631.18
576.30	29472.03
576.46	29769.27
576.62	29235.63
576.79	29111.58
576.95	29551.60
577.11	29221.59
577.27	29439.26
577.43	29467.34
577.59	29261.38
577.75	29273.08
577.92	29259.04
578.08	29062.43
578.24	29383.09
578.40	29202.86
578.56	29277.76
578.72	29249.67
578.88	29696.72
579.04	29495.43
579.21	29266.06
579.37	29762.25
579.53	29762.25
579.69	29422.87
579.85	29434.58
580.01	29371.38
580.17	28954.77
580.33	29619.48
580.49	29247.33
580.65	29158.39
580.82	29436.92
580.98	29699.06
581.14	29345.64
581.30	29567.99
581.46	29289.46
581.62	29310.53
581.78	29467.34
581.94	29596.07
582.10	29249.67
582.26	29745.87
582.42	29324.57
582.58	29462.66
582.74	29797.36
582.90	29652.25
583.06	29729.48
583.22	29537.56
583.38	29600.76
583.54	29336.27
583.70	29504.79
583.86	29174.78
584.02	29865.24
584.18	29996.31
584.34	29722.46
584.50	29612.46
584.66	29486.07
584.82	29481.39
584.98	29624.16
585.14	29483.73
585.30	29324.57
585.46	29329.25
585.62	29483.73
585.78	29766.93
585.94	29312.87
586.10	29425.22
586.26	29666.29
586.42	29839.49
586.58	29465.00
586.74	29490.75
586.90	29497.77
587.06	29221.59
587.22	29500.11
587.38	29310.53
587.54	30469.09
587.70	29883.96
587.86	29708.42
588.02	29521.18
588.18	30075.88
588.34	29495.43
588.49	29528.20
588.65	29799.70
588.81	29560.97
588.97	29788.00
589.13	29724.80
589.29	29816.08
589.45	29862.90
589.61	29528.20
589.77	29909.71
589.93	29928.43
590.08	29780.98
590.24	29940.13
590.40	29619.48
590.56	29986.94
590.72	29862.90
590.88	29486.07
591.04	29855.87
591.20	30113.33
591.35	30389.52
591.51	30054.82
591.67	30263.13
591.83	30073.54
591.99	30122.69
