SpectraSuite Data File
++++++++++++++++++++++++++++++++++++
Date: Fri Oct 18 13:58:18 GMT-05:00 2013
User: bianchi
Dark Spectrum Present: No
Reference Spectrum Present: No
Number of Sampled Component Spectra: 1
Spectrometers: USB2+H05261
Integration Time (usec): 50000 (USB2+H05261)
Spectra Averaged: 1 (USB2+H05261)
Boxcar Smoothing: 0 (USB2+H05261)
Correct for Electrical Dark: No (USB2+H05261)
Strobe/Lamp Enabled: No (USB2+H05261)
Correct for Detector Non-linearity: No (USB2+H05261)
Correct for Stray Light: No (USB2+H05261)
Number of Pixels in Processed Spectrum: 2048
>>>>>Begin Processed Spectral Data<<<<<
365.73	0.00
365.92	0.00
366.12	0.00
366.32	0.00
366.52	0.00
366.72	0.00
366.91	0.00
367.11	0.00
367.31	0.00
367.51	0.00
367.70	0.00
367.90	0.00
368.10	0.00
368.30	0.00
368.49	0.00
368.69	0.00
368.89	0.00
369.09	0.00
369.28	0.00
369.48	0.00
369.68	0.00
369.87	0.00
370.07	0.00
370.27	0.00
370.47	0.00
370.66	21.06
370.86	145.11
371.06	107.66
371.25	154.48
371.45	170.86
371.65	152.13
371.84	102.98
372.04	149.79
372.24	149.79
372.44	173.20
372.63	147.45
372.83	215.33
373.03	215.33
373.22	187.24
373.42	229.37
373.62	238.73
373.81	191.92
374.01	234.05
374.21	325.33
374.40	262.14
374.60	229.37
374.79	224.69
374.99	177.88
375.19	215.33
375.38	262.14
375.58	222.35
375.78	292.57
375.97	322.99
376.17	304.27
376.37	250.44
376.56	299.59
376.76	229.37
376.95	177.88
377.15	234.05
377.35	271.50
377.54	287.89
377.74	243.42
377.93	294.91
378.13	145.11
378.33	252.78
378.52	318.31
378.72	292.57
378.91	315.97
379.11	201.29
379.31	196.60
379.50	259.80
379.70	248.10
379.89	341.72
380.09	304.27
380.28	386.19
380.48	332.36
380.68	306.61
380.87	318.31
381.07	287.89
381.26	304.27
381.46	341.72
381.65	297.25
381.85	280.86
382.04	315.97
382.24	379.17
382.43	322.99
382.63	334.70
382.83	325.33
383.02	327.68
383.22	465.77
383.41	369.80
383.61	409.59
383.80	348.74
384.00	325.33
384.19	372.15
384.39	386.19
384.58	383.85
384.78	376.83
384.97	388.53
385.17	393.21
385.36	390.87
385.56	421.30
385.75	404.91
385.95	404.91
386.14	407.25
386.34	447.04
386.53	395.55
386.72	346.40
386.92	442.36
387.11	463.43
387.31	344.06
387.50	447.04
387.70	409.59
387.89	395.55
388.09	423.64
388.28	435.34
388.48	456.40
388.67	442.36
388.86	428.32
389.06	442.36
389.25	428.32
389.45	423.64
389.64	461.09
389.84	491.51
390.03	550.03
390.22	444.70
390.42	454.06
390.61	468.11
390.81	454.06
391.00	491.51
391.19	468.11
391.39	557.05
391.58	545.34
391.78	491.51
391.97	440.02
392.16	470.45
392.36	444.70
392.55	510.24
392.75	535.98
392.94	526.62
393.13	482.15
393.33	575.77
393.52	554.71
393.71	557.05
393.91	519.60
394.10	575.77
394.29	571.09
394.49	543.00
394.68	550.03
394.88	599.18
395.07	510.24
395.26	571.09
395.46	594.50
395.65	671.73
395.84	554.71
396.04	706.84
396.23	608.54
396.42	697.48
396.62	596.84
396.81	648.33
397.00	624.92
397.19	617.90
397.39	688.12
397.58	688.12
397.77	643.65
397.97	683.44
398.16	711.52
398.35	608.54
398.55	641.31
398.74	732.59
398.93	741.95
399.12	746.63
399.32	716.20
399.51	716.20
399.70	657.69
399.90	615.56
400.09	723.23
400.28	786.42
400.47	732.59
400.67	772.38
400.86	713.86
401.05	805.14
401.24	919.83
401.44	821.53
401.63	807.48
401.82	781.74
402.01	739.61
402.21	723.23
402.40	851.96
402.59	898.77
402.78	854.30
402.97	842.59
403.17	807.48
403.36	873.02
403.55	905.79
403.74	858.98
403.93	915.15
404.13	922.17
404.32	868.34
404.51	889.40
404.70	1001.75
404.89	861.32
405.09	917.49
405.28	980.68
405.47	987.71
405.66	894.08
405.85	959.62
406.05	961.96
406.24	1043.88
406.43	985.37
406.62	919.83
406.81	1104.73
407.00	940.90
407.20	992.39
407.39	1015.79
407.58	1046.22
407.77	1015.79
407.96	1163.25
408.15	1053.24
408.34	1086.01
408.54	1121.12
408.73	976.00
408.92	1109.41
409.11	1172.61
409.30	1179.63
409.49	1034.52
409.68	1093.03
409.87	1137.50
410.07	1210.06
410.26	1139.84
410.45	1167.93
410.64	1125.80
410.83	1163.25
411.02	1146.86
411.21	1249.85
411.40	1210.06
411.59	1343.47
411.78	1188.99
411.98	1331.76
412.17	1221.76
412.36	1299.00
412.55	1329.42
412.74	1394.96
412.93	1310.70
413.12	1329.42
413.31	1413.68
413.50	1453.47
413.69	1385.60
413.88	1313.04
414.07	1390.28
414.26	1404.32
414.45	1533.05
414.64	1437.09
414.83	1472.20
415.02	1556.46
415.22	1509.65
415.41	1565.82
415.60	1430.07
415.79	1579.86
415.98	1596.25
416.17	1636.03
416.36	1654.76
416.55	1511.99
416.74	1540.07
416.93	1577.52
417.12	1659.44
417.31	1673.48
417.50	1657.10
417.69	1790.51
417.88	1760.08
418.07	1701.57
418.26	1701.57
418.45	1619.65
418.64	1696.89
418.83	1849.02
419.02	1788.17
419.21	1837.32
419.39	1867.75
419.58	1696.89
419.77	1788.17
419.96	1806.89
420.15	1788.17
420.34	1762.42
420.53	1898.17
420.72	1959.03
420.91	1921.58
421.10	1888.81
421.29	1832.64
421.48	1916.90
421.67	1912.22
421.86	1902.86
422.05	1961.37
422.24	1975.41
422.43	1909.88
422.61	1935.62
422.80	1956.69
422.99	2031.58
423.18	2040.95
423.37	2029.24
423.56	1977.75
423.75	1867.75
423.94	1928.60
424.13	1926.26
424.32	1907.54
424.50	2022.22
424.69	2008.18
424.88	1919.24
425.07	2031.58
425.26	1891.15
425.45	2017.54
425.64	2052.65
425.83	1954.35
426.01	1984.77
426.20	1961.37
426.39	2054.99
426.58	2172.02
426.77	2085.42
426.96	2127.55
427.15	2087.76
427.33	2141.59
427.52	2057.33
427.71	2183.72
427.90	2162.66
428.09	2223.51
428.28	2054.99
428.46	2087.76
428.65	2209.47
428.84	2296.07
429.03	2256.28
429.22	2207.13
429.40	2338.20
429.59	2265.64
429.78	2155.63
429.97	2256.28
430.16	2176.70
430.34	2270.32
430.53	2363.94
430.72	2321.81
430.91	2356.92
431.10	2277.34
431.28	2335.85
431.47	2307.77
431.66	2394.37
431.85	2286.70
432.03	2406.07
432.22	2392.03
432.41	2429.48
432.60	2466.92
432.79	2272.66
432.97	2530.12
433.16	2492.67
433.35	2431.82
433.54	2534.80
433.72	2487.99
433.91	2492.67
434.10	2558.21
434.28	2443.52
434.47	2469.27
434.66	2619.06
434.85	2635.44
435.03	2459.90
435.22	2562.89
435.41	2649.49
435.59	2637.78
435.78	2562.89
435.97	2663.53
436.16	2717.36
436.34	2656.51
436.53	2698.64
436.72	2768.85
436.90	2597.99
437.09	2717.36
437.28	2590.97
437.46	2661.19
437.65	2766.51
437.84	2832.05
438.02	2717.36
438.21	2773.53
438.40	2782.90
438.58	2876.52
438.77	2993.55
438.96	2789.92
439.14	2878.86
439.33	2932.69
439.52	2920.99
439.70	2890.56
439.89	2935.03
440.08	3124.62
440.26	3073.12
440.45	3110.57
440.63	3089.51
440.82	3054.40
441.01	2991.20
441.19	3033.33
441.38	3136.32
441.57	3084.83
441.75	3122.27
441.94	3302.50
442.12	3185.47
442.31	3286.11
442.50	3246.32
442.68	3204.19
442.87	3300.16
443.05	3243.98
443.24	3379.73
443.43	3370.37
443.61	3410.16
443.80	3499.10
443.98	3377.39
444.17	3302.50
444.35	3442.93
444.54	3513.14
444.73	3494.42
444.91	3414.84
445.10	3386.76
445.28	3311.86
445.47	3316.54
445.65	3405.48
445.84	3566.98
446.02	3496.76
446.21	3386.76
446.39	3410.16
446.58	3473.36
446.77	3410.16
446.95	3407.82
447.14	3438.25
447.32	3454.63
447.51	3494.42
447.69	3501.44
447.88	3559.95
448.06	3461.65
448.25	3555.27
448.43	3489.74
448.62	3485.06
448.80	3506.12
448.99	3485.06
449.17	3658.26
449.36	3583.36
449.54	3604.42
449.73	3644.21
449.91	3641.87
450.10	3473.36
450.28	3758.90
450.46	3763.58
450.65	3779.97
450.83	3740.18
451.02	3756.56
451.20	3737.84
451.39	3794.01
451.57	3728.47
451.76	3751.88
451.94	3751.88
452.13	3854.86
452.31	3796.35
452.49	3840.82
452.68	3796.35
452.86	3904.01
453.05	3904.01
453.23	3798.69
453.42	3791.67
453.60	3922.74
453.78	3845.50
453.97	3882.95
454.15	3946.14
454.34	3992.95
454.52	4037.42
454.70	4042.11
454.89	4004.66
455.07	4074.87
455.26	3971.89
455.44	3990.61
455.62	3889.97
455.81	4037.42
455.99	4135.73
456.17	4042.11
456.36	3983.59
456.54	4170.83
456.73	4077.21
456.91	4243.39
457.09	4337.01
457.28	4372.12
457.46	4269.14
457.64	4266.80
457.83	4241.05
458.01	4201.26
458.19	4346.37
458.38	4264.46
458.56	4524.26
458.74	4475.10
458.93	4428.29
459.11	4390.84
459.29	4400.21
459.48	4440.00
459.66	4463.40
459.84	4510.21
460.03	4475.10
460.21	4512.55
460.39	4395.53
460.57	4374.46
460.76	4634.26
460.94	4587.45
461.12	4580.43
461.31	4631.92
461.49	4589.79
461.67	4704.48
461.85	4624.90
462.04	4781.71
462.22	4882.36
462.40	4788.74
462.59	4627.24
462.77	4692.77
462.95	4896.40
463.13	4856.61
463.32	4765.33
463.50	4798.10
463.68	4950.23
463.86	4880.02
464.05	4772.35
464.23	4922.15
464.41	4877.68
464.59	4842.57
464.78	4973.64
464.96	4875.34
465.14	4887.04
465.32	5034.49
465.50	5062.58
465.69	5027.47
465.87	5074.28
466.05	5060.24
466.23	4898.74
466.41	4812.14
466.60	5132.79
466.78	5104.71
466.96	4889.38
467.14	4997.04
467.32	5104.71
467.51	5231.10
467.69	4950.23
467.87	5273.23
468.05	5076.62
468.23	5083.64
468.41	5114.07
468.60	5013.43
468.78	5277.91
468.96	4917.47
469.14	5331.74
469.32	5205.35
469.50	5371.53
469.69	5289.61
469.87	5294.29
470.05	5401.96
470.23	5261.52
470.41	5392.59
470.59	5575.16
470.77	5350.46
470.95	5476.85
471.14	5542.39
471.32	5406.64
471.50	5652.39
471.68	5591.54
471.86	5575.16
472.04	5762.40
472.22	5741.33
472.40	5654.73
472.58	5636.01
472.77	5645.37
472.95	5706.23
473.13	5949.64
473.31	5713.25
473.49	5891.13
473.67	5832.62
473.85	5877.09
474.03	6146.25
474.21	6061.99
474.39	5984.75
474.57	6036.24
474.75	6176.67
474.93	6069.01
475.12	6113.48
475.30	6076.03
475.48	6305.40
475.66	6197.74
475.84	6415.41
476.02	6282.00
476.20	6258.59
476.38	6319.45
476.56	6644.78
476.74	6492.65
476.92	6630.74
477.10	6558.18
477.28	6621.38
477.46	6574.56
477.64	6691.59
477.82	6825.00
478.00	6715.00
478.18	6780.53
478.36	6956.07
478.54	7023.95
478.72	7129.27
478.90	7054.37
479.08	7328.22
479.26	7372.69
479.44	7241.62
479.62	7276.73
479.80	7417.16
479.98	7360.98
480.16	7550.57
480.34	7304.81
480.52	7581.00
480.70	7595.04
480.88	7571.63
481.06	7564.61
481.24	7737.81
481.41	7805.69
481.59	7896.97
481.77	7864.20
481.95	7882.92
482.13	7985.91
482.31	7950.80
482.49	8250.39
482.67	8121.66
482.85	8547.64
483.03	8400.18
483.21	8514.87
483.39	8517.21
483.57	8439.97
483.74	8657.64
483.92	8732.54
484.10	8720.84
484.28	8793.39
484.46	8964.25
484.64	9205.33
484.82	8762.97
485.00	8945.53
485.18	9451.08
485.35	9413.63
485.53	9294.27
485.71	9338.74
485.89	9584.49
486.07	9495.55
486.25	9628.96
486.43	9958.98
486.61	9797.48
486.78	9781.10
486.96	9947.28
487.14	9902.81
487.32	9987.07
487.50	9987.07
487.68	10031.54
487.85	10153.24
488.03	10651.78
488.21	10623.69
488.39	10366.23
488.57	10714.97
488.75	10731.36
488.92	10803.91
489.10	10771.15
489.28	10853.06
489.46	10729.02
489.64	10876.47
489.81	11080.10
489.99	11339.90
490.17	11449.90
490.35	11510.75
490.53	11583.31
490.70	11587.99
490.88	11566.93
491.06	11723.74
491.24	11595.01
491.41	11655.87
491.59	12016.31
491.77	11901.62
491.95	12093.55
492.13	12243.34
492.30	12163.76
492.48	12128.66
492.66	12215.26
492.84	12119.29
493.01	12716.13
493.19	12348.67
493.37	12767.62
493.54	12713.79
493.72	12889.33
493.90	12926.78
494.08	13015.72
494.25	13018.06
494.43	12987.63
494.61	13174.88
494.79	13406.59
494.96	13235.73
495.14	13186.58
495.32	13275.52
495.49	13357.44
495.67	13682.77
495.85	13743.63
496.02	13563.40
496.20	13802.14
496.38	14022.15
496.55	14054.92
496.73	14038.53
496.91	14258.54
497.09	14143.86
497.26	14382.59
497.44	14288.97
497.62	14487.92
497.79	14555.79
497.97	14436.42
498.14	14714.95
498.32	14946.66
498.50	14925.60
498.67	15103.48
498.85	15021.56
499.03	15054.33
499.20	14801.55
499.38	15007.52
499.56	15033.26
499.73	15129.22
499.91	15419.45
500.08	15391.36
500.26	15363.28
500.44	15508.39
500.61	15672.23
500.79	15492.01
500.97	15417.11
501.14	15915.64
501.32	15461.58
501.49	15594.99
501.67	15702.65
501.84	16226.93
502.02	15850.11
502.20	15889.90
502.37	16044.37
502.55	16112.25
502.72	16390.77
502.90	16100.55
503.07	16182.46
503.25	16334.60
503.43	16315.87
503.60	16435.24
503.78	16833.13
503.95	16751.21
504.13	16573.33
504.30	16613.12
504.48	16716.11
504.65	16692.70
504.83	16744.19
505.01	17142.08
505.18	16966.54
505.36	17099.95
505.53	16814.41
505.71	17238.05
505.88	16961.86
506.06	17224.00
506.23	17268.47
506.41	16957.18
506.58	17565.72
506.76	17694.45
506.93	17308.26
507.11	17378.48
507.28	17584.44
507.46	17652.32
507.63	17727.22
507.81	17675.73
507.98	17483.80
508.16	17855.95
508.33	17902.76
508.50	17598.49
508.68	18029.15
508.85	18022.12
509.03	18277.24
509.20	18202.35
509.38	18380.23
509.55	18485.55
509.73	18431.72
509.90	18487.89
510.08	18331.08
510.25	18284.26
510.42	18588.53
510.60	18553.43
510.77	18625.98
510.95	18733.65
511.12	18469.17
511.30	18593.22
511.47	18813.23
511.64	18782.80
511.82	18801.52
511.99	18850.67
512.17	19035.58
512.34	19091.75
512.51	19250.91
512.69	19084.73
512.86	19241.54
513.04	19447.51
513.21	19194.73
513.38	19117.50
513.56	19669.86
513.73	19499.00
513.90	19283.67
514.08	19290.70
514.25	19679.22
514.43	19707.31
514.60	19775.19
514.77	19534.11
514.95	19992.86
515.12	19651.14
515.29	19796.25
515.47	19817.32
515.64	19702.63
515.81	19754.12
515.99	20336.91
516.16	20184.78
516.33	20034.99
516.51	20077.12
516.68	20126.27
516.85	20400.11
517.03	20505.43
517.20	20428.20
517.37	20418.83
517.54	20645.87
517.72	20627.14
517.89	20580.33
518.06	20489.05
518.24	20451.60
518.41	20435.22
518.58	20601.40
518.75	20664.59
518.93	20631.82
519.10	20863.54
519.27	21238.02
519.45	20802.68
519.62	21090.57
519.79	20826.09
519.96	20842.47
520.14	21324.62
520.31	21429.94
520.48	21102.27
520.65	21198.23
520.83	21413.56
521.00	21397.18
521.17	21481.44
521.34	21247.38
521.52	21570.38
521.69	21699.11
521.86	21502.50
522.03	21806.77
522.20	21759.96
522.38	21628.89
522.55	21476.76
522.72	21472.07
522.89	21884.01
523.07	22127.42
523.24	21420.58
523.41	21998.70
523.58	22052.53
523.75	22174.24
523.92	21795.07
524.10	22071.25
524.27	22043.17
524.44	22487.87
524.61	22738.30
524.78	22384.88
524.96	22202.32
525.13	22225.73
525.30	22148.49
525.47	22478.50
525.64	22298.28
525.81	22366.16
525.98	22752.35
526.16	22693.83
526.33	22335.73
526.50	22359.14
526.67	22490.21
526.84	23000.44
527.01	22867.03
527.18	22831.93
527.36	22885.76
527.53	22991.08
527.70	23183.01
527.87	23185.35
528.04	22745.33
528.21	22904.48
528.38	23297.69
528.55	23183.01
528.72	23112.79
528.89	23470.89
529.07	23541.11
529.24	23140.88
529.41	23608.98
529.58	23506.00
529.75	23250.88
529.92	23473.23
530.09	23531.75
530.26	23424.08
530.43	23798.57
530.60	23875.80
530.77	23293.01
530.94	23810.27
531.11	23337.48
531.28	23786.86
531.46	23510.68
531.63	23992.83
531.80	23646.43
531.97	23985.81
532.14	23934.32
532.31	23880.49
532.48	24290.08
532.65	24254.97
532.82	23941.34
532.99	24175.39
533.16	24063.05
533.33	24252.63
533.50	24563.92
533.67	24423.49
533.84	24226.89
534.01	24180.07
534.18	24107.52
534.35	24503.07
534.52	24444.56
534.69	24694.99
534.86	24631.80
535.03	24362.64
535.20	24615.41
535.37	24554.56
535.54	24563.92
535.71	24067.73
535.88	24580.31
536.05	24797.98
536.22	24889.26
536.38	24877.55
536.55	24931.39
536.72	25097.56
536.89	24758.19
537.06	25032.03
537.23	24816.70
537.40	24734.78
537.57	24781.59
537.74	24877.55
537.91	25448.64
538.08	25202.89
538.25	25214.59
538.42	25371.41
538.59	25146.72
538.75	25137.35
538.92	24938.41
539.09	25364.39
539.26	25436.94
539.43	25160.76
539.60	25462.69
539.77	25406.52
539.94	25582.06
540.11	25645.25
540.28	25230.98
540.44	25565.67
540.61	25252.04
540.78	25846.54
540.95	25603.12
541.12	25521.20
541.29	25481.41
541.46	25752.91
541.62	25720.15
541.79	25460.35
541.96	25495.46
542.13	25645.25
542.30	26249.11
542.47	26054.84
542.63	26157.83
542.80	26422.31
542.97	26129.74
543.14	26352.09
543.31	26204.64
543.48	26118.04
543.64	26246.77
543.81	26518.27
543.98	26534.65
544.15	26663.38
544.32	26450.39
544.48	26682.11
544.65	26405.92
544.82	26333.37
544.99	26024.42
545.16	26539.33
545.32	26579.12
545.49	27016.80
545.66	26567.42
545.83	26824.88
546.00	26546.36
546.16	26771.05
546.33	26195.28
546.50	26335.71
546.67	26572.10
546.83	26417.63
547.00	26705.51
547.17	26630.62
547.34	26665.72
547.50	26974.67
547.67	27133.83
547.84	26925.52
548.00	26902.12
548.17	27180.64
548.34	26890.41
548.51	27358.52
548.67	27386.61
548.84	26991.06
549.01	27065.96
549.18	27182.98
549.34	27136.17
549.51	27082.34
549.68	27309.37
549.84	27405.33
550.01	27470.87
550.18	27131.49
550.34	27119.79
550.51	27756.41
550.68	27536.40
550.84	27267.24
551.01	27541.08
551.18	27367.88
551.34	27417.04
551.51	27644.07
551.68	27601.94
551.84	27711.94
552.01	27800.88
552.18	27264.90
552.34	27620.66
552.51	28013.87
552.68	27344.48
552.84	27733.01
553.01	28018.55
553.18	27461.51
553.34	27601.94
553.51	27676.83
553.67	27812.59
553.84	28252.61
554.01	28201.11
554.17	27971.74
554.34	27892.16
554.51	27957.70
554.67	28147.28
554.84	28137.92
555.00	28163.67
555.17	27660.45
555.33	27917.91
555.50	28283.03
555.67	28156.64
555.83	27711.94
556.00	27800.88
556.16	28283.03
556.33	27740.03
556.50	28226.86
556.66	28542.83
556.83	28357.93
556.99	28615.39
557.16	28638.80
557.32	28196.43
557.49	28533.47
557.65	28156.64
557.82	28278.35
557.98	28240.90
558.15	28622.41
558.32	28584.96
558.48	28435.17
558.65	28327.50
558.81	28329.84
558.98	28545.17
559.14	28273.67
559.31	28608.37
559.47	28271.33
559.64	28599.01
559.80	28730.08
559.97	28659.86
560.13	28451.55
560.30	28517.09
560.46	28776.89
560.63	28891.57
560.79	28610.71
560.96	28849.44
561.12	28570.92
561.29	28933.70
561.45	28753.48
561.61	28709.01
561.78	28896.25
561.94	28910.30
562.11	28823.70
562.27	28868.17
562.44	28774.55
562.60	28978.17
562.77	28886.89
562.93	28570.92
563.10	29420.53
563.26	28800.29
563.42	29130.31
563.59	28811.99
563.75	28694.97
563.92	28959.45
564.08	28830.72
564.24	28922.00
564.41	28961.79
564.57	28926.68
564.74	29069.45
564.90	29226.27
565.07	28734.76
565.23	29261.38
565.39	28809.65
565.56	29106.90
565.72	29298.83
565.88	28748.80
566.05	28980.51
566.21	29017.96
566.38	29570.33
566.54	28945.41
566.70	28863.49
566.87	29340.96
567.03	29198.18
567.19	29298.83
567.36	29500.11
567.52	29167.76
567.68	29109.24
567.85	29069.45
568.01	29450.96
568.17	29032.00
568.34	29408.83
568.50	29453.30
568.66	29254.36
568.83	29736.51
568.99	29177.12
569.15	29193.50
569.32	29244.99
569.48	29074.13
569.64	29673.31
569.81	29425.22
569.97	28723.05
570.13	29675.65
570.30	29308.19
570.46	29532.88
570.62	29422.87
570.78	29319.89
570.95	29406.49
571.11	29270.74
571.27	29331.59
571.43	29310.53
571.60	29432.24
571.76	29357.34
571.92	29685.01
572.09	29518.84
572.25	29572.67
572.41	29509.47
572.57	29764.59
572.74	29614.80
572.90	29043.71
573.06	29483.73
573.22	29553.94
573.38	29483.73
573.55	29462.66
573.71	29577.35
573.87	30141.42
574.03	29706.08
574.20	29420.53
574.36	29418.19
574.52	29235.63
574.68	29443.94
574.84	29532.88
575.01	29738.85
575.17	29298.83
575.33	29795.02
575.49	29472.03
575.65	29876.94
575.82	29813.74
575.98	29572.67
576.14	29420.53
576.30	29989.28
576.46	29788.00
576.62	29488.41
576.79	29563.31
576.95	29172.44
577.11	29696.72
577.27	29610.12
577.43	29998.65
577.59	29535.22
577.75	29748.21
577.92	29654.59
578.08	29738.85
578.24	29771.61
578.40	29544.58
578.56	29640.54
578.72	29797.36
578.88	30029.07
579.04	30038.44
579.21	29752.89
579.37	29619.48
579.53	29956.52
579.69	29720.12
579.85	29483.73
580.01	29567.99
580.17	29633.52
580.33	29427.56
580.49	29689.70
580.65	29830.13
580.82	29652.25
580.98	29930.77
581.14	29968.22
581.30	29986.94
581.46	29710.76
581.62	29472.03
581.78	29331.59
581.94	29301.17
582.10	29457.98
582.26	29862.90
582.42	29930.77
582.58	29156.05
582.74	29556.28
582.90	29755.23
583.06	29448.62
583.22	29785.66
583.38	29844.17
583.54	29724.80
583.70	29862.90
583.86	29993.97
584.02	29766.93
584.18	30153.12
584.34	29930.77
584.50	29788.00
584.66	29731.83
584.82	29708.42
584.98	29652.25
585.14	29923.75
585.30	29577.35
585.46	29848.85
585.62	30094.61
585.78	29612.46
585.94	29668.63
586.10	29956.52
586.26	29937.79
586.42	29937.79
586.58	29816.08
586.74	29886.30
586.90	29790.34
587.06	29832.47
587.22	29818.42
587.38	29991.62
587.54	30326.32
587.70	30321.64
587.86	29874.60
588.02	29883.96
588.18	30195.25
588.34	29820.77
588.49	29804.38
588.65	29736.51
588.81	30024.39
588.97	30213.98
589.13	29944.81
589.29	29776.30
589.45	29825.45
589.61	30129.72
589.77	30298.23
589.93	30064.18
590.08	30607.19
590.24	30087.59
590.40	30153.12
590.56	30141.42
590.72	30012.69
590.88	30010.35
591.04	30459.73
591.20	30448.03
591.35	30338.02
591.51	30356.75
591.67	30675.06
591.83	30637.61
591.99	30099.29
