SpectraSuite Data File
++++++++++++++++++++++++++++++++++++
Date: Fri Oct 18 13:58:43 GMT-05:00 2013
User: bianchi
Dark Spectrum Present: No
Reference Spectrum Present: No
Number of Sampled Component Spectra: 1
Spectrometers: USB2+H05261
Integration Time (usec): 50000 (USB2+H05261)
Spectra Averaged: 1 (USB2+H05261)
Boxcar Smoothing: 0 (USB2+H05261)
Correct for Electrical Dark: No (USB2+H05261)
Strobe/Lamp Enabled: No (USB2+H05261)
Correct for Detector Non-linearity: No (USB2+H05261)
Correct for Stray Light: No (USB2+H05261)
Number of Pixels in Processed Spectrum: 2048
>>>>>Begin Processed Spectral Data<<<<<
365.73	0.00
365.92	0.00
366.12	0.00
366.32	0.00
366.52	0.00
366.72	0.00
366.91	0.00
367.11	0.00
367.31	0.00
367.51	0.00
367.70	0.00
367.90	0.00
368.10	0.00
368.30	0.00
368.49	0.00
368.69	0.00
368.89	0.00
369.09	0.00
369.28	0.00
369.48	0.00
369.68	0.00
369.87	0.00
370.07	0.00
370.27	0.00
370.47	65.54
370.66	154.48
370.86	65.54
371.06	102.98
371.25	105.32
371.45	79.58
371.65	161.50
371.84	121.71
372.04	220.01
372.24	198.95
372.44	184.90
372.63	205.97
372.83	224.69
373.03	170.86
373.22	255.12
373.42	222.35
373.62	252.78
373.81	224.69
374.01	184.90
374.21	287.89
374.40	278.52
374.60	264.48
374.79	290.23
374.99	138.09
375.19	250.44
375.38	280.86
375.58	292.57
375.78	257.46
375.97	222.35
376.17	257.46
376.37	273.84
376.56	234.05
376.76	280.86
376.95	290.23
377.15	304.27
377.35	245.76
377.54	285.55
377.74	257.46
377.93	308.95
378.13	315.97
378.33	220.01
378.52	241.08
378.72	292.57
378.91	212.99
379.11	262.14
379.31	334.70
379.50	269.16
379.70	341.72
379.89	276.18
380.09	234.05
380.28	273.84
380.48	250.44
380.68	259.80
380.87	355.76
381.07	264.48
381.26	301.93
381.46	344.06
381.65	355.76
381.85	325.33
382.04	376.83
382.24	341.72
382.43	304.27
382.63	383.85
382.83	320.65
383.02	322.99
383.22	318.31
383.41	355.76
383.61	411.93
383.80	458.74
384.00	397.89
384.19	327.68
384.39	442.36
384.58	327.68
384.78	341.72
384.97	360.44
385.17	339.38
385.36	341.72
385.56	337.04
385.75	294.91
385.95	440.02
386.14	416.62
386.34	369.80
386.53	421.30
386.72	423.64
386.92	344.06
387.11	372.15
387.31	428.32
387.50	442.36
387.70	430.66
387.89	421.30
388.09	404.91
388.28	433.00
388.48	423.64
388.67	397.89
388.86	428.32
389.06	454.06
389.25	477.47
389.45	461.09
389.64	435.34
389.84	411.93
390.03	433.00
390.22	440.02
390.42	456.40
390.61	442.36
390.81	491.51
391.00	505.56
391.19	526.62
391.39	550.03
391.58	507.90
391.78	538.32
391.97	540.66
392.16	514.92
392.36	557.05
392.55	514.92
392.75	636.63
392.94	559.39
393.13	519.60
393.33	552.37
393.52	507.90
393.71	571.09
393.91	479.81
394.10	550.03
394.29	636.63
394.49	603.86
394.68	545.34
394.88	624.92
395.07	645.99
395.26	561.73
395.46	575.77
395.65	575.77
395.84	643.65
396.04	664.71
396.23	594.50
396.42	617.90
396.62	678.76
396.81	681.10
397.00	550.03
397.19	662.37
397.39	606.20
397.58	681.10
397.77	730.25
397.97	699.82
398.16	695.14
398.35	704.50
398.55	681.10
398.74	678.76
398.93	685.78
399.12	697.48
399.32	648.33
399.51	772.38
399.70	777.06
399.90	671.73
400.09	748.97
400.28	737.27
400.47	758.33
400.67	760.67
400.86	631.94
401.05	767.70
401.24	767.70
401.44	748.97
401.63	805.14
401.82	730.25
402.01	812.17
402.21	873.02
402.40	952.60
402.59	774.72
402.78	858.98
402.97	828.55
403.17	854.30
403.36	781.74
403.55	791.10
403.74	833.23
403.93	861.32
404.13	858.98
404.32	884.72
404.51	950.26
404.70	945.58
404.89	861.32
405.09	973.66
405.28	903.45
405.47	887.06
405.66	1041.54
405.85	1004.09
406.05	945.58
406.24	957.28
406.43	978.34
406.62	922.17
406.81	968.98
407.00	976.00
407.20	1004.09
407.39	1046.22
407.58	1036.86
407.77	1050.90
407.96	1062.60
408.15	1036.86
408.34	1022.81
408.54	1123.46
408.73	1132.82
408.92	1081.33
409.11	1008.77
409.30	1083.67
409.49	1118.78
409.68	1165.59
409.87	1050.90
410.07	1179.63
410.26	1118.78
410.45	1128.14
410.64	1174.95
410.83	1287.29
411.02	1254.53
411.21	1212.40
411.40	1268.57
411.59	1228.78
411.78	1254.53
411.98	1275.59
412.17	1245.16
412.36	1263.89
412.55	1336.45
412.74	1341.13
412.93	1362.19
413.12	1324.74
413.31	1385.60
413.50	1331.76
413.69	1371.55
413.88	1448.79
414.07	1392.62
414.26	1427.73
414.45	1366.87
414.64	1474.54
414.83	1521.35
415.02	1460.49
415.22	1448.79
415.41	1593.90
415.60	1554.12
415.79	1607.95
415.98	1563.48
416.17	1568.16
416.36	1493.26
416.55	1605.61
416.74	1636.03
416.93	1650.08
417.12	1636.03
417.31	1699.23
417.50	1638.38
417.69	1748.38
417.88	1682.85
418.07	1785.83
418.26	1605.61
418.45	1724.97
418.64	1762.42
418.83	1788.17
419.02	1842.00
419.21	1844.34
419.39	1813.92
419.58	1753.06
419.77	1790.51
419.96	1802.21
420.15	1900.52
420.34	1893.49
420.53	1816.26
420.72	1970.73
420.91	1966.05
421.10	2019.88
421.29	1820.94
421.48	1799.87
421.67	1961.37
421.86	1963.71
422.05	1996.48
422.24	1952.01
422.43	1900.52
422.61	1977.75
422.80	1984.77
422.99	2008.18
423.18	2015.20
423.37	1994.14
423.56	1961.37
423.75	2038.61
423.94	2097.12
424.13	1881.79
424.32	1956.69
424.50	2017.54
424.69	2071.37
424.88	2062.01
425.07	1996.48
425.26	2031.58
425.45	1987.11
425.64	2012.86
425.83	2024.56
426.01	2062.01
426.20	2099.46
426.39	1968.39
426.58	1930.94
426.77	1982.43
426.96	1994.14
427.15	2005.84
427.33	2190.74
427.52	2059.67
427.71	2101.80
427.90	2139.25
428.09	2099.46
428.28	2136.91
428.46	2073.71
428.65	2111.16
428.84	2272.66
429.03	2141.59
429.22	2153.29
429.40	2097.12
429.59	2153.29
429.78	2122.87
429.97	2062.01
430.16	2200.10
430.34	2260.96
430.53	2298.41
430.72	2296.07
430.91	2347.56
431.10	2380.32
431.28	2307.77
431.47	2317.13
431.66	2471.61
431.85	2335.85
432.03	2396.71
432.22	2469.27
432.41	2434.16
432.60	2399.05
432.79	2551.18
432.97	2401.39
433.16	2485.65
433.35	2354.58
433.54	2548.84
433.72	2471.61
433.91	2291.38
434.10	2497.35
434.28	2459.90
434.47	2534.80
434.66	2595.65
434.85	2548.84
435.03	2530.12
435.22	2504.37
435.41	2619.06
435.59	2607.36
435.78	2626.08
435.97	2642.46
436.16	2656.51
436.34	2677.57
436.53	2602.68
436.72	2635.44
436.90	2628.42
437.09	2696.30
437.28	2759.49
437.46	2715.02
437.65	2712.68
437.84	2806.30
438.02	2679.91
438.21	2747.79
438.40	2743.11
438.58	2897.58
438.77	2850.77
438.96	2920.99
439.14	2825.03
439.33	2789.92
439.52	3035.67
439.70	2953.76
439.89	3040.36
440.08	3047.38
440.26	3038.02
440.45	3002.91
440.63	2977.16
440.82	3084.83
441.01	3187.81
441.19	3012.27
441.38	3145.68
441.57	3073.12
441.75	3110.57
441.94	3279.09
442.12	3389.10
442.31	3192.49
442.50	3279.09
442.68	3281.43
442.87	3314.20
443.05	3344.63
443.24	3372.71
443.43	3243.98
443.61	3431.23
443.80	3559.95
443.98	3201.85
444.17	3372.71
444.35	3361.01
444.54	3475.70
444.73	3370.37
444.91	3405.48
445.10	3499.10
445.28	3365.69
445.47	3342.28
445.65	3400.80
445.84	3550.59
446.02	3400.80
446.21	3393.78
446.39	3480.38
446.58	3534.21
446.77	3538.89
446.95	3283.77
447.14	3456.97
447.32	3557.61
447.51	3604.42
447.69	3466.33
447.88	3466.33
448.06	3384.41
448.25	3496.76
448.43	3599.74
448.62	3435.91
448.80	3445.27
448.99	3665.28
449.17	3442.93
449.36	3651.24
449.54	3562.30
449.73	3765.92
449.91	3543.57
450.10	3559.95
450.28	3583.36
450.46	3538.89
450.65	3779.97
450.83	3651.24
451.02	3702.73
451.20	3744.86
451.39	3772.94
451.57	3709.75
451.76	3782.31
451.94	3756.56
452.13	3789.33
452.31	3723.79
452.49	3714.43
452.68	3805.71
452.86	3957.85
453.05	3854.86
453.23	4021.04
453.42	3782.31
453.60	3943.80
453.78	3943.80
453.97	3782.31
454.15	3957.85
454.34	3913.38
454.52	3875.93
454.70	4044.45
454.89	3934.44
455.07	3985.93
455.26	3985.93
455.44	4053.81
455.62	4053.81
455.81	4028.06
455.99	4079.55
456.17	4042.11
456.36	4079.55
456.54	4142.75
456.73	4140.41
456.91	4351.06
457.09	4189.56
457.28	4271.48
457.46	4259.78
457.64	4198.92
457.83	4414.25
458.01	4140.41
458.19	4362.76
458.38	4170.83
458.56	4383.82
458.74	4479.79
458.93	4362.76
459.11	4397.87
459.29	4430.63
459.48	4311.27
459.66	4290.20
459.84	4332.33
460.03	4542.98
460.21	4517.23
460.39	4435.32
460.57	4559.36
460.76	4641.28
460.94	4535.96
461.12	4470.42
461.31	4578.09
461.49	4629.58
461.67	4559.36
461.85	4622.56
462.04	4662.35
462.22	4802.78
462.40	4842.57
462.59	4521.92
462.77	4678.73
462.95	4723.20
463.13	4760.65
463.32	4863.63
463.50	4807.46
463.68	4837.89
463.86	4837.89
464.05	4580.43
464.23	4889.38
464.41	4861.29
464.59	4819.16
464.78	4980.66
464.96	4901.08
465.14	4737.24
465.32	4837.89
465.50	5015.77
465.69	5025.13
465.87	4940.87
466.05	4924.49
466.23	4952.57
466.41	4915.12
466.60	5174.92
466.78	5015.77
466.96	5032.15
467.14	5020.45
467.32	4987.68
467.51	5212.37
467.69	4978.32
467.87	5011.09
468.05	5198.33
468.23	4947.89
468.41	5238.12
468.60	5139.82
468.78	5240.46
468.96	5111.73
469.14	5305.99
469.32	5317.70
469.50	5188.97
469.69	5245.14
469.87	5413.66
470.05	5467.49
470.23	5268.55
470.41	5313.02
470.59	5336.42
470.77	5385.57
470.95	5476.85
471.14	5614.95
471.32	5334.08
471.50	5607.92
471.68	5341.10
471.86	5502.60
472.04	5689.84
472.22	5746.02
472.40	5624.31
472.58	5610.26
472.77	5701.54
472.95	5799.85
473.13	5827.93
473.31	5675.80
473.49	5757.72
473.67	5935.60
473.85	5982.41
474.03	6047.94
474.21	5947.30
474.39	5989.43
474.57	5867.72
474.75	6134.54
474.93	6120.50
475.12	6099.44
475.30	5984.75
475.48	6169.65
475.66	6085.39
475.84	6064.33
476.02	6300.72
476.20	6223.48
476.38	6452.86
476.56	6366.26
476.74	6396.68
476.92	6462.22
477.10	6455.20
477.28	6525.41
477.46	6696.27
477.64	6740.74
477.82	6754.79
478.00	6913.94
478.18	6899.90
478.36	6942.03
478.54	7061.40
478.72	6958.41
478.90	7049.69
479.08	7066.08
479.26	7248.64
479.44	7126.93
479.62	7405.46
479.80	7403.11
479.98	7501.42
480.16	7517.80
480.34	7473.33
480.52	7660.57
480.70	7466.31
480.88	7489.71
481.06	7543.55
481.24	7616.10
481.41	7810.37
481.59	8025.70
481.77	8065.49
481.95	8004.63
482.13	7969.52
482.31	8046.76
482.49	8292.52
482.67	8311.24
482.85	8161.45
483.03	8290.18
483.21	8411.89
483.39	8585.08
483.57	8540.61
483.74	8671.68
483.92	8594.45
484.10	8699.77
484.28	8894.04
484.46	9053.19
484.64	8870.63
484.82	8879.99
485.00	9092.98
485.18	9062.55
485.35	9231.07
485.53	9200.65
485.71	9266.18
485.89	9544.70
486.07	9551.73
486.25	9214.69
486.43	9434.70
486.61	9514.28
486.78	9872.38
486.96	9755.35
487.14	10141.54
487.32	10073.67
487.50	10160.27
487.68	9975.36
487.85	10167.29
488.03	10452.83
488.21	10518.37
488.39	10331.12
488.57	10427.09
488.75	10626.03
488.92	10700.93
489.10	10920.94
489.28	10717.31
489.46	11080.10
489.64	10984.13
489.81	11103.50
489.99	11414.79
490.17	11204.14
490.35	11494.37
490.53	11632.46
490.70	11538.84
490.88	11438.20
491.06	11740.13
491.24	11602.04
491.41	11658.21
491.59	11871.20
491.77	11815.02
491.95	11782.26
492.13	12046.74
492.30	11992.90
492.48	12161.42
492.66	12175.47
492.84	12306.54
493.01	12374.41
493.19	12203.55
493.37	12615.49
493.54	12936.14
493.72	12578.04
493.90	12725.49
494.08	12809.75
494.25	12868.27
494.43	12982.95
494.61	12922.10
494.79	13128.06
494.96	13083.59
495.14	13018.06
495.32	13266.16
495.49	13291.90
495.67	13422.97
495.85	13736.60
496.02	13720.22
496.20	13776.39
496.38	13745.97
496.55	13844.27
496.73	14012.79
496.91	13774.05
497.09	13996.40
497.26	14052.58
497.44	14288.97
497.62	14256.20
497.79	14574.52
497.97	14232.80
498.14	14424.72
498.32	14691.54
498.50	14342.80
498.67	14920.92
498.85	14862.40
499.03	14920.92
499.20	14780.48
499.38	14740.69
499.56	15007.52
499.73	15281.36
499.91	15061.35
500.08	15108.16
500.26	15037.94
500.44	15311.78
500.61	15110.50
500.79	15302.42
500.97	15318.81
501.14	15489.67
501.32	15655.84
501.49	15492.01
501.67	15796.28
501.84	15634.78
502.02	15817.34
502.20	15887.56
502.37	16013.95
502.55	15960.11
502.72	16091.18
502.90	15674.57
503.07	15953.09
503.25	16177.78
503.43	16112.25
503.60	16067.78
503.78	16343.96
503.95	16156.72
504.13	16217.57
504.30	16538.23
504.48	16379.07
504.65	16781.64
504.83	16587.38
505.01	16627.17
505.18	16760.58
505.36	16975.91
505.53	16737.17
505.71	16959.52
505.88	17015.69
506.06	16912.71
506.23	17085.91
506.41	17207.62
506.58	16896.33
506.76	17378.48
506.93	17275.49
507.11	17291.88
507.28	17516.57
507.46	17207.62
507.63	17572.74
507.81	17752.96
507.98	17532.95
508.16	17752.96
508.33	17334.01
508.50	17383.16
508.68	17640.62
508.85	17987.02
509.03	17858.29
509.20	17996.38
509.38	18340.44
509.55	18324.05
509.73	18127.45
509.90	18097.02
510.08	17998.72
510.25	18094.68
510.42	18464.49
510.60	18480.87
510.77	18391.93
510.95	18593.22
511.12	18260.86
511.30	18380.23
511.47	18417.68
511.64	18670.45
511.82	18869.40
511.99	18373.21
512.17	18658.75
512.34	18963.02
512.51	19164.31
512.69	19129.20
512.86	18916.21
513.04	19278.99
513.21	19428.79
513.38	19386.66
513.56	19180.69
513.73	19613.69
513.90	19433.47
514.08	19248.57
514.25	19414.74
514.43	19562.20
514.60	19374.95
514.77	19721.35
514.95	19822.00
515.12	19421.77
515.29	19424.11
515.47	19765.82
515.64	19910.94
515.81	19812.63
515.99	20112.22
516.16	20170.74
516.33	19927.32
516.51	20175.42
516.68	19922.64
516.85	20318.19
517.03	19845.40
517.20	20367.34
517.37	20318.19
517.54	20287.76
517.72	20346.28
517.89	20189.46
518.06	20379.04
518.24	20453.94
518.41	20411.81
518.58	20243.29
518.75	20971.20
518.93	20606.08
519.10	20620.12
519.27	20915.03
519.45	20695.02
519.62	20755.87
519.79	20896.30
519.96	21109.29
520.14	21308.24
520.31	21029.71
520.48	21488.46
520.65	21076.52
520.83	21034.39
521.00	20917.37
521.17	21032.05
521.34	21013.33
521.52	21132.70
521.69	21546.97
521.86	21631.23
522.03	21586.76
522.20	21750.60
522.38	21556.33
522.55	21455.69
522.72	21568.04
522.89	21551.65
523.07	21841.88
523.24	21855.92
523.41	21886.35
523.58	21944.86
523.75	22075.93
523.92	21912.10
524.10	22265.52
524.27	22162.53
524.44	21912.10
524.61	22225.73
524.78	22345.09
524.96	21994.01
525.13	22349.78
525.30	22160.19
525.47	22436.38
525.64	22167.21
525.81	22459.78
525.98	22724.26
526.16	22656.39
526.33	22417.65
526.50	22642.34
526.67	22441.06
526.84	22511.27
527.01	22539.36
527.18	22794.48
527.36	23145.56
527.53	22930.23
527.70	22827.24
527.87	23194.71
528.04	22852.99
528.21	22750.01
528.38	22955.97
528.55	23194.71
528.72	22834.27
528.89	22890.44
529.07	23232.16
529.24	23344.50
529.41	23466.21
529.58	23145.56
529.75	22707.88
529.92	23351.52
530.09	23426.42
530.26	23611.32
530.43	23594.94
530.60	23257.90
530.77	23321.10
530.94	23403.02
531.11	23220.45
531.28	23267.27
531.46	23363.23
531.63	23669.84
531.80	24053.69
531.97	23569.19
532.14	23805.59
532.31	23412.38
532.48	23962.40
532.65	23960.06
532.82	23985.81
532.99	23843.04
533.16	23702.61
533.33	23939.00
533.50	24273.70
533.67	23957.72
533.84	23964.75
534.01	24247.95
534.18	23845.38
534.35	24348.59
534.52	24311.14
534.69	24151.99
534.86	24411.79
535.03	24173.05
535.20	24554.56
535.37	24250.29
535.54	24388.38
535.71	24112.20
535.88	24683.29
536.05	24472.64
536.22	24257.31
536.38	24393.06
536.55	24739.46
536.72	24652.86
536.89	24657.54
537.06	24760.53
537.23	24739.46
537.40	24620.10
537.57	24636.48
537.74	25406.52
537.91	25085.86
538.08	25116.29
538.25	25010.96
538.42	24992.24
538.59	25193.53
538.75	24816.70
538.92	24687.97
539.09	25362.04
539.26	25062.46
539.43	25348.00
539.60	24882.24
539.77	25504.82
539.94	25441.62
540.11	25523.54
540.28	25083.52
540.44	25245.02
540.61	25436.94
540.78	25249.70
540.95	25528.22
541.12	25118.63
541.29	25500.14
541.46	25392.47
541.62	25298.85
541.79	25521.20
541.96	25064.80
542.13	25261.40
542.30	25694.40
542.47	25909.73
542.63	25628.87
542.80	26167.19
542.97	26153.15
543.14	25853.56
543.31	25963.56
543.48	25921.43
543.64	26342.73
543.81	26286.56
543.98	26218.68
544.15	26284.22
544.32	26342.73
544.48	26302.94
544.65	26462.10
544.82	26099.31
544.99	26111.02
545.16	26380.18
545.32	26197.62
545.49	26553.38
545.66	26548.70
545.83	26541.68
546.00	26410.60
546.16	26462.10
546.33	26122.72
546.50	26115.70
546.67	26387.20
546.83	25977.61
547.00	26700.83
547.17	26366.13
547.34	26398.90
547.50	26483.16
547.67	26691.47
547.84	27061.27
548.00	26389.54
548.17	26862.33
548.34	27023.83
548.51	26766.37
548.67	27171.28
548.84	26754.66
549.01	26778.07
549.18	26551.04
549.34	26764.03
549.51	26885.73
549.68	26820.20
549.84	26782.75
550.01	27388.95
550.18	26888.07
550.34	27204.05
550.51	27428.74
550.68	27381.93
550.84	26927.86
551.01	27246.18
551.18	26995.74
551.34	26930.20
551.51	27028.51
551.68	27428.74
551.84	27487.25
552.01	27168.94
552.18	27264.90
552.34	27178.30
552.51	27433.42
552.68	27344.48
552.84	27084.68
553.01	27733.01
553.18	27236.81
553.34	27440.44
553.51	27730.67
553.67	27611.30
553.84	27632.36
554.01	28168.35
554.17	27494.27
554.34	27342.14
554.51	27782.16
554.67	27920.25
554.84	27503.64
555.00	27948.34
555.17	27754.07
555.33	27976.42
555.50	27627.68
555.67	27646.41
555.83	27861.74
556.00	28027.92
556.16	27831.31
556.33	27798.54
556.50	27901.53
556.66	28016.21
556.83	28156.64
556.99	28297.08
557.16	28290.06
557.32	27901.53
557.49	28311.12
557.65	28130.90
557.82	27667.47
557.98	28217.50
558.15	28149.62
558.32	28226.86
558.48	28175.37
558.65	28318.14
558.81	28414.10
558.98	28393.04
559.14	28226.86
559.31	28105.15
559.47	27995.15
559.64	28198.77
559.80	28591.98
559.97	28451.55
560.13	28268.99
560.30	28533.47
560.46	28177.71
560.63	28240.90
560.79	28266.65
560.96	28395.38
561.12	28219.84
561.29	28449.21
561.45	28444.53
561.61	28411.76
561.78	28533.47
561.94	28664.54
562.11	28779.23
562.27	28554.54
562.44	28467.94
562.60	28624.75
562.77	28182.39
562.93	28374.31
563.10	28987.53
563.26	28701.99
563.42	28819.02
563.59	28851.78
563.75	28643.48
563.92	28802.63
564.08	28245.58
564.24	28453.89
564.41	28723.05
564.57	28589.64
564.74	28692.63
564.90	28587.30
565.07	28723.05
565.23	28933.70
565.39	29032.00
565.56	29039.03
565.72	29090.52
565.88	28919.66
566.05	28442.19
566.21	28891.57
566.38	28648.16
566.54	28943.06
566.70	28811.99
566.87	28865.83
567.03	29120.95
567.19	29282.44
567.36	28938.38
567.52	28577.94
567.68	29010.94
567.85	28865.83
568.01	28994.56
568.17	28938.38
568.34	29296.49
568.50	29046.05
568.66	28760.50
568.83	29013.28
568.99	29242.65
569.15	28924.34
569.32	28994.56
569.48	29027.32
569.64	29050.73
569.81	28971.15
569.97	29209.89
570.13	29198.18
570.30	28786.25
570.46	29455.64
570.62	28973.49
570.78	28973.49
570.95	29017.96
571.11	29081.16
571.27	28917.32
571.43	28716.03
571.60	29315.21
571.76	29083.50
571.92	29287.12
572.09	29305.85
572.25	29488.41
572.41	29301.17
572.57	29326.91
572.74	29195.84
572.90	28596.67
573.06	29172.44
573.22	28933.70
573.38	28711.35
573.55	28950.09
573.71	29685.01
573.87	29385.43
574.03	29322.23
574.20	29291.80
574.36	28900.94
574.52	28912.64
574.68	29102.22
574.84	28975.83
575.01	28837.74
575.17	29024.98
575.33	29083.50
575.49	29003.92
575.65	29254.36
575.82	29411.17
575.98	29237.97
576.14	29565.65
576.30	29291.80
576.46	28996.90
576.62	29408.83
576.79	29329.25
576.95	28943.06
577.11	29556.28
577.27	29776.30
577.43	29287.12
577.59	29420.53
577.75	29439.26
577.92	29280.10
578.08	29113.92
578.24	28978.17
578.40	29298.83
578.56	29439.26
578.72	29434.58
578.88	29633.52
579.04	29708.42
579.21	29298.83
579.37	29799.70
579.53	28943.06
579.69	28781.57
579.85	29322.23
580.01	29563.31
580.17	29235.63
580.33	29359.68
580.49	29816.08
580.65	29907.37
580.82	29174.78
580.98	29544.58
581.14	29640.54
581.30	29827.79
581.46	29411.17
581.62	29553.94
581.78	29631.18
581.94	29443.94
582.10	29270.74
582.26	29425.22
582.42	29572.67
582.58	29497.77
582.74	29600.76
582.90	29617.14
583.06	29706.08
583.22	29476.71
583.38	29675.65
583.54	29624.16
583.70	29284.78
583.86	29376.06
584.02	29549.26
584.18	29654.59
584.34	29701.40
584.50	29509.47
584.66	29177.12
584.82	29507.13
584.98	29565.65
585.14	29446.28
585.30	29123.29
585.46	29450.96
585.62	29626.50
585.78	29607.78
585.94	29420.53
586.10	29436.92
586.26	29551.60
586.42	29766.93
586.58	29921.41
586.74	29507.13
586.90	29556.28
587.06	29310.53
587.22	29968.22
587.38	29422.87
587.54	29853.53
587.70	29979.92
587.86	29591.39
588.02	29855.87
588.18	29837.15
588.34	29680.33
588.49	29788.00
588.65	29610.12
588.81	29504.79
588.97	29591.39
589.13	29532.88
589.29	29947.15
589.45	29783.32
589.61	29942.47
589.77	30113.33
589.93	29668.63
590.08	29914.39
590.24	30052.48
590.40	29778.64
590.56	30274.83
590.72	29675.65
590.88	29450.96
591.04	30113.33
591.20	29937.79
591.35	29701.40
591.51	30232.70
591.67	29916.73
591.83	30031.41
591.99	29898.00
