SpectraSuite Data File
++++++++++++++++++++++++++++++++++++
Date: Fri Oct 18 13:58:21 GMT-05:00 2013
User: bianchi
Dark Spectrum Present: No
Reference Spectrum Present: No
Number of Sampled Component Spectra: 1
Spectrometers: USB2+H05261
Integration Time (usec): 50000 (USB2+H05261)
Spectra Averaged: 1 (USB2+H05261)
Boxcar Smoothing: 0 (USB2+H05261)
Correct for Electrical Dark: No (USB2+H05261)
Strobe/Lamp Enabled: No (USB2+H05261)
Correct for Detector Non-linearity: No (USB2+H05261)
Correct for Stray Light: No (USB2+H05261)
Number of Pixels in Processed Spectrum: 2048
>>>>>Begin Processed Spectral Data<<<<<
365.73	0.00
365.92	0.00
366.12	0.00
366.32	0.00
366.52	0.00
366.72	0.00
366.91	0.00
367.11	0.00
367.31	0.00
367.51	0.00
367.70	0.00
367.90	0.00
368.10	0.00
368.30	0.00
368.49	0.00
368.69	0.00
368.89	0.00
369.09	0.00
369.28	0.00
369.48	0.00
369.68	0.00
369.87	0.00
370.07	0.00
370.27	0.00
370.47	0.00
370.66	124.05
370.86	100.64
371.06	131.07
371.25	166.18
371.45	112.35
371.65	138.09
371.84	147.45
372.04	149.79
372.24	201.29
372.44	135.75
372.63	163.84
372.83	187.24
373.03	205.97
373.22	208.31
373.42	189.58
373.62	234.05
373.81	236.39
374.01	210.65
374.21	236.39
374.40	243.42
374.60	273.84
374.79	154.48
374.99	175.54
375.19	283.20
375.38	285.55
375.58	301.93
375.78	227.03
375.97	318.31
376.17	273.84
376.37	257.46
376.56	287.89
376.76	259.80
376.95	250.44
377.15	287.89
377.35	264.48
377.54	283.20
377.74	255.12
377.93	285.55
378.13	241.08
378.33	234.05
378.52	273.84
378.72	205.97
378.91	290.23
379.11	255.12
379.31	194.26
379.50	262.14
379.70	318.31
379.89	259.80
380.09	348.74
380.28	292.57
380.48	294.91
380.68	278.52
380.87	320.65
381.07	248.10
381.26	348.74
381.46	313.63
381.65	311.29
381.85	285.55
382.04	285.55
382.24	355.76
382.43	290.23
382.63	334.70
382.83	327.68
383.02	360.44
383.22	327.68
383.41	306.61
383.61	358.10
383.80	409.59
384.00	381.51
384.19	344.06
384.39	437.68
384.58	397.89
384.78	344.06
384.97	301.93
385.17	306.61
385.36	362.78
385.56	351.08
385.75	337.04
385.95	388.53
386.14	435.34
386.34	397.89
386.53	414.27
386.72	472.79
386.92	451.72
387.11	414.27
387.31	407.25
387.50	362.78
387.70	411.93
387.89	416.62
388.09	489.17
388.28	461.09
388.48	404.91
388.67	355.76
388.86	444.70
389.06	472.79
389.25	449.38
389.45	477.47
389.64	491.51
389.84	557.05
390.03	496.19
390.22	491.51
390.42	528.96
390.61	564.07
390.81	543.00
391.00	447.04
391.19	491.51
391.39	514.92
391.58	592.16
391.78	514.92
391.97	543.00
392.16	531.30
392.36	543.00
392.55	519.60
392.75	484.49
392.94	479.81
393.13	610.88
393.33	566.41
393.52	589.82
393.71	585.13
393.91	545.34
394.10	540.66
394.29	606.20
394.49	538.32
394.68	517.26
394.88	566.41
395.07	601.52
395.26	521.94
395.46	521.94
395.65	627.26
395.84	603.86
396.04	674.07
396.23	650.67
396.42	634.29
396.62	599.18
396.81	641.31
397.00	657.69
397.19	615.56
397.39	660.03
397.58	667.05
397.77	678.76
397.97	643.65
398.16	627.26
398.35	727.91
398.55	741.95
398.74	678.76
398.93	823.87
399.12	725.57
399.32	720.88
399.51	720.88
399.70	807.48
399.90	725.57
400.09	760.67
400.28	751.31
400.47	779.40
400.67	765.36
400.86	793.44
401.05	814.51
401.24	784.08
401.44	844.93
401.63	763.01
401.82	755.99
402.01	835.57
402.21	882.38
402.40	816.85
402.59	805.14
402.78	922.17
402.97	931.53
403.17	821.53
403.36	809.83
403.55	968.98
403.74	957.28
403.93	964.30
404.13	910.47
404.32	816.85
404.51	901.11
404.70	938.55
404.89	933.87
405.09	1022.81
405.28	905.79
405.47	959.62
405.66	973.66
405.85	1001.75
406.05	997.07
406.24	994.73
406.43	873.02
406.62	1001.75
406.81	1039.20
407.00	987.71
407.20	964.30
407.39	966.64
407.58	961.96
407.77	1041.54
407.96	1043.88
408.15	1146.86
408.34	1046.22
408.54	1041.54
408.73	1067.28
408.92	1139.84
409.11	1137.50
409.30	1121.12
409.49	1156.22
409.68	1205.38
409.87	1111.75
410.07	1111.75
410.26	1172.61
410.45	1088.35
410.64	1142.18
410.83	1102.39
411.02	1210.06
411.21	1287.29
411.40	1235.80
411.59	1273.25
411.78	1200.69
411.98	1210.06
412.17	1343.47
412.36	1411.34
412.55	1301.34
412.74	1329.42
412.93	1357.51
413.12	1364.53
413.31	1366.87
413.50	1219.42
413.69	1474.54
413.88	1535.39
414.07	1322.40
414.26	1308.36
414.45	1411.34
414.64	1523.69
414.83	1521.35
415.02	1558.80
415.22	1526.03
415.41	1530.71
415.60	1519.01
415.79	1528.37
415.98	1558.80
416.17	1558.80
416.36	1657.10
416.55	1638.38
416.74	1685.19
416.93	1689.87
417.12	1692.21
417.31	1638.38
417.50	1708.59
417.69	1659.44
417.88	1713.27
418.07	1729.66
418.26	1837.32
418.45	1699.23
418.64	1827.96
418.83	1820.94
419.02	1781.15
419.21	1743.70
419.39	1790.51
419.58	1755.40
419.77	1820.94
419.96	1867.75
420.15	1942.64
420.34	1844.34
420.53	1891.15
420.72	1832.64
420.91	1961.37
421.10	1839.66
421.29	1891.15
421.48	1919.24
421.67	1977.75
421.86	1874.77
422.05	1919.24
422.24	1844.34
422.43	1984.77
422.61	2062.01
422.80	2033.93
422.99	2125.21
423.18	1977.75
423.37	1926.26
423.56	1970.73
423.75	1968.39
423.94	2010.52
424.13	1949.67
424.32	1935.62
424.50	2036.27
424.69	2057.33
424.88	2062.01
425.07	1984.77
425.26	1940.30
425.45	2045.63
425.64	2043.29
425.83	2029.24
426.01	1982.43
426.20	1961.37
426.39	2008.18
426.58	1975.41
426.77	2097.12
426.96	2054.99
427.15	2150.95
427.33	2076.06
427.52	2073.71
427.71	2073.71
427.90	2118.18
428.09	2195.42
428.28	2249.25
428.46	2160.31
428.65	2193.08
428.84	2211.81
429.03	2289.04
429.22	2160.31
429.40	2265.64
429.59	2232.87
429.78	2150.95
429.97	2200.10
430.16	2305.43
430.34	2370.96
430.53	2422.45
430.72	2307.77
430.91	2122.87
431.10	2275.00
431.28	2279.68
431.47	2296.07
431.66	2424.80
431.85	2373.30
432.03	2427.14
432.22	2406.07
432.41	2356.92
432.60	2370.96
432.79	2427.14
432.97	2530.12
433.16	2483.31
433.35	2459.90
433.54	2443.52
433.72	2506.71
433.91	2602.68
434.10	2476.29
434.28	2541.82
434.47	2532.46
434.66	2576.93
434.85	2541.82
435.03	2651.83
435.22	2502.03
435.41	2684.59
435.59	2612.04
435.78	2602.68
435.97	2757.15
436.16	2605.02
436.34	2684.59
436.53	2576.93
436.72	2752.47
436.90	2630.76
437.09	2670.55
437.28	2651.83
437.46	2640.12
437.65	2675.23
437.84	2848.43
438.02	2810.98
438.21	2752.47
438.40	2839.07
438.58	2834.39
438.77	2862.48
438.96	2803.96
439.14	2949.08
439.33	2942.05
439.52	2925.67
439.70	2951.42
439.89	3035.67
440.08	3068.44
440.26	3007.59
440.45	3019.29
440.63	2967.80
440.82	3023.97
441.01	3131.64
441.19	3169.09
441.38	3351.65
441.57	3148.02
441.75	3192.49
441.94	3180.79
442.12	3346.97
442.31	3227.60
442.50	3269.73
442.68	3262.71
442.87	3225.26
443.05	3407.82
443.24	3398.46
443.43	3419.52
443.61	3370.37
443.80	3358.67
443.98	3330.58
444.17	3283.77
444.35	3410.16
444.54	3466.33
444.73	3597.40
444.91	3463.99
445.10	3466.33
445.28	3410.16
445.47	3344.63
445.65	3449.95
445.84	3522.51
446.02	3515.48
446.21	3393.78
446.39	3431.23
446.58	3454.63
446.77	3487.40
446.95	3393.78
447.14	3513.14
447.32	3478.04
447.51	3492.08
447.69	3494.42
447.88	3576.34
448.06	3527.19
448.25	3445.27
448.43	3433.57
448.62	3520.17
448.80	3569.32
448.99	3510.80
449.17	3611.45
449.36	3555.27
449.54	3548.25
449.73	3639.53
449.91	3662.94
450.10	3648.90
450.28	3709.75
450.46	3819.75
450.65	3648.90
450.83	3796.35
451.02	3702.73
451.20	3747.20
451.39	3850.18
451.57	3880.61
451.76	3754.22
451.94	3777.62
452.13	3712.09
452.31	3756.56
452.49	3782.31
452.68	3742.52
452.86	3859.54
453.05	3936.78
453.23	3864.22
453.42	3875.93
453.60	3791.67
453.78	3922.74
453.97	3819.75
454.15	3852.52
454.34	3913.38
454.52	3822.09
454.70	3964.87
454.89	3990.61
455.07	4065.51
455.26	4112.32
455.44	4140.41
455.62	4112.32
455.81	4098.28
455.99	3960.19
456.17	4093.60
456.36	4142.75
456.54	4278.50
456.73	4114.66
456.91	4383.82
457.09	4227.01
457.28	4266.80
457.46	4367.44
457.64	4285.52
457.83	4245.73
458.01	4379.14
458.19	4475.10
458.38	4236.37
458.56	4294.88
458.74	4447.02
458.93	4306.59
459.11	4409.57
459.29	4351.06
459.48	4447.02
459.66	4353.40
459.84	4472.76
460.03	4568.73
460.21	4402.55
460.39	4454.04
460.57	4482.13
460.76	4627.24
460.94	4608.51
461.12	4578.09
461.31	4475.10
461.49	4685.75
461.67	4507.87
461.85	4786.40
462.04	4617.88
462.22	4887.04
462.40	4744.27
462.59	4727.88
462.77	4877.68
462.95	4671.71
463.13	4744.27
463.32	4784.06
463.50	4671.71
463.68	4624.90
463.86	4910.44
464.05	4795.76
464.23	4950.23
464.41	4777.03
464.59	4788.74
464.78	4919.81
464.96	4849.59
465.14	4830.87
465.32	5088.32
465.50	5057.90
465.69	5041.51
465.87	5055.56
466.05	4926.83
466.23	4912.78
466.41	4938.53
466.60	5057.90
466.78	5018.11
466.96	4924.49
467.14	5046.20
467.32	5013.43
467.51	5177.26
467.69	5018.11
467.87	4997.04
468.05	5015.77
468.23	5008.75
468.41	5020.45
468.60	5151.52
468.78	5125.77
468.96	5093.01
469.14	5125.77
469.32	5268.55
469.50	5081.30
469.69	5315.36
469.87	5397.28
470.05	5556.43
470.23	5474.51
470.41	5526.00
470.59	5369.19
470.77	5280.25
470.95	5476.85
471.14	5465.15
471.32	5453.45
471.50	5502.60
471.68	5490.90
471.86	5558.77
472.04	5600.90
472.22	5832.62
472.40	5682.82
472.58	5790.49
472.77	5755.38
472.95	5797.51
473.13	5987.09
473.31	5797.51
473.49	5823.25
473.67	5891.13
473.85	5905.17
474.03	5830.27
474.21	5898.15
474.39	6001.13
474.57	6050.28
474.75	6043.26
474.93	6101.78
475.12	6195.40
475.30	6377.96
475.48	6015.18
475.66	6094.76
475.84	6181.35
476.02	6366.26
476.20	6349.87
476.38	6333.49
476.56	6354.55
476.74	6420.09
476.92	6436.47
477.10	6417.75
477.28	6799.26
477.46	6813.30
477.64	6743.08
477.82	6604.99
478.00	6787.55
478.18	6846.07
478.36	6792.23
478.54	6965.43
478.72	7054.37
478.90	7059.06
479.08	7124.59
479.26	7281.41
479.44	7183.10
479.62	7199.49
479.80	7138.63
479.98	7421.84
480.16	7417.16
480.34	7543.55
480.52	7522.48
480.70	7728.45
480.88	7531.84
481.06	7623.12
481.24	7754.19
481.41	7616.10
481.59	7878.24
481.77	7660.57
481.95	7899.31
482.13	8051.44
482.31	8035.06
482.49	8294.86
482.67	8147.40
482.85	8168.47
483.03	8393.16
483.21	8372.10
483.39	8395.50
483.57	8514.87
483.74	8631.90
483.92	8699.77
484.10	8622.53
484.28	8854.25
484.46	8840.20
484.64	9125.75
484.82	8929.14
485.00	9053.19
485.18	9247.46
485.35	9296.61
485.53	9144.47
485.71	9387.89
485.89	9495.55
486.07	9469.81
486.25	9486.19
486.43	9610.24
486.61	9699.18
486.78	9926.21
486.96	9827.91
487.14	9884.08
487.32	9940.26
487.50	10132.18
487.68	9956.64
487.85	10410.70
488.03	10476.24
488.21	10242.18
488.39	10326.44
488.57	10567.52
488.75	10619.01
488.92	10679.86
489.10	10888.17
489.28	10860.09
489.46	11028.60
489.64	10937.32
489.81	11176.06
489.99	11255.64
490.17	11314.15
490.35	11447.56
490.53	11349.26
490.70	11548.20
490.88	11576.29
491.06	11459.26
491.24	11683.95
491.41	11805.66
491.59	11981.20
491.77	11690.98
491.95	11997.59
492.13	12299.52
492.30	12002.27
492.48	12365.05
492.66	12287.81
492.84	12290.15
493.01	12442.29
493.19	12493.78
493.37	12552.29
493.54	12636.55
493.72	12521.87
493.90	12489.10
494.08	12772.30
494.25	12954.87
494.43	12987.63
494.61	13167.85
494.79	13156.15
494.96	13350.42
495.14	13123.38
495.32	13327.01
495.49	13785.76
495.67	13324.67
495.85	13392.55
496.02	13809.16
496.20	13825.54
496.38	13638.30
496.55	13961.30
496.73	14274.93
496.91	14043.21
497.09	13884.06
497.26	14235.14
497.44	13987.04
497.62	14415.36
497.79	14537.07
497.97	14534.73
498.14	14820.27
498.32	14815.59
498.50	14857.72
498.67	14885.81
498.85	14600.26
499.03	14757.08
499.20	14923.26
499.38	14991.13
499.56	15129.22
499.73	15194.76
499.91	14949.00
500.08	15255.61
500.26	14963.04
500.44	15276.68
500.61	15449.88
500.79	15431.15
500.97	15492.01
501.14	15709.68
501.32	15522.43
501.49	15583.29
501.67	15831.38
501.84	15634.78
502.02	15913.30
502.20	15929.69
502.37	15920.32
502.55	16116.93
502.72	16168.42
502.90	16173.10
503.07	16088.84
503.25	16191.83
503.43	15936.71
503.60	16294.81
503.78	16393.11
503.95	16599.08
504.13	16414.18
504.30	16716.11
504.48	16365.03
504.65	16617.80
504.83	16648.23
505.01	17212.30
505.18	17043.78
505.36	16996.97
505.53	16762.92
505.71	16915.05
505.88	17090.59
506.06	16835.47
506.23	17099.95
506.41	16905.69
506.58	17514.23
506.76	17411.25
506.93	17146.76
507.11	17025.06
507.28	17076.55
507.46	17462.74
507.63	17626.57
507.81	17762.33
507.98	17579.76
508.16	17671.04
508.33	17561.04
508.50	17900.42
508.68	17530.61
508.85	17806.80
509.03	17776.37
509.20	17994.04
509.38	18136.81
509.55	18223.41
509.73	18307.67
509.90	18249.16
510.08	18066.60
510.25	18293.63
510.42	18565.13
510.60	18647.05
510.77	18567.47
510.95	18272.56
511.12	18422.36
511.30	18326.39
511.47	18925.57
511.64	18569.81
511.82	18813.23
511.99	18618.96
512.17	18965.36
512.34	18731.31
512.51	18712.58
512.69	19164.31
512.86	19119.84
513.04	19197.07
513.21	19358.57
513.38	19218.14
513.56	19183.03
513.73	19286.01
513.90	19372.61
514.08	19234.52
514.25	19145.58
514.43	19630.07
514.60	19721.35
514.77	19744.76
514.95	19744.76
515.12	19824.34
515.29	19686.25
515.47	19941.36
515.64	19824.34
515.81	19969.45
515.99	20126.27
516.16	20311.17
516.33	20037.33
516.51	20049.03
516.68	20222.23
516.85	20339.26
517.03	20311.17
517.20	20318.19
517.37	20397.77
517.54	20357.98
517.72	20547.56
517.89	20577.99
518.06	20353.30
518.24	20372.02
518.41	20306.49
518.58	20690.34
518.75	20395.43
518.93	20727.78
519.10	20641.18
519.27	21027.37
519.45	20786.30
519.62	20697.36
519.79	20992.26
519.96	20800.34
520.14	21071.84
520.31	20985.24
520.48	21333.98
520.65	20893.96
520.83	21219.30
521.00	21111.63
521.17	21057.80
521.34	21228.66
521.52	21205.25
521.69	21472.07
521.86	21528.25
522.03	21865.28
522.20	21607.83
522.38	21795.07
522.55	21373.77
522.72	21715.49
522.89	21458.03
523.07	21930.82
523.24	21816.13
523.41	22174.24
523.58	21722.51
523.75	21865.28
523.92	21710.81
524.10	21898.05
524.27	21998.70
524.44	22080.61
524.61	22244.45
524.78	22324.03
524.96	22164.87
525.13	22448.08
525.30	22176.58
525.47	22223.39
525.64	22204.66
525.81	22384.88
525.98	22202.32
526.16	22773.41
526.33	22462.12
526.50	22864.69
526.67	22281.90
526.84	22574.47
527.01	22520.63
527.18	22869.37
527.36	22707.88
527.53	22656.39
527.70	23391.31
527.87	22817.88
528.04	23002.78
528.21	23152.58
528.38	22934.91
528.55	23236.84
528.72	22925.55
528.89	23250.88
529.07	22815.54
529.24	23187.69
529.41	23218.11
529.58	23634.73
529.75	23122.15
529.92	23405.36
530.09	23463.87
530.26	23758.78
530.43	23316.42
530.60	23384.29
530.77	23412.38
530.94	23660.48
531.11	23433.44
531.28	23407.70
531.46	23674.52
531.63	23618.35
531.80	23777.50
531.97	23931.98
532.14	23749.42
532.31	23723.67
532.48	23847.72
532.65	23871.12
532.82	24149.65
532.99	24259.65
533.16	23442.81
533.33	24119.22
533.50	24205.82
533.67	24093.47
533.84	24112.20
534.01	23826.65
534.18	24297.10
534.35	24437.53
534.52	24159.01
534.69	24367.32
534.86	24577.97
535.03	24379.02
535.20	24526.47
535.37	24325.19
535.54	24622.44
535.71	24456.26
535.88	24393.06
536.05	24573.28
536.22	24587.33
536.38	24435.19
536.55	24687.97
536.72	24779.25
536.89	24685.63
537.06	24570.94
537.23	24865.85
537.40	24699.67
537.57	24812.02
537.74	25008.62
537.91	24889.26
538.08	25013.31
538.25	25076.50
538.42	24896.28
538.59	24973.52
538.75	25226.29
538.92	25350.34
539.09	24971.18
539.26	25092.88
539.43	25095.22
539.60	25301.19
539.77	25156.08
539.94	25326.94
540.11	25219.27
540.28	25383.11
540.44	25399.49
540.61	25209.91
540.78	25434.60
540.95	25177.14
541.12	25476.73
541.29	25804.41
541.46	25195.87
541.62	25596.10
541.79	25919.09
541.96	25425.24
542.13	25596.10
542.30	25544.61
542.47	25766.96
542.63	26113.36
542.80	26157.83
542.97	26230.38
543.14	26136.76
543.31	26218.68
543.48	26015.05
543.64	26441.03
543.81	26251.45
543.98	26647.00
544.15	26150.81
544.32	26071.23
544.48	26286.56
544.65	26429.33
544.82	26071.23
544.99	26036.12
545.16	26529.97
545.32	26010.37
545.49	26635.30
545.66	26459.76
545.83	26766.37
546.00	26656.36
546.16	26602.53
546.33	26647.00
546.50	26258.47
546.67	26630.62
546.83	26422.31
547.00	26740.62
547.17	26693.81
547.34	26462.10
547.50	26757.00
547.67	27103.40
547.84	26967.65
548.00	26867.01
548.17	27470.87
548.34	26834.24
548.51	27157.24
548.67	27201.71
548.84	27171.28
549.01	26792.11
549.18	26981.70
549.34	26859.99
549.51	27180.64
549.68	27253.20
549.84	27002.76
550.01	26867.01
550.18	27089.36
550.34	27182.98
550.51	27243.84
550.68	27131.49
550.84	27150.21
551.01	27150.21
551.18	27178.30
551.34	27082.34
551.51	27402.99
551.68	27585.55
551.84	27513.00
552.01	27131.49
552.18	27442.78
552.34	27468.53
552.51	27819.61
552.68	27580.87
552.84	27398.31
553.01	27260.22
553.18	27534.06
553.34	27529.38
553.51	27770.46
553.67	27793.86
553.84	27857.06
554.01	27709.60
554.17	27702.58
554.34	27735.35
554.51	27725.99
554.67	27779.82
554.84	27847.69
555.00	27990.47
555.17	27854.72
555.33	27737.69
555.50	27447.46
555.67	27744.71
555.83	27880.46
556.00	28030.26
556.16	28435.17
556.33	27810.25
556.50	27786.84
556.66	27983.44
556.83	27901.53
556.99	28458.57
557.16	28404.74
557.32	27953.02
557.49	28187.07
557.65	28421.13
557.82	27999.83
557.98	27899.19
558.15	28201.11
558.32	28320.48
558.48	28208.14
558.65	27931.95
558.81	28348.57
558.98	28238.56
559.14	28362.61
559.31	28023.23
559.47	28287.71
559.64	28360.27
559.80	28371.97
559.97	28472.62
560.13	28170.69
560.30	28428.15
560.46	28507.72
560.63	28795.61
560.79	28166.01
560.96	28893.91
561.12	28243.24
561.29	28219.84
561.45	28580.28
561.61	28229.20
561.78	28552.20
561.94	28788.59
562.11	28819.02
562.27	28416.44
562.44	28142.60
562.60	28556.88
562.77	28734.76
562.93	28411.76
563.10	28830.72
563.26	28776.89
563.42	29163.08
563.59	28905.62
563.75	28563.90
563.92	29029.66
564.08	28446.87
564.24	28397.72
564.41	28680.92
564.57	28486.66
564.74	28730.08
564.90	29102.22
565.07	28643.48
565.23	29015.62
565.39	28772.21
565.56	28748.80
565.72	28858.81
565.88	28865.83
566.05	28451.55
566.21	28762.84
566.38	28840.08
566.54	28952.43
566.70	28870.51
566.87	29401.81
567.03	28739.44
567.19	29186.48
567.36	28954.77
567.52	29170.10
567.68	29195.84
567.85	28701.99
568.01	29275.42
568.17	29102.22
568.34	29013.28
568.50	28882.21
568.66	29291.80
568.83	29062.43
568.99	29252.02
569.15	29036.69
569.32	28978.17
569.48	28823.70
569.64	29261.38
569.81	29315.21
569.97	28870.51
570.13	29481.39
570.30	29319.89
570.46	29060.09
570.62	28975.83
570.78	28910.30
570.95	28966.47
571.11	29432.24
571.27	29237.97
571.43	29127.97
571.60	28973.49
571.76	29415.85
571.92	29542.24
572.09	29195.84
572.25	29525.86
572.41	29179.46
572.57	29165.42
572.74	28936.04
572.90	29062.43
573.06	28903.28
573.22	29181.80
573.38	29219.25
573.55	29214.57
573.71	29722.46
573.87	29670.97
574.03	29216.91
574.20	29369.04
574.36	29177.12
574.52	29462.66
574.68	29160.73
574.84	29549.26
575.01	29310.53
575.17	29235.63
575.33	29338.62
575.49	29333.93
575.65	29352.66
575.82	29675.65
575.98	29287.12
576.14	29408.83
576.30	29567.99
576.46	29329.25
576.62	29193.50
576.79	29577.35
576.95	28854.12
577.11	29539.90
577.27	29652.25
577.43	29385.43
577.59	29617.14
577.75	29462.66
577.92	29439.26
578.08	29195.84
578.24	29111.58
578.40	29703.74
578.56	29685.01
578.72	29495.43
578.88	29357.34
579.04	29638.20
579.21	29603.10
579.37	29408.83
579.53	29549.26
579.69	29242.65
579.85	29252.02
580.01	29151.37
580.17	29273.08
580.33	29305.85
580.49	29296.49
580.65	29659.27
580.82	29958.86
580.98	29802.04
581.14	29743.53
581.30	29434.58
581.46	29670.97
581.62	29221.59
581.78	29902.68
581.94	29677.99
582.10	29097.54
582.26	29493.09
582.42	29202.86
582.58	29692.04
582.74	29439.26
582.90	29376.06
583.06	29743.53
583.22	29734.17
583.38	29642.88
583.54	29933.11
583.70	29818.42
583.86	29273.08
584.02	29462.66
584.18	29553.94
584.34	29720.12
584.50	29558.63
584.66	29305.85
584.82	29163.08
584.98	29809.06
585.14	29600.76
585.30	29380.74
585.46	29776.30
585.62	29397.13
585.78	29635.86
585.94	29261.38
586.10	29926.09
586.26	29668.63
586.42	29776.30
586.58	29785.66
586.74	29677.99
586.90	29474.37
587.06	29420.53
587.22	29221.59
587.38	29525.86
587.54	29755.23
587.70	30033.75
587.86	29633.52
588.02	29699.06
588.18	29795.02
588.34	29589.05
588.49	30118.01
588.65	29851.19
588.81	29851.19
588.97	30005.67
589.13	29668.63
589.29	30286.53
589.45	29912.05
589.61	29937.79
589.77	30171.85
589.93	30122.69
590.08	29900.34
590.24	29905.02
590.40	30010.35
590.56	30253.76
590.72	30279.51
590.88	29806.72
591.04	29596.07
591.20	29942.47
591.35	30059.50
591.51	30366.11
591.67	29937.79
591.83	30089.93
591.99	30068.86
