SpectraSuite Data File
++++++++++++++++++++++++++++++++++++
Date: Fri Oct 18 13:58:03 GMT-05:00 2013
User: bianchi
Dark Spectrum Present: No
Reference Spectrum Present: No
Number of Sampled Component Spectra: 1
Spectrometers: USB2+H05261
Integration Time (usec): 50000 (USB2+H05261)
Spectra Averaged: 1 (USB2+H05261)
Boxcar Smoothing: 0 (USB2+H05261)
Correct for Electrical Dark: No (USB2+H05261)
Strobe/Lamp Enabled: No (USB2+H05261)
Correct for Detector Non-linearity: No (USB2+H05261)
Correct for Stray Light: No (USB2+H05261)
Number of Pixels in Processed Spectrum: 2048
>>>>>Begin Processed Spectral Data<<<<<
365.73	4.68
365.92	4.68
366.12	4.68
366.32	0.00
366.52	0.00
366.72	0.00
366.91	0.00
367.11	0.00
367.31	0.00
367.51	0.00
367.70	0.00
367.90	0.00
368.10	0.00
368.30	0.00
368.49	0.00
368.69	0.00
368.89	0.00
369.09	0.00
369.28	0.00
369.48	0.00
369.68	0.00
369.87	0.00
370.07	0.00
370.27	0.00
370.47	0.00
370.66	91.28
370.86	170.86
371.06	131.07
371.25	180.22
371.45	93.62
371.65	128.73
371.84	98.30
372.04	98.30
372.24	191.92
372.44	117.03
372.63	210.65
372.83	170.86
373.03	250.44
373.22	212.99
373.42	231.71
373.62	222.35
373.81	191.92
374.01	220.01
374.21	245.76
374.40	234.05
374.60	311.29
374.79	227.03
374.99	236.39
375.19	205.97
375.38	269.16
375.58	243.42
375.78	212.99
375.97	273.84
376.17	285.55
376.37	245.76
376.56	262.14
376.76	280.86
376.95	203.63
377.15	266.82
377.35	255.12
377.54	318.31
377.74	299.59
377.93	224.69
378.13	262.14
378.33	273.84
378.52	252.78
378.72	264.48
378.91	290.23
379.11	266.82
379.31	344.06
379.50	339.38
379.70	320.65
379.89	334.70
380.09	269.16
380.28	229.37
380.48	304.27
380.68	248.10
380.87	320.65
381.07	301.93
381.26	280.86
381.46	259.80
381.65	315.97
381.85	348.74
382.04	262.14
382.24	381.51
382.43	313.63
382.63	358.10
382.83	337.04
383.02	351.08
383.22	407.25
383.41	315.97
383.61	348.74
383.80	414.27
384.00	332.36
384.19	339.38
384.39	428.32
384.58	341.72
384.78	362.78
384.97	411.93
385.17	484.49
385.36	397.89
385.56	337.04
385.75	414.27
385.95	395.55
386.14	430.66
386.34	379.17
386.53	416.62
386.72	416.62
386.92	461.09
387.11	418.96
387.31	367.46
387.50	437.68
387.70	428.32
387.89	458.74
388.09	395.55
388.28	454.06
388.48	381.51
388.67	421.30
388.86	472.79
389.06	505.56
389.25	486.83
389.45	477.47
389.64	470.45
389.84	484.49
390.03	454.06
390.22	491.51
390.42	540.66
390.61	479.81
390.81	437.68
391.00	491.51
391.19	465.77
391.39	521.94
391.58	514.92
391.78	533.64
391.97	557.05
392.16	496.19
392.36	507.90
392.55	493.85
392.75	491.51
392.94	545.34
393.13	561.73
393.33	491.51
393.52	606.20
393.71	550.03
393.91	557.05
394.10	594.50
394.29	603.86
394.49	498.53
394.68	517.26
394.88	592.16
395.07	615.56
395.26	550.03
395.46	678.76
395.65	664.71
395.84	655.35
396.04	613.22
396.23	664.71
396.42	650.67
396.62	648.33
396.81	678.76
397.00	592.16
397.19	727.91
397.39	739.61
397.58	631.94
397.77	671.73
397.97	683.44
398.16	765.36
398.35	660.03
398.55	781.74
398.74	725.57
398.93	695.14
399.12	655.35
399.32	774.72
399.51	704.50
399.70	812.17
399.90	744.29
400.09	737.27
400.28	730.25
400.47	763.01
400.67	774.72
400.86	774.72
401.05	774.72
401.24	800.46
401.44	765.36
401.63	823.87
401.82	833.23
402.01	746.63
402.21	849.61
402.40	777.06
402.59	732.59
402.78	884.72
402.97	873.02
403.17	882.38
403.36	823.87
403.55	842.59
403.74	866.00
403.93	901.11
404.13	983.02
404.32	950.26
404.51	919.83
404.70	882.38
404.89	1039.20
405.09	992.39
405.28	1071.97
405.47	978.34
405.66	910.47
405.85	961.96
406.05	943.24
406.24	1004.09
406.43	985.37
406.62	1027.50
406.81	1025.15
407.00	1022.81
407.20	1020.47
407.39	985.37
407.58	1050.90
407.77	1022.81
407.96	1196.01
408.15	1039.20
408.34	1109.41
408.54	1090.69
408.73	1083.67
408.92	1081.33
409.11	1128.14
409.30	1102.39
409.49	1078.99
409.68	1118.78
409.87	1165.59
410.07	1181.97
410.26	1184.31
410.45	1238.14
410.64	1224.10
410.83	1252.19
411.02	1238.14
411.21	1310.70
411.40	1196.01
411.59	1188.99
411.78	1252.19
411.98	1324.74
412.17	1362.19
412.36	1240.48
412.55	1348.15
412.74	1294.32
412.93	1378.58
413.12	1369.21
413.31	1437.09
413.50	1352.83
413.69	1324.74
413.88	1423.05
414.07	1437.09
414.26	1390.28
414.45	1469.86
414.64	1425.39
414.83	1488.58
415.02	1519.01
415.22	1530.71
415.41	1521.35
415.60	1551.78
415.79	1607.95
415.98	1563.48
416.17	1607.95
416.36	1575.18
416.55	1624.33
416.74	1638.38
416.93	1727.32
417.12	1603.27
417.31	1666.46
417.50	1753.06
417.69	1778.81
417.88	1689.87
418.07	1877.11
418.26	1675.82
418.45	1825.62
418.64	1912.22
418.83	1748.38
419.02	1823.28
419.21	1830.30
419.39	1837.32
419.58	1743.70
419.77	1895.83
419.96	1832.64
420.15	1872.43
420.34	1893.49
420.53	1858.39
420.72	1834.98
420.91	2001.16
421.10	1886.47
421.29	2017.54
421.48	1811.57
421.67	1839.66
421.86	2010.52
422.05	1923.92
422.24	1980.09
422.43	2024.56
422.61	1921.58
422.80	1980.09
422.99	2005.84
423.18	2057.33
423.37	2078.40
423.56	2022.22
423.75	1982.43
423.94	1968.39
424.13	1989.46
424.32	2003.50
424.50	2017.54
424.69	2193.08
424.88	2071.37
425.07	2073.71
425.26	2120.53
425.45	2069.03
425.64	2104.14
425.83	1959.03
426.01	2017.54
426.20	2118.18
426.39	2031.58
426.58	2108.82
426.77	2099.46
426.96	2136.91
427.15	2097.12
427.33	2165.00
427.52	2132.23
427.71	2143.93
427.90	2293.72
428.09	2328.83
428.28	2174.36
428.46	2153.29
428.65	2120.53
428.84	2162.66
429.03	2228.19
429.22	2211.81
429.40	2237.55
429.59	2251.60
429.78	2193.08
429.97	2125.21
430.16	2310.11
430.34	2363.94
430.53	2291.38
430.72	2356.92
430.91	2448.20
431.10	2218.83
431.28	2368.62
431.47	2221.17
431.66	2406.07
431.85	2483.31
432.03	2415.43
432.22	2555.86
432.41	2420.11
432.60	2459.90
432.79	2312.45
432.97	2504.37
433.16	2548.84
433.35	2445.86
433.54	2539.48
433.72	2586.29
433.91	2459.90
434.10	2513.74
434.28	2595.65
434.47	2626.08
434.66	2469.27
434.85	2590.97
435.03	2567.57
435.22	2560.55
435.41	2670.55
435.59	2736.09
435.78	2626.08
435.97	2712.68
436.16	2656.51
436.34	2682.25
436.53	2654.17
436.72	2820.35
436.90	2668.21
437.09	2750.13
437.28	2689.28
437.46	2679.91
437.65	2738.43
437.84	2736.09
438.02	2841.41
438.21	2677.57
438.40	2691.62
438.58	2871.84
438.77	2925.67
438.96	2810.98
439.14	2967.80
439.33	2892.90
439.52	3066.10
439.70	3084.83
439.89	2960.78
440.08	2939.71
440.26	3023.97
440.45	3075.46
440.63	3215.90
440.82	3112.91
441.01	3028.65
441.19	3124.62
441.38	3220.58
441.57	3208.87
441.75	3255.69
441.94	3300.16
442.12	3272.07
442.31	3283.77
442.50	3295.47
442.68	3213.56
442.87	3431.23
443.05	3265.05
443.24	3339.94
443.43	3419.52
443.61	3438.25
443.80	3620.81
443.98	3400.80
444.17	3265.05
444.35	3417.18
444.54	3545.91
444.73	3471.01
444.91	3332.92
445.10	3393.78
445.28	3503.78
445.47	3438.25
445.65	3407.82
445.84	3543.57
446.02	3482.72
446.21	3499.10
446.39	3480.38
446.58	3646.55
446.77	3548.25
446.95	3585.70
447.14	3419.52
447.32	3630.17
447.51	3485.06
447.69	3592.72
447.88	3583.36
448.06	3578.68
448.25	3555.27
448.43	3550.59
448.62	3552.93
448.80	3543.57
448.99	3655.92
449.17	3576.34
449.36	3676.98
449.54	3740.18
449.73	3803.37
449.91	3688.68
450.10	3761.24
450.28	3606.77
450.46	3822.09
450.65	3779.97
450.83	3754.22
451.02	3740.18
451.20	3803.37
451.39	3695.71
451.57	3784.65
451.76	3721.45
451.94	3871.25
452.13	3964.87
452.31	3983.59
452.49	3861.88
452.68	3974.23
452.86	3796.35
453.05	3911.04
453.23	3999.98
453.42	3871.25
453.60	3901.67
453.78	3943.80
453.97	3922.74
454.15	4011.68
454.34	3992.95
454.52	3878.27
454.70	4060.83
454.89	4102.96
455.07	3948.48
455.26	4149.77
455.44	4098.28
455.62	4147.43
455.81	4124.02
455.99	4315.95
456.17	4084.23
456.36	4149.77
456.54	4163.81
456.73	4196.58
456.91	4381.48
457.09	4203.60
457.28	4430.63
457.46	4273.82
457.64	4351.06
457.83	4290.20
458.01	4262.12
458.19	4470.42
458.38	4241.05
458.56	4496.17
458.74	4454.04
458.93	4451.70
459.11	4353.40
459.29	4432.97
459.48	4634.26
459.66	4643.62
459.84	4479.79
460.03	4587.45
460.21	4660.01
460.39	4561.70
460.57	4575.75
460.76	4578.09
460.94	4596.81
461.12	4615.54
461.31	4765.33
461.49	4692.77
461.67	4622.56
461.85	4898.74
462.04	4692.77
462.22	5011.09
462.40	4737.24
462.59	4645.96
462.77	4688.09
462.95	4954.91
463.13	4786.40
463.32	4732.56
463.50	4842.57
463.68	4990.02
463.86	4887.04
464.05	4730.22
464.23	4929.17
464.41	4908.10
464.59	4926.83
464.78	4985.34
464.96	4814.48
465.14	4807.46
465.32	5013.43
465.50	4987.68
465.69	5144.50
465.87	5095.35
466.05	5114.07
466.23	5036.83
466.41	5006.41
466.60	5172.58
466.78	5064.92
466.96	5078.96
467.14	4999.38
467.32	5149.18
467.51	5111.73
467.69	5071.94
467.87	5088.32
468.05	5186.63
468.23	5221.74
468.41	5067.26
468.60	5221.74
468.78	5263.86
468.96	5437.06
469.14	5210.03
469.32	5308.34
469.50	5097.69
469.69	5345.78
469.87	5518.98
470.05	5394.93
470.23	5593.88
470.41	5523.66
470.59	5437.06
470.77	5486.22
470.95	5516.64
471.14	5713.25
471.32	5540.05
471.50	5633.67
471.68	5561.11
471.86	5577.50
472.04	5682.82
472.22	5792.83
472.40	5647.71
472.58	5722.61
472.77	5724.95
472.95	5755.38
473.13	6010.50
473.31	5783.46
473.49	5867.72
473.67	5797.51
473.85	5944.96
474.03	5935.60
474.21	5881.77
474.39	5994.11
474.57	6040.92
474.75	5977.73
474.93	6282.00
475.12	6148.59
475.30	6361.58
475.48	6310.08
475.66	6347.53
475.84	6090.07
476.02	6359.24
476.20	6415.41
476.38	6455.20
476.56	6541.80
476.74	6565.20
476.92	6506.69
477.10	6628.40
477.28	6707.98
477.46	6729.04
477.64	6796.92
477.82	6829.68
478.00	7021.61
478.18	6960.75
478.36	7009.90
478.54	7082.46
478.72	7304.81
478.90	7227.57
479.08	7211.19
479.26	7311.83
479.44	7274.38
479.62	7449.93
479.80	7435.88
479.98	7452.27
480.16	7620.78
480.34	7583.34
480.52	7660.57
480.70	7859.52
480.88	7648.87
481.06	7681.64
481.24	7793.98
481.41	7822.07
481.59	7899.31
481.77	7770.58
481.95	8063.15
482.13	8138.04
482.31	8093.57
482.49	8264.43
482.67	8304.22
482.85	8456.36
483.03	8479.76
483.21	8594.45
483.39	8730.20
483.57	8430.61
483.74	8594.45
483.92	8755.94
484.10	8807.44
484.28	9004.04
484.46	8940.85
484.64	9092.98
484.82	9071.92
485.00	9165.54
485.18	9282.56
485.35	9399.59
485.53	9430.02
485.71	9490.87
485.89	9722.59
486.07	9502.58
486.25	9589.17
486.43	9675.77
486.61	9647.69
486.78	9776.42
486.96	10057.28
487.14	10017.49
487.32	10101.75
487.50	10359.21
487.68	10310.06
487.85	10544.11
488.03	10534.75
488.21	10534.75
488.39	10604.97
488.57	10693.91
488.75	10677.52
488.92	10759.44
489.10	10925.62
489.28	10946.69
489.46	11311.81
489.64	11197.12
489.81	11583.31
489.99	11686.29
490.17	11477.99
490.35	11386.71
490.53	11557.57
490.70	11421.81
490.88	11658.21
491.06	11868.86
491.24	12013.97
491.41	11796.30
491.59	11985.88
491.77	12067.80
491.95	12161.42
492.13	11962.48
492.30	12400.16
492.48	12147.38
492.66	12496.12
492.84	12573.36
493.01	12547.61
493.19	12320.58
493.37	13074.23
493.54	12718.47
493.72	12816.77
493.90	12938.48
494.08	13018.06
494.25	13245.09
494.43	13053.17
494.61	13514.25
494.79	13348.08
494.96	13212.32
495.14	13324.67
495.32	13579.79
495.49	13879.38
495.67	13731.92
495.85	13844.27
496.02	13916.83
496.20	13963.64
496.38	14026.83
496.55	14047.90
496.73	14459.83
496.91	14338.12
497.09	14366.21
497.26	14441.11
497.44	14494.94
497.62	14492.60
497.79	14654.09
497.97	14305.35
498.14	14984.11
498.32	15044.96
498.50	14874.10
498.67	15035.60
498.85	14743.03
499.03	14871.76
499.20	14937.30
499.38	15206.46
499.56	15337.53
499.73	15096.46
499.91	15246.25
500.08	15765.85
500.26	15215.82
500.44	15379.66
500.61	15517.75
500.79	15772.87
500.97	15543.50
501.14	15957.77
501.32	15604.35
501.49	16060.76
501.67	15885.22
501.84	16098.20
502.02	15754.15
502.20	16145.02
502.37	16252.68
502.55	16301.83
502.72	16208.21
502.90	16482.05
503.07	16142.67
503.25	16301.83
503.43	16578.01
503.60	16706.74
503.78	16547.59
503.95	16589.72
504.13	16587.38
504.30	16835.47
504.48	16636.53
504.65	16893.99
504.83	17074.21
505.01	17109.32
505.18	16950.16
505.36	17263.79
505.53	16908.03
505.71	16980.59
505.88	17167.83
506.06	17071.87
506.23	17280.18
506.41	17350.39
506.58	17675.73
506.76	17666.36
506.93	17399.54
507.11	17315.28
507.28	17600.83
507.46	17495.50
507.63	17762.33
507.81	18033.83
507.98	17991.70
508.16	17972.97
508.33	17991.70
508.50	17926.16
508.68	18356.82
508.85	18211.71
509.03	17980.00
509.20	18211.71
509.38	18368.52
509.55	18654.07
509.73	18319.37
509.90	18466.83
510.08	18375.55
510.25	18586.19
510.42	18721.95
510.60	18750.03
510.77	18836.63
510.95	18726.63
511.12	18916.21
511.30	18724.29
511.47	18731.31
511.64	19166.65
511.82	19225.16
511.99	18899.83
512.17	19316.44
512.34	19220.48
512.51	19751.78
512.69	19089.41
512.86	19433.47
513.04	19569.22
513.21	19679.22
513.38	19786.89
513.56	19372.61
513.73	19524.75
513.90	19473.26
514.08	19693.27
514.25	19337.51
514.43	19658.16
514.60	19934.34
514.77	19866.47
514.95	20156.69
515.12	19929.66
515.29	19800.93
515.47	19910.94
515.64	20212.87
515.81	20259.68
515.99	20114.56
516.16	20561.61
516.33	20332.23
516.51	20776.94
516.68	20350.96
516.85	20926.73
517.03	20332.23
517.20	20666.93
517.37	20699.70
517.54	20486.71
517.72	20645.87
517.89	20505.43
518.06	20636.50
518.24	20856.51
518.41	20952.48
518.58	21118.65
518.75	21013.33
518.93	21275.47
519.10	21050.78
519.27	21249.72
519.45	21099.93
519.62	21113.97
519.79	21125.68
519.96	21476.76
520.14	21441.65
520.31	21219.30
520.48	21427.60
520.65	21418.24
520.83	21509.52
521.00	21521.23
521.17	21415.90
521.34	21376.11
521.52	21893.37
521.69	21612.51
521.86	21902.73
522.03	21975.29
522.20	21766.98
522.38	21823.16
522.55	21706.13
522.72	21790.39
522.89	22050.19
523.07	22537.02
523.24	22387.22
523.41	22073.59
523.58	21830.18
523.75	22401.27
523.92	22228.07
524.10	22267.86
524.27	22710.22
524.44	22384.88
524.61	22654.05
524.78	22459.78
524.96	22490.21
525.13	22703.20
525.30	22829.59
525.47	22534.68
525.64	22494.89
525.81	22707.88
525.98	23073.00
526.16	22663.41
526.33	23300.03
526.50	23307.05
526.67	22457.44
526.84	22934.91
527.01	22773.41
527.18	22747.67
527.36	22941.93
527.53	23290.67
527.70	23548.13
527.87	23730.69
528.04	23314.08
528.21	23267.27
528.38	23337.48
528.55	23454.51
528.72	23723.67
528.89	23396.00
529.07	23686.22
529.24	23658.14
529.41	23728.35
529.58	23913.25
529.75	23653.45
529.92	23583.24
530.09	23683.88
530.26	24100.50
530.43	24151.99
530.60	23775.16
530.77	23693.24
530.94	24065.39
531.11	23653.45
531.28	24053.69
531.46	24032.62
531.63	23859.42
531.80	24020.92
531.97	23711.97
532.14	24095.82
532.31	24189.44
532.48	24587.33
532.65	24430.51
532.82	24224.54
532.99	24381.36
533.16	24458.60
533.33	24570.94
533.50	24563.92
533.67	24563.92
533.84	24624.78
534.01	24350.93
534.18	24191.78
534.35	24386.04
534.52	24805.00
534.69	24641.16
534.86	24713.72
535.03	24765.21
535.20	24795.64
535.37	24900.96
535.54	24971.18
535.71	24643.50
535.88	24779.25
536.05	24985.22
536.22	25027.35
536.38	25273.10
536.55	25338.64
536.72	25268.42
536.89	24821.38
537.06	24989.90
537.23	25322.26
537.40	25401.83
537.57	25212.25
537.74	25373.75
537.91	25586.74
538.08	25364.39
538.25	25476.73
538.42	25385.45
538.59	25434.60
538.75	25188.85
538.92	25399.49
539.09	25429.92
539.26	25715.47
539.43	25626.53
539.60	25549.29
539.77	25661.63
539.94	25666.31
540.11	25818.45
540.28	25558.65
540.44	25675.68
540.61	25535.24
540.78	25865.26
540.95	25916.75
541.12	25811.43
541.29	25734.19
541.46	25738.87
541.62	26122.72
541.79	26279.54
541.96	25862.92
542.13	26106.34
542.30	25811.43
542.47	26583.80
542.63	26059.52
542.80	26319.32
542.97	26579.12
543.14	26593.17
543.31	26183.57
543.48	26415.29
543.64	26668.06
543.81	26775.73
543.98	26698.49
544.15	26597.85
544.32	26202.30
544.48	26869.35
544.65	26815.52
544.82	26412.95
544.99	26328.69
545.16	26630.62
545.32	26618.91
545.49	26785.09
545.66	26984.04
545.83	27101.06
546.00	27136.17
546.16	27075.32
546.33	26792.11
546.50	26441.03
546.67	27016.80
546.83	26740.62
547.00	26768.71
547.17	26965.31
547.34	27136.17
547.50	27143.19
547.67	27501.29
547.84	27171.28
548.00	27285.97
548.17	27557.47
548.34	27084.68
548.51	27463.85
548.67	27658.11
548.84	27768.12
549.01	27461.51
549.18	27304.69
549.34	27445.12
549.51	26969.99
549.68	27239.15
549.84	27461.51
550.01	27910.89
550.18	27302.35
550.34	27473.21
550.51	27599.60
550.68	27950.68
550.84	27220.43
551.01	27735.35
551.18	27625.34
551.34	27559.81
551.51	27627.68
551.68	28070.04
551.84	27974.08
552.01	28149.62
552.18	27920.25
552.34	28077.07
552.51	27861.74
552.68	27662.79
552.84	28023.23
553.01	28004.51
553.18	27969.40
553.34	28205.80
553.51	28187.07
553.67	28102.81
553.84	28341.55
554.01	28114.52
554.17	28371.97
554.34	28063.02
554.51	28348.57
554.67	27847.69
554.84	28093.45
555.00	28025.57
555.17	28114.52
555.33	28435.17
555.50	28194.09
555.67	28404.74
555.83	28301.76
556.00	28147.28
556.16	28608.37
556.33	28126.22
556.50	28594.32
556.66	29132.65
556.83	28561.56
556.99	28809.65
557.16	28456.23
557.32	28795.61
557.49	28802.63
557.65	28196.43
557.82	28858.81
557.98	28802.63
558.15	28636.45
558.32	28783.91
558.48	28615.39
558.65	29127.97
558.81	29017.96
558.98	28903.28
559.14	28978.17
559.31	28610.71
559.47	28819.02
559.64	28652.84
559.80	29029.66
559.97	28968.81
560.13	28790.93
560.30	28807.31
560.46	28931.36
560.63	28978.17
560.79	29097.54
560.96	28783.91
561.12	28980.51
561.29	28739.44
561.45	28929.02
561.61	29399.47
561.78	29069.45
561.94	29160.73
562.11	29235.63
562.27	28919.66
562.44	28917.32
562.60	29214.57
562.77	28910.30
562.93	28800.29
563.10	29226.27
563.26	29057.75
563.42	29567.99
563.59	29329.25
563.75	29081.16
563.92	29404.15
564.08	29298.83
564.24	29195.84
564.41	29336.27
564.57	29544.58
564.74	29303.51
564.90	29600.76
565.07	29652.25
565.23	29369.04
565.39	29310.53
565.56	29589.05
565.72	29481.39
565.88	29064.77
566.05	29144.35
566.21	29436.92
566.38	29214.57
566.54	29296.49
566.70	29743.53
566.87	29399.47
567.03	29317.55
567.19	29820.77
567.36	29802.04
567.52	29710.76
567.68	29663.95
567.85	29329.25
568.01	29352.66
568.17	30033.75
568.34	29563.31
568.50	29329.25
568.66	29546.92
568.83	29788.00
568.99	29837.15
569.15	29825.45
569.32	29546.92
569.48	29298.83
569.64	29745.87
569.81	29951.84
569.97	29593.73
570.13	30061.84
570.30	29759.91
570.46	29560.97
570.62	29795.02
570.78	29614.80
570.95	29792.68
571.11	29830.13
571.27	29792.68
571.43	29486.07
571.60	30064.18
571.76	29303.51
571.92	29525.86
572.09	29956.52
572.25	30106.31
572.41	29914.39
572.57	30291.21
572.74	29902.68
572.90	29563.31
573.06	29867.58
573.22	29493.09
573.38	29930.77
573.55	29736.51
573.71	29923.75
573.87	29982.26
574.03	29792.68
574.20	29846.51
574.36	29305.85
574.52	29797.36
574.68	29680.33
574.84	29956.52
575.01	29944.81
575.17	29783.32
575.33	29893.32
575.49	29780.98
575.65	30085.25
575.82	29968.22
575.98	29729.48
576.14	30270.15
576.30	29947.15
576.46	29989.28
576.62	29956.52
576.79	30052.48
576.95	30235.04
577.11	30087.59
577.27	30115.67
577.43	29888.64
577.59	30103.97
577.75	29919.07
577.92	29776.30
578.08	29795.02
578.24	29888.64
578.40	30218.66
578.56	29757.57
578.72	29963.54
578.88	30272.49
579.04	30012.69
579.21	30291.21
579.37	30391.86
579.53	30359.09
579.69	29649.91
579.85	29888.64
580.01	29865.24
580.17	29944.81
580.33	30129.72
580.49	30026.73
580.65	30068.86
580.82	30560.37
580.98	30174.19
581.14	30031.41
581.30	29879.28
581.46	30017.37
581.62	29998.65
581.78	29780.98
581.94	29930.77
582.10	29972.90
582.26	30064.18
582.42	30237.38
582.58	30136.74
582.74	30033.75
582.90	29696.72
583.06	30139.08
583.22	30183.55
583.38	30052.48
583.54	30237.38
583.70	30218.66
583.86	30204.61
584.02	30160.14
584.18	30389.52
584.34	30071.20
584.50	30235.04
584.66	29729.48
584.82	30094.61
584.98	30103.97
585.14	30113.33
585.30	30213.98
585.46	30431.65
585.62	29921.41
585.78	29933.11
585.94	30057.16
586.10	29902.68
586.26	30267.81
586.42	30246.74
586.58	30532.29
586.74	29937.79
586.90	30277.17
587.06	29795.02
587.22	30068.86
587.38	29544.58
587.54	30543.99
587.70	30672.72
587.86	30536.97
588.02	30300.58
588.18	30569.74
588.34	30253.76
588.49	30068.86
588.65	30394.20
588.81	30150.78
588.97	30469.09
589.13	30485.48
589.29	30197.59
589.45	30471.43
589.61	30672.72
589.77	30373.13
589.93	30618.89
590.08	30532.29
590.24	30525.27
590.40	30326.32
590.56	30644.63
590.72	30396.54
590.88	29982.26
591.04	30293.55
591.20	30801.45
591.35	30827.20
591.51	30859.96
591.67	30529.95
591.83	30759.32
591.99	30986.35
