SpectraSuite Data File
++++++++++++++++++++++++++++++++++++
Date: Fri Oct 18 13:58:02 GMT-05:00 2013
User: bianchi
Dark Spectrum Present: No
Reference Spectrum Present: No
Number of Sampled Component Spectra: 1
Spectrometers: USB2+H05261
Integration Time (usec): 50000 (USB2+H05261)
Spectra Averaged: 1 (USB2+H05261)
Boxcar Smoothing: 0 (USB2+H05261)
Correct for Electrical Dark: No (USB2+H05261)
Strobe/Lamp Enabled: No (USB2+H05261)
Correct for Detector Non-linearity: No (USB2+H05261)
Correct for Stray Light: No (USB2+H05261)
Number of Pixels in Processed Spectrum: 2048
>>>>>Begin Processed Spectral Data<<<<<
365.73	0.00
365.92	0.00
366.12	0.00
366.32	0.00
366.52	0.00
366.72	0.00
366.91	0.00
367.11	0.00
367.31	0.00
367.51	0.00
367.70	0.00
367.90	0.00
368.10	0.00
368.30	0.00
368.49	0.00
368.69	0.00
368.89	0.00
369.09	0.00
369.28	0.00
369.48	0.00
369.68	0.00
369.87	0.00
370.07	0.00
370.27	0.00
370.47	0.00
370.66	49.15
370.86	35.11
371.06	35.11
371.25	128.73
371.45	161.50
371.65	163.84
371.84	152.13
372.04	124.05
372.24	145.11
372.44	159.16
372.63	175.54
372.83	154.48
373.03	170.86
373.22	278.52
373.42	250.44
373.62	156.82
373.81	189.58
374.01	245.76
374.21	177.88
374.40	173.20
374.60	170.86
374.79	245.76
374.99	245.76
375.19	264.48
375.38	215.33
375.58	227.03
375.78	280.86
375.97	227.03
376.17	266.82
376.37	243.42
376.56	250.44
376.76	334.70
376.95	229.37
377.15	297.25
377.35	224.69
377.54	259.80
377.74	222.35
377.93	283.20
378.13	231.71
378.33	273.84
378.52	278.52
378.72	320.65
378.91	311.29
379.11	334.70
379.31	297.25
379.50	297.25
379.70	283.20
379.89	241.08
380.09	334.70
380.28	304.27
380.48	308.95
380.68	318.31
380.87	325.33
381.07	332.36
381.26	278.52
381.46	400.23
381.65	283.20
381.85	327.68
382.04	252.78
382.24	327.68
382.43	353.42
382.63	383.85
382.83	358.10
383.02	393.21
383.22	442.36
383.41	290.23
383.61	360.44
383.80	360.44
384.00	313.63
384.19	407.25
384.39	339.38
384.58	379.17
384.78	397.89
384.97	390.87
385.17	386.19
385.36	383.85
385.56	416.62
385.75	308.95
385.95	397.89
386.14	461.09
386.34	454.06
386.53	362.78
386.72	418.96
386.92	477.47
387.11	355.76
387.31	428.32
387.50	365.12
387.70	421.30
387.89	442.36
388.09	351.08
388.28	416.62
388.48	428.32
388.67	430.66
388.86	500.87
389.06	468.11
389.25	442.36
389.45	514.92
389.64	416.62
389.84	475.13
390.03	489.17
390.22	498.53
390.42	472.79
390.61	479.81
390.81	451.72
391.00	528.96
391.19	500.87
391.39	514.92
391.58	528.96
391.78	423.64
391.97	552.37
392.16	465.77
392.36	538.32
392.55	573.43
392.75	519.60
392.94	547.69
393.13	510.24
393.33	603.86
393.52	564.07
393.71	561.73
393.91	606.20
394.10	582.79
394.29	641.31
394.49	538.32
394.68	685.78
394.88	582.79
395.07	547.69
395.26	589.82
395.46	545.34
395.65	636.63
395.84	676.41
396.04	685.78
396.23	610.88
396.42	655.35
396.62	627.26
396.81	617.90
397.00	688.12
397.19	596.84
397.39	648.33
397.58	734.93
397.77	748.97
397.97	763.01
398.16	690.46
398.35	748.97
398.55	653.01
398.74	582.79
398.93	798.12
399.12	748.97
399.32	770.04
399.51	699.82
399.70	812.17
399.90	795.78
400.09	812.17
400.28	791.10
400.47	709.18
400.67	767.70
400.86	706.84
401.05	767.70
401.24	713.86
401.44	805.14
401.63	802.80
401.82	833.23
402.01	805.14
402.21	816.85
402.40	844.93
402.59	835.57
402.78	821.53
402.97	791.10
403.17	786.42
403.36	910.47
403.55	823.87
403.74	919.83
403.93	856.64
404.13	912.81
404.32	966.64
404.51	884.72
404.70	905.79
404.89	912.81
405.09	1011.11
405.28	983.02
405.47	978.34
405.66	1022.81
405.85	1013.45
406.05	954.94
406.24	1074.31
406.43	959.62
406.62	1034.52
406.81	1074.31
407.00	966.64
407.20	1027.50
407.39	997.07
407.58	1128.14
407.77	1083.67
407.96	1142.18
408.15	1090.69
408.34	1081.33
408.54	1062.60
408.73	1151.54
408.92	1081.33
409.11	1060.26
409.30	1165.59
409.49	1067.28
409.68	1116.44
409.87	1165.59
410.07	1156.22
410.26	1219.42
410.45	1196.01
410.64	1193.67
410.83	1207.72
411.02	1193.67
411.21	1273.25
411.40	1200.69
411.59	1268.57
411.78	1163.25
411.98	1317.72
412.17	1329.42
412.36	1233.46
412.55	1341.13
412.74	1238.14
412.93	1338.79
413.12	1256.87
413.31	1399.64
413.50	1345.81
413.69	1451.13
413.88	1455.81
414.07	1404.32
414.26	1479.22
414.45	1416.02
414.64	1420.71
414.83	1460.49
415.02	1537.73
415.22	1533.05
415.41	1490.92
415.60	1549.43
415.79	1582.20
415.98	1575.18
416.17	1568.16
416.36	1565.82
416.55	1621.99
416.74	1657.10
416.93	1610.29
417.12	1636.03
417.31	1668.80
417.50	1713.27
417.69	1764.76
417.88	1851.36
418.07	1753.06
418.26	1790.51
418.45	1781.15
418.64	1811.57
418.83	1947.33
419.02	1825.62
419.21	1874.77
419.39	1816.26
419.58	1760.08
419.77	1877.11
419.96	1872.43
420.15	1928.60
420.34	1853.70
420.53	1905.20
420.72	1935.62
420.91	1895.83
421.10	2050.31
421.29	1923.92
421.48	1954.35
421.67	1956.69
421.86	1909.88
422.05	2057.33
422.24	1980.09
422.43	1933.28
422.61	2008.18
422.80	2059.67
422.99	2010.52
423.18	2045.63
423.37	2092.44
423.56	2059.67
423.75	1944.99
423.94	1989.46
424.13	1893.49
424.32	1989.46
424.50	2038.61
424.69	2064.35
424.88	2127.55
425.07	2052.65
425.26	1921.58
425.45	1942.64
425.64	2087.76
425.83	2017.54
426.01	2090.10
426.20	2052.65
426.39	2099.46
426.58	1952.01
426.77	1975.41
426.96	2160.31
427.15	2045.63
427.33	2113.50
427.52	2087.76
427.71	2113.50
427.90	2136.91
428.09	2195.42
428.28	2197.76
428.46	2153.29
428.65	2232.87
428.84	2260.96
429.03	2167.34
429.22	2172.02
429.40	2169.68
429.59	2340.54
429.78	2190.74
429.97	2146.27
430.16	2286.70
430.34	2324.15
430.53	2204.78
430.72	2286.70
430.91	2303.09
431.10	2417.77
431.28	2310.11
431.47	2464.58
431.66	2483.31
431.85	2289.04
432.03	2366.28
432.22	2499.69
432.41	2408.41
432.60	2499.69
432.79	2401.39
432.97	2457.56
433.16	2495.01
433.35	2466.92
433.54	2469.27
433.72	2602.68
433.91	2537.14
434.10	2534.80
434.28	2422.45
434.47	2502.03
434.66	2473.95
434.85	2619.06
435.03	2626.08
435.22	2574.59
435.41	2581.61
435.59	2509.05
435.78	2520.76
435.97	2637.78
436.16	2635.44
436.34	2658.85
436.53	2773.53
436.72	2689.28
436.90	2455.22
437.09	2710.34
437.28	2661.19
437.46	2668.21
437.65	2731.41
437.84	2834.39
438.02	2733.75
438.21	2750.13
438.40	2626.08
438.58	2883.54
438.77	2984.18
438.96	2843.75
439.14	2951.42
439.33	2974.82
439.52	3038.02
439.70	2995.89
439.89	3005.25
440.08	2930.35
440.26	3162.06
440.45	3084.83
440.63	3173.77
440.82	3084.83
441.01	3000.57
441.19	3103.55
441.38	3227.60
441.57	3178.45
441.75	3253.34
441.94	3194.83
442.12	3255.69
442.31	3328.24
442.50	3328.24
442.68	3234.62
442.87	3335.26
443.05	3227.60
443.24	3330.58
443.43	3393.78
443.61	3365.69
443.80	3473.36
443.98	3417.18
444.17	3162.06
444.35	3456.97
444.54	3550.59
444.73	3557.61
444.91	3527.19
445.10	3393.78
445.28	3435.91
445.47	3358.67
445.65	3548.25
445.84	3501.44
446.02	3471.01
446.21	3625.49
446.39	3492.08
446.58	3562.30
446.77	3461.65
446.95	3358.67
447.14	3461.65
447.32	3506.12
447.51	3438.25
447.69	3520.17
447.88	3550.59
448.06	3562.30
448.25	3435.91
448.43	3609.11
448.62	3653.58
448.80	3557.61
448.99	3541.23
449.17	3468.67
449.36	3487.40
449.54	3529.53
449.73	3634.85
449.91	3581.02
450.10	3658.26
450.28	3688.68
450.46	3772.94
450.65	3700.39
450.83	3679.32
451.02	3740.18
451.20	3744.86
451.39	3892.31
451.57	3761.24
451.76	3740.18
451.94	3688.68
452.13	3817.41
452.31	3782.31
452.49	3768.26
452.68	3840.82
452.86	3843.16
453.05	3978.91
453.23	3971.89
453.42	3955.51
453.60	3719.11
453.78	3948.48
453.97	3885.29
454.15	4035.08
454.34	3915.72
454.52	4007.00
454.70	4098.28
454.89	4030.40
455.07	4023.38
455.26	4025.72
455.44	4046.79
455.62	4128.70
455.81	4175.52
455.99	4163.81
456.17	4152.11
456.36	4285.52
456.54	4231.69
456.73	4215.30
456.91	4367.44
457.09	4238.71
457.28	4526.60
457.46	4411.91
457.64	4372.12
457.83	4283.18
458.01	4325.31
458.19	4372.12
458.38	4388.50
458.56	4444.68
458.74	4519.57
458.93	4365.10
459.11	4505.53
459.29	4397.87
459.48	4461.06
459.66	4440.00
459.84	4444.68
460.03	4585.11
460.21	4592.13
460.39	4667.03
460.57	4449.36
460.76	4425.95
460.94	4645.96
461.12	4629.58
461.31	4610.86
461.49	4388.50
461.67	4643.62
461.85	4793.42
462.04	4770.01
462.22	4952.57
462.40	4947.89
462.59	4833.21
462.77	4753.63
462.95	5013.43
463.13	4924.49
463.32	4968.96
463.50	4861.29
463.68	4781.71
463.86	4828.53
464.05	4807.46
464.23	4884.70
464.41	4971.30
464.59	4765.33
464.78	5078.96
464.96	4851.93
465.14	5041.51
465.32	5123.43
465.50	4917.47
465.69	5198.33
465.87	4992.36
466.05	4968.96
466.23	5067.26
466.41	5088.32
466.60	5071.94
466.78	5121.09
466.96	5076.62
467.14	5172.58
467.32	5078.96
467.51	5221.74
467.69	5095.35
467.87	5214.71
468.05	5210.03
468.23	5139.82
468.41	5195.99
468.60	5186.63
468.78	5324.72
468.96	5219.39
469.14	5362.17
469.32	5294.29
469.50	5210.03
469.69	5423.02
469.87	5423.02
470.05	5490.90
470.23	5600.90
470.41	5418.34
470.59	5373.87
470.77	5430.04
470.95	5516.64
471.14	5614.95
471.32	5458.13
471.50	5558.77
471.68	5584.52
471.86	5554.09
472.04	5582.18
472.22	5724.95
472.40	5750.70
472.58	5856.02
472.77	5668.78
472.95	5771.76
473.13	6085.39
473.31	5980.07
473.49	5877.09
473.67	5741.33
473.85	5795.17
474.03	5930.92
474.21	6024.54
474.39	6132.20
474.57	6094.76
474.75	6176.67
474.93	6221.14
475.12	6083.05
475.30	6274.98
475.48	6164.97
475.66	6253.91
475.84	6282.00
476.02	6445.84
476.20	6420.09
476.38	6499.67
476.56	6604.99
476.74	6600.31
476.92	6504.35
477.10	6452.86
477.28	6558.18
477.46	6583.93
477.64	6715.00
477.82	6949.05
478.00	6904.58
478.18	6956.07
478.36	7063.74
478.54	6991.18
478.72	7143.32
478.90	6937.35
479.08	7213.53
479.26	7316.51
479.44	7222.89
479.62	7267.36
479.80	7328.22
479.98	7510.78
480.16	7852.50
480.34	7419.50
480.52	7749.51
480.70	7616.10
480.88	7592.70
481.06	7906.33
481.24	7606.74
481.41	7887.61
481.59	8070.17
481.77	7999.95
481.95	7955.48
482.13	8383.80
482.31	8119.32
482.49	8212.94
482.67	8201.24
482.85	8468.06
483.03	8542.96
483.21	8580.40
483.39	8695.09
483.57	8519.55
483.74	8580.40
483.92	8762.97
484.10	8741.90
484.28	8842.54
484.46	9097.66
484.64	9085.96
484.82	8985.32
485.00	9256.82
485.18	9163.20
485.35	9228.73
485.53	9226.39
485.71	9380.87
485.89	9664.07
486.07	9645.35
486.25	9776.42
486.43	9713.22
486.61	9820.89
486.78	9806.84
486.96	10090.05
487.14	10167.29
487.32	10197.71
487.50	10146.22
487.68	10473.90
487.85	10225.80
488.03	10478.58
488.21	10497.30
488.39	10492.62
488.57	10693.91
488.75	10609.65
488.92	10626.03
489.10	11061.37
489.28	10846.04
489.46	11468.62
489.64	10939.66
489.81	11250.96
489.99	11489.69
490.17	11066.05
490.35	11454.58
490.53	11620.76
490.70	11868.86
490.88	11630.12
491.06	11875.88
491.24	11875.88
491.41	11756.51
491.59	12119.29
491.77	11859.49
491.95	12123.98
492.13	12301.86
492.30	12236.32
492.48	12245.68
492.66	12306.54
492.84	12336.96
493.01	12554.63
493.19	12641.23
493.37	12837.84
493.54	12741.88
493.72	12933.80
493.90	13036.78
494.08	13270.84
494.25	12971.25
494.43	12978.27
494.61	13371.48
494.79	13575.11
494.96	13455.74
495.14	13626.60
495.32	13413.61
495.49	13394.89
495.67	13776.39
495.85	13928.53
496.02	13586.81
496.20	13947.25
496.38	14047.90
496.55	14045.55
496.73	14406.00
496.91	14012.79
497.09	14298.33
497.26	14530.05
497.44	14394.29
497.62	14244.50
497.79	14677.50
497.97	14602.60
498.14	14766.44
498.32	15051.99
498.50	14911.55
498.67	15206.46
498.85	14806.23
499.03	15087.09
499.20	14981.77
499.38	15096.46
499.56	15548.18
499.73	15330.51
499.91	15403.07
500.08	15592.65
500.26	15117.52
500.44	15459.24
500.61	15276.68
500.79	15494.35
500.97	15716.70
501.14	15854.79
501.32	15831.38
501.49	15882.88
501.67	15917.98
501.84	15859.47
502.02	16091.18
502.20	16030.33
502.37	16374.39
502.55	16163.74
502.72	16058.42
502.90	16498.44
503.07	16145.02
503.25	16248.00
503.43	16437.58
503.60	16400.13
503.78	16622.48
503.95	16716.11
504.13	16556.95
504.30	16807.39
504.48	16582.70
504.65	16856.54
504.83	17099.95
505.01	17064.85
505.18	16547.59
505.36	17027.40
505.53	17156.13
505.71	17022.72
505.88	17193.58
506.06	17266.13
506.23	17308.26
506.41	17486.14
506.58	17422.95
506.76	17642.96
506.93	17427.63
507.11	17621.89
507.28	17769.35
507.46	17654.66
507.63	17776.37
507.81	17792.75
507.98	17902.76
508.16	17935.53
508.33	17788.07
508.50	18052.55
508.68	18104.04
508.85	17940.21
509.03	18127.45
509.20	18036.17
509.38	18279.58
509.55	18256.18
509.73	18583.85
509.90	18370.86
510.08	18459.81
510.25	18295.97
510.42	18539.38
510.60	18941.96
510.77	18845.99
510.95	18775.78
511.12	18785.14
511.30	18651.73
511.47	18932.59
511.64	19023.87
511.82	19056.64
511.99	19119.84
512.17	19178.35
512.34	19585.60
512.51	19140.90
512.69	19508.37
512.86	19058.98
513.04	19552.84
513.21	19541.13
513.38	19812.63
513.56	19754.12
513.73	19580.92
513.90	19414.74
514.08	19494.32
514.25	19737.74
514.43	19810.29
514.60	19962.43
514.77	20180.10
514.95	19791.57
515.12	19807.95
515.29	19719.01
515.47	20240.95
515.64	20027.96
515.81	20070.09
515.99	20442.24
516.16	20315.85
516.33	20585.01
516.51	20416.49
516.68	20067.75
516.85	20547.56
517.03	20383.73
517.20	20676.29
517.37	20594.37
517.54	20662.25
517.72	21099.93
517.89	20678.63
518.06	20982.90
518.24	21055.46
518.41	20779.28
518.58	20790.98
518.75	20898.64
518.93	21025.03
519.10	21043.76
519.27	21231.00
519.45	21383.13
519.62	21291.85
519.79	21280.15
519.96	21116.31
520.14	21462.71
520.31	21338.66
520.48	21577.40
520.65	21348.03
520.83	21762.30
521.00	21727.19
521.17	21568.04
521.34	21551.65
521.52	21614.85
521.69	21708.47
521.86	21795.07
522.03	21888.69
522.20	21912.10
522.38	21968.27
522.55	21907.41
522.72	21961.25
522.89	21799.75
523.07	22101.68
523.24	22092.32
523.41	22267.86
523.58	22108.70
523.75	22300.62
523.92	22169.55
524.10	22162.53
524.27	22197.64
524.44	22567.45
524.61	22890.44
524.78	22546.38
524.96	22642.34
525.13	22707.88
525.30	22607.23
525.47	22787.46
525.64	22782.77
525.81	22707.88
525.98	22911.50
526.16	22806.18
526.33	22691.49
526.50	22890.44
526.67	22773.41
526.84	22679.79
527.01	22829.59
527.18	22824.90
527.36	23157.26
527.53	23274.29
527.70	23559.83
527.87	23365.57
528.04	23211.09
528.21	23295.35
528.38	23019.17
528.55	23218.11
528.72	23384.29
528.89	23515.36
529.07	23887.51
529.24	23646.43
529.41	23723.67
529.58	23349.18
529.75	23435.78
529.92	23639.41
530.09	23901.55
530.26	23798.57
530.43	23997.51
530.60	23957.72
530.77	23597.28
530.94	24135.60
531.11	23859.42
531.28	23899.21
531.46	24016.24
531.63	24074.75
531.80	24210.50
531.97	24505.41
532.14	24308.80
532.31	24123.90
532.48	24486.68
532.65	24357.96
532.82	24360.30
532.99	24580.31
533.16	24159.01
533.33	24535.84
533.50	24706.70
533.67	24556.90
533.84	24229.23
534.01	24493.71
534.18	24245.61
534.35	25158.42
534.52	24545.20
534.69	24570.94
534.86	24741.80
535.03	24676.27
535.20	24594.35
535.37	24945.43
535.54	24985.22
535.71	24503.07
535.88	24847.13
536.05	24797.98
536.22	25118.63
536.38	25481.41
536.55	25443.96
536.72	25188.85
536.89	25247.36
537.06	25184.16
537.23	25542.27
537.40	25333.96
537.57	25275.45
537.74	25071.82
537.91	25891.01
538.08	25348.00
538.25	25165.44
538.42	25453.33
538.59	25546.95
538.75	25387.79
538.92	25427.58
539.09	25333.96
539.26	25565.67
539.43	25874.62
539.60	25528.22
539.77	25619.50
539.94	25638.23
540.11	25654.61
540.28	25734.19
540.44	25848.88
540.61	25659.29
540.78	25820.79
540.95	25781.00
541.12	26178.89
541.29	26192.94
541.46	25645.25
541.62	26111.02
541.79	26085.27
541.96	25914.41
542.13	26092.29
542.30	25841.85
542.47	26272.51
542.63	25998.67
542.80	26370.82
542.97	26382.52
543.14	26455.08
543.31	26593.17
543.48	26607.21
543.64	26429.33
543.81	26515.93
543.98	26637.64
544.15	26611.89
544.32	26813.18
544.48	26684.45
544.65	26785.09
544.82	26553.38
544.99	26677.43
545.16	26616.57
545.32	26518.27
545.49	26876.37
545.66	26733.60
545.83	26815.52
546.00	26803.82
546.16	27012.12
546.33	26979.36
546.50	26724.24
546.67	27087.02
546.83	26775.73
547.00	26649.34
547.17	27522.36
547.34	26958.29
547.50	27353.84
547.67	27559.81
547.84	27129.15
548.00	27510.66
548.17	27503.64
548.34	27246.18
548.51	27344.48
548.67	27552.79
548.84	27620.66
549.01	27290.65
549.18	27110.43
549.34	27398.31
549.51	27552.79
549.68	27496.61
549.84	27386.61
550.01	27688.54
550.18	27559.81
550.34	27683.86
550.51	27999.83
550.68	27899.19
550.84	27541.08
551.01	27850.03
551.18	27541.08
551.34	27466.19
551.51	27449.80
551.68	28063.02
551.84	27938.97
552.01	27990.47
552.18	28348.57
552.34	27681.52
552.51	28041.96
552.68	28121.54
552.84	28116.86
553.01	28098.13
553.18	27711.94
553.34	28283.03
553.51	28053.66
553.67	28261.97
553.84	28341.55
554.01	28636.45
554.17	28151.96
554.34	28465.60
554.51	28006.85
554.67	28304.10
554.84	28173.03
555.00	28278.35
555.17	28395.38
555.33	28280.69
555.50	28079.41
555.67	28306.44
555.83	28835.40
556.00	28470.28
556.16	28594.32
556.33	28531.13
556.50	28577.94
556.66	28533.47
556.83	28498.36
556.99	28634.11
557.16	28753.48
557.32	28797.95
557.49	29221.59
557.65	28219.84
557.82	28460.91
557.98	28636.45
558.15	28917.32
558.32	28561.56
558.48	28603.69
558.65	28938.38
558.81	28526.45
558.98	28879.87
559.14	28821.36
559.31	28926.68
559.47	28896.25
559.64	29259.04
559.80	28910.30
559.97	28886.89
560.13	28776.89
560.30	28861.15
560.46	28669.22
560.63	28821.36
560.79	28613.05
560.96	28882.21
561.12	29020.30
561.29	29179.46
561.45	28952.43
561.61	29322.23
561.78	28985.19
561.94	29289.46
562.11	29085.84
562.27	29214.57
562.44	29153.71
562.60	29252.02
562.77	28819.02
562.93	28905.62
563.10	29490.75
563.26	28980.51
563.42	29677.99
563.59	29336.27
563.75	29291.80
563.92	29134.99
564.08	29420.53
564.24	28725.39
564.41	29216.91
564.57	29277.76
564.74	29254.36
564.90	29614.80
565.07	29333.93
565.23	29397.13
565.39	29654.59
565.56	29249.67
565.72	29502.45
565.88	29275.42
566.05	29139.67
566.21	29118.60
566.38	29481.39
566.54	29422.87
566.70	29514.16
566.87	29680.33
567.03	29776.30
567.19	29717.78
567.36	29731.83
567.52	29844.17
567.68	29780.98
567.85	29514.16
568.01	29668.63
568.17	29703.74
568.34	29937.79
568.50	29645.23
568.66	29848.85
568.83	29809.06
568.99	29603.10
569.15	29771.61
569.32	29457.98
569.48	29694.38
569.64	29790.34
569.81	29919.07
569.97	29699.06
570.13	29462.66
570.30	29598.41
570.46	29912.05
570.62	29670.97
570.78	29727.14
570.95	29809.06
571.11	29682.67
571.27	29773.95
571.43	29600.76
571.60	29795.02
571.76	29401.81
571.92	29795.02
572.09	29626.50
572.25	29883.96
572.41	29926.09
572.57	29771.61
572.74	30094.61
572.90	29603.10
573.06	29865.24
573.22	29771.61
573.38	29663.95
573.55	29668.63
573.71	30024.39
573.87	30199.93
574.03	29954.18
574.20	29823.11
574.36	30162.48
574.52	29813.74
574.68	29385.43
574.84	29589.05
575.01	29963.54
575.17	29935.45
575.33	29881.62
575.49	29804.38
575.65	29692.04
575.82	29848.85
575.98	29745.87
576.14	29928.43
576.30	29731.83
576.46	29898.00
576.62	29734.17
576.79	29841.83
576.95	29755.23
577.11	29677.99
577.27	30080.56
577.43	30122.69
577.59	29933.11
577.75	30115.67
577.92	29617.14
578.08	29921.41
578.24	29771.61
578.40	30401.22
578.56	30183.55
578.72	30022.05
578.88	30228.02
579.04	30253.76
579.21	29956.52
579.37	29806.72
579.53	30466.75
579.69	30052.48
579.85	29832.47
580.01	30082.91
580.17	29947.15
580.33	29902.68
580.49	30213.98
580.65	30288.87
580.82	30036.09
580.98	29933.11
581.14	30096.95
581.30	30328.66
581.46	30008.01
581.62	30260.79
581.78	29872.26
581.94	29874.60
582.10	30068.86
582.26	29937.79
582.42	30211.64
582.58	30459.73
582.74	29944.81
582.90	30167.16
583.06	29872.26
583.22	29954.18
583.38	30118.01
583.54	30230.36
583.70	29673.31
583.86	30127.38
584.02	30192.91
584.18	30349.73
584.34	30424.62
584.50	30284.19
584.66	30171.85
584.82	30103.97
584.98	29940.13
585.14	30321.64
585.30	30080.56
585.46	30153.12
585.62	29797.36
585.78	30148.44
585.94	29951.84
586.10	30445.69
586.26	30541.65
586.42	29916.73
586.58	30150.78
586.74	30221.00
586.90	30038.44
587.06	30031.41
587.22	30015.03
587.38	30017.37
587.54	30333.34
587.70	30995.71
587.86	30265.47
588.02	30354.41
588.18	30541.65
588.34	30431.65
588.49	30401.22
588.65	29993.97
588.81	29970.56
588.97	30270.15
589.13	30169.51
589.29	30253.76
589.45	30651.66
589.61	30300.58
589.77	30726.55
589.93	30693.79
590.08	30361.43
590.24	31108.06
590.40	30714.85
590.56	30614.21
590.72	30288.87
590.88	30333.34
591.04	30441.01
591.20	30721.87
591.35	30785.07
591.51	30810.81
591.67	30742.94
591.83	30389.52
591.99	30948.90
