SpectraSuite Data File
++++++++++++++++++++++++++++++++++++
Date: Fri Oct 18 13:58:02 GMT-05:00 2013
User: bianchi
Dark Spectrum Present: No
Reference Spectrum Present: No
Number of Sampled Component Spectra: 1
Spectrometers: USB2+H05261
Integration Time (usec): 50000 (USB2+H05261)
Spectra Averaged: 1 (USB2+H05261)
Boxcar Smoothing: 0 (USB2+H05261)
Correct for Electrical Dark: No (USB2+H05261)
Strobe/Lamp Enabled: No (USB2+H05261)
Correct for Detector Non-linearity: No (USB2+H05261)
Correct for Stray Light: No (USB2+H05261)
Number of Pixels in Processed Spectrum: 2048
>>>>>Begin Processed Spectral Data<<<<<
365.73	18.72
365.92	18.72
366.12	18.72
366.32	0.00
366.52	0.00
366.72	0.00
366.91	0.00
367.11	0.00
367.31	0.00
367.51	0.00
367.70	0.00
367.90	0.00
368.10	0.00
368.30	0.00
368.49	0.00
368.69	0.00
368.89	0.00
369.09	0.00
369.28	0.00
369.48	0.00
369.68	0.00
369.87	0.00
370.07	0.00
370.27	0.00
370.47	0.00
370.66	102.98
370.86	95.96
371.06	72.56
371.25	65.54
371.45	102.98
371.65	147.45
371.84	182.56
372.04	217.67
372.24	166.18
372.44	161.50
372.63	234.05
372.83	266.82
373.03	198.95
373.22	194.26
373.42	217.67
373.62	128.73
373.81	224.69
374.01	236.39
374.21	257.46
374.40	177.88
374.60	187.24
374.79	210.65
374.99	297.25
375.19	262.14
375.38	224.69
375.58	243.42
375.78	285.55
375.97	236.39
376.17	280.86
376.37	341.72
376.56	210.65
376.76	208.31
376.95	271.50
377.15	297.25
377.35	306.61
377.54	257.46
377.74	217.67
377.93	252.78
378.13	294.91
378.33	255.12
378.52	271.50
378.72	339.38
378.91	222.35
379.11	236.39
379.31	341.72
379.50	271.50
379.70	276.18
379.89	308.95
380.09	297.25
380.28	297.25
380.48	292.57
380.68	339.38
380.87	290.23
381.07	294.91
381.26	360.44
381.46	315.97
381.65	318.31
381.85	365.12
382.04	346.40
382.24	362.78
382.43	367.46
382.63	330.02
382.83	325.33
383.02	315.97
383.22	365.12
383.41	325.33
383.61	358.10
383.80	379.17
384.00	388.53
384.19	266.82
384.39	379.17
384.58	428.32
384.78	348.74
384.97	330.02
385.17	313.63
385.36	369.80
385.56	503.22
385.75	383.85
385.95	334.70
386.14	381.51
386.34	355.76
386.53	348.74
386.72	416.62
386.92	402.57
387.11	400.23
387.31	465.77
387.50	407.25
387.70	449.38
387.89	442.36
388.09	458.74
388.28	500.87
388.48	416.62
388.67	407.25
388.86	540.66
389.06	397.89
389.25	456.40
389.45	465.77
389.64	496.19
389.84	425.98
390.03	376.83
390.22	461.09
390.42	425.98
390.61	430.66
390.81	484.49
391.00	561.73
391.19	528.96
391.39	442.36
391.58	533.64
391.78	561.73
391.97	451.72
392.16	517.26
392.36	554.71
392.55	496.19
392.75	514.92
392.94	566.41
393.13	589.82
393.33	629.60
393.52	587.47
393.71	601.52
393.91	510.24
394.10	561.73
394.29	594.50
394.49	526.62
394.68	592.16
394.88	528.96
395.07	676.41
395.26	622.58
395.46	641.31
395.65	627.26
395.84	638.97
396.04	758.33
396.23	657.69
396.42	634.29
396.62	755.99
396.81	704.50
397.00	559.39
397.19	753.65
397.39	727.91
397.58	592.16
397.77	692.80
397.97	690.46
398.16	653.01
398.35	692.80
398.55	758.33
398.74	620.24
398.93	650.67
399.12	702.16
399.32	709.18
399.51	624.92
399.70	744.29
399.90	840.25
400.09	816.85
400.28	795.78
400.47	816.85
400.67	774.72
400.86	751.31
401.05	770.04
401.24	765.36
401.44	791.10
401.63	866.00
401.82	737.27
402.01	716.20
402.21	805.14
402.40	837.91
402.59	791.10
402.78	887.06
402.97	821.53
403.17	816.85
403.36	856.64
403.55	807.48
403.74	891.74
403.93	851.96
404.13	980.68
404.32	964.30
404.51	915.15
404.70	945.58
404.89	896.43
405.09	901.11
405.28	947.92
405.47	910.47
405.66	856.64
405.85	954.94
406.05	978.34
406.24	978.34
406.43	950.26
406.62	1090.69
406.81	1069.62
407.00	994.73
407.20	912.81
407.39	1025.15
407.58	1006.43
407.77	1081.33
407.96	1064.94
408.15	1074.31
408.34	1043.88
408.54	1102.39
408.73	1146.86
408.92	1151.54
409.11	1170.27
409.30	1191.33
409.49	1107.07
409.68	1130.48
409.87	1144.52
410.07	1252.19
410.26	1163.25
410.45	1156.22
410.64	1167.93
410.83	1170.27
411.02	1207.72
411.21	1151.54
411.40	1280.27
411.59	1273.25
411.78	1359.85
411.98	1284.95
412.17	1331.76
412.36	1359.85
412.55	1380.92
412.74	1355.17
412.93	1329.42
413.12	1280.27
413.31	1504.96
413.50	1458.15
413.69	1476.88
413.88	1483.90
414.07	1416.02
414.26	1460.49
414.45	1427.73
414.64	1420.71
414.83	1542.41
415.02	1490.92
415.22	1645.40
415.41	1547.09
415.60	1654.76
415.79	1490.92
415.98	1654.76
416.17	1589.22
416.36	1626.67
416.55	1710.93
416.74	1666.46
416.93	1619.65
417.12	1643.06
417.31	1680.50
417.50	1654.76
417.69	1802.21
417.88	1750.72
418.07	1710.93
418.26	1750.72
418.45	1706.25
418.64	1771.79
418.83	1816.26
419.02	1776.47
419.21	1715.61
419.39	1746.04
419.58	1823.28
419.77	1853.70
419.96	1849.02
420.15	1891.15
420.34	1743.70
420.53	1914.56
420.72	1860.73
420.91	1909.88
421.10	1980.09
421.29	1884.13
421.48	1893.49
421.67	2054.99
421.86	1975.41
422.05	1991.80
422.24	1916.90
422.43	2022.22
422.61	1966.05
422.80	2139.25
422.99	2019.88
423.18	1998.82
423.37	2024.56
423.56	2090.10
423.75	1991.80
423.94	2003.50
424.13	1909.88
424.32	1907.54
424.50	2045.63
424.69	2080.74
424.88	2097.12
425.07	1987.11
425.26	1998.82
425.45	2085.42
425.64	2092.44
425.83	1996.48
426.01	2195.42
426.20	2064.35
426.39	2038.61
426.58	2094.78
426.77	2022.22
426.96	2181.38
427.15	2024.56
427.33	2221.17
427.52	2108.82
427.71	2097.12
427.90	2160.31
428.09	2139.25
428.28	2218.83
428.46	2244.57
428.65	2148.61
428.84	2321.81
429.03	2314.79
429.22	2148.61
429.40	2279.68
429.59	2260.96
429.78	2083.08
429.97	2139.25
430.16	2207.13
430.34	2289.04
430.53	2427.14
430.72	2377.98
430.91	2317.13
431.10	2434.16
431.28	2349.90
431.47	2331.17
431.66	2410.75
431.85	2338.20
432.03	2296.07
432.22	2553.52
432.41	2452.88
432.60	2424.80
432.79	2499.69
432.97	2424.80
433.16	2403.73
433.35	2483.31
433.54	2581.61
433.72	2586.29
433.91	2560.55
434.10	2633.10
434.28	2595.65
434.47	2579.27
434.66	2558.21
434.85	2715.02
435.03	2626.08
435.22	2544.16
435.41	2684.59
435.59	2642.46
435.78	2665.87
435.97	2665.87
436.16	2595.65
436.34	2602.68
436.53	2761.83
436.72	2736.09
436.90	2689.28
437.09	2602.68
437.28	2773.53
437.46	2677.57
437.65	2796.94
437.84	2696.30
438.02	2710.34
438.21	2808.64
438.40	2686.94
438.58	2960.78
438.77	2808.64
438.96	2825.03
439.14	3063.76
439.33	2963.12
439.52	3009.93
439.70	3033.33
439.89	3105.89
440.08	2888.22
440.26	2998.23
440.45	3080.14
440.63	3105.89
440.82	3035.67
441.01	3087.17
441.19	3157.38
441.38	3063.76
441.57	3232.28
441.75	3379.73
441.94	3419.52
442.12	3370.37
442.31	3375.05
442.50	3351.65
442.68	3330.58
442.87	3164.40
443.05	3463.99
443.24	3361.01
443.43	3353.99
443.61	3412.50
443.80	3571.66
443.98	3377.39
444.17	3101.21
444.35	3405.48
444.54	3361.01
444.73	3421.86
444.91	3550.59
445.10	3536.55
445.28	3428.88
445.47	3496.76
445.65	3461.65
445.84	3485.06
446.02	3520.17
446.21	3424.20
446.39	3541.23
446.58	3407.82
446.77	3468.67
446.95	3358.67
447.14	3377.39
447.32	3475.70
447.51	3487.40
447.69	3676.98
447.88	3548.25
448.06	3454.63
448.25	3534.21
448.43	3592.72
448.62	3552.93
448.80	3562.30
448.99	3597.40
449.17	3646.55
449.36	3543.57
449.54	3744.86
449.73	3751.88
449.91	3709.75
450.10	3892.31
450.28	3728.47
450.46	3726.13
450.65	3761.24
450.83	3838.48
451.02	3691.02
451.20	3880.61
451.39	3911.04
451.57	3801.03
451.76	3805.71
451.94	3838.48
452.13	3878.27
452.31	3918.06
452.49	3810.39
452.68	3899.33
452.86	3791.67
453.05	4007.00
453.23	3960.19
453.42	3894.65
453.60	3882.95
453.78	3999.98
453.97	3882.95
454.15	3864.22
454.34	3957.85
454.52	4028.06
454.70	4102.96
454.89	3946.14
455.07	4044.45
455.26	4039.76
455.44	4086.58
455.62	4131.05
455.81	4086.58
455.99	4037.42
456.17	4168.49
456.36	4166.15
456.54	4227.01
456.73	4325.31
456.91	4348.72
457.09	4243.39
457.28	4456.38
457.46	4175.52
457.64	4301.90
457.83	4287.86
458.01	4266.80
458.19	4444.68
458.38	4269.14
458.56	4498.51
458.74	4418.93
458.93	4435.32
459.11	4545.32
459.29	4463.40
459.48	4402.55
459.66	4372.12
459.84	4573.41
460.03	4613.20
460.21	4650.64
460.39	4521.92
460.57	4594.47
460.76	4624.90
460.94	4582.77
461.12	4631.92
461.31	4692.77
461.49	4547.66
461.67	4777.03
461.85	4851.93
462.04	4753.63
462.22	4980.66
462.40	4784.06
462.59	4678.73
462.77	4830.87
462.95	4779.37
463.13	4718.52
463.32	4905.76
463.50	4802.78
463.68	4915.12
463.86	4854.27
464.05	5032.15
464.23	4868.31
464.41	5128.11
464.59	4725.54
464.78	5064.92
464.96	4990.02
465.14	4891.72
465.32	4905.76
465.50	5013.43
465.69	5043.85
465.87	5128.11
466.05	4891.72
466.23	5207.69
466.41	5118.75
466.60	5317.70
466.78	5121.09
466.96	4978.32
467.14	5085.98
467.32	5172.58
467.51	5235.78
467.69	5039.17
467.87	5128.11
468.05	5132.79
468.23	4999.38
468.41	5137.48
468.60	5064.92
468.78	5200.67
468.96	5242.80
469.14	5338.76
469.32	5385.57
469.50	5221.74
469.69	5284.93
469.87	5420.68
470.05	5465.15
470.23	5385.57
470.41	5327.06
470.59	5453.45
470.77	5446.43
470.95	5556.43
471.14	5659.42
471.32	5558.77
471.50	5621.97
471.68	5633.67
471.86	5607.92
472.04	5689.84
472.22	5834.96
472.40	5692.18
472.58	5954.32
472.77	5841.98
472.95	5839.64
473.13	5930.92
473.31	5825.59
473.49	6045.60
473.67	6036.24
473.85	5949.64
474.03	5966.03
474.21	6066.67
474.39	5966.03
474.57	6190.72
474.75	6225.82
474.93	6125.18
475.12	6113.48
475.30	6272.64
475.48	6012.84
475.66	6277.32
475.84	6284.34
476.02	6361.58
476.20	6434.13
476.38	6663.51
476.56	6593.29
476.74	6651.80
476.92	6443.49
477.10	6736.06
477.28	6633.08
477.46	6684.57
477.64	6581.59
477.82	6715.00
478.00	6984.16
478.18	6876.49
478.36	6874.15
478.54	7119.91
478.72	7117.57
478.90	7145.66
479.08	7269.70
479.26	7372.69
479.44	7335.24
479.62	7480.35
479.80	7405.46
479.98	7405.46
480.16	7478.01
480.34	7410.14
480.52	7728.45
480.70	7744.83
480.88	7555.25
481.06	7747.17
481.24	7756.54
481.41	7885.26
481.59	8091.23
481.77	7934.42
481.95	8147.40
482.13	8287.84
482.31	8079.53
482.49	8299.54
482.67	8418.91
482.85	8404.86
483.03	8578.06
483.21	8837.86
483.39	8606.15
483.57	8723.18
483.74	8748.92
483.92	8872.97
484.10	8929.14
484.28	8755.94
484.46	9224.05
484.64	9193.62
484.82	9078.94
485.00	9238.09
485.18	9315.33
485.35	9439.38
485.53	9490.87
485.71	9675.77
485.89	9781.10
486.07	9596.20
486.25	9638.33
486.43	9624.28
486.61	9982.38
486.78	10017.49
486.96	10139.20
487.14	10314.74
487.32	9956.64
487.50	10274.95
487.68	10445.81
487.85	10621.35
488.03	10363.89
488.21	10569.86
488.39	10595.61
488.57	10857.75
488.75	10808.59
488.92	10881.15
489.10	11098.82
489.28	11009.88
489.46	11187.76
489.64	11309.47
489.81	11300.11
489.99	11365.64
490.17	11346.92
490.35	11719.06
490.53	11632.46
490.70	11721.40
490.88	11630.12
491.06	11953.12
491.24	11623.10
491.41	11978.86
491.59	12131.00
491.77	12042.06
491.95	12170.79
492.13	12264.41
492.30	12697.41
492.48	12386.12
492.66	12666.98
492.84	12498.46
493.01	12849.54
493.19	12739.54
493.37	12676.34
493.54	12802.73
493.72	12875.29
493.90	12975.93
494.08	13209.98
494.25	13116.36
494.43	13202.96
494.61	13329.35
494.79	13401.91
494.96	13252.11
495.14	13345.73
495.32	13640.64
495.49	13713.20
495.67	13671.07
495.85	13935.55
496.02	14174.28
496.20	14012.79
496.38	13982.36
496.55	13729.58
496.73	14162.58
496.91	14335.78
497.09	14174.28
497.26	14544.09
497.44	14258.54
497.62	14431.74
497.79	14775.80
497.97	14684.52
498.14	14761.76
498.32	15023.90
498.50	14888.15
498.67	15122.20
498.85	15180.71
499.03	15246.25
499.20	14801.55
499.38	15316.47
499.56	15211.14
499.73	15433.49
499.91	15506.05
500.08	15712.02
500.26	15309.44
500.44	15653.50
500.61	15695.63
500.79	15733.08
500.97	15737.76
501.14	16035.01
501.32	16280.77
501.49	15981.18
501.67	15917.98
501.84	16009.26
502.02	15969.48
502.20	16006.92
502.37	16191.83
502.55	16135.65
502.72	16493.76
502.90	16444.60
503.07	16561.63
503.25	16266.72
503.43	16402.47
503.60	16760.58
503.78	16702.06
503.95	16741.85
504.13	16587.38
504.30	16648.23
504.48	16695.04
504.65	16779.30
504.83	17008.67
505.01	17041.44
505.18	17366.78
505.36	17371.46
505.53	17247.41
505.71	17256.77
505.88	17523.59
506.06	17191.23
506.23	17645.30
506.41	17207.62
506.58	17598.49
506.76	17256.77
506.93	17556.36
507.11	17652.32
507.28	17757.64
507.46	17776.37
507.63	17987.02
507.81	17841.90
507.98	17869.99
508.16	18113.41
508.33	17912.12
508.50	18054.89
508.68	18225.75
508.85	18370.86
509.03	18270.22
509.20	18391.93
509.38	18494.91
509.55	18331.08
509.73	18438.74
509.90	18698.54
510.08	18157.88
510.25	18352.14
510.42	18672.79
510.60	19161.97
510.77	18897.49
510.95	18658.75
511.12	18829.61
511.30	18888.12
511.47	18850.67
511.64	19161.97
511.82	19159.63
511.99	19028.56
512.17	19304.74
512.34	19370.27
512.51	19337.51
512.69	19414.74
512.86	19470.92
513.04	19484.96
513.21	19632.41
513.38	19735.40
513.56	19473.26
513.73	19693.27
513.90	19524.75
514.08	19971.79
514.25	19564.54
514.43	19782.21
514.60	19929.66
514.77	20072.43
514.95	20273.72
515.12	20070.09
515.29	19875.83
515.47	20247.97
515.64	20208.19
515.81	20226.91
515.99	20290.10
516.16	20589.69
516.33	20585.01
516.51	20547.56
516.68	20458.62
516.85	20154.35
517.03	20418.83
517.20	20709.06
517.37	20524.16
517.54	20870.56
517.72	20727.78
517.89	20849.49
518.06	20671.61
518.24	20606.08
518.41	20463.30
518.58	21142.06
518.75	21214.62
518.93	20985.24
519.10	21233.34
519.27	21319.94
519.45	21418.24
519.62	21401.86
519.79	21317.60
519.96	21233.34
520.14	21495.48
520.31	21277.81
520.48	21687.40
520.65	21523.57
520.83	21813.79
521.00	21338.66
521.17	21378.45
521.34	21841.88
521.52	22106.36
521.69	21839.54
521.86	22094.66
522.03	22059.55
522.20	21891.03
522.38	22178.92
522.55	22169.55
522.72	21961.25
522.89	21788.05
523.07	22438.72
523.24	22183.60
523.41	22352.12
523.58	22106.36
523.75	22132.11
523.92	22347.44
524.10	22277.22
524.27	22452.76
524.44	22813.20
524.61	22984.06
524.78	22675.11
524.96	22658.73
525.13	22862.35
525.30	22841.29
525.47	22785.12
525.64	22810.86
525.81	22899.80
525.98	23271.95
526.16	22841.29
526.33	23049.60
526.50	23342.16
526.67	22862.35
526.84	23044.91
527.01	23073.00
527.18	23271.95
527.36	23321.10
527.53	23255.56
527.70	23763.46
527.87	23625.37
528.04	23150.24
528.21	23133.86
528.38	23374.93
528.55	23744.73
528.72	23611.32
528.89	23707.29
529.07	23754.10
529.24	23552.81
529.41	23845.38
529.58	23704.95
529.75	23461.53
529.92	23927.30
530.09	23573.88
530.26	24065.39
530.43	23793.89
530.60	23768.14
530.77	23924.96
530.94	23878.15
531.11	23878.15
531.28	23894.53
531.46	24091.13
531.63	24507.75
531.80	24240.93
531.97	24355.61
532.14	24521.79
532.31	24135.60
532.48	24507.75
532.65	24430.51
532.82	24065.39
532.99	24596.69
533.16	24397.74
533.33	24552.22
533.50	24397.74
533.67	24744.14
533.84	24482.00
534.01	24350.93
534.18	24603.71
534.35	24339.23
534.52	24685.63
534.69	25039.05
534.86	25053.09
535.03	24950.11
535.20	24915.00
535.37	25207.57
535.54	24924.36
535.71	24823.72
535.88	24926.71
536.05	25008.62
536.22	25139.69
536.38	25179.48
536.55	25230.98
536.72	25238.00
536.89	25034.37
537.06	25614.82
537.23	25144.38
537.40	25032.03
537.57	25177.14
537.74	25556.31
537.91	25408.86
538.08	25532.90
538.25	25230.98
538.42	25420.56
538.59	25535.24
538.75	25226.29
538.92	25357.36
539.09	25748.23
539.26	25893.35
539.43	26120.38
539.60	25603.12
539.77	25912.07
539.94	25544.61
540.11	25961.22
540.28	25720.15
540.44	25858.24
540.61	25867.60
540.78	25528.22
540.95	25977.61
541.12	26183.57
541.29	26160.17
541.46	26099.31
541.62	25975.27
541.79	25678.02
541.96	25790.36
542.13	25762.28
542.30	26171.87
542.47	26520.61
542.63	26501.89
542.80	26459.76
542.97	26787.43
543.14	26684.45
543.31	26260.81
543.48	26551.04
543.64	26888.07
543.81	26693.81
543.98	26735.94
544.15	26565.08
544.32	27108.08
544.48	26984.04
544.65	27016.80
544.82	26637.64
544.99	26696.15
545.16	26867.01
545.32	26909.14
545.49	27159.58
545.66	27393.63
545.83	27262.56
546.00	27344.48
546.16	26843.60
546.33	26838.92
546.50	26684.45
546.67	27082.34
546.83	26934.88
547.00	27026.17
547.17	27285.97
547.34	27510.66
547.50	27395.97
547.67	27339.80
547.84	27161.92
548.00	27360.86
548.17	27566.83
548.34	27459.16
548.51	27402.99
548.67	27658.11
548.84	27218.09
549.01	27681.52
549.18	27358.52
549.34	27777.48
549.51	27786.84
549.68	27253.20
549.84	27559.81
550.01	27878.12
550.18	27562.15
550.34	27962.38
550.51	27946.00
550.68	28034.94
550.84	27676.83
551.01	27674.49
551.18	27665.13
551.34	27473.21
551.51	27896.85
551.68	28173.03
551.84	28098.13
552.01	27864.08
552.18	28058.34
552.34	27754.07
552.51	28128.56
552.68	27992.81
552.84	28102.81
553.01	28268.99
553.18	28074.73
553.34	28348.57
553.51	28276.01
553.67	28336.87
553.84	28746.46
554.01	28481.98
554.17	28411.76
554.34	28142.60
554.51	28428.15
554.67	28364.95
554.84	28629.43
555.00	28353.25
555.17	28247.93
555.33	28215.16
555.50	28329.84
555.67	28444.53
555.83	28126.22
556.00	28718.37
556.16	28692.63
556.33	28549.85
556.50	28533.47
556.66	28617.73
556.83	28772.21
556.99	28430.49
557.16	28886.89
557.32	28814.34
557.49	28774.55
557.65	28945.41
557.82	28627.09
557.98	28868.17
558.15	28435.17
558.32	28886.89
558.48	28823.70
558.65	29104.56
558.81	29118.60
558.98	28842.42
559.14	29347.98
559.31	28856.46
559.47	28797.95
559.64	29113.92
559.80	28776.89
559.97	29032.00
560.13	28868.17
560.30	29006.26
560.46	28830.72
560.63	29191.16
560.79	29336.27
560.96	28587.30
561.12	28980.51
561.29	29228.61
561.45	29081.16
561.61	28917.32
561.78	29092.86
561.94	29308.19
562.11	29518.84
562.27	29418.19
562.44	29331.59
562.60	29284.78
562.77	29041.37
562.93	29282.44
563.10	29631.18
563.26	29076.48
563.42	29928.43
563.59	29479.05
563.75	29567.99
563.92	29125.63
564.08	29137.33
564.24	29312.87
564.41	29345.64
564.57	29336.27
564.74	29467.34
564.90	29722.46
565.07	29146.69
565.23	29663.95
565.39	29404.15
565.56	29633.52
565.72	29762.25
565.88	29776.30
566.05	29263.72
566.21	29628.84
566.38	29427.56
566.54	29582.03
566.70	29638.20
566.87	29797.36
567.03	29839.49
567.19	29820.77
567.36	29771.61
567.52	29296.49
567.68	30110.99
567.85	29605.44
568.01	29811.40
568.17	29530.54
568.34	30010.35
568.50	29930.77
568.66	29607.78
568.83	29865.24
568.99	29919.07
569.15	29692.04
569.32	29804.38
569.48	29542.24
569.64	29860.55
569.81	29872.26
569.97	29434.58
570.13	29780.98
570.30	29663.95
570.46	30347.39
570.62	29762.25
570.78	29795.02
570.95	29446.28
571.11	29783.32
571.27	29294.14
571.43	29212.23
571.60	29743.53
571.76	29855.87
571.92	29930.77
572.09	30008.01
572.25	29783.32
572.41	29696.72
572.57	30075.88
572.74	30396.54
572.90	29750.55
573.06	30139.08
573.22	29788.00
573.38	30045.46
573.55	29968.22
573.71	30487.82
573.87	30190.57
574.03	29867.58
574.20	30136.74
574.36	30150.78
574.52	29933.11
574.68	30141.42
574.84	30174.19
575.01	29993.97
575.17	30092.27
575.33	29638.20
575.49	30232.70
575.65	29900.34
575.82	30164.82
575.98	30094.61
576.14	30263.13
576.30	30417.60
576.46	29986.94
576.62	30101.63
576.79	30143.76
576.95	30171.85
577.11	30125.04
577.27	30483.14
577.43	30366.11
577.59	30251.42
577.75	30312.28
577.92	30113.33
578.08	30221.00
578.24	30022.05
578.40	30050.14
578.56	30534.63
578.72	30012.69
578.88	30160.14
579.04	30436.33
579.21	30323.98
579.37	30277.17
579.53	30228.02
579.69	30349.73
579.85	30054.82
580.01	30572.08
580.17	30150.78
580.33	30190.57
580.49	30146.10
580.65	30476.12
580.82	30314.62
580.98	30359.09
581.14	30349.73
581.30	30237.38
581.46	30040.78
581.62	30380.15
581.78	30085.25
581.94	30178.87
582.10	30038.44
582.26	30132.06
582.42	30326.32
582.58	30242.06
582.74	30391.86
582.90	30141.42
583.06	30246.74
583.22	30171.85
583.38	30396.54
583.54	30106.31
583.70	30256.11
583.86	30148.44
584.02	29972.90
584.18	30485.48
584.34	30635.27
584.50	30504.20
584.66	30160.14
584.82	30384.83
584.98	30431.65
585.14	30560.37
585.30	30356.75
585.46	30408.24
585.62	30132.06
585.78	30054.82
585.94	30216.32
586.10	30403.56
586.26	30586.12
586.42	30955.93
586.58	30801.45
586.74	30401.22
586.90	30211.64
587.06	30134.40
587.22	30384.83
587.38	30307.60
587.54	30375.47
587.70	30438.67
587.86	30656.34
588.02	30139.08
588.18	30597.82
588.34	30820.17
588.49	30560.37
588.65	30281.85
588.81	30377.81
588.97	30515.90
589.13	29853.53
589.29	30424.62
589.45	30541.65
589.61	30775.70
589.77	30307.60
589.93	30831.88
590.08	30618.89
590.24	30878.69
590.40	30593.14
590.56	30834.22
590.72	30745.28
590.88	30661.02
591.04	30466.75
591.20	30801.45
591.35	30892.73
591.51	31433.39
591.67	30909.11
591.83	30845.92
591.99	30796.77
