SpectraSuite Data File
++++++++++++++++++++++++++++++++++++
Date: Fri Oct 18 13:58:10 GMT-05:00 2013
User: bianchi
Dark Spectrum Present: No
Reference Spectrum Present: No
Number of Sampled Component Spectra: 1
Spectrometers: USB2+H05261
Integration Time (usec): 50000 (USB2+H05261)
Spectra Averaged: 1 (USB2+H05261)
Boxcar Smoothing: 0 (USB2+H05261)
Correct for Electrical Dark: No (USB2+H05261)
Strobe/Lamp Enabled: No (USB2+H05261)
Correct for Detector Non-linearity: No (USB2+H05261)
Correct for Stray Light: No (USB2+H05261)
Number of Pixels in Processed Spectrum: 2048
>>>>>Begin Processed Spectral Data<<<<<
365.73	0.00
365.92	0.00
366.12	0.00
366.32	0.00
366.52	0.00
366.72	0.00
366.91	0.00
367.11	0.00
367.31	0.00
367.51	0.00
367.70	0.00
367.90	0.00
368.10	0.00
368.30	0.00
368.49	0.00
368.69	0.00
368.89	0.00
369.09	0.00
369.28	0.00
369.48	0.00
369.68	0.00
369.87	0.00
370.07	0.00
370.27	0.00
370.47	0.00
370.66	11.70
370.86	138.09
371.06	135.75
371.25	74.90
371.45	105.32
371.65	79.58
371.84	220.01
372.04	170.86
372.24	156.82
372.44	196.60
372.63	227.03
372.83	273.84
373.03	187.24
373.22	184.90
373.42	217.67
373.62	198.95
373.81	257.46
374.01	231.71
374.21	215.33
374.40	238.73
374.60	198.95
374.79	215.33
374.99	208.31
375.19	238.73
375.38	177.88
375.58	266.82
375.78	266.82
375.97	320.65
376.17	332.36
376.37	346.40
376.56	278.52
376.76	205.97
376.95	264.48
377.15	252.78
377.35	264.48
377.54	278.52
377.74	245.76
377.93	276.18
378.13	294.91
378.33	311.29
378.52	334.70
378.72	325.33
378.91	292.57
379.11	276.18
379.31	255.12
379.50	276.18
379.70	315.97
379.89	276.18
380.09	304.27
380.28	315.97
380.48	322.99
380.68	280.86
380.87	255.12
381.07	383.85
381.26	292.57
381.46	271.50
381.65	290.23
381.85	395.55
382.04	311.29
382.24	264.48
382.43	266.82
382.63	299.59
382.83	266.82
383.02	411.93
383.22	332.36
383.41	304.27
383.61	376.83
383.80	348.74
384.00	383.85
384.19	306.61
384.39	369.80
384.58	433.00
384.78	395.55
384.97	400.23
385.17	283.20
385.36	393.21
385.56	379.17
385.75	369.80
385.95	444.70
386.14	395.55
386.34	376.83
386.53	425.98
386.72	362.78
386.92	451.72
387.11	423.64
387.31	414.27
387.50	454.06
387.70	411.93
387.89	390.87
388.09	498.53
388.28	498.53
388.48	503.22
388.67	528.96
388.86	367.46
389.06	393.21
389.25	461.09
389.45	430.66
389.64	451.72
389.84	519.60
390.03	505.56
390.22	500.87
390.42	496.19
390.61	482.15
390.81	447.04
391.00	503.22
391.19	468.11
391.39	491.51
391.58	617.90
391.78	498.53
391.97	535.98
392.16	608.54
392.36	631.94
392.55	575.77
392.75	594.50
392.94	538.32
393.13	505.56
393.33	540.66
393.52	514.92
393.71	603.86
393.91	482.15
394.10	596.84
394.29	564.07
394.49	636.63
394.68	615.56
394.88	657.69
395.07	706.84
395.26	568.75
395.46	645.99
395.65	624.92
395.84	732.59
396.04	720.88
396.23	627.26
396.42	690.46
396.62	676.41
396.81	697.48
397.00	615.56
397.19	627.26
397.39	629.60
397.58	697.48
397.77	617.90
397.97	734.93
398.16	697.48
398.35	765.36
398.55	741.95
398.74	641.31
398.93	772.38
399.12	807.48
399.32	748.97
399.51	777.06
399.70	786.42
399.90	681.10
400.09	779.40
400.28	793.44
400.47	774.72
400.67	765.36
400.86	777.06
401.05	814.51
401.24	800.46
401.44	816.85
401.63	816.85
401.82	875.36
402.01	880.04
402.21	877.70
402.40	915.15
402.59	814.51
402.78	781.74
402.97	903.45
403.17	821.53
403.36	812.17
403.55	933.87
403.74	947.92
403.93	912.81
404.13	983.02
404.32	823.87
404.51	926.85
404.70	947.92
404.89	898.77
405.09	968.98
405.28	964.30
405.47	931.53
405.66	983.02
405.85	964.30
406.05	997.07
406.24	947.92
406.43	968.98
406.62	997.07
406.81	1006.43
407.00	973.66
407.20	1055.58
407.39	1046.22
407.58	1036.86
407.77	1057.92
407.96	1069.62
408.15	1097.71
408.34	1095.37
408.54	1036.86
408.73	1102.39
408.92	1196.01
409.11	1107.07
409.30	1179.63
409.49	1153.88
409.68	1118.78
409.87	1057.92
410.07	1226.44
410.26	1158.57
410.45	1118.78
410.64	1193.67
410.83	1188.99
411.02	1200.69
411.21	1296.66
411.40	1299.00
411.59	1263.89
411.78	1376.24
411.98	1306.02
412.17	1296.66
412.36	1240.48
412.55	1355.17
412.74	1371.55
412.93	1430.07
413.12	1301.34
413.31	1476.88
413.50	1341.13
413.69	1416.02
413.88	1476.88
414.07	1500.28
414.26	1460.49
414.45	1469.86
414.64	1453.47
414.83	1519.01
415.02	1446.45
415.22	1504.96
415.41	1568.16
415.60	1589.22
415.79	1654.76
415.98	1682.85
416.17	1603.27
416.36	1621.99
416.55	1692.21
416.74	1678.16
416.93	1701.57
417.12	1678.16
417.31	1589.22
417.50	1748.38
417.69	1797.53
417.88	1856.04
418.07	1776.47
418.26	1727.32
418.45	1771.79
418.64	1881.79
418.83	1830.30
419.02	1863.07
419.21	1849.02
419.39	1811.57
419.58	1940.30
419.77	1902.86
419.96	1832.64
420.15	1966.05
420.34	1788.17
420.53	1853.70
420.72	1973.07
420.91	2022.22
421.10	1909.88
421.29	1891.15
421.48	1891.15
421.67	1952.01
421.86	1980.09
422.05	1996.48
422.24	2017.54
422.43	2036.27
422.61	1959.03
422.80	2062.01
422.99	2012.86
423.18	2076.06
423.37	2080.74
423.56	2094.78
423.75	1987.11
423.94	2008.18
424.13	1937.96
424.32	1982.43
424.50	2132.23
424.69	2153.29
424.88	2054.99
425.07	2125.21
425.26	1956.69
425.45	2127.55
425.64	1975.41
425.83	1975.41
426.01	2101.80
426.20	2129.89
426.39	2165.00
426.58	2127.55
426.77	2078.40
426.96	2134.57
427.15	2150.95
427.33	2024.56
427.52	2169.68
427.71	2200.10
427.90	2181.38
428.09	2242.23
428.28	2134.57
428.46	2319.47
428.65	2258.62
428.84	2284.36
429.03	2293.72
429.22	2211.81
429.40	2209.47
429.59	2307.77
429.78	2085.42
429.97	2188.40
430.16	2310.11
430.34	2188.40
430.53	2286.70
430.72	2417.77
430.91	2368.62
431.10	2396.71
431.28	2377.98
431.47	2473.95
431.66	2382.67
431.85	2296.07
432.03	2448.20
432.22	2497.35
432.41	2382.67
432.60	2464.58
432.79	2352.24
432.97	2480.97
433.16	2356.92
433.35	2410.75
433.54	2539.48
433.72	2574.59
433.91	2497.35
434.10	2635.44
434.28	2506.71
434.47	2619.06
434.66	2590.97
434.85	2628.42
435.03	2590.97
435.22	2656.51
435.41	2668.21
435.59	2710.34
435.78	2738.43
435.97	2581.61
436.16	2832.05
436.34	2733.75
436.53	2787.58
436.72	2773.53
436.90	2729.06
437.09	2799.28
437.28	2623.74
437.46	2764.17
437.65	2724.38
437.84	2782.90
438.02	2801.62
438.21	2829.71
438.40	2848.43
438.58	2925.67
438.77	2958.44
438.96	2974.82
439.14	2967.80
439.33	2928.01
439.52	2918.65
439.70	3014.61
439.89	3208.87
440.08	3169.09
440.26	3080.14
440.45	3080.14
440.63	2993.55
440.82	3119.93
441.01	3124.62
441.19	3056.74
441.38	3222.92
441.57	3133.98
441.75	3269.73
441.94	3363.35
442.12	3290.79
442.31	3344.63
442.50	3342.28
442.68	3393.78
442.87	3295.47
443.05	3295.47
443.24	3496.76
443.43	3265.05
443.61	3634.85
443.80	3555.27
443.98	3370.37
444.17	3323.56
444.35	3489.74
444.54	3566.98
444.73	3403.14
444.91	3456.97
445.10	3442.93
445.28	3581.02
445.47	3569.32
445.65	3475.70
445.84	3613.79
446.02	3599.74
446.21	3414.84
446.39	3365.69
446.58	3543.57
446.77	3513.14
446.95	3510.80
447.14	3531.87
447.32	3524.85
447.51	3513.14
447.69	3503.78
447.88	3562.30
448.06	3557.61
448.25	3543.57
448.43	3803.37
448.62	3566.98
448.80	3644.21
448.99	3520.17
449.17	3761.24
449.36	3702.73
449.54	3751.88
449.73	3559.95
449.91	3770.60
450.10	3740.18
450.28	3887.63
450.46	3887.63
450.65	3805.71
450.83	3758.90
451.02	3772.94
451.20	3857.20
451.39	3836.14
451.57	3758.90
451.76	3868.91
451.94	3756.56
452.13	3873.59
452.31	3976.57
452.49	3906.35
452.68	3847.84
452.86	3920.40
453.05	3997.64
453.23	4002.32
453.42	3875.93
453.60	3971.89
453.78	4056.15
453.97	3981.25
454.15	4004.66
454.34	3974.23
454.52	4030.40
454.70	3960.19
454.89	4077.21
455.07	4121.68
455.26	4119.34
455.44	4189.56
455.62	4142.75
455.81	4159.13
455.99	4315.95
456.17	4224.67
456.36	4119.34
456.54	4222.33
456.73	4318.29
456.91	4273.82
457.09	4503.19
457.28	4348.72
457.46	4259.78
457.64	4423.61
457.83	4444.68
458.01	4297.22
458.19	4542.98
458.38	4465.74
458.56	4470.42
458.74	4407.23
458.93	4440.00
459.11	4386.16
459.29	4592.13
459.48	4685.75
459.66	4498.51
459.84	4479.79
460.03	4795.76
460.21	4610.86
460.39	4676.39
460.57	4564.04
460.76	4650.64
460.94	4650.64
461.12	4652.98
461.31	4821.50
461.49	4767.67
461.67	4781.71
461.85	4816.82
462.04	4615.54
462.22	4968.96
462.40	4734.90
462.59	4664.69
462.77	4950.23
462.95	4870.65
463.13	4924.49
463.32	5048.54
463.50	5071.94
463.68	5041.51
463.86	4880.02
464.05	4971.30
464.23	4933.85
464.41	5039.17
464.59	4849.59
464.78	5167.90
464.96	4903.42
465.14	4954.91
465.32	5018.11
465.50	5205.35
465.69	5078.96
465.87	5142.16
466.05	5057.90
466.23	5060.24
466.41	5139.82
466.60	5247.48
466.78	5261.52
466.96	5233.44
467.14	5055.56
467.32	5217.05
467.51	5184.29
467.69	5004.07
467.87	5111.73
468.05	5100.03
468.23	5149.18
468.41	5287.27
468.60	5256.84
468.78	5320.04
468.96	5320.04
469.14	5315.36
469.32	5483.88
469.50	5298.97
469.69	5420.68
469.87	5603.24
470.05	5514.30
470.23	5614.95
470.41	5593.88
470.59	5502.60
470.77	5542.39
470.95	5661.76
471.14	5554.09
471.32	5607.92
471.50	5687.50
471.68	5596.22
471.86	5652.39
472.04	5738.99
472.22	5895.81
472.40	5795.17
472.58	5853.68
472.77	5928.58
472.95	5973.05
473.13	6139.23
473.31	5802.19
473.49	5820.91
473.67	6012.84
473.85	6015.18
474.03	6059.65
474.21	6033.90
474.39	6125.18
474.57	6047.94
474.75	6349.87
474.93	6267.95
475.12	6263.27
475.30	6370.94
475.48	6272.64
475.66	6420.09
475.84	6352.21
476.02	6633.08
476.20	6441.15
476.38	6590.95
476.56	6609.67
476.74	6656.48
476.92	6672.87
477.10	6649.46
477.28	6871.81
477.46	6759.47
477.64	6736.06
477.82	6764.15
478.00	6953.73
478.18	7049.69
478.36	6944.37
478.54	7091.82
478.72	7091.82
478.90	7344.60
479.08	7328.22
479.26	7325.88
479.44	7323.54
479.62	7410.14
479.80	7449.93
479.98	7550.57
480.16	7644.19
480.34	7566.95
480.52	7737.81
480.70	7829.09
480.88	7639.51
481.06	7866.54
481.24	7798.66
481.41	7868.88
481.59	8023.36
481.77	8222.30
481.95	8306.56
482.13	8086.55
482.31	8234.00
482.49	8367.42
482.67	8414.23
482.85	8571.04
483.03	8727.86
483.21	8786.37
483.39	8908.08
483.57	8748.92
483.74	8695.09
483.92	8917.44
484.10	8929.14
484.28	8980.64
484.46	9210.01
484.64	9376.19
484.82	9020.42
485.00	9226.39
485.18	9521.30
485.35	9675.77
485.53	9551.73
485.71	9544.70
485.89	9664.07
486.07	9879.40
486.25	9650.03
486.43	9818.55
486.61	9954.30
486.78	10186.01
486.96	10148.56
487.14	10174.31
487.32	10331.12
487.50	10183.67
487.68	10258.57
487.85	10700.93
488.03	10532.41
488.21	10761.78
488.39	10747.74
488.57	10897.53
488.75	10665.82
488.92	10977.11
489.10	10855.40
489.28	11056.69
489.46	11082.44
489.64	11173.72
489.81	11585.65
489.99	11513.10
490.17	11442.88
490.35	11702.68
490.53	11630.12
490.70	11812.68
490.88	11831.41
491.06	12116.95
491.24	11789.28
491.41	12035.03
491.59	12203.55
491.77	12145.04
491.95	12306.54
492.13	12245.68
492.30	12435.27
492.48	12259.73
492.66	12507.82
492.84	12524.21
493.01	12924.44
493.19	12723.15
493.37	12847.20
493.54	12905.71
493.72	13006.36
493.90	12936.14
494.08	13067.21
494.25	13291.90
494.43	13399.57
494.61	13476.80
494.79	13813.84
494.96	13598.51
495.14	13633.62
495.32	13792.78
495.49	13935.55
495.67	13926.19
495.85	13919.17
496.02	14223.44
496.20	14122.79
496.38	13937.89
496.55	14340.46
496.73	14478.55
496.91	14429.40
497.09	14710.27
497.26	14647.07
497.44	14534.73
497.62	14831.97
497.79	15077.73
497.97	14834.32
498.14	15002.83
498.32	15096.46
498.50	15075.39
498.67	15054.33
498.85	15363.28
499.03	15098.80
499.20	15344.55
499.38	15487.32
499.56	15510.73
499.73	15365.62
499.91	15606.69
500.08	15627.76
500.26	15506.05
500.44	15894.58
500.61	15960.11
500.79	15709.68
500.97	15838.41
501.14	16156.72
501.32	16105.23
501.49	16348.64
501.67	16042.03
501.84	16079.48
502.02	16393.11
502.20	16257.36
502.37	16650.57
502.55	16147.36
502.72	16407.16
502.90	16582.70
503.07	16475.03
503.25	16435.24
503.43	16624.83
503.60	16692.70
503.78	16737.17
503.95	16882.28
504.13	16996.97
504.30	16786.32
504.48	16882.28
504.65	16849.52
504.83	17081.23
505.01	17233.36
505.18	17221.66
505.36	17528.27
505.53	17490.82
505.71	17413.59
505.88	17507.21
506.06	17415.93
506.23	17530.61
506.41	17411.25
506.58	17593.81
506.76	17738.92
506.93	17738.92
507.11	17809.14
507.28	17701.47
507.46	17874.67
507.63	17991.70
507.81	18242.14
507.98	17879.35
508.16	18359.16
508.33	17968.29
508.50	18314.69
508.68	18420.02
508.85	18235.11
509.03	18429.38
509.20	18532.36
509.38	18405.97
509.55	18614.28
509.73	18948.98
509.90	18590.88
510.08	18904.51
510.25	18897.49
510.42	18398.95
510.60	19049.62
510.77	19087.07
510.95	18967.70
511.12	18836.63
511.30	18974.72
511.47	19208.78
511.64	19033.24
511.82	19288.35
511.99	19288.35
512.17	19194.73
512.34	19321.12
512.51	19391.34
512.69	19484.96
512.86	19559.86
513.04	19784.55
513.21	19651.14
513.38	19920.30
513.56	20053.71
513.73	19927.32
513.90	19845.40
514.08	19798.59
514.25	20072.43
514.43	20121.59
514.60	20189.46
514.77	20348.62
514.95	20365.00
515.12	20245.63
515.29	20259.68
515.47	20257.34
515.64	20411.81
515.81	20475.01
515.99	20503.09
516.16	20877.58
516.33	20720.76
516.51	20828.43
516.68	20381.38
516.85	20783.96
517.03	20849.49
517.20	21102.27
517.37	21064.82
517.54	20931.41
517.72	20854.17
517.89	21015.67
518.06	20943.11
518.24	20823.75
518.41	21181.85
518.58	21064.82
518.75	21067.16
518.93	21298.88
519.10	21097.59
519.27	21516.54
519.45	21371.43
519.62	21488.46
519.79	21476.76
519.96	21399.52
520.14	21432.29
520.31	21460.37
520.48	21523.57
520.65	21640.59
520.83	22092.32
521.00	22008.06
521.17	22012.74
521.34	22029.12
521.52	22188.28
521.69	21799.75
521.86	21998.70
522.03	22508.93
522.20	21717.83
522.38	22251.47
522.55	22370.84
522.72	22429.35
522.89	22368.50
523.07	22492.55
523.24	22260.84
523.41	22967.68
523.58	22415.31
523.75	22473.82
523.92	22373.18
524.10	22654.05
524.27	22726.60
524.44	22970.02
524.61	22890.44
524.78	23049.60
524.96	23073.00
525.13	22766.39
525.30	23042.57
525.47	23021.51
525.64	22981.72
525.81	23063.64
525.98	23386.63
526.16	22995.76
526.33	23103.43
526.50	23370.25
526.67	23311.74
526.84	23264.92
527.01	23180.67
527.18	23271.95
527.36	23475.57
527.53	23403.02
527.70	23700.26
527.87	23852.40
528.04	23623.03
528.21	23775.16
528.38	23487.28
528.55	23763.46
528.72	23852.40
528.89	23702.61
529.07	23625.37
529.24	24156.67
529.41	23992.83
529.58	24049.00
529.75	23840.70
529.92	24002.19
530.09	23931.98
530.26	24226.89
530.43	24177.73
530.60	24137.94
530.77	23754.10
530.94	24404.77
531.11	24236.25
531.28	24187.10
531.46	24205.82
531.63	24372.00
531.80	24805.00
531.97	24744.14
532.14	24559.24
532.31	24500.73
532.48	24627.12
532.65	24889.26
532.82	24444.56
532.99	24582.65
533.16	24617.75
533.33	24793.29
533.50	25008.62
533.67	24898.62
533.84	24552.22
534.01	24755.85
534.18	24493.71
534.35	24907.98
534.52	25144.38
534.69	25099.90
534.86	25184.16
535.03	24662.22
535.20	24954.79
535.37	25296.51
535.54	25432.26
535.71	24933.73
535.88	25280.13
536.05	25287.15
536.22	25591.42
536.38	25458.01
536.55	25638.23
536.72	25495.46
536.89	25551.63
537.06	25214.59
537.23	25111.61
537.40	25263.74
537.57	25769.30
537.74	25883.98
537.91	25685.04
538.08	25694.40
538.25	25883.98
538.42	25696.74
538.59	25542.27
538.75	25633.55
538.92	25546.95
539.09	26082.93
539.26	25830.15
539.43	26181.23
539.60	26129.74
539.77	26302.94
539.94	26167.19
540.11	26281.88
540.28	26143.78
540.44	26377.84
540.61	26204.64
540.78	26061.87
540.95	26136.76
541.12	26398.90
541.29	26008.03
541.46	26216.34
541.62	26522.95
541.79	26366.13
541.96	25930.80
542.13	25860.58
542.30	26595.51
542.47	26438.69
542.63	26700.83
542.80	26785.09
542.97	27227.45
543.14	26775.73
543.31	27166.60
543.48	26712.53
543.64	27393.63
543.81	27065.96
543.98	26888.07
544.15	27091.70
544.32	27164.26
544.48	27218.09
544.65	26728.92
544.82	27014.46
544.99	26974.67
545.16	26923.18
545.32	26836.58
545.49	27463.85
545.66	27318.73
545.83	27711.94
546.00	27311.71
546.16	27452.14
546.33	27253.20
546.50	27152.55
546.67	27454.48
546.83	26906.80
547.00	27520.02
547.17	27880.46
547.34	27267.24
547.50	27473.21
547.67	27817.27
547.84	27625.34
548.00	27751.73
548.17	27653.43
548.34	27819.61
548.51	27852.38
548.67	27995.15
548.84	28032.60
549.01	28074.73
549.18	27903.87
549.34	28121.54
549.51	28011.53
549.68	28030.26
549.84	27868.76
550.01	27981.10
550.18	27761.09
550.34	28154.30
550.51	28184.73
550.68	28283.03
550.84	27913.23
551.01	27868.76
551.18	27922.59
551.34	27562.15
551.51	28025.57
551.68	27941.32
551.84	28507.72
552.01	28320.48
552.18	28381.34
552.34	28130.90
552.51	28376.66
552.68	28151.96
552.84	28292.40
553.01	28070.04
553.18	28006.85
553.34	28374.31
553.51	28481.98
553.67	28517.09
553.84	28844.76
554.01	28652.84
554.17	28432.83
554.34	28397.72
554.51	28713.69
554.67	28737.10
554.84	28610.71
555.00	28795.61
555.17	28430.49
555.33	28376.66
555.50	29076.48
555.67	28599.01
555.83	28718.37
556.00	28606.03
556.16	28929.02
556.33	28856.46
556.50	29149.03
556.66	28821.36
556.83	28776.89
556.99	29144.35
557.16	29106.90
557.32	29315.21
557.49	29127.97
557.65	28706.67
557.82	28893.91
557.98	28758.16
558.15	28861.15
558.32	29273.08
558.48	29039.03
558.65	29472.03
558.81	29298.83
558.98	29109.24
559.14	29675.65
559.31	28788.59
559.47	29132.65
559.64	29333.93
559.80	29270.74
559.97	29759.91
560.13	29397.13
560.30	29392.45
560.46	29727.14
560.63	29273.08
560.79	29654.59
560.96	29537.56
561.12	29542.24
561.29	29565.65
561.45	29266.06
561.61	29790.34
561.78	29572.67
561.94	29626.50
562.11	29521.18
562.27	29769.27
562.44	29640.54
562.60	29413.51
562.77	29336.27
562.93	29682.67
563.10	29888.64
563.26	29392.45
563.42	29977.58
563.59	29656.93
563.75	29685.01
563.92	29865.24
564.08	29680.33
564.24	29598.41
564.41	29666.29
564.57	29783.32
564.74	30012.69
564.90	29933.11
565.07	29783.32
565.23	29792.68
565.39	30101.63
565.56	29963.54
565.72	29418.19
565.88	30110.99
566.05	30003.33
566.21	29813.74
566.38	29797.36
566.54	29844.17
566.70	30106.31
566.87	30155.46
567.03	29942.47
567.19	30078.22
567.36	30471.43
567.52	29881.62
567.68	30015.03
567.85	29841.83
568.01	30237.38
568.17	29832.47
568.34	30270.15
568.50	30340.36
568.66	30066.52
568.83	30256.11
568.99	30092.27
569.15	30024.39
569.32	30022.05
569.48	30003.33
569.64	30218.66
569.81	30309.94
569.97	30206.95
570.13	29912.05
570.30	29996.31
570.46	30132.06
570.62	30190.57
570.78	30106.31
570.95	30132.06
571.11	30359.09
571.27	29993.97
571.43	29722.46
571.60	30103.97
571.76	30291.21
571.92	30045.46
572.09	30211.64
572.25	30314.62
572.41	30384.83
572.57	30225.68
572.74	30504.20
572.90	29984.60
573.06	30202.27
573.22	30157.80
573.38	30005.67
573.55	30368.45
573.71	30225.68
573.87	30513.56
574.03	30160.14
574.20	30335.68
574.36	29982.26
574.52	30015.03
574.68	30345.05
574.84	30160.14
575.01	30141.42
575.17	30710.17
575.33	30082.91
575.49	30164.82
575.65	30593.14
575.82	30480.80
575.98	30356.75
576.14	30553.35
576.30	30338.02
576.46	30263.13
576.62	30349.73
576.79	30944.22
576.95	30242.06
577.11	30555.69
577.27	30529.95
577.43	30628.25
577.59	30536.97
577.75	30668.04
577.92	30349.73
578.08	30651.66
578.24	30312.28
578.40	30506.54
578.56	30497.18
578.72	30752.30
578.88	30864.64
579.04	30944.22
579.21	30431.65
579.37	30831.88
579.53	30785.07
579.69	30375.47
579.85	30401.22
580.01	30354.41
580.17	30478.46
580.33	30326.32
580.49	30408.24
580.65	30356.75
580.82	30916.14
580.98	30529.95
581.14	30352.07
581.30	30448.03
581.46	30366.11
581.62	30700.81
581.78	30319.30
581.94	30675.06
582.10	30429.30
582.26	30555.69
582.42	30766.34
582.58	31016.78
582.74	30412.92
582.90	30553.35
583.06	30888.05
583.22	30953.58
583.38	30581.44
583.54	31019.12
583.70	30532.29
583.86	30759.32
584.02	30256.11
584.18	30679.74
584.34	30515.90
584.50	30670.38
584.66	30822.51
584.82	30712.51
584.98	30445.69
585.14	30764.00
585.30	30160.14
585.46	30338.02
585.62	30754.64
585.78	30586.12
585.94	30258.45
586.10	30775.70
586.26	30567.40
586.42	30859.96
586.58	30838.90
586.74	30710.17
586.90	30710.17
587.06	30864.64
587.22	30160.14
587.38	30506.54
587.54	30932.52
587.70	30909.11
587.86	30637.61
588.02	30700.81
588.18	30850.60
588.34	30787.41
588.49	30855.28
588.65	30532.29
588.81	30771.02
588.97	30918.48
589.13	30569.74
589.29	30548.67
589.45	30670.38
589.61	30859.96
589.77	31381.90
589.93	31271.90
590.08	31262.54
590.24	31370.20
590.40	31019.12
590.56	31005.08
590.72	30618.89
590.88	30686.76
591.04	30843.58
591.20	31035.50
591.35	31370.20
591.51	31014.44
591.67	30979.33
591.83	31187.64
591.99	31232.11
