SpectraSuite Data File
++++++++++++++++++++++++++++++++++++
Date: Fri Oct 18 13:58:00 GMT-05:00 2013
User: bianchi
Dark Spectrum Present: No
Reference Spectrum Present: No
Number of Sampled Component Spectra: 1
Spectrometers: USB2+H05261
Integration Time (usec): 50000 (USB2+H05261)
Spectra Averaged: 1 (USB2+H05261)
Boxcar Smoothing: 0 (USB2+H05261)
Correct for Electrical Dark: No (USB2+H05261)
Strobe/Lamp Enabled: No (USB2+H05261)
Correct for Detector Non-linearity: No (USB2+H05261)
Correct for Stray Light: No (USB2+H05261)
Number of Pixels in Processed Spectrum: 2048
>>>>>Begin Processed Spectral Data<<<<<
365.73	0.00
365.92	0.00
366.12	0.00
366.32	0.00
366.52	0.00
366.72	0.00
366.91	0.00
367.11	0.00
367.31	0.00
367.51	0.00
367.70	0.00
367.90	0.00
368.10	0.00
368.30	0.00
368.49	0.00
368.69	0.00
368.89	0.00
369.09	0.00
369.28	0.00
369.48	0.00
369.68	0.00
369.87	0.00
370.07	0.00
370.27	0.00
370.47	0.00
370.66	124.05
370.86	114.69
371.06	121.71
371.25	152.13
371.45	95.96
371.65	114.69
371.84	79.58
372.04	152.13
372.24	222.35
372.44	189.58
372.63	203.63
372.83	220.01
373.03	107.66
373.22	205.97
373.42	191.92
373.62	243.42
373.81	227.03
374.01	205.97
374.21	217.67
374.40	184.90
374.60	201.29
374.79	189.58
374.99	248.10
375.19	222.35
375.38	255.12
375.58	236.39
375.78	245.76
375.97	184.90
376.17	299.59
376.37	196.60
376.56	304.27
376.76	248.10
376.95	191.92
377.15	283.20
377.35	243.42
377.54	238.73
377.74	304.27
377.93	215.33
378.13	290.23
378.33	280.86
378.52	215.33
378.72	180.22
378.91	355.76
379.11	334.70
379.31	299.59
379.50	308.95
379.70	264.48
379.89	346.40
380.09	301.93
380.28	367.46
380.48	266.82
380.68	360.44
380.87	262.14
381.07	332.36
381.26	301.93
381.46	248.10
381.65	308.95
381.85	327.68
382.04	348.74
382.24	311.29
382.43	311.29
382.63	327.68
382.83	390.87
383.02	318.31
383.22	402.57
383.41	372.15
383.61	325.33
383.80	362.78
384.00	311.29
384.19	421.30
384.39	414.27
384.58	407.25
384.78	337.04
384.97	409.59
385.17	465.77
385.36	400.23
385.56	421.30
385.75	358.10
385.95	374.49
386.14	425.98
386.34	381.51
386.53	435.34
386.72	376.83
386.92	493.85
387.11	437.68
387.31	430.66
387.50	409.59
387.70	470.45
387.89	465.77
388.09	388.53
388.28	369.80
388.48	418.96
388.67	479.81
388.86	440.02
389.06	451.72
389.25	423.64
389.45	486.83
389.64	498.53
389.84	507.90
390.03	423.64
390.22	442.36
390.42	552.37
390.61	454.06
390.81	428.32
391.00	528.96
391.19	435.34
391.39	486.83
391.58	484.49
391.78	524.28
391.97	538.32
392.16	421.30
392.36	580.45
392.55	491.51
392.75	517.26
392.94	491.51
393.13	493.85
393.33	521.94
393.52	510.24
393.71	528.96
393.91	587.47
394.10	601.52
394.29	629.60
394.49	554.71
394.68	564.07
394.88	566.41
395.07	545.34
395.26	615.56
395.46	678.76
395.65	599.18
395.84	622.58
396.04	629.60
396.23	753.65
396.42	589.82
396.62	671.73
396.81	629.60
397.00	648.33
397.19	601.52
397.39	638.97
397.58	662.37
397.77	638.97
397.97	709.18
398.16	711.52
398.35	704.50
398.55	777.06
398.74	730.25
398.93	716.20
399.12	706.84
399.32	779.40
399.51	795.78
399.70	711.52
399.90	711.52
400.09	734.93
400.28	833.23
400.47	767.70
400.67	720.88
400.86	826.21
401.05	777.06
401.24	704.50
401.44	847.27
401.63	791.10
401.82	779.40
402.01	826.21
402.21	816.85
402.40	863.66
402.59	800.46
402.78	877.70
402.97	858.98
403.17	830.89
403.36	791.10
403.55	816.85
403.74	828.55
403.93	943.24
404.13	947.92
404.32	828.55
404.51	903.45
404.70	938.55
404.89	861.32
405.09	926.85
405.28	947.92
405.47	1020.47
405.66	945.58
405.85	985.37
406.05	964.30
406.24	976.00
406.43	971.32
406.62	1050.90
406.81	1071.97
407.00	997.07
407.20	1081.33
407.39	978.34
407.58	1102.39
407.77	1053.24
407.96	1053.24
408.15	1118.78
408.34	1025.15
408.54	1095.37
408.73	1149.20
408.92	1139.84
409.11	1179.63
409.30	1200.69
409.49	1097.71
409.68	1181.97
409.87	1214.74
410.07	1172.61
410.26	1210.06
410.45	1184.31
410.64	1158.57
410.83	1203.04
411.02	1212.40
411.21	1238.14
411.40	1299.00
411.59	1287.29
411.78	1226.44
411.98	1291.98
412.17	1373.89
412.36	1266.23
412.55	1247.51
412.74	1359.85
412.93	1413.68
413.12	1299.00
413.31	1383.26
413.50	1397.30
413.69	1343.47
413.88	1378.58
414.07	1416.02
414.26	1437.09
414.45	1511.99
414.64	1409.00
414.83	1579.86
415.02	1425.39
415.22	1504.96
415.41	1523.69
415.60	1659.44
415.79	1572.84
415.98	1619.65
416.17	1605.61
416.36	1586.88
416.55	1579.86
416.74	1636.03
416.93	1671.14
417.12	1619.65
417.31	1652.42
417.50	1760.08
417.69	1659.44
417.88	1739.02
418.07	1680.50
418.26	1736.68
418.45	1717.95
418.64	1853.70
418.83	1813.92
419.02	1846.68
419.21	1877.11
419.39	1816.26
419.58	1771.79
419.77	1818.60
419.96	1851.36
420.15	1961.37
420.34	1895.83
420.53	1935.62
420.72	1973.07
420.91	1909.88
421.10	1973.07
421.29	1982.43
421.48	1872.43
421.67	1926.26
421.86	2017.54
422.05	1991.80
422.24	2040.95
422.43	1928.60
422.61	1987.11
422.80	2005.84
422.99	2003.50
423.18	1956.69
423.37	2092.44
423.56	2024.56
423.75	2099.46
423.94	1996.48
424.13	1827.96
424.32	2052.65
424.50	2054.99
424.69	2090.10
424.88	2179.04
425.07	2008.18
425.26	1893.49
425.45	1912.22
425.64	2062.01
425.83	2073.71
426.01	2172.02
426.20	1998.82
426.39	1989.46
426.58	2080.74
426.77	2059.67
426.96	2129.89
427.15	2012.86
427.33	2188.40
427.52	2118.18
427.71	2174.36
427.90	2169.68
428.09	2174.36
428.28	2186.06
428.46	2225.85
428.65	2190.74
428.84	2237.55
429.03	2260.96
429.22	2225.85
429.40	2310.11
429.59	2239.89
429.78	2200.10
429.97	2239.89
430.16	2174.36
430.34	2317.13
430.53	2216.49
430.72	2314.79
430.91	2359.26
431.10	2333.51
431.28	2401.39
431.47	2314.79
431.66	2349.90
431.85	2361.60
432.03	2495.01
432.22	2572.25
432.41	2499.69
432.60	2565.23
432.79	2349.90
432.97	2520.76
433.16	2413.09
433.35	2502.03
433.54	2546.50
433.72	2511.39
433.91	2520.76
434.10	2485.65
434.28	2448.20
434.47	2593.31
434.66	2637.78
434.85	2651.83
435.03	2679.91
435.22	2567.57
435.41	2719.70
435.59	2691.62
435.78	2745.45
435.97	2677.57
436.16	2630.76
436.34	2621.40
436.53	2750.13
436.72	2724.38
436.90	2595.65
437.09	2712.68
437.28	2670.55
437.46	2588.63
437.65	2834.39
437.84	2899.92
438.02	2759.49
438.21	2771.19
438.40	2729.06
438.58	2874.18
438.77	2867.16
438.96	2911.63
439.14	2944.39
439.33	2839.07
439.52	2853.11
439.70	2874.18
439.89	2963.12
440.08	2925.67
440.26	2977.16
440.45	3155.04
440.63	3164.40
440.82	3122.27
441.01	3155.04
441.19	3112.91
441.38	3239.30
441.57	3150.36
441.75	3396.12
441.94	3173.77
442.12	3393.78
442.31	3361.01
442.50	3208.87
442.68	3316.54
442.87	3325.90
443.05	3492.08
443.24	3459.31
443.43	3335.26
443.61	3332.92
443.80	3375.05
443.98	3318.88
444.17	3330.58
444.35	3368.03
444.54	3461.65
444.73	3555.27
444.91	3372.71
445.10	3438.25
445.28	3419.52
445.47	3501.44
445.65	3330.58
445.84	3496.76
446.02	3604.42
446.21	3459.31
446.39	3555.27
446.58	3576.34
446.77	3377.39
446.95	3506.12
447.14	3527.19
447.32	3501.44
447.51	3527.19
447.69	3489.74
447.88	3562.30
448.06	3578.68
448.25	3574.00
448.43	3562.30
448.62	3513.14
448.80	3456.97
448.99	3529.53
449.17	3578.68
449.36	3660.60
449.54	3581.02
449.73	3655.92
449.91	3819.75
450.10	3698.05
450.28	3819.75
450.46	3810.39
450.65	3742.52
450.83	3765.92
451.02	3712.09
451.20	3861.88
451.39	3791.67
451.57	3684.00
451.76	3850.18
451.94	3801.03
452.13	3892.31
452.31	3953.16
452.49	3854.86
452.68	3988.27
452.86	3824.44
453.05	3768.26
453.23	4007.00
453.42	3925.08
453.60	3967.21
453.78	3791.67
453.97	3946.14
454.15	3983.59
454.34	3953.16
454.52	3866.56
454.70	4032.74
454.89	3995.29
455.07	3880.61
455.26	4023.38
455.44	4091.26
455.62	4039.76
455.81	4044.45
455.99	4102.96
456.17	4142.75
456.36	4117.00
456.54	4280.84
456.73	4250.41
456.91	4191.90
457.09	4346.37
457.28	4362.76
457.46	4273.82
457.64	4383.82
457.83	4381.48
458.01	4308.93
458.19	4348.72
458.38	4367.44
458.56	4327.65
458.74	4400.21
458.93	4447.02
459.11	4559.36
459.29	4362.76
459.48	4472.76
459.66	4311.27
459.84	4596.81
460.03	4510.21
460.21	4528.94
460.39	4596.81
460.57	4514.89
460.76	4608.51
460.94	4552.34
461.12	4552.34
461.31	4674.05
461.49	4613.20
461.67	4681.07
461.85	4835.55
462.04	4610.86
462.22	5083.64
462.40	4826.18
462.59	4681.07
462.77	4786.40
462.95	4802.78
463.13	4821.50
463.32	4709.16
463.50	4933.85
463.68	4922.15
463.86	4978.32
464.05	4849.59
464.23	4854.27
464.41	4940.87
464.59	4858.95
464.78	4917.47
464.96	4901.08
465.14	4865.97
465.32	5006.41
465.50	4994.70
465.69	5158.54
465.87	4947.89
466.05	5060.24
466.23	4943.21
466.41	4985.34
466.60	5181.95
466.78	4863.63
466.96	5100.03
467.14	5135.14
467.32	5191.31
467.51	5221.74
467.69	5177.26
467.87	5170.24
468.05	5203.01
468.23	5078.96
468.41	5172.58
468.60	5203.01
468.78	5219.39
468.96	5109.39
469.14	5331.74
469.32	5291.95
469.50	5228.76
469.69	5240.46
469.87	5376.21
470.05	5430.04
470.23	5528.35
470.41	5460.47
470.59	5511.96
470.77	5348.12
470.95	5408.98
471.14	5411.32
471.32	5549.41
471.50	5533.03
471.68	5813.89
471.86	5577.50
472.04	5579.84
472.22	5802.19
472.40	5846.66
472.58	5806.87
472.77	5905.17
472.95	5900.49
473.13	5954.32
473.31	5947.30
473.49	5856.02
473.67	5834.96
473.85	5816.23
474.03	6054.97
474.21	6026.88
474.39	6202.42
474.57	6193.06
474.75	6061.99
474.93	6155.61
475.12	6101.78
475.30	6143.91
475.48	6197.74
475.66	6214.12
475.84	6143.91
476.02	6272.64
476.20	6164.97
476.38	6640.10
476.56	6558.18
476.74	6693.93
476.92	6539.46
477.10	6366.26
477.28	6644.78
477.46	6537.12
477.64	6558.18
477.82	6745.42
478.00	6995.86
478.18	6981.82
478.36	6984.16
478.54	7260.34
478.72	6885.86
478.90	7162.04
479.08	7148.00
479.26	7138.63
479.44	7260.34
479.62	7417.16
479.80	7562.27
479.98	7281.41
480.16	7683.98
480.34	7487.37
480.52	7597.38
480.70	7730.79
480.88	7536.52
481.06	7749.51
481.24	7793.98
481.41	7854.84
481.59	8028.04
481.77	7964.84
481.95	8058.46
482.13	8100.59
482.31	8060.80
482.49	8278.47
482.67	8332.31
482.85	8280.82
483.03	8484.44
483.21	8561.68
483.39	8720.84
483.57	8667.00
483.74	8849.57
483.92	8629.56
484.10	8725.52
484.28	8823.82
484.46	9029.79
484.64	9137.45
484.82	9212.35
485.00	9151.49
485.18	9303.63
485.35	9392.57
485.53	9518.96
485.71	9320.01
485.89	9687.48
486.07	9591.52
486.25	9659.39
486.43	9703.86
486.61	9675.77
486.78	10057.28
486.96	10015.15
487.14	10279.63
487.32	9954.30
487.50	10190.69
487.68	9970.68
487.85	10434.11
488.03	10424.75
488.21	10581.56
488.39	10513.69
488.57	10700.93
488.75	10672.84
488.92	10923.28
489.10	10913.92
489.28	11049.67
489.46	11094.14
489.64	11183.08
489.81	11087.12
489.99	11332.87
490.17	11286.06
490.35	11487.35
490.53	11632.46
490.70	11754.17
490.88	11627.78
491.06	11871.20
491.24	11772.89
491.41	11969.50
491.59	11948.43
491.77	12016.31
491.95	12175.47
492.13	12325.26
492.30	12229.30
492.48	12161.42
492.66	12231.64
492.84	12418.88
493.01	12634.21
493.19	12718.47
493.37	12650.60
493.54	12669.32
493.72	12879.97
493.90	12826.14
494.08	12931.46
494.25	13008.70
494.43	13029.76
494.61	13352.76
494.79	13474.46
494.96	13385.52
495.14	13514.25
495.32	13427.65
495.49	13687.45
495.67	13837.25
495.85	13855.97
496.02	13919.17
496.20	14228.12
496.38	13881.72
496.55	13909.80
496.73	14211.73
496.91	14340.46
497.09	14270.25
497.26	14312.38
497.44	14359.19
497.62	14380.25
497.79	14464.51
497.97	14448.13
498.14	14738.35
498.32	14927.94
498.50	14712.61
498.67	15138.58
498.85	14981.77
499.03	15176.03
499.20	15133.90
499.38	15140.93
499.56	15241.57
499.73	15440.51
499.91	15206.46
500.08	15346.89
500.26	15482.64
500.44	15639.46
500.61	15272.00
500.79	15768.19
500.97	15641.80
501.14	16109.91
501.32	15999.90
501.49	15817.34
501.67	15943.73
501.84	16175.44
502.02	15913.30
502.20	16105.23
502.37	16430.56
502.55	16107.57
502.72	16133.31
502.90	16198.85
503.07	16252.68
503.25	16313.53
503.43	16435.24
503.60	16681.00
503.78	16563.97
503.95	16744.19
504.13	16582.70
504.30	16568.65
504.48	16549.93
504.65	16711.42
504.83	17095.27
505.01	17319.96
505.18	16882.28
505.36	17116.34
505.53	17003.99
505.71	17142.08
505.88	17380.82
506.06	17076.55
506.23	17238.05
506.41	17064.85
506.58	17624.23
506.76	17336.35
506.93	17458.06
507.11	17097.61
507.28	17575.08
507.46	17336.35
507.63	17951.91
507.81	17982.34
507.98	17778.71
508.16	17888.71
508.33	17961.27
508.50	18134.47
508.68	18225.75
508.85	18345.12
509.03	18225.75
509.20	18356.82
509.38	18267.88
509.55	18359.16
509.73	18434.06
509.90	18579.17
510.08	18431.72
510.25	18342.78
510.42	18925.57
510.60	18672.79
510.77	18726.63
510.95	18860.04
511.12	18494.91
511.30	18523.00
511.47	18759.39
511.64	18951.32
511.82	19066.00
511.99	18965.36
512.17	19089.41
512.34	18946.64
512.51	19480.28
512.69	19325.80
512.86	19241.54
513.04	19278.99
513.21	19714.33
513.38	19370.27
513.56	19552.84
513.73	19358.57
513.90	19599.65
514.08	19370.27
514.25	19587.94
514.43	19814.98
514.60	19908.60
514.77	19609.01
514.95	20088.82
515.12	19913.28
515.29	20093.50
515.47	19768.16
515.64	19889.87
515.81	20205.84
515.99	20137.97
516.16	20053.71
516.33	20390.75
516.51	20678.63
516.68	20322.87
516.85	20280.74
517.03	20208.19
517.20	20503.09
517.37	20940.77
517.54	20774.60
517.72	20346.28
517.89	20624.80
518.06	20807.36
518.24	20699.70
518.41	20645.87
518.58	20769.91
518.75	21128.02
518.93	21289.51
519.10	21020.35
519.27	21207.59
519.45	21170.15
519.62	20985.24
519.79	21106.95
519.96	21102.27
520.14	21158.44
520.31	21041.42
520.48	21509.52
520.65	21188.87
520.83	21675.70
521.00	21553.99
521.17	21404.20
521.34	21617.19
521.52	21722.51
521.69	21664.00
521.86	21727.19
522.03	21645.27
522.20	21884.01
522.38	22209.34
522.55	21659.32
522.72	21907.41
522.89	21884.01
523.07	22185.94
523.24	22480.85
523.41	22089.98
523.58	21731.87
523.75	22314.67
523.92	21994.01
524.10	22185.94
524.27	22373.18
524.44	22569.79
524.61	22508.93
524.78	22459.78
524.96	22143.81
525.13	22745.33
525.30	22576.81
525.47	22534.68
525.64	22618.94
525.81	23042.57
525.98	22710.22
526.16	22649.36
526.33	22609.58
526.50	22862.35
526.67	22871.72
526.84	22836.61
527.01	22787.46
527.18	23145.56
527.36	23201.73
527.53	23140.88
527.70	23388.97
527.87	23398.34
528.04	23168.96
528.21	23281.31
528.38	23410.04
528.55	23035.55
528.72	23372.59
528.89	23620.69
529.07	23388.97
529.24	23674.52
529.41	23939.00
529.58	23543.45
529.75	23557.49
529.92	23440.47
530.09	23578.56
530.26	23665.16
530.43	23978.79
530.60	23910.91
530.77	23557.49
530.94	24250.29
531.11	23887.51
531.28	23695.58
531.46	23875.80
531.63	24194.12
531.80	24147.31
531.97	24439.87
532.14	24355.61
532.31	23953.04
532.48	24170.71
532.65	24107.52
532.82	23828.99
532.99	24105.18
533.16	24367.32
533.33	24741.80
533.50	24182.42
533.67	24730.10
533.84	24208.16
534.01	24339.23
534.18	24217.52
534.35	24875.21
534.52	24510.09
534.69	24919.68
534.86	24898.62
535.03	24734.78
535.20	24931.39
535.37	24886.92
535.54	24627.12
535.71	24709.04
535.88	24854.15
536.05	25132.67
536.22	25015.65
536.38	25083.52
536.55	25261.40
536.72	24889.26
536.89	24844.79
537.06	24947.77
537.23	25212.25
537.40	25067.14
537.57	25165.44
537.74	25216.93
537.91	25497.80
538.08	25553.97
538.25	25345.66
538.42	25448.64
538.59	25544.61
538.75	25542.27
538.92	25111.61
539.09	25518.86
539.26	25626.53
539.43	25418.22
539.60	25621.84
539.77	25542.27
539.94	25434.60
540.11	25614.82
540.28	25537.59
540.44	25750.57
540.61	25465.03
540.78	25841.85
540.95	25582.06
541.12	26019.74
541.29	25944.84
541.46	26012.71
541.62	25731.85
541.79	25813.77
541.96	25486.09
542.13	25853.56
542.30	26178.89
542.47	26047.82
542.63	26272.51
542.80	26471.46
542.97	26309.96
543.14	26394.22
543.31	26246.77
543.48	26249.11
543.64	26574.44
543.81	26504.23
543.98	26342.73
544.15	26644.66
544.32	26759.34
544.48	26834.24
544.65	26525.29
544.82	26693.81
544.99	26661.04
545.16	26916.16
545.32	26408.26
545.49	26969.99
545.66	27065.96
545.83	26848.29
546.00	27147.87
546.16	26766.37
546.33	26906.80
546.50	26333.37
546.67	26962.97
546.83	26649.34
547.00	26937.23
547.17	27033.19
547.34	27098.72
547.50	27098.72
547.67	27215.75
547.84	27068.30
548.00	27185.32
548.17	27246.18
548.34	27316.39
548.51	27414.69
548.67	27180.64
548.84	27276.60
549.01	27271.92
549.18	27267.24
549.34	27152.55
549.51	27253.20
549.68	27271.92
549.84	27424.06
550.01	27557.47
550.18	27690.88
550.34	27426.40
550.51	27899.19
550.68	27819.61
550.84	27412.35
551.01	27817.27
551.18	27744.71
551.34	27599.60
551.51	27875.78
551.68	27541.08
551.84	27843.01
552.01	27754.07
552.18	28126.22
552.34	27384.27
552.51	27875.78
552.68	27601.94
552.84	28109.83
553.01	28006.85
553.18	27814.93
553.34	28002.17
553.51	28271.33
553.67	27777.48
553.84	28180.05
554.01	28123.88
554.17	28077.07
554.34	28208.14
554.51	27906.21
554.67	28058.34
554.84	28704.33
555.00	28341.55
555.17	27971.74
555.33	28442.19
555.50	27995.15
555.67	28191.75
555.83	28339.21
556.00	28355.59
556.16	28121.54
556.33	28091.11
556.50	28503.04
556.66	28730.08
556.83	28634.11
556.99	28648.16
557.16	28760.50
557.32	29020.30
557.49	28584.96
557.65	28107.49
557.82	28442.19
557.98	28472.62
558.15	28465.60
558.32	28814.34
558.48	28489.00
558.65	28783.91
558.81	28540.49
558.98	28961.79
559.14	28610.71
559.31	28481.98
559.47	28734.76
559.64	29036.69
559.80	29139.67
559.97	28507.72
560.13	28748.80
560.30	29076.48
560.46	28683.27
560.63	29193.50
560.79	28931.36
560.96	28788.59
561.12	28966.47
561.29	28856.46
561.45	29212.23
561.61	29001.58
561.78	29390.11
561.94	29219.25
562.11	29111.58
562.27	29027.32
562.44	28889.23
562.60	28811.99
562.77	28624.75
562.93	29261.38
563.10	29558.63
563.26	29024.98
563.42	29488.41
563.59	29074.13
563.75	29067.11
563.92	29427.56
564.08	28875.19
564.24	28957.11
564.41	29280.10
564.57	29149.03
564.74	29394.79
564.90	29343.30
565.07	29537.56
565.23	29195.84
565.39	29055.41
565.56	29443.94
565.72	29069.45
565.88	29209.89
566.05	29371.38
566.21	29205.20
566.38	29294.14
566.54	29490.75
566.70	29357.34
566.87	29745.87
567.03	29254.36
567.19	29977.58
567.36	29560.97
567.52	29677.99
567.68	29516.50
567.85	29544.58
568.01	29556.28
568.17	29357.34
568.34	29682.67
568.50	29607.78
568.66	29738.85
568.83	29717.78
568.99	29282.44
569.15	29610.12
569.32	29315.21
569.48	29523.52
569.64	29579.69
569.81	29717.78
569.97	29729.48
570.13	29633.52
570.30	29525.86
570.46	29479.05
570.62	29284.78
570.78	29703.74
570.95	29504.79
571.11	29446.28
571.27	29249.67
571.43	29191.16
571.60	29490.75
571.76	29802.04
571.92	29876.94
572.09	29586.71
572.25	29729.48
572.41	29865.24
572.57	29809.06
572.74	29993.97
572.90	29694.38
573.06	29916.73
573.22	29392.45
573.38	29862.90
573.55	29748.21
573.71	30110.99
573.87	29923.75
574.03	30052.48
574.20	29954.18
574.36	29989.28
574.52	29535.22
574.68	29729.48
574.84	30270.15
575.01	29603.10
575.17	29825.45
575.33	29888.64
575.49	29752.89
575.65	30139.08
575.82	30204.61
575.98	29949.50
576.14	30040.78
576.30	29848.85
576.46	29708.42
576.62	29778.64
576.79	29717.78
576.95	29771.61
577.11	30029.07
577.27	30040.78
577.43	29795.02
577.59	30132.06
577.75	29432.24
577.92	29982.26
578.08	29720.12
578.24	30057.16
578.40	29553.94
578.56	30026.73
578.72	30132.06
578.88	30022.05
579.04	30483.14
579.21	30059.50
579.37	29923.75
579.53	30675.06
579.69	29766.93
579.85	29713.10
580.01	30047.80
580.17	29979.92
580.33	30059.50
580.49	29713.10
580.65	30235.04
580.82	29783.32
580.98	29862.90
581.14	30057.16
581.30	29921.41
581.46	29727.14
581.62	29778.64
581.78	29677.99
581.94	29837.15
582.10	29647.57
582.26	29785.66
582.42	29998.65
582.58	30132.06
582.74	30038.44
582.90	30178.87
583.06	30155.46
583.22	29916.73
583.38	30118.01
583.54	30164.82
583.70	29816.08
583.86	30162.48
584.02	29766.93
584.18	30122.69
584.34	30342.70
584.50	30345.05
584.66	30033.75
584.82	29780.98
584.98	30242.06
585.14	29827.79
585.30	29858.21
585.46	30103.97
585.62	29865.24
585.78	30155.46
585.94	29645.23
586.10	30199.93
586.26	30115.67
586.42	30515.90
586.58	30225.68
586.74	30019.71
586.90	30047.80
587.06	29881.62
587.22	30108.65
587.38	30298.23
587.54	30377.81
587.70	30326.32
587.86	29951.84
588.02	30246.74
588.18	30408.24
588.34	30487.82
588.49	30424.62
588.65	29977.58
588.81	30354.41
588.97	30192.91
589.13	30199.93
589.29	30286.53
589.45	30300.58
589.61	30213.98
589.77	30366.11
589.93	30483.14
590.08	30684.42
590.24	30314.62
590.40	30845.92
590.56	30658.68
590.72	30235.04
590.88	30419.94
591.04	30101.63
591.20	30719.53
591.35	30630.59
591.51	30965.29
591.67	30595.48
591.83	30623.57
591.99	30335.68
