SpectraSuite Data File
++++++++++++++++++++++++++++++++++++
Date: Fri Oct 18 13:58:28 GMT-05:00 2013
User: bianchi
Dark Spectrum Present: No
Reference Spectrum Present: No
Number of Sampled Component Spectra: 1
Spectrometers: USB2+H05261
Integration Time (usec): 50000 (USB2+H05261)
Spectra Averaged: 1 (USB2+H05261)
Boxcar Smoothing: 0 (USB2+H05261)
Correct for Electrical Dark: No (USB2+H05261)
Strobe/Lamp Enabled: No (USB2+H05261)
Correct for Detector Non-linearity: No (USB2+H05261)
Correct for Stray Light: No (USB2+H05261)
Number of Pixels in Processed Spectrum: 2048
>>>>>Begin Processed Spectral Data<<<<<
365.73	0.00
365.92	0.00
366.12	0.00
366.32	0.00
366.52	0.00
366.72	0.00
366.91	0.00
367.11	0.00
367.31	0.00
367.51	0.00
367.70	0.00
367.90	0.00
368.10	0.00
368.30	0.00
368.49	0.00
368.69	0.00
368.89	0.00
369.09	0.00
369.28	0.00
369.48	0.00
369.68	0.00
369.87	0.00
370.07	0.00
370.27	0.00
370.47	0.00
370.66	110.01
370.86	142.77
371.06	112.35
371.25	227.03
371.45	198.95
371.65	147.45
371.84	126.39
372.04	187.24
372.24	145.11
372.44	152.13
372.63	205.97
372.83	147.45
373.03	259.80
373.22	152.13
373.42	126.39
373.62	269.16
373.81	194.26
374.01	170.86
374.21	257.46
374.40	238.73
374.60	245.76
374.79	234.05
374.99	224.69
375.19	184.90
375.38	285.55
375.58	273.84
375.78	266.82
375.97	273.84
376.17	266.82
376.37	227.03
376.56	245.76
376.76	259.80
376.95	308.95
377.15	248.10
377.35	283.20
377.54	236.39
377.74	280.86
377.93	236.39
378.13	264.48
378.33	269.16
378.52	236.39
378.72	297.25
378.91	285.55
379.11	262.14
379.31	311.29
379.50	318.31
379.70	257.46
379.89	227.03
380.09	290.23
380.28	257.46
380.48	308.95
380.68	285.55
380.87	365.12
381.07	283.20
381.26	322.99
381.46	255.12
381.65	320.65
381.85	304.27
382.04	311.29
382.24	383.85
382.43	346.40
382.63	327.68
382.83	341.72
383.02	388.53
383.22	299.59
383.41	379.17
383.61	341.72
383.80	369.80
384.00	351.08
384.19	337.04
384.39	351.08
384.58	344.06
384.78	379.17
384.97	414.27
385.17	348.74
385.36	365.12
385.56	381.51
385.75	416.62
385.95	449.38
386.14	437.68
386.34	301.93
386.53	339.38
386.72	306.61
386.92	337.04
387.11	407.25
387.31	416.62
387.50	440.02
387.70	411.93
387.89	332.36
388.09	430.66
388.28	437.68
388.48	414.27
388.67	519.60
388.86	386.19
389.06	545.34
389.25	367.46
389.45	430.66
389.64	475.13
389.84	475.13
390.03	496.19
390.22	458.74
390.42	491.51
390.61	496.19
390.81	510.24
391.00	510.24
391.19	482.15
391.39	550.03
391.58	580.45
391.78	514.92
391.97	411.93
392.16	500.87
392.36	580.45
392.55	526.62
392.75	545.34
392.94	575.77
393.13	517.26
393.33	493.85
393.52	526.62
393.71	603.86
393.91	622.58
394.10	517.26
394.29	587.47
394.49	484.49
394.68	592.16
394.88	585.13
395.07	575.77
395.26	564.07
395.46	648.33
395.65	589.82
395.84	620.24
396.04	706.84
396.23	594.50
396.42	601.52
396.62	540.66
396.81	608.54
397.00	634.29
397.19	610.88
397.39	589.82
397.58	578.11
397.77	667.05
397.97	725.57
398.16	641.31
398.35	681.10
398.55	709.18
398.74	758.33
398.93	774.72
399.12	704.50
399.32	734.93
399.51	641.31
399.70	681.10
399.90	697.48
400.09	631.94
400.28	772.38
400.47	734.93
400.67	821.53
400.86	748.97
401.05	807.48
401.24	809.83
401.44	788.76
401.63	732.59
401.82	863.66
402.01	767.70
402.21	770.04
402.40	875.36
402.59	767.70
402.78	793.44
402.97	851.96
403.17	788.76
403.36	854.30
403.55	861.32
403.74	891.74
403.93	791.10
404.13	873.02
404.32	870.68
404.51	880.04
404.70	959.62
404.89	950.26
405.09	875.36
405.28	884.72
405.47	1029.84
405.66	1029.84
405.85	870.68
406.05	894.08
406.24	997.07
406.43	990.05
406.62	1041.54
406.81	1069.62
407.00	961.96
407.20	931.53
407.39	1015.79
407.58	1067.28
407.77	964.30
407.96	1090.69
408.15	1118.78
408.34	1041.54
408.54	1135.16
408.73	1146.86
408.92	1086.01
409.11	1116.44
409.30	1114.10
409.49	1104.73
409.68	1144.52
409.87	1188.99
410.07	1142.18
410.26	1177.29
410.45	1249.85
410.64	1128.14
410.83	1177.29
411.02	1221.76
411.21	1252.19
411.40	1198.35
411.59	1270.91
411.78	1315.38
411.98	1210.06
412.17	1247.51
412.36	1350.49
412.55	1357.51
412.74	1313.04
412.93	1359.85
413.12	1362.19
413.31	1413.68
413.50	1322.40
413.69	1331.76
413.88	1481.56
414.07	1504.96
414.26	1451.13
414.45	1350.49
414.64	1371.55
414.83	1336.45
415.02	1511.99
415.22	1509.65
415.41	1486.24
415.60	1598.59
415.79	1591.56
415.98	1614.97
416.17	1612.63
416.36	1568.16
416.55	1598.59
416.74	1673.48
416.93	1614.97
417.12	1680.50
417.31	1666.46
417.50	1727.32
417.69	1755.40
417.88	1722.63
418.07	1734.34
418.26	1689.87
418.45	1769.44
418.64	1771.79
418.83	1820.94
419.02	1799.87
419.21	1755.40
419.39	1788.17
419.58	1764.76
419.77	1776.47
419.96	1900.52
420.15	1905.20
420.34	1839.66
420.53	1837.32
420.72	1844.34
420.91	1774.13
421.10	1870.09
421.29	1961.37
421.48	1827.96
421.67	1952.01
421.86	1991.80
422.05	2057.33
422.24	1844.34
422.43	1905.20
422.61	1928.60
422.80	2008.18
422.99	2047.97
423.18	2085.42
423.37	2073.71
423.56	2017.54
423.75	2050.31
423.94	1982.43
424.13	2040.95
424.32	1959.03
424.50	2036.27
424.69	2033.93
424.88	2059.67
425.07	2043.29
425.26	1942.64
425.45	2003.50
425.64	2080.74
425.83	2120.53
426.01	2141.59
426.20	2031.58
426.39	2036.27
426.58	2104.14
426.77	2064.35
426.96	2031.58
427.15	2045.63
427.33	2080.74
427.52	2001.16
427.71	2146.27
427.90	2017.54
428.09	2272.66
428.28	2176.70
428.46	2253.94
428.65	2172.02
428.84	2258.62
429.03	2197.76
429.22	2129.89
429.40	2235.21
429.59	2279.68
429.78	2211.81
429.97	2202.44
430.16	2120.53
430.34	2431.82
430.53	2450.54
430.72	2270.32
430.91	2228.19
431.10	2300.75
431.28	2270.32
431.47	2464.58
431.66	2359.26
431.85	2415.43
432.03	2361.60
432.22	2392.03
432.41	2300.75
432.60	2555.86
432.79	2363.94
432.97	2401.39
433.16	2530.12
433.35	2448.20
433.54	2497.35
433.72	2572.25
433.91	2473.95
434.10	2553.52
434.28	2497.35
434.47	2513.74
434.66	2495.01
434.85	2574.59
435.03	2633.10
435.22	2558.21
435.41	2700.98
435.59	2597.99
435.78	2572.25
435.97	2640.12
436.16	2644.81
436.34	2808.64
436.53	2661.19
436.72	2764.17
436.90	2693.96
437.09	2736.09
437.28	2724.38
437.46	2605.02
437.65	2708.00
437.84	2806.30
438.02	2773.53
438.21	2740.77
438.40	2736.09
438.58	2935.03
438.77	2888.22
438.96	2869.50
439.14	2923.33
439.33	2871.84
439.52	2928.01
439.70	3052.06
439.89	2995.89
440.08	2888.22
440.26	2937.37
440.45	3077.80
440.63	2965.46
440.82	3220.58
441.01	3194.83
441.19	3133.98
441.38	3295.47
441.57	3227.60
441.75	3166.74
441.94	3201.85
442.12	3183.13
442.31	3295.47
442.50	3269.73
442.68	3426.54
442.87	3283.77
443.05	3368.03
443.24	3323.56
443.43	3258.03
443.61	3379.73
443.80	3555.27
443.98	3386.76
444.17	3251.00
444.35	3246.32
444.54	3447.61
444.73	3510.80
444.91	3346.97
445.10	3463.99
445.28	3321.22
445.47	3405.48
445.65	3517.83
445.84	3449.95
446.02	3515.48
446.21	3492.08
446.39	3370.37
446.58	3576.34
446.77	3576.34
446.95	3396.12
447.14	3386.76
447.32	3618.47
447.51	3538.89
447.69	3475.70
447.88	3478.04
448.06	3557.61
448.25	3482.72
448.43	3492.08
448.62	3503.78
448.80	3599.74
448.99	3506.12
449.17	3604.42
449.36	3662.94
449.54	3515.48
449.73	3597.40
449.91	3644.21
450.10	3632.51
450.28	3782.31
450.46	3618.47
450.65	3681.66
450.83	3726.13
451.02	3712.09
451.20	3765.92
451.39	3775.28
451.57	3644.21
451.76	3810.39
451.94	3735.50
452.13	3875.93
452.31	4046.79
452.49	3878.27
452.68	3822.09
452.86	3920.40
453.05	3859.54
453.23	3847.84
453.42	3805.71
453.60	3861.88
453.78	3974.23
453.97	3889.97
454.15	3920.40
454.34	3857.20
454.52	4095.94
454.70	4025.72
454.89	3962.53
455.07	3955.51
455.26	4079.55
455.44	4079.55
455.62	4063.17
455.81	4100.62
455.99	4154.45
456.17	4044.45
456.36	4196.58
456.54	4210.62
456.73	4187.22
456.91	4219.99
457.09	4332.33
457.28	4369.78
457.46	4250.41
457.64	4241.05
457.83	4442.34
458.01	4252.75
458.19	4393.19
458.38	4322.97
458.56	4402.55
458.74	4521.92
458.93	4397.87
459.11	4557.02
459.29	4409.57
459.48	4531.28
459.66	4528.94
459.84	4500.85
460.03	4372.12
460.21	4437.66
460.39	4465.74
460.57	4344.03
460.76	4568.73
460.94	4496.17
461.12	4631.92
461.31	4486.81
461.49	4568.73
461.67	4648.30
461.85	4594.47
462.04	4648.30
462.22	4767.67
462.40	4723.20
462.59	4734.90
462.77	4704.48
462.95	4767.67
463.13	4940.87
463.32	4826.18
463.50	4753.63
463.68	4765.33
463.86	4751.29
464.05	4830.87
464.23	4833.21
464.41	4802.78
464.59	4730.22
464.78	5020.45
464.96	4975.98
465.14	4844.91
465.32	4987.68
465.50	4947.89
465.69	4966.62
465.87	4910.44
466.05	4940.87
466.23	4971.30
466.41	5015.77
466.60	5296.63
466.78	5055.56
466.96	5043.85
467.14	5123.43
467.32	5060.24
467.51	5083.64
467.69	4924.49
467.87	5158.54
468.05	5116.41
468.23	5069.60
468.41	5135.14
468.60	5210.03
468.78	5254.50
468.96	5095.35
469.14	4954.91
469.32	5308.34
469.50	5149.18
469.69	5235.78
469.87	5392.59
470.05	5430.04
470.23	5397.28
470.41	5380.89
470.59	5284.93
470.77	5294.29
470.95	5294.29
471.14	5533.03
471.32	5563.45
471.50	5514.30
471.68	5502.60
471.86	5631.33
472.04	5554.09
472.22	5696.86
472.40	5734.31
472.58	5757.72
472.77	5776.44
472.95	5771.76
473.13	5872.40
473.31	5802.19
473.49	5841.98
473.67	5774.10
473.85	5973.05
474.03	5954.32
474.21	5937.94
474.39	6061.99
474.57	6106.46
474.75	6080.71
474.93	6085.39
475.12	6087.73
475.30	6270.30
475.48	6136.88
475.66	6267.95
475.84	6148.59
476.02	6216.46
476.20	6263.27
476.38	6218.80
476.56	6377.96
476.74	6600.31
476.92	6342.85
477.10	6494.99
477.28	6661.16
477.46	6698.61
477.64	6691.59
477.82	6616.69
478.00	6930.33
478.18	6911.60
478.36	6960.75
478.54	6939.69
478.72	7108.21
478.90	7061.40
479.08	7211.19
479.26	7466.31
479.44	7173.74
479.62	7140.97
479.80	7290.77
479.98	7225.23
480.16	7382.05
480.34	7414.82
480.52	7588.02
480.70	7489.71
480.88	7468.65
481.06	7679.30
481.24	7723.77
481.41	7620.78
481.59	7826.75
481.77	7943.78
481.95	7962.50
482.13	8079.53
482.31	7967.18
482.49	8250.39
482.67	8042.08
482.85	8250.39
483.03	8442.31
483.21	8402.52
483.39	8360.39
483.57	8475.08
483.74	8528.91
483.92	8734.88
484.10	8652.96
484.28	9018.08
484.46	9146.81
484.64	9163.20
484.82	8959.57
485.00	8884.67
485.18	9242.78
485.35	9493.21
485.53	9270.86
485.71	9408.95
485.89	9661.73
486.07	9687.48
486.25	9488.53
486.43	9689.82
486.61	9638.33
486.78	9769.40
486.96	9699.18
487.14	10001.11
487.32	9963.66
487.50	10057.28
487.68	10303.04
487.85	10164.95
488.03	10286.65
488.21	10490.28
488.39	10413.04
488.57	10752.42
488.75	10541.77
488.92	10930.30
489.10	10803.91
489.28	10813.28
489.46	11211.17
489.64	10817.96
489.81	11222.87
489.99	11180.74
490.17	11323.51
490.35	11466.28
490.53	11225.21
490.70	11515.44
490.88	11580.97
491.06	11805.66
491.24	11520.12
491.41	11887.58
491.59	11878.22
491.77	11864.18
491.95	12182.49
492.13	12152.06
492.30	12318.24
492.48	12163.76
492.66	12119.29
492.84	12229.30
493.01	12409.52
493.19	12418.88
493.37	12671.66
493.54	12765.28
493.72	12531.23
493.90	12863.58
494.08	12833.16
494.25	12996.99
494.43	13193.60
494.61	13043.81
494.79	13252.11
494.96	13207.64
495.14	13504.89
495.32	13540.00
495.49	13495.53
495.67	13612.56
495.85	13755.33
496.02	13830.23
496.20	13905.12
496.38	13970.66
496.55	14033.85
496.73	14286.63
496.91	13919.17
497.09	14291.31
497.26	14197.69
497.44	14031.51
497.62	14305.35
497.79	14450.47
497.97	14200.03
498.14	14745.38
498.32	14736.01
498.50	14618.99
498.67	14899.85
498.85	14881.13
499.03	14876.44
499.20	14717.29
499.38	14958.36
499.56	15241.57
499.73	15159.65
499.91	15236.89
500.08	15307.10
500.26	15201.78
500.44	15454.56
500.61	15520.09
500.79	15604.35
500.97	15613.71
501.14	15927.35
501.32	15826.70
501.49	15653.50
501.67	15765.85
501.84	15777.55
502.02	15812.66
502.20	16201.19
502.37	16027.99
502.55	16102.89
502.72	16123.95
502.90	16030.33
503.07	16116.93
503.25	16449.28
503.43	16035.01
503.60	16217.57
503.78	16587.38
503.95	16692.70
504.13	16463.33
504.30	16404.81
504.48	16238.64
504.65	16559.29
504.83	16957.18
505.01	16922.07
505.18	16762.92
505.36	17130.38
505.53	16940.80
505.71	17128.04
505.88	17043.78
506.06	17029.74
506.23	17235.70
506.41	17256.77
506.58	17444.01
506.76	17212.30
506.93	17521.25
507.11	17490.82
507.28	17352.73
507.46	17689.77
507.63	17621.89
507.81	17886.37
507.98	17528.27
508.16	17797.43
508.33	17832.54
508.50	17851.27
508.68	17853.61
508.85	17804.46
509.03	17825.52
509.20	18146.17
509.38	18352.14
509.55	18148.51
509.73	18253.84
509.90	18352.14
510.08	18326.39
510.25	18450.44
510.42	18780.46
510.60	18469.17
510.77	18391.93
510.95	18735.99
511.12	18586.19
511.30	18618.96
511.47	18822.59
511.64	18876.42
511.82	19115.16
511.99	18906.85
512.17	19082.39
512.34	19000.47
512.51	18984.09
512.69	19232.18
512.86	18937.27
513.04	19201.76
513.21	19218.14
513.38	19548.15
513.56	19452.19
513.73	19737.74
513.90	19288.35
514.08	19281.33
514.25	19651.14
514.43	19609.01
514.60	19625.39
514.77	19721.35
514.95	19695.61
515.12	19599.65
515.29	19695.61
515.47	19924.98
515.64	20009.24
515.81	20077.12
515.99	20109.88
516.16	20152.01
516.33	19999.88
516.51	20276.06
516.68	19995.20
516.85	20210.53
517.03	20259.68
517.20	20430.54
517.37	20613.10
517.54	20421.17
517.72	20428.20
517.89	20451.60
518.06	20650.55
518.24	20615.44
518.41	20486.71
518.58	20568.63
518.75	20746.51
518.93	20718.42
519.10	20657.57
519.27	20978.22
519.45	21132.70
519.62	21085.89
519.79	21071.84
519.96	21071.84
520.14	21181.85
520.31	21191.21
520.48	21341.00
520.65	21198.23
520.83	21247.38
521.00	21139.72
521.17	21310.58
521.34	21289.51
521.52	21504.84
521.69	21467.39
521.86	21722.51
522.03	21469.73
522.20	21504.84
522.38	21844.22
522.55	21429.94
522.72	21804.43
522.89	21748.26
523.07	22246.79
523.24	21888.69
523.41	22008.06
523.58	21790.39
523.75	22061.89
523.92	22024.44
524.10	22251.47
524.27	21942.52
524.44	22485.53
524.61	22389.56
524.78	22272.54
524.96	22380.20
525.13	22359.14
525.30	22733.62
525.47	22595.53
525.64	22537.02
525.81	22773.41
525.98	22780.43
526.16	22644.68
526.33	22672.77
526.50	22775.75
526.67	22820.22
526.84	22759.37
527.01	22803.84
527.18	22834.27
527.36	22817.88
527.53	22979.38
527.70	23264.92
527.87	22965.34
528.04	23075.34
528.21	23307.05
528.38	23110.45
528.55	23421.74
528.72	22925.55
528.89	23211.09
529.07	23431.10
529.24	23342.16
529.41	23431.10
529.58	23398.34
529.75	23531.75
529.92	23431.10
530.09	23527.06
530.26	23314.08
530.43	23728.35
530.60	23585.58
530.77	23398.34
530.94	23459.19
531.11	23503.66
531.28	23569.19
531.46	23662.82
531.63	23510.68
531.80	24086.45
531.97	24072.41
532.14	24224.54
532.31	23730.69
532.48	23931.98
532.65	24056.03
532.82	23990.49
532.99	24020.92
533.16	24056.03
533.33	24156.67
533.50	24641.16
533.67	24346.25
533.84	23992.83
534.01	24084.11
534.18	24247.95
534.35	24451.58
534.52	24477.32
534.69	24500.73
534.86	24592.01
535.03	24465.62
535.20	24467.96
535.37	24662.22
535.54	24519.45
535.71	24643.50
535.88	24793.29
536.05	24746.48
536.22	24915.00
536.38	24723.08
536.55	24620.10
536.72	25010.96
536.89	24645.84
537.06	24767.55
537.23	25216.93
537.40	25069.48
537.57	25233.32
537.74	25146.72
537.91	25123.31
538.08	25123.31
538.25	24856.49
538.42	25125.65
538.59	25104.59
538.75	25102.25
538.92	24996.92
539.09	25378.43
539.26	25177.14
539.43	25532.90
539.60	25591.42
539.77	25291.83
539.94	25490.77
540.11	25411.20
540.28	25434.60
540.44	25556.31
540.61	25153.74
540.78	25502.48
540.95	25663.97
541.12	25783.34
541.29	25785.68
541.46	25710.78
541.62	25467.37
541.79	25788.02
541.96	25256.72
542.13	25495.46
542.30	25565.67
542.47	26038.46
542.63	25671.00
542.80	26125.06
542.97	26579.12
543.14	26155.49
543.31	25811.43
543.48	26005.69
543.64	26153.15
543.81	26574.44
543.98	26171.87
544.15	26246.77
544.32	26693.81
544.48	26782.75
544.65	26534.65
544.82	26518.27
544.99	26181.23
545.16	26223.36
545.32	26623.59
545.49	26761.69
545.66	26632.96
545.83	26731.26
546.00	26939.57
546.16	26675.09
546.33	26719.56
546.50	26274.85
546.67	26600.19
546.83	26576.78
547.00	26768.71
547.17	26628.27
547.34	26728.92
547.50	26630.62
547.67	27325.75
547.84	26806.16
548.00	26974.67
548.17	27108.08
548.34	27115.11
548.51	27316.39
548.67	27267.24
548.84	26817.86
549.01	26768.71
549.18	27035.53
549.34	27112.77
549.51	26904.46
549.68	27248.52
549.84	27391.29
550.01	27129.15
550.18	26927.86
550.34	27204.05
550.51	27295.33
550.68	27358.52
550.84	26995.74
551.01	27307.03
551.18	27379.59
551.34	27002.76
551.51	27133.83
551.68	27398.31
551.84	27775.14
552.01	27515.34
552.18	27302.35
552.34	27515.34
552.51	27445.12
552.68	27412.35
552.84	27606.62
553.01	27814.93
553.18	27435.76
553.34	27580.87
553.51	27328.10
553.67	27552.79
553.84	27950.68
554.01	27894.50
554.17	27569.17
554.34	27728.33
554.51	27927.27
554.67	27934.29
554.84	27688.54
555.00	27807.90
555.17	28027.92
555.33	27878.12
555.50	27960.04
555.67	27901.53
555.83	28301.76
556.00	27826.63
556.16	27964.72
556.33	27955.36
556.50	28189.41
556.66	28650.50
556.83	28027.92
556.99	28254.95
557.16	28381.34
557.32	28219.84
557.49	28091.11
557.65	27948.34
557.82	28175.37
557.98	28472.62
558.15	28519.43
558.32	28393.04
558.48	28306.44
558.65	28603.69
558.81	28325.16
558.98	28161.33
559.14	28528.79
559.31	28362.61
559.47	28374.31
559.64	28320.48
559.80	28383.68
559.97	28510.07
560.13	28397.72
560.30	28510.07
560.46	28334.53
560.63	28652.84
560.79	28481.98
560.96	28615.39
561.12	28379.00
561.29	28374.31
561.45	28503.04
561.61	28716.03
561.78	28800.29
561.94	28678.58
562.11	28540.49
562.27	28793.27
562.44	28673.90
562.60	28500.70
562.77	29053.07
562.93	28760.50
563.10	28854.12
563.26	28706.67
563.42	29326.91
563.59	28814.34
563.75	29034.35
563.92	28716.03
564.08	28847.10
564.24	29202.86
564.41	28561.56
564.57	28973.49
564.74	28868.17
564.90	29097.54
565.07	29118.60
565.23	28978.17
565.39	29106.90
565.56	29200.52
565.72	29095.20
565.88	29174.78
566.05	29104.56
566.21	29312.87
566.38	28790.93
566.54	28947.75
566.70	29125.63
566.87	28893.91
567.03	28819.02
567.19	29310.53
567.36	29493.09
567.52	29256.70
567.68	29226.27
567.85	29076.48
568.01	29060.09
568.17	29053.07
568.34	29165.42
568.50	29022.64
568.66	29167.76
568.83	29448.62
568.99	29413.51
569.15	29163.08
569.32	29202.86
569.48	28975.83
569.64	29308.19
569.81	29397.13
569.97	29237.97
570.13	29439.26
570.30	29352.66
570.46	29387.77
570.62	28933.70
570.78	29153.71
570.95	29275.42
571.11	29441.60
571.27	28973.49
571.43	29137.33
571.60	29474.37
571.76	29046.05
571.92	28966.47
572.09	29268.40
572.25	29600.76
572.41	29790.34
572.57	29654.59
572.74	29081.16
572.90	28898.59
573.06	29092.86
573.22	29448.62
573.38	29352.66
573.55	29069.45
573.71	29472.03
573.87	29619.48
574.03	29134.99
574.20	29483.73
574.36	29558.63
574.52	29474.37
574.68	29259.04
574.84	29570.33
575.01	29432.24
575.17	29350.32
575.33	29645.23
575.49	29163.08
575.65	29338.62
575.82	29708.42
575.98	29436.92
576.14	29825.45
576.30	29795.02
576.46	29481.39
576.62	29347.98
576.79	29273.08
576.95	29233.29
577.11	29195.84
577.27	29474.37
577.43	29441.60
577.59	29427.56
577.75	29654.59
577.92	29476.71
578.08	29530.54
578.24	29439.26
578.40	29666.29
578.56	29542.24
578.72	29362.02
578.88	29722.46
579.04	29420.53
579.21	29287.12
579.37	29788.00
579.53	29696.72
579.69	29158.39
579.85	29518.84
580.01	29663.95
580.17	29350.32
580.33	29553.94
580.49	29521.18
580.65	30038.44
580.82	29797.36
580.98	29912.05
581.14	29366.70
581.30	29699.06
581.46	29640.54
581.62	29420.53
581.78	29081.16
581.94	29549.26
582.10	29670.97
582.26	29476.71
582.42	29600.76
582.58	29778.64
582.74	29811.40
582.90	29668.63
583.06	29443.94
583.22	29752.89
583.38	29827.79
583.54	29614.80
583.70	29228.61
583.86	29820.77
584.02	29792.68
584.18	29806.72
584.34	29886.30
584.50	29486.07
584.66	29898.00
584.82	29450.96
584.98	29647.57
585.14	29696.72
585.30	29553.94
585.46	29364.36
585.62	29544.58
585.78	29802.04
585.94	29460.32
586.10	29776.30
586.26	29593.73
586.42	29942.47
586.58	29998.65
586.74	29769.27
586.90	29788.00
587.06	29668.63
587.22	29598.41
587.38	29972.90
587.54	30110.99
587.70	29895.66
587.86	29455.64
588.02	29617.14
588.18	30277.17
588.34	30031.41
588.49	30108.65
588.65	29872.26
588.81	29811.40
588.97	29986.94
589.13	29883.96
589.29	29748.21
589.45	29816.08
589.61	29977.58
589.77	30080.56
589.93	30195.25
590.08	29921.41
590.24	30457.39
590.40	29923.75
590.56	30134.40
590.72	29989.28
590.88	29575.01
591.04	29909.71
591.20	30005.67
591.35	30003.33
591.51	30157.80
591.67	30569.74
591.83	30040.78
591.99	30417.60
