SpectraSuite Data File
++++++++++++++++++++++++++++++++++++
Date: Fri Oct 18 13:58:32 GMT-05:00 2013
User: bianchi
Dark Spectrum Present: No
Reference Spectrum Present: No
Number of Sampled Component Spectra: 1
Spectrometers: USB2+H05261
Integration Time (usec): 50000 (USB2+H05261)
Spectra Averaged: 1 (USB2+H05261)
Boxcar Smoothing: 0 (USB2+H05261)
Correct for Electrical Dark: No (USB2+H05261)
Strobe/Lamp Enabled: No (USB2+H05261)
Correct for Detector Non-linearity: No (USB2+H05261)
Correct for Stray Light: No (USB2+H05261)
Number of Pixels in Processed Spectrum: 2048
>>>>>Begin Processed Spectral Data<<<<<
365.73	0.00
365.92	0.00
366.12	0.00
366.32	0.00
366.52	0.00
366.72	0.00
366.91	0.00
367.11	0.00
367.31	0.00
367.51	0.00
367.70	0.00
367.90	0.00
368.10	0.00
368.30	0.00
368.49	0.00
368.69	0.00
368.89	0.00
369.09	0.00
369.28	0.00
369.48	0.00
369.68	0.00
369.87	0.00
370.07	0.00
370.27	0.00
370.47	0.00
370.66	46.81
370.86	58.51
371.06	100.64
371.25	93.62
371.45	173.20
371.65	126.39
371.84	112.35
372.04	131.07
372.24	203.63
372.44	217.67
372.63	189.58
372.83	189.58
373.03	201.29
373.22	163.84
373.42	196.60
373.62	177.88
373.81	205.97
374.01	163.84
374.21	196.60
374.40	227.03
374.60	154.48
374.79	212.99
374.99	182.56
375.19	248.10
375.38	255.12
375.58	196.60
375.78	250.44
375.97	332.36
376.17	308.95
376.37	198.95
376.56	241.08
376.76	210.65
376.95	276.18
377.15	341.72
377.35	297.25
377.54	292.57
377.74	259.80
377.93	229.37
378.13	262.14
378.33	273.84
378.52	299.59
378.72	306.61
378.91	299.59
379.11	245.76
379.31	189.58
379.50	271.50
379.70	241.08
379.89	327.68
380.09	269.16
380.28	337.04
380.48	327.68
380.68	280.86
380.87	227.03
381.07	337.04
381.26	362.78
381.46	276.18
381.65	379.17
381.85	388.53
382.04	311.29
382.24	313.63
382.43	264.48
382.63	414.27
382.83	355.76
383.02	360.44
383.22	409.59
383.41	337.04
383.61	386.19
383.80	437.68
384.00	416.62
384.19	325.33
384.39	339.38
384.58	369.80
384.78	341.72
384.97	379.17
385.17	273.84
385.36	353.42
385.56	383.85
385.75	337.04
385.95	355.76
386.14	374.49
386.34	386.19
386.53	407.25
386.72	297.25
386.92	383.85
387.11	322.99
387.31	395.55
387.50	430.66
387.70	484.49
387.89	409.59
388.09	409.59
388.28	407.25
388.48	477.47
388.67	470.45
388.86	435.34
389.06	430.66
389.25	458.74
389.45	503.22
389.64	437.68
389.84	493.85
390.03	491.51
390.22	475.13
390.42	423.64
390.61	533.64
390.81	503.22
391.00	486.83
391.19	498.53
391.39	458.74
391.58	458.74
391.78	418.96
391.97	479.81
392.16	470.45
392.36	587.47
392.55	500.87
392.75	528.96
392.94	498.53
393.13	526.62
393.33	552.37
393.52	580.45
393.71	580.45
393.91	624.92
394.10	638.97
394.29	587.47
394.49	582.79
394.68	566.41
394.88	585.13
395.07	606.20
395.26	573.43
395.46	568.75
395.65	622.58
395.84	653.01
396.04	634.29
396.23	638.97
396.42	606.20
396.62	690.46
396.81	638.97
397.00	657.69
397.19	580.45
397.39	613.22
397.58	683.44
397.77	664.71
397.97	627.26
398.16	713.86
398.35	608.54
398.55	678.76
398.74	674.07
398.93	774.72
399.12	709.18
399.32	713.86
399.51	585.13
399.70	809.83
399.90	744.29
400.09	819.19
400.28	774.72
400.47	739.61
400.67	730.25
400.86	828.55
401.05	730.25
401.24	709.18
401.44	849.61
401.63	830.89
401.82	784.08
402.01	772.38
402.21	732.59
402.40	751.31
402.59	835.57
402.78	805.14
402.97	863.66
403.17	861.32
403.36	793.44
403.55	894.08
403.74	922.17
403.93	844.93
404.13	849.61
404.32	950.26
404.51	842.59
404.70	992.39
404.89	903.45
405.09	966.64
405.28	943.24
405.47	926.85
405.66	931.53
405.85	854.30
406.05	926.85
406.24	985.37
406.43	1018.13
406.62	1029.84
406.81	1053.24
407.00	915.15
407.20	1167.93
407.39	990.05
407.58	1013.45
407.77	1111.75
407.96	1067.28
408.15	1046.22
408.34	1064.94
408.54	1076.65
408.73	1032.18
408.92	1057.92
409.11	1109.41
409.30	1067.28
409.49	1198.35
409.68	1128.14
409.87	1156.22
410.07	1050.90
410.26	1212.40
410.45	1184.31
410.64	1146.86
410.83	1235.80
411.02	1142.18
411.21	1270.91
411.40	1313.04
411.59	1198.35
411.78	1277.93
411.98	1188.99
412.17	1282.61
412.36	1284.95
412.55	1303.68
412.74	1235.80
412.93	1331.76
413.12	1317.72
413.31	1376.24
413.50	1462.83
413.69	1327.08
413.88	1441.77
414.07	1359.85
414.26	1469.86
414.45	1481.56
414.64	1383.26
414.83	1523.69
415.02	1465.18
415.22	1568.16
415.41	1600.93
415.60	1453.47
415.79	1507.30
415.98	1570.50
416.17	1472.20
416.36	1643.06
416.55	1682.85
416.74	1626.67
416.93	1626.67
417.12	1593.90
417.31	1626.67
417.50	1629.01
417.69	1696.89
417.88	1715.61
418.07	1710.93
418.26	1774.13
418.45	1636.03
418.64	1902.86
418.83	1799.87
419.02	1699.23
419.21	1790.51
419.39	1872.43
419.58	1863.07
419.77	1764.76
419.96	1776.47
420.15	1832.64
420.34	1694.55
420.53	1853.70
420.72	1937.96
420.91	1872.43
421.10	1973.07
421.29	1949.67
421.48	1926.26
421.67	1825.62
421.86	1900.52
422.05	1905.20
422.24	1923.92
422.43	1961.37
422.61	2015.20
422.80	2033.93
422.99	1870.09
423.18	1947.33
423.37	1914.56
423.56	2106.48
423.75	1970.73
423.94	1926.26
424.13	1907.54
424.32	1886.47
424.50	1954.35
424.69	2015.20
424.88	2090.10
425.07	1949.67
425.26	2024.56
425.45	2010.52
425.64	2038.61
425.83	1952.01
426.01	2153.29
426.20	1942.64
426.39	2085.42
426.58	1942.64
426.77	2127.55
426.96	2050.31
427.15	1998.82
427.33	2113.50
427.52	2305.43
427.71	2165.00
427.90	2008.18
428.09	2139.25
428.28	2174.36
428.46	2263.30
428.65	2174.36
428.84	2197.76
429.03	2279.68
429.22	2242.23
429.40	2225.85
429.59	2244.57
429.78	2169.68
429.97	2099.46
430.16	2174.36
430.34	2195.42
430.53	2382.67
430.72	2415.43
430.91	2225.85
431.10	2244.57
431.28	2359.26
431.47	2246.91
431.66	2429.48
431.85	2237.55
432.03	2326.49
432.22	2349.90
432.41	2272.66
432.60	2466.92
432.79	2431.82
432.97	2385.01
433.16	2487.99
433.35	2410.75
433.54	2537.14
433.72	2551.18
433.91	2464.58
434.10	2345.22
434.28	2431.82
434.47	2581.61
434.66	2635.44
434.85	2520.76
435.03	2572.25
435.22	2551.18
435.41	2644.81
435.59	2616.72
435.78	2574.59
435.97	2703.32
436.16	2597.99
436.34	2511.39
436.53	2558.21
436.72	2668.21
436.90	2677.57
437.09	2614.38
437.28	2663.53
437.46	2761.83
437.65	2705.66
437.84	2766.51
438.02	2782.90
438.21	2750.13
438.40	2794.60
438.58	2925.67
438.77	2846.09
438.96	2803.96
439.14	2939.71
439.33	2825.03
439.52	2949.08
439.70	2869.50
439.89	2808.64
440.08	3026.31
440.26	2864.82
440.45	3061.42
440.63	2967.80
440.82	3038.02
441.01	2967.80
441.19	3133.98
441.38	3187.81
441.57	3033.33
441.75	3178.45
441.94	3183.13
442.12	3276.75
442.31	3349.31
442.50	3089.51
442.68	3255.69
442.87	3218.24
443.05	3339.94
443.24	3382.07
443.43	3323.56
443.61	3328.24
443.80	3494.42
443.98	3328.24
444.17	3279.09
444.35	3332.92
444.54	3412.50
444.73	3288.45
444.91	3382.07
445.10	3445.27
445.28	3351.65
445.47	3255.69
445.65	3489.74
445.84	3503.78
446.02	3335.26
446.21	3407.82
446.39	3365.69
446.58	3428.88
446.77	3449.95
446.95	3330.58
447.14	3363.35
447.32	3433.57
447.51	3314.20
447.69	3501.44
447.88	3452.29
448.06	3478.04
448.25	3417.18
448.43	3503.78
448.62	3552.93
448.80	3478.04
448.99	3449.95
449.17	3557.61
449.36	3538.89
449.54	3632.51
449.73	3688.68
449.91	3644.21
450.10	3644.21
450.28	3660.60
450.46	3639.53
450.65	3625.49
450.83	3906.35
451.02	3627.83
451.20	3815.07
451.39	3749.54
451.57	3681.66
451.76	3761.24
451.94	3726.13
452.13	3894.65
452.31	3880.61
452.49	3878.27
452.68	3861.88
452.86	3805.71
453.05	3833.80
453.23	3936.78
453.42	3801.03
453.60	3918.06
453.78	3875.93
453.97	3733.15
454.15	3833.80
454.34	3873.59
454.52	3967.21
454.70	3915.72
454.89	4046.79
455.07	3915.72
455.26	4039.76
455.44	3880.61
455.62	4131.05
455.81	4044.45
455.99	4079.55
456.17	4117.00
456.36	4212.96
456.54	4114.66
456.73	4133.39
456.91	4395.53
457.09	4156.79
457.28	4409.57
457.46	4198.92
457.64	4372.12
457.83	4208.28
458.01	4255.09
458.19	4329.99
458.38	4337.01
458.56	4521.92
458.74	4360.42
458.93	4355.74
459.11	4353.40
459.29	4234.03
459.48	4390.84
459.66	4280.84
459.84	4409.57
460.03	4538.30
460.21	4540.64
460.39	4503.19
460.57	4348.72
460.76	4652.98
460.94	4725.54
461.12	4531.28
461.31	4493.83
461.49	4519.57
461.67	4559.36
461.85	4704.48
462.04	4601.49
462.22	4809.80
462.40	4732.56
462.59	4638.94
462.77	4676.39
462.95	4650.64
463.13	4765.33
463.32	4812.14
463.50	4760.65
463.68	4830.87
463.86	4678.73
464.05	4592.13
464.23	4765.33
464.41	4875.34
464.59	4704.48
464.78	4821.50
464.96	4870.65
465.14	4767.67
465.32	4837.89
465.50	4870.65
465.69	4987.68
465.87	4807.46
466.05	4873.00
466.23	4891.72
466.41	4950.23
466.60	5193.65
466.78	5078.96
466.96	5046.20
467.14	4978.32
467.32	4957.25
467.51	5118.75
467.69	5085.98
467.87	5214.71
468.05	5111.73
468.23	5036.83
468.41	5008.75
468.60	5053.22
468.78	5151.52
468.96	5252.16
469.14	5095.35
469.32	5357.49
469.50	5093.01
469.69	5298.97
469.87	5352.81
470.05	5357.49
470.23	5458.13
470.41	5245.14
470.59	5603.24
470.77	5266.21
470.95	5628.99
471.14	5617.29
471.32	5313.02
471.50	5645.37
471.68	5514.30
471.86	5399.62
472.04	5380.89
472.22	5671.12
472.40	5657.07
472.58	5654.73
472.77	5687.50
472.95	5806.87
473.13	5792.83
473.31	5626.65
473.49	5661.76
473.67	5647.71
473.85	5689.84
474.03	5834.96
474.21	5804.53
474.39	6038.58
474.57	6019.86
474.75	6094.76
474.93	6101.78
475.12	5959.00
475.30	6003.47
475.48	6057.31
475.66	6204.76
475.84	6399.02
476.02	6218.80
476.20	6380.30
476.38	6347.53
476.56	6359.24
476.74	6417.75
476.92	6553.50
477.10	6434.13
477.28	6436.47
477.46	6445.84
477.64	6511.37
477.82	6846.07
478.00	6771.17
478.18	6960.75
478.36	6876.49
478.54	6932.67
478.72	7005.22
478.90	7021.61
479.08	7169.06
479.26	6970.12
479.44	7185.44
479.62	7105.87
479.80	7375.03
479.98	7398.43
480.16	7265.02
480.34	7414.82
480.52	7513.12
480.70	7548.23
480.88	7620.78
481.06	7620.78
481.24	7576.31
481.41	7702.70
481.59	7604.40
481.77	7700.36
481.95	7770.58
482.13	7953.14
482.31	7779.94
482.49	7981.23
482.67	8145.06
482.85	8013.99
483.03	8594.45
483.21	8507.85
483.39	8465.72
483.57	8458.70
483.74	8613.17
483.92	8496.14
484.10	8353.37
484.28	8875.31
484.46	8835.52
484.64	9100.00
484.82	8959.57
485.00	9053.19
485.18	9170.22
485.35	9451.08
485.53	9252.14
485.71	9320.01
485.89	9614.92
486.07	9451.08
486.25	9523.64
486.43	9392.57
486.61	9675.77
486.78	9703.86
486.96	9879.40
487.14	9958.98
487.32	9818.55
487.50	9984.73
487.68	10111.11
487.85	10188.35
488.03	10406.02
488.21	10434.11
488.39	10450.49
488.57	10637.73
488.75	10380.28
488.92	10541.77
489.10	10677.52
489.28	10691.57
489.46	11169.04
489.64	10829.66
489.81	10829.66
489.99	11117.54
490.17	11225.21
490.35	11136.27
490.53	11328.19
490.70	11485.01
490.88	11536.50
491.06	11520.12
491.24	11606.72
491.41	11728.42
491.59	11552.88
491.77	11660.55
491.95	11775.24
492.13	12088.87
492.30	12131.00
492.48	11934.39
492.66	12215.26
492.84	12402.50
493.01	12388.46
493.19	12688.04
493.37	12608.47
493.54	12641.23
493.72	12484.42
493.90	12645.91
494.08	12929.12
494.25	12987.63
494.43	12882.31
494.61	13160.83
494.79	13135.09
494.96	12982.95
495.14	13453.40
495.32	13626.60
495.49	13635.96
495.67	13638.30
495.85	13752.99
496.02	13558.72
496.20	13474.46
496.38	13884.06
496.55	13832.57
496.73	14061.94
496.91	13991.72
497.09	14008.11
497.26	14111.09
497.44	14047.90
497.62	14099.39
497.79	14218.75
497.97	14567.49
498.14	14452.81
498.32	14387.27
498.50	14773.46
498.67	14953.68
498.85	14895.17
499.03	14721.97
499.20	14932.62
499.38	14759.42
499.56	14775.80
499.73	15082.41
499.91	15140.93
500.08	15199.44
500.26	15014.54
500.44	15274.34
500.61	15136.24
500.79	15183.06
500.97	15482.64
501.14	15517.75
501.32	15861.81
501.49	15484.98
501.67	15634.78
501.84	15669.89
502.02	15667.55
502.20	15859.47
502.37	15990.54
502.55	15850.11
502.72	15943.73
502.90	16006.92
503.07	16313.53
503.25	15969.48
503.43	16046.71
503.60	16093.52
503.78	16456.31
503.95	16505.46
504.13	16355.66
504.30	16521.84
504.48	16400.13
504.65	16217.57
504.83	16360.34
505.01	17102.29
505.18	16498.44
505.36	16994.63
505.53	16739.51
505.71	16610.78
505.88	16676.32
506.06	16837.81
506.23	17146.76
506.41	17282.52
506.58	16999.31
506.76	17373.80
506.93	17202.94
507.11	17296.56
507.28	17359.75
507.46	17350.39
507.63	17425.29
507.81	17493.16
507.98	17530.61
508.16	17554.02
508.33	17399.54
508.50	17518.91
508.68	17774.03
508.85	17919.14
509.03	17865.31
509.20	18005.74
509.38	18284.26
509.55	18097.02
509.73	18106.38
509.90	17851.27
510.08	17942.55
510.25	18200.01
510.42	18064.25
510.60	18391.93
510.77	18228.09
510.95	18546.40
511.12	18113.41
511.30	18223.41
511.47	18611.94
511.64	18555.77
511.82	19129.20
511.99	18850.67
512.17	19239.20
512.34	18476.19
512.51	18691.52
512.69	19021.53
512.86	18888.12
513.04	18869.40
513.21	19204.10
513.38	19035.58
513.56	19215.80
513.73	19339.85
513.90	19117.50
514.08	19295.38
514.25	19417.08
514.43	19358.57
514.60	19583.26
514.77	19449.85
514.95	19548.15
515.12	19557.52
515.29	19690.93
515.47	19737.74
515.64	19651.14
515.81	19749.44
515.99	19896.89
516.16	20060.73
516.33	19995.20
516.51	20135.63
516.68	19903.92
516.85	19704.97
517.03	20175.42
517.20	20203.50
517.37	20245.63
517.54	20175.42
517.72	20343.94
517.89	20334.57
518.06	20180.10
518.24	20442.24
518.41	20425.86
518.58	20074.77
518.75	20381.38
518.93	20776.94
519.10	20430.54
519.27	20760.55
519.45	20273.72
519.62	20666.93
519.79	20601.40
519.96	21074.18
520.14	21366.75
520.31	20716.08
520.48	21055.46
520.65	20879.92
520.83	21067.16
521.00	21326.96
521.17	21383.13
521.34	21352.71
521.52	21406.54
521.69	21373.77
521.86	21631.23
522.03	21214.62
522.20	21851.24
522.38	21923.80
522.55	21678.04
522.72	21406.54
522.89	21724.85
523.07	21734.21
523.24	21640.59
523.41	21905.07
523.58	21722.51
523.75	21666.34
523.92	21750.60
524.10	22221.05
524.27	21745.92
524.44	22202.32
524.61	22361.48
524.78	22719.58
524.96	22204.66
525.13	21963.59
525.30	22031.46
525.47	22338.07
525.64	22307.65
525.81	22506.59
525.98	22520.63
526.16	22089.98
526.33	22431.69
526.50	22452.76
526.67	22183.60
526.84	22745.33
527.01	22445.74
527.18	22480.85
527.36	22642.34
527.53	22707.88
527.70	23129.17
527.87	22979.38
528.04	23208.75
528.21	22721.92
528.38	22602.55
528.55	22904.48
528.72	23002.78
528.89	23068.32
529.07	23297.69
529.24	22913.84
529.41	23332.80
529.58	23051.94
529.75	23115.13
529.92	23644.09
530.09	23229.82
530.26	23438.12
530.43	23297.69
530.60	23037.89
530.77	23253.22
530.94	23510.68
531.11	23185.35
531.28	23159.60
531.46	23405.36
531.63	23833.68
531.80	23819.63
531.97	24084.11
532.14	23885.17
532.31	23702.61
532.48	24016.24
532.65	23962.40
532.82	23562.17
532.99	23679.20
533.16	23653.45
533.33	23861.76
533.50	24201.14
533.67	24191.78
533.84	24039.64
534.01	23845.38
534.18	23828.99
534.35	24114.54
534.52	23957.72
534.69	24093.47
534.86	24095.82
535.03	24496.05
535.20	24123.90
535.37	24180.07
535.54	24430.51
535.71	23983.47
535.88	24173.05
536.05	24372.00
536.22	24856.49
536.38	24423.49
536.55	24673.93
536.72	24709.04
536.89	24608.39
537.06	24463.28
537.23	24765.21
537.40	24739.46
537.57	24610.73
537.74	24919.68
537.91	24814.36
538.08	24915.00
538.25	24865.85
538.42	24992.24
538.59	24882.24
538.75	24643.50
538.92	24840.11
539.09	25230.98
539.26	24723.08
539.43	24999.26
539.60	25193.53
539.77	25359.70
539.94	24882.24
540.11	25139.69
540.28	25013.31
540.44	24959.47
540.61	25064.80
540.78	25348.00
540.95	25308.21
541.12	25390.13
541.29	25280.13
541.46	25315.23
541.62	25137.35
541.79	25291.83
541.96	25029.69
542.13	25663.97
542.30	26054.84
542.47	25921.43
542.63	25692.06
542.80	25771.64
542.97	26064.21
543.14	26298.26
543.31	25743.55
543.48	25919.09
543.64	26185.91
543.81	26324.01
543.98	26040.80
544.15	25991.65
544.32	26415.29
544.48	26555.72
544.65	26164.85
544.82	25926.11
544.99	26026.76
545.16	26211.66
545.32	25811.43
545.49	26232.72
545.66	26384.86
545.83	26635.30
546.00	26492.52
546.16	26476.14
546.33	26321.66
546.50	25972.92
546.67	26008.03
546.83	26089.95
547.00	26567.42
547.17	26260.81
547.34	26593.17
547.50	26862.33
547.67	27077.66
547.84	26679.77
548.00	26422.31
548.17	26679.77
548.34	26424.65
548.51	26890.41
548.67	27000.42
548.84	26768.71
549.01	26628.27
549.18	26703.17
549.34	26958.29
549.51	26609.55
549.68	27007.44
549.84	26434.01
550.01	26630.62
550.18	26829.56
550.34	27021.48
550.51	27072.98
550.68	27007.44
550.84	26567.42
551.01	27014.46
551.18	27122.13
551.34	27197.02
551.51	27274.26
551.68	27262.56
551.84	27442.78
552.01	26909.14
552.18	27442.78
552.34	27105.74
552.51	27311.71
552.68	27082.34
552.84	27328.10
553.01	27419.38
553.18	27339.80
553.34	27466.19
553.51	27398.31
553.67	27695.56
553.84	27648.75
554.01	27295.33
554.17	27463.85
554.34	27494.27
554.51	27613.64
554.67	27524.70
554.84	27452.14
555.00	27735.35
555.17	27381.93
555.33	27576.19
555.50	27534.06
555.67	27627.68
555.83	27346.82
556.00	27527.04
556.16	28016.21
556.33	27882.80
556.50	28051.32
556.66	28002.17
556.83	28086.43
556.99	28077.07
557.16	28503.04
557.32	28009.19
557.49	27901.53
557.65	27800.88
557.82	28252.61
557.98	27718.96
558.15	28182.39
558.32	27875.78
558.48	28086.43
558.65	28343.89
558.81	27908.55
558.98	28374.31
559.14	28393.04
559.31	27924.93
559.47	27871.10
559.64	28608.37
559.80	28070.04
559.97	28086.43
560.13	27974.08
560.30	28638.80
560.46	28240.90
560.63	28212.82
560.79	28271.33
560.96	28512.41
561.12	28376.66
561.29	28217.50
561.45	28240.90
561.61	28458.57
561.78	28467.94
561.94	28580.28
562.11	28526.45
562.27	28264.31
562.44	28477.30
562.60	28655.18
562.77	28671.56
562.93	28166.01
563.10	28896.25
563.26	28411.76
563.42	28837.74
563.59	28987.53
563.75	28556.88
563.92	28493.68
564.08	28542.83
564.24	28481.98
564.41	28320.48
564.57	28428.15
564.74	28645.82
564.90	28811.99
565.07	28552.20
565.23	28753.48
565.39	28802.63
565.56	28912.64
565.72	28493.68
565.88	28982.85
566.05	28954.77
566.21	28837.74
566.38	28694.97
566.54	28685.61
566.70	28793.27
566.87	29266.06
567.03	29008.60
567.19	29282.44
567.36	29008.60
567.52	28802.63
567.68	29385.43
567.85	29001.58
568.01	28734.76
568.17	28629.43
568.34	28980.51
568.50	29050.73
568.66	28542.83
568.83	29142.01
568.99	29256.70
569.15	28732.42
569.32	28697.31
569.48	28701.99
569.64	29202.86
569.81	28889.23
569.97	29177.12
570.13	29193.50
570.30	29371.38
570.46	29244.99
570.62	29263.72
570.78	29013.28
570.95	28879.87
571.11	29139.67
571.27	29006.26
571.43	28741.78
571.60	29301.17
571.76	29275.42
571.92	29085.84
572.09	29401.81
572.25	28961.79
572.41	29132.65
572.57	29008.60
572.74	29174.78
572.90	28919.66
573.06	28992.22
573.22	29034.35
573.38	29003.92
573.55	29212.23
573.71	29371.38
573.87	29539.90
574.03	28957.11
574.20	29130.31
574.36	29153.71
574.52	29149.03
574.68	29134.99
574.84	29226.27
575.01	28996.90
575.17	29429.90
575.33	28994.56
575.49	29085.84
575.65	29167.76
575.82	29619.48
575.98	29329.25
576.14	29474.37
576.30	29097.54
576.46	28931.36
576.62	29315.21
576.79	29125.63
576.95	29233.29
577.11	29617.14
577.27	29188.82
577.43	29343.30
577.59	29448.62
577.75	29118.60
577.92	29181.80
578.08	29069.45
578.24	29343.30
578.40	29467.34
578.56	29104.56
578.72	29324.57
578.88	29460.32
579.04	29263.72
579.21	29553.94
579.37	29167.76
579.53	29333.93
579.69	29202.86
579.85	29195.84
580.01	29455.64
580.17	29188.82
580.33	29249.67
580.49	29151.37
580.65	29390.11
580.82	29439.26
580.98	29390.11
581.14	29593.73
581.30	29338.62
581.46	29394.79
581.62	29125.63
581.78	29015.62
581.94	29289.46
582.10	29312.87
582.26	29422.87
582.42	29345.64
582.58	29457.98
582.74	29308.19
582.90	29376.06
583.06	29736.51
583.22	29834.81
583.38	29546.92
583.54	29125.63
583.70	29486.07
583.86	29434.58
584.02	29237.97
584.18	29717.78
584.34	29486.07
584.50	29408.83
584.66	29537.56
584.82	29207.55
584.98	29443.94
585.14	29280.10
585.30	29266.06
585.46	29570.33
585.62	29448.62
585.78	29820.77
585.94	29448.62
586.10	29460.32
586.26	29465.00
586.42	29633.52
586.58	29490.75
586.74	29387.77
586.90	29567.99
587.06	29315.21
587.22	29355.00
587.38	29432.24
587.54	29759.91
587.70	29706.08
587.86	29516.50
588.02	29577.35
588.18	29692.04
588.34	29563.31
588.49	29825.45
588.65	29825.45
588.81	29441.60
588.97	29926.09
589.13	29769.27
589.29	29640.54
589.45	29448.62
589.61	29888.64
589.77	30216.32
589.93	29827.79
590.08	30068.86
590.24	29970.56
590.40	29848.85
590.56	29837.15
590.72	29638.20
590.88	29848.85
591.04	29699.06
591.20	29930.77
591.35	30270.15
591.51	30005.67
591.67	29898.00
591.83	29883.96
591.99	30110.99
