SpectraSuite Data File
++++++++++++++++++++++++++++++++++++
Date: Fri Oct 18 13:58:11 GMT-05:00 2013
User: bianchi
Dark Spectrum Present: No
Reference Spectrum Present: No
Number of Sampled Component Spectra: 1
Spectrometers: USB2+H05261
Integration Time (usec): 50000 (USB2+H05261)
Spectra Averaged: 1 (USB2+H05261)
Boxcar Smoothing: 0 (USB2+H05261)
Correct for Electrical Dark: No (USB2+H05261)
Strobe/Lamp Enabled: No (USB2+H05261)
Correct for Detector Non-linearity: No (USB2+H05261)
Correct for Stray Light: No (USB2+H05261)
Number of Pixels in Processed Spectrum: 2048
>>>>>Begin Processed Spectral Data<<<<<
365.73	0.00
365.92	0.00
366.12	0.00
366.32	0.00
366.52	0.00
366.72	0.00
366.91	0.00
367.11	0.00
367.31	0.00
367.51	0.00
367.70	0.00
367.90	0.00
368.10	0.00
368.30	0.00
368.49	0.00
368.69	0.00
368.89	0.00
369.09	0.00
369.28	0.00
369.48	0.00
369.68	0.00
369.87	0.00
370.07	0.00
370.27	0.00
370.47	0.00
370.66	102.98
370.86	145.11
371.06	124.05
371.25	156.82
371.45	142.77
371.65	161.50
371.84	187.24
372.04	149.79
372.24	152.13
372.44	191.92
372.63	182.56
372.83	227.03
373.03	173.20
373.22	196.60
373.42	142.77
373.62	180.22
373.81	278.52
374.01	217.67
374.21	229.37
374.40	250.44
374.60	236.39
374.79	252.78
374.99	250.44
375.19	297.25
375.38	276.18
375.58	217.67
375.78	290.23
375.97	292.57
376.17	224.69
376.37	297.25
376.56	259.80
376.76	280.86
376.95	238.73
377.15	250.44
377.35	304.27
377.54	259.80
377.74	212.99
377.93	322.99
378.13	322.99
378.33	285.55
378.52	259.80
378.72	299.59
378.91	283.20
379.11	283.20
379.31	306.61
379.50	318.31
379.70	313.63
379.89	320.65
380.09	297.25
380.28	301.93
380.48	358.10
380.68	332.36
380.87	287.89
381.07	304.27
381.26	299.59
381.46	332.36
381.65	351.08
381.85	381.51
382.04	348.74
382.24	325.33
382.43	311.29
382.63	252.78
382.83	334.70
383.02	407.25
383.22	330.02
383.41	325.33
383.61	372.15
383.80	475.13
384.00	386.19
384.19	344.06
384.39	447.04
384.58	393.21
384.78	440.02
384.97	372.15
385.17	402.57
385.36	386.19
385.56	376.83
385.75	360.44
385.95	437.68
386.14	355.76
386.34	435.34
386.53	418.96
386.72	414.27
386.92	402.57
387.11	482.15
387.31	449.38
387.50	437.68
387.70	367.46
387.89	454.06
388.09	447.04
388.28	435.34
388.48	451.72
388.67	454.06
388.86	484.49
389.06	414.27
389.25	397.89
389.45	451.72
389.64	500.87
389.84	444.70
390.03	564.07
390.22	442.36
390.42	393.21
390.61	472.79
390.81	554.71
391.00	421.30
391.19	475.13
391.39	575.77
391.58	519.60
391.78	472.79
391.97	566.41
392.16	587.47
392.36	521.94
392.55	596.84
392.75	566.41
392.94	631.94
393.13	524.28
393.33	543.00
393.52	500.87
393.71	550.03
393.91	606.20
394.10	557.05
394.29	503.22
394.49	631.94
394.68	624.92
394.88	653.01
395.07	573.43
395.26	559.39
395.46	617.90
395.65	566.41
395.84	671.73
396.04	643.65
396.23	594.50
396.42	641.31
396.62	709.18
396.81	624.92
397.00	676.41
397.19	610.88
397.39	624.92
397.58	695.14
397.77	737.27
397.97	772.38
398.16	758.33
398.35	709.18
398.55	688.12
398.74	777.06
398.93	755.99
399.12	744.29
399.32	734.93
399.51	732.59
399.70	727.91
399.90	809.83
400.09	791.10
400.28	823.87
400.47	833.23
400.67	755.99
400.86	798.12
401.05	741.95
401.24	847.27
401.44	901.11
401.63	774.72
401.82	837.91
402.01	786.42
402.21	819.19
402.40	842.59
402.59	866.00
402.78	877.70
402.97	849.61
403.17	917.49
403.36	842.59
403.55	910.47
403.74	936.21
403.93	987.71
404.13	894.08
404.32	922.17
404.51	931.53
404.70	964.30
404.89	936.21
405.09	1004.09
405.28	980.68
405.47	1039.20
405.66	994.73
405.85	1001.75
406.05	990.05
406.24	966.64
406.43	1048.56
406.62	1015.79
406.81	1100.05
407.00	1027.50
407.20	1081.33
407.39	1015.79
407.58	1067.28
407.77	1149.20
407.96	1102.39
408.15	1116.44
408.34	1036.86
408.54	1067.28
408.73	1090.69
408.92	1123.46
409.11	1095.37
409.30	1144.52
409.49	1123.46
409.68	1118.78
409.87	1111.75
410.07	1132.82
410.26	1184.31
410.45	1174.95
410.64	1217.08
410.83	1174.95
411.02	1315.38
411.21	1249.85
411.40	1291.98
411.59	1315.38
411.78	1327.08
411.98	1263.89
412.17	1277.93
412.36	1303.68
412.55	1387.94
412.74	1334.11
412.93	1439.43
413.12	1350.49
413.31	1453.47
413.50	1373.89
413.69	1378.58
413.88	1591.56
414.07	1488.58
414.26	1511.99
414.45	1444.11
414.64	1455.81
414.83	1490.92
415.02	1497.94
415.22	1502.62
415.41	1650.08
415.60	1614.97
415.79	1521.35
415.98	1572.84
416.17	1633.69
416.36	1680.50
416.55	1636.03
416.74	1614.97
416.93	1732.00
417.12	1732.00
417.31	1722.63
417.50	1687.53
417.69	1774.13
417.88	1764.76
418.07	1767.10
418.26	1743.70
418.45	1834.98
418.64	1792.85
418.83	1860.73
419.02	1888.81
419.21	1877.11
419.39	1792.85
419.58	1905.20
419.77	1717.95
419.96	1935.62
420.15	1860.73
420.34	1888.81
420.53	1921.58
420.72	1994.14
420.91	2029.24
421.10	2076.06
421.29	2129.89
421.48	1860.73
421.67	1884.13
421.86	1895.83
422.05	1947.33
422.24	1839.66
422.43	1975.41
422.61	1998.82
422.80	1909.88
422.99	2113.50
423.18	2050.31
423.37	2106.48
423.56	2073.71
423.75	2083.08
423.94	2005.84
424.13	1860.73
424.32	1987.11
424.50	2052.65
424.69	2129.89
424.88	2001.16
425.07	2047.97
425.26	2012.86
425.45	2146.27
425.64	2197.76
425.83	2024.56
426.01	2134.57
426.20	2097.12
426.39	2153.29
426.58	2024.56
426.77	2071.37
426.96	2204.78
427.15	2094.78
427.33	2195.42
427.52	2118.18
427.71	2225.85
427.90	2176.70
428.09	2230.53
428.28	2291.38
428.46	2211.81
428.65	2326.49
428.84	2258.62
429.03	2253.94
429.22	2265.64
429.40	2141.59
429.59	2338.20
429.78	2221.17
429.97	2197.76
430.16	2237.55
430.34	2296.07
430.53	2347.56
430.72	2399.05
430.91	2303.09
431.10	2375.64
431.28	2537.14
431.47	2480.97
431.66	2373.30
431.85	2385.01
432.03	2487.99
432.22	2513.74
432.41	2462.24
432.60	2466.92
432.79	2483.31
432.97	2572.25
433.16	2429.48
433.35	2619.06
433.54	2504.37
433.72	2511.39
433.91	2520.76
434.10	2527.78
434.28	2513.74
434.47	2462.24
434.66	2628.42
434.85	2623.74
435.03	2698.64
435.22	2572.25
435.41	2853.11
435.59	2684.59
435.78	2703.32
435.97	2658.85
436.16	2801.62
436.34	2698.64
436.53	2696.30
436.72	2738.43
436.90	2665.87
437.09	2764.17
437.28	2686.94
437.46	2754.81
437.65	2719.70
437.84	2843.75
438.02	2747.79
438.21	2881.20
438.40	2822.69
438.58	2876.52
438.77	2916.31
438.96	2974.82
439.14	2902.26
439.33	3061.42
439.52	2960.78
439.70	3084.83
439.89	3014.61
440.08	3187.81
440.26	3108.23
440.45	3133.98
440.63	3129.30
440.82	3239.30
441.01	3173.77
441.19	3185.47
441.38	3314.20
441.57	3241.64
441.75	3229.94
441.94	3323.56
442.12	3431.23
442.31	3330.58
442.50	3459.31
442.68	3344.63
442.87	3475.70
443.05	3499.10
443.24	3485.06
443.43	3398.46
443.61	3419.52
443.80	3602.08
443.98	3353.99
444.17	3346.97
444.35	3438.25
444.54	3485.06
444.73	3482.72
444.91	3492.08
445.10	3419.52
445.28	3344.63
445.47	3412.50
445.65	3503.78
445.84	3524.85
446.02	3550.59
446.21	3602.08
446.39	3442.93
446.58	3691.02
446.77	3475.70
446.95	3534.21
447.14	3433.57
447.32	3625.49
447.51	3543.57
447.69	3449.95
447.88	3555.27
448.06	3698.05
448.25	3613.79
448.43	3585.70
448.62	3620.81
448.80	3637.19
448.99	3637.19
449.17	3686.34
449.36	3623.15
449.54	3662.94
449.73	3618.47
449.91	3815.07
450.10	3681.66
450.28	3794.01
450.46	3754.22
450.65	3740.18
450.83	3974.23
451.02	3801.03
451.20	3707.41
451.39	3971.89
451.57	3904.01
451.76	3761.24
451.94	3819.75
452.13	3868.91
452.31	3999.98
452.49	3978.91
452.68	3815.07
452.86	3941.46
453.05	3983.59
453.23	3927.42
453.42	4142.75
453.60	3857.20
453.78	4072.53
453.97	3878.27
454.15	4067.85
454.34	4051.47
454.52	4098.28
454.70	4084.23
454.89	4074.87
455.07	4126.36
455.26	4140.41
455.44	4269.14
455.62	4248.07
455.81	4184.88
455.99	4332.33
456.17	4208.28
456.36	4259.78
456.54	4212.96
456.73	4299.56
456.91	4442.34
457.09	4301.90
457.28	4374.46
457.46	4273.82
457.64	4407.23
457.83	4383.82
458.01	4322.97
458.19	4561.70
458.38	4360.42
458.56	4592.13
458.74	4447.02
458.93	4468.08
459.11	4437.66
459.29	4311.27
459.48	4498.51
459.66	4449.36
459.84	4531.28
460.03	4709.16
460.21	4676.39
460.39	4629.58
460.57	4650.64
460.76	4542.98
460.94	4610.86
461.12	4734.90
461.31	4727.88
461.49	4760.65
461.67	4809.80
461.85	4748.95
462.04	4924.49
462.22	5062.58
462.40	4943.21
462.59	4802.78
462.77	4833.21
462.95	4905.76
463.13	4865.97
463.32	4957.25
463.50	5027.47
463.68	4943.21
463.86	4924.49
464.05	5025.13
464.23	4800.44
464.41	4891.72
464.59	4828.53
464.78	4961.94
464.96	4968.96
465.14	4985.34
465.32	5085.98
465.50	5062.58
465.69	5184.29
465.87	5104.71
466.05	4961.94
466.23	5153.86
466.41	5214.71
466.60	5357.49
466.78	5039.17
466.96	5022.79
467.14	5109.39
467.32	5254.50
467.51	5210.03
467.69	5083.64
467.87	5373.87
468.05	5263.86
468.23	5198.33
468.41	5191.31
468.60	5252.16
468.78	5275.57
468.96	5245.14
469.14	5289.61
469.32	5245.14
469.50	5256.84
469.69	5345.78
469.87	5483.88
470.05	5460.47
470.23	5467.49
470.41	5490.90
470.59	5795.17
470.77	5390.25
470.95	5640.69
471.14	5544.73
471.32	5526.00
471.50	5645.37
471.68	5495.58
471.86	5692.18
472.04	5846.66
472.22	5905.17
472.40	5600.90
472.58	5893.47
472.77	5818.57
472.95	5907.51
473.13	6129.86
473.31	5802.19
473.49	5863.04
473.67	5956.66
473.85	6061.99
474.03	6106.46
474.21	6099.44
474.39	6228.17
474.57	6204.76
474.75	6167.31
474.93	6363.92
475.12	6413.07
475.30	6356.90
475.48	6317.11
475.66	6326.47
475.84	6443.49
476.02	6466.90
476.20	6363.92
476.38	6572.22
476.56	6703.29
476.74	6555.84
476.92	6607.33
477.10	6551.16
477.28	6766.49
477.46	6754.79
477.64	6817.98
477.82	6869.47
478.00	7040.33
478.18	6965.43
478.36	7258.00
478.54	7150.34
478.72	7232.26
478.90	7339.92
479.08	7307.15
479.26	7403.11
479.44	7454.61
479.62	7482.69
479.80	7686.32
479.98	7543.55
480.16	7775.26
480.34	7779.94
480.52	7925.05
480.70	7859.52
480.88	7786.96
481.06	7903.99
481.24	8018.68
481.41	8049.10
481.59	8046.76
481.77	8175.49
481.95	8446.99
482.13	8379.12
482.31	8461.04
482.49	8278.47
482.67	8299.54
482.85	8533.59
483.03	8692.75
483.21	8657.64
483.39	8898.72
483.57	8667.00
483.74	8964.25
483.92	9050.85
484.10	8805.10
484.28	9142.13
484.46	9312.99
484.64	9315.33
484.82	9270.86
485.00	9170.22
485.18	9476.83
485.35	9549.39
485.53	9743.65
485.71	9743.65
485.89	9891.10
486.07	9841.95
486.25	9755.35
486.43	9823.23
486.61	10024.51
486.78	10040.90
486.96	10167.29
487.14	10249.21
487.32	10303.04
487.50	10253.89
487.68	10249.21
487.85	10609.65
488.03	10738.38
488.21	10787.53
488.39	10719.65
488.57	10949.03
488.75	10909.24
488.92	11222.87
489.10	11061.37
489.28	11002.86
489.46	11248.61
489.64	11194.78
489.81	11662.89
489.99	11391.39
490.17	11625.44
490.35	11913.33
490.53	11901.62
490.70	11903.96
490.88	11927.37
491.06	11988.22
491.24	12046.74
491.41	12191.85
491.59	12222.28
491.77	12475.06
491.95	12706.77
492.13	12610.81
492.30	12638.89
492.48	12432.93
492.66	12645.91
492.84	12744.22
493.01	12784.01
493.19	13118.70
493.37	12863.58
493.54	12788.69
493.72	13287.22
493.90	13153.81
494.08	13268.50
494.25	13631.28
494.43	13504.89
494.61	13589.15
494.79	13689.79
494.96	13605.53
495.14	13610.22
495.32	13895.76
495.49	14019.81
495.67	14094.71
495.85	13816.18
496.02	14031.51
496.20	14251.52
496.38	14230.46
496.55	14279.61
496.73	14541.75
496.91	14373.23
497.09	14401.32
497.26	14604.94
497.44	14487.92
497.62	14831.97
497.79	14621.33
497.97	14663.46
498.14	15370.30
498.32	15030.92
498.50	15213.48
498.67	15246.25
498.85	15161.99
499.03	15557.54
499.20	15655.84
499.38	15616.05
499.56	15468.60
499.73	15700.31
499.91	15587.97
500.08	15880.53
500.26	15456.90
500.44	15700.31
500.61	15690.95
500.79	15861.81
500.97	16013.95
501.14	16236.30
501.32	16091.18
501.49	16266.72
501.67	16379.07
501.84	16119.27
502.02	16184.80
502.20	16638.87
502.37	16608.44
502.55	16379.07
502.72	16659.93
502.90	16704.40
503.07	16755.90
503.25	16350.98
503.43	16835.47
503.60	16924.41
503.78	17177.19
503.95	16875.26
504.13	16975.91
504.30	17053.14
504.48	17022.72
504.65	17224.00
504.83	17436.99
505.01	17207.62
505.18	17343.37
505.36	17537.63
505.53	17427.63
505.71	17390.18
505.88	17481.46
506.06	17788.07
506.23	17661.68
506.41	17717.86
506.58	17516.57
506.76	17509.55
506.93	18019.78
507.11	17617.21
507.28	18001.06
507.46	18019.78
507.63	17977.65
507.81	17984.68
507.98	18195.32
508.16	18565.13
508.33	18504.28
508.50	18356.82
508.68	18576.83
508.85	18487.89
509.03	18455.12
509.20	18530.02
509.38	18710.24
509.55	18956.00
509.73	18473.85
509.90	18810.89
510.08	18838.97
510.25	18808.54
510.42	18944.30
510.60	19023.87
510.77	19173.67
510.95	19447.51
511.12	19178.35
511.30	19066.00
511.47	19271.97
511.64	19332.82
511.82	19428.79
511.99	19316.44
512.17	19541.13
512.34	19438.15
512.51	19585.60
512.69	19836.04
512.86	19889.87
513.04	19714.33
513.21	19728.38
513.38	19800.93
513.56	19812.63
513.73	20023.28
513.90	19686.25
514.08	19681.56
514.25	20196.48
514.43	20238.61
514.60	20175.42
514.77	20262.02
514.95	20283.08
515.12	20091.16
515.29	20276.06
515.47	20482.03
515.64	20493.73
515.81	20243.29
515.99	20622.46
516.16	20807.36
516.33	20720.76
516.51	20610.76
516.68	20833.11
516.85	20938.43
517.03	20922.05
517.20	21050.78
517.37	21137.38
517.54	21294.19
517.72	21025.03
517.89	20973.54
518.06	21458.03
518.24	21025.03
518.41	21132.70
518.58	21273.13
518.75	21174.83
518.93	21289.51
519.10	21322.28
519.27	21345.69
519.45	21326.96
519.62	21305.90
519.79	21612.51
519.96	21378.45
520.14	21797.41
520.31	21977.63
520.48	21717.83
520.65	21823.16
520.83	21823.16
521.00	21748.26
521.17	22139.13
521.34	22082.95
521.52	21916.78
521.69	22146.15
521.86	22242.11
522.03	22593.19
522.20	22169.55
522.38	22286.58
522.55	22104.02
522.72	22302.96
522.89	22565.10
523.07	22532.34
523.24	22483.19
523.41	22789.80
523.58	22731.28
523.75	22888.10
523.92	22450.42
524.10	22970.02
524.27	22909.16
524.44	23220.45
524.61	23218.11
524.78	22927.89
524.96	22773.41
525.13	23201.73
525.30	23171.30
525.47	23040.23
525.64	23126.83
525.81	23150.24
525.98	23218.11
526.16	23267.27
526.33	23531.75
526.50	23225.14
526.67	23264.92
526.84	23342.16
527.01	23250.88
527.18	23496.64
527.36	23878.15
527.53	23604.30
527.70	23929.64
527.87	23793.89
528.04	23899.21
528.21	23906.23
528.38	23606.64
528.55	23779.84
528.72	24023.26
528.89	24135.60
529.07	23868.78
529.24	23929.64
529.41	23861.76
529.58	24032.62
529.75	24004.53
529.92	24226.89
530.09	24109.86
530.26	24362.64
530.43	24489.03
530.60	24013.90
530.77	24222.20
530.94	24261.99
531.11	24194.12
531.28	24430.51
531.46	24329.87
531.63	24624.78
531.80	24699.67
531.97	24615.41
532.14	24795.64
532.31	24912.66
532.48	24638.82
532.65	24748.82
532.82	24807.34
532.99	24631.80
533.16	24519.45
533.33	25010.96
533.50	25113.95
533.67	25060.12
533.84	24732.44
534.01	24882.24
534.18	24971.18
534.35	25139.69
534.52	24975.86
534.69	25837.17
534.86	25027.35
535.03	25308.21
535.20	25055.43
535.37	25207.57
535.54	25462.69
535.71	25144.38
535.88	24982.88
536.05	25563.33
536.22	25642.91
536.38	25603.12
536.55	25167.78
536.72	25479.07
536.89	25369.07
537.06	25472.05
537.23	25638.23
537.40	25745.89
537.57	25699.08
537.74	25680.36
537.91	25748.23
538.08	25607.80
538.25	25713.13
538.42	25989.31
538.59	25795.04
538.75	25876.96
538.92	25855.90
539.09	26050.16
539.26	26010.37
539.43	25984.63
539.60	26066.55
539.77	26092.29
539.94	26160.17
540.11	26094.63
540.28	26162.51
540.44	26340.39
540.61	26136.76
540.78	26094.63
540.95	26181.23
541.12	26450.39
541.29	26164.85
541.46	26349.75
541.62	26649.34
541.79	26572.10
541.96	25944.84
542.13	26316.98
542.30	26534.65
542.47	26642.32
542.63	26604.87
542.80	26654.02
542.97	27255.54
543.14	26930.20
543.31	26998.08
543.48	26794.45
543.64	26815.52
543.81	27330.44
543.98	27414.69
544.15	27133.83
544.32	27517.68
544.48	27452.14
544.65	27234.47
544.82	27072.98
544.99	26911.48
545.16	27208.73
545.32	27276.60
545.49	27697.90
545.66	27372.57
545.83	27761.09
546.00	27339.80
546.16	27175.96
546.33	27105.74
546.50	27051.91
546.67	27484.91
546.83	27194.68
547.00	27433.42
547.17	27559.81
547.34	27658.11
547.50	27608.96
547.67	28194.09
547.84	27807.90
548.00	27704.92
548.17	27812.59
548.34	27974.08
548.51	27889.82
548.67	27852.38
548.84	27660.45
549.01	28130.90
549.18	27868.76
549.34	27941.32
549.51	28039.62
549.68	28039.62
549.84	27655.77
550.01	27737.69
550.18	27875.78
550.34	28446.87
550.51	28233.88
550.68	28301.76
550.84	27704.92
551.01	28217.50
551.18	28266.65
551.34	27859.40
551.51	27948.34
551.68	28034.94
551.84	28575.60
552.01	28259.63
552.18	28727.74
552.34	28233.88
552.51	28643.48
552.68	28191.75
552.84	28348.57
553.01	28556.88
553.18	28498.36
553.34	28350.91
553.51	28599.01
553.67	28591.98
553.84	28884.55
554.01	28741.78
554.17	28802.63
554.34	28519.43
554.51	28737.10
554.67	28936.04
554.84	28439.85
555.00	28786.25
555.17	28648.16
555.33	28437.51
555.50	28596.67
555.67	29043.71
555.83	29163.08
556.00	28907.96
556.16	29020.30
556.33	28929.02
556.50	29006.26
556.66	29539.90
556.83	28762.84
556.99	29324.57
557.16	29315.21
557.32	29247.33
557.49	29425.22
557.65	29085.84
557.82	29317.55
557.98	29326.91
558.15	29172.44
558.32	29308.19
558.48	29223.93
558.65	29457.98
558.81	29364.36
558.98	29811.40
559.14	29614.80
559.31	29092.86
559.47	29411.17
559.64	29404.15
559.80	29486.07
559.97	29462.66
560.13	29120.95
560.30	29708.42
560.46	29668.63
560.63	29465.00
560.79	29544.58
560.96	29696.72
561.12	29551.60
561.29	29432.24
561.45	29413.51
561.61	29317.55
561.78	29661.61
561.94	29799.70
562.11	29841.83
562.27	29598.41
562.44	29612.46
562.60	29860.55
562.77	30000.99
562.93	29467.34
563.10	29872.26
563.26	29687.36
563.42	30045.46
563.59	29844.17
563.75	29818.42
563.92	29989.28
564.08	29724.80
564.24	29654.59
564.41	29689.70
564.57	29795.02
564.74	29762.25
564.90	29844.17
565.07	30178.87
565.23	29881.62
565.39	30246.74
565.56	30153.12
565.72	30026.73
565.88	30061.84
566.05	29825.45
566.21	29766.93
566.38	29963.54
566.54	30005.67
566.70	30335.68
566.87	30520.59
567.03	30075.88
567.19	30408.24
567.36	30464.41
567.52	29968.22
567.68	30012.69
567.85	29757.57
568.01	30211.64
568.17	30141.42
568.34	30127.38
568.50	30408.24
568.66	30520.59
568.83	30352.07
568.99	29888.64
569.15	30012.69
569.32	30082.91
569.48	30075.88
569.64	30122.69
569.81	29876.94
569.97	30057.16
570.13	30712.51
570.30	30382.49
570.46	30373.13
570.62	30635.27
570.78	30155.46
570.95	29780.98
571.11	30281.85
571.27	30389.52
571.43	30164.82
571.60	30363.77
571.76	30452.71
571.92	30462.07
572.09	30609.53
572.25	30267.81
572.41	30338.02
572.57	30499.52
572.74	30649.32
572.90	30160.14
573.06	30319.30
573.22	30543.99
573.38	30244.40
573.55	30487.82
573.71	30682.08
573.87	30635.27
574.03	30150.78
574.20	30541.65
574.36	30298.23
574.52	30361.43
574.68	30607.19
574.84	30834.22
575.01	30661.02
575.17	30494.84
575.33	30265.47
575.49	30462.07
575.65	30408.24
575.82	30972.31
575.98	30532.29
576.14	31058.91
576.30	30485.48
576.46	30391.86
576.62	30764.00
576.79	30551.01
576.95	30618.89
577.11	30321.64
577.27	30670.38
577.43	30775.70
577.59	30333.34
577.75	30558.03
577.92	30541.65
578.08	30043.12
578.24	30438.67
578.40	30476.12
578.56	30717.19
578.72	30579.10
578.88	30689.10
579.04	30909.11
579.21	30286.53
579.37	30698.47
579.53	30792.09
579.69	30417.60
579.85	30445.69
580.01	30991.03
580.17	30892.73
580.33	30515.90
580.49	30778.04
580.65	30370.79
580.82	30902.09
580.98	30892.73
581.14	30546.33
581.30	30775.70
581.46	30745.28
581.62	30632.93
581.78	30583.78
581.94	30632.93
582.10	31000.40
582.26	30859.96
582.42	30707.83
582.58	30782.73
582.74	30691.44
582.90	30567.40
583.06	30749.96
583.22	30951.24
583.38	30506.54
583.54	30424.62
583.70	30728.89
583.86	30672.72
584.02	30415.26
584.18	31271.90
584.34	30682.08
584.50	31168.91
584.66	31166.57
584.82	30433.99
584.98	30955.93
585.14	30635.27
585.30	30576.76
585.46	30597.82
585.62	30698.47
585.78	31089.34
585.94	30874.01
586.10	30892.73
586.26	31136.15
586.42	30780.39
586.58	30923.16
586.74	30476.12
586.90	30403.56
587.06	30656.34
587.22	30536.97
587.38	30668.04
587.54	31098.70
587.70	30909.11
587.86	30939.54
588.02	30969.97
588.18	31278.92
588.34	31257.85
588.49	31138.49
588.65	30389.52
588.81	30583.78
588.97	31199.34
589.13	30916.14
589.29	30817.83
589.45	31229.77
589.61	31168.91
589.77	31438.08
589.93	31470.84
590.08	31250.83
590.24	31590.21
590.40	31370.20
590.56	31101.04
590.72	30941.88
590.88	31044.87
591.04	31068.27
591.20	31243.81
591.35	31419.35
591.51	31721.28
591.67	31342.11
591.83	31665.11
