SpectraSuite Data File
++++++++++++++++++++++++++++++++++++
Date: Fri Oct 18 13:58:14 GMT-05:00 2013
User: bianchi
Dark Spectrum Present: No
Reference Spectrum Present: No
Number of Sampled Component Spectra: 1
Spectrometers: USB2+H05261
Integration Time (usec): 50000 (USB2+H05261)
Spectra Averaged: 1 (USB2+H05261)
Boxcar Smoothing: 0 (USB2+H05261)
Correct for Electrical Dark: No (USB2+H05261)
Strobe/Lamp Enabled: No (USB2+H05261)
Correct for Detector Non-linearity: No (USB2+H05261)
Correct for Stray Light: No (USB2+H05261)
Number of Pixels in Processed Spectrum: 2048
>>>>>Begin Processed Spectral Data<<<<<
365.73	0.00
365.92	0.00
366.12	0.00
366.32	0.00
366.52	0.00
366.72	0.00
366.91	0.00
367.11	0.00
367.31	0.00
367.51	0.00
367.70	0.00
367.90	0.00
368.10	0.00
368.30	0.00
368.49	0.00
368.69	0.00
368.89	0.00
369.09	0.00
369.28	0.00
369.48	0.00
369.68	0.00
369.87	0.00
370.07	0.00
370.27	0.00
370.47	0.00
370.66	79.58
370.86	126.39
371.06	91.28
371.25	128.73
371.45	152.13
371.65	194.26
371.84	180.22
372.04	86.60
372.24	227.03
372.44	203.63
372.63	175.54
372.83	205.97
373.03	161.50
373.22	212.99
373.42	217.67
373.62	245.76
373.81	217.67
374.01	243.42
374.21	215.33
374.40	126.39
374.60	201.29
374.79	229.37
374.99	278.52
375.19	269.16
375.38	236.39
375.58	266.82
375.78	257.46
375.97	217.67
376.17	297.25
376.37	266.82
376.56	243.42
376.76	245.76
376.95	222.35
377.15	327.68
377.35	304.27
377.54	264.48
377.74	266.82
377.93	220.01
378.13	334.70
378.33	292.57
378.52	290.23
378.72	250.44
378.91	271.50
379.11	278.52
379.31	257.46
379.50	222.35
379.70	376.83
379.89	222.35
380.09	266.82
380.28	313.63
380.48	278.52
380.68	299.59
380.87	243.42
381.07	322.99
381.26	285.55
381.46	259.80
381.65	313.63
381.85	269.16
382.04	353.42
382.24	358.10
382.43	304.27
382.63	311.29
382.83	320.65
383.02	311.29
383.22	440.02
383.41	304.27
383.61	301.93
383.80	292.57
384.00	330.02
384.19	301.93
384.39	348.74
384.58	376.83
384.78	416.62
384.97	313.63
385.17	367.46
385.36	297.25
385.56	376.83
385.75	369.80
385.95	351.08
386.14	454.06
386.34	428.32
386.53	407.25
386.72	355.76
386.92	475.13
387.11	397.89
387.31	428.32
387.50	470.45
387.70	400.23
387.89	390.87
388.09	374.49
388.28	395.55
388.48	472.79
388.67	489.17
388.86	402.57
389.06	423.64
389.25	386.19
389.45	477.47
389.64	482.15
389.84	543.00
390.03	416.62
390.22	456.40
390.42	496.19
390.61	503.22
390.81	470.45
391.00	433.00
391.19	498.53
391.39	526.62
391.58	430.66
391.78	461.09
391.97	561.73
392.16	521.94
392.36	624.92
392.55	636.63
392.75	552.37
392.94	540.66
393.13	547.69
393.33	514.92
393.52	517.26
393.71	596.84
393.91	545.34
394.10	608.54
394.29	610.88
394.49	519.60
394.68	669.39
394.88	580.45
395.07	676.41
395.26	573.43
395.46	505.56
395.65	629.60
395.84	606.20
396.04	725.57
396.23	638.97
396.42	667.05
396.62	671.73
396.81	575.77
397.00	697.48
397.19	718.54
397.39	636.63
397.58	702.16
397.77	667.05
397.97	683.44
398.16	641.31
398.35	737.27
398.55	699.82
398.74	725.57
398.93	746.63
399.12	777.06
399.32	737.27
399.51	681.10
399.70	683.44
399.90	798.12
400.09	732.59
400.28	767.70
400.47	692.80
400.67	755.99
400.86	791.10
401.05	882.38
401.24	828.55
401.44	823.87
401.63	814.51
401.82	788.76
402.01	875.36
402.21	830.89
402.40	779.40
402.59	830.89
402.78	877.70
402.97	851.96
403.17	870.68
403.36	830.89
403.55	861.32
403.74	882.38
403.93	880.04
404.13	875.36
404.32	858.98
404.51	851.96
404.70	936.21
404.89	917.49
405.09	1018.13
405.28	924.51
405.47	905.79
405.66	924.51
405.85	931.53
406.05	978.34
406.24	954.94
406.43	990.05
406.62	999.41
406.81	1069.62
407.00	954.94
407.20	987.71
407.39	987.71
407.58	1020.47
407.77	964.30
407.96	1046.22
408.15	992.39
408.34	1006.43
408.54	1020.47
408.73	1125.80
408.92	1048.56
409.11	1081.33
409.30	1121.12
409.49	1102.39
409.68	1095.37
409.87	1071.97
410.07	1125.80
410.26	1210.06
410.45	1174.95
410.64	1060.26
410.83	1170.27
411.02	1221.76
411.21	1174.95
411.40	1240.48
411.59	1275.59
411.78	1329.42
411.98	1263.89
412.17	1280.27
412.36	1249.85
412.55	1268.57
412.74	1334.11
412.93	1432.41
413.12	1331.76
413.31	1380.92
413.50	1401.98
413.69	1406.66
413.88	1439.43
414.07	1481.56
414.26	1420.71
414.45	1427.73
414.64	1486.24
414.83	1490.92
415.02	1535.39
415.22	1458.15
415.41	1558.80
415.60	1610.29
415.79	1659.44
415.98	1472.20
416.17	1579.86
416.36	1666.46
416.55	1617.31
416.74	1610.29
416.93	1544.75
417.12	1657.10
417.31	1757.74
417.50	1710.93
417.69	1699.23
417.88	1827.96
418.07	1769.44
418.26	1739.02
418.45	1661.78
418.64	1825.62
418.83	1870.09
419.02	1806.89
419.21	1844.34
419.39	1769.44
419.58	1830.30
419.77	1727.32
419.96	1736.68
420.15	1792.85
420.34	1797.53
420.53	1886.47
420.72	1916.90
420.91	1839.66
421.10	1891.15
421.29	1921.58
421.48	1923.92
421.67	1870.09
421.86	1937.96
422.05	2026.90
422.24	1959.03
422.43	1888.81
422.61	1935.62
422.80	1944.99
422.99	2003.50
423.18	2008.18
423.37	1982.43
423.56	2090.10
423.75	1959.03
423.94	1912.22
424.13	1963.71
424.32	1980.09
424.50	2024.56
424.69	2083.08
424.88	2050.31
425.07	2062.01
425.26	2031.58
425.45	2094.78
425.64	1916.90
425.83	1928.60
426.01	2019.88
426.20	2040.95
426.39	2054.99
426.58	2069.03
426.77	2118.18
426.96	2162.66
427.15	2094.78
427.33	2125.21
427.52	2122.87
427.71	2211.81
427.90	2073.71
428.09	2155.63
428.28	2174.36
428.46	2239.89
428.65	2303.09
428.84	2207.13
429.03	2218.83
429.22	2069.03
429.40	2225.85
429.59	2399.05
429.78	2211.81
429.97	2179.04
430.16	2282.02
430.34	2340.54
430.53	2303.09
430.72	2244.57
430.91	2349.90
431.10	2331.17
431.28	2420.11
431.47	2382.67
431.66	2431.82
431.85	2427.14
432.03	2342.88
432.22	2469.27
432.41	2441.18
432.60	2555.86
432.79	2361.60
432.97	2396.71
433.16	2424.80
433.35	2520.76
433.54	2534.80
433.72	2511.39
433.91	2504.37
434.10	2483.31
434.28	2436.50
434.47	2520.76
434.66	2579.27
434.85	2492.67
435.03	2539.48
435.22	2576.93
435.41	2703.32
435.59	2700.98
435.78	2651.83
435.97	2609.70
436.16	2677.57
436.34	2605.02
436.53	2708.00
436.72	2712.68
436.90	2731.41
437.09	2773.53
437.28	2583.95
437.46	2644.81
437.65	2731.41
437.84	2787.58
438.02	2836.73
438.21	2710.34
438.40	2841.41
438.58	2958.44
438.77	2909.29
438.96	2736.09
439.14	2970.14
439.33	2937.37
439.52	3005.25
439.70	2972.48
439.89	3084.83
440.08	2998.23
440.26	3009.93
440.45	3084.83
440.63	3049.72
440.82	3187.81
441.01	3026.31
441.19	3176.11
441.38	3286.11
441.57	3061.42
441.75	3225.26
441.94	3187.81
442.12	3335.26
442.31	3243.98
442.50	3349.31
442.68	3206.53
442.87	3349.31
443.05	3365.69
443.24	3307.18
443.43	3346.97
443.61	3452.29
443.80	3433.57
443.98	3255.69
444.17	3145.68
444.35	3468.67
444.54	3501.44
444.73	3485.06
444.91	3365.69
445.10	3461.65
445.28	3410.16
445.47	3346.97
445.65	3435.91
445.84	3592.72
446.02	3442.93
446.21	3435.91
446.39	3454.63
446.58	3496.76
446.77	3400.80
446.95	3440.59
447.14	3524.85
447.32	3597.40
447.51	3576.34
447.69	3421.86
447.88	3386.76
448.06	3396.12
448.25	3478.04
448.43	3499.10
448.62	3492.08
448.80	3398.46
448.99	3578.68
449.17	3679.32
449.36	3545.91
449.54	3515.48
449.73	3779.97
449.91	3632.51
450.10	3620.81
450.28	3742.52
450.46	3679.32
450.65	3686.34
450.83	3765.92
451.02	3709.75
451.20	3859.54
451.39	3794.01
451.57	3597.40
451.76	3679.32
451.94	3716.77
452.13	3824.44
452.31	3822.09
452.49	3744.86
452.68	3955.51
452.86	3892.31
453.05	3873.59
453.23	3836.14
453.42	3896.99
453.60	3770.60
453.78	3948.48
453.97	3850.18
454.15	3896.99
454.34	3941.46
454.52	3901.67
454.70	3981.25
454.89	4030.40
455.07	3978.91
455.26	3889.97
455.44	4065.51
455.62	4070.19
455.81	3985.93
455.99	4131.05
456.17	4297.22
456.36	4255.09
456.54	4156.79
456.73	4201.26
456.91	4229.35
457.09	4276.16
457.28	4334.67
457.46	4187.22
457.64	4294.88
457.83	4229.35
458.01	4098.28
458.19	4493.83
458.38	4381.48
458.56	4500.85
458.74	4421.27
458.93	4542.98
459.11	4437.66
459.29	4369.78
459.48	4461.06
459.66	4229.35
459.84	4552.34
460.03	4437.66
460.21	4437.66
460.39	4517.23
460.57	4510.21
460.76	4620.22
460.94	4641.28
461.12	4505.53
461.31	4606.17
461.49	4648.30
461.67	4482.13
461.85	4702.14
462.04	4753.63
462.22	5116.41
462.40	4849.59
462.59	4655.33
462.77	4770.01
462.95	4966.62
463.13	4922.15
463.32	4723.20
463.50	4896.40
463.68	4805.12
463.86	4865.97
464.05	4770.01
464.23	4655.33
464.41	4896.40
464.59	4788.74
464.78	4997.04
464.96	4945.55
465.14	4795.76
465.32	4999.38
465.50	5041.51
465.69	4770.01
465.87	4990.02
466.05	5064.92
466.23	4910.44
466.41	4992.36
466.60	5158.54
466.78	4917.47
466.96	5100.03
467.14	5032.15
467.32	5015.77
467.51	5078.96
467.69	4863.63
467.87	5146.84
468.05	5207.69
468.23	5132.79
468.41	5020.45
468.60	5118.75
468.78	5067.26
468.96	5088.32
469.14	5212.37
469.32	5355.15
469.50	5027.47
469.69	5338.76
469.87	5411.32
470.05	5432.38
470.23	5469.83
470.41	5416.00
470.59	5619.63
470.77	5210.03
470.95	5636.01
471.14	5458.13
471.32	5465.15
471.50	5586.86
471.68	5490.90
471.86	5673.46
472.04	5729.63
472.22	5734.31
472.40	5547.07
472.58	5626.65
472.77	5621.97
472.95	5879.43
473.13	5830.27
473.31	5701.54
473.49	5851.34
473.67	5596.22
473.85	5912.19
474.03	6101.78
474.21	5942.62
474.39	6024.54
474.57	6078.37
474.75	6015.18
474.93	6218.80
475.12	6134.54
475.30	6197.74
475.48	6223.48
475.66	6193.06
475.84	6148.59
476.02	6216.46
476.20	6331.15
476.38	6511.37
476.56	6300.72
476.74	6553.50
476.92	6724.36
477.10	6469.24
477.28	6761.81
477.46	6609.67
477.64	6771.17
477.82	6977.14
478.00	6796.92
478.18	6984.16
478.36	6991.18
478.54	6946.71
478.72	7019.27
478.90	7218.21
479.08	7014.59
479.26	7070.76
479.44	7344.60
479.62	7239.28
479.80	7428.86
479.98	7396.09
480.16	7719.09
480.34	7358.64
480.52	7681.64
480.70	7501.42
480.88	7501.42
481.06	7812.71
481.24	7634.83
481.41	7712.07
481.59	7939.10
481.77	8035.06
481.95	7978.89
482.13	8063.15
482.31	8236.35
482.49	8250.39
482.67	8205.92
482.85	8297.20
483.03	8409.54
483.21	8540.61
483.39	8533.59
483.57	8468.06
483.74	8781.69
483.92	8578.06
484.10	8573.38
484.28	8840.20
484.46	9029.79
484.64	9263.84
484.82	8924.46
485.00	9149.15
485.18	9322.35
485.35	9329.38
485.53	9352.78
485.71	9408.95
485.89	9547.05
486.07	9530.66
486.25	9570.45
486.43	9806.84
486.61	9914.51
486.78	9975.36
486.96	9909.83
487.14	10064.30
487.32	10160.27
487.50	10150.90
487.68	10391.98
487.85	10296.02
488.03	10614.33
488.21	10452.83
488.39	10377.94
488.57	10693.91
488.75	10452.83
488.92	10696.25
489.10	10923.28
489.28	10885.83
489.46	10920.94
489.64	11222.87
489.81	11206.48
489.99	11265.00
490.17	11169.04
490.35	11314.15
490.53	11372.66
490.70	11639.48
490.88	11592.67
491.06	11669.91
491.24	11714.38
491.41	11833.75
491.59	11609.06
491.77	11726.08
491.95	12088.87
492.13	12194.19
492.30	12149.72
492.48	12196.53
492.66	12166.10
492.84	12149.72
493.01	12341.64
493.19	12435.27
493.37	12652.94
493.54	12634.21
493.72	12915.08
493.90	12748.90
494.08	13034.44
494.25	12973.59
494.43	13057.85
494.61	12987.63
494.79	13121.04
494.96	13294.24
495.14	13221.69
495.32	13554.04
495.49	13525.96
495.67	13750.65
495.85	13771.71
496.02	13788.10
496.20	13825.54
496.38	13600.85
496.55	13872.36
496.73	14307.69
496.91	13797.46
497.09	14307.69
497.26	14473.87
497.44	14270.25
497.62	14111.09
497.79	14569.83
497.97	14572.18
498.14	14579.20
498.32	14764.10
498.50	14682.18
498.67	15082.41
498.85	14860.06
499.03	14839.00
499.20	14757.08
499.38	15014.54
499.56	14965.39
499.73	15272.00
499.91	15330.51
500.08	15580.95
500.26	15229.87
500.44	15417.11
500.61	15459.24
500.79	15449.88
500.97	15779.89
501.14	15751.81
501.32	15707.34
501.49	15620.74
501.67	15641.80
501.84	16051.39
502.02	15693.29
502.20	15864.15
502.37	16257.36
502.55	16161.40
502.72	16145.02
502.90	16238.64
503.07	15962.45
503.25	16137.99
503.43	16114.59
503.60	16446.94
503.78	16472.69
503.95	16517.16
504.13	16889.31
504.30	16573.33
504.48	16575.67
504.65	16545.25
504.83	16950.16
505.01	16957.18
505.18	17029.74
505.36	17429.97
505.53	16865.90
505.71	16947.82
505.88	17025.06
506.06	17081.23
506.23	17329.33
506.41	17036.76
506.58	17284.86
506.76	17254.43
506.93	17308.26
507.11	17219.32
507.28	17193.58
507.46	17570.40
507.63	17624.23
507.81	17858.29
507.98	17387.84
508.16	17722.54
508.33	17741.26
508.50	17701.47
508.68	17827.86
508.85	18008.08
509.03	17839.56
509.20	17989.36
509.38	18288.95
509.55	18331.08
509.73	18141.49
509.90	18422.36
510.08	18398.95
510.25	18441.08
510.42	18340.44
510.60	18703.22
510.77	18476.19
510.95	18761.73
511.12	18658.75
511.30	18614.28
511.47	18813.23
511.64	18766.42
511.82	18986.43
511.99	18948.98
512.17	18813.23
512.34	18895.14
512.51	19316.44
512.69	19007.49
512.86	19115.16
513.04	19239.20
513.21	19466.24
513.38	19669.86
513.56	19573.90
513.73	19454.53
513.90	19489.64
514.08	19222.82
514.25	19407.72
514.43	19728.38
514.60	19730.72
514.77	19922.64
514.95	20189.46
515.12	19775.19
515.29	19648.80
515.47	19747.10
515.64	19967.11
515.81	19943.70
515.99	19950.73
516.16	19983.49
516.33	20081.80
516.51	20152.01
516.68	20144.99
516.85	20205.84
517.03	20397.77
517.20	20505.43
517.37	20648.21
517.54	20306.49
517.72	20697.36
517.89	20503.09
518.06	20716.08
518.24	20456.28
518.41	20725.44
518.58	20688.00
518.75	20666.93
518.93	21050.78
519.10	20840.13
519.27	20922.05
519.45	20966.52
519.62	20844.81
519.79	20865.88
519.96	20908.01
520.14	21291.85
520.31	20971.20
520.48	21242.70
520.65	21153.76
520.83	21261.43
521.00	21287.17
521.17	21748.26
521.34	21432.29
521.52	21401.86
521.69	21678.04
521.86	21837.20
522.03	21776.34
522.20	21692.08
522.38	21570.38
522.55	21699.11
522.72	21701.45
522.89	21921.46
523.07	22216.36
523.24	22033.80
523.41	22192.96
523.58	21827.84
523.75	22253.81
523.92	21982.31
524.10	22253.81
524.27	22562.76
524.44	22576.81
524.61	22487.87
524.78	22317.01
524.96	22160.19
525.13	22059.55
525.30	22309.99
525.47	22328.71
525.64	22235.09
525.81	22693.83
525.98	22654.05
526.16	22831.93
526.33	22806.18
526.50	22871.72
526.67	22792.14
526.84	22759.37
527.01	22642.34
527.18	22979.38
527.36	23218.11
527.53	23105.77
527.70	23309.40
527.87	23700.26
528.04	22867.03
528.21	23033.21
528.38	23288.33
528.55	23161.94
528.72	23608.98
528.89	23503.66
529.07	23194.71
529.24	23550.47
529.41	23321.10
529.58	23311.74
529.75	23452.17
529.92	23520.04
530.09	23386.63
530.26	23995.17
530.43	23669.84
530.60	23475.57
530.77	23711.97
530.94	23934.32
531.11	23534.09
531.28	23611.32
531.46	24058.37
531.63	23953.04
531.80	24208.16
531.97	24144.97
532.14	23971.77
532.31	23833.68
532.48	24107.52
532.65	24070.07
532.82	24070.07
532.99	23742.39
533.16	24219.86
533.33	24201.14
533.50	24510.09
533.67	24306.46
533.84	24166.03
534.01	24416.47
534.18	24290.08
534.35	24175.39
534.52	24474.98
534.69	24657.54
534.86	24669.25
535.03	24608.39
535.20	24971.18
535.37	24521.79
535.54	24620.10
535.71	24507.75
535.88	24463.28
536.05	24917.34
536.22	24617.75
536.38	25053.09
536.55	24957.13
536.72	24741.80
536.89	24662.22
537.06	24737.12
537.23	24891.60
537.40	24669.25
537.57	24819.04
537.74	24931.39
537.91	25610.14
538.08	25259.06
538.25	25043.73
538.42	25317.57
538.59	25163.10
538.75	24854.15
538.92	25523.54
539.09	25240.34
539.26	25226.29
539.43	25493.12
539.60	25226.29
539.77	25556.31
539.94	25268.42
540.11	25125.65
540.28	25310.55
540.44	25415.88
540.61	25399.49
540.78	25500.14
540.95	25551.63
541.12	25734.19
541.29	25692.06
541.46	25413.54
541.62	25762.28
541.79	25748.23
541.96	25479.07
542.13	25717.81
542.30	25986.97
542.47	26412.95
542.63	25979.95
542.80	25956.54
542.97	26340.39
543.14	26319.32
543.31	26092.29
543.48	26258.47
543.64	26164.85
543.81	26352.09
543.98	26167.19
544.15	26565.08
544.32	26387.20
544.48	26628.27
544.65	26448.05
544.82	26338.05
544.99	26153.15
545.16	26679.77
545.32	26141.44
545.49	26628.27
545.66	26920.84
545.83	26635.30
546.00	26822.54
546.16	26632.96
546.33	26459.76
546.50	25912.07
546.67	26909.14
546.83	26387.20
547.00	26647.00
547.17	26869.35
547.34	26607.21
547.50	26745.30
547.67	27178.30
547.84	27227.45
548.00	26757.00
548.17	27096.38
548.34	27035.53
548.51	27353.84
548.67	27072.98
548.84	27569.17
549.01	27178.30
549.18	27068.30
549.34	27082.34
549.51	27136.17
549.68	27103.40
549.84	27323.41
550.01	27300.01
550.18	27129.15
550.34	27197.02
550.51	27236.81
550.68	27580.87
550.84	27213.41
551.01	27658.11
551.18	27353.84
551.34	27461.51
551.51	27274.26
551.68	27641.73
551.84	27482.57
552.01	27477.89
552.18	27564.49
552.34	27791.52
552.51	27702.58
552.68	27658.11
552.84	27700.24
553.01	27536.40
553.18	27438.10
553.34	27646.41
553.51	27779.82
553.67	27854.72
553.84	28037.28
554.01	27632.36
554.17	28053.66
554.34	28016.21
554.51	27889.82
554.67	28135.58
554.84	27964.72
555.00	28229.20
555.17	27990.47
555.33	28140.26
555.50	28063.02
555.67	28205.80
555.83	28201.11
556.00	27990.47
556.16	28390.70
556.33	28226.86
556.50	28048.98
556.66	28589.64
556.83	27913.23
556.99	28856.46
557.16	28547.51
557.32	28629.43
557.49	28243.24
557.65	28329.84
557.82	27866.42
557.98	28109.83
558.15	28306.44
558.32	28435.17
558.48	28299.42
558.65	28634.11
558.81	28683.27
558.98	28393.04
559.14	28311.12
559.31	28360.27
559.47	28306.44
559.64	28400.06
559.80	28423.47
559.97	28512.41
560.13	28849.44
560.30	28638.80
560.46	28819.02
560.63	28629.43
560.79	28680.92
560.96	28725.39
561.12	28982.85
561.29	28547.51
561.45	28692.63
561.61	28847.10
561.78	28278.35
561.94	28727.74
562.11	28835.40
562.27	28580.28
562.44	28613.05
562.60	28584.96
562.77	28868.17
562.93	28666.88
563.10	28830.72
563.26	28753.48
563.42	28975.83
563.59	29116.26
563.75	28975.83
563.92	29237.97
564.08	28783.91
564.24	29020.30
564.41	29142.01
564.57	28968.81
564.74	28877.53
564.90	29429.90
565.07	29027.32
565.23	29432.24
565.39	29156.05
565.56	29397.13
565.72	28809.65
565.88	29078.82
566.05	29244.99
566.21	29270.74
566.38	29003.92
566.54	29137.33
566.70	29130.31
566.87	29067.11
567.03	29322.23
567.19	29549.26
567.36	29579.69
567.52	29216.91
567.68	29357.34
567.85	29223.93
568.01	29425.22
568.17	28912.64
568.34	29476.71
568.50	29406.49
568.66	29443.94
568.83	29668.63
568.99	29134.99
569.15	29132.65
569.32	29350.32
569.48	29488.41
569.64	29273.08
569.81	29134.99
569.97	29350.32
570.13	28989.88
570.30	29640.54
570.46	29890.98
570.62	29663.95
570.78	29319.89
570.95	29450.96
571.11	29249.67
571.27	29371.38
571.43	29394.79
571.60	29411.17
571.76	29523.52
571.92	29123.29
572.09	29680.33
572.25	29502.45
572.41	29598.41
572.57	29516.50
572.74	29788.00
572.90	29242.65
573.06	29406.49
573.22	29432.24
573.38	29493.09
573.55	29371.38
573.71	29778.64
573.87	29481.39
574.03	29673.31
574.20	29118.60
574.36	29340.96
574.52	29230.95
574.68	29621.82
574.84	29053.07
575.01	29724.80
575.17	29677.99
575.33	29223.93
575.49	29792.68
575.65	29748.21
575.82	29589.05
575.98	29752.89
576.14	29556.28
576.30	29802.04
576.46	29104.56
576.62	29612.46
576.79	29530.54
576.95	29668.63
577.11	29539.90
577.27	29579.69
577.43	29759.91
577.59	29373.72
577.75	29881.62
577.92	29305.85
578.08	29659.27
578.24	29624.16
578.40	30092.27
578.56	29429.90
578.72	30054.82
578.88	29790.34
579.04	30031.41
579.21	29759.91
579.37	29488.41
579.53	29567.99
579.69	29069.45
579.85	29769.27
580.01	29689.70
580.17	29275.42
580.33	29766.93
580.49	29567.99
580.65	29656.93
580.82	29621.82
580.98	29940.13
581.14	29663.95
581.30	29989.28
581.46	29502.45
581.62	29631.18
581.78	29764.59
581.94	29570.33
582.10	29605.44
582.26	29642.88
582.42	30178.87
582.58	30003.33
582.74	29771.61
582.90	30000.99
583.06	29785.66
583.22	29750.55
583.38	30012.69
583.54	30089.93
583.70	29642.88
583.86	29926.09
584.02	29575.01
584.18	29811.40
584.34	29701.40
584.50	30012.69
584.66	29848.85
584.82	29738.85
584.98	29441.60
585.14	29633.52
585.30	29680.33
585.46	29916.73
585.62	29654.59
585.78	29940.13
585.94	29792.68
586.10	30052.48
586.26	30120.35
586.42	29963.54
586.58	30277.17
586.74	29635.86
586.90	29479.05
587.06	29715.44
587.22	30012.69
587.38	29783.32
587.54	30263.13
587.70	29919.07
587.86	30134.40
588.02	30085.25
588.18	30129.72
588.34	30316.96
588.49	30108.65
588.65	29816.08
588.81	29846.51
588.97	29989.28
589.13	29795.02
589.29	29699.06
589.45	29865.24
589.61	30249.08
589.77	29926.09
589.93	30054.82
590.08	30129.72
590.24	30382.49
590.40	30099.29
590.56	30213.98
590.72	30057.16
590.88	30132.06
591.04	30174.19
591.20	30188.23
591.35	30078.22
591.51	30281.85
591.67	30106.31
591.83	30883.37
591.99	30237.38
