SpectraSuite Data File
++++++++++++++++++++++++++++++++++++
Date: Fri Oct 18 13:58:04 GMT-05:00 2013
User: bianchi
Dark Spectrum Present: No
Reference Spectrum Present: No
Number of Sampled Component Spectra: 1
Spectrometers: USB2+H05261
Integration Time (usec): 50000 (USB2+H05261)
Spectra Averaged: 1 (USB2+H05261)
Boxcar Smoothing: 0 (USB2+H05261)
Correct for Electrical Dark: No (USB2+H05261)
Strobe/Lamp Enabled: No (USB2+H05261)
Correct for Detector Non-linearity: No (USB2+H05261)
Correct for Stray Light: No (USB2+H05261)
Number of Pixels in Processed Spectrum: 2048
>>>>>Begin Processed Spectral Data<<<<<
365.73	4.68
365.92	4.68
366.12	4.68
366.32	0.00
366.52	0.00
366.72	0.00
366.91	0.00
367.11	0.00
367.31	0.00
367.51	0.00
367.70	0.00
367.90	0.00
368.10	0.00
368.30	0.00
368.49	0.00
368.69	0.00
368.89	0.00
369.09	0.00
369.28	0.00
369.48	0.00
369.68	0.00
369.87	0.00
370.07	0.00
370.27	0.00
370.47	0.00
370.66	44.47
370.86	95.96
371.06	112.35
371.25	191.92
371.45	102.98
371.65	191.92
371.84	114.69
372.04	161.50
372.24	184.90
372.44	135.75
372.63	196.60
372.83	222.35
373.03	241.08
373.22	182.56
373.42	163.84
373.62	208.31
373.81	222.35
374.01	241.08
374.21	205.97
374.40	196.60
374.60	159.16
374.79	259.80
374.99	236.39
375.19	203.63
375.38	271.50
375.58	224.69
375.78	196.60
375.97	290.23
376.17	243.42
376.37	273.84
376.56	337.04
376.76	255.12
376.95	273.84
377.15	210.65
377.35	250.44
377.54	283.20
377.74	177.88
377.93	238.73
378.13	262.14
378.33	292.57
378.52	269.16
378.72	365.12
378.91	266.82
379.11	304.27
379.31	301.93
379.50	322.99
379.70	334.70
379.89	306.61
380.09	313.63
380.28	224.69
380.48	294.91
380.68	362.78
380.87	325.33
381.07	334.70
381.26	355.76
381.46	318.31
381.65	325.33
381.85	365.12
382.04	374.49
382.24	400.23
382.43	341.72
382.63	287.89
382.83	327.68
383.02	402.57
383.22	351.08
383.41	428.32
383.61	376.83
383.80	428.32
384.00	367.46
384.19	339.38
384.39	442.36
384.58	390.87
384.78	447.04
384.97	437.68
385.17	379.17
385.36	327.68
385.56	383.85
385.75	365.12
385.95	351.08
386.14	400.23
386.34	437.68
386.53	397.89
386.72	369.80
386.92	395.55
387.11	425.98
387.31	449.38
387.50	414.27
387.70	461.09
387.89	400.23
388.09	411.93
388.28	381.51
388.48	423.64
388.67	454.06
388.86	557.05
389.06	449.38
389.25	491.51
389.45	477.47
389.64	458.74
389.84	437.68
390.03	416.62
390.22	524.28
390.42	505.56
390.61	416.62
390.81	524.28
391.00	454.06
391.19	554.71
391.39	545.34
391.58	547.69
391.78	514.92
391.97	463.43
392.16	559.39
392.36	615.56
392.55	554.71
392.75	557.05
392.94	557.05
393.13	575.77
393.33	594.50
393.52	608.54
393.71	510.24
393.91	573.43
394.10	568.75
394.29	627.26
394.49	629.60
394.68	578.11
394.88	645.99
395.07	615.56
395.26	638.97
395.46	620.24
395.65	674.07
395.84	634.29
396.04	711.52
396.23	599.18
396.42	669.39
396.62	674.07
396.81	767.70
397.00	564.07
397.19	648.33
397.39	641.31
397.58	704.50
397.77	725.57
397.97	709.18
398.16	730.25
398.35	606.20
398.55	650.67
398.74	678.76
398.93	760.67
399.12	650.67
399.32	718.54
399.51	671.73
399.70	760.67
399.90	767.70
400.09	849.61
400.28	770.04
400.47	931.53
400.67	746.63
400.86	737.27
401.05	786.42
401.24	828.55
401.44	821.53
401.63	870.68
401.82	751.31
402.01	732.59
402.21	854.30
402.40	840.25
402.59	819.19
402.78	917.49
402.97	765.36
403.17	903.45
403.36	929.19
403.55	947.92
403.74	957.28
403.93	926.85
404.13	894.08
404.32	873.02
404.51	905.79
404.70	943.24
404.89	968.98
405.09	978.34
405.28	959.62
405.47	938.55
405.66	1027.50
405.85	1032.18
406.05	945.58
406.24	1046.22
406.43	1067.28
406.62	1013.45
406.81	1086.01
407.00	1074.31
407.20	938.55
407.39	1125.80
407.58	1067.28
407.77	954.94
407.96	1116.44
408.15	1078.99
408.34	1057.92
408.54	1090.69
408.73	1027.50
408.92	1123.46
409.11	1118.78
409.30	1111.75
409.49	1156.22
409.68	1064.94
409.87	1174.95
410.07	1186.65
410.26	1259.21
410.45	1268.57
410.64	1245.16
410.83	1177.29
411.02	1156.22
411.21	1322.40
411.40	1212.40
411.59	1299.00
411.78	1221.76
411.98	1233.46
412.17	1315.38
412.36	1217.08
412.55	1399.64
412.74	1341.13
412.93	1357.51
413.12	1373.89
413.31	1399.64
413.50	1413.68
413.69	1306.02
413.88	1533.05
414.07	1387.94
414.26	1404.32
414.45	1458.15
414.64	1514.33
414.83	1516.67
415.02	1474.54
415.22	1572.84
415.41	1507.30
415.60	1643.06
415.79	1598.59
415.98	1591.56
416.17	1600.93
416.36	1586.88
416.55	1563.48
416.74	1675.82
416.93	1680.50
417.12	1612.63
417.31	1565.82
417.50	1694.55
417.69	1727.32
417.88	1645.40
418.07	1645.40
418.26	1888.81
418.45	1788.17
418.64	1914.56
418.83	1867.75
419.02	1834.98
419.21	1881.79
419.39	1865.41
419.58	1792.85
419.77	1832.64
419.96	1825.62
420.15	1956.69
420.34	1895.83
420.53	1895.83
420.72	1942.64
420.91	1867.75
421.10	1998.82
421.29	1975.41
421.48	1860.73
421.67	2003.50
421.86	1961.37
422.05	2012.86
422.24	1923.92
422.43	1966.05
422.61	1942.64
422.80	2153.29
422.99	2087.76
423.18	2019.88
423.37	2085.42
423.56	1973.07
423.75	1973.07
423.94	1973.07
424.13	1849.02
424.32	1905.20
424.50	2012.86
424.69	2099.46
424.88	2059.67
425.07	2085.42
425.26	2148.61
425.45	1975.41
425.64	2085.42
425.83	1991.80
426.01	2101.80
426.20	1966.05
426.39	2073.71
426.58	2066.69
426.77	2083.08
426.96	2083.08
427.15	2078.40
427.33	2146.27
427.52	2092.44
427.71	2122.87
427.90	2136.91
428.09	2214.15
428.28	2242.23
428.46	2204.78
428.65	2204.78
428.84	2174.36
429.03	2293.72
429.22	2256.28
429.40	2342.88
429.59	2253.94
429.78	2143.93
429.97	2122.87
430.16	2228.19
430.34	2314.79
430.53	2279.68
430.72	2394.37
430.91	2253.94
431.10	2385.01
431.28	2359.26
431.47	2286.70
431.66	2434.16
431.85	2413.09
432.03	2434.16
432.22	2569.91
432.41	2553.52
432.60	2504.37
432.79	2410.75
432.97	2534.80
433.16	2572.25
433.35	2415.43
433.54	2509.05
433.72	2490.33
433.91	2581.61
434.10	2525.44
434.28	2436.50
434.47	2663.53
434.66	2722.04
434.85	2686.94
435.03	2644.81
435.22	2635.44
435.41	2731.41
435.59	2686.94
435.78	2700.98
435.97	2607.36
436.16	2665.87
436.34	2576.93
436.53	2642.46
436.72	2675.23
436.90	2726.72
437.09	2729.06
437.28	2628.42
437.46	2822.69
437.65	2724.38
437.84	2871.84
438.02	2841.41
438.21	2841.41
438.40	2724.38
438.58	2925.67
438.77	2970.14
438.96	2958.44
439.14	2923.33
439.33	2970.14
439.52	2930.35
439.70	2923.33
439.89	3068.44
440.08	3080.14
440.26	3084.83
440.45	3162.06
440.63	3227.60
440.82	2991.20
441.01	3157.38
441.19	3173.77
441.38	3096.53
441.57	3297.81
441.75	3342.28
441.94	3239.30
442.12	3391.44
442.31	3330.58
442.50	3304.84
442.68	3407.82
442.87	3281.43
443.05	3220.58
443.24	3447.61
443.43	3405.48
443.61	3384.41
443.80	3496.76
443.98	3274.41
444.17	3372.71
444.35	3398.46
444.54	3559.95
444.73	3522.51
444.91	3452.29
445.10	3517.83
445.28	3463.99
445.47	3534.21
445.65	3431.23
445.84	3559.95
446.02	3669.96
446.21	3536.55
446.39	3517.83
446.58	3574.00
446.77	3506.12
446.95	3517.83
447.14	3487.40
447.32	3552.93
447.51	3555.27
447.69	3578.68
447.88	3599.74
448.06	3496.76
448.25	3487.40
448.43	3566.98
448.62	3480.38
448.80	3599.74
448.99	3571.66
449.17	3616.13
449.36	3613.79
449.54	3721.45
449.73	3660.60
449.91	3709.75
450.10	3756.56
450.28	3819.75
450.46	3775.28
450.65	3784.65
450.83	3721.45
451.02	3847.84
451.20	3831.46
451.39	3721.45
451.57	3798.69
451.76	3772.94
451.94	3850.18
452.13	3864.22
452.31	3971.89
452.49	3784.65
452.68	3904.01
452.86	3833.80
453.05	4067.85
453.23	3948.48
453.42	3918.06
453.60	3929.76
453.78	3798.69
453.97	3775.28
454.15	3939.12
454.34	3889.97
454.52	4154.45
454.70	4079.55
454.89	4161.47
455.07	4133.39
455.26	4156.79
455.44	4243.39
455.62	4044.45
455.81	4049.13
455.99	4018.70
456.17	4135.73
456.36	4180.20
456.54	4297.22
456.73	4337.01
456.91	4334.67
457.09	4397.87
457.28	4339.35
457.46	4390.84
457.64	4535.96
457.83	4234.03
458.01	4311.27
458.19	4435.32
458.38	4491.49
458.56	4416.59
458.74	4421.27
458.93	4428.29
459.11	4447.02
459.29	4519.57
459.48	4655.33
459.66	4524.26
459.84	4603.83
460.03	4557.02
460.21	4447.02
460.39	4631.92
460.57	4599.15
460.76	4425.95
460.94	4627.24
461.12	4638.94
461.31	4615.54
461.49	4814.48
461.67	4767.67
461.85	4784.06
462.04	4830.87
462.22	5013.43
462.40	5067.26
462.59	4765.33
462.77	4877.68
462.95	4844.91
463.13	4884.70
463.32	4760.65
463.50	4884.70
463.68	4837.89
463.86	4938.53
464.05	4798.10
464.23	4826.18
464.41	5025.13
464.59	4835.55
464.78	5118.75
464.96	5015.77
465.14	4812.14
465.32	5001.72
465.50	5083.64
465.69	5048.54
465.87	5032.15
466.05	5039.17
466.23	5055.56
466.41	5163.22
466.60	5315.36
466.78	5090.67
466.96	5088.32
467.14	5151.52
467.32	5165.56
467.51	5238.12
467.69	5046.20
467.87	5071.94
468.05	5128.11
468.23	5210.03
468.41	5270.89
468.60	5193.65
468.78	5334.08
468.96	5266.21
469.14	5383.23
469.32	5214.71
469.50	5195.99
469.69	5427.70
469.87	5355.15
470.05	5570.48
470.23	5329.40
470.41	5397.28
470.59	5458.13
470.77	5423.02
470.95	5526.00
471.14	5547.07
471.32	5483.88
471.50	5664.10
471.68	5575.16
471.86	5605.58
472.04	5671.12
472.22	5778.78
472.40	5584.52
472.58	5806.87
472.77	5788.14
472.95	5860.70
473.13	6157.95
473.31	5816.23
473.49	5954.32
473.67	5919.21
473.85	6090.07
474.03	6246.89
474.21	6031.56
474.39	6118.16
474.57	6069.01
474.75	6202.42
474.93	6249.23
475.12	6134.54
475.30	6298.38
475.48	6186.04
475.66	6389.66
475.84	6342.85
476.02	6492.65
476.20	6420.09
476.38	6546.48
476.56	6715.00
476.74	6686.91
476.92	6703.29
477.10	6558.18
477.28	6789.89
477.46	6757.13
477.64	6796.92
477.82	6747.76
478.00	7014.59
478.18	7194.81
478.36	7037.99
478.54	7138.63
478.72	7133.95
478.90	6995.86
479.08	7339.92
479.26	7215.87
479.44	7433.54
479.62	7599.72
479.80	7536.52
479.98	7515.46
480.16	7735.47
480.34	7667.60
480.52	7702.70
480.70	7669.94
480.88	7630.15
481.06	7625.47
481.24	7836.11
481.41	7934.42
481.59	7918.03
481.77	8049.10
481.95	8105.28
482.13	8138.04
482.31	8248.05
482.49	8297.20
482.67	8484.44
482.85	8568.70
483.03	8805.10
483.21	8596.79
483.39	8671.68
483.57	8585.08
483.74	8837.86
483.92	8847.22
484.10	8994.68
484.28	8964.25
484.46	9085.96
484.64	9226.39
484.82	9081.28
485.00	9221.71
485.18	9310.65
485.35	9500.23
485.53	9322.35
485.71	9563.43
485.89	9879.40
486.07	9795.14
486.25	9617.26
486.43	9891.10
486.61	10026.86
486.78	10139.20
486.96	10059.62
487.14	10246.87
487.32	10326.44
487.50	10274.95
487.68	10422.41
487.85	10429.43
488.03	10562.84
488.21	10537.09
488.39	10700.93
488.57	10778.17
488.75	10817.96
488.92	10832.00
489.10	11360.96
489.28	10981.79
489.46	11229.89
489.64	11421.81
489.81	11440.54
489.99	11513.10
490.17	11747.15
490.35	11786.94
490.53	11676.93
490.70	11777.58
490.88	11910.99
491.06	11864.18
491.24	12044.40
491.41	12285.47
491.59	12067.80
491.77	12035.03
491.95	12236.32
492.13	12360.37
492.30	12498.46
492.48	12402.50
492.66	12320.58
492.84	12582.72
493.01	12905.71
493.19	12603.78
493.37	12746.56
493.54	12901.03
493.72	13177.22
493.90	12982.95
494.08	13027.42
494.25	13415.95
494.43	13247.43
494.61	13465.10
494.79	13493.19
494.96	13518.93
495.14	13579.79
495.32	13708.52
495.49	13540.00
495.67	14010.45
495.85	14019.81
496.02	14059.60
496.20	13963.64
496.38	14111.09
496.55	14097.05
496.73	14525.36
496.91	14377.91
497.09	14548.77
497.26	14670.48
497.44	14623.67
497.62	14448.13
497.79	14934.96
497.97	15059.01
498.14	15016.88
498.32	15122.20
498.50	15077.73
498.67	15080.07
498.85	15122.20
499.03	15218.16
499.20	15215.82
499.38	15218.16
499.56	15592.65
499.73	15431.15
499.91	15550.52
500.08	15782.23
500.26	15421.79
500.44	15510.73
500.61	15803.30
500.79	15487.32
500.97	15803.30
501.14	16102.89
501.32	16133.31
501.49	16203.53
501.67	16215.23
501.84	16116.93
502.02	16355.66
502.20	16348.64
502.37	16666.95
502.55	16428.22
502.72	16486.73
502.90	16439.92
503.07	16540.57
503.25	16449.28
503.43	16549.93
503.60	17043.78
503.78	16657.59
503.95	16978.25
504.13	17046.12
504.30	16826.11
504.48	16917.39
504.65	17106.98
504.83	16805.05
505.01	17338.69
505.18	17277.83
505.36	17603.17
505.53	16980.59
505.71	17282.52
505.88	17282.52
506.06	17355.07
506.23	17472.10
506.41	17722.54
506.58	17633.60
506.76	17774.03
506.93	17329.33
507.11	17659.34
507.28	17930.84
507.46	17811.48
507.63	17968.29
507.81	17972.97
507.98	18120.43
508.16	18181.28
508.33	17970.63
508.50	18450.44
508.68	18155.54
508.85	18611.94
509.03	18321.71
509.20	18530.02
509.38	18525.34
509.55	18719.60
509.73	18827.27
509.90	18712.58
510.08	18672.79
510.25	18803.86
510.42	18747.69
510.60	18984.09
510.77	18822.59
510.95	19044.94
511.12	19187.71
511.30	19140.90
511.47	19101.11
511.64	19194.73
511.82	19110.47
511.99	19227.50
512.17	19470.92
512.34	19428.79
512.51	19431.13
512.69	19447.51
512.86	19571.56
513.04	19630.07
513.21	19702.63
513.38	19917.96
513.56	20098.18
513.73	19697.95
513.90	19623.05
514.08	19761.14
514.25	19988.18
514.43	20058.39
514.60	20182.44
514.77	20116.90
514.95	20287.76
515.12	19943.70
515.29	20255.00
515.47	20350.96
515.64	20140.31
515.81	20191.80
515.99	20477.35
516.16	20826.09
516.33	20828.43
516.51	20634.16
516.68	20411.81
516.85	20535.86
517.03	20783.96
517.20	20758.21
517.37	21001.63
517.54	20814.38
517.72	20816.72
517.89	20924.39
518.06	20891.62
518.24	20662.25
518.41	21027.37
518.58	21338.66
518.75	21188.87
518.93	21069.50
519.10	21500.16
519.27	21446.33
519.45	21338.66
519.62	21207.59
519.79	21596.12
519.96	21291.85
520.14	21404.20
520.31	21502.50
520.48	21982.31
520.65	21364.41
520.83	21462.71
521.00	21769.32
521.17	21762.30
521.34	21652.30
521.52	21659.32
521.69	22033.80
521.86	22059.55
522.03	22274.88
522.20	22342.75
522.38	22176.58
522.55	22026.78
522.72	22118.06
522.89	22295.94
523.07	22436.38
523.24	22291.26
523.41	22588.51
523.58	22300.62
523.75	22801.50
523.92	22651.70
524.10	22497.23
524.27	22539.36
524.44	23082.36
524.61	22855.33
524.78	23047.26
524.96	22899.80
525.13	22902.14
525.30	22993.42
525.47	23178.33
525.64	22988.74
525.81	23257.90
525.98	23239.18
526.16	23147.90
526.33	22824.90
526.50	23316.42
526.67	23047.26
526.84	23400.68
527.01	23267.27
527.18	23260.24
527.36	23428.76
527.53	23644.09
527.70	23845.38
527.87	23974.11
528.04	23515.36
528.21	23843.04
528.38	23496.64
528.55	23330.46
528.72	23676.86
528.89	23737.71
529.07	23838.36
529.24	23718.99
529.41	23922.62
529.58	23613.66
529.75	24009.22
529.92	23922.62
530.09	24166.03
530.26	24032.62
530.43	23927.30
530.60	23936.66
530.77	23868.78
530.94	24238.59
531.11	24285.40
531.28	24273.70
531.46	24254.97
531.63	24491.37
531.80	24287.74
531.97	24584.99
532.14	24575.62
532.31	24402.43
532.48	24318.17
532.65	24723.08
532.82	24606.05
532.99	24629.46
533.16	24484.34
533.33	24741.80
533.50	25146.72
533.67	24788.61
533.84	24929.05
534.01	24847.13
534.18	24662.22
534.35	25025.01
534.52	24814.36
534.69	25249.70
534.86	25305.87
535.03	25209.91
535.20	25102.25
535.37	24751.17
535.54	25324.60
535.71	24896.28
535.88	25142.03
536.05	25111.61
536.22	25443.96
536.38	25542.27
536.55	25612.48
536.72	25441.62
536.89	25221.61
537.06	25598.44
537.23	25598.44
537.40	25462.69
537.57	25329.28
537.74	25713.13
537.91	25593.76
538.08	25553.97
538.25	25785.68
538.42	25600.78
538.59	26047.82
538.75	25362.04
538.92	25586.74
539.09	25865.26
539.26	25509.50
539.43	25762.28
539.60	26230.38
539.77	25706.10
539.94	26333.37
540.11	26153.15
540.28	25804.41
540.44	26094.63
540.61	26038.46
540.78	26038.46
540.95	26092.29
541.12	26302.94
541.29	26228.04
541.46	25738.87
541.62	25816.11
541.79	26122.72
541.96	25998.67
542.13	26438.69
542.30	26382.52
542.47	26256.13
542.63	26389.54
542.80	26183.57
542.97	26621.25
543.14	26888.07
543.31	26862.33
543.48	26782.75
543.64	27044.89
543.81	26742.96
543.98	26892.76
544.15	27178.30
544.32	26972.33
544.48	26904.46
544.65	26684.45
544.82	26969.99
544.99	26766.37
545.16	27080.00
545.32	27426.40
545.49	27421.72
545.66	27686.20
545.83	27271.92
546.00	27688.54
546.16	27138.51
546.33	27358.52
546.50	27047.23
546.67	27131.49
546.83	27117.45
547.00	27363.20
547.17	27173.62
547.34	27204.05
547.50	27555.13
547.67	27545.76
547.84	27321.07
548.00	27615.98
548.17	27548.11
548.34	27648.75
548.51	27538.74
548.67	27676.83
548.84	27667.47
549.01	27826.63
549.18	27414.69
549.34	27938.97
549.51	27971.74
549.68	27674.49
549.84	27566.83
550.01	27721.30
550.18	27700.24
550.34	28151.96
550.51	28231.54
550.68	28149.62
550.84	27718.96
551.01	28280.69
551.18	27974.08
551.34	27992.81
551.51	27899.19
551.68	27665.13
551.84	28196.43
552.01	28046.64
552.18	28137.92
552.34	28081.75
552.51	28519.43
552.68	28257.29
552.84	28690.29
553.01	28369.63
553.18	28376.66
553.34	28334.53
553.51	28610.71
553.67	28517.09
553.84	28781.57
554.01	28659.86
554.17	28575.60
554.34	28329.84
554.51	28573.26
554.67	28823.70
554.84	28809.65
555.00	28353.25
555.17	28472.62
555.33	28655.18
555.50	28713.69
555.67	28620.07
555.83	28400.06
556.00	28811.99
556.16	29153.71
556.33	28989.88
556.50	28435.17
556.66	29013.28
556.83	28900.94
556.99	28968.81
557.16	29200.52
557.32	29156.05
557.49	28767.52
557.65	28531.13
557.82	28666.88
557.98	28519.43
558.15	29060.09
558.32	29326.91
558.48	28996.90
558.65	29013.28
558.81	29383.09
558.98	29174.78
559.14	28982.85
559.31	28971.15
559.47	28903.28
559.64	29200.52
559.80	29214.57
559.97	29130.31
560.13	29432.24
560.30	29359.68
560.46	29383.09
560.63	29394.79
560.79	29252.02
560.96	29329.25
561.12	28971.15
561.29	28929.02
561.45	29490.75
561.61	29237.97
561.78	29406.49
561.94	29263.72
562.11	29858.21
562.27	29195.84
562.44	29551.60
562.60	29640.54
562.77	29474.37
562.93	29343.30
563.10	29764.59
563.26	29296.49
563.42	29954.18
563.59	29694.38
563.75	29366.70
563.92	29748.21
564.08	29319.89
564.24	29771.61
564.41	29469.69
564.57	29525.86
564.74	29362.02
564.90	30040.78
565.07	30010.35
565.23	29832.47
565.39	29972.90
565.56	30061.84
565.72	29893.32
565.88	29488.41
566.05	29867.58
566.21	29511.81
566.38	29706.08
566.54	29830.13
566.70	30197.59
566.87	30199.93
567.03	30272.49
567.19	30148.44
567.36	29900.34
567.52	30017.37
567.68	30110.99
567.85	29743.53
568.01	29898.00
568.17	30003.33
568.34	29979.92
568.50	29869.92
568.66	30127.38
568.83	30134.40
568.99	29919.07
569.15	29788.00
569.32	30040.78
569.48	29546.92
569.64	29755.23
569.81	29881.62
569.97	29560.97
570.13	30078.22
570.30	29780.98
570.46	30082.91
570.62	30071.20
570.78	30176.53
570.95	30146.10
571.11	29979.92
571.27	29881.62
571.43	29528.20
571.60	30305.26
571.76	30075.88
571.92	30377.81
572.09	30155.46
572.25	30195.25
572.41	30366.11
572.57	30019.71
572.74	30235.04
572.90	29933.11
573.06	30047.80
573.22	30298.23
573.38	30391.86
573.55	30237.38
573.71	30288.87
573.87	30396.54
574.03	30256.11
574.20	30010.35
574.36	30274.83
574.52	29989.28
574.68	30263.13
574.84	30459.73
575.01	30288.87
575.17	30522.93
575.33	30209.29
575.49	30178.87
575.65	30593.14
575.82	30134.40
575.98	30298.23
576.14	30272.49
576.30	30029.07
576.46	30270.15
576.62	30448.03
576.79	30707.83
576.95	30354.41
577.11	30366.11
577.27	30834.22
577.43	30167.16
577.59	30604.84
577.75	30431.65
577.92	30277.17
578.08	30373.13
578.24	30092.27
578.40	30061.84
578.56	30017.37
578.72	30625.91
578.88	30534.63
579.04	30625.91
579.21	30398.88
579.37	30574.42
579.53	30726.55
579.69	30087.59
579.85	30513.56
580.01	30295.89
580.17	29923.75
580.33	30242.06
580.49	30466.75
580.65	30345.05
580.82	30693.79
580.98	30520.59
581.14	30569.74
581.30	30515.90
581.46	30221.00
581.62	30602.50
581.78	30139.08
581.94	30328.66
582.10	30347.39
582.26	30382.49
582.42	30298.23
582.58	30431.65
582.74	30679.74
582.90	30305.26
583.06	30628.25
583.22	30646.97
583.38	30438.67
583.54	30590.80
583.70	30204.61
583.86	30340.36
584.02	30424.62
584.18	30747.62
584.34	30808.47
584.50	30604.84
584.66	30080.56
584.82	30366.11
584.98	30471.43
585.14	30218.66
585.30	30684.42
585.46	30473.78
585.62	30389.52
585.78	30417.60
585.94	30174.19
586.10	30773.36
586.26	30609.53
586.42	31182.96
586.58	30682.08
586.74	30293.55
586.90	30078.22
587.06	30242.06
587.22	30490.16
587.38	30721.87
587.54	30719.53
587.70	30733.57
587.86	30974.65
588.02	30796.77
588.18	30773.36
588.34	30855.28
588.49	30794.43
588.65	30466.75
588.81	30534.63
588.97	30539.31
589.13	30583.78
589.29	30852.94
589.45	30829.54
589.61	30459.73
589.77	31278.92
589.93	30976.99
590.08	30920.82
590.24	31079.97
590.40	30899.75
590.56	30991.03
590.72	30604.84
590.88	30300.58
591.04	30740.60
591.20	30913.80
591.35	31440.42
591.51	31356.16
591.67	31007.42
591.83	31288.28
