SpectraSuite Data File
++++++++++++++++++++++++++++++++++++
Date: Fri Oct 18 13:58:11 GMT-05:00 2013
User: bianchi
Dark Spectrum Present: No
Reference Spectrum Present: No
Number of Sampled Component Spectra: 1
Spectrometers: USB2+H05261
Integration Time (usec): 50000 (USB2+H05261)
Spectra Averaged: 1 (USB2+H05261)
Boxcar Smoothing: 0 (USB2+H05261)
Correct for Electrical Dark: No (USB2+H05261)
Strobe/Lamp Enabled: No (USB2+H05261)
Correct for Detector Non-linearity: No (USB2+H05261)
Correct for Stray Light: No (USB2+H05261)
Number of Pixels in Processed Spectrum: 2048
>>>>>Begin Processed Spectral Data<<<<<
365.73	0.00
365.92	0.00
366.12	0.00
366.32	0.00
366.52	0.00
366.72	0.00
366.91	0.00
367.11	0.00
367.31	0.00
367.51	0.00
367.70	0.00
367.90	0.00
368.10	0.00
368.30	0.00
368.49	0.00
368.69	0.00
368.89	0.00
369.09	0.00
369.28	0.00
369.48	0.00
369.68	0.00
369.87	0.00
370.07	0.00
370.27	0.00
370.47	0.00
370.66	65.54
370.86	138.09
371.06	23.41
371.25	180.22
371.45	135.75
371.65	159.16
371.84	159.16
372.04	119.37
372.24	114.69
372.44	142.77
372.63	126.39
372.83	133.41
373.03	222.35
373.22	255.12
373.42	187.24
373.62	210.65
373.81	236.39
374.01	205.97
374.21	283.20
374.40	276.18
374.60	250.44
374.79	273.84
374.99	259.80
375.19	222.35
375.38	231.71
375.58	210.65
375.78	250.44
375.97	248.10
376.17	372.15
376.37	245.76
376.56	283.20
376.76	301.93
376.95	227.03
377.15	330.02
377.35	294.91
377.54	285.55
377.74	212.99
377.93	264.48
378.13	301.93
378.33	332.36
378.52	236.39
378.72	332.36
378.91	276.18
379.11	365.12
379.31	320.65
379.50	280.86
379.70	346.40
379.89	344.06
380.09	322.99
380.28	311.29
380.48	259.80
380.68	301.93
380.87	348.74
381.07	344.06
381.26	334.70
381.46	346.40
381.65	306.61
381.85	283.20
382.04	278.52
382.24	330.02
382.43	315.97
382.63	285.55
382.83	409.59
383.02	315.97
383.22	411.93
383.41	278.52
383.61	367.46
383.80	437.68
384.00	418.96
384.19	411.93
384.39	395.55
384.58	416.62
384.78	433.00
384.97	372.15
385.17	383.85
385.36	437.68
385.56	367.46
385.75	442.36
385.95	374.49
386.14	409.59
386.34	358.10
386.53	479.81
386.72	414.27
386.92	421.30
387.11	449.38
387.31	416.62
387.50	430.66
387.70	458.74
387.89	358.10
388.09	402.57
388.28	496.19
388.48	358.10
388.67	519.60
388.86	444.70
389.06	454.06
389.25	482.15
389.45	458.74
389.64	535.98
389.84	514.92
390.03	519.60
390.22	482.15
390.42	519.60
390.61	395.55
390.81	521.94
391.00	465.77
391.19	554.71
391.39	620.24
391.58	589.82
391.78	557.05
391.97	526.62
392.16	575.77
392.36	510.24
392.55	540.66
392.75	498.53
392.94	596.84
393.13	571.09
393.33	566.41
393.52	578.11
393.71	631.94
393.91	594.50
394.10	587.47
394.29	620.24
394.49	531.30
394.68	631.94
394.88	622.58
395.07	627.26
395.26	685.78
395.46	594.50
395.65	521.94
395.84	596.84
396.04	702.16
396.23	720.88
396.42	718.54
396.62	688.12
396.81	739.61
397.00	657.69
397.19	645.99
397.39	688.12
397.58	730.25
397.77	725.57
397.97	657.69
398.16	709.18
398.35	671.73
398.55	688.12
398.74	692.80
398.93	760.67
399.12	770.04
399.32	734.93
399.51	772.38
399.70	772.38
399.90	805.14
400.09	800.46
400.28	713.86
400.47	802.80
400.67	823.87
400.86	798.12
401.05	812.17
401.24	919.83
401.44	795.78
401.63	856.64
401.82	741.95
402.01	805.14
402.21	809.83
402.40	791.10
402.59	870.68
402.78	894.08
402.97	870.68
403.17	849.61
403.36	978.34
403.55	901.11
403.74	889.40
403.93	980.68
404.13	1004.09
404.32	1011.11
404.51	950.26
404.70	926.85
404.89	889.40
405.09	1055.58
405.28	851.96
405.47	950.26
405.66	992.39
405.85	1050.90
406.05	976.00
406.24	1022.81
406.43	980.68
406.62	994.73
406.81	1046.22
407.00	1053.24
407.20	1100.05
407.39	1055.58
407.58	1109.41
407.77	1043.88
407.96	1036.86
408.15	1095.37
408.34	1008.77
408.54	1144.52
408.73	1146.86
408.92	1139.84
409.11	1179.63
409.30	1121.12
409.49	1132.82
409.68	1203.04
409.87	1203.04
410.07	1268.57
410.26	1254.53
410.45	1144.52
410.64	1121.12
410.83	1149.20
411.02	1320.06
411.21	1252.19
411.40	1277.93
411.59	1282.61
411.78	1357.51
411.98	1266.23
412.17	1320.06
412.36	1308.36
412.55	1320.06
412.74	1362.19
412.93	1430.07
413.12	1357.51
413.31	1472.20
413.50	1376.24
413.69	1261.55
413.88	1418.36
414.07	1455.81
414.26	1603.27
414.45	1453.47
414.64	1481.56
414.83	1575.18
415.02	1544.75
415.22	1619.65
415.41	1612.63
415.60	1533.05
415.79	1483.90
415.98	1619.65
416.17	1561.14
416.36	1624.33
416.55	1689.87
416.74	1654.76
416.93	1659.44
417.12	1710.93
417.31	1706.25
417.50	1671.14
417.69	1806.89
417.88	1652.42
418.07	1739.02
418.26	1809.23
418.45	1823.28
418.64	1879.45
418.83	1776.47
419.02	1788.17
419.21	1872.43
419.39	1926.26
419.58	1837.32
419.77	1795.19
419.96	1858.39
420.15	1853.70
420.34	1870.09
420.53	1947.33
420.72	1944.99
420.91	2012.86
421.10	1912.22
421.29	1937.96
421.48	2017.54
421.67	2062.01
421.86	1919.24
422.05	2080.74
422.24	2078.40
422.43	2001.16
422.61	1994.14
422.80	2017.54
422.99	1952.01
423.18	2204.78
423.37	2157.97
423.56	2050.31
423.75	2010.52
423.94	1989.46
424.13	1966.05
424.32	1942.64
424.50	2076.06
424.69	2134.57
424.88	2038.61
425.07	2078.40
425.26	2127.55
425.45	2031.58
425.64	2129.89
425.83	2069.03
426.01	2122.87
426.20	2118.18
426.39	2143.93
426.58	2097.12
426.77	2188.40
426.96	2118.18
427.15	2207.13
427.33	2232.87
427.52	2085.42
427.71	2160.31
427.90	2157.97
428.09	2183.72
428.28	2139.25
428.46	2207.13
428.65	2253.94
428.84	2267.98
429.03	2286.70
429.22	2230.53
429.40	2340.54
429.59	2275.00
429.78	2125.21
429.97	2263.30
430.16	2179.04
430.34	2455.22
430.53	2361.60
430.72	2347.56
430.91	2331.17
431.10	2422.45
431.28	2443.52
431.47	2406.07
431.66	2406.07
431.85	2373.30
432.03	2466.92
432.22	2424.80
432.41	2471.61
432.60	2555.86
432.79	2471.61
432.97	2518.42
433.16	2485.65
433.35	2504.37
433.54	2588.63
433.72	2520.76
433.91	2621.40
434.10	2614.38
434.28	2546.50
434.47	2593.31
434.66	2544.16
434.85	2689.28
435.03	2740.77
435.22	2569.91
435.41	2745.45
435.59	2661.19
435.78	2719.70
435.97	2665.87
436.16	2740.77
436.34	2738.43
436.53	2724.38
436.72	2878.86
436.90	2663.53
437.09	2747.79
437.28	2602.68
437.46	2761.83
437.65	2752.47
437.84	2871.84
438.02	2799.28
438.21	2789.92
438.40	2775.88
438.58	3040.36
438.77	2925.67
438.96	2916.31
439.14	3019.29
439.33	3033.33
439.52	3028.65
439.70	2972.48
439.89	3063.76
440.08	3066.10
440.26	3049.72
440.45	3087.17
440.63	3180.79
440.82	3152.70
441.01	3178.45
441.19	3162.06
441.38	3344.63
441.57	3405.48
441.75	3368.03
441.94	3222.92
442.12	3391.44
442.31	3440.59
442.50	3332.92
442.68	3276.75
442.87	3351.65
443.05	3414.84
443.24	3520.17
443.43	3487.40
443.61	3473.36
443.80	3674.64
443.98	3335.26
444.17	3468.67
444.35	3344.63
444.54	3597.40
444.73	3506.12
444.91	3503.78
445.10	3508.46
445.28	3496.76
445.47	3382.07
445.65	3529.53
445.84	3496.76
446.02	3492.08
446.21	3480.38
446.39	3627.83
446.58	3550.59
446.77	3548.25
446.95	3548.25
447.14	3684.00
447.32	3637.19
447.51	3478.04
447.69	3538.89
447.88	3597.40
448.06	3487.40
448.25	3669.96
448.43	3590.38
448.62	3634.85
448.80	3634.85
448.99	3641.87
449.17	3756.56
449.36	3641.87
449.54	3798.69
449.73	3712.09
449.91	3742.52
450.10	3768.26
450.28	3805.71
450.46	3871.25
450.65	3712.09
450.83	3728.47
451.02	3805.71
451.20	3927.42
451.39	3770.60
451.57	3786.99
451.76	3749.54
451.94	3990.61
452.13	4065.51
452.31	3840.82
452.49	3798.69
452.68	3873.59
452.86	3929.76
453.05	3962.53
453.23	3957.85
453.42	4028.06
453.60	3964.87
453.78	3967.21
453.97	4042.11
454.15	4044.45
454.34	4086.58
454.52	4074.87
454.70	3990.61
454.89	4053.81
455.07	4014.02
455.26	4224.67
455.44	4248.07
455.62	4297.22
455.81	4138.07
455.99	4320.63
456.17	4353.40
456.36	4177.86
456.54	4175.52
456.73	4339.35
456.91	4308.93
457.09	4259.78
457.28	4475.10
457.46	4432.97
457.64	4554.68
457.83	4592.13
458.01	4479.79
458.19	4496.17
458.38	4409.57
458.56	4580.43
458.74	4472.76
458.93	4582.77
459.11	4603.83
459.29	4421.27
459.48	4573.41
459.66	4564.04
459.84	4671.71
460.03	4674.05
460.21	4645.96
460.39	4645.96
460.57	4454.04
460.76	4709.16
460.94	4713.84
461.12	4692.77
461.31	4624.90
461.49	4613.20
461.67	4706.82
461.85	4844.91
462.04	4674.05
462.22	5226.42
462.40	4856.61
462.59	4812.14
462.77	4950.23
462.95	4861.29
463.13	4788.74
463.32	5018.11
463.50	4880.02
463.68	4924.49
463.86	4884.70
464.05	4865.97
464.23	4940.87
464.41	5015.77
464.59	4844.91
464.78	5111.73
464.96	5022.79
465.14	5064.92
465.32	5121.09
465.50	5165.56
465.69	5184.29
465.87	5029.81
466.05	4971.30
466.23	5097.69
466.41	5184.29
466.60	5235.78
466.78	5163.22
466.96	5137.48
467.14	5156.20
467.32	5289.61
467.51	5355.15
467.69	5146.84
467.87	5224.08
468.05	5362.17
468.23	5310.68
468.41	5397.28
468.60	5380.89
468.78	5401.96
468.96	5205.35
469.14	5331.74
469.32	5451.11
469.50	5291.95
469.69	5570.48
469.87	5504.94
470.05	5467.49
470.23	5610.26
470.41	5509.62
470.59	5540.05
470.77	5469.83
470.95	5792.83
471.14	5603.24
471.32	5659.42
471.50	5774.10
471.68	5736.65
471.86	5710.91
472.04	5708.57
472.22	5907.51
472.40	5806.87
472.58	5942.62
472.77	5851.34
472.95	5940.28
473.13	6230.51
473.31	5907.51
473.49	5881.77
473.67	6139.23
473.85	6176.67
474.03	6211.78
474.21	6069.01
474.39	6258.59
474.57	6328.81
474.75	6251.57
474.93	6335.83
475.12	6272.64
475.30	6452.86
475.48	6289.02
475.66	6239.87
475.84	6399.02
476.02	6562.86
476.20	6572.22
476.38	6612.01
476.56	6731.38
476.74	6609.67
476.92	6586.27
477.10	6747.76
477.28	6703.29
477.46	6979.48
477.64	6691.59
477.82	6986.50
478.00	7164.38
478.18	7140.97
478.36	7124.59
478.54	7215.87
478.72	7197.15
478.90	7337.58
479.08	7316.51
479.26	7337.58
479.44	7433.54
479.62	7529.50
479.80	7550.57
479.98	7761.22
480.16	7716.75
480.34	7634.83
480.52	7805.69
480.70	7850.16
480.88	7613.76
481.06	7803.35
481.24	7901.65
481.41	7941.44
481.59	8100.59
481.77	8224.64
481.95	8285.50
482.13	8325.29
482.31	8163.79
482.49	8500.83
482.67	8306.56
482.85	8514.87
483.03	8601.47
483.21	8692.75
483.39	8716.16
483.57	8772.33
483.74	8835.52
483.92	8802.75
484.10	8959.57
484.28	9102.34
484.46	9254.48
484.64	9518.96
484.82	9207.67
485.00	9359.80
485.18	9376.19
485.35	9514.28
485.53	9645.35
485.71	9603.22
485.89	9980.04
486.07	9837.27
486.25	9881.74
486.43	9858.34
486.61	9909.83
486.78	9977.70
486.96	10193.03
487.14	10164.95
487.32	10174.31
487.50	10455.17
487.68	10569.86
487.85	10679.86
488.03	10761.78
488.21	10754.76
488.39	10897.53
488.57	10995.84
488.75	10934.98
488.92	11016.90
489.10	11265.00
489.28	11138.61
489.46	11447.56
489.64	11262.66
489.81	11447.56
489.99	11637.14
490.17	11477.99
490.35	11885.24
490.53	11887.58
490.70	11932.05
490.88	11796.30
491.06	12028.01
491.24	12133.34
491.41	12173.13
491.59	12119.29
491.77	12222.28
491.95	12573.36
492.13	12486.76
492.30	12535.91
492.48	12795.71
492.66	12676.34
492.84	12514.84
493.01	12994.65
493.19	12692.73
493.37	13043.81
493.54	13039.12
493.72	13123.38
493.90	13224.03
494.08	13331.69
494.25	13511.91
494.43	13635.96
494.61	13855.97
494.79	13699.16
494.96	13600.85
495.14	13748.31
495.32	13954.27
495.49	13994.06
495.67	14017.47
495.85	14228.12
496.02	14101.73
496.20	14174.28
496.38	14122.79
496.55	14125.13
496.73	14516.00
496.91	14450.47
497.09	14761.76
497.26	14731.33
497.44	14740.69
497.62	14703.25
497.79	14867.08
497.97	14993.47
498.14	15332.85
498.32	15145.61
498.50	15190.08
498.67	15506.05
498.85	15435.83
499.03	15323.49
499.20	15506.05
499.38	15496.69
499.56	15492.01
499.73	15894.58
499.91	15613.71
500.08	15573.92
500.26	15751.81
500.44	15878.19
500.61	15786.91
500.79	15700.31
500.97	16044.37
501.14	16067.78
501.32	16353.32
501.49	16219.91
501.67	16360.34
501.84	16259.70
502.02	16325.24
502.20	16318.22
502.37	16671.64
502.55	16599.08
502.72	16606.10
502.90	16617.80
503.07	16568.65
503.25	16872.92
503.43	16664.61
503.60	16751.21
503.78	17081.23
503.95	17020.38
504.13	16982.93
504.30	16996.97
504.48	17312.94
504.65	17247.41
504.83	17418.27
505.01	17675.73
505.18	17427.63
505.36	17795.09
505.53	17380.82
505.71	17532.95
505.88	17547.00
506.06	17577.42
506.23	17699.13
506.41	17823.18
506.58	17741.26
506.76	17617.21
506.93	17820.84
507.11	17991.70
507.28	18380.23
507.46	18012.76
507.63	17963.61
507.81	18258.52
507.98	18431.72
508.16	18281.92
508.33	18232.77
508.50	18312.35
508.68	18555.77
508.85	18721.95
509.03	18593.22
509.20	18520.66
509.38	18738.33
509.55	18867.06
509.73	18775.78
509.90	18857.70
510.08	18860.04
510.25	18801.52
510.42	19030.90
510.60	18864.72
510.77	19192.39
510.95	19026.21
511.12	18801.52
511.30	19269.63
511.47	19534.11
511.64	19475.60
511.82	19648.80
511.99	19592.62
512.17	19882.85
512.34	19543.47
512.51	19807.95
512.69	19641.78
512.86	19840.72
513.04	20027.96
513.21	19758.80
513.38	19997.54
513.56	20250.32
513.73	20030.30
513.90	19950.73
514.08	19990.52
514.25	20091.16
514.43	20201.16
514.60	20236.27
514.77	20369.68
514.95	20238.61
515.12	20070.09
515.29	20587.35
515.47	20397.77
515.64	20634.16
515.81	20456.28
515.99	21013.33
516.16	21046.10
516.33	20875.24
516.51	20903.32
516.68	20699.70
516.85	21015.67
517.03	21032.05
517.20	21027.37
517.37	21102.27
517.54	20898.64
517.72	20947.79
517.89	21036.74
518.06	20992.26
518.24	21364.41
518.41	21092.91
518.58	21291.85
518.75	21380.79
518.93	21532.93
519.10	21537.61
519.27	21678.04
519.45	21553.99
519.62	21465.05
519.79	21551.65
519.96	21418.24
520.14	22071.25
520.31	21820.81
520.48	22197.64
520.65	22052.53
520.83	22099.34
521.00	21809.11
521.17	22064.23
521.34	22242.11
521.52	22167.21
521.69	22078.27
521.86	22412.97
522.03	22291.26
522.20	21998.70
522.38	22277.22
522.55	22288.92
522.72	22209.34
522.89	22408.29
523.07	22775.75
523.24	22569.79
523.41	22888.10
523.58	22541.70
523.75	22480.85
523.92	22693.83
524.10	22532.34
524.27	22909.16
524.44	22860.01
524.61	23002.78
524.78	23005.13
524.96	23133.86
525.13	22916.19
525.30	23171.30
525.47	23131.51
525.64	23175.98
525.81	23403.02
525.98	23477.91
526.16	23318.76
526.33	23585.58
526.50	23831.33
526.67	23442.81
526.84	23517.70
527.01	23159.60
527.18	23616.01
527.36	23463.87
527.53	23613.66
527.70	24114.54
527.87	23885.17
528.04	23913.25
528.21	23955.38
528.38	23943.68
528.55	24056.03
528.72	23850.06
528.89	23988.15
529.07	23901.55
529.24	24299.44
529.41	23978.79
529.58	24121.56
529.75	24173.05
529.92	24067.73
530.09	24360.30
530.26	24271.36
530.43	24694.99
530.60	24325.19
530.77	24364.98
530.94	24472.64
531.11	24243.27
531.28	24336.89
531.46	24446.90
531.63	24664.57
531.80	24844.79
531.97	24781.59
532.14	24819.04
532.31	24826.06
532.48	24446.90
532.65	24769.89
532.82	24856.49
532.99	24926.71
533.16	24760.53
533.33	25226.29
533.50	25228.63
533.67	24704.35
533.84	24922.02
534.01	25188.85
534.18	24716.06
534.35	25116.29
534.52	25500.14
534.69	25085.86
534.86	25488.43
535.03	25071.82
535.20	25078.84
535.37	25359.70
535.54	25785.68
535.71	25287.15
535.88	25446.30
536.05	25671.00
536.22	25689.72
536.38	25596.10
536.55	25579.71
536.72	25717.81
536.89	25226.29
537.06	25397.15
537.23	25745.89
537.40	25483.75
537.57	25832.49
537.74	25790.36
537.91	26036.12
538.08	25820.79
538.25	26181.23
538.42	25970.58
538.59	26038.46
538.75	25935.48
538.92	26141.44
539.09	26085.27
539.26	26197.62
539.43	26106.34
539.60	26197.62
539.77	26316.98
539.94	26532.31
540.11	26361.45
540.28	26389.54
540.44	25991.65
540.61	26396.56
540.78	26391.88
540.95	26089.95
541.12	26279.54
541.29	26450.39
541.46	26738.28
541.62	26611.89
541.79	26712.53
541.96	26448.05
542.13	26775.73
542.30	26497.20
542.47	26824.88
542.63	26778.07
542.80	27021.48
542.97	27072.98
543.14	27159.58
543.31	27091.70
543.48	26951.27
543.64	27278.94
543.81	27147.87
543.98	27435.76
544.15	27187.66
544.32	27410.01
544.48	27248.52
544.65	27267.24
544.82	27094.04
544.99	27271.92
545.16	27267.24
545.32	27377.25
545.49	27852.38
545.66	27632.36
545.83	27435.76
546.00	27938.97
546.16	27796.20
546.33	27587.89
546.50	27080.00
546.67	27543.42
546.83	27339.80
547.00	27751.73
547.17	27711.94
547.34	28065.36
547.50	27658.11
547.67	27887.48
547.84	27618.32
548.00	27704.92
548.17	28353.25
548.34	28151.96
548.51	27978.76
548.67	28060.68
548.84	27943.66
549.01	28053.66
549.18	27833.65
549.34	28322.82
549.51	27831.31
549.68	27875.78
549.84	28046.64
550.01	28416.44
550.18	28058.34
550.34	28327.50
550.51	28151.96
550.68	28353.25
550.84	28257.29
551.01	28116.86
551.18	28151.96
551.34	28343.89
551.51	28526.45
551.68	28273.67
551.84	28505.38
552.01	28201.11
552.18	28690.29
552.34	28393.04
552.51	28730.08
552.68	28863.49
552.84	28563.90
553.01	28767.52
553.18	28968.81
553.34	28772.21
553.51	28493.68
553.67	28936.04
553.84	28823.70
554.01	28875.19
554.17	28889.23
554.34	28840.08
554.51	28788.59
554.67	29202.86
554.84	28826.04
555.00	28744.12
555.17	29048.39
555.33	28809.65
555.50	28823.70
555.67	29193.50
555.83	29177.12
556.00	28992.22
556.16	29050.73
556.33	29097.54
556.50	29188.82
556.66	29221.59
556.83	29036.69
556.99	29415.85
557.16	29310.53
557.32	29600.76
557.49	29544.58
557.65	29209.89
557.82	29095.20
557.98	28936.04
558.15	29263.72
558.32	29689.70
558.48	29523.52
558.65	29352.66
558.81	29563.31
558.98	29270.74
559.14	29376.06
559.31	29436.92
559.47	29390.11
559.64	29518.84
559.80	29654.59
559.97	30005.67
560.13	29544.58
560.30	29560.97
560.46	29600.76
560.63	29778.64
560.79	29575.01
560.96	29743.53
561.12	29596.07
561.29	29488.41
561.45	29764.59
561.61	29963.54
561.78	30094.61
561.94	29724.80
562.11	29792.68
562.27	30066.52
562.44	29390.11
562.60	29818.42
562.77	29663.95
562.93	29483.73
563.10	29907.37
563.26	29474.37
563.42	30197.59
563.59	30164.82
563.75	29516.50
563.92	30047.80
564.08	29586.71
564.24	29984.60
564.41	29535.22
564.57	29769.27
564.74	29975.24
564.90	30010.35
565.07	30267.81
565.23	30019.71
565.39	30141.42
565.56	30195.25
565.72	30176.53
565.88	30204.61
566.05	29968.22
566.21	30010.35
566.38	29989.28
566.54	29816.08
566.70	30136.74
566.87	30773.36
567.03	30277.17
567.19	30490.16
567.36	30429.30
567.52	30122.69
567.68	30057.16
567.85	29970.56
568.01	30171.85
568.17	30073.54
568.34	30298.23
568.50	30485.48
568.66	30206.95
568.83	30415.26
568.99	30408.24
569.15	30597.82
569.32	30101.63
569.48	30335.68
569.64	30101.63
569.81	30359.09
569.97	30176.53
570.13	30874.01
570.30	30010.35
570.46	30916.14
570.62	30213.98
570.78	30532.29
570.95	30080.56
571.11	30429.30
571.27	30632.93
571.43	30412.92
571.60	30639.95
571.76	29860.55
571.92	30419.94
572.09	30579.10
572.25	30637.61
572.41	30375.47
572.57	30497.18
572.74	30794.43
572.90	30501.86
573.06	30431.65
573.22	30806.13
573.38	30656.34
573.55	30618.89
573.71	30541.65
573.87	30614.21
574.03	30417.60
574.20	30438.67
574.36	30260.79
574.52	30515.90
574.68	30433.99
574.84	30775.70
575.01	31028.48
575.17	30543.99
575.33	30333.34
575.49	30412.92
575.65	30988.69
575.82	30527.61
575.98	30710.17
576.14	30539.31
576.30	30698.47
576.46	30129.72
576.62	30515.90
576.79	30782.73
576.95	30309.94
577.11	30752.30
577.27	30883.37
577.43	30607.19
577.59	30658.68
577.75	30721.87
577.92	30511.22
578.08	30354.41
578.24	30529.95
578.40	30810.81
578.56	30742.94
578.72	30721.87
578.88	31056.57
579.04	31051.89
579.21	30623.57
579.37	30864.64
579.53	30862.30
579.69	30314.62
579.85	30480.80
580.01	31281.26
580.17	30373.13
580.33	30782.73
580.49	30792.09
580.65	30740.60
580.82	30778.04
580.98	30969.97
581.14	31000.40
581.30	31110.40
581.46	30890.39
581.62	30506.54
581.78	30398.88
581.94	30974.65
582.10	30558.03
582.26	31084.65
582.42	31126.78
582.58	30782.73
582.74	30792.09
582.90	30969.97
583.06	31138.49
583.22	30485.48
583.38	30560.37
583.54	31094.02
583.70	30642.29
583.86	31185.30
584.02	31091.68
584.18	30969.97
584.34	31182.96
584.50	31084.65
584.66	30998.06
584.82	30801.45
584.98	31147.85
585.14	31007.42
585.30	30927.84
585.46	30726.55
585.62	30792.09
585.78	30871.67
585.94	30628.25
586.10	31143.17
586.26	31215.72
586.42	31136.15
586.58	31330.41
586.74	30778.04
586.90	30771.02
587.06	30728.89
587.22	30902.09
587.38	30525.27
587.54	31105.72
587.70	30967.63
587.86	30862.30
588.02	31164.23
588.18	31384.24
588.34	31236.79
588.49	31377.22
588.65	30916.14
588.81	30930.18
588.97	31374.88
589.13	31014.44
589.29	31042.53
589.45	31409.99
589.61	31014.44
589.77	31494.25
589.93	31604.25
590.08	31206.36
590.24	31690.85
590.40	31328.07
590.56	31529.36
590.72	31402.97
590.88	31192.32
591.04	30923.16
591.20	31208.70
591.35	31473.18
591.51	31620.64
591.67	31363.18
591.83	31461.48
