SpectraSuite Data File
++++++++++++++++++++++++++++++++++++
Date: Fri Oct 18 13:58:12 GMT-05:00 2013
User: bianchi
Dark Spectrum Present: No
Reference Spectrum Present: No
Number of Sampled Component Spectra: 1
Spectrometers: USB2+H05261
Integration Time (usec): 50000 (USB2+H05261)
Spectra Averaged: 1 (USB2+H05261)
Boxcar Smoothing: 0 (USB2+H05261)
Correct for Electrical Dark: No (USB2+H05261)
Strobe/Lamp Enabled: No (USB2+H05261)
Correct for Detector Non-linearity: No (USB2+H05261)
Correct for Stray Light: No (USB2+H05261)
Number of Pixels in Processed Spectrum: 2048
>>>>>Begin Processed Spectral Data<<<<<
365.73	7.02
365.92	7.02
366.12	7.02
366.32	0.00
366.52	0.00
366.72	0.00
366.91	0.00
367.11	0.00
367.31	0.00
367.51	0.00
367.70	0.00
367.90	0.00
368.10	0.00
368.30	0.00
368.49	0.00
368.69	0.00
368.89	0.00
369.09	0.00
369.28	0.00
369.48	0.00
369.68	0.00
369.87	0.00
370.07	0.00
370.27	0.00
370.47	0.00
370.66	112.35
370.86	119.37
371.06	196.60
371.25	112.35
371.45	168.52
371.65	135.75
371.84	117.03
372.04	166.18
372.24	131.07
372.44	170.86
372.63	159.16
372.83	184.90
373.03	180.22
373.22	166.18
373.42	280.86
373.62	227.03
373.81	252.78
374.01	180.22
374.21	290.23
374.40	212.99
374.60	182.56
374.79	297.25
374.99	248.10
375.19	250.44
375.38	269.16
375.58	191.92
375.78	224.69
375.97	259.80
376.17	315.97
376.37	238.73
376.56	311.29
376.76	287.89
376.95	229.37
377.15	269.16
377.35	320.65
377.54	248.10
377.74	196.60
377.93	280.86
378.13	285.55
378.33	266.82
378.52	224.69
378.72	257.46
378.91	229.37
379.11	283.20
379.31	341.72
379.50	271.50
379.70	341.72
379.89	297.25
380.09	280.86
380.28	262.14
380.48	318.31
380.68	266.82
380.87	369.80
381.07	337.04
381.26	346.40
381.46	327.68
381.65	351.08
381.85	339.38
382.04	440.02
382.24	355.76
382.43	315.97
382.63	372.15
382.83	234.05
383.02	322.99
383.22	369.80
383.41	297.25
383.61	383.85
383.80	341.72
384.00	348.74
384.19	442.36
384.39	332.36
384.58	425.98
384.78	381.51
384.97	458.74
385.17	414.27
385.36	379.17
385.56	353.42
385.75	388.53
385.95	365.12
386.14	367.46
386.34	463.43
386.53	372.15
386.72	374.49
386.92	430.66
387.11	353.42
387.31	451.72
387.50	493.85
387.70	454.06
387.89	390.87
388.09	362.78
388.28	390.87
388.48	454.06
388.67	540.66
388.86	430.66
389.06	491.51
389.25	489.17
389.45	475.13
389.64	484.49
389.84	440.02
390.03	428.32
390.22	526.62
390.42	482.15
390.61	535.98
390.81	456.40
391.00	496.19
391.19	557.05
391.39	470.45
391.58	559.39
391.78	568.75
391.97	596.84
392.16	517.26
392.36	543.00
392.55	517.26
392.75	524.28
392.94	463.43
393.13	594.50
393.33	528.96
393.52	524.28
393.71	641.31
393.91	573.43
394.10	547.69
394.29	557.05
394.49	627.26
394.68	603.86
394.88	674.07
395.07	650.67
395.26	655.35
395.46	624.92
395.65	645.99
395.84	699.82
396.04	662.37
396.23	657.69
396.42	631.94
396.62	706.84
396.81	671.73
397.00	683.44
397.19	594.50
397.39	704.50
397.58	667.05
397.77	741.95
397.97	704.50
398.16	730.25
398.35	706.84
398.55	678.76
398.74	793.44
398.93	751.31
399.12	683.44
399.32	737.27
399.51	645.99
399.70	814.51
399.90	688.12
400.09	758.33
400.28	840.25
400.47	835.57
400.67	861.32
400.86	788.76
401.05	809.83
401.24	788.76
401.44	861.32
401.63	870.68
401.82	858.98
402.01	842.59
402.21	966.64
402.40	875.36
402.59	784.08
402.78	837.91
402.97	905.79
403.17	870.68
403.36	866.00
403.55	826.21
403.74	908.13
403.93	964.30
404.13	917.49
404.32	933.87
404.51	847.27
404.70	884.72
404.89	964.30
405.09	931.53
405.28	999.41
405.47	983.02
405.66	1015.79
405.85	1029.84
406.05	992.39
406.24	1011.11
406.43	980.68
406.62	1027.50
406.81	1064.94
407.00	1046.22
407.20	933.87
407.39	959.62
407.58	1102.39
407.77	1064.94
407.96	1064.94
408.15	1097.71
408.34	1153.88
408.54	1071.97
408.73	1114.10
408.92	1167.93
409.11	1221.76
409.30	1217.08
409.49	1139.84
409.68	1095.37
409.87	1224.10
410.07	1226.44
410.26	1221.76
410.45	1121.12
410.64	1228.78
410.83	1242.82
411.02	1203.04
411.21	1317.72
411.40	1214.74
411.59	1219.42
411.78	1308.36
411.98	1221.76
412.17	1303.68
412.36	1366.87
412.55	1397.30
412.74	1462.83
412.93	1343.47
413.12	1327.08
413.31	1469.86
413.50	1437.09
413.69	1444.11
413.88	1507.30
414.07	1448.79
414.26	1530.71
414.45	1437.09
414.64	1551.78
414.83	1502.62
415.02	1490.92
415.22	1612.63
415.41	1612.63
415.60	1577.52
415.79	1605.61
415.98	1624.33
416.17	1675.82
416.36	1626.67
416.55	1626.67
416.74	1621.99
416.93	1699.23
417.12	1593.90
417.31	1760.08
417.50	1767.10
417.69	1682.85
417.88	1771.79
418.07	1762.42
418.26	1853.70
418.45	1781.15
418.64	1973.07
418.83	1853.70
419.02	1853.70
419.21	1926.26
419.39	1764.76
419.58	1872.43
419.77	1795.19
419.96	1844.34
420.15	1966.05
420.34	1914.56
420.53	1853.70
420.72	1973.07
420.91	1914.56
421.10	1905.20
421.29	2064.35
421.48	1980.09
421.67	2024.56
421.86	1921.58
422.05	1994.14
422.24	1973.07
422.43	2050.31
422.61	2031.58
422.80	2054.99
422.99	2036.27
423.18	2015.20
423.37	2008.18
423.56	2141.59
423.75	1952.01
423.94	2003.50
424.13	2012.86
424.32	1977.75
424.50	2104.14
424.69	2106.48
424.88	2153.29
425.07	2087.76
425.26	2143.93
425.45	2057.33
425.64	1996.48
425.83	2057.33
426.01	2136.91
426.20	2099.46
426.39	2139.25
426.58	2054.99
426.77	2202.44
426.96	2078.40
427.15	2015.20
427.33	2209.47
427.52	2136.91
427.71	2225.85
427.90	2223.51
428.09	2237.55
428.28	2277.34
428.46	2125.21
428.65	2134.57
428.84	2122.87
429.03	2244.57
429.22	2195.42
429.40	2319.47
429.59	2424.80
429.78	2207.13
429.97	2204.78
430.16	2125.21
430.34	2202.44
430.53	2394.37
430.72	2375.64
430.91	2326.49
431.10	2408.41
431.28	2335.85
431.47	2495.01
431.66	2429.48
431.85	2263.30
432.03	2356.92
432.22	2527.78
432.41	2523.10
432.60	2544.16
432.79	2480.97
432.97	2487.99
433.16	2462.24
433.35	2476.29
433.54	2665.87
433.72	2544.16
433.91	2539.48
434.10	2513.74
434.28	2471.61
434.47	2705.66
434.66	2588.63
434.85	2661.19
435.03	2602.68
435.22	2537.14
435.41	2750.13
435.59	2602.68
435.78	2668.21
435.97	2679.91
436.16	2693.96
436.34	2771.19
436.53	2818.00
436.72	2782.90
436.90	2745.45
437.09	2768.85
437.28	2743.11
437.46	2782.90
437.65	2853.11
437.84	2855.45
438.02	2857.79
438.21	2768.85
438.40	2860.13
438.58	2956.10
438.77	2862.48
438.96	2871.84
439.14	2935.03
439.33	2965.46
439.52	3077.80
439.70	3005.25
439.89	3112.91
440.08	3066.10
440.26	3059.08
440.45	3073.12
440.63	3133.98
440.82	3117.59
441.01	3162.06
441.19	3066.10
441.38	3232.28
441.57	3255.69
441.75	3330.58
441.94	3300.16
442.12	3349.31
442.31	3382.07
442.50	3328.24
442.68	3267.39
442.87	3353.99
443.05	3304.84
443.24	3508.46
443.43	3372.71
443.61	3440.59
443.80	3597.40
443.98	3389.10
444.17	3384.41
444.35	3421.86
444.54	3545.91
444.73	3468.67
444.91	3520.17
445.10	3468.67
445.28	3555.27
445.47	3471.01
445.65	3377.39
445.84	3515.48
446.02	3611.45
446.21	3592.72
446.39	3438.25
446.58	3400.80
446.77	3555.27
446.95	3545.91
447.14	3604.42
447.32	3604.42
447.51	3459.31
447.69	3618.47
447.88	3597.40
448.06	3531.87
448.25	3545.91
448.43	3527.19
448.62	3508.46
448.80	3494.42
448.99	3700.39
449.17	3686.34
449.36	3639.53
449.54	3749.54
449.73	3761.24
449.91	3700.39
450.10	3838.48
450.28	3868.91
450.46	3761.24
450.65	3929.76
450.83	3974.23
451.02	3873.59
451.20	3854.86
451.39	3960.19
451.57	3815.07
451.76	3810.39
451.94	3950.82
452.13	4032.74
452.31	3929.76
452.49	3878.27
452.68	3962.53
452.86	3838.48
453.05	4037.42
453.23	4067.85
453.42	4016.36
453.60	4004.66
453.78	4074.87
453.97	4018.70
454.15	4030.40
454.34	3882.95
454.52	4091.26
454.70	4056.15
454.89	4056.15
455.07	4032.74
455.26	4189.56
455.44	4079.55
455.62	4222.33
455.81	4341.69
455.99	4184.88
456.17	4222.33
456.36	4175.52
456.54	4269.14
456.73	4278.50
456.91	4327.65
457.09	4404.89
457.28	4372.12
457.46	4131.05
457.64	4489.15
457.83	4524.26
458.01	4273.82
458.19	4344.03
458.38	4355.74
458.56	4573.41
458.74	4519.57
458.93	4449.36
459.11	4402.55
459.29	4475.10
459.48	4587.45
459.66	4552.34
459.84	4526.60
460.03	4662.35
460.21	4678.73
460.39	4627.24
460.57	4475.10
460.76	4643.62
460.94	4676.39
461.12	4779.37
461.31	4887.04
461.49	4709.16
461.67	4767.67
461.85	4739.58
462.04	4915.12
462.22	5214.71
462.40	4837.89
462.59	4854.27
462.77	4798.10
462.95	4880.02
463.13	4858.95
463.32	4863.63
463.50	4910.44
463.68	5041.51
463.86	4992.36
464.05	4854.27
464.23	4929.17
464.41	4926.83
464.59	4978.32
464.78	4992.36
464.96	4990.02
465.14	5043.85
465.32	5071.94
465.50	5097.69
465.69	5256.84
465.87	5020.45
466.05	5095.35
466.23	5053.22
466.41	5064.92
466.60	5114.07
466.78	5085.98
466.96	5107.05
467.14	5167.90
467.32	5273.23
467.51	5320.04
467.69	5104.71
467.87	5210.03
468.05	5416.00
468.23	5376.21
468.41	5195.99
468.60	5313.02
468.78	5359.83
468.96	5263.86
469.14	5315.36
469.32	5362.17
469.50	5397.28
469.69	5448.77
469.87	5441.75
470.05	5549.41
470.23	5514.30
470.41	5495.58
470.59	5547.07
470.77	5479.19
470.95	5493.24
471.14	5633.67
471.32	5579.84
471.50	5687.50
471.68	5640.69
471.86	5874.74
472.04	5853.68
472.22	5804.53
472.40	5699.20
472.58	5738.99
472.77	5736.65
472.95	6003.47
473.13	6104.12
473.31	5884.11
473.49	6012.84
473.67	5951.98
473.85	6022.20
474.03	6113.48
474.21	6040.92
474.39	6073.69
474.57	6200.08
474.75	6193.06
474.93	6340.51
475.12	6277.32
475.30	6394.34
475.48	6134.54
475.66	6356.90
475.84	6396.68
476.02	6614.35
476.20	6483.28
476.38	6698.61
476.56	6679.89
476.74	6642.44
476.92	6700.95
477.10	6670.53
477.28	6745.42
477.46	6693.93
477.64	6895.22
477.82	6942.03
478.00	7066.08
478.18	7108.21
478.36	7126.93
478.54	7206.51
478.72	7112.89
478.90	7269.70
479.08	7328.22
479.26	7494.40
479.44	7358.64
479.62	7527.16
479.80	7489.71
479.98	7541.21
480.16	7691.00
480.34	7763.56
480.52	7770.58
480.70	7707.38
480.88	7669.94
481.06	7735.47
481.24	8023.36
481.41	8084.21
481.59	8011.65
481.77	8215.28
481.95	8262.09
482.13	8404.86
482.31	8156.77
482.49	8493.80
482.67	8362.73
482.85	8400.18
483.03	8514.87
483.21	8697.43
483.39	8826.16
483.57	8664.66
483.74	8751.26
483.92	8917.44
484.10	8819.14
484.28	9020.42
484.46	9100.00
484.64	9291.93
484.82	9153.84
485.00	9465.13
485.18	9432.36
485.35	9612.58
485.53	9462.79
485.71	9640.67
485.89	9858.34
486.07	9776.42
486.25	9914.51
486.43	9966.00
486.61	9764.72
486.78	10125.16
486.96	10256.23
487.14	10076.01
487.32	10293.68
487.50	10377.94
487.68	10230.48
487.85	10656.46
488.03	10810.93
488.21	10895.19
488.39	10806.25
488.57	11000.52
488.75	10733.70
488.92	11035.63
489.10	11122.23
489.28	11470.97
489.46	11463.94
489.64	11377.34
489.81	11712.04
489.99	11672.25
490.17	11520.12
490.35	11459.26
490.53	11669.91
490.70	11850.13
490.88	11878.22
491.06	11948.43
491.24	11887.58
491.41	11882.90
491.59	12212.92
491.77	12156.74
491.95	12432.93
492.13	12519.53
492.30	12428.24
492.48	12659.96
492.66	12397.82
492.84	12641.23
493.01	12919.76
493.19	12617.83
493.37	12922.10
493.54	12931.46
493.72	13123.38
493.90	13156.15
494.08	13486.17
494.25	13188.92
494.43	13425.31
494.61	13415.95
494.79	13523.62
494.96	13549.36
495.14	13617.24
495.32	13502.55
495.49	13898.10
495.67	14040.87
495.85	14022.15
496.02	14146.20
496.20	14345.14
496.38	14506.64
496.55	14242.16
496.73	14499.62
496.91	14494.94
497.09	14471.53
497.26	14604.94
497.44	14831.97
497.62	14902.19
497.79	14979.43
497.97	14817.93
498.14	15063.69
498.32	15211.14
498.50	15246.25
498.67	15180.71
498.85	15234.55
499.03	15496.69
499.20	15484.98
499.38	15529.45
499.56	15314.13
499.73	15557.54
499.91	15847.77
500.08	15772.87
500.26	15461.58
500.44	15737.76
500.61	15955.43
500.79	15793.94
500.97	15974.16
501.14	16133.31
501.32	16121.61
501.49	15772.87
501.67	16067.78
501.84	16807.39
502.02	16306.51
502.20	16180.12
502.37	16486.73
502.55	16622.48
502.72	16446.94
502.90	16673.98
503.07	16510.14
503.25	16484.39
503.43	16561.63
503.60	16673.98
503.78	17027.40
503.95	16673.98
504.13	16758.24
504.30	17118.68
504.48	17104.64
504.65	17207.62
504.83	17469.76
505.01	17411.25
505.18	17142.08
505.36	17759.98
505.53	17422.95
505.71	17614.87
505.88	17614.87
506.06	17380.82
506.23	17614.87
506.41	17493.16
506.58	17708.49
506.76	17757.64
506.93	17799.77
507.11	17839.56
507.28	17748.28
507.46	17954.25
507.63	17987.02
507.81	18129.79
507.98	18010.42
508.16	18464.49
508.33	18457.46
508.50	18216.39
508.68	18394.27
508.85	18452.78
509.03	18464.49
509.20	18719.60
509.38	18771.10
509.55	18714.92
509.73	18527.68
509.90	18633.00
510.08	18761.73
510.25	18759.39
510.42	18703.22
510.60	19054.30
510.77	19040.26
510.95	19192.39
511.12	19089.41
511.30	19288.35
511.47	19047.28
511.64	19433.47
511.82	19613.69
511.99	19527.09
512.17	19513.05
512.34	19672.20
512.51	19580.92
512.69	19517.73
512.86	19515.39
513.04	19782.21
513.21	19995.20
513.38	19674.54
513.56	20037.33
513.73	19800.93
513.90	19756.46
514.08	19943.70
514.25	20123.93
514.43	20116.90
514.60	20409.47
514.77	20189.46
514.95	20196.48
515.12	20170.74
515.29	20357.98
515.47	20343.94
515.64	20709.06
515.81	20903.32
515.99	20793.32
516.16	20744.17
516.33	20545.22
516.51	20886.94
516.68	20582.67
516.85	20329.89
517.03	20950.14
517.20	20966.52
517.37	20837.79
517.54	20847.15
517.72	20999.29
517.89	21146.74
518.06	21216.96
518.24	20989.92
518.41	20865.88
518.58	21242.70
518.75	21383.13
518.93	21455.69
519.10	21291.85
519.27	21256.75
519.45	21462.71
519.62	21291.85
519.79	21268.45
519.96	21518.89
520.14	21937.84
520.31	21694.43
520.48	21635.91
520.65	21673.36
520.83	22057.21
521.00	22106.36
521.17	22033.80
521.34	21699.11
521.52	22164.87
521.69	22469.14
521.86	22162.53
522.03	22178.92
522.20	22307.65
522.38	22513.61
522.55	22209.34
522.72	22562.76
522.89	22609.58
523.07	22759.37
523.24	22567.45
523.41	22918.53
523.58	22712.56
523.75	23040.23
523.92	22569.79
524.10	22738.30
524.27	22813.20
524.44	22801.50
524.61	23051.94
524.78	23080.02
524.96	22492.55
525.13	22995.76
525.30	23103.43
525.47	22623.62
525.64	23288.33
525.81	23140.88
525.98	23667.50
526.16	23428.76
526.33	23168.96
526.50	23410.04
526.67	23215.77
526.84	23496.64
527.01	23459.19
527.18	22995.76
527.36	23878.15
527.53	23861.76
527.70	23934.32
527.87	24018.58
528.04	23594.94
528.21	23803.25
528.38	23721.33
528.55	23751.76
528.72	23637.07
528.89	24009.22
529.07	23852.40
529.24	23894.53
529.41	23779.84
529.58	24222.20
529.75	24077.09
529.92	24133.26
530.09	24023.26
530.26	24269.01
530.43	24451.58
530.60	24060.71
530.77	24229.23
530.94	24056.03
531.11	24016.24
531.28	24112.20
531.46	24624.78
531.63	24379.02
531.80	24709.04
531.97	25025.01
532.14	24851.81
532.31	24472.64
532.48	24315.83
532.65	24840.11
532.82	24390.72
532.99	24685.63
533.16	24931.39
533.33	24704.35
533.50	25387.79
533.67	25263.74
533.84	24968.84
534.01	25118.63
534.18	24898.62
534.35	25090.54
534.52	24954.79
534.69	25160.76
534.86	25881.64
535.03	25233.32
535.20	25542.27
535.37	25537.59
535.54	25326.94
535.71	25259.06
535.88	25202.89
536.05	25172.46
536.22	25439.28
536.38	25633.55
536.55	25525.88
536.72	25575.03
536.89	25886.32
537.06	25462.69
537.23	25954.20
537.40	25579.71
537.57	25624.18
537.74	25886.32
537.91	26026.76
538.08	26143.78
538.25	25607.80
538.42	26155.49
538.59	25736.53
538.75	25724.83
538.92	25745.89
539.09	26080.59
539.26	26106.34
539.43	26209.32
539.60	26291.24
539.77	26462.10
539.94	26204.64
540.11	26384.86
540.28	25930.80
540.44	26281.88
540.61	26431.67
540.78	25900.37
540.95	26794.45
541.12	26401.24
541.29	26345.07
541.46	26391.88
541.62	26326.35
541.79	26621.25
541.96	26270.17
542.13	26522.95
542.30	26644.66
542.47	26782.75
542.63	26761.69
542.80	26951.27
542.97	26836.58
543.14	26958.29
543.31	27154.90
543.48	26799.13
543.64	27054.25
543.81	27173.62
543.98	27339.80
544.15	27309.37
544.32	27426.40
544.48	27510.66
544.65	27414.69
544.82	27190.00
544.99	26644.66
545.16	27112.77
545.32	27087.02
545.49	27709.60
545.66	27814.93
545.83	27615.98
546.00	27503.64
546.16	27419.38
546.33	27047.23
546.50	27185.32
546.67	27634.71
546.83	27655.77
547.00	27578.53
547.17	27559.81
547.34	27611.30
547.50	27601.94
547.67	27922.59
547.84	27749.39
548.00	28163.67
548.17	27737.69
548.34	27536.40
548.51	27892.16
548.67	28128.56
548.84	28074.73
549.01	28025.57
549.18	28074.73
549.34	27894.50
549.51	27988.13
549.68	27974.08
549.84	27901.53
550.01	28095.79
550.18	27913.23
550.34	27941.32
550.51	28329.84
550.68	28393.04
550.84	27931.95
551.01	28503.04
551.18	27999.83
551.34	28261.97
551.51	28119.20
551.68	28421.13
551.84	28240.90
552.01	28098.13
552.18	28304.10
552.34	28168.35
552.51	28666.88
552.68	28081.75
552.84	28666.88
553.01	28451.55
553.18	28453.89
553.34	28945.41
553.51	28896.25
553.67	28577.94
553.84	28985.19
554.01	28620.07
554.17	28655.18
554.34	29032.00
554.51	28725.39
554.67	28891.57
554.84	28922.00
555.00	28671.56
555.17	28800.29
555.33	28692.63
555.50	28725.39
555.67	28645.82
555.83	28943.06
556.00	28776.89
556.16	28924.34
556.33	29064.77
556.50	28966.47
556.66	29036.69
556.83	28870.51
556.99	29160.73
557.16	29235.63
557.32	29200.52
557.49	29050.73
557.65	29102.22
557.82	28961.79
557.98	28753.48
558.15	29294.14
558.32	29046.05
558.48	29097.54
558.65	29692.04
558.81	29233.29
558.98	29848.85
559.14	29472.03
559.31	29364.36
559.47	29408.83
559.64	29666.29
559.80	29425.22
559.97	29661.61
560.13	29654.59
560.30	29134.99
560.46	29598.41
560.63	29450.96
560.79	29546.92
560.96	29340.96
561.12	29326.91
561.29	29364.36
561.45	29385.43
561.61	29895.66
561.78	29741.19
561.94	29914.39
562.11	29713.10
562.27	29565.65
562.44	29476.71
562.60	29275.42
562.77	29933.11
562.93	29085.84
563.10	29539.90
563.26	29570.33
563.42	30122.69
563.59	29914.39
563.75	29862.90
563.92	29926.09
564.08	29663.95
564.24	29706.08
564.41	29731.83
564.57	29855.87
564.74	29687.36
564.90	30003.33
565.07	30075.88
565.23	30000.99
565.39	29673.31
565.56	30022.05
565.72	30157.80
565.88	30143.76
566.05	30073.54
566.21	29656.93
566.38	29958.86
566.54	30239.72
566.70	30359.09
566.87	30253.76
567.03	29951.84
567.19	30295.89
567.36	30387.18
567.52	30237.38
567.68	30050.14
567.85	29989.28
568.01	30073.54
568.17	30235.04
568.34	29951.84
568.50	30059.50
568.66	30153.12
568.83	30110.99
568.99	30099.29
569.15	30213.98
569.32	30015.03
569.48	29968.22
569.64	30230.36
569.81	30015.03
569.97	30291.21
570.13	30338.02
570.30	30286.53
570.46	30246.74
570.62	30169.51
570.78	30403.56
570.95	30073.54
571.11	30396.54
571.27	29975.24
571.43	30092.27
571.60	30270.15
571.76	30033.75
571.92	30377.81
572.09	30270.15
572.25	30307.60
572.41	30389.52
572.57	30534.63
572.74	30656.34
572.90	30148.44
573.06	30136.74
573.22	30354.41
573.38	30331.00
573.55	30199.93
573.71	30728.89
573.87	30632.93
574.03	30483.14
574.20	30185.89
574.36	30373.13
574.52	30415.26
574.68	30649.32
574.84	30543.99
575.01	30401.22
575.17	30466.75
575.33	30134.40
575.49	30352.07
575.65	30646.97
575.82	30536.97
575.98	30745.28
576.14	30150.78
576.30	30705.49
576.46	30803.79
576.62	30258.45
576.79	30562.72
576.95	30726.55
577.11	30565.06
577.27	30551.01
577.43	30445.69
577.59	30361.43
577.75	30433.99
577.92	30366.11
578.08	30567.40
578.24	30216.32
578.40	30387.18
578.56	30642.29
578.72	30834.22
578.88	30562.72
579.04	30888.05
579.21	30499.52
579.37	30733.57
579.53	30639.95
579.69	30401.22
579.85	30913.80
580.01	30607.19
580.17	30724.21
580.33	30572.08
580.49	30979.33
580.65	30646.97
580.82	31122.10
580.98	30866.98
581.14	30405.90
581.30	30665.70
581.46	30850.60
581.62	30581.44
581.78	30412.92
581.94	30726.55
582.10	30478.46
582.26	30646.97
582.42	30373.13
582.58	31180.62
582.74	31061.25
582.90	30646.97
583.06	30841.24
583.22	30876.35
583.38	30682.08
583.54	30532.29
583.70	30747.62
583.86	30642.29
584.02	30801.45
584.18	30623.57
584.34	30721.87
584.50	30782.73
584.66	30539.31
584.82	30689.10
584.98	30639.95
585.14	31014.44
585.30	30466.75
585.46	30969.97
585.62	30206.95
585.78	30881.03
585.94	30513.56
586.10	30850.60
586.26	30918.48
586.42	30890.39
586.58	30927.84
586.74	30536.97
586.90	30515.90
587.06	30216.32
587.22	30824.86
587.38	30885.71
587.54	30787.41
587.70	31161.89
587.86	30712.51
588.02	30684.42
588.18	31103.38
588.34	30785.07
588.49	30988.69
588.65	30639.95
588.81	30794.43
588.97	30890.39
589.13	30909.11
589.29	30817.83
589.45	31204.02
589.61	31192.32
589.77	31339.77
589.93	31054.23
590.08	31545.74
590.24	30974.65
590.40	31292.96
590.56	31089.34
590.72	31201.68
590.88	31084.65
591.04	30902.09
591.20	31379.56
591.35	31077.63
591.51	31316.37
591.67	31323.39
591.83	31248.49
