SpectraSuite Data File
++++++++++++++++++++++++++++++++++++
Date: Fri Oct 18 13:58:11 GMT-05:00 2013
User: bianchi
Dark Spectrum Present: No
Reference Spectrum Present: No
Number of Sampled Component Spectra: 1
Spectrometers: USB2+H05261
Integration Time (usec): 50000 (USB2+H05261)
Spectra Averaged: 1 (USB2+H05261)
Boxcar Smoothing: 0 (USB2+H05261)
Correct for Electrical Dark: No (USB2+H05261)
Strobe/Lamp Enabled: No (USB2+H05261)
Correct for Detector Non-linearity: No (USB2+H05261)
Correct for Stray Light: No (USB2+H05261)
Number of Pixels in Processed Spectrum: 2048
>>>>>Begin Processed Spectral Data<<<<<
365.73	0.00
365.92	0.00
366.12	0.00
366.32	0.00
366.52	0.00
366.72	0.00
366.91	0.00
367.11	0.00
367.31	0.00
367.51	0.00
367.70	0.00
367.90	0.00
368.10	0.00
368.30	0.00
368.49	0.00
368.69	0.00
368.89	0.00
369.09	0.00
369.28	0.00
369.48	0.00
369.68	0.00
369.87	0.00
370.07	0.00
370.27	0.00
370.47	16.38
370.66	166.18
370.86	98.30
371.06	98.30
371.25	203.63
371.45	177.88
371.65	166.18
371.84	72.56
372.04	138.09
372.24	175.54
372.44	189.58
372.63	245.76
372.83	236.39
373.03	201.29
373.22	145.11
373.42	234.05
373.62	203.63
373.81	245.76
374.01	236.39
374.21	238.73
374.40	269.16
374.60	212.99
374.79	250.44
374.99	227.03
375.19	234.05
375.38	262.14
375.58	241.08
375.78	248.10
375.97	318.31
376.17	264.48
376.37	245.76
376.56	367.46
376.76	229.37
376.95	285.55
377.15	325.33
377.35	374.49
377.54	264.48
377.74	311.29
377.93	227.03
378.13	257.46
378.33	351.08
378.52	299.59
378.72	341.72
378.91	304.27
379.11	220.01
379.31	255.12
379.50	264.48
379.70	332.36
379.89	327.68
380.09	348.74
380.28	346.40
380.48	344.06
380.68	332.36
380.87	334.70
381.07	351.08
381.26	383.85
381.46	271.50
381.65	315.97
381.85	367.46
382.04	327.68
382.24	315.97
382.43	348.74
382.63	311.29
382.83	325.33
383.02	355.76
383.22	395.55
383.41	355.76
383.61	337.04
383.80	395.55
384.00	400.23
384.19	414.27
384.39	381.51
384.58	341.72
384.78	458.74
384.97	397.89
385.17	376.83
385.36	404.91
385.56	479.81
385.75	383.85
385.95	376.83
386.14	447.04
386.34	402.57
386.53	301.93
386.72	416.62
386.92	416.62
387.11	449.38
387.31	475.13
387.50	358.10
387.70	461.09
387.89	447.04
388.09	479.81
388.28	451.72
388.48	402.57
388.67	404.91
388.86	484.49
389.06	468.11
389.25	545.34
389.45	472.79
389.64	470.45
389.84	440.02
390.03	444.70
390.22	393.21
390.42	517.26
390.61	463.43
390.81	351.08
391.00	372.15
391.19	479.81
391.39	514.92
391.58	538.32
391.78	451.72
391.97	582.79
392.16	505.56
392.36	505.56
392.55	573.43
392.75	578.11
392.94	589.82
393.13	594.50
393.33	592.16
393.52	517.26
393.71	587.47
393.91	557.05
394.10	526.62
394.29	573.43
394.49	613.22
394.68	559.39
394.88	550.03
395.07	627.26
395.26	667.05
395.46	641.31
395.65	608.54
395.84	655.35
396.04	760.67
396.23	643.65
396.42	634.29
396.62	599.18
396.81	669.39
397.00	643.65
397.19	667.05
397.39	594.50
397.58	695.14
397.77	641.31
397.97	702.16
398.16	648.33
398.35	685.78
398.55	711.52
398.74	779.40
398.93	744.29
399.12	767.70
399.32	737.27
399.51	765.36
399.70	746.63
399.90	765.36
400.09	805.14
400.28	802.80
400.47	695.14
400.67	833.23
400.86	760.67
401.05	945.58
401.24	779.40
401.44	809.83
401.63	767.70
401.82	823.87
402.01	847.27
402.21	809.83
402.40	814.51
402.59	882.38
402.78	830.89
402.97	807.48
403.17	856.64
403.36	798.12
403.55	887.06
403.74	896.43
403.93	896.43
404.13	957.28
404.32	950.26
404.51	875.36
404.70	973.66
404.89	983.02
405.09	961.96
405.28	943.24
405.47	929.19
405.66	1057.92
405.85	1001.75
406.05	1050.90
406.24	1093.03
406.43	1111.75
406.62	1034.52
406.81	1053.24
407.00	945.58
407.20	1004.09
407.39	983.02
407.58	1048.56
407.77	1069.62
407.96	1046.22
408.15	1170.27
408.34	1107.07
408.54	1086.01
408.73	1123.46
408.92	1067.28
409.11	1111.75
409.30	1097.71
409.49	1203.04
409.68	1137.50
409.87	1184.31
410.07	1184.31
410.26	1310.70
410.45	1174.95
410.64	1245.16
410.83	1301.34
411.02	1254.53
411.21	1219.42
411.40	1301.34
411.59	1348.15
411.78	1401.98
411.98	1338.79
412.17	1404.32
412.36	1210.06
412.55	1327.08
412.74	1390.28
412.93	1228.78
413.12	1472.20
413.31	1385.60
413.50	1364.53
413.69	1366.87
413.88	1397.30
414.07	1549.43
414.26	1404.32
414.45	1458.15
414.64	1547.09
414.83	1483.90
415.02	1558.80
415.22	1519.01
415.41	1638.38
415.60	1528.37
415.79	1554.12
415.98	1591.56
416.17	1633.69
416.36	1600.93
416.55	1516.67
416.74	1619.65
416.93	1591.56
417.12	1799.87
417.31	1687.53
417.50	1685.19
417.69	1713.27
417.88	1858.39
418.07	1720.29
418.26	1806.89
418.45	1790.51
418.64	1846.68
418.83	1935.62
419.02	1799.87
419.21	1823.28
419.39	1975.41
419.58	1813.92
419.77	1834.98
419.96	1886.47
420.15	1802.21
420.34	1739.02
420.53	1842.00
420.72	1982.43
420.91	1853.70
421.10	1944.99
421.29	1944.99
421.48	1888.81
421.67	2083.08
421.86	1912.22
422.05	1963.71
422.24	1987.11
422.43	2005.84
422.61	1984.77
422.80	2094.78
422.99	2010.52
423.18	2057.33
423.37	2221.17
423.56	2033.93
423.75	2054.99
423.94	2057.33
424.13	1813.92
424.32	1949.67
424.50	2026.90
424.69	2101.80
424.88	2111.16
425.07	2022.22
425.26	2125.21
425.45	1935.62
425.64	2003.50
425.83	1980.09
426.01	2148.61
426.20	2019.88
426.39	2073.71
426.58	2202.44
426.77	2157.97
426.96	2150.95
427.15	2118.18
427.33	2003.50
427.52	2125.21
427.71	2155.63
427.90	2108.82
428.09	2069.03
428.28	2172.02
428.46	2165.00
428.65	2267.98
428.84	2249.25
429.03	2284.36
429.22	2221.17
429.40	2155.63
429.59	2267.98
429.78	2258.62
429.97	2270.32
430.16	2284.36
430.34	2317.13
430.53	2415.43
430.72	2326.49
430.91	2300.75
431.10	2272.66
431.28	2476.29
431.47	2483.31
431.66	2452.88
431.85	2375.64
432.03	2436.50
432.22	2471.61
432.41	2569.91
432.60	2492.67
432.79	2335.85
432.97	2476.29
433.16	2487.99
433.35	2548.84
433.54	2490.33
433.72	2541.82
433.91	2499.69
434.10	2700.98
434.28	2518.42
434.47	2483.31
434.66	2644.81
434.85	2590.97
435.03	2630.76
435.22	2670.55
435.41	2679.91
435.59	2743.11
435.78	2658.85
435.97	2733.75
436.16	2637.78
436.34	2670.55
436.53	2668.21
436.72	2848.43
436.90	2600.34
437.09	2771.19
437.28	2864.82
437.46	2813.32
437.65	2757.15
437.84	2722.04
438.02	2715.02
438.21	2935.03
438.40	2813.32
438.58	2972.48
438.77	2841.41
438.96	2965.46
439.14	2897.58
439.33	2956.10
439.52	2970.14
439.70	3101.21
439.89	2972.48
440.08	3007.59
440.26	3126.96
440.45	3035.67
440.63	3112.91
440.82	3169.09
441.01	3131.64
441.19	3164.40
441.38	3274.41
441.57	3115.25
441.75	3328.24
441.94	3309.52
442.12	3361.01
442.31	3412.50
442.50	3527.19
442.68	3368.03
442.87	3370.37
443.05	3314.20
443.24	3328.24
443.43	3604.42
443.61	3503.78
443.80	3435.91
443.98	3438.25
444.17	3112.91
444.35	3391.44
444.54	3562.30
444.73	3513.14
444.91	3595.06
445.10	3581.02
445.28	3555.27
445.47	3485.06
445.65	3417.18
445.84	3370.37
446.02	3545.91
446.21	3520.17
446.39	3494.42
446.58	3536.55
446.77	3571.66
446.95	3543.57
447.14	3557.61
447.32	3531.87
447.51	3658.26
447.69	3667.62
447.88	3536.55
448.06	3529.53
448.25	3485.06
448.43	3630.17
448.62	3602.08
448.80	3545.91
448.99	3623.15
449.17	3599.74
449.36	3574.00
449.54	3737.84
449.73	3716.77
449.91	3791.67
450.10	3712.09
450.28	3599.74
450.46	3791.67
450.65	3831.46
450.83	3899.33
451.02	3803.37
451.20	3873.59
451.39	3957.85
451.57	3901.67
451.76	3962.53
451.94	3758.90
452.13	3967.21
452.31	3779.97
452.49	3824.44
452.68	3868.91
452.86	3899.33
453.05	4030.40
453.23	4014.02
453.42	3953.16
453.60	3962.53
453.78	3918.06
453.97	4021.04
454.15	3922.74
454.34	4011.68
454.52	4002.32
454.70	4072.53
454.89	4042.11
455.07	4056.15
455.26	4070.19
455.44	4070.19
455.62	4145.09
455.81	4147.43
455.99	4189.56
456.17	4219.99
456.36	4283.18
456.54	4437.66
456.73	4210.62
456.91	4475.10
457.09	4358.08
457.28	4489.15
457.46	4353.40
457.64	4372.12
457.83	4292.54
458.01	4318.29
458.19	4451.70
458.38	4524.26
458.56	4542.98
458.74	4535.96
458.93	4437.66
459.11	4552.34
459.29	4456.38
459.48	4571.07
459.66	4524.26
459.84	4645.96
460.03	4678.73
460.21	4685.75
460.39	4634.26
460.57	4582.77
460.76	4711.50
460.94	4723.20
461.12	4711.50
461.31	4730.22
461.49	4638.94
461.67	4631.92
461.85	4779.37
462.04	4777.03
462.22	5062.58
462.40	4697.46
462.59	4924.49
462.77	4884.70
462.95	4947.89
463.13	4840.23
463.32	4987.68
463.50	4788.74
463.68	5050.88
463.86	5018.11
464.05	4898.74
464.23	4753.63
464.41	4936.19
464.59	4901.08
464.78	5006.41
464.96	5022.79
465.14	4945.55
465.32	5160.88
465.50	5008.75
465.69	5163.22
465.87	4997.04
466.05	5093.01
466.23	5221.74
466.41	5179.61
466.60	5247.48
466.78	5083.64
466.96	5146.84
467.14	5118.75
467.32	5151.52
467.51	5341.10
467.69	5067.26
467.87	5336.42
468.05	5027.47
468.23	5329.40
468.41	5310.68
468.60	5224.08
468.78	5289.61
468.96	5320.04
469.14	5390.25
469.32	5287.27
469.50	5228.76
469.69	5282.59
469.87	5486.22
470.05	5593.88
470.23	5434.72
470.41	5507.28
470.59	5701.54
470.77	5504.94
470.95	5540.05
471.14	5720.27
471.32	5523.66
471.50	5593.88
471.68	5673.46
471.86	5619.63
472.04	5755.38
472.22	5994.11
472.40	5762.40
472.58	5802.19
472.77	5898.15
472.95	5942.62
473.13	6141.57
473.31	5743.67
473.49	5867.72
473.67	5776.44
473.85	5839.64
474.03	5961.34
474.21	6083.05
474.39	6239.87
474.57	6171.99
474.75	6324.13
474.93	6335.83
475.12	6134.54
475.30	6373.28
475.48	6403.71
475.66	6342.85
475.84	6392.00
476.02	6492.65
476.20	6525.41
476.38	6668.19
476.56	6609.67
476.74	6726.70
476.92	6633.08
477.10	6689.25
477.28	6747.76
477.46	6719.68
477.64	6909.26
477.82	6827.34
478.00	7037.99
478.18	7045.01
478.36	6890.54
478.54	7215.87
478.72	7382.05
478.90	7262.68
479.08	7243.96
479.26	7321.20
479.44	7279.07
479.62	7513.12
479.80	7688.66
479.98	7506.10
480.16	7702.70
480.34	7597.38
480.52	7611.42
480.70	7920.37
480.88	7620.78
481.06	7822.07
481.24	7934.42
481.41	7953.14
481.59	7953.14
481.77	8056.12
481.95	8224.64
482.13	8311.24
482.31	8229.32
482.49	8411.89
482.67	8416.57
482.85	8505.51
483.03	8755.94
483.21	8695.09
483.39	8664.66
483.57	8681.05
483.74	8727.86
483.92	8982.98
484.10	8908.08
484.28	9280.22
484.46	9107.02
484.64	9305.97
484.82	9184.26
485.00	9198.31
485.18	9432.36
485.35	9678.12
485.53	9544.70
485.71	9511.94
485.89	9841.95
486.07	9678.12
486.25	9570.45
486.43	9844.29
486.61	10122.82
486.78	10015.15
486.96	10242.18
487.14	10363.89
487.32	10389.64
487.50	10260.91
487.68	10331.12
487.85	10621.35
488.03	10672.84
488.21	10663.48
488.39	10778.17
488.57	10949.03
488.75	10918.60
488.92	11040.31
489.10	10864.77
489.28	11126.91
489.46	11206.48
489.64	11255.64
489.81	11492.03
489.99	11403.09
490.17	11714.38
490.35	11557.57
490.53	11618.42
490.70	12107.59
490.88	11653.53
491.06	11918.01
491.24	12056.10
491.41	11779.92
491.59	12154.40
491.77	12292.49
491.95	12236.32
492.13	12472.71
492.30	12524.21
492.48	12397.82
492.66	12688.04
492.84	12594.42
493.01	12681.02
493.19	12847.20
493.37	13296.58
493.54	13008.70
493.72	12980.61
493.90	12985.29
494.08	13249.77
494.25	13467.44
494.43	13488.51
494.61	13734.26
494.79	13722.56
494.96	13558.72
495.14	13769.37
495.32	13844.27
495.49	13912.14
495.67	13963.64
495.85	14129.81
496.02	14045.55
496.20	14228.12
496.38	14167.26
496.55	14204.71
496.73	14469.19
496.91	14406.00
497.09	14459.83
497.26	14427.06
497.44	14518.34
497.62	14672.82
497.79	14817.93
497.97	14853.04
498.14	14930.28
498.32	15070.71
498.50	15183.06
498.67	15131.56
498.85	15129.22
499.03	15276.68
499.20	15316.47
499.38	15536.48
499.56	15578.61
499.73	15562.22
499.91	15803.30
500.08	15875.85
500.26	15789.25
500.44	15716.70
500.61	16201.19
500.79	15651.16
500.97	15873.51
501.14	16107.57
501.32	16147.36
501.49	16065.44
501.67	16018.63
501.84	16170.76
502.02	16290.13
502.20	16140.33
502.37	16648.23
502.55	16585.04
502.72	16734.83
502.90	16510.14
503.07	16379.07
503.25	16578.01
503.43	16753.55
503.60	16814.41
503.78	16835.47
503.95	16844.84
504.13	17083.57
504.30	16898.67
504.48	16828.45
504.65	17193.58
504.83	17048.46
505.01	17472.10
505.18	17593.81
505.36	17516.57
505.53	17474.44
505.71	17509.55
505.88	17736.58
506.06	17202.94
506.23	17748.28
506.41	17502.53
506.58	17921.48
506.76	17802.11
506.93	17830.20
507.11	17713.17
507.28	17884.03
507.46	18155.54
507.63	17855.95
507.81	18324.05
507.98	18263.20
508.16	18146.17
508.33	18380.23
508.50	18099.36
508.68	18207.03
508.85	18466.83
509.03	18349.80
509.20	18405.97
509.38	18974.72
509.55	18499.59
509.73	18691.52
509.90	18583.85
510.08	18761.73
510.25	18867.06
510.42	18728.97
510.60	18970.04
510.77	19267.29
510.95	19126.86
511.12	18829.61
511.30	18815.57
511.47	19236.86
511.64	19267.29
511.82	19587.94
511.99	19365.59
512.17	19637.09
512.34	19445.17
512.51	19716.67
512.69	19454.53
512.86	19700.29
513.04	19683.91
513.21	19740.08
513.38	19997.54
513.56	19644.12
513.73	19990.52
513.90	19868.81
514.08	20063.07
514.25	20112.22
514.43	20020.94
514.60	20390.75
514.77	20456.28
514.95	20627.14
515.12	20556.93
515.29	20060.73
515.47	20339.26
515.64	20589.69
515.81	20549.90
515.99	20540.54
516.16	20732.47
516.33	20741.83
516.51	20957.16
516.68	20566.29
516.85	20772.25
517.03	20769.91
517.20	20638.84
517.37	21287.17
517.54	21156.10
517.72	20968.86
517.89	20734.81
518.06	20891.62
518.24	21013.33
518.41	21085.89
518.58	21312.92
518.75	21509.52
518.93	21371.43
519.10	21315.26
519.27	21319.94
519.45	21584.42
519.62	21710.81
519.79	21390.16
519.96	21509.52
520.14	21481.44
520.31	21764.64
520.48	21647.61
520.65	21710.81
520.83	21958.91
521.00	21736.56
521.17	21867.63
521.34	21797.41
521.52	21888.69
521.69	21933.16
521.86	22457.44
522.03	22209.34
522.20	22050.19
522.38	22302.96
522.55	22375.52
522.72	22324.03
522.89	22347.44
523.07	22785.12
523.24	22572.13
523.41	22703.20
523.58	22377.86
523.75	22590.85
523.92	22478.50
524.10	22801.50
524.27	22899.80
524.44	22656.39
524.61	22586.17
524.78	23033.21
524.96	23110.45
525.13	23201.73
525.30	23330.46
525.47	22946.61
525.64	22974.70
525.81	23283.65
525.98	23417.06
526.16	22955.97
526.33	23522.38
526.50	23276.63
526.67	23344.50
526.84	23566.85
527.01	23080.02
527.18	23412.38
527.36	23681.54
527.53	23335.14
527.70	23871.12
527.87	23777.50
528.04	23667.50
528.21	23770.48
528.38	23695.58
528.55	23910.91
528.72	23740.05
528.89	23695.58
529.07	23618.35
529.24	23971.77
529.41	24154.33
529.58	23971.77
529.75	23924.96
529.92	24180.07
530.09	24107.52
530.26	23967.09
530.43	23955.38
530.60	24037.30
530.77	24084.11
530.94	24070.07
531.11	24051.34
531.28	24238.59
531.46	24308.80
531.63	24486.68
531.80	24776.91
531.97	24589.67
532.14	24608.39
532.31	24657.54
532.48	24596.69
532.65	24809.68
532.82	24374.34
532.99	24744.14
533.16	24496.05
533.33	25095.22
533.50	25034.37
533.67	24905.64
533.84	24430.51
534.01	24877.55
534.18	24821.38
534.35	25064.80
534.52	24858.83
534.69	25249.70
534.86	25708.44
535.03	24936.07
535.20	25418.22
535.37	24987.56
535.54	25303.53
535.71	25135.01
535.88	25188.85
536.05	25252.04
536.22	25649.93
536.38	25619.50
536.55	25671.00
536.72	25617.16
536.89	25523.54
537.06	25614.82
537.23	25612.48
537.40	25818.45
537.57	26012.71
537.74	26012.71
537.91	26132.08
538.08	25853.56
538.25	25663.97
538.42	26061.87
538.59	25680.36
538.75	25781.00
538.92	26036.12
539.09	25898.03
539.26	26246.77
539.43	26242.09
539.60	25755.26
539.77	26071.23
539.94	25986.97
540.11	26291.24
540.28	25944.84
540.44	25914.41
540.61	26340.39
540.78	26314.64
540.95	26532.31
541.12	26359.11
541.29	26419.97
541.46	26574.44
541.62	26057.18
541.79	26174.21
541.96	26125.06
542.13	26403.58
542.30	26492.52
542.47	26782.75
542.63	26604.87
542.80	26834.24
542.97	26700.83
543.14	26712.53
543.31	26504.23
543.48	26796.79
543.64	27302.35
543.81	27143.19
543.98	27061.27
544.15	27005.10
544.32	27185.32
544.48	27452.14
544.65	27466.19
544.82	27166.60
544.99	26829.56
545.16	27278.94
545.32	26829.56
545.49	27527.04
545.66	27798.54
545.83	27672.15
546.00	27679.18
546.16	27082.34
546.33	27400.65
546.50	27072.98
546.67	27274.26
546.83	27229.79
547.00	27421.72
547.17	27672.15
547.34	27613.64
547.50	27740.03
547.67	27896.85
547.84	27571.51
548.00	27718.96
548.17	27742.37
548.34	27889.82
548.51	27786.84
548.67	27655.77
548.84	28034.94
549.01	27880.46
549.18	27910.89
549.34	27756.41
549.51	27550.45
549.68	27871.10
549.84	27791.52
550.01	28133.24
550.18	27772.80
550.34	28030.26
550.51	28156.64
550.68	28135.58
550.84	27983.44
551.01	28107.49
551.18	27950.68
551.34	27892.16
551.51	28327.50
551.68	28313.46
551.84	28290.06
552.01	28442.19
552.18	28077.07
552.34	28280.69
552.51	28360.27
552.68	28350.91
552.84	28161.33
553.01	28582.62
553.18	28666.88
553.34	28627.09
553.51	28369.63
553.67	28552.20
553.84	28804.97
554.01	28828.38
554.17	28648.16
554.34	28809.65
554.51	28577.94
554.67	28416.44
554.84	28781.57
555.00	28790.93
555.17	28936.04
555.33	28959.45
555.50	28739.44
555.67	28591.98
555.83	29071.79
556.00	29060.09
556.16	29048.39
556.33	28376.66
556.50	28821.36
556.66	28975.83
556.83	28823.70
556.99	29347.98
557.16	29397.13
557.32	29392.45
557.49	29193.50
557.65	28854.12
557.82	29102.22
557.98	29130.31
558.15	28900.94
558.32	29523.52
558.48	29256.70
558.65	29289.46
558.81	29465.00
558.98	29158.39
559.14	29123.29
559.31	29165.42
559.47	29275.42
559.64	29200.52
559.80	29366.70
559.97	29411.17
560.13	29055.41
560.30	29687.36
560.46	29261.38
560.63	29324.57
560.79	29720.12
560.96	29617.14
561.12	29338.62
561.29	29411.17
561.45	29081.16
561.61	29460.32
561.78	29853.53
561.94	29771.61
562.11	29783.32
562.27	30015.03
562.44	29659.27
562.60	29539.90
562.77	29399.47
562.93	29661.61
563.10	29947.15
563.26	29645.23
563.42	30415.26
563.59	29823.11
563.75	29893.32
563.92	29741.19
564.08	29656.93
564.24	30068.86
564.41	29553.94
564.57	29860.55
564.74	29851.19
564.90	30176.53
565.07	29827.79
565.23	30036.09
565.39	30141.42
565.56	30029.07
565.72	29888.64
565.88	30242.06
566.05	29916.73
566.21	29783.32
566.38	29778.64
566.54	29984.60
566.70	30108.65
566.87	29970.56
567.03	30274.83
567.19	30462.07
567.36	30099.29
567.52	29603.10
567.68	30045.46
567.85	29916.73
568.01	30150.78
568.17	29755.23
568.34	30457.39
568.50	30040.78
568.66	30361.43
568.83	30478.46
568.99	29947.15
569.15	29846.51
569.32	30190.57
569.48	30309.94
569.64	30092.27
569.81	30033.75
569.97	30249.08
570.13	30295.89
570.30	30176.53
570.46	30541.65
570.62	30148.44
570.78	30022.05
570.95	30281.85
571.11	30548.67
571.27	30057.16
571.43	29893.32
571.60	29963.54
571.76	30328.66
571.92	30235.04
572.09	30433.99
572.25	30218.66
572.41	30340.36
572.57	30483.14
572.74	30457.39
572.90	30108.65
573.06	29900.34
573.22	30340.36
573.38	30033.75
573.55	30103.97
573.71	30464.41
573.87	30373.13
574.03	30506.54
574.20	30410.58
574.36	30478.46
574.52	30307.60
574.68	30700.81
574.84	30394.20
575.01	30600.16
575.17	30288.87
575.33	30195.25
575.49	30466.75
575.65	30773.36
575.82	30485.48
575.98	30424.62
576.14	30546.33
576.30	30789.75
576.46	30183.55
576.62	30675.06
576.79	30848.26
576.95	30335.68
577.11	30572.08
577.27	30663.36
577.43	30494.84
577.59	30595.48
577.75	30169.51
577.92	30333.34
578.08	30267.81
578.24	30321.64
578.40	30260.79
578.56	30228.02
578.72	30637.61
578.88	31136.15
579.04	30815.49
579.21	30909.11
579.37	30745.28
579.53	30710.17
579.69	30478.46
579.85	30426.96
580.01	30213.98
580.17	30094.61
580.33	30445.69
580.49	30462.07
580.65	30796.77
580.82	30726.55
580.98	30665.70
581.14	30597.82
581.30	30480.80
581.46	30115.67
581.62	30899.75
581.78	30635.27
581.94	30728.89
582.10	30703.15
582.26	30625.91
582.42	30593.14
582.58	31000.40
582.74	30817.83
582.90	31094.02
583.06	30768.68
583.22	30590.80
583.38	30328.66
583.54	30408.24
583.70	30504.20
583.86	30621.23
584.02	30602.50
584.18	30799.11
584.34	30752.30
584.50	30862.30
584.66	30604.84
584.82	30459.73
584.98	30988.69
585.14	30616.55
585.30	30841.24
585.46	30305.26
585.62	30707.83
585.78	30487.82
585.94	30731.23
586.10	30827.20
586.26	30721.87
586.42	31014.44
586.58	30911.46
586.74	30974.65
586.90	30363.77
587.06	30525.27
587.22	30728.89
587.38	30384.83
587.54	31082.31
587.70	30749.96
587.86	30707.83
588.02	31035.50
588.18	30998.06
588.34	31122.10
588.49	30866.98
588.65	30761.66
588.81	30574.42
588.97	30536.97
589.13	30902.09
589.29	30859.96
589.45	30738.26
589.61	30946.56
589.77	30712.51
589.93	30920.82
590.08	31133.81
590.24	31409.99
590.40	31271.90
590.56	31262.54
590.72	31143.17
590.88	30742.94
591.04	30684.42
591.20	31466.16
591.35	31290.62
591.51	31644.04
591.67	31271.90
591.83	31435.74
