SpectraSuite Data File
++++++++++++++++++++++++++++++++++++
Date: Fri Oct 18 13:58:16 GMT-05:00 2013
User: bianchi
Dark Spectrum Present: No
Reference Spectrum Present: No
Number of Sampled Component Spectra: 1
Spectrometers: USB2+H05261
Integration Time (usec): 50000 (USB2+H05261)
Spectra Averaged: 1 (USB2+H05261)
Boxcar Smoothing: 0 (USB2+H05261)
Correct for Electrical Dark: No (USB2+H05261)
Strobe/Lamp Enabled: No (USB2+H05261)
Correct for Detector Non-linearity: No (USB2+H05261)
Correct for Stray Light: No (USB2+H05261)
Number of Pixels in Processed Spectrum: 2048
>>>>>Begin Processed Spectral Data<<<<<
365.73	0.00
365.92	0.00
366.12	0.00
366.32	0.00
366.52	0.00
366.72	0.00
366.91	0.00
367.11	0.00
367.31	0.00
367.51	0.00
367.70	0.00
367.90	0.00
368.10	0.00
368.30	0.00
368.49	0.00
368.69	0.00
368.89	0.00
369.09	0.00
369.28	0.00
369.48	0.00
369.68	0.00
369.87	0.00
370.07	0.00
370.27	0.00
370.47	42.13
370.66	37.45
370.86	105.32
371.06	191.92
371.25	131.07
371.45	95.96
371.65	95.96
371.84	161.50
372.04	117.03
372.24	119.37
372.44	175.54
372.63	182.56
372.83	241.08
373.03	170.86
373.22	147.45
373.42	248.10
373.62	229.37
373.81	243.42
374.01	283.20
374.21	168.52
374.40	266.82
374.60	278.52
374.79	234.05
374.99	205.97
375.19	168.52
375.38	280.86
375.58	229.37
375.78	327.68
375.97	245.76
376.17	283.20
376.37	280.86
376.56	266.82
376.76	287.89
376.95	280.86
377.15	285.55
377.35	177.88
377.54	252.78
377.74	292.57
377.93	266.82
378.13	259.80
378.33	322.99
378.52	276.18
378.72	346.40
378.91	287.89
379.11	287.89
379.31	290.23
379.50	262.14
379.70	234.05
379.89	348.74
380.09	280.86
380.28	257.46
380.48	245.76
380.68	297.25
380.87	358.10
381.07	330.02
381.26	243.42
381.46	290.23
381.65	287.89
381.85	227.03
382.04	280.86
382.24	318.31
382.43	320.65
382.63	283.20
382.83	318.31
383.02	367.46
383.22	362.78
383.41	304.27
383.61	402.57
383.80	421.30
384.00	344.06
384.19	355.76
384.39	322.99
384.58	430.66
384.78	257.46
384.97	369.80
385.17	421.30
385.36	346.40
385.56	358.10
385.75	444.70
385.95	325.33
386.14	383.85
386.34	376.83
386.53	402.57
386.72	411.93
386.92	388.53
387.11	351.08
387.31	381.51
387.50	433.00
387.70	461.09
387.89	400.23
388.09	407.25
388.28	435.34
388.48	383.85
388.67	407.25
388.86	437.68
389.06	423.64
389.25	447.04
389.45	407.25
389.64	404.91
389.84	447.04
390.03	557.05
390.22	451.72
390.42	440.02
390.61	472.79
390.81	503.22
391.00	456.40
391.19	503.22
391.39	475.13
391.58	496.19
391.78	540.66
391.97	498.53
392.16	468.11
392.36	538.32
392.55	470.45
392.75	528.96
392.94	566.41
393.13	564.07
393.33	477.47
393.52	465.77
393.71	578.11
393.91	573.43
394.10	547.69
394.29	543.00
394.49	561.73
394.68	641.31
394.88	599.18
395.07	578.11
395.26	578.11
395.46	620.24
395.65	594.50
395.84	629.60
396.04	711.52
396.23	660.03
396.42	648.33
396.62	725.57
396.81	645.99
397.00	653.01
397.19	664.71
397.39	690.46
397.58	760.67
397.77	718.54
397.97	671.73
398.16	631.94
398.35	695.14
398.55	697.48
398.74	739.61
398.93	671.73
399.12	725.57
399.32	730.25
399.51	720.88
399.70	755.99
399.90	718.54
400.09	765.36
400.28	748.97
400.47	786.42
400.67	716.20
400.86	795.78
401.05	770.04
401.24	830.89
401.44	786.42
401.63	851.96
401.82	814.51
402.01	826.21
402.21	835.57
402.40	744.29
402.59	781.74
402.78	851.96
402.97	901.11
403.17	880.04
403.36	868.34
403.55	737.27
403.74	887.06
403.93	950.26
404.13	961.96
404.32	915.15
404.51	910.47
404.70	933.87
404.89	861.32
405.09	882.38
405.28	882.38
405.47	971.32
405.66	943.24
405.85	1004.09
406.05	950.26
406.24	966.64
406.43	961.96
406.62	1015.79
406.81	994.73
407.00	957.28
407.20	910.47
407.39	992.39
407.58	1036.86
407.77	1060.26
407.96	1055.58
408.15	1025.15
408.34	1090.69
408.54	1114.10
408.73	1057.92
408.92	1081.33
409.11	1055.58
409.30	1196.01
409.49	1170.27
409.68	1163.25
409.87	1163.25
410.07	1282.61
410.26	1170.27
410.45	1078.99
410.64	1207.72
410.83	1165.59
411.02	1188.99
411.21	1275.59
411.40	1207.72
411.59	1235.80
411.78	1338.79
411.98	1158.57
412.17	1280.27
412.36	1289.64
412.55	1238.14
412.74	1362.19
412.93	1294.32
413.12	1324.74
413.31	1469.86
413.50	1380.92
413.69	1373.89
413.88	1430.07
414.07	1425.39
414.26	1495.60
414.45	1418.36
414.64	1406.66
414.83	1479.22
415.02	1558.80
415.22	1523.69
415.41	1572.84
415.60	1589.22
415.79	1598.59
415.98	1584.54
416.17	1558.80
416.36	1699.23
416.55	1486.24
416.74	1605.61
416.93	1760.08
417.12	1739.02
417.31	1664.12
417.50	1640.72
417.69	1699.23
417.88	1750.72
418.07	1755.40
418.26	1659.44
418.45	1767.10
418.64	1806.89
418.83	1830.30
419.02	1727.32
419.21	1846.68
419.39	1795.19
419.58	1771.79
419.77	1853.70
419.96	1804.55
420.15	1839.66
420.34	1916.90
420.53	1860.73
420.72	1968.39
420.91	1968.39
421.10	1984.77
421.29	1980.09
421.48	1982.43
421.67	1886.47
421.86	1851.36
422.05	1849.02
422.24	1844.34
422.43	1982.43
422.61	2005.84
422.80	2057.33
422.99	2031.58
423.18	2017.54
423.37	2090.10
423.56	2080.74
423.75	2003.50
423.94	1902.86
424.13	1942.64
424.32	1949.67
424.50	1998.82
424.69	2031.58
424.88	2052.65
425.07	1916.90
425.26	1989.46
425.45	2080.74
425.64	2059.67
425.83	1980.09
426.01	2010.52
426.20	2069.03
426.39	2010.52
426.58	2038.61
426.77	2157.97
426.96	2111.16
427.15	2024.56
427.33	2092.44
427.52	2183.72
427.71	2090.10
427.90	2129.89
428.09	2047.97
428.28	2146.27
428.46	2169.68
428.65	2003.50
428.84	2214.15
429.03	2216.49
429.22	2218.83
429.40	2291.38
429.59	2174.36
429.78	2118.18
429.97	2078.40
430.16	2111.16
430.34	2204.78
430.53	2326.49
430.72	2377.98
430.91	2307.77
431.10	2176.70
431.28	2420.11
431.47	2326.49
431.66	2466.92
431.85	2265.64
432.03	2349.90
432.22	2527.78
432.41	2399.05
432.60	2471.61
432.79	2354.58
432.97	2452.88
433.16	2438.84
433.35	2408.41
433.54	2579.27
433.72	2548.84
433.91	2504.37
434.10	2579.27
434.28	2523.10
434.47	2565.23
434.66	2616.72
434.85	2565.23
435.03	2642.46
435.22	2569.91
435.41	2747.79
435.59	2623.74
435.78	2619.06
435.97	2637.78
436.16	2679.91
436.34	2649.49
436.53	2665.87
436.72	2663.53
436.90	2579.27
437.09	2738.43
437.28	2691.62
437.46	2715.02
437.65	2796.94
437.84	2708.00
438.02	2637.78
438.21	2850.77
438.40	2780.56
438.58	2850.77
438.77	2827.37
438.96	2799.28
439.14	2923.33
439.33	2782.90
439.52	2855.45
439.70	2960.78
439.89	2986.52
440.08	2913.97
440.26	3082.49
440.45	3045.04
440.63	2956.10
440.82	3112.91
441.01	3073.12
441.19	3117.59
441.38	3035.67
441.57	3136.32
441.75	3129.30
441.94	3229.94
442.12	3141.00
442.31	3461.65
442.50	3283.77
442.68	3295.47
442.87	3377.39
443.05	3368.03
443.24	3452.29
443.43	3407.82
443.61	3370.37
443.80	3363.35
443.98	3197.17
444.17	3316.54
444.35	3382.07
444.54	3454.63
444.73	3555.27
444.91	3393.78
445.10	3398.46
445.28	3389.10
445.47	3363.35
445.65	3346.97
445.84	3487.40
446.02	3466.33
446.21	3389.10
446.39	3361.01
446.58	3489.74
446.77	3534.21
446.95	3541.23
447.14	3377.39
447.32	3492.08
447.51	3545.91
447.69	3375.05
447.88	3471.01
448.06	3412.50
448.25	3618.47
448.43	3459.31
448.62	3482.72
448.80	3529.53
448.99	3623.15
449.17	3648.90
449.36	3545.91
449.54	3648.90
449.73	3576.34
449.91	3599.74
450.10	3672.30
450.28	3754.22
450.46	3557.61
450.65	3618.47
450.83	3623.15
451.02	3672.30
451.20	3819.75
451.39	3801.03
451.57	3768.26
451.76	3763.58
451.94	3803.37
452.13	3768.26
452.31	3936.78
452.49	3784.65
452.68	3875.93
452.86	3735.50
453.05	3950.82
453.23	3840.82
453.42	3887.63
453.60	3892.31
453.78	3852.52
453.97	4011.68
454.15	3866.56
454.34	3974.23
454.52	4016.36
454.70	3911.04
454.89	4002.32
455.07	3906.35
455.26	4058.49
455.44	4138.07
455.62	4072.53
455.81	4009.34
455.99	4053.81
456.17	4105.30
456.36	4170.83
456.54	4077.21
456.73	4238.71
456.91	4334.67
457.09	4365.10
457.28	4440.00
457.46	4154.45
457.64	4217.65
457.83	4322.97
458.01	4409.57
458.19	4311.27
458.38	4334.67
458.56	4552.34
458.74	4542.98
458.93	4432.97
459.11	4348.72
459.29	4346.37
459.48	4308.93
459.66	4500.85
459.84	4662.35
460.03	4535.96
460.21	4440.00
460.39	4493.83
460.57	4568.73
460.76	4531.28
460.94	4582.77
461.12	4652.98
461.31	4802.78
461.49	4514.89
461.67	4557.02
461.85	4667.03
462.04	4514.89
462.22	5008.75
462.40	4627.24
462.59	4720.86
462.77	4865.97
462.95	4795.76
463.13	4592.13
463.32	4667.03
463.50	4901.08
463.68	4922.15
463.86	4894.06
464.05	4887.04
464.23	4880.02
464.41	4823.84
464.59	4781.71
464.78	4784.06
464.96	4746.61
465.14	4807.46
465.32	5064.92
465.50	4926.83
465.69	5011.09
465.87	4931.51
466.05	4975.98
466.23	5025.13
466.41	5025.13
466.60	5174.92
466.78	4894.06
466.96	5020.45
467.14	5083.64
467.32	5163.22
467.51	5102.37
467.69	5137.48
467.87	5107.05
468.05	5085.98
468.23	4983.00
468.41	5114.07
468.60	5158.54
468.78	5172.58
468.96	5041.51
469.14	5242.80
469.32	5317.70
469.50	5067.26
469.69	5104.71
469.87	5308.34
470.05	5446.43
470.23	5387.91
470.41	5408.98
470.59	5413.66
470.77	5455.79
470.95	5390.25
471.14	5591.54
471.32	5460.47
471.50	5486.22
471.68	5678.14
471.86	5441.75
472.04	5523.66
472.22	5797.51
472.40	5713.25
472.58	5565.79
472.77	5657.07
472.95	5757.72
473.13	5935.60
473.31	5673.46
473.49	5781.12
473.67	5827.93
473.85	5851.34
474.03	6043.26
474.21	5989.43
474.39	6141.57
474.57	6054.97
474.75	6064.33
474.93	6242.21
475.12	6174.33
475.30	6171.99
475.48	6115.82
475.66	6286.68
475.84	6043.26
476.02	6532.44
476.20	6314.77
476.38	6340.51
476.56	6569.88
476.74	6590.95
476.92	6455.20
477.10	6544.14
477.28	6602.65
477.46	6539.46
477.64	6607.33
477.82	6693.93
478.00	6981.82
478.18	6825.00
478.36	6829.68
478.54	6977.14
478.72	7049.69
478.90	7138.63
479.08	7222.89
479.26	7269.70
479.44	7239.28
479.62	7304.81
479.80	7412.48
479.98	7426.52
480.16	7611.42
480.34	7487.37
480.52	7702.70
480.70	7845.48
480.88	7520.14
481.06	7639.51
481.24	7674.62
481.41	7822.07
481.59	7925.05
481.77	8056.12
481.95	7903.99
482.13	7885.26
482.31	8039.74
482.49	8184.85
482.67	8269.11
482.85	8187.19
483.03	8372.10
483.21	8304.22
483.39	8489.12
483.57	8634.24
483.74	8648.28
483.92	8849.57
484.10	8606.15
484.28	8819.14
484.46	8917.44
484.64	9270.86
484.82	8777.01
485.00	9109.36
485.18	9090.64
485.35	9364.48
485.53	9348.10
485.71	9348.10
485.89	9458.10
486.07	9469.81
486.25	9504.92
486.43	9858.34
486.61	9542.36
486.78	10050.26
486.96	9736.63
487.14	10312.40
487.32	10019.83
487.50	10127.50
487.68	10139.20
487.85	10281.97
488.03	10471.56
488.21	10429.43
488.39	10658.80
488.57	10501.98
488.75	10656.46
488.92	10944.34
489.10	10937.32
489.28	11056.69
489.46	10899.87
489.64	10977.11
489.81	11262.66
489.99	11089.46
490.17	11676.93
490.35	11400.75
490.53	11506.07
490.70	11592.67
490.88	11538.84
491.06	11667.57
491.24	11606.72
491.41	11674.59
491.59	12105.25
491.77	11999.93
491.95	11999.93
492.13	12126.32
492.30	12255.04
492.48	12355.69
492.66	12313.56
492.84	12266.75
493.01	12465.69
493.19	12479.74
493.37	12634.21
493.54	12683.36
493.72	12994.65
493.90	12648.26
494.08	12996.99
494.25	12833.16
494.43	13247.43
494.61	13242.75
494.79	13294.24
494.96	13118.70
495.14	13514.25
495.32	13441.70
495.49	13710.86
495.67	13647.66
495.85	13839.59
496.02	13771.71
496.20	14064.28
496.38	13818.52
496.55	13823.20
496.73	14031.51
496.91	14143.86
497.09	14267.91
497.26	14162.58
497.44	14209.39
497.62	14129.81
497.79	14679.84
497.97	14452.81
498.14	14675.16
498.32	14920.92
498.50	14930.28
498.67	14834.32
498.85	14785.16
499.03	14855.38
499.20	15108.16
499.38	14857.72
499.56	14939.64
499.73	15297.74
499.91	15119.86
500.08	15356.25
500.26	15232.21
500.44	15665.21
500.61	15531.80
500.79	15555.20
500.97	15562.22
501.14	15503.71
501.32	15915.64
501.49	15887.56
501.67	15712.02
501.84	15967.13
502.02	15800.96
502.20	16077.14
502.37	16175.44
502.55	16140.33
502.72	15908.62
502.90	15950.75
503.07	16393.11
503.25	16168.42
503.43	16491.41
503.60	16271.40
503.78	16531.20
503.95	16606.10
504.13	16538.23
504.30	16538.23
504.48	16809.73
504.65	16704.40
504.83	16615.46
505.01	16767.60
505.18	16879.94
505.36	17062.51
505.53	16772.28
505.71	16966.54
505.88	17046.12
506.06	16931.44
506.23	17181.87
506.41	17020.38
506.58	17366.78
506.76	17319.96
506.93	17547.00
507.11	17359.75
507.28	17605.51
507.46	17701.47
507.63	17528.27
507.81	17799.77
507.98	17530.61
508.16	17741.26
508.33	17729.56
508.50	17710.83
508.68	17933.18
508.85	18043.19
509.03	18218.73
509.20	18005.74
509.38	18321.71
509.55	18368.52
509.73	18195.32
509.90	18356.82
510.08	18202.35
510.25	18366.18
510.42	18237.45
510.60	18600.24
510.77	18555.77
510.95	18487.89
511.12	18637.69
511.30	18551.09
511.47	19145.58
511.64	18728.97
511.82	18923.23
511.99	19019.19
512.17	18937.27
512.34	19042.60
512.51	19063.66
512.69	19288.35
512.86	19089.41
513.04	19246.23
513.21	19047.28
513.38	19393.68
513.56	19337.51
513.73	19199.41
513.90	19707.31
514.08	19168.99
514.25	19616.03
514.43	19665.18
514.60	19983.49
514.77	19690.93
514.95	19728.38
515.12	19707.31
515.29	19527.09
515.47	19765.82
515.64	19990.52
515.81	20051.37
515.99	20058.39
516.16	20294.79
516.33	20081.80
516.51	20449.26
516.68	20168.40
516.85	20074.77
517.03	20236.27
517.20	20496.07
517.37	20365.00
517.54	20463.30
517.72	20744.17
517.89	20519.48
518.06	20559.27
518.24	20519.48
518.41	20849.49
518.58	20634.16
518.75	20938.43
518.93	21018.01
519.10	20816.72
519.27	20903.32
519.45	20765.23
519.62	21163.12
519.79	20966.52
519.96	21256.75
520.14	21240.36
520.31	21018.01
520.48	21418.24
520.65	21371.43
520.83	21167.80
521.00	21270.79
521.17	21736.56
521.34	21018.01
521.52	21568.04
521.69	21774.00
521.86	21649.96
522.03	21607.83
522.20	21734.21
522.38	21820.81
522.55	21862.94
522.72	21551.65
522.89	21820.81
523.07	21785.71
523.24	21818.47
523.41	22008.06
523.58	21942.52
523.75	22279.56
523.92	22143.81
524.10	22139.13
524.27	22223.39
524.44	22195.30
524.61	22104.02
524.78	22443.40
524.96	22134.45
525.13	22581.49
525.30	22424.67
525.47	22373.18
525.64	22281.90
525.81	22609.58
525.98	22597.87
526.16	22878.74
526.33	22618.94
526.50	23014.49
526.67	22548.72
526.84	22906.82
527.01	22419.99
527.18	22771.07
527.36	23199.39
527.53	23218.11
527.70	23243.86
527.87	23215.77
528.04	23098.75
528.21	23054.28
528.38	23192.37
528.55	22974.70
528.72	23276.63
528.89	23456.85
529.07	23531.75
529.24	23601.96
529.41	23510.68
529.58	23754.10
529.75	23358.55
529.92	23470.89
530.09	23386.63
530.26	23211.09
530.43	23625.37
530.60	23601.96
530.77	23524.72
530.94	23859.42
531.11	23697.92
531.28	23428.76
531.46	23690.90
531.63	23988.15
531.80	23901.55
531.97	23744.73
532.14	23943.68
532.31	23620.69
532.48	24264.33
532.65	23943.68
532.82	23726.01
532.99	24067.73
533.16	24133.26
533.33	24357.96
533.50	24589.67
533.67	24170.71
533.84	24292.42
534.01	24245.61
534.18	24402.43
534.35	24332.21
534.52	24311.14
534.69	24472.64
534.86	24566.26
535.03	24650.52
535.20	24568.60
535.37	24463.28
535.54	24868.19
535.71	24510.09
535.88	24666.91
536.05	24648.18
536.22	25088.20
536.38	24912.66
536.55	25144.38
536.72	25198.21
536.89	24683.29
537.06	24884.58
537.23	24996.92
537.40	24936.07
537.57	24479.66
537.74	25149.06
537.91	25259.06
538.08	25245.02
538.25	24973.52
538.42	25469.71
538.59	25392.47
538.75	25081.18
538.92	25448.64
539.09	25092.88
539.26	25315.23
539.43	25422.90
539.60	25640.57
539.77	25359.70
539.94	25607.80
540.11	25184.16
540.28	25490.77
540.44	25497.80
540.61	25631.21
540.78	25689.72
540.95	25696.74
541.12	25500.14
541.29	25820.79
541.46	25855.90
541.62	25715.47
541.79	25663.97
541.96	25465.03
542.13	25724.83
542.30	26099.31
542.47	25837.17
542.63	26087.61
542.80	26148.46
542.97	26581.46
543.14	26270.17
543.31	26206.98
543.48	26305.28
543.64	26434.01
543.81	26333.37
543.98	26424.65
544.15	26352.09
544.32	26464.44
544.48	26618.91
544.65	26148.46
544.82	26602.53
544.99	26342.73
545.16	26391.88
545.32	26235.06
545.49	26637.64
545.66	26780.41
545.83	26874.03
546.00	26841.26
546.16	26822.54
546.33	26352.09
546.50	26312.30
546.67	26855.31
546.83	26118.04
547.00	26838.92
547.17	26941.91
547.34	27012.12
547.50	26719.56
547.67	27068.30
547.84	26794.45
548.00	27054.25
548.17	27119.79
548.34	27211.07
548.51	26864.67
548.67	27054.25
548.84	27199.37
549.01	27218.09
549.18	27225.11
549.34	26747.64
549.51	27253.20
549.68	27075.32
549.84	26754.66
550.01	27459.16
550.18	27316.39
550.34	27379.59
550.51	27658.11
550.68	27615.98
550.84	27049.57
551.01	27292.99
551.18	27056.59
551.34	27260.22
551.51	27569.17
551.68	27592.58
551.84	27178.30
552.01	27395.97
552.18	27730.67
552.34	27641.73
552.51	27782.16
552.68	27714.28
552.84	27744.71
553.01	27880.46
553.18	28093.45
553.34	27878.12
553.51	27859.40
553.67	28163.67
553.84	28048.98
554.01	28166.01
554.17	28091.11
554.34	27871.10
554.51	27875.78
554.67	28240.90
554.84	27871.10
555.00	27997.49
555.17	28074.73
555.33	27803.22
555.50	28088.77
555.67	28109.83
555.83	28250.27
556.00	27887.48
556.16	28617.73
556.33	27679.18
556.50	28056.00
556.66	28142.60
556.83	28404.74
556.99	28802.63
557.16	28528.79
557.32	28905.62
557.49	28374.31
557.65	27985.79
557.82	28053.66
557.98	28140.26
558.15	28297.08
558.32	28528.79
558.48	28496.02
558.65	28442.19
558.81	28535.81
558.98	28627.09
559.14	28584.96
559.31	28613.05
559.47	28334.53
559.64	28821.36
559.80	28514.75
559.97	29165.42
560.13	28783.91
560.30	28430.49
560.46	28982.85
560.63	28760.50
560.79	28905.62
560.96	28718.37
561.12	28793.27
561.29	28456.23
561.45	28971.15
561.61	28985.19
561.78	28730.08
561.94	28849.44
562.11	28919.66
562.27	28844.76
562.44	28945.41
562.60	28748.80
562.77	28629.43
562.93	28821.36
563.10	29123.29
563.26	28739.44
563.42	29333.93
563.59	28804.97
563.75	28914.98
563.92	29200.52
564.08	29053.07
564.24	29046.05
564.41	28863.49
564.57	28826.04
564.74	29043.71
564.90	29439.26
565.07	28966.47
565.23	28926.68
565.39	29240.31
565.56	29263.72
565.72	28985.19
565.88	28996.90
566.05	28870.51
566.21	29067.11
566.38	28762.84
566.54	29008.60
566.70	29256.70
566.87	29200.52
567.03	29273.08
567.19	29443.94
567.36	29247.33
567.52	28772.21
567.68	29387.77
567.85	29261.38
568.01	29226.27
568.17	28701.99
568.34	29500.11
568.50	29392.45
568.66	29549.26
568.83	29275.42
568.99	29315.21
569.15	29420.53
569.32	28893.91
569.48	29174.78
569.64	29553.94
569.81	29532.88
569.97	29254.36
570.13	29329.25
570.30	29373.72
570.46	29411.17
570.62	29528.20
570.78	29039.03
570.95	28872.85
571.11	29647.57
571.27	29544.58
571.43	29132.65
571.60	29703.74
571.76	29359.68
571.92	29582.03
572.09	29263.72
572.25	29584.37
572.41	29773.95
572.57	29818.42
572.74	29696.72
572.90	29383.09
573.06	29415.85
573.22	29436.92
573.38	29673.31
573.55	29406.49
573.71	29783.32
573.87	29397.13
574.03	29149.03
574.20	29745.87
574.36	29338.62
574.52	29310.53
574.68	29268.40
574.84	29467.34
575.01	29404.15
575.17	29350.32
575.33	29703.74
575.49	29727.14
575.65	29511.81
575.82	29769.27
575.98	29441.60
576.14	29792.68
576.30	29869.92
576.46	29809.06
576.62	29406.49
576.79	29467.34
576.95	29500.11
577.11	29572.67
577.27	29830.13
577.43	29848.85
577.59	29752.89
577.75	29743.53
577.92	29214.57
578.08	29209.89
578.24	29322.23
578.40	29610.12
578.56	29577.35
578.72	29773.95
578.88	29839.49
579.04	29813.74
579.21	29619.48
579.37	29504.79
579.53	29881.62
579.69	29488.41
579.85	29598.41
580.01	30005.67
580.17	29443.94
580.33	29820.77
580.49	29783.32
580.65	29607.78
580.82	29905.02
580.98	29600.76
581.14	29991.62
581.30	29617.14
581.46	29785.66
581.62	29521.18
581.78	29603.10
581.94	29802.04
582.10	29247.33
582.26	30036.09
582.42	29530.54
582.58	29883.96
582.74	29525.86
582.90	29827.79
583.06	29750.55
583.22	30118.01
583.38	30087.59
583.54	29757.57
583.70	29720.12
583.86	29951.84
584.02	29600.76
584.18	30129.72
584.34	30118.01
584.50	29811.40
584.66	30239.72
584.82	29216.91
584.98	29942.47
585.14	29685.01
585.30	29841.83
585.46	29912.05
585.62	30003.33
585.78	29804.38
585.94	29661.61
586.10	29741.19
586.26	29893.32
586.42	30316.96
586.58	29860.55
586.74	29813.74
586.90	29476.71
587.06	29766.93
587.22	30115.67
587.38	29680.33
587.54	29982.26
587.70	30125.04
587.86	30096.95
588.02	29792.68
588.18	30206.95
588.34	30036.09
588.49	30047.80
588.65	30085.25
588.81	30068.86
588.97	30080.56
589.13	29996.31
589.29	29722.46
589.45	29867.58
589.61	30169.51
589.77	30534.63
589.93	30340.36
590.08	30183.55
590.24	30401.22
590.40	29886.30
590.56	30345.05
590.72	29956.52
590.88	29820.77
591.04	30450.37
591.20	30167.16
591.35	30513.56
591.51	30787.41
591.67	29979.92
591.83	30433.99
591.99	30316.96
