SpectraSuite Data File
++++++++++++++++++++++++++++++++++++
Date: Fri Oct 18 13:58:23 GMT-05:00 2013
User: bianchi
Dark Spectrum Present: No
Reference Spectrum Present: No
Number of Sampled Component Spectra: 1
Spectrometers: USB2+H05261
Integration Time (usec): 50000 (USB2+H05261)
Spectra Averaged: 1 (USB2+H05261)
Boxcar Smoothing: 0 (USB2+H05261)
Correct for Electrical Dark: No (USB2+H05261)
Strobe/Lamp Enabled: No (USB2+H05261)
Correct for Detector Non-linearity: No (USB2+H05261)
Correct for Stray Light: No (USB2+H05261)
Number of Pixels in Processed Spectrum: 2048
>>>>>Begin Processed Spectral Data<<<<<
365.73	0.00
365.92	0.00
366.12	0.00
366.32	0.00
366.52	0.00
366.72	0.00
366.91	0.00
367.11	0.00
367.31	0.00
367.51	0.00
367.70	0.00
367.90	0.00
368.10	0.00
368.30	0.00
368.49	0.00
368.69	0.00
368.89	0.00
369.09	0.00
369.28	0.00
369.48	0.00
369.68	0.00
369.87	0.00
370.07	0.00
370.27	0.00
370.47	0.00
370.66	145.11
370.86	126.39
371.06	138.09
371.25	114.69
371.45	102.98
371.65	201.29
371.84	133.41
372.04	201.29
372.24	126.39
372.44	170.86
372.63	159.16
372.83	184.90
373.03	173.20
373.22	194.26
373.42	212.99
373.62	245.76
373.81	201.29
374.01	215.33
374.21	262.14
374.40	222.35
374.60	285.55
374.79	262.14
374.99	252.78
375.19	191.92
375.38	180.22
375.58	334.70
375.78	318.31
375.97	259.80
376.17	266.82
376.37	250.44
376.56	259.80
376.76	308.95
376.95	327.68
377.15	315.97
377.35	276.18
377.54	273.84
377.74	264.48
377.93	266.82
378.13	259.80
378.33	351.08
378.52	201.29
378.72	283.20
378.91	341.72
379.11	259.80
379.31	306.61
379.50	250.44
379.70	220.01
379.89	238.73
380.09	278.52
380.28	266.82
380.48	299.59
380.68	339.38
380.87	320.65
381.07	334.70
381.26	334.70
381.46	292.57
381.65	339.38
381.85	334.70
382.04	346.40
382.24	308.95
382.43	301.93
382.63	292.57
382.83	315.97
383.02	365.12
383.22	393.21
383.41	418.96
383.61	383.85
383.80	325.33
384.00	301.93
384.19	360.44
384.39	315.97
384.58	294.91
384.78	404.91
384.97	379.17
385.17	388.53
385.36	376.83
385.56	367.46
385.75	418.96
385.95	322.99
386.14	381.51
386.34	416.62
386.53	369.80
386.72	416.62
386.92	411.93
387.11	425.98
387.31	472.79
387.50	404.91
387.70	400.23
387.89	456.40
388.09	451.72
388.28	416.62
388.48	423.64
388.67	528.96
388.86	463.43
389.06	416.62
389.25	505.56
389.45	416.62
389.64	475.13
389.84	479.81
390.03	447.04
390.22	397.89
390.42	402.57
390.61	514.92
390.81	482.15
391.00	507.90
391.19	465.77
391.39	498.53
391.58	507.90
391.78	514.92
391.97	559.39
392.16	496.19
392.36	552.37
392.55	585.13
392.75	547.69
392.94	468.11
393.13	561.73
393.33	503.22
393.52	552.37
393.71	592.16
393.91	524.28
394.10	538.32
394.29	573.43
394.49	566.41
394.68	627.26
394.88	578.11
395.07	594.50
395.26	667.05
395.46	571.09
395.65	622.58
395.84	578.11
396.04	725.57
396.23	697.48
396.42	653.01
396.62	545.34
396.81	596.84
397.00	620.24
397.19	706.84
397.39	655.35
397.58	667.05
397.77	667.05
397.97	688.12
398.16	765.36
398.35	781.74
398.55	739.61
398.74	636.63
398.93	727.91
399.12	725.57
399.32	676.41
399.51	732.59
399.70	791.10
399.90	716.20
400.09	727.91
400.28	765.36
400.47	784.08
400.67	826.21
400.86	809.83
401.05	685.78
401.24	758.33
401.44	791.10
401.63	826.21
401.82	760.67
402.01	809.83
402.21	828.55
402.40	809.83
402.59	718.54
402.78	870.68
402.97	873.02
403.17	821.53
403.36	842.59
403.55	837.91
403.74	903.45
403.93	884.72
404.13	884.72
404.32	924.51
404.51	961.96
404.70	891.74
404.89	964.30
405.09	943.24
405.28	978.34
405.47	884.72
405.66	961.96
405.85	997.07
406.05	992.39
406.24	938.55
406.43	1013.45
406.62	1046.22
406.81	997.07
407.00	992.39
407.20	978.34
407.39	1008.77
407.58	1008.77
407.77	985.37
407.96	1043.88
408.15	1041.54
408.34	1090.69
408.54	1004.09
408.73	1041.54
408.92	1090.69
409.11	1088.35
409.30	1027.50
409.49	1100.05
409.68	1100.05
409.87	1163.25
410.07	1228.78
410.26	1128.14
410.45	1128.14
410.64	1179.63
410.83	1200.69
411.02	1203.04
411.21	1261.55
411.40	1186.65
411.59	1252.19
411.78	1277.93
411.98	1313.04
412.17	1273.25
412.36	1280.27
412.55	1338.79
412.74	1350.49
412.93	1394.96
413.12	1294.32
413.31	1411.34
413.50	1378.58
413.69	1418.36
413.88	1427.73
414.07	1413.68
414.26	1451.13
414.45	1385.60
414.64	1479.22
414.83	1488.58
415.02	1495.60
415.22	1523.69
415.41	1511.99
415.60	1493.26
415.79	1551.78
415.98	1535.39
416.17	1519.01
416.36	1584.54
416.55	1680.50
416.74	1652.42
416.93	1544.75
417.12	1701.57
417.31	1694.55
417.50	1645.40
417.69	1872.43
417.88	1820.94
418.07	1689.87
418.26	1685.19
418.45	1685.19
418.64	1870.09
418.83	1795.19
419.02	1767.10
419.21	1762.42
419.39	1853.70
419.58	1783.49
419.77	1816.26
419.96	1790.51
420.15	1778.81
420.34	1935.62
420.53	1818.60
420.72	1961.37
420.91	1961.37
421.10	1926.26
421.29	1849.02
421.48	1928.60
421.67	2024.56
421.86	1952.01
422.05	2017.54
422.24	1959.03
422.43	1926.26
422.61	1935.62
422.80	2047.97
422.99	2083.08
423.18	1891.15
423.37	2092.44
423.56	1966.05
423.75	1970.73
423.94	1968.39
424.13	1739.02
424.32	1916.90
424.50	2043.29
424.69	2097.12
424.88	2157.97
425.07	2015.20
425.26	2019.88
425.45	2045.63
425.64	1928.60
425.83	1977.75
426.01	2139.25
426.20	2062.01
426.39	2022.22
426.58	1982.43
426.77	2071.37
426.96	2132.23
427.15	2113.50
427.33	2207.13
427.52	2174.36
427.71	2099.46
427.90	2232.87
428.09	2162.66
428.28	2097.12
428.46	2277.34
428.65	2165.00
428.84	2263.30
429.03	2157.97
429.22	2167.34
429.40	2195.42
429.59	2174.36
429.78	2169.68
429.97	2183.72
430.16	2228.19
430.34	2406.07
430.53	2431.82
430.72	2406.07
430.91	2312.45
431.10	2239.89
431.28	2300.75
431.47	2389.69
431.66	2361.60
431.85	2317.13
432.03	2373.30
432.22	2389.69
432.41	2298.41
432.60	2335.85
432.79	2387.35
432.97	2513.74
433.16	2429.48
433.35	2331.17
433.54	2455.22
433.72	2527.78
433.91	2626.08
434.10	2513.74
434.28	2548.84
434.47	2614.38
434.66	2553.52
434.85	2600.34
435.03	2672.89
435.22	2668.21
435.41	2670.55
435.59	2574.59
435.78	2567.57
435.97	2630.76
436.16	2565.23
436.34	2595.65
436.53	2609.70
436.72	2810.98
436.90	2677.57
437.09	2810.98
437.28	2607.36
437.46	2754.81
437.65	2668.21
437.84	2857.79
438.02	2722.04
438.21	2810.98
438.40	2789.92
438.58	2782.90
438.77	2942.05
438.96	2857.79
439.14	2981.84
439.33	2888.22
439.52	2998.23
439.70	2960.78
439.89	3063.76
440.08	2972.48
440.26	3080.14
440.45	2942.05
440.63	3073.12
440.82	3073.12
441.01	3234.62
441.19	3199.51
441.38	3199.51
441.57	3197.17
441.75	3239.30
441.94	3211.22
442.12	3356.33
442.31	3456.97
442.50	3199.51
442.68	3194.83
442.87	3314.20
443.05	3241.64
443.24	3421.86
443.43	3510.80
443.61	3442.93
443.80	3412.50
443.98	3321.22
444.17	3220.58
444.35	3321.22
444.54	3454.63
444.73	3543.57
444.91	3428.88
445.10	3452.29
445.28	3492.08
445.47	3368.03
445.65	3356.33
445.84	3557.61
446.02	3522.51
446.21	3410.16
446.39	3419.52
446.58	3452.29
446.77	3667.62
446.95	3527.19
447.14	3421.86
447.32	3543.57
447.51	3576.34
447.69	3414.84
447.88	3604.42
448.06	3456.97
448.25	3559.95
448.43	3536.55
448.62	3566.98
448.80	3583.36
448.99	3562.30
449.17	3667.62
449.36	3667.62
449.54	3749.54
449.73	3585.70
449.91	3709.75
450.10	3754.22
450.28	3702.73
450.46	3709.75
450.65	3639.53
450.83	3667.62
451.02	3873.59
451.20	3777.62
451.39	3691.02
451.57	3716.77
451.76	3693.37
451.94	3756.56
452.13	3728.47
452.31	3866.56
452.49	3646.55
452.68	3801.03
452.86	3775.28
453.05	3868.91
453.23	4023.38
453.42	3894.65
453.60	3845.50
453.78	3995.29
453.97	3964.87
454.15	3880.61
454.34	3847.84
454.52	3981.25
454.70	3845.50
454.89	4060.83
455.07	4201.26
455.26	3868.91
455.44	4095.94
455.62	4196.58
455.81	4084.23
455.99	4131.05
456.17	4100.62
456.36	4074.87
456.54	4374.46
456.73	4301.90
456.91	4276.16
457.09	4451.70
457.28	4297.22
457.46	4283.18
457.64	4227.01
457.83	4278.50
458.01	4182.54
458.19	4414.25
458.38	4224.67
458.56	4304.25
458.74	4329.99
458.93	4337.01
459.11	4526.60
459.29	4447.02
459.48	4461.06
459.66	4423.61
459.84	4500.85
460.03	4596.81
460.21	4585.11
460.39	4489.15
460.57	4507.87
460.76	4482.13
460.94	4542.98
461.12	4676.39
461.31	4765.33
461.49	4669.37
461.67	4484.47
461.85	4760.65
462.04	4798.10
462.22	4737.24
462.40	4837.89
462.59	4641.28
462.77	4727.88
462.95	4901.08
463.13	4643.62
463.32	4889.38
463.50	4896.40
463.68	4894.06
463.86	4887.04
464.05	4662.35
464.23	4973.64
464.41	4809.80
464.59	4861.29
464.78	4954.91
464.96	4926.83
465.14	4833.21
465.32	5029.81
465.50	4959.60
465.69	5018.11
465.87	4901.08
466.05	4943.21
466.23	4877.68
466.41	4837.89
466.60	5240.46
466.78	4924.49
466.96	5074.28
467.14	4968.96
467.32	5193.65
467.51	5303.65
467.69	5046.20
467.87	5132.79
468.05	5327.06
468.23	5135.14
468.41	5174.92
468.60	5137.48
468.78	5296.63
468.96	5268.55
469.14	5362.17
469.32	5170.24
469.50	5235.78
469.69	5493.24
469.87	5462.81
470.05	5397.28
470.23	5462.81
470.41	5329.40
470.59	5614.95
470.77	5509.62
470.95	5486.22
471.14	5617.29
471.32	5643.03
471.50	5547.07
471.68	5591.54
471.86	5736.65
472.04	5645.37
472.22	5706.23
472.40	5561.11
472.58	5792.83
472.77	5853.68
472.95	5888.79
473.13	5797.51
473.31	5748.36
473.49	5771.76
473.67	5827.93
473.85	5813.89
474.03	5956.66
474.21	5926.24
474.39	6047.94
474.57	6134.54
474.75	6136.88
474.93	6066.67
475.12	6111.14
475.30	6209.44
475.48	6115.82
475.66	6087.73
475.84	6190.72
476.02	6349.87
476.20	6352.21
476.38	6193.06
476.56	6607.33
476.74	6609.67
476.92	6352.21
477.10	6509.03
477.28	6668.19
477.46	6579.25
477.64	6806.28
477.82	6796.92
478.00	6899.90
478.18	6967.77
478.36	6951.39
478.54	6984.16
478.72	6963.09
478.90	7215.87
479.08	7096.50
479.26	7213.53
479.44	7293.11
479.62	7630.15
479.80	7581.00
479.98	7290.77
480.16	7653.55
480.34	7466.31
480.52	7592.70
480.70	7550.57
480.88	7335.24
481.06	7857.18
481.24	7707.38
481.41	7803.35
481.59	8051.44
481.77	7939.10
481.95	7974.21
482.13	8023.36
482.31	8044.42
482.49	8383.80
482.67	8112.30
482.85	8461.04
483.03	8456.36
483.21	8554.66
483.39	8514.87
483.57	8720.84
483.74	8723.18
483.92	8802.75
484.10	8842.54
484.28	8847.22
484.46	9200.65
484.64	9214.69
484.82	8901.06
485.00	9188.94
485.18	9298.95
485.35	9404.27
485.53	9357.46
485.71	9245.12
485.89	9607.90
486.07	9610.24
486.25	9584.49
486.43	9619.60
486.61	9685.14
486.78	9905.15
486.96	9914.51
487.14	10097.07
487.32	10024.51
487.50	10136.86
487.68	10244.52
487.85	10490.28
488.03	10499.64
488.21	10572.20
488.39	10544.11
488.57	10485.60
488.75	10733.70
488.92	11002.86
489.10	10853.06
489.28	10874.13
489.46	11131.59
489.64	11117.54
489.81	11246.27
489.99	11250.96
490.17	11351.60
490.35	11531.82
490.53	11503.73
490.70	11786.94
490.88	11578.63
491.06	11700.34
491.24	11803.32
491.41	11728.42
491.59	11892.26
491.77	11950.78
491.95	12081.85
492.13	12121.63
492.30	12404.84
492.48	12343.99
492.66	12276.11
492.84	12498.46
493.01	12381.43
493.19	12716.13
493.37	12837.84
493.54	12812.09
493.72	12793.37
493.90	12688.04
494.08	13170.19
494.25	13289.56
494.43	13177.22
494.61	13214.66
494.79	13132.75
494.96	13238.07
495.14	13397.23
495.32	13380.84
495.49	13514.25
495.67	13752.99
495.85	13891.08
496.02	13727.24
496.20	14141.52
496.38	14057.26
496.55	13965.98
496.73	14349.82
496.91	14068.96
497.09	14263.22
497.26	14567.49
497.44	14366.21
497.62	14272.59
497.79	14567.49
497.97	14541.75
498.14	14721.97
498.32	14918.57
498.50	14995.81
498.67	15028.58
498.85	14967.73
499.03	14974.75
499.20	14752.40
499.38	15178.37
499.56	15311.78
499.73	15082.41
499.91	15545.84
500.08	15641.80
500.26	15382.00
500.44	15257.95
500.61	15279.02
500.79	15564.56
500.97	15492.01
501.14	15700.31
501.32	15845.43
501.49	15604.35
501.67	15981.18
501.84	15786.91
502.02	15948.41
502.20	15880.53
502.37	16360.34
502.55	16280.77
502.72	16147.36
502.90	16245.66
503.07	16189.49
503.25	16477.37
503.43	16210.55
503.60	16425.88
503.78	16772.28
503.95	16587.38
504.13	16552.27
504.30	16643.55
504.48	16517.16
504.65	16856.54
504.83	16786.32
505.01	17144.42
505.18	17069.53
505.36	17308.26
505.53	16854.20
505.71	16889.31
505.88	17163.15
506.06	17039.10
506.23	17132.72
506.41	17413.59
506.58	17483.80
506.76	17528.27
506.93	17362.09
507.11	17362.09
507.28	17598.49
507.46	17584.44
507.63	17649.98
507.81	17776.37
507.98	17954.25
508.16	17919.14
508.33	17975.31
508.50	17788.07
508.68	18085.32
508.85	18230.43
509.03	18019.78
509.20	18211.71
509.38	18340.44
509.55	18108.72
509.73	18469.17
509.90	18281.92
510.08	18288.95
510.25	18523.00
510.42	18511.30
510.60	18752.37
510.77	18625.98
510.95	18855.36
511.12	18902.17
511.30	18443.42
511.47	18658.75
511.64	18808.54
511.82	19145.58
511.99	19091.75
512.17	18916.21
512.34	18974.72
512.51	19061.32
512.69	19344.53
512.86	19609.01
513.04	19372.61
513.21	19452.19
513.38	19278.99
513.56	19730.72
513.73	19566.88
513.90	19681.56
514.08	19307.08
514.25	19681.56
514.43	19791.57
514.60	19976.47
514.77	20072.43
514.95	19906.26
515.12	19878.17
515.29	19812.63
515.47	20091.16
515.64	20166.06
515.81	19847.74
515.99	20112.22
516.16	20402.45
516.33	20170.74
516.51	20262.02
516.68	20360.32
516.85	20217.55
517.03	20713.74
517.20	20638.84
517.37	20507.77
517.54	20570.97
517.72	20430.54
517.89	20753.53
518.06	20776.94
518.24	20332.23
518.41	20664.59
518.58	20664.59
518.75	20517.14
518.93	21039.08
519.10	20966.52
519.27	20868.22
519.45	20699.70
519.62	21198.23
519.79	21013.33
519.96	20807.36
520.14	21116.31
520.31	21008.65
520.48	21322.28
520.65	21406.54
520.83	21750.60
521.00	21333.98
521.17	21254.40
521.34	21357.39
521.52	22101.68
521.69	21769.32
521.86	21425.26
522.03	21916.78
522.20	21591.44
522.38	21975.29
522.55	22033.80
522.72	21687.40
522.89	22099.34
523.07	22033.80
523.24	21923.80
523.41	22022.10
523.58	21743.58
523.75	22197.64
523.92	22223.39
524.10	22050.19
524.27	22345.09
524.44	22326.37
524.61	22459.78
524.78	22504.25
524.96	22480.85
525.13	22672.77
525.30	22661.07
525.47	22546.38
525.64	22492.55
525.81	22752.35
525.98	22860.01
526.16	22700.86
526.33	22635.32
526.50	22944.27
526.67	22710.22
526.84	22778.09
527.01	22661.07
527.18	23068.32
527.36	23035.55
527.53	22920.87
527.70	23381.95
527.87	23309.40
528.04	23204.07
528.21	22960.66
528.38	23283.65
528.55	23391.31
528.72	23133.86
528.89	23564.51
529.07	23442.81
529.24	23407.70
529.41	23468.55
529.58	23363.23
529.75	23648.77
529.92	23517.70
530.09	23412.38
530.26	23908.57
530.43	23566.85
530.60	23807.93
530.77	23461.53
530.94	23826.65
531.11	23927.30
531.28	23864.10
531.46	23616.01
531.63	23358.55
531.80	23910.91
531.97	24163.69
532.14	24163.69
532.31	23999.85
532.48	24009.22
532.65	23831.33
532.82	23887.51
532.99	24201.14
533.16	24006.87
533.33	24154.33
533.50	24538.18
533.67	24318.17
533.84	24306.46
534.01	24348.59
534.18	24053.69
534.35	24816.70
534.52	24416.47
534.69	24673.93
534.86	24706.70
535.03	24535.84
535.20	24566.26
535.37	24657.54
535.54	24524.13
535.71	24315.83
535.88	24776.91
536.05	24992.24
536.22	24634.14
536.38	25078.84
536.55	25177.14
536.72	24900.96
536.89	24739.46
537.06	24830.74
537.23	25109.27
537.40	24861.17
537.57	24959.47
537.74	25158.42
537.91	25539.93
538.08	25914.41
538.25	25329.28
538.42	25238.00
538.59	25380.77
538.75	25228.63
538.92	25076.50
539.09	25720.15
539.26	25432.26
539.43	25392.47
539.60	25551.63
539.77	25235.66
539.94	25645.25
540.11	25399.49
540.28	25397.15
540.44	25593.76
540.61	25511.84
540.78	25764.62
540.95	25514.18
541.12	25603.12
541.29	25656.95
541.46	25888.67
541.62	25675.68
541.79	25738.87
541.96	25362.04
542.13	25764.62
542.30	25682.70
542.47	26099.31
542.63	26052.50
542.80	25970.58
542.97	26429.33
543.14	26471.46
543.31	26258.47
543.48	26155.49
543.64	26171.87
543.81	26309.96
543.98	26232.72
544.15	26551.04
544.32	26499.55
544.48	26787.43
544.65	26476.14
544.82	26721.90
544.99	26260.81
545.16	26518.27
545.32	26728.92
545.49	27096.38
545.66	26780.41
545.83	26850.63
546.00	27012.12
546.16	26721.90
546.33	26506.57
546.50	26665.72
546.67	26611.89
546.83	26644.66
547.00	26691.47
547.17	26728.92
547.34	26665.72
547.50	26773.39
547.67	27143.19
547.84	27300.01
548.00	27028.51
548.17	26998.08
548.34	26977.01
548.51	27765.78
548.67	27470.87
548.84	27080.00
549.01	27225.11
549.18	27300.01
549.34	27332.78
549.51	27356.18
549.68	27070.64
549.84	27473.21
550.01	27187.66
550.18	27058.93
550.34	27494.27
550.51	27796.20
550.68	27737.69
550.84	27096.38
551.01	27587.89
551.18	27477.89
551.34	27218.09
551.51	27445.12
551.68	27583.21
551.84	27424.06
552.01	27737.69
552.18	27938.97
552.34	27765.78
552.51	28030.26
552.68	27543.42
552.84	27688.54
553.01	27903.87
553.18	27831.31
553.34	27852.38
553.51	28058.34
553.67	27751.73
553.84	28215.16
554.01	28259.63
554.17	28074.73
554.34	28060.68
554.51	28053.66
554.67	28283.03
554.84	28250.27
555.00	28205.80
555.17	28133.24
555.33	28088.77
555.50	28060.68
555.67	27761.09
555.83	27831.31
556.00	27679.18
556.16	28519.43
556.33	28449.21
556.50	28070.04
556.66	28652.84
556.83	28191.75
556.99	28561.56
557.16	28348.57
557.32	28559.22
557.49	28376.66
557.65	28173.03
557.82	28196.43
557.98	28409.42
558.15	28496.02
558.32	28926.68
558.48	28620.07
558.65	28648.16
558.81	28444.53
558.98	28884.55
559.14	28507.72
559.31	28531.13
559.47	28748.80
559.64	28465.60
559.80	28678.58
559.97	28636.45
560.13	28816.68
560.30	28975.83
560.46	29034.35
560.63	28615.39
560.79	28713.69
560.96	28952.43
561.12	28650.50
561.29	28816.68
561.45	28659.86
561.61	29071.79
561.78	28980.51
561.94	28889.23
562.11	28788.59
562.27	28877.53
562.44	28650.50
562.60	29017.96
562.77	29083.50
562.93	28587.30
563.10	29067.11
563.26	28872.85
563.42	29263.72
563.59	28968.81
563.75	28966.47
563.92	29186.48
564.08	29003.92
564.24	28561.56
564.41	28627.09
564.57	29048.39
564.74	28751.14
564.90	29355.00
565.07	28943.06
565.23	29284.78
565.39	29401.81
565.56	29495.43
565.72	28999.24
565.88	29514.16
566.05	28765.18
566.21	28882.21
566.38	29193.50
566.54	29280.10
566.70	29369.04
566.87	29551.60
567.03	29366.70
567.19	29813.74
567.36	29305.85
567.52	29043.71
567.68	29324.57
567.85	29242.65
568.01	29677.99
568.17	29465.00
568.34	29699.06
568.50	29359.68
568.66	29460.32
568.83	29514.16
568.99	29493.09
569.15	29596.07
569.32	29282.44
569.48	29146.69
569.64	29298.83
569.81	29514.16
569.97	29188.82
570.13	29682.67
570.30	29270.74
570.46	29715.44
570.62	29432.24
570.78	29333.93
570.95	29289.46
571.11	29310.53
571.27	29074.13
571.43	29158.39
571.60	29488.41
571.76	29254.36
571.92	29394.79
572.09	29610.12
572.25	29544.58
572.41	29600.76
572.57	29724.80
572.74	29708.42
572.90	29479.05
573.06	29347.98
573.22	29270.74
573.38	29326.91
573.55	29661.61
573.71	29752.89
573.87	29729.48
574.03	29624.16
574.20	29656.93
574.36	29610.12
574.52	29521.18
574.68	29436.92
574.84	29268.40
575.01	29773.95
575.17	29701.40
575.33	29996.31
575.49	29436.92
575.65	29905.02
575.82	29724.80
575.98	29598.41
576.14	29626.50
576.30	29500.11
576.46	29411.17
576.62	29479.05
576.79	29729.48
576.95	29542.24
577.11	29783.32
577.27	30022.05
577.43	29848.85
577.59	29738.85
577.75	29703.74
577.92	29535.22
578.08	29439.26
578.24	29673.31
578.40	29795.02
578.56	29998.65
578.72	30012.69
578.88	29626.50
579.04	30122.69
579.21	29757.57
579.37	29874.60
579.53	29839.49
579.69	29675.65
579.85	29418.19
580.01	29879.28
580.17	29500.11
580.33	29736.51
580.49	29661.61
580.65	29692.04
580.82	29886.30
580.98	29493.09
581.14	29743.53
581.30	30012.69
581.46	29809.06
581.62	29886.30
581.78	29670.97
581.94	29881.62
582.10	29387.77
582.26	29675.65
582.42	29649.91
582.58	29811.40
582.74	29984.60
582.90	29860.55
583.06	29855.87
583.22	29717.78
583.38	29825.45
583.54	29912.05
583.70	29783.32
583.86	29666.29
584.02	29610.12
584.18	29883.96
584.34	29731.83
584.50	29677.99
584.66	29862.90
584.82	29572.67
584.98	29792.68
585.14	29570.33
585.30	29743.53
585.46	29635.86
585.62	29968.22
585.78	29757.57
585.94	29757.57
586.10	29979.92
586.26	30019.71
586.42	30129.72
586.58	29717.78
586.74	29621.82
586.90	30228.02
587.06	29617.14
587.22	30218.66
587.38	29895.66
587.54	30089.93
587.70	30328.66
587.86	29956.52
588.02	30284.19
588.18	30139.08
588.34	30223.34
588.49	29958.86
588.65	29544.58
588.81	29645.23
588.97	30279.51
589.13	30132.06
589.29	29898.00
589.45	30218.66
589.61	30270.15
589.77	30373.13
589.93	30082.91
590.08	30363.77
590.24	29940.13
590.40	30206.95
590.56	30403.56
590.72	30115.67
590.88	29762.25
591.04	30443.35
591.20	30218.66
591.35	30555.69
591.51	30583.78
591.67	30492.50
591.83	30281.85
591.99	30312.28
