SpectraSuite Data File
++++++++++++++++++++++++++++++++++++
Date: Fri Oct 18 13:58:04 GMT-05:00 2013
User: bianchi
Dark Spectrum Present: No
Reference Spectrum Present: No
Number of Sampled Component Spectra: 1
Spectrometers: USB2+H05261
Integration Time (usec): 50000 (USB2+H05261)
Spectra Averaged: 1 (USB2+H05261)
Boxcar Smoothing: 0 (USB2+H05261)
Correct for Electrical Dark: No (USB2+H05261)
Strobe/Lamp Enabled: No (USB2+H05261)
Correct for Detector Non-linearity: No (USB2+H05261)
Correct for Stray Light: No (USB2+H05261)
Number of Pixels in Processed Spectrum: 2048
>>>>>Begin Processed Spectral Data<<<<<
365.73	0.00
365.92	0.00
366.12	0.00
366.32	0.00
366.52	0.00
366.72	0.00
366.91	0.00
367.11	0.00
367.31	0.00
367.51	0.00
367.70	0.00
367.90	0.00
368.10	0.00
368.30	0.00
368.49	0.00
368.69	0.00
368.89	0.00
369.09	0.00
369.28	0.00
369.48	0.00
369.68	0.00
369.87	0.00
370.07	0.00
370.27	0.00
370.47	0.00
370.66	79.58
370.86	98.30
371.06	65.54
371.25	149.79
371.45	147.45
371.65	128.73
371.84	152.13
372.04	140.43
372.24	182.56
372.44	189.58
372.63	196.60
372.83	231.71
373.03	231.71
373.22	147.45
373.42	135.75
373.62	236.39
373.81	210.65
374.01	220.01
374.21	231.71
374.40	245.76
374.60	360.44
374.79	257.46
374.99	229.37
375.19	252.78
375.38	173.20
375.58	297.25
375.78	252.78
375.97	278.52
376.17	344.06
376.37	294.91
376.56	257.46
376.76	320.65
376.95	322.99
377.15	266.82
377.35	283.20
377.54	334.70
377.74	269.16
377.93	306.61
378.13	168.52
378.33	313.63
378.52	276.18
378.72	327.68
378.91	294.91
379.11	299.59
379.31	294.91
379.50	257.46
379.70	273.84
379.89	259.80
380.09	320.65
380.28	297.25
380.48	322.99
380.68	301.93
380.87	294.91
381.07	231.71
381.26	315.97
381.46	294.91
381.65	252.78
381.85	339.38
382.04	365.12
382.24	320.65
382.43	276.18
382.63	379.17
382.83	318.31
383.02	287.89
383.22	409.59
383.41	341.72
383.61	388.53
383.80	397.89
384.00	355.76
384.19	306.61
384.39	381.51
384.58	381.51
384.78	322.99
384.97	388.53
385.17	437.68
385.36	365.12
385.56	327.68
385.75	458.74
385.95	362.78
386.14	477.47
386.34	306.61
386.53	484.49
386.72	465.77
386.92	461.09
387.11	435.34
387.31	409.59
387.50	430.66
387.70	390.87
387.89	472.79
388.09	421.30
388.28	454.06
388.48	528.96
388.67	440.02
388.86	409.59
389.06	465.77
389.25	456.40
389.45	479.81
389.64	423.64
389.84	475.13
390.03	468.11
390.22	444.70
390.42	512.58
390.61	533.64
390.81	447.04
391.00	451.72
391.19	451.72
391.39	493.85
391.58	489.17
391.78	512.58
391.97	545.34
392.16	573.43
392.36	547.69
392.55	517.26
392.75	477.47
392.94	559.39
393.13	559.39
393.33	582.79
393.52	545.34
393.71	617.90
393.91	557.05
394.10	578.11
394.29	617.90
394.49	615.56
394.68	636.63
394.88	578.11
395.07	613.22
395.26	587.47
395.46	587.47
395.65	669.39
395.84	638.97
396.04	695.14
396.23	627.26
396.42	585.13
396.62	655.35
396.81	599.18
397.00	566.41
397.19	648.33
397.39	627.26
397.58	713.86
397.77	660.03
397.97	678.76
398.16	601.52
398.35	657.69
398.55	716.20
398.74	798.12
398.93	688.12
399.12	746.63
399.32	770.04
399.51	669.39
399.70	727.91
399.90	667.05
400.09	795.78
400.28	716.20
400.47	844.93
400.67	755.99
400.86	753.65
401.05	835.57
401.24	833.23
401.44	772.38
401.63	760.67
401.82	868.34
402.01	805.14
402.21	781.74
402.40	894.08
402.59	814.51
402.78	898.77
402.97	842.59
403.17	826.21
403.36	812.17
403.55	931.53
403.74	882.38
403.93	933.87
404.13	938.55
404.32	936.21
404.51	952.60
404.70	924.51
404.89	950.26
405.09	978.34
405.28	861.32
405.47	971.32
405.66	1013.45
405.85	1076.65
406.05	898.77
406.24	987.71
406.43	990.05
406.62	1074.31
406.81	1123.46
407.00	983.02
407.20	1032.18
407.39	1011.11
407.58	987.71
407.77	1015.79
407.96	1053.24
408.15	1104.73
408.34	1078.99
408.54	1057.92
408.73	1102.39
408.92	1132.82
409.11	1259.21
409.30	1153.88
409.49	1123.46
409.68	1132.82
409.87	1165.59
410.07	1238.14
410.26	1137.50
410.45	1235.80
410.64	1165.59
410.83	1203.04
411.02	1240.48
411.21	1254.53
411.40	1212.40
411.59	1224.10
411.78	1341.13
411.98	1247.51
412.17	1266.23
412.36	1282.61
412.55	1364.53
412.74	1394.96
412.93	1472.20
413.12	1357.51
413.31	1418.36
413.50	1320.06
413.69	1383.26
413.88	1448.79
414.07	1397.30
414.26	1479.22
414.45	1526.03
414.64	1423.05
414.83	1570.50
415.02	1521.35
415.22	1561.14
415.41	1605.61
415.60	1563.48
415.79	1617.31
415.98	1664.12
416.17	1533.05
416.36	1570.50
416.55	1591.56
416.74	1636.03
416.93	1650.08
417.12	1743.70
417.31	1776.47
417.50	1778.81
417.69	1741.36
417.88	1722.63
418.07	1762.42
418.26	1806.89
418.45	1820.94
418.64	1877.11
418.83	1879.45
419.02	1792.85
419.21	1746.04
419.39	1813.92
419.58	1715.61
419.77	1870.09
419.96	1830.30
420.15	1968.39
420.34	1884.13
420.53	2003.50
420.72	1947.33
420.91	1935.62
421.10	1980.09
421.29	2017.54
421.48	1902.86
421.67	1863.07
421.86	2001.16
422.05	1980.09
422.24	2017.54
422.43	1926.26
422.61	1998.82
422.80	2026.90
422.99	2045.63
423.18	2052.65
423.37	1905.20
423.56	2083.08
423.75	1975.41
423.94	1975.41
424.13	1933.28
424.32	1968.39
424.50	2040.95
424.69	2019.88
424.88	2132.23
425.07	2036.27
425.26	2162.66
425.45	2125.21
425.64	1987.11
425.83	2087.76
426.01	2162.66
426.20	2101.80
426.39	2029.24
426.58	2050.31
426.77	2235.21
426.96	2181.38
427.15	2094.78
427.33	2150.95
427.52	2059.67
427.71	2059.67
427.90	2092.44
428.09	2172.02
428.28	2150.95
428.46	2188.40
428.65	2228.19
428.84	2279.68
429.03	2279.68
429.22	2202.44
429.40	2218.83
429.59	2270.32
429.78	2232.87
429.97	2167.34
430.16	2230.53
430.34	2429.48
430.53	2251.60
430.72	2394.37
430.91	2377.98
431.10	2275.00
431.28	2396.71
431.47	2370.96
431.66	2462.24
431.85	2345.22
432.03	2389.69
432.22	2326.49
432.41	2417.77
432.60	2544.16
432.79	2487.99
432.97	2485.65
433.16	2476.29
433.35	2483.31
433.54	2464.58
433.72	2502.03
433.91	2525.44
434.10	2520.76
434.28	2516.08
434.47	2539.48
434.66	2597.99
434.85	2572.25
435.03	2602.68
435.22	2590.97
435.41	2729.06
435.59	2600.34
435.78	2574.59
435.97	2635.44
436.16	2708.00
436.34	2644.81
436.53	2612.04
436.72	2787.58
436.90	2637.78
437.09	2733.75
437.28	2759.49
437.46	2778.22
437.65	2853.11
437.84	2822.69
438.02	2768.85
438.21	2834.39
438.40	2719.70
438.58	2815.66
438.77	2876.52
438.96	2832.05
439.14	2935.03
439.33	3035.67
439.52	3096.53
439.70	3028.65
439.89	3012.27
440.08	3028.65
440.26	2984.18
440.45	3014.61
440.63	3152.70
440.82	3035.67
441.01	3155.04
441.19	3218.24
441.38	3112.91
441.57	3159.72
441.75	3192.49
441.94	3363.35
442.12	3300.16
442.31	3412.50
442.50	3281.43
442.68	3419.52
442.87	3330.58
443.05	3412.50
443.24	3375.05
443.43	3339.94
443.61	3473.36
443.80	3368.03
443.98	3419.52
444.17	3314.20
444.35	3393.78
444.54	3478.04
444.73	3332.92
444.91	3463.99
445.10	3499.10
445.28	3368.03
445.47	3431.23
445.65	3578.68
445.84	3576.34
446.02	3606.77
446.21	3531.87
446.39	3506.12
446.58	3618.47
446.77	3489.74
446.95	3485.06
447.14	3606.77
447.32	3641.87
447.51	3669.96
447.69	3585.70
447.88	3585.70
448.06	3506.12
448.25	3541.23
448.43	3613.79
448.62	3440.59
448.80	3669.96
448.99	3599.74
449.17	3583.36
449.36	3611.45
449.54	3700.39
449.73	3639.53
449.91	3838.48
450.10	3691.02
450.28	3840.82
450.46	3803.37
450.65	3817.41
450.83	3847.84
451.02	3777.62
451.20	3868.91
451.39	3939.12
451.57	3812.73
451.76	3784.65
451.94	3932.10
452.13	3887.63
452.31	3887.63
452.49	3733.15
452.68	3932.10
452.86	3843.16
453.05	4037.42
453.23	3955.51
453.42	3854.86
453.60	3887.63
453.78	3822.09
453.97	3882.95
454.15	4058.49
454.34	4002.32
454.52	4161.47
454.70	4037.42
454.89	4112.32
455.07	4044.45
455.26	4212.96
455.44	4208.28
455.62	4109.98
455.81	4053.81
455.99	4109.98
456.17	4170.83
456.36	4248.07
456.54	4236.37
456.73	4304.25
456.91	4400.21
457.09	4451.70
457.28	4402.55
457.46	4280.84
457.64	4414.25
457.83	4386.16
458.01	4301.90
458.19	4465.74
458.38	4381.48
458.56	4503.19
458.74	4547.66
458.93	4447.02
459.11	4615.54
459.29	4461.06
459.48	4489.15
459.66	4610.86
459.84	4594.47
460.03	4844.91
460.21	4681.07
460.39	4690.43
460.57	4573.41
460.76	4631.92
460.94	4615.54
461.12	4615.54
461.31	4601.49
461.49	4561.70
461.67	4592.13
461.85	4737.24
462.04	4636.60
462.22	5132.79
462.40	4786.40
462.59	4683.41
462.77	4847.25
462.95	4800.44
463.13	4814.48
463.32	4772.35
463.50	4847.25
463.68	4772.35
463.86	4933.85
464.05	4985.34
464.23	4987.68
464.41	5095.35
464.59	4856.61
464.78	5139.82
464.96	5001.72
465.14	4842.57
465.32	5064.92
465.50	5085.98
465.69	5025.13
465.87	5057.90
466.05	4973.64
466.23	4954.91
466.41	5172.58
466.60	5167.90
466.78	5029.81
466.96	5093.01
467.14	4983.00
467.32	5191.31
467.51	5210.03
467.69	5156.20
467.87	5247.48
468.05	5240.46
468.23	5287.27
468.41	5331.74
468.60	5053.22
468.78	5497.92
468.96	5233.44
469.14	5320.04
469.32	5537.71
469.50	5376.21
469.69	5341.10
469.87	5324.72
470.05	5589.20
470.23	5558.77
470.41	5479.19
470.59	5621.97
470.77	5437.06
470.95	5455.79
471.14	5540.05
471.32	5497.92
471.50	5671.12
471.68	5535.37
471.86	5790.49
472.04	5699.20
472.22	5708.57
472.40	5617.29
472.58	5778.78
472.77	5652.39
472.95	5851.34
473.13	6064.33
473.31	5832.62
473.49	5790.49
473.67	5849.00
473.85	5872.40
474.03	6054.97
474.21	6029.22
474.39	6115.82
474.57	6232.85
474.75	6132.20
474.93	6356.90
475.12	6094.76
475.30	6200.08
475.48	6195.40
475.66	6310.08
475.84	6326.47
476.02	6431.79
476.20	6366.26
476.38	6541.80
476.56	6539.46
476.74	6864.79
476.92	6670.53
477.10	6691.59
477.28	6693.93
477.46	6663.51
477.64	6789.89
477.82	6876.49
478.00	7070.76
478.18	7183.10
478.36	7194.81
478.54	7023.95
478.72	7084.80
478.90	7159.70
479.08	7410.14
479.26	7229.91
479.44	7501.42
479.62	7463.97
479.80	7377.37
479.98	7489.71
480.16	7922.71
480.34	7641.85
480.52	7557.59
480.70	7786.96
480.88	7599.72
481.06	7948.46
481.24	7838.45
481.41	8070.17
481.59	8184.85
481.77	8039.74
481.95	8119.32
482.13	8212.94
482.31	8093.57
482.49	8348.69
482.67	8381.46
482.85	8617.85
483.03	8650.62
483.21	8603.81
483.39	8631.90
483.57	8706.79
483.74	8730.20
483.92	8830.84
484.10	8655.30
484.28	8887.01
484.46	9015.74
484.64	9289.59
484.82	9067.24
485.00	9320.01
485.18	9397.25
485.35	9504.92
485.53	9502.58
485.71	9603.22
485.89	9502.58
486.07	9694.50
486.25	9568.11
486.43	9895.78
486.61	9877.06
486.78	10148.56
486.96	10092.39
487.14	10071.33
487.32	10260.91
487.50	10274.95
487.68	10303.04
487.85	10160.27
488.03	10438.79
488.21	10778.17
488.39	10663.48
488.57	10768.80
488.75	10757.10
488.92	10881.15
489.10	10782.85
489.28	11180.74
489.46	11241.59
489.64	11304.79
489.81	11634.80
489.99	11379.68
490.17	11349.26
490.35	11733.11
490.53	11620.76
490.70	11800.98
490.88	11765.87
491.06	11913.33
491.24	11943.75
491.41	11962.48
491.59	12100.57
491.77	12142.70
491.95	12421.22
492.13	12610.81
492.30	12353.35
492.48	12498.46
492.66	12393.14
492.84	12753.58
493.01	12737.20
493.19	12840.18
493.37	13015.72
493.54	12833.16
493.72	12975.93
493.90	12823.80
494.08	13167.85
494.25	13331.69
494.43	13315.31
494.61	13504.89
494.79	13483.83
494.96	13528.30
495.14	13572.77
495.32	13724.90
495.49	13743.63
495.67	13909.80
495.85	13984.70
496.02	14232.80
496.20	14221.10
496.38	14143.86
496.55	14239.82
496.73	14382.59
496.91	14464.51
497.09	14464.51
497.26	14349.82
497.44	14464.51
497.62	14766.44
497.79	14562.81
497.97	14801.55
498.14	15047.30
498.32	15241.57
498.50	14766.44
498.67	15161.99
498.85	15131.56
499.03	14998.15
499.20	15316.47
499.38	15159.65
499.56	15580.95
499.73	15548.18
499.91	15435.83
500.08	15697.97
500.26	15417.11
500.44	15646.48
500.61	15782.23
500.79	15791.59
500.97	16032.67
501.14	15999.90
501.32	15915.64
501.49	15934.37
501.67	16027.99
501.84	16142.67
502.02	15953.09
502.20	16004.58
502.37	16341.62
502.55	16482.05
502.72	16203.53
502.90	16585.04
503.07	16411.84
503.25	16154.38
503.43	16563.97
503.60	16779.30
503.78	16727.81
503.95	16570.99
504.13	16610.78
504.30	16987.61
504.48	16791.00
504.65	17022.72
504.83	17067.19
505.01	17226.34
505.18	17593.81
505.36	17767.01
505.53	17074.21
505.71	17465.08
505.88	17310.60
506.06	17064.85
506.23	17528.27
506.41	17668.70
506.58	17701.47
506.76	17757.64
506.93	17884.03
507.11	17547.00
507.28	17699.13
507.46	17855.95
507.63	17956.59
507.81	18087.66
507.98	17764.67
508.16	18008.08
508.33	18214.05
508.50	18090.00
508.68	18237.45
508.85	18310.01
509.03	18321.71
509.20	18366.18
509.38	18689.18
509.55	18391.93
509.73	18794.50
509.90	18492.57
510.08	18806.20
510.25	18766.42
510.42	18984.09
510.60	19143.24
510.77	19154.94
510.95	18988.77
511.12	18773.44
511.30	18672.79
511.47	19208.78
511.64	18998.13
511.82	19180.69
511.99	19307.08
512.17	19297.72
512.34	19447.51
512.51	19381.98
512.69	19798.59
512.86	19454.53
513.04	19695.61
513.21	19740.08
513.38	19882.85
513.56	19531.77
513.73	19896.89
513.90	19620.71
514.08	19917.96
514.25	20194.14
514.43	19962.43
514.60	20229.25
514.77	20144.99
514.95	20224.57
515.12	20072.43
515.29	19964.77
515.47	20180.10
515.64	20627.14
515.81	20563.95
515.99	20388.41
516.16	20126.27
516.33	20404.79
516.51	20772.25
516.68	20397.77
516.85	20723.10
517.03	20627.14
517.20	20746.51
517.37	20732.47
517.54	20339.26
517.72	20896.30
517.89	20933.75
518.06	20978.22
518.24	20627.14
518.41	21050.78
518.58	20910.35
518.75	21280.15
518.93	21305.90
519.10	21111.63
519.27	21240.36
519.45	21245.04
519.62	21387.82
519.79	21296.53
519.96	21046.10
520.14	21652.30
520.31	21500.16
520.48	21575.06
520.65	21544.63
520.83	21872.31
521.00	21799.75
521.17	21708.47
521.34	21544.63
521.52	21888.69
521.69	22001.04
521.86	22125.08
522.03	22031.46
522.20	22040.82
522.38	22204.66
522.55	22139.13
522.72	21869.97
522.89	22305.31
523.07	22396.59
523.24	22384.88
523.41	22417.65
523.58	22181.26
523.75	22499.57
523.92	22389.56
524.10	22419.99
524.27	22583.83
524.44	22679.79
524.61	22815.54
524.78	22738.30
524.96	22920.87
525.13	22857.67
525.30	23152.58
525.47	22923.21
525.64	22883.42
525.81	23023.85
525.98	22965.34
526.16	23016.83
526.33	23232.16
526.50	23632.39
526.67	22747.67
526.84	23379.61
527.01	23103.43
527.18	23269.61
527.36	23293.01
527.53	23288.33
527.70	23730.69
527.87	23910.91
528.04	23667.50
528.21	23552.81
528.38	23220.45
528.55	23592.60
528.72	23562.17
528.89	24121.56
529.07	23697.92
529.24	23899.21
529.41	23992.83
529.58	23875.80
529.75	23728.35
529.92	23716.65
530.09	23784.52
530.26	23901.55
530.43	24091.13
530.60	23714.31
530.77	23880.49
530.94	24126.24
531.11	24126.24
531.28	24135.60
531.46	24142.63
531.63	24217.52
531.80	24072.41
531.97	24650.52
532.14	24622.44
532.31	24360.30
532.48	24428.17
532.65	24758.19
532.82	24287.74
532.99	24694.99
533.16	24467.96
533.33	24690.31
533.50	24950.11
533.67	24570.94
533.84	24577.97
534.01	24409.45
534.18	24568.60
534.35	24886.92
534.52	24978.20
534.69	24933.73
534.86	25046.07
535.03	24924.36
535.20	25216.93
535.37	25556.31
535.54	25191.19
535.71	24781.59
535.88	25240.34
536.05	25378.43
536.22	25376.09
536.38	25479.07
536.55	25221.61
536.72	25275.45
536.89	25186.50
537.06	25032.03
537.23	25673.34
537.40	25525.88
537.57	25523.54
537.74	25324.60
537.91	26038.46
538.08	25769.30
538.25	25488.43
538.42	25951.86
538.59	25539.93
538.75	25593.76
538.92	25900.37
539.09	25680.36
539.26	25804.41
539.43	25790.36
539.60	26129.74
539.77	25825.47
539.94	26127.40
540.11	26185.91
540.28	25715.47
540.44	26267.83
540.61	25851.22
540.78	25834.83
540.95	26024.42
541.12	25989.31
541.29	25895.69
541.46	25937.82
541.62	26169.53
541.79	26441.03
541.96	26094.63
542.13	26012.71
542.30	26260.81
542.47	26665.72
542.63	26394.22
542.80	26401.24
542.97	26806.16
543.14	26544.02
543.31	26223.36
543.48	26497.20
543.64	27108.08
543.81	26939.57
543.98	27115.11
544.15	26855.31
544.32	26958.29
544.48	27321.07
544.65	26995.74
544.82	26820.20
544.99	26911.48
545.16	27063.61
545.32	26932.54
545.49	27220.43
545.66	27311.71
545.83	27175.96
546.00	27276.60
546.16	26986.38
546.33	27295.33
546.50	27175.96
546.67	27042.55
546.83	26883.39
547.00	27358.52
547.17	27431.08
547.34	27360.86
547.50	27522.36
547.67	27653.43
547.84	27744.71
548.00	27627.68
548.17	27351.50
548.34	27864.08
548.51	27618.32
548.67	27662.79
548.84	27676.83
549.01	27779.82
549.18	27407.67
549.34	27648.75
549.51	27791.52
549.68	27672.15
549.84	27871.10
550.01	27901.53
550.18	27679.18
550.34	27917.91
550.51	28109.83
550.68	28009.19
550.84	27412.35
551.01	27999.83
551.18	27747.05
551.34	27634.71
551.51	27868.76
551.68	28130.90
551.84	28191.75
552.01	28060.68
552.18	28294.74
552.34	27857.06
552.51	28088.77
552.68	28006.85
552.84	28463.25
553.01	28540.49
553.18	28224.52
553.34	28526.45
553.51	28393.04
553.67	28313.46
553.84	28360.27
554.01	28283.03
554.17	28594.32
554.34	28374.31
554.51	28257.29
554.67	28577.94
554.84	28664.54
555.00	28512.41
555.17	28580.28
555.33	28528.79
555.50	28547.51
555.67	28701.99
555.83	28390.70
556.00	28636.45
556.16	28467.94
556.33	28568.58
556.50	28659.86
556.66	28849.44
556.83	28650.50
556.99	29120.95
557.16	29064.77
557.32	28608.37
557.49	29085.84
557.65	28472.62
557.82	28699.65
557.98	28961.79
558.15	28854.12
558.32	28933.70
558.48	29024.98
558.65	29364.36
558.81	29022.64
558.98	29242.65
559.14	29214.57
559.31	29249.67
559.47	29118.60
559.64	28989.88
559.80	29062.43
559.97	29195.84
560.13	29359.68
560.30	29406.49
560.46	29317.55
560.63	29715.44
560.79	29556.28
560.96	29263.72
561.12	29151.37
561.29	28982.85
561.45	29277.76
561.61	28973.49
561.78	29457.98
561.94	29642.88
562.11	29490.75
562.27	29785.66
562.44	29521.18
562.60	29181.80
562.77	29493.09
562.93	29200.52
563.10	29558.63
563.26	29418.19
563.42	29677.99
563.59	29738.85
563.75	29460.32
563.92	30059.50
564.08	29319.89
564.24	29575.01
564.41	29532.88
564.57	29642.88
564.74	29603.10
564.90	29584.37
565.07	29640.54
565.23	29582.03
565.39	29549.26
565.56	29649.91
565.72	29724.80
565.88	29724.80
566.05	29523.52
566.21	29448.62
566.38	29668.63
566.54	29514.16
566.70	29874.60
566.87	30204.61
567.03	29673.31
567.19	30015.03
567.36	30101.63
567.52	30008.01
567.68	29680.33
567.85	29888.64
568.01	30338.02
568.17	29862.90
568.34	29773.95
568.50	30328.66
568.66	29958.86
568.83	30110.99
568.99	29977.58
569.15	29813.74
569.32	29790.34
569.48	29879.28
569.64	29830.13
569.81	29940.13
569.97	29607.78
570.13	29792.68
570.30	30139.08
570.46	29998.65
570.62	30101.63
570.78	29663.95
570.95	30267.81
571.11	30033.75
571.27	29874.60
571.43	30012.69
571.60	29935.45
571.76	29827.79
571.92	30110.99
572.09	30129.72
572.25	30244.40
572.41	30103.97
572.57	29965.88
572.74	30246.74
572.90	29869.92
573.06	30272.49
573.22	29942.47
573.38	30054.82
573.55	29881.62
573.71	30543.99
573.87	30366.11
574.03	30134.40
574.20	30085.25
574.36	29895.66
574.52	30174.19
574.68	30164.82
574.84	30272.49
575.01	30347.39
575.17	30134.40
575.33	30057.16
575.49	30202.27
575.65	30190.57
575.82	30232.70
575.98	30153.12
576.14	30036.09
576.30	30323.98
576.46	30228.02
576.62	30361.43
576.79	30157.80
576.95	29710.76
577.11	30169.51
577.27	30579.10
577.43	30251.42
577.59	30431.65
577.75	30171.85
577.92	30068.86
578.08	30033.75
578.24	29783.32
578.40	30108.65
578.56	30232.70
578.72	30258.45
578.88	30651.66
579.04	30780.39
579.21	30375.47
579.37	30424.62
579.53	30501.86
579.69	29762.25
579.85	30391.86
580.01	30050.14
580.17	30148.44
580.33	30747.62
580.49	30661.02
580.65	30103.97
580.82	30263.13
580.98	30712.51
581.14	30422.28
581.30	30520.59
581.46	30134.40
581.62	30176.53
581.78	30424.62
581.94	30361.43
582.10	30206.95
582.26	30487.82
582.42	30637.61
582.58	30249.08
582.74	30590.80
582.90	30345.05
583.06	30558.03
583.22	30155.46
583.38	30359.09
583.54	30642.29
583.70	30555.69
583.86	30375.47
584.02	30604.84
584.18	30796.77
584.34	30417.60
584.50	30394.20
584.66	30712.51
584.82	30534.63
584.98	30558.03
585.14	30286.53
585.30	30096.95
585.46	30132.06
585.62	30256.11
585.78	30368.45
585.94	30293.55
586.10	30756.98
586.26	30494.84
586.42	30419.94
586.58	30529.95
586.74	30403.56
586.90	30555.69
587.06	30274.83
587.22	30464.41
587.38	30239.72
587.54	30433.99
587.70	30904.43
587.86	30775.70
588.02	30595.48
588.18	30794.43
588.34	30827.20
588.49	30443.35
588.65	30899.75
588.81	30569.74
588.97	30607.19
589.13	30555.69
589.29	30859.96
589.45	30738.26
589.61	31262.54
589.77	31131.47
589.93	30710.17
590.08	31250.83
590.24	30806.13
590.40	30661.02
590.56	30778.04
590.72	30499.52
590.88	30429.30
591.04	30679.74
591.20	31012.10
591.35	31187.64
591.51	31608.93
591.67	31332.75
591.83	31269.56
591.99	30974.65
