SpectraSuite Data File
++++++++++++++++++++++++++++++++++++
Date: Fri Oct 18 13:58:08 GMT-05:00 2013
User: bianchi
Dark Spectrum Present: No
Reference Spectrum Present: No
Number of Sampled Component Spectra: 1
Spectrometers: USB2+H05261
Integration Time (usec): 50000 (USB2+H05261)
Spectra Averaged: 1 (USB2+H05261)
Boxcar Smoothing: 0 (USB2+H05261)
Correct for Electrical Dark: No (USB2+H05261)
Strobe/Lamp Enabled: No (USB2+H05261)
Correct for Detector Non-linearity: No (USB2+H05261)
Correct for Stray Light: No (USB2+H05261)
Number of Pixels in Processed Spectrum: 2048
>>>>>Begin Processed Spectral Data<<<<<
365.73	0.00
365.92	0.00
366.12	0.00
366.32	0.00
366.52	0.00
366.72	0.00
366.91	0.00
367.11	0.00
367.31	0.00
367.51	0.00
367.70	0.00
367.90	0.00
368.10	0.00
368.30	0.00
368.49	0.00
368.69	0.00
368.89	0.00
369.09	0.00
369.28	0.00
369.48	0.00
369.68	0.00
369.87	0.00
370.07	0.00
370.27	0.00
370.47	0.00
370.66	84.26
370.86	98.30
371.06	133.41
371.25	133.41
371.45	98.30
371.65	170.86
371.84	65.54
372.04	133.41
372.24	128.73
372.44	184.90
372.63	184.90
372.83	173.20
373.03	196.60
373.22	208.31
373.42	208.31
373.62	238.73
373.81	184.90
374.01	276.18
374.21	215.33
374.40	241.08
374.60	262.14
374.79	229.37
374.99	276.18
375.19	245.76
375.38	252.78
375.58	212.99
375.78	259.80
375.97	262.14
376.17	280.86
376.37	264.48
376.56	308.95
376.76	259.80
376.95	175.54
377.15	290.23
377.35	266.82
377.54	250.44
377.74	257.46
377.93	290.23
378.13	292.57
378.33	297.25
378.52	313.63
378.72	245.76
378.91	269.16
379.11	273.84
379.31	308.95
379.50	266.82
379.70	311.29
379.89	372.15
380.09	236.39
380.28	241.08
380.48	358.10
380.68	220.01
380.87	304.27
381.07	278.52
381.26	330.02
381.46	287.89
381.65	311.29
381.85	374.49
382.04	290.23
382.24	320.65
382.43	297.25
382.63	402.57
382.83	334.70
383.02	318.31
383.22	386.19
383.41	409.59
383.61	327.68
383.80	407.25
384.00	332.36
384.19	330.02
384.39	351.08
384.58	381.51
384.78	353.42
384.97	365.12
385.17	367.46
385.36	362.78
385.56	344.06
385.75	416.62
385.95	447.04
386.14	348.74
386.34	334.70
386.53	440.02
386.72	493.85
386.92	423.64
387.11	442.36
387.31	416.62
387.50	360.44
387.70	442.36
387.89	468.11
388.09	425.98
388.28	407.25
388.48	493.85
388.67	421.30
388.86	425.98
389.06	519.60
389.25	489.17
389.45	552.37
389.64	470.45
389.84	503.22
390.03	500.87
390.22	447.04
390.42	550.03
390.61	451.72
390.81	451.72
391.00	479.81
391.19	531.30
391.39	566.41
391.58	456.40
391.78	533.64
391.97	547.69
392.16	475.13
392.36	524.28
392.55	566.41
392.75	519.60
392.94	496.19
393.13	608.54
393.33	622.58
393.52	535.98
393.71	571.09
393.91	585.13
394.10	547.69
394.29	538.32
394.49	568.75
394.68	554.71
394.88	554.71
395.07	552.37
395.26	585.13
395.46	636.63
395.65	641.31
395.84	636.63
396.04	732.59
396.23	676.41
396.42	643.65
396.62	704.50
396.81	603.86
397.00	713.86
397.19	695.14
397.39	645.99
397.58	664.71
397.77	734.93
397.97	720.88
398.16	564.07
398.35	711.52
398.55	772.38
398.74	627.26
398.93	704.50
399.12	725.57
399.32	758.33
399.51	702.16
399.70	702.16
399.90	734.93
400.09	805.14
400.28	737.27
400.47	739.61
400.67	793.44
400.86	784.08
401.05	905.79
401.24	851.96
401.44	823.87
401.63	828.55
401.82	798.12
402.01	805.14
402.21	812.17
402.40	851.96
402.59	779.40
402.78	835.57
402.97	751.31
403.17	856.64
403.36	898.77
403.55	926.85
403.74	922.17
403.93	950.26
404.13	973.66
404.32	910.47
404.51	875.36
404.70	978.34
404.89	875.36
405.09	985.37
405.28	926.85
405.47	947.92
405.66	1041.54
405.85	898.77
406.05	980.68
406.24	1015.79
406.43	1081.33
406.62	1128.14
406.81	1104.73
407.00	997.07
407.20	1015.79
407.39	978.34
407.58	1025.15
407.77	1013.45
407.96	1022.81
408.15	1095.37
408.34	1132.82
408.54	1125.80
408.73	1167.93
408.92	1179.63
409.11	1102.39
409.30	1214.74
409.49	1158.57
409.68	1076.65
409.87	1116.44
410.07	1170.27
410.26	1170.27
410.45	1247.51
410.64	1287.29
410.83	1280.27
411.02	1287.29
411.21	1242.82
411.40	1306.02
411.59	1221.76
411.78	1359.85
411.98	1200.69
412.17	1371.55
412.36	1315.38
412.55	1399.64
412.74	1469.86
412.93	1397.30
413.12	1418.36
413.31	1453.47
413.50	1418.36
413.69	1399.64
413.88	1460.49
414.07	1558.80
414.26	1444.11
414.45	1544.75
414.64	1535.39
414.83	1533.05
415.02	1493.26
415.22	1610.29
415.41	1584.54
415.60	1519.01
415.79	1537.73
415.98	1600.93
416.17	1633.69
416.36	1643.06
416.55	1652.42
416.74	1701.57
416.93	1715.61
417.12	1750.72
417.31	1764.76
417.50	1638.38
417.69	1720.29
417.88	1727.32
418.07	1708.59
418.26	1715.61
418.45	1706.25
418.64	1771.79
418.83	1767.10
419.02	1785.83
419.21	1689.87
419.39	1858.39
419.58	1774.13
419.77	1809.23
419.96	1856.04
420.15	1909.88
420.34	1914.56
420.53	1966.05
420.72	1923.92
420.91	1970.73
421.10	1874.77
421.29	1900.52
421.48	1980.09
421.67	1914.56
421.86	1961.37
422.05	1954.35
422.24	1928.60
422.43	2064.35
422.61	1982.43
422.80	2099.46
422.99	2003.50
423.18	2024.56
423.37	2003.50
423.56	2010.52
423.75	2043.29
423.94	2026.90
424.13	1898.17
424.32	1928.60
424.50	2069.03
424.69	2176.70
424.88	2012.86
425.07	2085.42
425.26	2003.50
425.45	2090.10
425.64	2069.03
425.83	1944.99
426.01	2054.99
426.20	2139.25
426.39	2043.29
426.58	2122.87
426.77	2080.74
426.96	2172.02
427.15	2125.21
427.33	2143.93
427.52	2211.81
427.71	2186.06
427.90	2165.00
428.09	2052.65
428.28	2221.17
428.46	2221.17
428.65	2387.35
428.84	2244.57
429.03	2335.85
429.22	2186.06
429.40	2307.77
429.59	2249.25
429.78	2190.74
429.97	2155.63
430.16	2195.42
430.34	2146.27
430.53	2312.45
430.72	2356.92
430.91	2214.15
431.10	2286.70
431.28	2373.30
431.47	2516.08
431.66	2502.03
431.85	2324.15
432.03	2443.52
432.22	2495.01
432.41	2455.22
432.60	2581.61
432.79	2394.37
432.97	2499.69
433.16	2520.76
433.35	2562.89
433.54	2523.10
433.72	2530.12
433.91	2476.29
434.10	2565.23
434.28	2595.65
434.47	2567.57
434.66	2605.02
434.85	2693.96
435.03	2642.46
435.22	2693.96
435.41	2630.76
435.59	2747.79
435.78	2665.87
435.97	2665.87
436.16	2693.96
436.34	2649.49
436.53	2710.34
436.72	2801.62
436.90	2679.91
437.09	2726.72
437.28	2586.29
437.46	2810.98
437.65	2801.62
437.84	2836.73
438.02	2860.13
438.21	2920.99
438.40	2822.69
438.58	2871.84
438.77	2834.39
438.96	2841.41
439.14	2928.01
439.33	3047.38
439.52	3073.12
439.70	2972.48
439.89	3047.38
440.08	3028.65
440.26	3096.53
440.45	3145.68
440.63	3131.64
440.82	3220.58
441.01	3070.78
441.19	3178.45
441.38	3281.43
441.57	3267.39
441.75	3267.39
441.94	3353.99
442.12	3335.26
442.31	3447.61
442.50	3323.56
442.68	3349.31
442.87	3318.88
443.05	3382.07
443.24	3447.61
443.43	3545.91
443.61	3487.40
443.80	3679.32
443.98	3393.78
444.17	3365.69
444.35	3382.07
444.54	3452.29
444.73	3466.33
444.91	3438.25
445.10	3459.31
445.28	3513.14
445.47	3508.46
445.65	3506.12
445.84	3564.64
446.02	3517.83
446.21	3611.45
446.39	3604.42
446.58	3691.02
446.77	3557.61
446.95	3585.70
447.14	3494.42
447.32	3651.24
447.51	3576.34
447.69	3531.87
447.88	3627.83
448.06	3559.95
448.25	3555.27
448.43	3630.17
448.62	3552.93
448.80	3597.40
448.99	3627.83
449.17	3646.55
449.36	3606.77
449.54	3775.28
449.73	3693.37
449.91	3805.71
450.10	3658.26
450.28	3805.71
450.46	3758.90
450.65	3723.79
450.83	3754.22
451.02	3831.46
451.20	3705.07
451.39	3801.03
451.57	3798.69
451.76	3885.29
451.94	3838.48
452.13	3852.52
452.31	3794.01
452.49	3674.64
452.68	3929.76
452.86	3936.78
453.05	3974.23
453.23	3978.91
453.42	3906.35
453.60	3960.19
453.78	3873.59
453.97	3763.58
454.15	3967.21
454.34	3913.38
454.52	4037.42
454.70	3964.87
454.89	4191.90
455.07	4142.75
455.26	3985.93
455.44	4135.73
455.62	4079.55
455.81	4147.43
455.99	4145.09
456.17	4241.05
456.36	4248.07
456.54	4390.84
456.73	4388.50
456.91	4337.01
457.09	4299.56
457.28	4318.29
457.46	4290.20
457.64	4416.59
457.83	4416.59
458.01	4437.66
458.19	4510.21
458.38	4372.12
458.56	4435.32
458.74	4393.19
458.93	4451.70
459.11	4498.51
459.29	4550.00
459.48	4535.96
459.66	4739.58
459.84	4538.30
460.03	4624.90
460.21	4695.11
460.39	4643.62
460.57	4664.69
460.76	4589.79
460.94	4800.44
461.12	4599.15
461.31	4718.52
461.49	4643.62
461.67	4720.86
461.85	4718.52
462.04	4816.82
462.22	5050.88
462.40	4849.59
462.59	4800.44
462.77	4826.18
462.95	4931.51
463.13	4805.12
463.32	4905.76
463.50	4903.42
463.68	4936.19
463.86	4863.63
464.05	4772.35
464.23	4877.68
464.41	5013.43
464.59	4947.89
464.78	5067.26
464.96	4917.47
465.14	4837.89
465.32	5074.28
465.50	5036.83
465.69	5074.28
465.87	5179.61
466.05	5160.88
466.23	4968.96
466.41	5224.08
466.60	5137.48
466.78	4978.32
466.96	5200.67
467.14	5221.74
467.32	5158.54
467.51	5219.39
467.69	5130.45
467.87	5313.02
468.05	5235.78
468.23	5282.59
468.41	5177.26
468.60	5460.47
468.78	5242.80
468.96	5294.29
469.14	5336.42
469.32	5551.75
469.50	5144.50
469.69	5462.81
469.87	5469.83
470.05	5453.45
470.23	5526.00
470.41	5336.42
470.59	5556.43
470.77	5444.09
470.95	5593.88
471.14	5554.09
471.32	5561.11
471.50	5643.03
471.68	5626.65
471.86	5949.64
472.04	5741.33
472.22	5830.27
472.40	5778.78
472.58	5776.44
472.77	5753.04
472.95	5778.78
473.13	6024.54
473.31	5944.96
473.49	5886.45
473.67	5891.13
473.85	5989.43
474.03	6162.63
474.21	5940.28
474.39	6345.19
474.57	6382.64
474.75	6209.44
474.93	6239.87
475.12	6200.08
475.30	6312.42
475.48	6310.08
475.66	6359.24
475.84	6408.39
476.02	6352.21
476.20	6363.92
476.38	6588.61
476.56	6768.83
476.74	6616.69
476.92	6633.08
477.10	6637.76
477.28	6707.98
477.46	6665.85
477.64	6883.52
477.82	6740.74
478.00	7054.37
478.18	7047.35
478.36	6902.24
478.54	7155.02
478.72	7150.34
478.90	7236.94
479.08	7260.34
479.26	7227.57
479.44	7337.58
479.62	7529.50
479.80	7531.84
479.98	7571.63
480.16	7775.26
480.34	7569.29
480.52	7777.60
480.70	7852.50
480.88	7721.43
481.06	7756.54
481.24	7784.62
481.41	7981.23
481.59	8147.40
481.77	8095.91
481.95	8063.15
482.13	8252.73
482.31	8336.99
482.49	8287.84
482.67	8463.38
482.85	8402.52
483.03	8676.37
483.21	8578.06
483.39	8671.68
483.57	8847.22
483.74	8723.18
483.92	8793.39
484.10	8791.05
484.28	8830.84
484.46	9085.96
484.64	9254.48
484.82	9263.84
485.00	9294.27
485.18	9181.92
485.35	9584.49
485.53	9338.74
485.71	9582.15
485.89	10064.30
486.07	9619.60
486.25	9790.46
486.43	9813.87
486.61	9657.05
486.78	10099.41
486.96	10068.98
487.14	10230.48
487.32	10232.82
487.50	10382.62
487.68	10342.83
487.85	10504.32
488.03	10724.33
488.21	10857.75
488.39	10520.71
488.57	10637.73
488.75	10815.62
488.92	10899.87
489.10	10949.03
489.28	11021.58
489.46	11157.33
489.64	11215.85
489.81	11337.56
489.99	11417.13
490.17	11506.07
490.35	11772.89
490.53	11566.93
490.70	11758.85
490.88	11693.32
491.06	11887.58
491.24	12079.50
491.41	12156.74
491.59	12409.52
491.77	12131.00
491.95	12224.62
492.13	12512.50
492.30	12662.30
492.48	12477.40
492.66	12652.94
492.84	12341.64
493.01	12685.70
493.19	12877.63
493.37	12868.27
493.54	13104.66
493.72	13181.90
493.90	13055.51
494.08	13186.58
494.25	13392.55
494.43	13191.26
494.61	13476.80
494.79	13523.62
494.96	13568.09
495.14	13790.44
495.32	13752.99
495.49	13930.87
495.67	13769.37
495.85	14078.32
496.02	14129.81
496.20	14305.35
496.38	14232.80
496.55	14207.05
496.73	14420.04
496.91	14265.57
497.09	14604.94
497.26	14696.22
497.44	14677.50
497.62	14413.02
497.79	14988.79
497.97	14600.26
498.14	14895.17
498.32	15140.93
498.50	15002.83
498.67	15157.31
498.85	15124.54
499.03	15393.70
499.20	15356.25
499.38	15199.44
499.56	15286.04
499.73	15557.54
499.91	15726.06
500.08	15431.15
500.26	15557.54
500.44	15686.27
500.61	15740.10
500.79	15686.27
500.97	16287.79
501.14	16245.66
501.32	16044.37
501.49	16095.86
501.67	16119.27
501.84	16095.86
502.02	16156.72
502.20	16390.77
502.37	16381.41
502.55	16063.10
502.72	16346.30
502.90	16411.84
503.07	16650.57
503.25	16636.53
503.43	16847.18
503.60	16418.86
503.78	17170.17
503.95	17055.48
504.13	16842.50
504.30	16753.55
504.48	16868.24
504.65	16805.05
504.83	17027.40
505.01	17301.24
505.18	17097.61
505.36	17294.22
505.53	17015.69
505.71	17324.65
505.88	17303.58
506.06	17348.05
506.23	17802.11
506.41	17497.84
506.58	17551.68
506.76	17907.44
506.93	17804.46
507.11	17415.93
507.28	17848.93
507.46	18040.85
507.63	17902.76
507.81	18031.49
507.98	18111.07
508.16	18148.51
508.33	18307.67
508.50	18127.45
508.68	18310.01
508.85	18511.30
509.03	18515.98
509.20	18317.03
509.38	18560.45
509.55	18427.04
509.73	18787.48
509.90	19009.83
510.08	18548.75
510.25	18885.78
510.42	18604.92
510.60	19152.60
510.77	18963.02
510.95	19152.60
511.12	18768.76
511.30	18857.70
511.47	19180.69
511.64	19194.73
511.82	19496.66
511.99	19260.27
512.17	19288.35
512.34	19599.65
512.51	19288.35
512.69	19674.54
512.86	19592.62
513.04	19665.18
513.21	19899.23
513.38	19765.82
513.56	20142.65
513.73	19761.14
513.90	19709.65
514.08	19800.93
514.25	19990.52
514.43	19957.75
514.60	20100.52
514.77	19999.88
514.95	20240.95
515.12	19812.63
515.29	20252.66
515.47	20383.73
515.64	20652.89
515.81	20404.79
515.99	20442.24
516.16	20669.27
516.33	20411.81
516.51	20409.47
516.68	20416.49
516.85	20556.93
517.03	20994.61
517.20	21039.08
517.37	20954.82
517.54	21085.89
517.72	20833.11
517.89	20931.41
518.06	20933.75
518.24	20819.07
518.41	21048.44
518.58	21078.86
518.75	21125.68
518.93	21085.89
519.10	21411.22
519.27	21317.60
519.45	21406.54
519.62	21446.33
519.79	21280.15
519.96	21436.97
520.14	21745.92
520.31	21621.87
520.48	21844.22
520.65	21750.60
520.83	21820.81
521.00	21905.07
521.17	22192.96
521.34	21757.62
521.52	21884.01
521.69	21832.52
521.86	22244.45
522.03	22309.99
522.20	22192.96
522.38	22146.15
522.55	21984.65
522.72	22019.76
522.89	22403.61
523.07	22497.23
523.24	22642.34
523.41	22424.67
523.58	22366.16
523.75	22890.44
523.92	22356.80
524.10	22342.75
524.27	22537.02
524.44	23030.87
524.61	22565.10
524.78	22902.14
524.96	22780.43
525.13	22930.23
525.30	23117.47
525.47	22742.99
525.64	22939.59
525.81	23222.80
525.98	23145.56
526.16	23293.01
526.33	23400.68
526.50	23393.65
526.67	23351.52
526.84	23229.82
527.01	23255.56
527.18	23571.54
527.36	23510.68
527.53	23641.75
527.70	23770.48
527.87	23765.80
528.04	23620.69
528.21	23480.25
528.38	23543.45
528.55	23625.37
528.72	23367.91
528.89	23927.30
529.07	23850.06
529.24	23789.20
529.41	23520.04
529.58	23613.66
529.75	24011.56
529.92	23976.45
530.09	23948.36
530.26	23854.74
530.43	24294.76
530.60	23873.46
530.77	23962.40
530.94	24430.51
531.11	24257.31
531.28	24311.14
531.46	24294.76
531.63	23988.15
531.80	24400.08
531.97	24285.40
532.14	24718.40
532.31	24575.62
532.48	24533.50
532.65	24624.78
532.82	24257.31
532.99	24372.00
533.16	24559.24
533.33	25050.75
533.50	25256.72
533.67	24746.48
533.84	24507.75
534.01	24577.97
534.18	24725.42
534.35	24690.31
534.52	24762.87
534.69	25202.89
534.86	25214.59
535.03	24945.43
535.20	25167.78
535.37	25135.01
535.54	25223.95
535.71	25022.67
535.88	25350.34
536.05	25170.12
536.22	25198.21
536.38	25640.57
536.55	25432.26
536.72	25640.57
536.89	25586.74
537.06	25099.90
537.23	25546.95
537.40	25631.21
537.57	25556.31
537.74	25724.83
537.91	25942.50
538.08	26015.05
538.25	25560.99
538.42	25563.33
538.59	25668.66
538.75	25607.80
538.92	25855.90
539.09	25773.98
539.26	25940.16
539.43	25818.45
539.60	25766.96
539.77	26106.34
539.94	26221.02
540.11	25951.86
540.28	25928.45
540.44	25783.34
540.61	25745.89
540.78	26089.95
540.95	26115.70
541.12	25956.54
541.29	26359.11
541.46	26511.25
541.62	26036.12
541.79	26373.16
541.96	26096.97
542.13	26518.27
542.30	26223.36
542.47	26698.49
542.63	26593.17
542.80	26642.32
542.97	26890.41
543.14	26986.38
543.31	26768.71
543.48	26630.62
543.64	26803.82
543.81	27194.68
543.98	27119.79
544.15	27122.13
544.32	27023.83
544.48	27133.83
544.65	26946.59
544.82	27154.90
544.99	26883.39
545.16	27044.89
545.32	26778.07
545.49	27164.26
545.66	27330.44
545.83	27330.44
546.00	27412.35
546.16	27243.84
546.33	27260.22
546.50	26923.18
546.67	27494.27
546.83	27246.18
547.00	27290.65
547.17	27314.05
547.34	27264.90
547.50	27515.34
547.67	27559.81
547.84	27634.71
548.00	27623.00
548.17	27660.45
548.34	27693.22
548.51	27931.95
548.67	27690.88
548.84	27953.02
549.01	27882.80
549.18	27828.97
549.34	27658.11
549.51	27974.08
549.68	27803.22
549.84	27873.44
550.01	27658.11
550.18	27587.89
550.34	28290.06
550.51	28238.56
550.68	27927.27
550.84	27840.67
551.01	28322.82
551.18	27922.59
551.34	27702.58
551.51	27985.79
551.68	28004.51
551.84	28219.84
552.01	28158.99
552.18	28463.25
552.34	28219.84
552.51	28411.76
552.68	28591.98
552.84	28126.22
553.01	28435.17
553.18	28044.30
553.34	28505.38
553.51	28575.60
553.67	28662.20
553.84	28704.33
554.01	28713.69
554.17	28322.82
554.34	28533.47
554.51	28671.56
554.67	28601.35
554.84	28662.20
555.00	28423.47
555.17	28456.23
555.33	28701.99
555.50	28526.45
555.67	28671.56
555.83	28510.07
556.00	28591.98
556.16	29015.62
556.33	28582.62
556.50	28914.98
556.66	28971.15
556.83	28510.07
556.99	29317.55
557.16	29207.55
557.32	28945.41
557.49	28940.72
557.65	28842.42
557.82	29083.50
557.98	29237.97
558.15	28877.53
558.32	29507.13
558.48	29172.44
558.65	29560.97
558.81	29680.33
558.98	28793.27
559.14	28959.45
559.31	29252.02
559.47	29123.29
559.64	29706.08
559.80	29305.85
559.97	29516.50
560.13	29064.77
560.30	29139.67
560.46	29769.27
560.63	29383.09
560.79	29153.71
560.96	29205.20
561.12	29198.18
561.29	29137.33
561.45	29291.80
561.61	29792.68
561.78	29780.98
561.94	29418.19
562.11	29617.14
562.27	29366.70
562.44	29589.05
562.60	29668.63
562.77	29462.66
562.93	29268.40
563.10	29551.60
563.26	29303.51
563.42	29898.00
563.59	29762.25
563.75	29467.34
563.92	29530.54
564.08	29315.21
564.24	29780.98
564.41	29692.04
564.57	29057.75
564.74	29425.22
564.90	29935.45
565.07	29970.56
565.23	29647.57
565.39	29607.78
565.56	29703.74
565.72	29617.14
565.88	30328.66
566.05	29694.38
566.21	29596.07
566.38	29544.58
566.54	29851.19
566.70	29919.07
566.87	29872.26
567.03	30319.30
567.19	29759.91
567.36	30190.57
567.52	30033.75
567.68	29750.55
567.85	30356.75
568.01	29890.98
568.17	30003.33
568.34	29963.54
568.50	30221.00
568.66	30127.38
568.83	30164.82
568.99	29827.79
569.15	29764.59
569.32	29972.90
569.48	29816.08
569.64	29935.45
569.81	30356.75
569.97	29795.02
570.13	29944.81
570.30	29961.20
570.46	30038.44
570.62	30082.91
570.78	30052.48
570.95	30199.93
571.11	30080.56
571.27	29949.50
571.43	30057.16
571.60	30050.14
571.76	30213.98
571.92	30061.84
572.09	30436.33
572.25	30150.78
572.41	30267.81
572.57	30005.67
572.74	30082.91
572.90	29972.90
573.06	30057.16
573.22	30316.96
573.38	29893.32
573.55	29731.83
573.71	30527.61
573.87	30462.07
574.03	30347.39
574.20	30274.83
574.36	30099.29
574.52	30239.72
574.68	30764.00
574.84	29940.13
575.01	30593.14
575.17	30085.25
575.33	30345.05
575.49	30448.03
575.65	30309.94
575.82	30483.14
575.98	30132.06
576.14	30478.46
576.30	30256.11
576.46	29923.75
576.62	30206.95
576.79	30089.93
576.95	30476.12
577.11	30466.75
577.27	30221.00
577.43	30501.86
577.59	30256.11
577.75	30115.67
577.92	30448.03
578.08	30714.85
578.24	30288.87
578.40	30263.13
578.56	30684.42
578.72	30717.19
578.88	30789.75
579.04	30672.72
579.21	30614.21
579.37	30548.67
579.53	30654.00
579.69	30272.49
579.85	30075.88
580.01	30080.56
580.17	30036.09
580.33	30670.38
580.49	30675.06
580.65	30562.72
580.82	30539.31
580.98	30609.53
581.14	30398.88
581.30	30370.79
581.46	30216.32
581.62	30036.09
581.78	30368.45
581.94	30438.67
582.10	30202.27
582.26	30267.81
582.42	30359.09
582.58	30480.80
582.74	30438.67
582.90	30293.55
583.06	30920.82
583.22	30321.64
583.38	30562.72
583.54	30260.79
583.70	30644.63
583.86	30520.59
584.02	30326.32
584.18	30642.29
584.34	30614.21
584.50	30543.99
584.66	30576.76
584.82	30499.52
584.98	30417.60
585.14	30815.49
585.30	30359.09
585.46	30684.42
585.62	30469.09
585.78	30384.83
585.94	30403.56
586.10	30567.40
586.26	30801.45
586.42	30941.88
586.58	30892.73
586.74	30897.41
586.90	30609.53
587.06	30019.71
587.22	30361.43
587.38	30487.82
587.54	30829.54
587.70	30731.23
587.86	30925.50
588.02	30824.86
588.18	31065.93
588.34	30920.82
588.49	30925.50
588.65	30838.90
588.81	30426.96
588.97	30728.89
589.13	30637.61
589.29	30967.63
589.45	30766.34
589.61	30799.11
589.77	31122.10
589.93	30995.71
590.08	31356.16
590.24	31133.81
590.40	31199.34
590.56	30937.20
590.72	30871.67
590.88	30438.67
591.04	30583.78
591.20	31000.40
591.35	31185.30
591.51	31571.49
591.67	30981.67
591.83	31372.54
591.99	31161.89
