SpectraSuite Data File
++++++++++++++++++++++++++++++++++++
Date: Fri Oct 18 13:57:53 GMT-05:00 2013
User: bianchi
Dark Spectrum Present: No
Reference Spectrum Present: No
Number of Sampled Component Spectra: 1
Spectrometers: USB2+H05261
Integration Time (usec): 50000 (USB2+H05261)
Spectra Averaged: 1 (USB2+H05261)
Boxcar Smoothing: 0 (USB2+H05261)
Correct for Electrical Dark: No (USB2+H05261)
Strobe/Lamp Enabled: No (USB2+H05261)
Correct for Detector Non-linearity: No (USB2+H05261)
Correct for Stray Light: No (USB2+H05261)
Number of Pixels in Processed Spectrum: 2048
>>>>>Begin Processed Spectral Data<<<<<
365.73	0.00
365.92	0.00
366.12	0.00
366.32	0.00
366.52	0.00
366.72	0.00
366.91	0.00
367.11	0.00
367.31	0.00
367.51	0.00
367.70	0.00
367.90	0.00
368.10	0.00
368.30	0.00
368.49	0.00
368.69	0.00
368.89	0.00
369.09	0.00
369.28	0.00
369.48	0.00
369.68	0.00
369.87	0.00
370.07	0.00
370.27	0.00
370.47	46.81
370.66	107.66
370.86	121.71
371.06	107.66
371.25	112.35
371.45	187.24
371.65	231.71
371.84	114.69
372.04	140.43
372.24	229.37
372.44	187.24
372.63	138.09
372.83	320.65
373.03	170.86
373.22	133.41
373.42	245.76
373.62	283.20
373.81	154.48
374.01	234.05
374.21	252.78
374.40	196.60
374.60	278.52
374.79	278.52
374.99	222.35
375.19	201.29
375.38	241.08
375.58	353.42
375.78	198.95
375.97	294.91
376.17	325.33
376.37	280.86
376.56	264.48
376.76	306.61
376.95	315.97
377.15	243.42
377.35	255.12
377.54	238.73
377.74	175.54
377.93	292.57
378.13	395.55
378.33	372.15
378.52	250.44
378.72	355.76
378.91	273.84
379.11	322.99
379.31	313.63
379.50	306.61
379.70	355.76
379.89	390.87
380.09	280.86
380.28	259.80
380.48	339.38
380.68	358.10
380.87	369.80
381.07	245.76
381.26	334.70
381.46	306.61
381.65	325.33
381.85	304.27
382.04	339.38
382.24	320.65
382.43	369.80
382.63	320.65
382.83	334.70
383.02	393.21
383.22	365.12
383.41	353.42
383.61	355.76
383.80	430.66
384.00	320.65
384.19	374.49
384.39	334.70
384.58	367.46
384.78	351.08
384.97	386.19
385.17	414.27
385.36	386.19
385.56	344.06
385.75	367.46
385.95	489.17
386.14	482.15
386.34	395.55
386.53	402.57
386.72	409.59
386.92	493.85
387.11	521.94
387.31	465.77
387.50	407.25
387.70	409.59
387.89	416.62
388.09	482.15
388.28	456.40
388.48	456.40
388.67	505.56
388.86	519.60
389.06	500.87
389.25	449.38
389.45	449.38
389.64	433.00
389.84	545.34
390.03	440.02
390.22	367.46
390.42	433.00
390.61	477.47
390.81	482.15
391.00	557.05
391.19	514.92
391.39	482.15
391.58	545.34
391.78	660.03
391.97	505.56
392.16	449.38
392.36	613.22
392.55	554.71
392.75	566.41
392.94	545.34
393.13	573.43
393.33	505.56
393.52	531.30
393.71	599.18
393.91	596.84
394.10	503.22
394.29	578.11
394.49	554.71
394.68	636.63
394.88	601.52
395.07	533.64
395.26	662.37
395.46	585.13
395.65	681.10
395.84	664.71
396.04	657.69
396.23	627.26
396.42	657.69
396.62	599.18
396.81	678.76
397.00	739.61
397.19	599.18
397.39	622.58
397.58	755.99
397.77	638.97
397.97	657.69
398.16	669.39
398.35	828.55
398.55	748.97
398.74	648.33
398.93	713.86
399.12	765.36
399.32	767.70
399.51	781.74
399.70	786.42
399.90	784.08
400.09	795.78
400.28	716.20
400.47	716.20
400.67	849.61
400.86	882.38
401.05	781.74
401.24	873.02
401.44	802.80
401.63	826.21
401.82	858.98
402.01	798.12
402.21	835.57
402.40	786.42
402.59	819.19
402.78	826.21
402.97	929.19
403.17	964.30
403.36	938.55
403.55	1025.15
403.74	964.30
403.93	954.94
404.13	964.30
404.32	922.17
404.51	947.92
404.70	983.02
404.89	950.26
405.09	945.58
405.28	968.98
405.47	959.62
405.66	957.28
405.85	1034.52
406.05	1060.26
406.24	987.71
406.43	1013.45
406.62	952.60
406.81	1041.54
407.00	1114.10
407.20	1050.90
407.39	1125.80
407.58	1118.78
407.77	1060.26
407.96	1174.95
408.15	990.05
408.34	1062.60
408.54	1135.16
408.73	1156.22
408.92	1158.57
409.11	1231.12
409.30	1207.72
409.49	1144.52
409.68	1142.18
409.87	1043.88
410.07	1268.57
410.26	1275.59
410.45	1198.35
410.64	1322.40
410.83	1214.74
411.02	1303.68
411.21	1247.51
411.40	1219.42
411.59	1254.53
411.78	1224.10
411.98	1317.72
412.17	1221.76
412.36	1238.14
412.55	1341.13
412.74	1350.49
412.93	1378.58
413.12	1444.11
413.31	1324.74
413.50	1453.47
413.69	1427.73
413.88	1530.71
414.07	1427.73
414.26	1448.79
414.45	1495.60
414.64	1458.15
414.83	1561.14
415.02	1540.07
415.22	1523.69
415.41	1537.73
415.60	1474.54
415.79	1682.85
415.98	1610.29
416.17	1617.31
416.36	1542.41
416.55	1636.03
416.74	1717.95
416.93	1680.50
417.12	1638.38
417.31	1760.08
417.50	1680.50
417.69	1771.79
417.88	1729.66
418.07	1710.93
418.26	1643.06
418.45	1827.96
418.64	1781.15
418.83	1837.32
419.02	1846.68
419.21	1874.77
419.39	1870.09
419.58	1813.92
419.77	1827.96
419.96	1921.58
420.15	1963.71
420.34	1872.43
420.53	1888.81
420.72	1914.56
420.91	1919.24
421.10	1996.48
421.29	1935.62
421.48	1914.56
421.67	2099.46
421.86	1909.88
422.05	2129.89
422.24	2019.88
422.43	2015.20
422.61	2080.74
422.80	2031.58
422.99	2230.53
423.18	2108.82
423.37	2113.50
423.56	2113.50
423.75	2108.82
423.94	1987.11
424.13	1900.52
424.32	1944.99
424.50	2069.03
424.69	2115.84
424.88	2148.61
425.07	2064.35
425.26	2036.27
425.45	2111.16
425.64	2008.18
425.83	2019.88
426.01	2122.87
426.20	1996.48
426.39	2094.78
426.58	2113.50
426.77	2080.74
426.96	2195.42
427.15	2214.15
427.33	2251.60
427.52	2193.08
427.71	2195.42
427.90	2221.17
428.09	2141.59
428.28	2207.13
428.46	2132.23
428.65	2242.23
428.84	2265.64
429.03	2366.28
429.22	2246.91
429.40	2141.59
429.59	2265.64
429.78	2263.30
429.97	2094.78
430.16	2172.02
430.34	2345.22
430.53	2408.41
430.72	2387.35
430.91	2389.69
431.10	2401.39
431.28	2347.56
431.47	2544.16
431.66	2387.35
431.85	2345.22
432.03	2462.24
432.22	2558.21
432.41	2455.22
432.60	2511.39
432.79	2347.56
432.97	2588.63
433.16	2506.71
433.35	2602.68
433.54	2623.74
433.72	2567.57
433.91	2586.29
434.10	2548.84
434.28	2485.65
434.47	2539.48
434.66	2574.59
434.85	2658.85
435.03	2651.83
435.22	2569.91
435.41	2700.98
435.59	2761.83
435.78	2689.28
435.97	2672.89
436.16	2621.40
436.34	2785.24
436.53	2689.28
436.72	2848.43
436.90	2703.32
437.09	2853.11
437.28	2724.38
437.46	2773.53
437.65	2810.98
437.84	2813.32
438.02	2822.69
438.21	2803.96
438.40	2864.82
438.58	2953.76
438.77	2977.16
438.96	2911.63
439.14	3030.99
439.33	3021.63
439.52	3030.99
439.70	2991.20
439.89	3124.62
440.08	3110.57
440.26	3208.87
440.45	3000.57
440.63	3059.08
440.82	3063.76
441.01	3272.07
441.19	3169.09
441.38	3344.63
441.57	3325.90
441.75	3342.28
441.94	3412.50
442.12	3330.58
442.31	3297.81
442.50	3283.77
442.68	3426.54
442.87	3421.86
443.05	3393.78
443.24	3485.06
443.43	3274.41
443.61	3393.78
443.80	3468.67
443.98	3496.76
444.17	3379.73
444.35	3520.17
444.54	3585.70
444.73	3674.64
444.91	3499.10
445.10	3414.84
445.28	3562.30
445.47	3529.53
445.65	3452.29
445.84	3510.80
446.02	3602.08
446.21	3466.33
446.39	3536.55
446.58	3595.06
446.77	3445.27
446.95	3473.36
447.14	3534.21
447.32	3590.38
447.51	3714.43
447.69	3461.65
447.88	3552.93
448.06	3592.72
448.25	3534.21
448.43	3520.17
448.62	3590.38
448.80	3653.58
448.99	3662.94
449.17	3744.86
449.36	3730.81
449.54	3796.35
449.73	3843.16
449.91	3782.31
450.10	3768.26
450.28	3866.56
450.46	3667.62
450.65	3730.81
450.83	3758.90
451.02	3801.03
451.20	3957.85
451.39	3784.65
451.57	3833.80
451.76	3770.60
451.94	3985.93
452.13	3971.89
452.31	3861.88
452.49	3878.27
452.68	3927.42
452.86	3882.95
453.05	4035.08
453.23	4067.85
453.42	3936.78
453.60	3950.82
453.78	4023.38
453.97	3941.46
454.15	3918.06
454.34	3967.21
454.52	3999.98
454.70	3981.25
454.89	4166.15
455.07	4102.96
455.26	4056.15
455.44	4149.77
455.62	4084.23
455.81	4142.75
455.99	4212.96
456.17	4259.78
456.36	4229.35
456.54	4367.44
456.73	4198.92
456.91	4418.93
457.09	4503.19
457.28	4407.23
457.46	4372.12
457.64	4440.00
457.83	4299.56
458.01	4442.34
458.19	4505.53
458.38	4477.44
458.56	4465.74
458.74	4547.66
458.93	4428.29
459.11	4561.70
459.29	4519.57
459.48	4624.90
459.66	4451.70
459.84	4657.67
460.03	4674.05
460.21	4510.21
460.39	4704.48
460.57	4690.43
460.76	4648.30
460.94	4596.81
461.12	4873.00
461.31	4711.50
461.49	4702.14
461.67	4674.05
461.85	4692.77
462.04	4638.94
462.22	5025.13
462.40	4926.83
462.59	4851.93
462.77	4840.23
462.95	4943.21
463.13	4828.53
463.32	4990.02
463.50	4905.76
463.68	4854.27
463.86	5060.24
464.05	4966.62
464.23	5107.05
464.41	5036.83
464.59	4943.21
464.78	5135.14
464.96	4983.00
465.14	4971.30
465.32	4990.02
465.50	5095.35
465.69	5362.17
465.87	4957.25
466.05	5050.88
466.23	5083.64
466.41	5055.56
466.60	5207.69
466.78	5221.74
466.96	5078.96
467.14	5123.43
467.32	5142.16
467.51	5310.68
467.69	5123.43
467.87	5291.95
468.05	5317.70
468.23	5226.42
468.41	5273.23
468.60	5214.71
468.78	5322.38
468.96	5327.06
469.14	5371.53
469.32	5350.46
469.50	5284.93
469.69	5303.65
469.87	5568.13
470.05	5551.75
470.23	5682.82
470.41	5399.62
470.59	5558.77
470.77	5497.92
470.95	5528.35
471.14	5600.90
471.32	5540.05
471.50	5809.21
471.68	5645.37
471.86	5774.10
472.04	5682.82
472.22	5919.21
472.40	5631.33
472.58	5877.09
472.77	5884.11
472.95	6069.01
473.13	6146.25
473.31	5884.11
473.49	5966.03
473.67	5919.21
473.85	6066.67
474.03	6106.46
474.21	6085.39
474.39	6176.67
474.57	6256.25
474.75	6232.85
474.93	6375.62
475.12	6267.95
475.30	6384.98
475.48	6509.03
475.66	6417.75
475.84	6286.68
476.02	6464.56
476.20	6494.99
476.38	6572.22
476.56	6717.34
476.74	6722.02
476.92	6743.08
477.10	6789.89
477.28	6810.96
477.46	6773.51
477.64	6998.20
477.82	6925.65
478.00	6916.28
478.18	7007.56
478.36	7129.27
478.54	7316.51
478.72	7164.38
478.90	7325.88
479.08	7321.20
479.26	7445.24
479.44	7449.93
479.62	7452.27
479.80	7555.25
479.98	7414.82
480.16	7646.53
480.34	7791.64
480.52	7873.56
480.70	7801.01
480.88	7791.64
481.06	7763.56
481.24	7878.24
481.41	7847.82
481.59	8091.23
481.77	8079.53
481.95	8327.63
482.13	8091.23
482.31	8250.39
482.49	8486.78
482.67	8613.17
482.85	8594.45
483.03	8622.53
483.21	8624.87
483.39	8856.59
483.57	8699.77
483.74	8882.33
483.92	8868.29
484.10	8833.18
484.28	8903.40
484.46	9334.06
484.64	9240.44
484.82	9193.62
485.00	9254.48
485.18	9469.81
485.35	9643.01
485.53	9434.70
485.71	9483.85
485.89	9996.43
486.07	9563.43
486.25	9692.16
486.43	9713.22
486.61	9872.38
486.78	10134.52
486.96	10171.97
487.14	10319.42
487.32	10251.55
487.50	10431.77
487.68	10363.89
487.85	10647.10
488.03	10675.18
488.21	10827.32
488.39	10862.43
488.57	10890.51
488.75	10963.07
488.92	11068.39
489.10	11122.23
489.28	11281.38
489.46	11325.85
489.64	11372.66
489.81	11510.75
489.99	11417.13
490.17	11726.08
490.35	11653.53
490.53	11609.06
490.70	11910.99
490.88	11742.47
491.06	12060.78
491.24	12063.12
491.41	11908.65
491.59	12079.50
491.77	12416.54
491.95	12404.84
492.13	12489.10
492.30	12521.87
492.48	12351.01
492.66	12423.56
492.84	12624.85
493.01	12905.71
493.19	12943.16
493.37	12933.80
493.54	13013.38
493.72	12996.99
493.90	13153.81
494.08	13146.79
494.25	13418.29
494.43	13324.67
494.61	13624.26
494.79	13734.26
494.96	13525.96
495.14	13776.39
495.32	13860.65
495.49	13942.57
495.67	13975.34
495.85	14040.87
496.02	14080.66
496.20	14312.38
496.38	14146.20
496.55	14427.06
496.73	14534.73
496.91	14537.07
497.09	14558.13
497.26	14731.33
497.44	14513.66
497.62	15021.56
497.79	14600.26
497.97	14878.79
498.14	14916.23
498.32	15185.40
498.50	15124.54
498.67	15264.97
498.85	15173.69
499.03	15089.43
499.20	15506.05
499.38	15300.08
499.56	15463.92
499.73	15552.86
499.91	15564.56
500.08	15878.19
500.26	15674.57
500.44	15910.96
500.61	15927.35
500.79	16051.39
500.97	16067.78
501.14	16407.16
501.32	15988.20
501.49	16077.14
501.67	16116.93
501.84	16072.46
502.02	16400.13
502.20	16442.26
502.37	16428.22
502.55	16297.15
502.72	16709.08
502.90	16521.84
503.07	16475.03
503.25	16709.08
503.43	16877.60
503.60	16774.62
503.78	16882.28
503.95	16826.11
504.13	16919.73
504.30	16896.33
504.48	16879.94
504.65	17319.96
504.83	17259.11
505.01	17624.23
505.18	17334.01
505.36	17336.35
505.53	17376.14
505.71	17406.56
505.88	17671.04
506.06	17537.63
506.23	17926.16
506.41	17647.64
506.58	18157.88
506.76	17895.74
506.93	17839.56
507.11	18108.72
507.28	17757.64
507.46	17820.84
507.63	18305.33
507.81	18101.70
507.98	17874.67
508.16	18064.25
508.33	18270.22
508.50	18370.86
508.68	18008.08
508.85	18644.71
509.03	18675.13
509.20	18574.49
509.38	18618.96
509.55	18998.13
509.73	18583.85
509.90	18808.54
510.08	18871.74
510.25	18845.99
510.42	19154.94
510.60	18981.74
510.77	19066.00
510.95	19550.49
511.12	18780.46
511.30	19122.18
511.47	19206.44
511.64	19117.50
511.82	19351.55
511.99	19683.91
512.17	19627.73
512.34	19419.42
512.51	19754.12
512.69	19482.62
512.86	19859.45
513.04	19962.43
513.21	19939.02
513.38	19946.05
513.56	19976.47
513.73	19864.13
513.90	19936.68
514.08	19950.73
514.25	20332.23
514.43	20086.48
514.60	20016.26
514.77	20425.86
514.95	20404.79
515.12	20133.29
515.29	19908.60
515.47	20229.25
515.64	20666.93
515.81	20627.14
515.99	20643.52
516.16	20732.47
516.33	20755.87
516.51	21167.80
516.68	20812.04
516.85	20695.02
517.03	20496.07
517.20	20861.19
517.37	20893.96
517.54	21050.78
517.72	21188.87
517.89	20802.68
518.06	21207.59
518.24	21397.18
518.41	21179.51
518.58	21109.29
518.75	21336.32
518.93	21315.26
519.10	21593.78
519.27	21652.30
519.45	21596.12
519.62	21680.38
519.79	21397.18
519.96	21649.96
520.14	21804.43
520.31	21542.29
520.48	21895.71
520.65	21989.33
520.83	21635.91
521.00	22010.40
521.17	21820.81
521.34	21745.92
521.52	21989.33
521.69	22010.40
521.86	21884.01
522.03	22239.77
522.20	22286.58
522.38	22611.92
522.55	22422.33
522.72	22558.08
522.89	22520.63
523.07	22232.75
523.24	22768.73
523.41	22618.94
523.58	22766.39
523.75	23002.78
523.92	22593.19
524.10	22719.58
524.27	22890.44
524.44	22780.43
524.61	23089.38
524.78	23154.92
524.96	22883.42
525.13	23058.96
525.30	22981.72
525.47	23187.69
525.64	23339.82
525.81	23342.16
525.98	23360.89
526.16	23571.54
526.33	23398.34
526.50	23704.95
526.67	23229.82
526.84	23400.68
527.01	23548.13
527.18	23674.52
527.36	23896.87
527.53	23887.51
527.70	23913.25
527.87	23807.93
528.04	23613.66
528.21	23641.75
528.38	24006.87
528.55	23924.96
528.72	23946.02
528.89	23817.29
529.07	24034.96
529.24	23751.76
529.41	24180.07
529.58	24320.51
529.75	23866.44
529.92	24151.99
530.09	24301.78
530.26	24318.17
530.43	24191.78
530.60	24084.11
530.77	24257.31
530.94	24219.86
531.11	23873.46
531.28	24297.10
531.46	24416.47
531.63	24425.83
531.80	24760.53
531.97	24589.67
532.14	24486.68
532.31	24453.92
532.48	24872.87
532.65	24802.66
532.82	24547.54
532.99	24680.95
533.16	24446.90
533.33	24945.43
533.50	25331.62
533.67	25177.14
533.84	24783.93
534.01	24758.19
534.18	24821.38
534.35	24844.79
534.52	25158.42
534.69	25422.90
534.86	25305.87
535.03	25245.02
535.20	25046.07
535.37	25523.54
535.54	25284.81
535.71	25181.82
535.88	25305.87
536.05	25214.59
536.22	25923.77
536.38	25333.96
536.55	25652.27
536.72	25509.50
536.89	25722.49
537.06	25593.76
537.23	25816.11
537.40	25575.03
537.57	25549.29
537.74	25706.10
537.91	26153.15
538.08	25867.60
538.25	25769.30
538.42	26302.94
538.59	25666.31
538.75	25926.11
538.92	25865.26
539.09	26338.05
539.26	26026.76
539.43	26174.21
539.60	26089.95
539.77	26267.83
539.94	26445.71
540.11	25993.99
540.28	26534.65
540.44	26551.04
540.61	26302.94
540.78	26263.15
540.95	26515.93
541.12	26167.19
541.29	26583.80
541.46	26960.63
541.62	26331.03
541.79	26396.56
541.96	26019.74
542.13	26532.31
542.30	26661.04
542.47	26794.45
542.63	26792.11
542.80	26967.65
542.97	27049.57
543.14	27269.58
543.31	26995.74
543.48	26724.24
543.64	27222.77
543.81	27351.50
543.98	27494.27
544.15	27260.22
544.32	27377.25
544.48	27166.60
544.65	26948.93
544.82	26881.05
544.99	26883.39
545.16	27171.28
545.32	27498.95
545.49	27466.19
545.66	27304.69
545.83	27679.18
546.00	27381.93
546.16	27583.21
546.33	27075.32
546.50	27080.00
546.67	27658.11
546.83	26923.18
547.00	27552.79
547.17	27857.06
547.34	27559.81
547.50	27735.35
547.67	27669.81
547.84	27466.19
548.00	27864.08
548.17	28163.67
548.34	27704.92
548.51	28212.82
548.67	28130.90
548.84	28020.89
549.01	27796.20
549.18	27955.36
549.34	27995.15
549.51	28257.29
549.68	28025.57
549.84	27878.12
550.01	27964.72
550.18	28135.58
550.34	27922.59
550.51	28395.38
550.68	28512.41
550.84	28142.60
551.01	28175.37
551.18	27962.38
551.34	28240.90
551.51	28088.77
551.68	28390.70
551.84	28276.01
552.01	27976.42
552.18	28313.46
552.34	28250.27
552.51	28432.83
552.68	28154.30
552.84	28685.61
553.01	28826.04
553.18	28435.17
553.34	28381.34
553.51	28830.72
553.67	28566.24
553.84	28929.02
554.01	28816.68
554.17	28840.08
554.34	28811.99
554.51	28910.30
554.67	28788.59
554.84	28741.78
555.00	28755.82
555.17	28833.06
555.33	28739.44
555.50	28875.19
555.67	28687.95
555.83	28889.23
556.00	28950.09
556.16	29139.67
556.33	29268.40
556.50	29010.94
556.66	28889.23
556.83	29277.76
556.99	29355.00
557.16	29172.44
557.32	29088.18
557.49	29186.48
557.65	28706.67
557.82	28922.00
557.98	29113.92
558.15	29465.00
558.32	29263.72
558.48	29303.51
558.65	29511.81
558.81	29591.39
558.98	29333.93
559.14	29614.80
559.31	29462.66
559.47	29479.05
559.64	29294.14
559.80	29142.01
559.97	29661.61
560.13	29518.84
560.30	29647.57
560.46	29394.79
560.63	29380.74
560.79	29673.31
560.96	29544.58
561.12	29539.90
561.29	29401.81
561.45	29551.60
561.61	29589.05
561.78	29209.89
561.94	29436.92
562.11	29553.94
562.27	29708.42
562.44	30209.29
562.60	29813.74
562.77	29549.26
562.93	29474.37
563.10	30139.08
563.26	29848.85
563.42	30155.46
563.59	29900.34
563.75	29757.57
563.92	29729.48
564.08	29741.19
564.24	29607.78
564.41	29832.47
564.57	29759.91
564.74	30061.84
564.90	30024.39
565.07	29970.56
565.23	30127.38
565.39	29635.86
565.56	30211.64
565.72	30099.29
565.88	30085.25
566.05	29626.50
566.21	30235.04
566.38	30249.08
566.54	29893.32
566.70	30199.93
566.87	30356.75
567.03	29916.73
567.19	30445.69
567.36	30506.54
567.52	30164.82
567.68	30134.40
567.85	30075.88
568.01	29979.92
568.17	30113.33
568.34	30331.00
568.50	30338.02
568.66	30293.55
568.83	30438.67
568.99	30469.09
569.15	30349.73
569.32	30106.31
569.48	30019.71
569.64	30405.90
569.81	30293.55
569.97	30169.51
570.13	30230.36
570.30	29645.23
570.46	30043.12
570.62	30675.06
570.78	30164.82
570.95	30375.47
571.11	29862.90
571.27	29937.79
571.43	30258.45
571.60	29986.94
571.76	30361.43
571.92	30300.58
572.09	30251.42
572.25	30548.67
572.41	30153.12
572.57	30506.54
572.74	30490.16
572.90	30487.82
573.06	30338.02
573.22	30448.03
573.38	30059.50
573.55	30345.05
573.71	30810.81
573.87	30518.25
574.03	30747.62
574.20	30670.38
574.36	30431.65
574.52	30558.03
574.68	30504.20
574.84	30628.25
575.01	30396.54
575.17	30857.62
575.33	30391.86
575.49	30588.46
575.65	30555.69
575.82	30817.83
575.98	30831.88
576.14	30581.44
576.30	30761.66
576.46	30560.37
576.62	30543.99
576.79	30110.99
576.95	30352.07
577.11	30642.29
577.27	30878.69
577.43	30649.32
577.59	30389.52
577.75	30579.10
577.92	30052.48
578.08	30260.79
578.24	30373.13
578.40	30405.90
578.56	30551.01
578.72	30700.81
578.88	30817.83
579.04	30529.95
579.21	30513.56
579.37	31005.08
579.53	31328.07
579.69	30490.16
579.85	30639.95
580.01	30771.02
580.17	30312.28
580.33	30733.57
580.49	30726.55
580.65	30808.47
580.82	30815.49
580.98	30916.14
581.14	30506.54
581.30	31115.08
581.46	30438.67
581.62	30979.33
581.78	30642.29
581.94	30485.48
582.10	30679.74
582.26	30611.87
582.42	30962.95
582.58	31061.25
582.74	31150.19
582.90	30984.01
583.06	31054.23
583.22	30801.45
583.38	30843.58
583.54	30759.32
583.70	30501.86
583.86	30766.34
584.02	30597.82
584.18	30911.46
584.34	31047.21
584.50	30562.72
584.66	30972.31
584.82	30778.04
584.98	30775.70
585.14	30635.27
585.30	30274.83
585.46	30691.44
585.62	30525.27
585.78	30932.52
585.94	30115.67
586.10	30862.30
586.26	31178.28
586.42	31007.42
586.58	30852.94
586.74	31042.53
586.90	30408.24
587.06	30682.08
587.22	30925.50
587.38	30497.18
587.54	31201.68
587.70	31131.47
587.86	30979.33
588.02	30864.64
588.18	31171.25
588.34	30944.22
588.49	30717.19
588.65	30855.28
588.81	30862.30
588.97	30792.09
589.13	30960.61
589.29	31075.29
589.45	31084.65
589.61	31079.97
589.77	31529.36
589.93	31246.15
590.08	31367.86
590.24	31459.14
590.40	31335.09
590.56	31227.43
590.72	31381.90
590.88	31129.12
591.04	30850.60
591.20	31037.84
591.35	31342.11
591.51	31737.66
591.67	31129.12
591.83	31096.36
