SpectraSuite Data File
++++++++++++++++++++++++++++++++++++
Date: Fri Oct 18 13:58:37 GMT-05:00 2013
User: bianchi
Dark Spectrum Present: No
Reference Spectrum Present: No
Number of Sampled Component Spectra: 1
Spectrometers: USB2+H05261
Integration Time (usec): 50000 (USB2+H05261)
Spectra Averaged: 1 (USB2+H05261)
Boxcar Smoothing: 0 (USB2+H05261)
Correct for Electrical Dark: No (USB2+H05261)
Strobe/Lamp Enabled: No (USB2+H05261)
Correct for Detector Non-linearity: No (USB2+H05261)
Correct for Stray Light: No (USB2+H05261)
Number of Pixels in Processed Spectrum: 2048
>>>>>Begin Processed Spectral Data<<<<<
365.73	0.00
365.92	0.00
366.12	0.00
366.32	0.00
366.52	0.00
366.72	0.00
366.91	0.00
367.11	0.00
367.31	0.00
367.51	0.00
367.70	0.00
367.90	0.00
368.10	0.00
368.30	0.00
368.49	0.00
368.69	0.00
368.89	0.00
369.09	0.00
369.28	0.00
369.48	0.00
369.68	0.00
369.87	0.00
370.07	0.00
370.27	0.00
370.47	0.00
370.66	102.98
370.86	98.30
371.06	91.28
371.25	142.77
371.45	114.69
371.65	177.88
371.84	74.90
372.04	147.45
372.24	117.03
372.44	156.82
372.63	182.56
372.83	168.52
373.03	208.31
373.22	294.91
373.42	210.65
373.62	280.86
373.81	266.82
374.01	245.76
374.21	252.78
374.40	182.56
374.60	266.82
374.79	229.37
374.99	229.37
375.19	252.78
375.38	367.46
375.58	325.33
375.78	301.93
375.97	224.69
376.17	332.36
376.37	330.02
376.56	280.86
376.76	241.08
376.95	220.01
377.15	301.93
377.35	257.46
377.54	290.23
377.74	215.33
377.93	271.50
378.13	212.99
378.33	234.05
378.52	372.15
378.72	301.93
378.91	337.04
379.11	313.63
379.31	269.16
379.50	297.25
379.70	285.55
379.89	290.23
380.09	367.46
380.28	313.63
380.48	322.99
380.68	339.38
380.87	262.14
381.07	360.44
381.26	257.46
381.46	271.50
381.65	297.25
381.85	320.65
382.04	320.65
382.24	299.59
382.43	360.44
382.63	395.55
382.83	320.65
383.02	325.33
383.22	320.65
383.41	301.93
383.61	337.04
383.80	390.87
384.00	332.36
384.19	360.44
384.39	367.46
384.58	341.72
384.78	379.17
384.97	367.46
385.17	376.83
385.36	411.93
385.56	400.23
385.75	297.25
385.95	404.91
386.14	383.85
386.34	376.83
386.53	411.93
386.72	325.33
386.92	449.38
387.11	430.66
387.31	395.55
387.50	390.87
387.70	486.83
387.89	479.81
388.09	383.85
388.28	447.04
388.48	449.38
388.67	449.38
388.86	505.56
389.06	421.30
389.25	437.68
389.45	482.15
389.64	442.36
389.84	571.09
390.03	423.64
390.22	545.34
390.42	500.87
390.61	486.83
390.81	531.30
391.00	465.77
391.19	470.45
391.39	440.02
391.58	454.06
391.78	554.71
391.97	528.96
392.16	475.13
392.36	545.34
392.55	571.09
392.75	463.43
392.94	554.71
393.13	543.00
393.33	580.45
393.52	559.39
393.71	622.58
393.91	580.45
394.10	514.92
394.29	613.22
394.49	582.79
394.68	564.07
394.88	580.45
395.07	580.45
395.26	566.41
395.46	571.09
395.65	622.58
395.84	624.92
396.04	685.78
396.23	697.48
396.42	692.80
396.62	645.99
396.81	655.35
397.00	685.78
397.19	629.60
397.39	606.20
397.58	692.80
397.77	613.22
397.97	606.20
398.16	727.91
398.35	725.57
398.55	688.12
398.74	690.46
398.93	669.39
399.12	814.51
399.32	788.76
399.51	734.93
399.70	765.36
399.90	727.91
400.09	781.74
400.28	744.29
400.47	814.51
400.67	891.74
400.86	828.55
401.05	748.97
401.24	870.68
401.44	779.40
401.63	812.17
401.82	844.93
402.01	875.36
402.21	894.08
402.40	880.04
402.59	908.13
402.78	896.43
402.97	854.30
403.17	821.53
403.36	844.93
403.55	793.44
403.74	922.17
403.93	912.81
404.13	912.81
404.32	908.13
404.51	912.81
404.70	957.28
404.89	971.32
405.09	922.17
405.28	1011.11
405.47	905.79
405.66	894.08
405.85	1001.75
406.05	1008.77
406.24	980.68
406.43	945.58
406.62	1011.11
406.81	1107.07
407.00	994.73
407.20	1029.84
407.39	1025.15
407.58	1083.67
407.77	1032.18
407.96	1144.52
408.15	1139.84
408.34	1081.33
408.54	992.39
408.73	1181.97
408.92	1090.69
409.11	1151.54
409.30	1086.01
409.49	1224.10
409.68	1144.52
409.87	1139.84
410.07	1151.54
410.26	1214.74
410.45	1170.27
410.64	1231.12
410.83	1203.04
411.02	1268.57
411.21	1228.78
411.40	1203.04
411.59	1416.02
411.78	1214.74
411.98	1226.44
412.17	1280.27
412.36	1261.55
412.55	1345.81
412.74	1373.89
412.93	1425.39
413.12	1345.81
413.31	1397.30
413.50	1385.60
413.69	1397.30
413.88	1476.88
414.07	1366.87
414.26	1401.98
414.45	1409.00
414.64	1458.15
414.83	1561.14
415.02	1551.78
415.22	1652.42
415.41	1614.97
415.60	1540.07
415.79	1596.25
415.98	1570.50
416.17	1561.14
416.36	1579.86
416.55	1671.14
416.74	1727.32
416.93	1692.21
417.12	1577.52
417.31	1636.03
417.50	1645.40
417.69	1816.26
417.88	1769.44
418.07	1678.16
418.26	1799.87
418.45	1708.59
418.64	1818.60
418.83	1856.04
419.02	1774.13
419.21	1799.87
419.39	1797.53
419.58	1795.19
419.77	1785.83
419.96	1907.54
420.15	1839.66
420.34	1907.54
420.53	1930.94
420.72	1973.07
420.91	1867.75
421.10	1944.99
421.29	2022.22
421.48	1930.94
421.67	1921.58
421.86	1895.83
422.05	2012.86
422.24	1865.41
422.43	1977.75
422.61	1933.28
422.80	1987.11
422.99	2054.99
423.18	2015.20
423.37	2024.56
423.56	1928.60
423.75	2092.44
423.94	2019.88
424.13	1935.62
424.32	1977.75
424.50	2099.46
424.69	2167.34
424.88	2090.10
425.07	2001.16
425.26	2080.74
425.45	2012.86
425.64	2200.10
425.83	1989.46
426.01	2125.21
426.20	2076.06
426.39	2076.06
426.58	2066.69
426.77	2050.31
426.96	2160.31
427.15	2050.31
427.33	2132.23
427.52	2099.46
427.71	2066.69
427.90	2113.50
428.09	2101.80
428.28	2202.44
428.46	2223.51
428.65	2202.44
428.84	2225.85
429.03	2270.32
429.22	2251.60
429.40	2239.89
429.59	2321.81
429.78	2172.02
429.97	2270.32
430.16	2237.55
430.34	2310.11
430.53	2408.41
430.72	2307.77
430.91	2307.77
431.10	2207.13
431.28	2450.54
431.47	2352.24
431.66	2375.64
431.85	2389.69
432.03	2448.20
432.22	2469.27
432.41	2431.82
432.60	2427.14
432.79	2408.41
432.97	2445.86
433.16	2403.73
433.35	2415.43
433.54	2548.84
433.72	2626.08
433.91	2539.48
434.10	2602.68
434.28	2534.80
434.47	2621.40
434.66	2565.23
434.85	2654.17
435.03	2576.93
435.22	2581.61
435.41	2626.08
435.59	2581.61
435.78	2595.65
435.97	2642.46
436.16	2602.68
436.34	2827.37
436.53	2708.00
436.72	2722.04
436.90	2583.95
437.09	2649.49
437.28	2693.96
437.46	2672.89
437.65	2810.98
437.84	2705.66
438.02	2773.53
438.21	2836.73
438.40	2705.66
438.58	2860.13
438.77	2906.95
438.96	2766.51
439.14	2775.88
439.33	3091.85
439.52	2937.37
439.70	2932.69
439.89	2998.23
440.08	2967.80
440.26	3042.70
440.45	2998.23
440.63	3150.36
440.82	3199.51
441.01	3049.72
441.19	3124.62
441.38	3208.87
441.57	3236.96
441.75	3286.11
441.94	3269.73
442.12	3281.43
442.31	3288.45
442.50	3358.67
442.68	3447.61
442.87	3272.07
443.05	3375.05
443.24	3424.20
443.43	3356.33
443.61	3372.71
443.80	3475.70
443.98	3431.23
444.17	3410.16
444.35	3419.52
444.54	3391.44
444.73	3494.42
444.91	3487.40
445.10	3583.36
445.28	3459.31
445.47	3494.42
445.65	3492.08
445.84	3461.65
446.02	3569.32
446.21	3412.50
446.39	3407.82
446.58	3489.74
446.77	3510.80
446.95	3400.80
447.14	3559.95
447.32	3515.48
447.51	3503.78
447.69	3492.08
447.88	3627.83
448.06	3548.25
448.25	3391.44
448.43	3508.46
448.62	3611.45
448.80	3459.31
448.99	3630.17
449.17	3639.53
449.36	3545.91
449.54	3606.77
449.73	3716.77
449.91	3590.38
450.10	3758.90
450.28	3721.45
450.46	3803.37
450.65	3854.86
450.83	3756.56
451.02	3693.37
451.20	3735.50
451.39	3791.67
451.57	3779.97
451.76	3737.84
451.94	3868.91
452.13	4037.42
452.31	3805.71
452.49	3955.51
452.68	3861.88
452.86	3761.24
453.05	3946.14
453.23	3992.95
453.42	3838.48
453.60	3815.07
453.78	3920.40
453.97	3988.27
454.15	3929.76
454.34	3906.35
454.52	3911.04
454.70	3971.89
454.89	4023.38
455.07	4175.52
455.26	3950.82
455.44	4145.09
455.62	4042.11
455.81	4086.58
455.99	4156.79
456.17	4060.83
456.36	4241.05
456.54	4166.15
456.73	4372.12
456.91	4409.57
457.09	4311.27
457.28	4367.44
457.46	4091.26
457.64	4299.56
457.83	4297.22
458.01	4222.33
458.19	4493.83
458.38	4278.50
458.56	4503.19
458.74	4519.57
458.93	4550.00
459.11	4353.40
459.29	4409.57
459.48	4571.07
459.66	4451.70
459.84	4573.41
460.03	4524.26
460.21	4503.19
460.39	4545.32
460.57	4479.79
460.76	4482.13
460.94	4585.11
461.12	4655.33
461.31	4610.86
461.49	4629.58
461.67	4428.29
461.85	4676.39
462.04	4723.20
462.22	4758.31
462.40	4744.27
462.59	4652.98
462.77	5027.47
462.95	4823.84
463.13	4702.14
463.32	4727.88
463.50	4725.54
463.68	4781.71
463.86	4865.97
464.05	4713.84
464.23	4936.19
464.41	4816.82
464.59	4823.84
464.78	4994.70
464.96	4816.82
465.14	4933.85
465.32	4917.47
465.50	5050.88
465.69	5046.20
465.87	5001.72
466.05	5006.41
466.23	5055.56
466.41	5053.22
466.60	5163.22
466.78	5008.75
466.96	5004.07
467.14	5006.41
467.32	5158.54
467.51	5228.76
467.69	5163.22
467.87	5095.35
468.05	5090.67
468.23	5142.16
468.41	5254.50
468.60	5137.48
468.78	5432.38
468.96	5247.48
469.14	5186.63
469.32	5181.95
469.50	5081.30
469.69	5380.89
469.87	5387.91
470.05	5465.15
470.23	5362.17
470.41	5394.93
470.59	5441.75
470.77	5418.34
470.95	5462.81
471.14	5650.05
471.32	5654.73
471.50	5547.07
471.68	5755.38
471.86	5692.18
472.04	5483.88
472.22	5774.10
472.40	5736.65
472.58	5708.57
472.77	5818.57
472.95	5919.21
473.13	5881.77
473.31	5837.30
473.49	5919.21
473.67	5942.62
473.85	5930.92
474.03	5951.98
474.21	6017.52
474.39	5959.00
474.57	6164.97
474.75	6059.65
474.93	6354.55
475.12	6076.03
475.30	6171.99
475.48	6026.88
475.66	6338.17
475.84	6307.74
476.02	6263.27
476.20	6478.60
476.38	6497.33
476.56	6633.08
476.74	6455.20
476.92	6490.31
477.10	6544.14
477.28	6710.32
477.46	6623.72
477.64	6675.21
477.82	6677.55
478.00	6958.41
478.18	6899.90
478.36	6925.65
478.54	7173.74
478.72	7016.93
478.90	7239.28
479.08	7328.22
479.26	7124.59
479.44	7337.58
479.62	7262.68
479.80	7396.09
479.98	7585.68
480.16	7733.13
480.34	7468.65
480.52	7695.68
480.70	7693.34
480.88	7461.63
481.06	7716.75
481.24	7833.77
481.41	7852.50
481.59	8004.63
481.77	7995.27
481.95	8182.51
482.13	8163.79
482.31	8198.90
482.49	8250.39
482.67	8297.20
482.85	8390.82
483.03	8402.52
483.21	8458.70
483.39	8629.56
483.57	8655.30
483.74	8596.79
483.92	8908.08
484.10	8631.90
484.28	9015.74
484.46	9060.21
484.64	9172.56
484.82	9128.09
485.00	9114.05
485.18	9453.42
485.35	9551.73
485.53	9366.82
485.71	9350.44
485.89	9392.57
486.07	9706.20
486.25	9703.86
486.43	9687.48
486.61	9701.52
486.78	9839.61
486.96	10064.30
487.14	9984.73
487.32	9942.60
487.50	10101.75
487.68	10272.61
487.85	10305.38
488.03	10281.97
488.21	10757.10
488.39	10658.80
488.57	10785.19
488.75	10883.49
488.92	10871.79
489.10	11000.52
489.28	11108.18
489.46	10916.26
489.64	10923.28
489.81	11337.56
489.99	11398.41
490.17	11227.55
490.35	11557.57
490.53	11679.27
490.70	11857.15
490.88	11768.21
491.06	11761.19
491.24	11772.89
491.41	11929.71
491.59	11896.94
491.77	12123.98
491.95	12175.47
492.13	12266.75
492.30	12336.96
492.48	12252.70
492.66	12514.84
492.84	12510.16
493.01	12535.91
493.19	12627.19
493.37	12781.67
493.54	12821.45
493.72	12732.51
493.90	12739.54
494.08	12910.40
494.25	13238.07
494.43	13242.75
494.61	13256.79
494.79	13348.08
494.96	12992.31
495.14	13420.63
495.32	13584.47
495.49	13561.06
495.67	13848.95
495.85	13708.52
496.02	14043.21
496.20	13989.38
496.38	14015.13
496.55	14090.02
496.73	14314.72
496.91	14211.73
497.09	14487.92
497.26	14326.42
497.44	14644.73
497.62	14387.27
497.79	14871.76
497.97	14785.16
498.14	14609.62
498.32	15101.14
498.50	14972.41
498.67	15115.18
498.85	15330.51
499.03	15119.86
499.20	15042.62
499.38	15061.35
499.56	15374.98
499.73	15384.34
499.91	15349.23
500.08	15517.75
500.26	15417.11
500.44	15499.03
500.61	15337.53
500.79	15461.58
500.97	15719.04
501.14	16046.71
501.32	15690.95
501.49	15779.89
501.67	15999.90
501.84	15985.86
502.02	15896.92
502.20	16081.82
502.37	16137.99
502.55	16245.66
502.72	16231.62
502.90	16400.13
503.07	16173.10
503.25	16287.79
503.43	16266.72
503.60	16470.35
503.78	16851.86
503.95	16652.91
504.13	16556.95
504.30	16992.29
504.48	16805.05
504.65	16856.54
504.83	16936.12
505.01	17547.00
505.18	17006.33
505.36	17439.33
505.53	16945.48
505.71	17146.76
505.88	17455.72
506.06	17018.04
506.23	17385.50
506.41	17245.07
506.58	17404.22
506.76	17359.75
506.93	17657.00
507.11	17294.22
507.28	17668.70
507.46	17860.63
507.63	18136.81
507.81	17811.48
507.98	17947.23
508.16	17947.23
508.33	17968.29
508.50	18008.08
508.68	18003.40
508.85	18195.32
509.03	18143.83
509.20	18167.24
509.38	18363.84
509.55	18625.98
509.73	18672.79
509.90	18485.55
510.08	18700.88
510.25	18595.56
510.42	18438.74
510.60	18677.48
510.77	18820.25
510.95	18822.59
511.12	18558.11
511.30	18883.44
511.47	18956.00
511.64	18930.25
511.82	19150.26
511.99	19122.18
512.17	19204.10
512.34	19241.54
512.51	19131.54
512.69	19222.82
512.86	19051.96
513.04	19316.44
513.21	19716.67
513.38	20002.22
513.56	19913.28
513.73	19594.96
513.90	19545.81
514.08	19239.20
514.25	19988.18
514.43	19983.49
514.60	20056.05
514.77	19826.68
514.95	20067.75
515.12	19779.87
515.29	19836.04
515.47	19936.68
515.64	20229.25
515.81	20049.03
515.99	20444.58
516.16	20503.09
516.33	20210.53
516.51	20510.11
516.68	20439.90
516.85	20467.98
517.03	20339.26
517.20	20592.03
517.37	20346.28
517.54	20556.93
517.72	20631.82
517.89	20816.72
518.06	20739.49
518.24	20737.15
518.41	20702.04
518.58	20917.37
518.75	20823.75
518.93	21064.82
519.10	21010.99
519.27	21076.52
519.45	21364.41
519.62	21135.04
519.79	21095.25
519.96	21324.62
520.14	21249.72
520.31	21238.02
520.48	21369.09
520.65	21542.29
520.83	21575.06
521.00	21476.76
521.17	21549.31
521.34	21593.78
521.52	21495.48
521.69	21638.25
521.86	21785.71
522.03	21797.41
522.20	22012.74
522.38	21905.07
522.55	22122.74
522.72	21834.86
522.89	22054.87
523.07	22066.57
523.24	22223.39
523.41	22286.58
523.58	21837.20
523.75	22670.43
523.92	22057.21
524.10	22150.83
524.27	22380.20
524.44	22506.59
524.61	22579.15
524.78	22441.06
524.96	22883.42
525.13	22656.39
525.30	22998.10
525.47	22794.48
525.64	22693.83
525.81	22824.90
525.98	23171.30
526.16	22817.88
526.33	22677.45
526.50	22941.93
526.67	22679.79
526.84	22958.31
527.01	22845.97
527.18	22946.61
527.36	23166.62
527.53	23339.82
527.70	23414.72
527.87	23410.04
528.04	23421.74
528.21	23482.59
528.38	23480.25
528.55	23758.78
528.72	23620.69
528.89	23606.64
529.07	23419.40
529.24	23737.71
529.41	23477.91
529.58	23730.69
529.75	23728.35
529.92	23662.82
530.09	23398.34
530.26	23716.65
530.43	24020.92
530.60	23674.52
530.77	23751.76
530.94	23875.80
531.11	23709.63
531.28	23730.69
531.46	23934.32
531.63	24170.71
531.80	24102.84
531.97	24299.44
532.14	24376.68
532.31	23662.82
532.48	24233.91
532.65	24156.67
532.82	24372.00
532.99	24463.28
533.16	24238.59
533.33	24561.58
533.50	24671.59
533.67	24491.37
533.84	24334.55
534.01	24556.90
534.18	24278.38
534.35	25020.33
534.52	24596.69
534.69	24620.10
534.86	24486.68
535.03	24805.00
535.20	24889.26
535.37	24903.30
535.54	25104.59
535.71	24891.60
535.88	24779.25
536.05	24636.48
536.22	25055.43
536.38	25345.66
536.55	25102.25
536.72	25125.65
536.89	25174.80
537.06	25544.61
537.23	24966.49
537.40	25095.22
537.57	25191.19
537.74	25376.09
537.91	25771.64
538.08	25315.23
538.25	25357.36
538.42	25240.34
538.59	25385.45
538.75	25619.50
538.92	25305.87
539.09	25268.42
539.26	25666.31
539.43	25621.84
539.60	25600.78
539.77	25876.96
539.94	25893.35
540.11	25649.93
540.28	25883.98
540.44	25722.49
540.61	25916.75
540.78	25729.51
540.95	25764.62
541.12	25792.70
541.29	25898.03
541.46	25811.43
541.62	25977.61
541.79	25949.52
541.96	25748.23
542.13	25523.54
542.30	26068.89
542.47	26225.70
542.63	26139.10
542.80	26204.64
542.97	26691.47
543.14	26850.63
543.31	26326.35
543.48	26499.55
543.64	26616.57
543.81	26754.66
543.98	26740.62
544.15	26771.05
544.32	26848.29
544.48	26740.62
544.65	26490.18
544.82	26855.31
544.99	26356.77
545.16	26862.33
545.32	26710.19
545.49	26621.25
545.66	26852.97
545.83	27152.55
546.00	26913.82
546.16	26675.09
546.33	26965.31
546.50	26621.25
546.67	27173.62
546.83	26752.32
547.00	27077.66
547.17	27201.71
547.34	27119.79
547.50	27307.03
547.67	27241.50
547.84	27110.43
548.00	26974.67
548.17	27250.86
548.34	27449.80
548.51	27440.44
548.67	27393.63
548.84	27477.89
549.01	27297.67
549.18	27405.33
549.34	27573.85
549.51	27480.23
549.68	27587.89
549.84	27529.38
550.01	27463.85
550.18	27178.30
550.34	27311.71
550.51	27634.71
550.68	27505.98
550.84	27597.26
551.01	27803.22
551.18	28063.02
551.34	27686.20
551.51	27398.31
551.68	27686.20
551.84	27992.81
552.01	27810.25
552.18	27967.06
552.34	27854.72
552.51	27985.79
552.68	27424.06
552.84	27524.70
553.01	28409.42
553.18	28020.89
553.34	27950.68
553.51	27990.47
553.67	27964.72
553.84	28311.12
554.01	28140.26
554.17	28196.43
554.34	28474.96
554.51	27971.74
554.67	28320.48
554.84	28170.69
555.00	28252.61
555.17	28137.92
555.33	28114.52
555.50	28371.97
555.67	28308.78
555.83	28748.80
556.00	28383.68
556.16	28950.09
556.33	28556.88
556.50	28369.63
556.66	28589.64
556.83	28519.43
556.99	28713.69
557.16	28519.43
557.32	28613.05
557.49	28905.62
557.65	28697.31
557.82	28584.96
557.98	28816.68
558.15	28404.74
558.32	28739.44
558.48	28720.71
558.65	29376.06
558.81	28985.19
558.98	28844.76
559.14	28879.87
559.31	28648.16
559.47	28898.59
559.64	28954.77
559.80	29282.44
559.97	29111.58
560.13	28615.39
560.30	28861.15
560.46	28821.36
560.63	29039.03
560.79	29050.73
560.96	28811.99
561.12	29013.28
561.29	29109.24
561.45	28926.68
561.61	29263.72
561.78	28924.34
561.94	29008.60
562.11	28950.09
562.27	29254.36
562.44	28980.51
562.60	28943.06
562.77	28849.44
562.93	29165.42
563.10	29263.72
563.26	29153.71
563.42	29074.13
563.59	29256.70
563.75	29130.31
563.92	29060.09
564.08	29032.00
564.24	28844.76
564.41	28769.86
564.57	29408.83
564.74	28779.23
564.90	28945.41
565.07	29453.30
565.23	29294.14
565.39	29443.94
565.56	29954.18
565.72	29221.59
565.88	29212.23
566.05	29163.08
566.21	29097.54
566.38	29692.04
566.54	29450.96
566.70	29734.17
566.87	29692.04
567.03	29802.04
567.19	29575.01
567.36	29366.70
567.52	29364.36
567.68	29558.63
567.85	29717.78
568.01	29677.99
568.17	29181.80
568.34	29696.72
568.50	29649.91
568.66	29799.70
568.83	29687.36
568.99	29589.05
569.15	29247.33
569.32	29659.27
569.48	29120.95
569.64	29586.71
569.81	29635.86
569.97	29570.33
570.13	29640.54
570.30	29804.38
570.46	29275.42
570.62	29743.53
570.78	29408.83
570.95	29340.96
571.11	29408.83
571.27	29390.11
571.43	29507.13
571.60	29521.18
571.76	29640.54
571.92	29872.26
572.09	29376.06
572.25	29825.45
572.41	29881.62
572.57	29844.17
572.74	30155.46
572.90	29876.94
573.06	29593.73
573.22	29504.79
573.38	29640.54
573.55	29951.84
573.71	30127.38
573.87	29912.05
574.03	29687.36
574.20	29656.93
574.36	29940.13
574.52	29759.91
574.68	30024.39
574.84	29876.94
575.01	29954.18
575.17	29848.85
575.33	29715.44
575.49	29788.00
575.65	30045.46
575.82	29970.56
575.98	30043.12
576.14	29888.64
576.30	29717.78
576.46	29780.98
576.62	29795.02
576.79	29743.53
576.95	29486.07
577.11	30331.00
577.27	29755.23
577.43	30078.22
577.59	29834.81
577.75	29785.66
577.92	29511.81
578.08	29860.55
578.24	29701.40
578.40	29972.90
578.56	30047.80
578.72	30265.47
578.88	29886.30
579.04	30162.48
579.21	29862.90
579.37	29902.68
579.53	30213.98
579.69	29694.38
579.85	29589.05
580.01	29898.00
580.17	29694.38
580.33	29886.30
580.49	29827.79
580.65	29874.60
580.82	30340.36
580.98	30071.20
581.14	29998.65
581.30	30333.34
581.46	29869.92
581.62	29860.55
581.78	30052.48
581.94	30115.67
582.10	29860.55
582.26	29883.96
582.42	30221.00
582.58	30110.99
582.74	30256.11
582.90	30064.18
583.06	30375.47
583.22	29867.58
583.38	29802.04
583.54	29984.60
583.70	30141.42
583.86	30110.99
584.02	29993.97
584.18	29855.87
584.34	30185.89
584.50	30286.53
584.66	30096.95
584.82	29907.37
584.98	30036.09
585.14	30019.71
585.30	29802.04
585.46	30003.33
585.62	29783.32
585.78	30155.46
585.94	30199.93
586.10	30143.76
586.26	29942.47
586.42	30398.88
586.58	30176.53
586.74	30120.35
586.90	30008.01
587.06	29890.98
587.22	30195.25
587.38	29776.30
587.54	30272.49
587.70	30572.08
587.86	29963.54
588.02	30263.13
588.18	30572.08
588.34	30433.99
588.49	30052.48
588.65	29928.43
588.81	30094.61
588.97	30171.85
589.13	30068.86
589.29	29989.28
589.45	30298.23
589.61	30328.66
589.77	30389.52
589.93	30497.18
590.08	30590.80
590.24	30244.40
590.40	30216.32
590.56	30302.92
590.72	29996.31
590.88	30075.88
591.04	30223.34
591.20	30642.29
591.35	30960.61
591.51	30857.62
591.67	30909.11
591.83	30796.77
591.99	30700.81
