SpectraSuite Data File
++++++++++++++++++++++++++++++++++++
Date: Fri Oct 18 13:58:20 GMT-05:00 2013
User: bianchi
Dark Spectrum Present: No
Reference Spectrum Present: No
Number of Sampled Component Spectra: 1
Spectrometers: USB2+H05261
Integration Time (usec): 50000 (USB2+H05261)
Spectra Averaged: 1 (USB2+H05261)
Boxcar Smoothing: 0 (USB2+H05261)
Correct for Electrical Dark: No (USB2+H05261)
Strobe/Lamp Enabled: No (USB2+H05261)
Correct for Detector Non-linearity: No (USB2+H05261)
Correct for Stray Light: No (USB2+H05261)
Number of Pixels in Processed Spectrum: 2048
>>>>>Begin Processed Spectral Data<<<<<
365.73	0.00
365.92	0.00
366.12	0.00
366.32	0.00
366.52	0.00
366.72	0.00
366.91	0.00
367.11	0.00
367.31	0.00
367.51	0.00
367.70	0.00
367.90	0.00
368.10	0.00
368.30	0.00
368.49	0.00
368.69	0.00
368.89	0.00
369.09	0.00
369.28	0.00
369.48	0.00
369.68	0.00
369.87	0.00
370.07	0.00
370.27	0.00
370.47	0.00
370.66	18.72
370.86	107.66
371.06	65.54
371.25	168.52
371.45	145.11
371.65	98.30
371.84	198.95
372.04	170.86
372.24	140.43
372.44	142.77
372.63	173.20
372.83	135.75
373.03	257.46
373.22	231.71
373.42	262.14
373.62	264.48
373.81	241.08
374.01	182.56
374.21	234.05
374.40	198.95
374.60	220.01
374.79	210.65
374.99	292.57
375.19	266.82
375.38	271.50
375.58	365.12
375.78	229.37
375.97	236.39
376.17	322.99
376.37	271.50
376.56	220.01
376.76	159.16
376.95	220.01
377.15	276.18
377.35	325.33
377.54	201.29
377.74	262.14
377.93	252.78
378.13	227.03
378.33	259.80
378.52	313.63
378.72	208.31
378.91	301.93
379.11	322.99
379.31	346.40
379.50	360.44
379.70	283.20
379.89	241.08
380.09	301.93
380.28	327.68
380.48	283.20
380.68	229.37
380.87	290.23
381.07	327.68
381.26	318.31
381.46	353.42
381.65	325.33
381.85	290.23
382.04	376.83
382.24	393.21
382.43	290.23
382.63	330.02
382.83	362.78
383.02	353.42
383.22	379.17
383.41	325.33
383.61	435.34
383.80	372.15
384.00	376.83
384.19	320.65
384.39	299.59
384.58	322.99
384.78	379.17
384.97	355.76
385.17	320.65
385.36	367.46
385.56	425.98
385.75	376.83
385.95	344.06
386.14	341.72
386.34	367.46
386.53	433.00
386.72	330.02
386.92	409.59
387.11	444.70
387.31	463.43
387.50	414.27
387.70	402.57
387.89	372.15
388.09	489.17
388.28	461.09
388.48	409.59
388.67	390.87
388.86	421.30
389.06	493.85
389.25	498.53
389.45	435.34
389.64	400.23
389.84	428.32
390.03	421.30
390.22	465.77
390.42	440.02
390.61	451.72
390.81	404.91
391.00	524.28
391.19	463.43
391.39	568.75
391.58	559.39
391.78	524.28
391.97	538.32
392.16	524.28
392.36	580.45
392.55	575.77
392.75	601.52
392.94	496.19
393.13	547.69
393.33	524.28
393.52	500.87
393.71	547.69
393.91	571.09
394.10	561.73
394.29	599.18
394.49	559.39
394.68	636.63
394.88	564.07
395.07	617.90
395.26	648.33
395.46	566.41
395.65	631.94
395.84	669.39
396.04	713.86
396.23	578.11
396.42	648.33
396.62	669.39
396.81	620.24
397.00	648.33
397.19	660.03
397.39	645.99
397.58	695.14
397.77	643.65
397.97	653.01
398.16	741.95
398.35	830.89
398.55	653.01
398.74	678.76
398.93	748.97
399.12	716.20
399.32	662.37
399.51	713.86
399.70	800.46
399.90	748.97
400.09	786.42
400.28	870.68
400.47	751.31
400.67	713.86
400.86	779.40
401.05	793.44
401.24	802.80
401.44	798.12
401.63	861.32
401.82	882.38
402.01	763.01
402.21	802.80
402.40	809.83
402.59	763.01
402.78	802.80
402.97	734.93
403.17	915.15
403.36	856.64
403.55	826.21
403.74	894.08
403.93	866.00
404.13	952.60
404.32	826.21
404.51	915.15
404.70	917.49
404.89	894.08
405.09	959.62
405.28	943.24
405.47	917.49
405.66	922.17
405.85	919.83
406.05	875.36
406.24	1064.94
406.43	945.58
406.62	924.51
406.81	1097.71
407.00	891.74
407.20	947.92
407.39	1050.90
407.58	1011.11
407.77	1015.79
407.96	1008.77
408.15	1064.94
408.34	1081.33
408.54	1067.28
408.73	1078.99
408.92	1116.44
409.11	1233.46
409.30	1057.92
409.49	1137.50
409.68	1193.67
409.87	1104.73
410.07	1221.76
410.26	1107.07
410.45	1191.33
410.64	1174.95
410.83	1193.67
411.02	1242.82
411.21	1263.89
411.40	1289.64
411.59	1287.29
411.78	1233.46
411.98	1240.48
412.17	1238.14
412.36	1313.04
412.55	1322.40
412.74	1362.19
412.93	1273.25
413.12	1392.62
413.31	1378.58
413.50	1338.79
413.69	1378.58
413.88	1331.76
414.07	1437.09
414.26	1455.81
414.45	1324.74
414.64	1476.88
414.83	1528.37
415.02	1448.79
415.22	1563.48
415.41	1591.56
415.60	1521.35
415.79	1530.71
415.98	1570.50
416.17	1474.54
416.36	1582.20
416.55	1586.88
416.74	1619.65
416.93	1607.95
417.12	1743.70
417.31	1696.89
417.50	1680.50
417.69	1792.85
417.88	1753.06
418.07	1694.55
418.26	1727.32
418.45	1753.06
418.64	1710.93
418.83	1781.15
419.02	1830.30
419.21	1764.76
419.39	1834.98
419.58	1837.32
419.77	1849.02
419.96	1935.62
420.15	1912.22
420.34	1874.77
420.53	1818.60
420.72	1907.54
420.91	1879.45
421.10	1975.41
421.29	2029.24
421.48	1895.83
421.67	1935.62
421.86	1975.41
422.05	1900.52
422.24	1940.30
422.43	1947.33
422.61	2019.88
422.80	2045.63
422.99	2005.84
423.18	2069.03
423.37	1963.71
423.56	2029.24
423.75	2136.91
423.94	2008.18
424.13	1820.94
424.32	1909.88
424.50	1977.75
424.69	2031.58
424.88	2062.01
425.07	1959.03
425.26	1940.30
425.45	2054.99
425.64	2083.08
425.83	2017.54
426.01	2050.31
426.20	2043.29
426.39	2029.24
426.58	2101.80
426.77	2153.29
426.96	2129.89
427.15	2108.82
427.33	2033.93
427.52	2141.59
427.71	2141.59
427.90	2097.12
428.09	2209.47
428.28	2181.38
428.46	2197.76
428.65	2277.34
428.84	2237.55
429.03	2176.70
429.22	2120.53
429.40	2244.57
429.59	2256.28
429.78	2223.51
429.97	2167.34
430.16	2253.94
430.34	2242.23
430.53	2347.56
430.72	2314.79
430.91	2235.21
431.10	2265.64
431.28	2319.47
431.47	2377.98
431.66	2363.94
431.85	2300.75
432.03	2349.90
432.22	2466.92
432.41	2504.37
432.60	2427.14
432.79	2452.88
432.97	2457.56
433.16	2473.95
433.35	2485.65
433.54	2459.90
433.72	2520.76
433.91	2649.49
434.10	2572.25
434.28	2434.16
434.47	2583.95
434.66	2562.89
434.85	2616.72
435.03	2583.95
435.22	2600.34
435.41	2724.38
435.59	2548.84
435.78	2525.44
435.97	2656.51
436.16	2731.41
436.34	2708.00
436.53	2670.55
436.72	2775.88
436.90	2733.75
437.09	2848.43
437.28	2654.17
437.46	2715.02
437.65	2768.85
437.84	2745.45
438.02	2810.98
438.21	2836.73
438.40	2703.32
438.58	3016.95
438.77	2785.24
438.96	2822.69
439.14	2939.71
439.33	2956.10
439.52	2972.48
439.70	2904.60
439.89	2935.03
440.08	2897.58
440.26	3136.32
440.45	3077.80
440.63	3033.33
440.82	3023.97
441.01	3171.43
441.19	3091.85
441.38	3183.13
441.57	3070.78
441.75	3171.43
441.94	3323.56
442.12	3190.15
442.31	3260.37
442.50	3351.65
442.68	3389.10
442.87	3297.81
443.05	3323.56
443.24	3435.91
443.43	3405.48
443.61	3496.76
443.80	3421.86
443.98	3382.07
444.17	3311.86
444.35	3431.23
444.54	3489.74
444.73	3520.17
444.91	3398.46
445.10	3463.99
445.28	3534.21
445.47	3396.12
445.65	3438.25
445.84	3524.85
446.02	3508.46
446.21	3496.76
446.39	3496.76
446.58	3447.61
446.77	3620.81
446.95	3419.52
447.14	3398.46
447.32	3604.42
447.51	3391.44
447.69	3433.57
447.88	3555.27
448.06	3590.38
448.25	3426.54
448.43	3531.87
448.62	3566.98
448.80	3468.67
448.99	3545.91
449.17	3538.89
449.36	3447.61
449.54	3588.04
449.73	3672.30
449.91	3744.86
450.10	3653.58
450.28	3693.37
450.46	3574.00
450.65	3674.64
450.83	3707.41
451.02	3616.13
451.20	3751.88
451.39	3866.56
451.57	3866.56
451.76	3758.90
451.94	3850.18
452.13	3882.95
452.31	3768.26
452.49	3789.33
452.68	3934.44
452.86	3838.48
453.05	3742.52
453.23	3932.10
453.42	3815.07
453.60	3899.33
453.78	3983.59
453.97	3922.74
454.15	3943.80
454.34	4018.70
454.52	4105.30
454.70	3932.10
454.89	4107.64
455.07	4011.68
455.26	4095.94
455.44	4124.02
455.62	3990.61
455.81	4107.64
455.99	4140.41
456.17	4098.28
456.36	4177.86
456.54	4198.92
456.73	4283.18
456.91	4292.54
457.09	4290.20
457.28	4404.89
457.46	4212.96
457.64	4257.43
457.83	4355.74
458.01	4243.39
458.19	4472.76
458.38	4447.02
458.56	4369.78
458.74	4376.80
458.93	4540.64
459.11	4381.48
459.29	4472.76
459.48	4498.51
459.66	4414.25
459.84	4486.81
460.03	4519.57
460.21	4585.11
460.39	4578.09
460.57	4437.66
460.76	4498.51
460.94	4580.43
461.12	4638.94
461.31	4636.60
461.49	4779.37
461.67	4449.36
461.85	4755.97
462.04	4720.86
462.22	4844.91
462.40	4676.39
462.59	4777.03
462.77	4669.37
462.95	4685.75
463.13	4800.44
463.32	4741.93
463.50	4966.62
463.68	4983.00
463.86	4800.44
464.05	4833.21
464.23	4887.04
464.41	4898.74
464.59	4774.69
464.78	4968.96
464.96	4997.04
465.14	4938.53
465.32	4896.40
465.50	4978.32
465.69	5027.47
465.87	4938.53
466.05	4975.98
466.23	5018.11
466.41	5135.14
466.60	5282.59
466.78	4851.93
466.96	5011.09
467.14	5158.54
467.32	5036.83
467.51	5195.99
467.69	5046.20
467.87	5146.84
468.05	5184.29
468.23	5149.18
468.41	4959.60
468.60	5149.18
468.78	5338.76
468.96	5081.30
469.14	5378.55
469.32	5247.48
469.50	5277.91
469.69	5317.70
469.87	5416.00
470.05	5392.59
470.23	5385.57
470.41	5556.43
470.59	5619.63
470.77	5500.26
470.95	5387.91
471.14	5416.00
471.32	5320.04
471.50	5462.81
471.68	5558.77
471.86	5654.73
472.04	5596.22
472.22	5764.74
472.40	5596.22
472.58	5533.03
472.77	5729.63
472.95	5518.98
473.13	5970.71
473.31	5736.65
473.49	5781.12
473.67	5923.90
473.85	5942.62
474.03	6015.18
474.21	6052.63
474.39	5888.79
474.57	6141.57
474.75	6012.84
474.93	6064.33
475.12	6188.38
475.30	6230.51
475.48	6069.01
475.66	6375.62
475.84	6368.60
476.02	6265.61
476.20	6492.65
476.38	6352.21
476.56	6392.00
476.74	6569.88
476.92	6487.96
477.10	6670.53
477.28	6567.54
477.46	6649.46
477.64	6609.67
477.82	6834.36
478.00	6949.05
478.18	6848.41
478.36	6906.92
478.54	7040.33
478.72	7103.53
478.90	7164.38
479.08	7162.04
479.26	7162.04
479.44	7236.94
479.62	7316.51
479.80	7368.01
479.98	7372.69
480.16	7653.55
480.34	7229.91
480.52	7714.41
480.70	7501.42
480.88	7527.16
481.06	7791.64
481.24	7499.08
481.41	7779.94
481.59	7934.42
481.77	8210.60
481.95	8006.97
482.13	7936.76
482.31	8250.39
482.49	8294.86
482.67	8297.20
482.85	8432.95
483.03	8407.20
483.21	8533.59
483.39	8486.78
483.57	8439.97
483.74	8650.62
483.92	8840.20
484.10	8662.32
484.28	8915.10
484.46	8877.65
484.64	9277.88
484.82	8975.95
485.00	9029.79
485.18	9301.29
485.35	9415.98
485.53	9385.55
485.71	9504.92
485.89	9577.47
486.07	9331.72
486.25	9518.96
486.43	9645.35
486.61	9575.13
486.78	9863.02
486.96	9802.16
487.14	10155.58
487.32	10167.29
487.50	10122.82
487.68	10221.12
487.85	10293.68
488.03	10462.19
488.21	10654.12
488.39	10729.02
488.57	10452.83
488.75	10810.93
488.92	10839.02
489.10	10836.68
489.28	10927.96
489.46	10986.47
489.64	11192.44
489.81	11398.41
489.99	11129.25
490.17	11272.02
490.35	11473.31
490.53	11817.36
490.70	11758.85
490.88	11545.86
491.06	11864.18
491.24	11712.04
491.41	11894.60
491.59	11922.69
491.77	12051.42
491.95	12013.97
492.13	12496.12
492.30	12259.73
492.48	12264.41
492.66	12430.59
492.84	12411.86
493.01	12418.88
493.19	12290.15
493.37	12636.55
493.54	12755.92
493.72	12716.13
493.90	13036.78
494.08	13001.68
494.25	13139.77
494.43	13097.64
494.61	13233.39
494.79	13123.38
494.96	13160.83
495.14	13315.31
495.32	13572.77
495.49	13458.08
495.67	13444.04
495.85	13834.91
496.02	13944.91
496.20	13645.32
496.38	13839.59
496.55	13830.23
496.73	14253.86
496.91	14265.57
497.09	14221.10
497.26	14307.69
497.44	14338.12
497.62	14424.72
497.79	14567.49
497.97	14361.53
498.14	14710.27
498.32	14820.27
498.50	14824.95
498.67	14766.44
498.85	15178.37
499.03	15014.54
499.20	14944.32
499.38	15005.17
499.56	15225.18
499.73	15213.48
499.91	15412.43
500.08	15552.86
500.26	15283.70
500.44	15309.44
500.61	15555.20
500.79	15634.78
500.97	15627.76
501.14	15772.87
501.32	15894.58
501.49	15812.66
501.67	15594.99
501.84	15840.75
502.02	16163.74
502.20	16044.37
502.37	16166.08
502.55	15925.00
502.72	16126.29
502.90	16182.46
503.07	16229.27
503.25	16287.79
503.43	16416.52
503.60	16269.06
503.78	16533.54
503.95	16500.78
504.13	16575.67
504.30	16868.24
504.48	16807.39
504.65	17025.06
504.83	16739.51
505.01	17205.28
505.18	16877.60
505.36	16957.18
505.53	16985.27
505.71	17181.87
505.88	17228.68
506.06	17158.47
506.23	17310.60
506.41	17151.45
506.58	17343.37
506.76	17561.04
506.93	17436.99
507.11	17249.75
507.28	17570.40
507.46	17774.03
507.63	17806.80
507.81	17696.79
507.98	17811.48
508.16	17823.18
508.33	17912.12
508.50	17902.76
508.68	17951.91
508.85	18338.10
509.03	18253.84
509.20	18340.44
509.38	18420.02
509.55	18494.91
509.73	18345.12
509.90	18415.34
510.08	18003.40
510.25	18450.44
510.42	18621.30
510.60	18649.39
510.77	18843.65
510.95	18642.37
511.12	18569.81
511.30	18562.79
511.47	18948.98
511.64	19239.20
511.82	19019.19
511.99	19089.41
512.17	19286.01
512.34	18998.13
512.51	19143.24
512.69	19136.22
512.86	19286.01
513.04	19267.29
513.21	19372.61
513.38	19271.97
513.56	19239.20
513.73	19321.12
513.90	19482.62
514.08	19456.87
514.25	19559.86
514.43	19829.02
514.60	19784.55
514.77	19644.12
514.95	19983.49
515.12	19499.00
515.29	20011.58
515.47	20018.60
515.64	20247.97
515.81	20306.49
515.99	20290.10
516.16	20278.40
516.33	20360.32
516.51	20493.73
516.68	19964.77
516.85	20325.21
517.03	20395.43
517.20	20688.00
517.37	20582.67
517.54	20493.73
517.72	20741.83
517.89	20526.50
518.06	20603.74
518.24	20376.70
518.41	20585.01
518.58	20755.87
518.75	20769.91
518.93	20952.48
519.10	20753.53
519.27	21090.57
519.45	20594.37
519.62	20940.77
519.79	20945.45
519.96	21139.72
520.14	21095.25
520.31	21273.13
520.48	21406.54
520.65	20900.98
520.83	21298.88
521.00	21366.75
521.17	21312.92
521.34	21120.99
521.52	21326.96
521.69	21460.37
521.86	21617.19
522.03	21830.18
522.20	21905.07
522.38	21535.27
522.55	21916.78
522.72	22057.21
522.89	22171.89
523.07	21898.05
523.24	21923.80
523.41	22305.31
523.58	21933.16
523.75	22267.86
523.92	22143.81
524.10	21968.27
524.27	22324.03
524.44	22319.35
524.61	22380.20
524.78	22256.15
524.96	22483.19
525.13	22553.40
525.30	22305.31
525.47	22459.78
525.64	22373.18
525.81	22698.52
525.98	22855.33
526.16	22574.47
526.33	22740.64
526.50	22813.20
526.67	22733.62
526.84	23164.28
527.01	22522.98
527.18	22815.54
527.36	23019.17
527.53	23119.81
527.70	23215.77
527.87	23201.73
528.04	23187.69
528.21	22913.84
528.38	23030.87
528.55	23274.29
528.72	23105.77
528.89	23358.55
529.07	23229.82
529.24	23435.78
529.41	23330.46
529.58	23714.31
529.75	23648.77
529.92	23630.05
530.09	23711.97
530.26	23700.26
530.43	23821.97
530.60	23740.05
530.77	23634.73
530.94	23379.61
531.11	23564.51
531.28	23756.44
531.46	23543.45
531.63	23770.48
531.80	23838.36
531.97	24046.66
532.14	24489.03
532.31	24250.29
532.48	24313.48
532.65	23981.13
532.82	23648.77
532.99	24233.91
533.16	24154.33
533.33	23967.09
533.50	24554.56
533.67	24446.90
533.84	24397.74
534.01	24053.69
534.18	24470.30
534.35	24797.98
534.52	24449.24
534.69	25151.40
534.86	24781.59
535.03	24418.81
535.20	24620.10
535.37	24694.99
535.54	24795.64
535.71	24278.38
535.88	24664.57
536.05	24900.96
536.22	25055.43
536.38	25207.57
536.55	24971.18
536.72	24840.11
536.89	24849.47
537.06	24996.92
537.23	25116.29
537.40	24507.75
537.57	25188.85
537.74	25422.90
537.91	25202.89
538.08	25549.29
538.25	25092.88
538.42	25324.60
538.59	25326.94
538.75	25226.29
538.92	25359.70
539.09	25614.82
539.26	25345.66
539.43	25301.19
539.60	25270.76
539.77	25282.47
539.94	25921.43
540.11	25560.99
540.28	25645.25
540.44	25530.56
540.61	25617.16
540.78	25537.59
540.95	25720.15
541.12	25649.93
541.29	26284.22
541.46	25846.54
541.62	25647.59
541.79	25743.55
541.96	25392.47
542.13	25820.79
542.30	25954.20
542.47	26202.30
542.63	25982.29
542.80	25862.92
542.97	26431.67
543.14	26352.09
543.31	26288.90
543.48	25928.45
543.64	26501.89
543.81	26202.30
543.98	26366.13
544.15	26700.83
544.32	26518.27
544.48	26576.78
544.65	26726.58
544.82	26553.38
544.99	26115.70
545.16	26520.61
545.32	26621.25
545.49	26808.50
545.66	26541.68
545.83	27051.91
546.00	26885.73
546.16	26883.39
546.33	26539.33
546.50	26600.19
546.67	27005.10
546.83	26745.30
547.00	26679.77
547.17	26892.76
547.34	26960.63
547.50	27339.80
547.67	27175.96
547.84	26841.26
548.00	27292.99
548.17	26902.12
548.34	27229.79
548.51	27227.45
548.67	27491.93
548.84	27026.17
549.01	27393.63
549.18	27332.78
549.34	26867.01
549.51	27304.69
549.68	27271.92
549.84	27110.43
550.01	27211.07
550.18	27201.71
550.34	27491.93
550.51	27503.64
550.68	27711.94
550.84	27257.88
551.01	27707.26
551.18	27564.49
551.34	26991.06
551.51	27199.37
551.68	27725.99
551.84	27749.39
552.01	27442.78
552.18	27740.03
552.34	27321.07
552.51	28002.17
552.68	27718.96
552.84	28102.81
553.01	27550.45
553.18	27854.72
553.34	27887.48
553.51	27374.91
553.67	27889.82
553.84	28187.07
554.01	28187.07
554.17	28163.67
554.34	27953.02
554.51	27910.89
554.67	27587.89
554.84	28189.41
555.00	28116.86
555.17	28175.37
555.33	28058.34
555.50	28142.60
555.67	27639.39
555.83	28545.17
556.00	28072.39
556.16	28301.76
556.33	27871.10
556.50	28105.15
556.66	28271.33
556.83	28250.27
556.99	28638.80
557.16	28393.04
557.32	28634.11
557.49	28554.54
557.65	28184.73
557.82	28477.30
557.98	28456.23
558.15	28535.81
558.32	28360.27
558.48	28531.13
558.65	28758.16
558.81	28439.85
558.98	28732.42
559.14	28655.18
559.31	28587.30
559.47	28540.49
559.64	28444.53
559.80	28837.74
559.97	28872.85
560.13	28872.85
560.30	28531.13
560.46	28858.81
560.63	28687.95
560.79	29104.56
560.96	29235.63
561.12	28634.11
561.29	29109.24
561.45	28947.75
561.61	29191.16
561.78	28809.65
561.94	29205.20
562.11	29043.71
562.27	28910.30
562.44	28783.91
562.60	28772.21
562.77	28584.96
562.93	28720.71
563.10	28947.75
563.26	28943.06
563.42	29235.63
563.59	29193.50
563.75	29364.36
563.92	29331.59
564.08	28851.78
564.24	29050.73
564.41	28800.29
564.57	28823.70
564.74	28418.78
564.90	29495.43
565.07	29146.69
565.23	29024.98
565.39	29149.03
565.56	29085.84
565.72	28964.13
565.88	29191.16
566.05	28882.21
566.21	28868.17
566.38	29252.02
566.54	29322.23
566.70	29301.17
566.87	29193.50
567.03	29411.17
567.19	29743.53
567.36	29467.34
567.52	29179.46
567.68	29530.54
567.85	29408.83
568.01	29474.37
568.17	29380.74
568.34	29455.64
568.50	29151.37
568.66	29266.06
568.83	29759.91
568.99	29422.87
569.15	29214.57
569.32	29132.65
569.48	29441.60
569.64	29270.74
569.81	29514.16
569.97	29345.64
570.13	29661.61
570.30	29301.17
570.46	29645.23
570.62	29542.24
570.78	29371.38
570.95	29259.04
571.11	29223.93
571.27	29345.64
571.43	29198.18
571.60	29408.83
571.76	29420.53
571.92	29766.93
572.09	29675.65
572.25	29380.74
572.41	29649.91
572.57	29315.21
572.74	29687.36
572.90	29303.51
573.06	29273.08
573.22	29490.75
573.38	29340.96
573.55	29530.54
573.71	29493.09
573.87	29617.14
574.03	29584.37
574.20	29287.12
574.36	29355.00
574.52	29687.36
574.68	29291.80
574.84	29333.93
575.01	29738.85
575.17	29563.31
575.33	29689.70
575.49	29570.33
575.65	29535.22
575.82	29486.07
575.98	29685.01
576.14	29724.80
576.30	29474.37
576.46	29780.98
576.62	29582.03
576.79	29682.67
576.95	29663.95
577.11	29591.39
577.27	29486.07
577.43	29570.33
577.59	29898.00
577.75	29429.90
577.92	29858.21
578.08	29886.30
578.24	29986.94
578.40	29813.74
578.56	29780.98
578.72	29937.79
578.88	30153.12
579.04	30008.01
579.21	29565.65
579.37	29649.91
579.53	30036.09
579.69	29771.61
579.85	29687.36
580.01	29954.18
580.17	29778.64
580.33	29827.79
580.49	30143.76
580.65	29958.86
580.82	30272.49
580.98	29727.14
581.14	30005.67
581.30	30110.99
581.46	29673.31
581.62	29521.18
581.78	29631.18
581.94	30050.14
582.10	29769.27
582.26	29813.74
582.42	29900.34
582.58	29823.11
582.74	29956.52
582.90	29839.49
583.06	30195.25
583.22	29757.57
583.38	30354.41
583.54	29809.06
583.70	29759.91
583.86	30096.95
584.02	29780.98
584.18	29792.68
584.34	30558.03
584.50	30153.12
584.66	29839.49
584.82	29654.59
584.98	29795.02
585.14	29947.15
585.30	29741.19
585.46	30040.78
585.62	29717.78
585.78	29617.14
585.94	29729.48
586.10	29905.02
586.26	30216.32
586.42	30380.15
586.58	30506.54
586.74	30106.31
586.90	29642.88
587.06	30120.35
587.22	29640.54
587.38	29521.18
587.54	30352.07
587.70	30202.27
587.86	29919.07
588.02	30108.65
588.18	30066.52
588.34	30080.56
588.49	29942.47
588.65	30066.52
588.81	30122.69
588.97	29970.56
589.13	29919.07
589.29	30415.26
589.45	30087.59
589.61	30642.29
589.77	30405.90
589.93	30204.61
590.08	30202.27
590.24	30492.50
590.40	30293.55
590.56	30298.23
590.72	29860.55
590.88	29996.31
591.04	29919.07
591.20	30075.88
591.35	30426.96
591.51	30911.46
591.67	30403.56
591.83	30471.43
591.99	30553.35
