SpectraSuite Data File
++++++++++++++++++++++++++++++++++++
Date: Fri Oct 18 13:58:03 GMT-05:00 2013
User: bianchi
Dark Spectrum Present: No
Reference Spectrum Present: No
Number of Sampled Component Spectra: 1
Spectrometers: USB2+H05261
Integration Time (usec): 50000 (USB2+H05261)
Spectra Averaged: 1 (USB2+H05261)
Boxcar Smoothing: 0 (USB2+H05261)
Correct for Electrical Dark: No (USB2+H05261)
Strobe/Lamp Enabled: No (USB2+H05261)
Correct for Detector Non-linearity: No (USB2+H05261)
Correct for Stray Light: No (USB2+H05261)
Number of Pixels in Processed Spectrum: 2048
>>>>>Begin Processed Spectral Data<<<<<
365.73	0.00
365.92	0.00
366.12	0.00
366.32	0.00
366.52	0.00
366.72	0.00
366.91	0.00
367.11	0.00
367.31	0.00
367.51	0.00
367.70	0.00
367.90	0.00
368.10	0.00
368.30	0.00
368.49	0.00
368.69	0.00
368.89	0.00
369.09	0.00
369.28	0.00
369.48	0.00
369.68	0.00
369.87	0.00
370.07	0.00
370.27	0.00
370.47	0.00
370.66	86.60
370.86	112.35
371.06	168.52
371.25	131.07
371.45	91.28
371.65	147.45
371.84	74.90
372.04	180.22
372.24	138.09
372.44	140.43
372.63	154.48
372.83	220.01
373.03	243.42
373.22	212.99
373.42	149.79
373.62	234.05
373.81	220.01
374.01	212.99
374.21	175.54
374.40	224.69
374.60	248.10
374.79	210.65
374.99	269.16
375.19	203.63
375.38	287.89
375.58	224.69
375.78	231.71
375.97	196.60
376.17	297.25
376.37	257.46
376.56	248.10
376.76	234.05
376.95	201.29
377.15	273.84
377.35	266.82
377.54	250.44
377.74	269.16
377.93	337.04
378.13	276.18
378.33	301.93
378.52	276.18
378.72	306.61
378.91	330.02
379.11	222.35
379.31	348.74
379.50	327.68
379.70	301.93
379.89	311.29
380.09	294.91
380.28	341.72
380.48	280.86
380.68	290.23
380.87	341.72
381.07	341.72
381.26	313.63
381.46	290.23
381.65	313.63
381.85	287.89
382.04	287.89
382.24	234.05
382.43	294.91
382.63	337.04
382.83	332.36
383.02	362.78
383.22	355.76
383.41	313.63
383.61	430.66
383.80	365.12
384.00	374.49
384.19	388.53
384.39	355.76
384.58	411.93
384.78	330.02
384.97	220.01
385.17	339.38
385.36	400.23
385.56	423.64
385.75	374.49
385.95	360.44
386.14	414.27
386.34	341.72
386.53	430.66
386.72	404.91
386.92	440.02
387.11	425.98
387.31	393.21
387.50	418.96
387.70	341.72
387.89	411.93
388.09	425.98
388.28	409.59
388.48	477.47
388.67	521.94
388.86	454.06
389.06	400.23
389.25	491.51
389.45	463.43
389.64	500.87
389.84	454.06
390.03	479.81
390.22	381.51
390.42	510.24
390.61	475.13
390.81	484.49
391.00	503.22
391.19	578.11
391.39	531.30
391.58	615.56
391.78	582.79
391.97	503.22
392.16	526.62
392.36	589.82
392.55	477.47
392.75	454.06
392.94	580.45
393.13	601.52
393.33	594.50
393.52	608.54
393.71	648.33
393.91	622.58
394.10	550.03
394.29	608.54
394.49	636.63
394.68	550.03
394.88	631.94
395.07	585.13
395.26	589.82
395.46	573.43
395.65	603.86
395.84	638.97
396.04	620.24
396.23	662.37
396.42	596.84
396.62	681.10
396.81	636.63
397.00	678.76
397.19	561.73
397.39	648.33
397.58	685.78
397.77	697.48
397.97	667.05
398.16	704.50
398.35	685.78
398.55	713.86
398.74	653.01
398.93	723.23
399.12	692.80
399.32	748.97
399.51	681.10
399.70	690.46
399.90	674.07
400.09	727.91
400.28	807.48
400.47	777.06
400.67	763.01
400.86	821.53
401.05	866.00
401.24	786.42
401.44	781.74
401.63	791.10
401.82	791.10
402.01	805.14
402.21	774.72
402.40	849.61
402.59	819.19
402.78	866.00
402.97	863.66
403.17	898.77
403.36	809.83
403.55	931.53
403.74	877.70
403.93	917.49
404.13	976.00
404.32	952.60
404.51	933.87
404.70	901.11
404.89	964.30
405.09	938.55
405.28	980.68
405.47	957.28
405.66	940.90
405.85	1032.18
406.05	966.64
406.24	882.38
406.43	938.55
406.62	1055.58
406.81	1046.22
407.00	987.71
407.20	1050.90
407.39	971.32
407.58	1011.11
407.77	1074.31
407.96	1025.15
408.15	1071.97
408.34	1109.41
408.54	1062.60
408.73	1111.75
408.92	1060.26
409.11	1125.80
409.30	1160.91
409.49	1139.84
409.68	1116.44
409.87	1109.41
410.07	1188.99
410.26	1224.10
410.45	1153.88
410.64	1069.62
410.83	1179.63
411.02	1132.82
411.21	1275.59
411.40	1266.23
411.59	1320.06
411.78	1198.35
411.98	1287.29
412.17	1289.64
412.36	1245.16
412.55	1350.49
412.74	1291.98
412.93	1329.42
413.12	1334.11
413.31	1369.21
413.50	1331.76
413.69	1483.90
413.88	1474.54
414.07	1390.28
414.26	1455.81
414.45	1404.32
414.64	1467.52
414.83	1493.26
415.02	1519.01
415.22	1493.26
415.41	1490.92
415.60	1511.99
415.79	1617.31
415.98	1535.39
416.17	1610.29
416.36	1603.27
416.55	1589.22
416.74	1626.67
416.93	1652.42
417.12	1605.61
417.31	1717.95
417.50	1692.21
417.69	1720.29
417.88	1689.87
418.07	1762.42
418.26	1743.70
418.45	1771.79
418.64	1823.28
418.83	1778.81
419.02	1694.55
419.21	1764.76
419.39	1710.93
419.58	1724.97
419.77	1867.75
419.96	1853.70
420.15	1909.88
420.34	1905.20
420.53	1961.37
420.72	1823.28
420.91	1858.39
421.10	1811.57
421.29	1982.43
421.48	2008.18
421.67	1860.73
421.86	1914.56
422.05	2024.56
422.24	1961.37
422.43	1909.88
422.61	1961.37
422.80	1987.11
422.99	2090.10
423.18	2022.22
423.37	2078.40
423.56	1977.75
423.75	1984.77
423.94	2050.31
424.13	1905.20
424.32	1982.43
424.50	1970.73
424.69	2040.95
424.88	2073.71
425.07	2029.24
425.26	1987.11
425.45	1987.11
425.64	2118.18
425.83	1961.37
426.01	2069.03
426.20	2101.80
426.39	2047.97
426.58	2062.01
426.77	2026.90
426.96	2012.86
427.15	2069.03
427.33	2054.99
427.52	2017.54
427.71	2260.96
427.90	2146.27
428.09	2115.84
428.28	2197.76
428.46	2150.95
428.65	2174.36
428.84	2239.89
429.03	2270.32
429.22	2094.78
429.40	2260.96
429.59	2275.00
429.78	2169.68
429.97	2181.38
430.16	2321.81
430.34	2317.13
430.53	2443.52
430.72	2286.70
430.91	2293.72
431.10	2218.83
431.28	2385.01
431.47	2340.54
431.66	2422.45
431.85	2335.85
432.03	2377.98
432.22	2544.16
432.41	2354.58
432.60	2495.01
432.79	2331.17
432.97	2438.84
433.16	2516.08
433.35	2527.78
433.54	2562.89
433.72	2541.82
433.91	2471.61
434.10	2553.52
434.28	2576.93
434.47	2565.23
434.66	2555.86
434.85	2586.29
435.03	2609.70
435.22	2572.25
435.41	2612.04
435.59	2562.89
435.78	2586.29
435.97	2609.70
436.16	2623.74
436.34	2602.68
436.53	2682.25
436.72	2733.75
436.90	2726.72
437.09	2649.49
437.28	2635.44
437.46	2803.96
437.65	2698.64
437.84	2808.64
438.02	2820.35
438.21	2827.37
438.40	2876.52
438.58	2862.48
438.77	2942.05
438.96	2787.58
439.14	2944.39
439.33	2888.22
439.52	2839.07
439.70	2979.50
439.89	2981.84
440.08	3023.97
440.26	3033.33
440.45	3005.25
440.63	3103.55
440.82	3199.51
441.01	3091.85
441.19	3164.40
441.38	3183.13
441.57	3173.77
441.75	3332.92
441.94	3353.99
442.12	3318.88
442.31	3243.98
442.50	3349.31
442.68	3316.54
442.87	3328.24
443.05	3351.65
443.24	3220.58
443.43	3440.59
443.61	3349.31
443.80	3405.48
443.98	3389.10
444.17	3199.51
444.35	3398.46
444.54	3428.88
444.73	3452.29
444.91	3414.84
445.10	3403.14
445.28	3475.70
445.47	3375.05
445.65	3559.95
445.84	3459.31
446.02	3463.99
446.21	3431.23
446.39	3449.95
446.58	3583.36
446.77	3574.00
446.95	3435.91
447.14	3524.85
447.32	3520.17
447.51	3508.46
447.69	3419.52
447.88	3506.12
448.06	3529.53
448.25	3522.51
448.43	3611.45
448.62	3552.93
448.80	3616.13
448.99	3583.36
449.17	3454.63
449.36	3550.59
449.54	3936.78
449.73	3651.24
449.91	3866.56
450.10	3676.98
450.28	3723.79
450.46	3744.86
450.65	3735.50
450.83	3747.20
451.02	3817.41
451.20	3716.77
451.39	3892.31
451.57	3763.58
451.76	3749.54
451.94	3992.95
452.13	3981.25
452.31	3801.03
452.49	3777.62
452.68	3922.74
452.86	3875.93
453.05	3843.16
453.23	3847.84
453.42	3819.75
453.60	3826.78
453.78	3927.42
453.97	3763.58
454.15	3808.05
454.34	3941.46
454.52	4035.08
454.70	3967.21
454.89	4049.13
455.07	4133.39
455.26	4077.21
455.44	4170.83
455.62	4243.39
455.81	4180.20
455.99	4102.96
456.17	4124.02
456.36	4257.43
456.54	4184.88
456.73	4208.28
456.91	4301.90
457.09	4369.78
457.28	4395.53
457.46	4372.12
457.64	4259.78
457.83	4351.06
458.01	4367.44
458.19	4491.49
458.38	4468.08
458.56	4355.74
458.74	4470.42
458.93	4585.11
459.11	4540.64
459.29	4418.93
459.48	4423.61
459.66	4428.29
459.84	4430.63
460.03	4613.20
460.21	4528.94
460.39	4491.49
460.57	4505.53
460.76	4573.41
460.94	4739.58
461.12	4582.77
461.31	4575.75
461.49	4535.96
461.67	4723.20
461.85	4753.63
462.04	4594.47
462.22	5123.43
462.40	4772.35
462.59	4835.55
462.77	4772.35
462.95	4856.61
463.13	4711.50
463.32	4891.72
463.50	4926.83
463.68	4863.63
463.86	4887.04
464.05	4798.10
464.23	4758.31
464.41	4835.55
464.59	4940.87
464.78	4938.53
464.96	4940.87
465.14	4821.50
465.32	5132.79
465.50	4903.42
465.69	5170.24
465.87	5039.17
466.05	4917.47
466.23	4903.42
466.41	5224.08
466.60	5135.14
466.78	5095.35
466.96	5139.82
467.14	5057.90
467.32	5219.39
467.51	5191.31
467.69	4945.55
467.87	5214.71
468.05	5270.89
468.23	5128.11
468.41	5064.92
468.60	5057.90
468.78	5233.44
468.96	5090.67
469.14	5252.16
469.32	5397.28
469.50	5238.12
469.69	5404.30
469.87	5493.24
470.05	5458.13
470.23	5500.26
470.41	5432.38
470.59	5556.43
470.77	5490.90
470.95	5434.72
471.14	5661.76
471.32	5497.92
471.50	5680.48
471.68	5710.91
471.86	5738.99
472.04	5816.23
472.22	5687.50
472.40	5710.91
472.58	5738.99
472.77	5729.63
472.95	5895.81
473.13	6033.90
473.31	5830.27
473.49	5795.17
473.67	5734.31
473.85	5975.39
474.03	6024.54
474.21	5996.45
474.39	6139.23
474.57	6040.92
474.75	6101.78
474.93	6134.54
475.12	6157.95
475.30	6228.17
475.48	6232.85
475.66	6265.61
475.84	6218.80
476.02	6319.45
476.20	6345.19
476.38	6331.15
476.56	6658.82
476.74	6532.44
476.92	6569.88
477.10	6581.59
477.28	6698.61
477.46	6738.40
477.64	6651.80
477.82	6740.74
478.00	7026.29
478.18	6995.86
478.36	6927.99
478.54	7131.61
478.72	7232.26
478.90	7087.14
479.08	7019.27
479.26	7307.15
479.44	7199.49
479.62	7375.03
479.80	7562.27
479.98	7543.55
480.16	7744.83
480.34	7400.77
480.52	7768.24
480.70	7573.97
480.88	7531.84
481.06	7939.10
481.24	7885.26
481.41	7758.88
481.59	7887.61
481.77	7995.27
481.95	8255.07
482.13	8049.10
482.31	8081.87
482.49	8234.00
482.67	8313.58
482.85	8411.89
483.03	8507.85
483.21	8624.87
483.39	8641.26
483.57	8774.67
483.74	8727.86
483.92	8915.10
484.10	8814.46
484.28	8826.16
484.46	9359.80
484.64	9174.90
484.82	9046.17
485.00	9284.91
485.18	9355.12
485.35	9507.26
485.53	9341.08
485.71	9542.36
485.89	9710.88
486.07	9593.86
486.25	9668.75
486.43	9748.33
486.61	9708.54
486.78	9973.02
486.96	9825.57
487.14	10097.07
487.32	10068.98
487.50	10242.18
487.68	10232.82
487.85	10436.45
488.03	10490.28
488.21	10677.52
488.39	10700.93
488.57	10656.46
488.75	10810.93
488.92	10853.06
489.10	10993.50
489.28	11068.39
489.46	11138.61
489.64	11253.30
489.81	11239.25
489.99	11433.52
490.17	11524.80
490.35	11318.83
490.53	11571.61
490.70	11962.48
490.88	11719.06
491.06	11772.89
491.24	11955.46
491.41	11808.00
491.59	12095.89
491.77	11803.32
491.95	12231.64
492.13	12343.99
492.30	12372.07
492.48	12753.58
492.66	12355.69
492.84	12388.46
493.01	12664.64
493.19	12716.13
493.37	12816.77
493.54	12957.21
493.72	12781.67
493.90	12987.63
494.08	13027.42
494.25	13254.45
494.43	13207.64
494.61	13217.01
494.79	13188.92
494.96	13586.81
495.14	13350.42
495.32	13736.60
495.49	13673.41
495.67	13675.75
495.85	13832.57
496.02	13832.57
496.20	14010.45
496.38	14148.54
496.55	14101.73
496.73	14499.62
496.91	14066.62
497.09	14384.93
497.26	14434.08
497.44	14237.48
497.62	14626.01
497.79	14768.78
497.97	14691.54
498.14	14651.75
498.32	14916.23
498.50	14986.45
498.67	15133.90
498.85	15166.67
499.03	15051.99
499.20	14871.76
499.38	15094.11
499.56	15276.68
499.73	15264.97
499.91	15243.91
500.08	15552.86
500.26	15300.08
500.44	15477.96
500.61	15372.64
500.79	15300.08
500.97	15775.21
501.14	15913.30
501.32	15793.94
501.49	15658.18
501.67	15978.84
501.84	16189.49
502.02	16145.02
502.20	16067.78
502.37	16102.89
502.55	16404.81
502.72	16011.60
502.90	16582.70
503.07	16285.45
503.25	16156.72
503.43	16224.59
503.60	16634.19
503.78	16589.72
503.95	16702.06
504.13	17050.80
504.30	16791.00
504.48	16779.30
504.65	16961.86
504.83	17153.79
505.01	17308.26
505.18	17062.51
505.36	17383.16
505.53	17062.51
505.71	17057.82
505.88	17256.77
506.06	16985.27
506.23	17359.75
506.41	17273.15
506.58	17701.47
506.76	17860.63
506.93	17380.82
507.11	17406.56
507.28	17715.51
507.46	17444.01
507.63	17965.95
507.81	18054.89
507.98	17921.48
508.16	17961.27
508.33	17919.14
508.50	17886.37
508.68	18118.09
508.85	18087.66
509.03	18050.21
509.20	18359.16
509.38	18616.62
509.55	18857.70
509.73	18600.24
509.90	18284.26
510.08	18490.23
510.25	18361.50
510.42	18288.95
510.60	18892.80
510.77	18925.57
510.95	19103.45
511.12	18654.07
511.30	18789.82
511.47	18941.96
511.64	18944.30
511.82	18918.55
511.99	19222.82
512.17	19206.44
512.34	19365.59
512.51	19379.64
512.69	19262.61
512.86	19073.03
513.04	19587.94
513.21	19143.24
513.38	19489.64
513.56	19924.98
513.73	19194.73
513.90	19861.79
514.08	19587.94
514.25	19592.62
514.43	19971.79
514.60	19573.90
514.77	20250.32
514.95	20250.32
515.12	19967.11
515.29	19796.25
515.47	20011.58
515.64	20070.09
515.81	20308.83
515.99	20313.51
516.16	20561.61
516.33	20519.48
516.51	20465.64
516.68	20350.96
516.85	19953.07
517.03	20444.58
517.20	20638.84
517.37	20549.90
517.54	20929.07
517.72	20800.34
517.89	20896.30
518.06	20783.96
518.24	20533.52
518.41	20720.76
518.58	20526.50
518.75	20865.88
518.93	20947.79
519.10	21102.27
519.27	21088.23
519.45	21111.63
519.62	21102.27
519.79	21113.97
519.96	21188.87
520.14	21289.51
520.31	21144.40
520.48	21605.49
520.65	21167.80
520.83	21764.64
521.00	21771.66
521.17	21790.39
521.34	21586.76
521.52	21710.81
521.69	21703.79
521.86	22162.53
522.03	21834.86
522.20	22155.51
522.38	21975.29
522.55	22134.45
522.72	21858.26
522.89	21937.84
523.07	22080.61
523.24	22190.62
523.41	22490.21
523.58	22038.48
523.75	22338.07
523.92	22157.85
524.10	22455.10
524.27	22167.21
524.44	22558.08
524.61	22319.35
524.78	22466.80
524.96	22544.04
525.13	22663.41
525.30	22490.21
525.47	22862.35
525.64	22597.87
525.81	22764.05
525.98	22857.67
526.16	22899.80
526.33	22803.84
526.50	22977.04
526.67	22850.65
526.84	23075.34
527.01	22890.44
527.18	23215.77
527.36	22977.04
527.53	23194.71
527.70	23288.33
527.87	23468.55
528.04	23627.71
528.21	23821.97
528.38	23133.86
528.55	23817.29
528.72	23372.59
528.89	23637.07
529.07	23466.21
529.24	23644.09
529.41	23683.88
529.58	23658.14
529.75	23527.06
529.92	23693.24
530.09	23300.03
530.26	23592.60
530.43	23971.77
530.60	23487.28
530.77	24133.26
530.94	23931.98
531.11	24049.00
531.28	24011.56
531.46	24053.69
531.63	23735.37
531.80	24285.40
531.97	24460.94
532.14	24533.50
532.31	23906.23
532.48	24212.84
532.65	24339.23
532.82	24116.88
532.99	24154.33
533.16	24201.14
533.33	24709.04
533.50	24678.61
533.67	24566.26
533.84	24526.47
534.01	24432.85
534.18	24297.10
534.35	24702.01
534.52	24699.67
534.69	24592.01
534.86	25071.82
535.03	24624.78
535.20	24650.52
535.37	24755.85
535.54	24765.21
535.71	24613.07
535.88	24795.64
536.05	24910.32
536.22	25408.86
536.38	25343.32
536.55	25273.10
536.72	25305.87
536.89	24889.26
537.06	24980.54
537.23	25013.31
537.40	25116.29
537.57	24999.26
537.74	25270.76
537.91	25221.61
538.08	25635.89
538.25	25216.93
538.42	25223.95
538.59	25355.02
538.75	25401.83
538.92	25303.53
539.09	25549.29
539.26	25497.80
539.43	25748.23
539.60	25450.99
539.77	25638.23
539.94	25879.30
540.11	25628.87
540.28	25415.88
540.44	25762.28
540.61	25591.42
540.78	25886.32
540.95	25841.85
541.12	25820.79
541.29	25951.86
541.46	26047.82
541.62	25509.50
541.79	25855.90
541.96	25855.90
542.13	26211.66
542.30	26045.48
542.47	26118.04
542.63	26251.45
542.80	26405.92
542.97	26412.95
543.14	26544.02
543.31	26576.78
543.48	26469.12
543.64	26609.55
543.81	26719.56
543.98	26726.58
544.15	26431.67
544.32	26684.45
544.48	26965.31
544.65	26710.19
544.82	26696.15
544.99	26319.32
545.16	27030.85
545.32	26843.60
545.49	26916.16
545.66	26658.70
545.83	26897.44
546.00	27056.59
546.16	27208.73
546.33	26733.60
546.50	26560.40
546.67	26647.00
546.83	26410.60
547.00	26867.01
547.17	27199.37
547.34	27199.37
547.50	27475.55
547.67	27473.21
547.84	27367.88
548.00	27105.74
548.17	27587.89
548.34	27285.97
548.51	27402.99
548.67	27590.24
548.84	27379.59
549.01	27522.36
549.18	27398.31
549.34	27300.01
549.51	27482.57
549.68	27391.29
549.84	27271.92
550.01	27798.54
550.18	27433.42
550.34	27527.04
550.51	27566.83
550.68	27510.66
550.84	27812.59
551.01	27655.77
551.18	27812.59
551.34	27709.60
551.51	27435.76
551.68	27534.06
551.84	27957.70
552.01	28105.15
552.18	27854.72
552.34	27611.30
552.51	27941.32
552.68	27859.40
552.84	27964.72
553.01	28308.78
553.18	28203.46
553.34	28325.16
553.51	27957.70
553.67	28362.61
553.84	28437.51
554.01	28416.44
554.17	28402.40
554.34	28130.90
554.51	27941.32
554.67	28140.26
554.84	28261.97
555.00	28397.72
555.17	28348.57
555.33	28587.30
555.50	28346.23
555.67	28060.68
555.83	28517.09
556.00	28416.44
556.16	28624.75
556.33	28463.25
556.50	28465.60
556.66	28982.85
556.83	28575.60
556.99	28926.68
557.16	28755.82
557.32	28781.57
557.49	28713.69
557.65	28130.90
557.82	28547.51
557.98	28491.34
558.15	28858.81
558.32	28411.76
558.48	28788.59
558.65	28664.54
558.81	28903.28
558.98	28945.41
559.14	28697.31
559.31	28837.74
559.47	28814.34
559.64	28889.23
559.80	28912.64
559.97	29221.59
560.13	28912.64
560.30	29158.39
560.46	28828.38
560.63	28851.78
560.79	29020.30
560.96	29266.06
561.12	28893.91
561.29	28849.44
561.45	29017.96
561.61	29287.12
561.78	29226.27
561.94	29249.67
562.11	29041.37
562.27	29132.65
562.44	29097.54
562.60	29137.33
562.77	28758.16
562.93	28954.77
563.10	29385.43
563.26	29160.73
563.42	29418.19
563.59	29511.81
563.75	29474.37
563.92	29212.23
564.08	29017.96
564.24	29244.99
564.41	29291.80
564.57	29333.93
564.74	29343.30
564.90	29406.49
565.07	29567.99
565.23	29591.39
565.39	29600.76
565.56	29539.90
565.72	29460.32
565.88	29252.02
566.05	28964.13
566.21	29214.57
566.38	29551.60
566.54	29572.67
566.70	29710.76
566.87	29563.31
567.03	29078.82
567.19	29790.34
567.36	29736.51
567.52	29649.91
567.68	29827.79
567.85	29434.58
568.01	29373.72
568.17	29518.84
568.34	29785.66
568.50	29556.28
568.66	29783.32
568.83	29717.78
568.99	29392.45
569.15	29432.24
569.32	29661.61
569.48	29673.31
569.64	29713.10
569.81	29811.40
569.97	29788.00
570.13	29933.11
570.30	29610.12
570.46	29862.90
570.62	29591.39
570.78	29879.28
570.95	29577.35
571.11	29563.31
571.27	29479.05
571.43	30022.05
571.60	29935.45
571.76	29811.40
571.92	29738.85
572.09	29656.93
572.25	30120.35
572.41	29755.23
572.57	29851.19
572.74	29909.71
572.90	29296.49
573.06	29380.74
573.22	30029.07
573.38	29869.92
573.55	30087.59
573.71	29862.90
573.87	29930.77
574.03	29729.48
574.20	30270.15
574.36	29867.58
574.52	29883.96
574.68	29783.32
574.84	29970.56
575.01	29855.87
575.17	29890.98
575.33	29820.77
575.49	29785.66
575.65	30185.89
575.82	30010.35
575.98	30099.29
576.14	29888.64
576.30	29867.58
576.46	29802.04
576.62	29806.72
576.79	30110.99
576.95	29799.70
577.11	29977.58
577.27	29944.81
577.43	29949.50
577.59	30181.21
577.75	29872.26
577.92	29823.11
578.08	29837.15
578.24	29989.28
578.40	29933.11
578.56	30185.89
578.72	29855.87
578.88	30190.57
579.04	30480.80
579.21	30066.52
579.37	30057.16
579.53	30228.02
579.69	29900.34
579.85	29898.00
580.01	29954.18
580.17	30113.33
580.33	29406.49
580.49	30089.93
580.65	30040.78
580.82	29963.54
580.98	30134.40
581.14	30075.88
581.30	30349.73
581.46	30377.81
581.62	30078.22
581.78	29813.74
581.94	29930.77
582.10	30174.19
582.26	29949.50
582.42	30164.82
582.58	30345.05
582.74	30256.11
582.90	30108.65
583.06	30417.60
583.22	29961.20
583.38	30078.22
583.54	30012.69
583.70	30106.31
583.86	29944.81
584.02	30031.41
584.18	30403.56
584.34	30607.19
584.50	30162.48
584.66	30211.64
584.82	29699.06
584.98	30323.98
585.14	30068.86
585.30	29710.76
585.46	30057.16
585.62	29521.18
585.78	30197.59
585.94	29687.36
586.10	30497.18
586.26	30239.72
586.42	30429.30
586.58	30281.85
586.74	30242.06
586.90	29914.39
587.06	30120.35
587.22	30352.07
587.38	29708.42
587.54	30246.74
587.70	30555.69
587.86	30539.31
588.02	30618.89
588.18	30391.86
588.34	30230.36
588.49	30347.39
588.65	30171.85
588.81	30185.89
588.97	30389.52
589.13	30120.35
589.29	30436.33
589.45	30403.56
589.61	30300.58
589.77	30831.88
589.93	30209.29
590.08	30473.78
590.24	30485.48
590.40	30799.11
590.56	30431.65
590.72	30611.87
590.88	30377.81
591.04	30293.55
591.20	30775.70
591.35	30859.96
591.51	30724.21
591.67	30574.42
591.83	30738.26
591.99	30616.55
