SpectraSuite Data File
++++++++++++++++++++++++++++++++++++
Date: Fri Oct 18 13:58:26 GMT-05:00 2013
User: bianchi
Dark Spectrum Present: No
Reference Spectrum Present: No
Number of Sampled Component Spectra: 1
Spectrometers: USB2+H05261
Integration Time (usec): 50000 (USB2+H05261)
Spectra Averaged: 1 (USB2+H05261)
Boxcar Smoothing: 0 (USB2+H05261)
Correct for Electrical Dark: No (USB2+H05261)
Strobe/Lamp Enabled: No (USB2+H05261)
Correct for Detector Non-linearity: No (USB2+H05261)
Correct for Stray Light: No (USB2+H05261)
Number of Pixels in Processed Spectrum: 2048
>>>>>Begin Processed Spectral Data<<<<<
365.73	0.00
365.92	0.00
366.12	0.00
366.32	0.00
366.52	0.00
366.72	0.00
366.91	0.00
367.11	0.00
367.31	0.00
367.51	0.00
367.70	0.00
367.90	0.00
368.10	0.00
368.30	0.00
368.49	0.00
368.69	0.00
368.89	0.00
369.09	0.00
369.28	0.00
369.48	0.00
369.68	0.00
369.87	0.00
370.07	0.00
370.27	0.00
370.47	0.00
370.66	72.56
370.86	98.30
371.06	170.86
371.25	128.73
371.45	98.30
371.65	166.18
371.84	166.18
372.04	159.16
372.24	91.28
372.44	128.73
372.63	208.31
372.83	212.99
373.03	210.65
373.22	140.43
373.42	149.79
373.62	189.58
373.81	259.80
374.01	257.46
374.21	255.12
374.40	205.97
374.60	306.61
374.79	278.52
374.99	248.10
375.19	229.37
375.38	203.63
375.58	255.12
375.78	208.31
375.97	311.29
376.17	278.52
376.37	262.14
376.56	231.71
376.76	283.20
376.95	313.63
377.15	266.82
377.35	264.48
377.54	320.65
377.74	229.37
377.93	278.52
378.13	276.18
378.33	271.50
378.52	264.48
378.72	311.29
378.91	280.86
379.11	276.18
379.31	332.36
379.50	241.08
379.70	229.37
379.89	360.44
380.09	250.44
380.28	276.18
380.48	360.44
380.68	299.59
380.87	280.86
381.07	259.80
381.26	322.99
381.46	372.15
381.65	318.31
381.85	362.78
382.04	334.70
382.24	299.59
382.43	407.25
382.63	315.97
382.83	341.72
383.02	278.52
383.22	362.78
383.41	365.12
383.61	313.63
383.80	369.80
384.00	360.44
384.19	332.36
384.39	358.10
384.58	404.91
384.78	395.55
384.97	397.89
385.17	409.59
385.36	390.87
385.56	351.08
385.75	379.17
385.95	400.23
386.14	395.55
386.34	362.78
386.53	395.55
386.72	444.70
386.92	479.81
387.11	386.19
387.31	454.06
387.50	458.74
387.70	374.49
387.89	440.02
388.09	472.79
388.28	411.93
388.48	479.81
388.67	444.70
388.86	442.36
389.06	517.26
389.25	433.00
389.45	505.56
389.64	421.30
389.84	531.30
390.03	514.92
390.22	458.74
390.42	437.68
390.61	458.74
390.81	482.15
391.00	479.81
391.19	573.43
391.39	465.77
391.58	414.27
391.78	545.34
391.97	533.64
392.16	500.87
392.36	503.22
392.55	594.50
392.75	585.13
392.94	634.29
393.13	526.62
393.33	484.49
393.52	622.58
393.71	582.79
393.91	510.24
394.10	620.24
394.29	521.94
394.49	528.96
394.68	531.30
394.88	545.34
395.07	510.24
395.26	521.94
395.46	582.79
395.65	631.94
395.84	573.43
396.04	613.22
396.23	629.60
396.42	601.52
396.62	580.45
396.81	650.67
397.00	676.41
397.19	645.99
397.39	655.35
397.58	655.35
397.77	641.31
397.97	683.44
398.16	671.73
398.35	812.17
398.55	685.78
398.74	718.54
398.93	706.84
399.12	610.88
399.32	678.76
399.51	763.01
399.70	786.42
399.90	711.52
400.09	716.20
400.28	692.80
400.47	709.18
400.67	765.36
400.86	812.17
401.05	746.63
401.24	779.40
401.44	802.80
401.63	851.96
401.82	847.27
402.01	758.33
402.21	842.59
402.40	826.21
402.59	816.85
402.78	868.34
402.97	875.36
403.17	889.40
403.36	847.27
403.55	861.32
403.74	856.64
403.93	912.81
404.13	877.70
404.32	887.06
404.51	849.61
404.70	983.02
404.89	924.51
405.09	933.87
405.28	840.25
405.47	950.26
405.66	964.30
405.85	863.66
406.05	992.39
406.24	1057.92
406.43	983.02
406.62	1020.47
406.81	1081.33
407.00	973.66
407.20	889.40
407.39	1086.01
407.58	1100.05
407.77	1069.62
407.96	1043.88
408.15	1121.12
408.34	1078.99
408.54	1090.69
408.73	1034.52
408.92	1121.12
409.11	1088.35
409.30	1172.61
409.49	1163.25
409.68	1095.37
409.87	1151.54
410.07	1231.12
410.26	1219.42
410.45	1130.48
410.64	1263.89
410.83	1163.25
411.02	1247.51
411.21	1282.61
411.40	1242.82
411.59	1329.42
411.78	1301.34
411.98	1348.15
412.17	1320.06
412.36	1303.68
412.55	1291.98
412.74	1362.19
412.93	1324.74
413.12	1394.96
413.31	1301.34
413.50	1425.39
413.69	1338.79
413.88	1404.32
414.07	1514.33
414.26	1390.28
414.45	1479.22
414.64	1397.30
414.83	1497.94
415.02	1551.78
415.22	1526.03
415.41	1612.63
415.60	1600.93
415.79	1533.05
415.98	1614.97
416.17	1572.84
416.36	1647.74
416.55	1701.57
416.74	1652.42
416.93	1603.27
417.12	1732.00
417.31	1593.90
417.50	1652.42
417.69	1696.89
417.88	1720.29
418.07	1668.80
418.26	1673.48
418.45	1708.59
418.64	1830.30
418.83	1827.96
419.02	1811.57
419.21	1806.89
419.39	1748.38
419.58	1720.29
419.77	1755.40
419.96	1771.79
420.15	1865.41
420.34	1928.60
420.53	1886.47
420.72	1734.34
420.91	1914.56
421.10	1895.83
421.29	1970.73
421.48	1973.07
421.67	1980.09
421.86	1933.28
422.05	1984.77
422.24	2017.54
422.43	1942.64
422.61	1994.14
422.80	1905.20
422.99	1982.43
423.18	1968.39
423.37	2150.95
423.56	1926.26
423.75	1947.33
423.94	2064.35
424.13	1870.09
424.32	1771.79
424.50	2064.35
424.69	2120.53
424.88	2038.61
425.07	2026.90
425.26	1977.75
425.45	2115.84
425.64	1959.03
425.83	2104.14
426.01	2005.84
426.20	2024.56
426.39	2012.86
426.58	2169.68
426.77	2157.97
426.96	2029.24
427.15	2174.36
427.33	2129.89
427.52	2120.53
427.71	2076.06
427.90	2083.08
428.09	2179.04
428.28	2139.25
428.46	2183.72
428.65	2174.36
428.84	2235.21
429.03	2249.25
429.22	2228.19
429.40	2169.68
429.59	2319.47
429.78	2132.23
429.97	2111.16
430.16	2218.83
430.34	2296.07
430.53	2242.23
430.72	2298.41
430.91	2200.10
431.10	2291.38
431.28	2394.37
431.47	2429.48
431.66	2284.36
431.85	2347.56
432.03	2452.88
432.22	2511.39
432.41	2441.18
432.60	2387.35
432.79	2385.01
432.97	2375.64
433.16	2270.32
433.35	2555.86
433.54	2565.23
433.72	2497.35
433.91	2403.73
434.10	2541.82
434.28	2459.90
434.47	2574.59
434.66	2654.17
434.85	2541.82
435.03	2581.61
435.22	2649.49
435.41	2698.64
435.59	2630.76
435.78	2630.76
435.97	2647.15
436.16	2679.91
436.34	2661.19
436.53	2750.13
436.72	2696.30
436.90	2715.02
437.09	2754.81
437.28	2679.91
437.46	2764.17
437.65	2719.70
437.84	2803.96
438.02	2752.47
438.21	2754.81
438.40	2698.64
438.58	2925.67
438.77	2850.77
438.96	2796.94
439.14	2972.48
439.33	3030.99
439.52	3030.99
439.70	2925.67
439.89	2906.95
440.08	3009.93
440.26	3040.36
440.45	3040.36
440.63	3103.55
440.82	3002.91
441.01	3112.91
441.19	3124.62
441.38	3066.10
441.57	3084.83
441.75	3309.52
441.94	3297.81
442.12	3166.74
442.31	3276.75
442.50	3375.05
442.68	3307.18
442.87	3283.77
443.05	3351.65
443.24	3447.61
443.43	3353.99
443.61	3323.56
443.80	3442.93
443.98	3396.12
444.17	3356.33
444.35	3372.71
444.54	3574.00
444.73	3393.78
444.91	3307.18
445.10	3407.82
445.28	3377.39
445.47	3396.12
445.65	3407.82
445.84	3407.82
446.02	3421.86
446.21	3389.10
446.39	3400.80
446.58	3506.12
446.77	3496.76
446.95	3520.17
447.14	3468.67
447.32	3604.42
447.51	3534.21
447.69	3410.16
447.88	3492.08
448.06	3515.48
448.25	3417.18
448.43	3578.68
448.62	3403.14
448.80	3522.51
448.99	3513.14
449.17	3609.11
449.36	3590.38
449.54	3613.79
449.73	3686.34
449.91	3588.04
450.10	3660.60
450.28	3728.47
450.46	3611.45
450.65	3747.20
450.83	3644.21
451.02	3840.82
451.20	3843.16
451.39	3803.37
451.57	3786.99
451.76	3676.98
451.94	3765.92
452.13	3843.16
452.31	3817.41
452.49	3833.80
452.68	3889.97
452.86	3777.62
453.05	3812.73
453.23	3810.39
453.42	3882.95
453.60	3894.65
453.78	3969.55
453.97	3911.04
454.15	3754.22
454.34	3913.38
454.52	4004.66
454.70	3955.51
454.89	4023.38
455.07	4021.04
455.26	4030.40
455.44	4004.66
455.62	4021.04
455.81	4035.08
455.99	3995.29
456.17	4084.23
456.36	4227.01
456.54	4189.56
456.73	4224.67
456.91	4348.72
457.09	4432.97
457.28	4365.10
457.46	4283.18
457.64	4456.38
457.83	4278.50
458.01	4353.40
458.19	4386.16
458.38	4393.19
458.56	4388.50
458.74	4440.00
458.93	4379.14
459.11	4341.69
459.29	4383.82
459.48	4461.06
459.66	4498.51
459.84	4592.13
460.03	4491.49
460.21	4517.23
460.39	4449.36
460.57	4622.56
460.76	4505.53
460.94	4519.57
461.12	4585.11
461.31	4732.56
461.49	4641.28
461.67	4521.92
461.85	4550.00
462.04	4751.29
462.22	4770.01
462.40	4786.40
462.59	4519.57
462.77	4870.65
462.95	4758.31
463.13	4727.88
463.32	4730.22
463.50	4877.68
463.68	4758.31
463.86	4795.76
464.05	4844.91
464.23	4720.86
464.41	4908.10
464.59	4777.03
464.78	4858.95
464.96	4880.02
465.14	4908.10
465.32	4947.89
465.50	4826.18
465.69	5015.77
465.87	4992.36
466.05	5004.07
466.23	4968.96
466.41	5193.65
466.60	5219.39
466.78	5048.54
466.96	5083.64
467.14	4978.32
467.32	5071.94
467.51	5198.33
467.69	5048.54
467.87	5130.45
468.05	5064.92
468.23	5174.92
468.41	5153.86
468.60	5210.03
468.78	5137.48
468.96	5135.14
469.14	5170.24
469.32	5102.37
469.50	5085.98
469.69	5305.99
469.87	5481.53
470.05	5425.36
470.23	5338.76
470.41	5270.89
470.59	5235.78
470.77	5383.23
470.95	5289.61
471.14	5636.01
471.32	5476.85
471.50	5544.73
471.68	5507.28
471.86	5708.57
472.04	5654.73
472.22	5741.33
472.40	5607.92
472.58	5673.46
472.77	5556.43
472.95	5767.08
473.13	6003.47
473.31	5919.21
473.49	5832.62
473.67	5970.71
473.85	5774.10
474.03	5966.03
474.21	5851.34
474.39	6076.03
474.57	6043.26
474.75	5867.72
474.93	6260.93
475.12	6169.65
475.30	6139.23
475.48	6174.33
475.66	6246.89
475.84	6324.13
476.02	6431.79
476.20	6225.82
476.38	6420.09
476.56	6623.72
476.74	6532.44
476.92	6502.01
477.10	6555.84
477.28	6623.72
477.46	6586.27
477.64	6609.67
477.82	6778.19
478.00	6885.86
478.18	7007.56
478.36	6951.39
478.54	7070.76
478.72	7124.59
478.90	7049.69
479.08	7042.67
479.26	7178.42
479.44	7363.33
479.62	7246.30
479.80	7438.22
479.98	7396.09
480.16	7456.95
480.34	7583.34
480.52	7503.76
480.70	7543.55
480.88	7571.63
481.06	7719.09
481.24	7707.38
481.41	7772.92
481.59	7805.69
481.77	7974.21
481.95	7812.71
482.13	8102.93
482.31	7964.84
482.49	8493.80
482.67	8149.75
482.85	8430.61
483.03	8269.11
483.21	8351.03
483.39	8503.17
483.57	8393.16
483.74	8404.86
483.92	8718.50
484.10	8603.81
484.28	8760.63
484.46	8854.25
484.64	9207.67
484.82	8922.12
485.00	9156.18
485.18	9287.25
485.35	9266.18
485.53	9324.69
485.71	9650.03
485.89	9518.96
486.07	9523.64
486.25	9427.68
486.43	9401.93
486.61	9554.07
486.78	9944.94
486.96	9891.10
487.14	9874.72
487.32	10085.37
487.50	9832.59
487.68	10176.65
487.85	10181.33
488.03	10401.34
488.21	10518.37
488.39	10415.38
488.57	10363.89
488.75	10651.78
488.92	10689.23
489.10	10937.32
489.28	11023.92
489.46	11047.33
489.64	10939.66
489.81	11218.19
489.99	11328.19
490.17	11080.10
490.35	11496.71
490.53	11365.64
490.70	11573.95
490.88	11564.59
491.06	11672.25
491.24	11728.42
491.41	11775.24
491.59	11978.86
491.77	11719.06
491.95	11934.39
492.13	12152.06
492.30	12243.34
492.48	12351.01
492.66	12100.57
492.84	12334.62
493.01	12507.82
493.19	12205.89
493.37	12402.50
493.54	12765.28
493.72	12851.88
493.90	12861.24
494.08	12650.60
494.25	13090.62
494.43	13088.28
494.61	12982.95
494.79	13200.62
494.96	13453.40
495.14	13521.27
495.32	13729.58
495.49	13689.79
495.67	13535.32
495.85	13891.08
496.02	13851.29
496.20	13980.02
496.38	13694.47
496.55	13785.76
496.73	14157.90
496.91	13788.10
497.09	14099.39
497.26	13919.17
497.44	14331.10
497.62	14036.19
497.79	14630.69
497.97	14469.19
498.14	14626.01
498.32	14656.43
498.50	14684.52
498.67	14686.86
498.85	14874.10
499.03	14885.81
499.20	14808.57
499.38	15073.05
499.56	15112.84
499.73	15126.88
499.91	15435.83
500.08	15499.03
500.26	15140.93
500.44	15543.50
500.61	15330.51
500.79	15281.36
500.97	15587.97
501.14	15866.49
501.32	15632.44
501.49	15604.35
501.67	15587.97
501.84	15791.59
502.02	15798.62
502.20	15824.36
502.37	16140.33
502.55	16102.89
502.72	16079.48
502.90	16114.59
503.07	15920.32
503.25	16077.14
503.43	16231.62
503.60	16524.18
503.78	16233.96
503.95	16444.60
504.13	16273.74
504.30	16505.46
504.48	16620.14
504.65	16940.80
504.83	17078.89
505.01	17071.87
505.18	16992.29
505.36	17020.38
505.53	17041.44
505.71	16781.64
505.88	16929.09
506.06	17055.48
506.23	17348.05
506.41	17324.65
506.58	17465.08
506.76	16898.67
506.93	17242.73
507.11	17273.15
507.28	17535.29
507.46	17394.86
507.63	17462.74
507.81	17839.56
507.98	17301.24
508.16	17729.56
508.33	17769.35
508.50	17724.88
508.68	18010.42
508.85	17837.22
509.03	17996.38
509.20	17872.33
509.38	18211.71
509.55	18061.91
509.73	18164.90
509.90	18335.76
510.08	18256.18
510.25	18164.90
510.42	18256.18
510.60	18724.29
510.77	18691.52
510.95	18642.37
511.12	18553.43
511.30	18560.45
511.47	18361.50
511.64	18963.02
511.82	18965.36
511.99	18806.20
512.17	19105.79
512.34	18930.25
512.51	19136.22
512.69	19201.76
512.86	18946.64
513.04	19676.88
513.21	19161.97
513.38	19185.37
513.56	19604.33
513.73	19396.02
513.90	19335.17
514.08	19487.30
514.25	19557.52
514.43	19618.37
514.60	19690.93
514.77	19573.90
514.95	20081.80
515.12	19470.92
515.29	19529.43
515.47	20067.75
515.64	20081.80
515.81	19836.04
515.99	19920.30
516.16	20013.92
516.33	20376.70
516.51	20336.91
516.68	20070.09
516.85	20077.12
517.03	20313.51
517.20	20414.15
517.37	20243.29
517.54	20545.22
517.72	20259.68
517.89	20299.47
518.06	20563.95
518.24	20369.68
518.41	20451.60
518.58	20585.01
518.75	20753.53
518.93	20994.61
519.10	20692.68
519.27	20847.15
519.45	20816.72
519.62	21027.37
519.79	20666.93
519.96	21308.24
520.14	20725.44
520.31	20879.92
520.48	21273.13
520.65	21041.42
520.83	21167.80
521.00	21308.24
521.17	21329.30
521.34	21118.65
521.52	21305.90
521.69	21383.13
521.86	21610.17
522.03	21493.14
522.20	21919.12
522.38	21766.98
522.55	21720.17
522.72	21420.58
522.89	21867.63
523.07	21710.81
523.24	21977.63
523.41	21577.40
523.58	22010.40
523.75	21841.88
523.92	21902.73
524.10	21886.35
524.27	22338.07
524.44	22101.68
524.61	22506.59
524.78	22321.69
524.96	22216.36
525.13	22216.36
525.30	22335.73
525.47	22127.42
525.64	22686.81
525.81	22843.63
525.98	22579.15
526.16	22169.55
526.33	22623.62
526.50	23030.87
526.67	22569.79
526.84	22745.33
527.01	22691.49
527.18	22590.85
527.36	22941.93
527.53	22750.01
527.70	23274.29
527.87	23271.95
528.04	23002.78
528.21	22934.91
528.38	22960.66
528.55	23302.37
528.72	23234.50
528.89	23260.24
529.07	23171.30
529.24	23433.44
529.41	23482.59
529.58	23016.83
529.75	23412.38
529.92	23360.89
530.09	23496.64
530.26	23807.93
530.43	23534.09
530.60	23421.74
530.77	23335.14
530.94	23424.08
531.11	23573.88
531.28	23576.22
531.46	23365.57
531.63	23548.13
531.80	23880.49
531.97	23924.96
532.14	24137.94
532.31	24116.88
532.48	23878.15
532.65	23969.43
532.82	23784.52
532.99	23997.51
533.16	24023.26
533.33	24060.71
533.50	24142.63
533.67	24259.65
533.84	24189.44
534.01	24013.90
534.18	23967.09
534.35	24659.88
534.52	24226.89
534.69	24449.24
534.86	24395.40
535.03	24393.06
535.20	24489.03
535.37	24465.62
535.54	24947.77
535.71	24329.87
535.88	24643.50
536.05	24428.17
536.22	24840.11
536.38	25008.62
536.55	24533.50
536.72	24664.57
536.89	24629.46
537.06	24613.07
537.23	24961.81
537.40	25041.39
537.57	25090.54
537.74	25240.34
537.91	25596.10
538.08	25165.44
538.25	24975.86
538.42	25158.42
538.59	24882.24
538.75	25008.62
538.92	24816.70
539.09	25174.80
539.26	25256.72
539.43	25172.46
539.60	25041.39
539.77	25219.27
539.94	25532.90
540.11	25465.03
540.28	25193.53
540.44	25282.47
540.61	25338.64
540.78	25153.74
540.95	25472.05
541.12	25420.56
541.29	25647.59
541.46	25240.34
541.62	25357.36
541.79	25319.92
541.96	25338.64
542.13	25476.73
542.30	25369.07
542.47	26164.85
542.63	25916.75
542.80	26232.72
542.97	25921.43
543.14	26031.44
543.31	25795.04
543.48	26015.05
543.64	26251.45
543.81	26396.56
543.98	26553.38
544.15	26426.99
544.32	26242.09
544.48	26590.83
544.65	26101.65
544.82	26558.06
544.99	26162.51
545.16	26466.78
545.32	26277.19
545.49	26747.64
545.66	26333.37
545.83	26923.18
546.00	26843.60
546.16	26703.17
546.33	26436.35
546.50	25991.65
546.67	26815.52
546.83	26539.33
547.00	26700.83
547.17	26883.39
547.34	26649.34
547.50	27023.83
547.67	27192.34
547.84	26909.14
548.00	27175.96
548.17	27126.81
548.34	26801.47
548.51	26977.01
548.67	27080.00
548.84	26719.56
549.01	26824.88
549.18	27175.96
549.34	27016.80
549.51	26679.77
549.68	26960.63
549.84	27000.42
550.01	27255.54
550.18	27253.20
550.34	27491.93
550.51	27356.18
550.68	27452.14
550.84	27080.00
551.01	27225.11
551.18	27157.24
551.34	27056.59
551.51	27227.45
551.68	27314.05
551.84	27487.25
552.01	27321.07
552.18	27798.54
552.34	27517.68
552.51	27164.26
552.68	27337.46
552.84	27124.47
553.01	27529.38
553.18	27454.48
553.34	27627.68
553.51	27744.71
553.67	27679.18
553.84	27875.78
554.01	27749.39
554.17	27763.43
554.34	27468.53
554.51	27821.95
554.67	28053.66
554.84	27714.28
555.00	27948.34
555.17	28102.81
555.33	27892.16
555.50	27587.89
555.67	28067.70
555.83	28102.81
556.00	27929.61
556.16	27676.83
556.33	28109.83
556.50	27810.25
556.66	28217.50
556.83	28182.39
556.99	28549.85
557.16	28954.77
557.32	28381.34
557.49	28360.27
557.65	27880.46
557.82	27920.25
557.98	27880.46
558.15	27672.15
558.32	28580.28
558.48	28147.28
558.65	28404.74
558.81	28060.68
558.98	28634.11
559.14	28210.48
559.31	28465.60
559.47	28154.30
559.64	28341.55
559.80	28727.74
559.97	28762.84
560.13	28362.61
560.30	28622.41
560.46	28313.46
560.63	28194.09
560.79	28360.27
560.96	28545.17
561.12	28400.06
561.29	28727.74
561.45	28517.09
561.61	28521.77
561.78	28610.71
561.94	28788.59
562.11	28844.76
562.27	28711.35
562.44	28287.71
562.60	28996.90
562.77	29022.64
562.93	28547.51
563.10	28802.63
563.26	28460.91
563.42	29071.79
563.59	28912.64
563.75	28514.75
563.92	28938.38
564.08	28840.08
564.24	28872.85
564.41	28624.75
564.57	28580.28
564.74	28243.24
564.90	28624.75
565.07	28554.54
565.23	29149.03
565.39	29055.41
565.56	28844.76
565.72	28842.42
565.88	29163.08
566.05	29191.16
566.21	29008.60
566.38	28858.81
566.54	29067.11
566.70	29310.53
566.87	29411.17
567.03	29212.23
567.19	29130.31
567.36	29062.43
567.52	28975.83
567.68	28893.91
567.85	29165.42
568.01	29355.00
568.17	29170.10
568.34	29060.09
568.50	29015.62
568.66	29132.65
568.83	29273.08
568.99	29167.76
569.15	28978.17
569.32	29090.52
569.48	28762.84
569.64	29170.10
569.81	29149.03
569.97	29310.53
570.13	29462.66
570.30	29291.80
570.46	29069.45
570.62	29441.60
570.78	29013.28
570.95	28856.46
571.11	29362.02
571.27	28788.59
571.43	28804.97
571.60	28830.72
571.76	29497.77
571.92	29502.45
572.09	29294.14
572.25	29125.63
572.41	29518.84
572.57	29177.12
572.74	29474.37
572.90	29336.27
573.06	29521.18
573.22	29151.37
573.38	29420.53
573.55	29097.54
573.71	29500.11
573.87	29631.18
574.03	29376.06
574.20	29544.58
574.36	29455.64
574.52	29195.84
574.68	29153.71
574.84	29256.70
575.01	29387.77
575.17	29539.90
575.33	29553.94
575.49	29689.70
575.65	29832.47
575.82	29443.94
575.98	29457.98
576.14	29448.62
576.30	29411.17
576.46	29008.60
576.62	29495.43
576.79	29584.37
576.95	29488.41
577.11	29380.74
577.27	29638.20
577.43	29371.38
577.59	29619.48
577.75	29123.29
577.92	29184.14
578.08	29439.26
578.24	29167.76
578.40	29041.37
578.56	29474.37
578.72	29696.72
578.88	29883.96
579.04	30008.01
579.21	29511.81
579.37	29516.50
579.53	29528.20
579.69	29202.86
579.85	29390.11
580.01	29652.25
580.17	29532.88
580.33	29610.12
580.49	29509.47
580.65	29514.16
580.82	29570.33
580.98	29818.42
581.14	29525.86
581.30	29441.60
581.46	29237.97
581.62	29443.94
581.78	29137.33
581.94	29970.56
582.10	29453.30
582.26	29481.39
582.42	29490.75
582.58	29813.74
582.74	29647.57
582.90	29476.71
583.06	30136.74
583.22	29584.37
583.38	29638.20
583.54	29469.69
583.70	29483.73
583.86	29287.12
584.02	29469.69
584.18	29923.75
584.34	29635.86
584.50	29968.22
584.66	29926.09
584.82	29802.04
584.98	29820.77
585.14	29394.79
585.30	29488.41
585.46	29677.99
585.62	29392.45
585.78	29741.19
585.94	29336.27
586.10	29465.00
586.26	29837.15
586.42	29848.85
586.58	29905.02
586.74	29848.85
586.90	29518.84
587.06	29537.56
587.22	29589.05
587.38	29546.92
587.54	29839.49
587.70	30087.59
587.86	29888.64
588.02	29818.42
588.18	29799.70
588.34	29874.60
588.49	30237.38
588.65	29694.38
588.81	29516.50
588.97	29589.05
589.13	29898.00
589.29	29553.94
589.45	29940.13
589.61	29855.87
589.77	30246.74
589.93	30125.04
590.08	30485.48
590.24	30295.89
590.40	29670.97
590.56	30246.74
590.72	30270.15
590.88	29773.95
591.04	30012.69
591.20	29902.68
591.35	30356.75
591.51	30469.09
591.67	30455.05
591.83	30309.94
591.99	30204.61
