SpectraSuite Data File
++++++++++++++++++++++++++++++++++++
Date: Fri Oct 18 13:58:35 GMT-05:00 2013
User: bianchi
Dark Spectrum Present: No
Reference Spectrum Present: No
Number of Sampled Component Spectra: 1
Spectrometers: USB2+H05261
Integration Time (usec): 50000 (USB2+H05261)
Spectra Averaged: 1 (USB2+H05261)
Boxcar Smoothing: 0 (USB2+H05261)
Correct for Electrical Dark: No (USB2+H05261)
Strobe/Lamp Enabled: No (USB2+H05261)
Correct for Detector Non-linearity: No (USB2+H05261)
Correct for Stray Light: No (USB2+H05261)
Number of Pixels in Processed Spectrum: 2048
>>>>>Begin Processed Spectral Data<<<<<
365.73	0.00
365.92	0.00
366.12	0.00
366.32	0.00
366.52	0.00
366.72	0.00
366.91	0.00
367.11	0.00
367.31	0.00
367.51	0.00
367.70	0.00
367.90	0.00
368.10	0.00
368.30	0.00
368.49	0.00
368.69	0.00
368.89	0.00
369.09	0.00
369.28	0.00
369.48	0.00
369.68	0.00
369.87	0.00
370.07	0.00
370.27	0.00
370.47	0.00
370.66	67.88
370.86	110.01
371.06	133.41
371.25	124.05
371.45	117.03
371.65	49.15
371.84	191.92
372.04	119.37
372.24	180.22
372.44	257.46
372.63	241.08
372.83	161.50
373.03	191.92
373.22	170.86
373.42	135.75
373.62	257.46
373.81	212.99
374.01	245.76
374.21	276.18
374.40	234.05
374.60	255.12
374.79	264.48
374.99	259.80
375.19	266.82
375.38	248.10
375.58	168.52
375.78	320.65
375.97	266.82
376.17	269.16
376.37	294.91
376.56	271.50
376.76	269.16
376.95	217.67
377.15	236.39
377.35	238.73
377.54	238.73
377.74	255.12
377.93	280.86
378.13	159.16
378.33	287.89
378.52	269.16
378.72	273.84
378.91	322.99
379.11	355.76
379.31	292.57
379.50	222.35
379.70	332.36
379.89	327.68
380.09	224.69
380.28	212.99
380.48	301.93
380.68	346.40
380.87	292.57
381.07	308.95
381.26	339.38
381.46	397.89
381.65	332.36
381.85	374.49
382.04	294.91
382.24	351.08
382.43	341.72
382.63	444.70
382.83	348.74
383.02	348.74
383.22	322.99
383.41	351.08
383.61	388.53
383.80	294.91
384.00	344.06
384.19	344.06
384.39	404.91
384.58	388.53
384.78	449.38
384.97	365.12
385.17	374.49
385.36	447.04
385.56	334.70
385.75	383.85
385.95	416.62
386.14	374.49
386.34	416.62
386.53	472.79
386.72	379.17
386.92	393.21
387.11	414.27
387.31	407.25
387.50	425.98
387.70	374.49
387.89	430.66
388.09	447.04
388.28	456.40
388.48	411.93
388.67	411.93
388.86	393.21
389.06	482.15
389.25	465.77
389.45	416.62
389.64	423.64
389.84	484.49
390.03	472.79
390.22	447.04
390.42	500.87
390.61	561.73
390.81	409.59
391.00	503.22
391.19	571.09
391.39	510.24
391.58	498.53
391.78	580.45
391.97	568.75
392.16	500.87
392.36	580.45
392.55	491.51
392.75	594.50
392.94	627.26
393.13	596.84
393.33	582.79
393.52	564.07
393.71	470.45
393.91	564.07
394.10	505.56
394.29	566.41
394.49	550.03
394.68	601.52
394.88	596.84
395.07	580.45
395.26	613.22
395.46	589.82
395.65	594.50
395.84	613.22
396.04	683.44
396.23	662.37
396.42	564.07
396.62	713.86
396.81	732.59
397.00	608.54
397.19	678.76
397.39	678.76
397.58	723.23
397.77	594.50
397.97	596.84
398.16	737.27
398.35	737.27
398.55	669.39
398.74	720.88
398.93	802.80
399.12	730.25
399.32	683.44
399.51	730.25
399.70	791.10
399.90	753.65
400.09	760.67
400.28	800.46
400.47	753.65
400.67	758.33
400.86	746.63
401.05	739.61
401.24	791.10
401.44	809.83
401.63	725.57
401.82	807.48
402.01	784.08
402.21	861.32
402.40	755.99
402.59	854.30
402.78	844.93
402.97	809.83
403.17	950.26
403.36	847.27
403.55	910.47
403.74	912.81
403.93	880.04
404.13	856.64
404.32	870.68
404.51	915.15
404.70	952.60
404.89	912.81
405.09	971.32
405.28	943.24
405.47	933.87
405.66	919.83
405.85	973.66
406.05	875.36
406.24	990.05
406.43	966.64
406.62	1043.88
406.81	1090.69
407.00	919.83
407.20	999.41
407.39	1102.39
407.58	1036.86
407.77	1062.60
407.96	1025.15
408.15	1043.88
408.34	1097.71
408.54	1095.37
408.73	1146.86
408.92	1093.03
409.11	1132.82
409.30	1109.41
409.49	1158.57
409.68	1200.69
409.87	1191.33
410.07	1128.14
410.26	1156.22
410.45	1128.14
410.64	1210.06
410.83	1114.10
411.02	1233.46
411.21	1191.33
411.40	1299.00
411.59	1334.11
411.78	1299.00
411.98	1224.10
412.17	1273.25
412.36	1289.64
412.55	1306.02
412.74	1348.15
412.93	1362.19
413.12	1327.08
413.31	1401.98
413.50	1322.40
413.69	1409.00
413.88	1371.55
414.07	1345.81
414.26	1420.71
414.45	1490.92
414.64	1416.02
414.83	1488.58
415.02	1521.35
415.22	1598.59
415.41	1565.82
415.60	1544.75
415.79	1596.25
415.98	1542.41
416.17	1617.31
416.36	1561.14
416.55	1710.93
416.74	1640.72
416.93	1638.38
417.12	1647.74
417.31	1666.46
417.50	1612.63
417.69	1797.53
417.88	1762.42
418.07	1664.12
418.26	1741.36
418.45	1783.49
418.64	1785.83
418.83	1734.34
419.02	1762.42
419.21	1816.26
419.39	1739.02
419.58	1832.64
419.77	1706.25
419.96	1935.62
420.15	1886.47
420.34	1858.39
420.53	1863.07
420.72	1888.81
420.91	1872.43
421.10	2008.18
421.29	1902.86
421.48	1961.37
421.67	2008.18
421.86	1919.24
422.05	1914.56
422.24	2024.56
422.43	1900.52
422.61	2038.61
422.80	2059.67
422.99	1991.80
423.18	1947.33
423.37	1923.92
423.56	1912.22
423.75	2019.88
423.94	2043.29
424.13	1968.39
424.32	2019.88
424.50	2078.40
424.69	2047.97
424.88	2073.71
425.07	2078.40
425.26	1966.05
425.45	1994.14
425.64	2019.88
425.83	1994.14
426.01	2069.03
426.20	2029.24
426.39	1975.41
426.58	2003.50
426.77	2033.93
426.96	2148.61
427.15	2038.61
427.33	2099.46
427.52	2038.61
427.71	2050.31
427.90	2251.60
428.09	2244.57
428.28	2221.17
428.46	2277.34
428.65	2216.49
428.84	2221.17
429.03	2190.74
429.22	2230.53
429.40	2331.17
429.59	2286.70
429.78	2122.87
429.97	2174.36
430.16	2223.51
430.34	2387.35
430.53	2380.32
430.72	2296.07
430.91	2359.26
431.10	2310.11
431.28	2368.62
431.47	2394.37
431.66	2436.50
431.85	2373.30
432.03	2431.82
432.22	2635.44
432.41	2382.67
432.60	2345.22
432.79	2555.86
432.97	2406.07
433.16	2413.09
433.35	2396.71
433.54	2495.01
433.72	2633.10
433.91	2466.92
434.10	2546.50
434.28	2513.74
434.47	2530.12
434.66	2623.74
434.85	2588.63
435.03	2581.61
435.22	2497.35
435.41	2738.43
435.59	2609.70
435.78	2574.59
435.97	2609.70
436.16	2761.83
436.34	2607.36
436.53	2654.17
436.72	2733.75
436.90	2656.51
437.09	2619.06
437.28	2682.25
437.46	2621.40
437.65	2810.98
437.84	2801.62
438.02	2885.88
438.21	2855.45
438.40	2752.47
438.58	2705.66
438.77	2923.33
438.96	2918.65
439.14	2998.23
439.33	3002.91
439.52	3005.25
439.70	2925.67
439.89	2956.10
440.08	2981.84
440.26	3098.87
440.45	3014.61
440.63	3059.08
440.82	3103.55
441.01	3021.63
441.19	3133.98
441.38	3232.28
441.57	3138.66
441.75	3361.01
441.94	3302.50
442.12	3201.85
442.31	3208.87
442.50	3358.67
442.68	3307.18
442.87	3304.84
443.05	3274.41
443.24	3377.39
443.43	3323.56
443.61	3262.71
443.80	3475.70
443.98	3178.45
444.17	3236.96
444.35	3372.71
444.54	3510.80
444.73	3585.70
444.91	3454.63
445.10	3424.20
445.28	3433.57
445.47	3424.20
445.65	3496.76
445.84	3433.57
446.02	3515.48
446.21	3499.10
446.39	3473.36
446.58	3555.27
446.77	3412.50
446.95	3353.99
447.14	3471.01
447.32	3496.76
447.51	3541.23
447.69	3531.87
447.88	3627.83
448.06	3574.00
448.25	3473.36
448.43	3471.01
448.62	3630.17
448.80	3522.51
448.99	3634.85
449.17	3609.11
449.36	3665.28
449.54	3707.41
449.73	3698.05
449.91	3730.81
450.10	3714.43
450.28	3693.37
450.46	3655.92
450.65	3714.43
450.83	3833.80
451.02	3637.19
451.20	3833.80
451.39	3707.41
451.57	3770.60
451.76	3845.50
451.94	3747.20
452.13	3904.01
452.31	3857.20
452.49	3756.56
452.68	3925.08
452.86	3829.12
453.05	3960.19
453.23	3922.74
453.42	3918.06
453.60	3915.72
453.78	3899.33
453.97	3929.76
454.15	3950.82
454.34	3953.16
454.52	4037.42
454.70	4002.32
454.89	4093.60
455.07	4070.19
455.26	3922.74
455.44	4112.32
455.62	4138.07
455.81	4154.45
455.99	4290.20
456.17	4198.92
456.36	4215.30
456.54	4058.49
456.73	4100.62
456.91	4351.06
457.09	4299.56
457.28	4262.12
457.46	4156.79
457.64	4304.25
457.83	4227.01
458.01	4184.88
458.19	4578.09
458.38	4327.65
458.56	4411.91
458.74	4414.25
458.93	4369.78
459.11	4524.26
459.29	4528.94
459.48	4440.00
459.66	4521.92
459.84	4561.70
460.03	4510.21
460.21	4580.43
460.39	4566.39
460.57	4423.61
460.76	4498.51
460.94	4507.87
461.12	4627.24
461.31	4660.01
461.49	4662.35
461.67	4636.60
461.85	4875.34
462.04	4599.15
462.22	4746.61
462.40	4807.46
462.59	4638.94
462.77	4819.16
462.95	4734.90
463.13	4795.76
463.32	4847.25
463.50	4767.67
463.68	4840.23
463.86	4894.06
464.05	4770.01
464.23	4856.61
464.41	4805.12
464.59	4786.40
464.78	5008.75
464.96	4880.02
465.14	4812.14
465.32	4990.02
465.50	4980.66
465.69	5053.22
465.87	4889.38
466.05	5011.09
466.23	4983.00
466.41	5022.79
466.60	5093.01
466.78	5088.32
466.96	4983.00
467.14	5111.73
467.32	5093.01
467.51	5095.35
467.69	5205.35
467.87	5212.37
468.05	5088.32
468.23	5095.35
468.41	5085.98
468.60	5188.97
468.78	5350.46
468.96	5261.52
469.14	5200.67
469.32	5305.99
469.50	5074.28
469.69	5420.68
469.87	5420.68
470.05	5483.88
470.23	5423.02
470.41	5516.64
470.59	5336.42
470.77	5408.98
470.95	5591.54
471.14	5778.78
471.32	5352.81
471.50	5423.02
471.68	5717.93
471.86	5628.99
472.04	5671.12
472.22	5837.30
472.40	5490.90
472.58	5816.23
472.77	5659.42
472.95	5799.85
473.13	5851.34
473.31	5654.73
473.49	5856.02
473.67	5872.40
473.85	5919.21
474.03	5963.68
474.21	5827.93
474.39	5891.13
474.57	5954.32
474.75	6267.95
474.93	6143.91
475.12	6134.54
475.30	6204.76
475.48	6164.97
475.66	6108.80
475.84	6242.21
476.02	6331.15
476.20	6380.30
476.38	6593.29
476.56	6420.09
476.74	6373.28
476.92	6420.09
477.10	6616.69
477.28	6623.72
477.46	6406.05
477.64	6803.94
477.82	6827.34
478.00	7054.37
478.18	6946.71
478.36	6984.16
478.54	7082.46
478.72	7108.21
478.90	7150.34
479.08	7056.72
479.26	7117.57
479.44	7503.76
479.62	7527.16
479.80	7494.40
479.98	7363.33
480.16	7517.80
480.34	7470.99
480.52	7679.30
480.70	7634.83
480.88	7557.59
481.06	7688.66
481.24	7630.15
481.41	7941.44
481.59	7847.82
481.77	8156.77
481.95	8042.08
482.13	7948.46
482.31	8219.96
482.49	8205.92
482.67	8351.03
482.85	8381.46
483.03	8423.59
483.21	8610.83
483.39	8549.98
483.57	8566.36
483.74	8592.11
483.92	8725.52
484.10	8655.30
484.28	8816.80
484.46	8975.95
484.64	9095.32
484.82	9083.62
485.00	8950.21
485.18	9254.48
485.35	9359.80
485.53	9296.61
485.71	9390.23
485.89	9612.58
486.07	9284.91
486.25	9542.36
486.43	9640.67
486.61	9607.90
486.78	9745.99
486.96	9923.87
487.14	10157.92
487.32	10050.26
487.50	10129.84
487.68	10303.04
487.85	10354.53
488.03	10347.51
488.21	10551.14
488.39	10513.69
488.57	10581.56
488.75	10450.49
488.92	10747.74
489.10	10832.00
489.28	10726.68
489.46	11143.29
489.64	11197.12
489.81	10991.16
489.99	11145.63
490.17	11379.68
490.35	11445.22
490.53	11466.28
490.70	11489.69
490.88	11758.85
491.06	11826.73
491.24	11595.01
491.41	11833.75
491.59	11639.48
491.77	11941.41
491.95	12138.02
492.13	12072.48
492.30	12229.30
492.48	12189.51
492.66	12191.85
492.84	12411.86
493.01	12711.45
493.19	12542.93
493.37	12592.08
493.54	12702.09
493.72	12622.51
493.90	12627.19
494.08	12915.08
494.25	12915.08
494.43	13149.13
494.61	13301.26
494.79	13345.73
494.96	13209.98
495.14	13334.03
495.32	13350.42
495.49	13577.45
495.67	13781.07
495.85	13767.03
496.02	13755.33
496.20	14113.43
496.38	14003.43
496.55	13827.88
496.73	14216.41
496.91	14253.86
497.09	14232.80
497.26	14312.38
497.44	14396.64
497.62	14256.20
497.79	14558.13
497.97	14679.84
498.14	14787.50
498.32	14581.54
498.50	14750.06
498.67	14991.13
498.85	15009.86
499.03	14857.72
499.20	14902.19
499.38	14892.83
499.56	15218.16
499.73	15269.66
499.91	15363.28
500.08	15220.50
500.26	15183.06
500.44	15508.39
500.61	15527.11
500.79	15548.18
500.97	15868.83
501.14	15641.80
501.32	15590.31
501.49	15861.81
501.67	15604.35
501.84	16168.42
502.02	15447.54
502.20	15971.82
502.37	16018.63
502.55	16173.10
502.72	16149.70
502.90	16147.36
503.07	16161.40
503.25	16320.56
503.43	16095.86
503.60	16556.95
503.78	16734.83
503.95	16540.57
504.13	16748.87
504.30	16521.84
504.48	16606.10
504.65	16547.59
504.83	16985.27
505.01	17165.49
505.18	16908.03
505.36	17067.19
505.53	16961.86
505.71	16903.35
505.88	17186.55
506.06	17081.23
506.23	17268.47
506.41	17114.00
506.58	17242.73
506.76	17418.27
506.93	17458.06
507.11	17263.79
507.28	17394.86
507.46	17678.07
507.63	17809.14
507.81	18146.17
507.98	17668.70
508.16	17935.53
508.33	17680.41
508.50	17554.02
508.68	17771.69
508.85	18200.01
509.03	18195.32
509.20	18169.58
509.38	18377.89
509.55	18174.26
509.73	18689.18
509.90	18209.37
510.08	18333.42
510.25	18518.32
510.42	18523.00
510.60	18717.26
510.77	18848.33
510.95	18515.98
511.12	18417.68
511.30	18750.03
511.47	18888.12
511.64	18740.67
511.82	18967.70
511.99	18941.96
512.17	19000.47
512.34	18853.02
512.51	19197.07
512.69	19412.40
512.86	19154.94
513.04	19555.18
513.21	19559.86
513.38	19522.41
513.56	19396.02
513.73	19501.34
513.90	19524.75
514.08	19597.31
514.25	19683.91
514.43	19697.95
514.60	19517.73
514.77	19807.95
514.95	19805.61
515.12	19662.84
515.29	20030.30
515.47	19885.19
515.64	20201.16
515.81	19782.21
515.99	20453.94
516.16	20360.32
516.33	20320.53
516.51	20194.14
516.68	20257.34
516.85	20418.83
517.03	20568.63
517.20	20177.76
517.37	20498.41
517.54	20636.50
517.72	20732.47
517.89	20879.92
518.06	20479.69
518.24	20720.76
518.41	20620.12
518.58	20896.30
518.75	20594.37
518.93	20786.30
519.10	21050.78
519.27	21088.23
519.45	20833.11
519.62	21001.63
519.79	21083.55
519.96	20982.90
520.14	21120.99
520.31	21013.33
520.48	21128.02
520.65	21142.06
520.83	21064.82
521.00	21785.71
521.17	21406.54
521.34	21366.75
521.52	21661.66
521.69	21893.37
521.86	21771.66
522.03	21755.28
522.20	22036.14
522.38	21532.93
522.55	21940.18
522.72	21671.02
522.89	21972.95
523.07	22129.77
523.24	21820.81
523.41	22118.06
523.58	21935.50
523.75	22031.46
523.92	21713.15
524.10	21991.67
524.27	22291.26
524.44	22284.24
524.61	22614.26
524.78	22852.99
524.96	22382.54
525.13	22520.63
525.30	22312.33
525.47	22635.32
525.64	22328.71
525.81	22450.42
525.98	22588.51
526.16	22569.79
526.33	22885.76
526.50	22822.56
526.67	22721.92
526.84	22677.45
527.01	22740.64
527.18	22836.61
527.36	23161.94
527.53	23183.01
527.70	23206.41
527.87	23288.33
528.04	23138.54
528.21	22986.40
528.38	22834.27
528.55	23206.41
528.72	23440.47
528.89	23171.30
529.07	23363.23
529.24	23468.55
529.41	23632.39
529.58	23522.38
529.75	23293.01
529.92	23349.18
530.09	23311.74
530.26	23405.36
530.43	23625.37
530.60	23606.64
530.77	23625.37
530.94	23637.07
531.11	23580.90
531.28	24039.64
531.46	24013.90
531.63	23978.79
531.80	23758.78
531.97	24280.72
532.14	24189.44
532.31	24058.37
532.48	23990.49
532.65	24044.32
532.82	24023.26
532.99	24215.18
533.16	24034.96
533.33	24442.21
533.50	24931.39
533.67	24334.55
533.84	24261.99
534.01	24376.68
534.18	24194.12
534.35	24367.32
534.52	24322.85
534.69	24671.59
534.86	24999.26
535.03	24397.74
535.20	24556.90
535.37	24896.28
535.54	24669.25
535.71	24561.58
535.88	24664.57
536.05	24629.46
536.22	24924.36
536.38	25186.50
536.55	25032.03
536.72	25205.23
536.89	24910.32
537.06	25099.90
537.23	25235.66
537.40	25041.39
537.57	25390.13
537.74	25071.82
537.91	25230.98
538.08	25172.46
538.25	24713.72
538.42	25172.46
538.59	25106.93
538.75	25270.76
538.92	25298.85
539.09	25577.37
539.26	25469.71
539.43	25685.04
539.60	25387.79
539.77	25460.35
539.94	25111.61
540.11	25598.44
540.28	25165.44
540.44	25357.36
540.61	25301.19
540.78	25603.12
540.95	25652.27
541.12	25792.70
541.29	26022.08
541.46	26082.93
541.62	26036.12
541.79	25523.54
541.96	25476.73
542.13	25923.77
542.30	26169.53
542.47	26197.62
542.63	25977.61
542.80	25853.56
542.97	26321.66
543.14	26155.49
543.31	26157.83
543.48	25874.62
543.64	26457.42
543.81	26536.99
543.98	26576.78
544.15	26574.44
544.32	26490.18
544.48	26590.83
544.65	26394.22
544.82	26417.63
544.99	26581.46
545.16	26738.28
545.32	26590.83
545.49	26670.40
545.66	26651.68
545.83	26759.34
546.00	26969.99
546.16	26630.62
546.33	26749.98
546.50	26560.40
546.67	26649.34
546.83	26742.96
547.00	26934.88
547.17	26951.27
547.34	27150.21
547.50	27276.60
547.67	27187.66
547.84	26789.77
548.00	27072.98
548.17	26988.72
548.34	26864.67
548.51	27491.93
548.67	27250.86
548.84	27393.63
549.01	27281.28
549.18	27136.17
549.34	27351.50
549.51	27042.55
549.68	27250.86
549.84	27253.20
550.01	27648.75
550.18	27220.43
550.34	27433.42
550.51	27417.04
550.68	27559.81
550.84	27405.33
551.01	27534.06
551.18	27475.55
551.34	27222.77
551.51	27349.16
551.68	27300.01
551.84	27475.55
552.01	27522.36
552.18	27793.86
552.34	27751.73
552.51	27845.35
552.68	27880.46
552.84	27751.73
553.01	27875.78
553.18	27793.86
553.34	27615.98
553.51	27871.10
553.67	28327.50
553.84	28140.26
554.01	27733.01
554.17	27889.82
554.34	28060.68
554.51	27796.20
554.67	28086.43
554.84	27789.18
555.00	27868.76
555.17	27637.05
555.33	28219.84
555.50	27983.44
555.67	28063.02
555.83	28381.34
556.00	28240.90
556.16	28236.22
556.33	28130.90
556.50	28002.17
556.66	28582.62
556.83	28168.35
556.99	28435.17
557.16	28540.49
557.32	28212.82
557.49	28547.51
557.65	28313.46
557.82	28463.25
557.98	28290.06
558.15	28276.01
558.32	28856.46
558.48	28491.34
558.65	28676.24
558.81	28666.88
558.98	28917.32
559.14	28376.66
559.31	28725.39
559.47	28467.94
559.64	28535.81
559.80	28807.31
559.97	29090.52
560.13	28599.01
560.30	28669.22
560.46	28879.87
560.63	28425.81
560.79	28910.30
560.96	28849.44
561.12	28271.33
561.29	28599.01
561.45	28919.66
561.61	28840.08
561.78	28795.61
561.94	28957.11
562.11	29144.35
562.27	29151.37
562.44	28793.27
562.60	28676.24
562.77	28809.65
562.93	28931.36
563.10	29502.45
563.26	28678.58
563.42	29284.78
563.59	29022.64
563.75	29722.46
563.92	29010.94
564.08	28854.12
564.24	28814.34
564.41	28285.37
564.57	28882.21
564.74	28774.55
564.90	29195.84
565.07	28779.23
565.23	28891.57
565.39	28954.77
565.56	29422.87
565.72	29312.87
565.88	29294.14
566.05	29008.60
566.21	29144.35
566.38	29392.45
566.54	29387.77
566.70	29369.04
566.87	29647.57
567.03	29792.68
567.19	29350.32
567.36	29528.20
567.52	29488.41
567.68	29413.51
567.85	29240.31
568.01	29001.58
568.17	29074.13
568.34	29495.43
568.50	29247.33
568.66	29621.82
568.83	29673.31
568.99	29373.72
569.15	29078.82
569.32	29191.16
569.48	29202.86
569.64	29862.90
569.81	29427.56
569.97	29544.58
570.13	29432.24
570.30	29123.29
570.46	29670.97
570.62	29277.76
570.78	29584.37
570.95	29032.00
571.11	29570.33
571.27	28943.06
571.43	29530.54
571.60	29373.72
571.76	29392.45
571.92	29366.70
572.09	29448.62
572.25	29266.06
572.41	29420.53
572.57	29909.71
572.74	30106.31
572.90	29516.50
573.06	29420.53
573.22	29404.15
573.38	29577.35
573.55	29813.74
573.71	30099.29
573.87	29734.17
574.03	29895.66
574.20	29792.68
574.36	29535.22
574.52	29607.78
574.68	29832.47
574.84	30003.33
575.01	29642.88
575.17	29670.97
575.33	29291.80
575.49	29495.43
575.65	29619.48
575.82	30157.80
575.98	29378.40
576.14	30160.14
576.30	29649.91
576.46	29848.85
576.62	29717.78
576.79	29919.07
576.95	29465.00
577.11	29755.23
577.27	30106.31
577.43	29954.18
577.59	29603.10
577.75	29600.76
577.92	29617.14
578.08	29453.30
578.24	29500.11
578.40	29523.52
578.56	29701.40
578.72	29972.90
578.88	29935.45
579.04	29731.83
579.21	29841.83
579.37	29874.60
579.53	29933.11
579.69	29369.04
579.85	29951.84
580.01	30075.88
580.17	29600.76
580.33	29301.17
580.49	29839.49
580.65	30263.13
580.82	29886.30
580.98	30071.20
581.14	29811.40
581.30	29977.58
581.46	29392.45
581.62	29633.52
581.78	29380.74
581.94	29862.90
582.10	29673.31
582.26	29565.65
582.42	29909.71
582.58	29832.47
582.74	29596.07
582.90	30026.73
583.06	30148.44
583.22	29776.30
583.38	30169.51
583.54	29970.56
583.70	30068.86
583.86	29876.94
584.02	29497.77
584.18	30426.96
584.34	29776.30
584.50	29998.65
584.66	30061.84
584.82	29553.94
584.98	29944.81
585.14	29947.15
585.30	29289.46
585.46	30089.93
585.62	29855.87
585.78	29968.22
585.94	29886.30
586.10	29549.26
586.26	30164.82
586.42	30183.55
586.58	29956.52
586.74	30146.10
586.90	29879.28
587.06	29846.51
587.22	30010.35
587.38	29605.44
587.54	30064.18
587.70	30368.45
587.86	30370.79
588.02	29788.00
588.18	30061.84
588.34	30216.32
588.49	29986.94
588.65	30101.63
588.81	29989.28
588.97	29788.00
589.13	29785.66
589.29	30455.05
589.45	29933.11
589.61	30342.70
589.77	30394.20
589.93	30314.62
590.08	30670.38
590.24	30480.80
590.40	30270.15
590.56	30185.89
590.72	30169.51
590.88	29855.87
591.04	29961.20
591.20	30424.62
591.35	30359.09
591.51	30546.33
591.67	30445.69
591.83	30693.79
591.99	30536.97
