SpectraSuite Data File
++++++++++++++++++++++++++++++++++++
Date: Fri Oct 18 13:58:27 GMT-05:00 2013
User: bianchi
Dark Spectrum Present: No
Reference Spectrum Present: No
Number of Sampled Component Spectra: 1
Spectrometers: USB2+H05261
Integration Time (usec): 50000 (USB2+H05261)
Spectra Averaged: 1 (USB2+H05261)
Boxcar Smoothing: 0 (USB2+H05261)
Correct for Electrical Dark: No (USB2+H05261)
Strobe/Lamp Enabled: No (USB2+H05261)
Correct for Detector Non-linearity: No (USB2+H05261)
Correct for Stray Light: No (USB2+H05261)
Number of Pixels in Processed Spectrum: 2048
>>>>>Begin Processed Spectral Data<<<<<
365.73	0.00
365.92	0.00
366.12	0.00
366.32	0.00
366.52	0.00
366.72	0.00
366.91	0.00
367.11	0.00
367.31	0.00
367.51	0.00
367.70	0.00
367.90	0.00
368.10	0.00
368.30	0.00
368.49	0.00
368.69	0.00
368.89	0.00
369.09	0.00
369.28	0.00
369.48	0.00
369.68	0.00
369.87	0.00
370.07	0.00
370.27	0.00
370.47	0.00
370.66	107.66
370.86	112.35
371.06	205.97
371.25	149.79
371.45	145.11
371.65	140.43
371.84	100.64
372.04	124.05
372.24	196.60
372.44	88.94
372.63	152.13
372.83	140.43
373.03	201.29
373.22	149.79
373.42	180.22
373.62	229.37
373.81	224.69
374.01	287.89
374.21	234.05
374.40	220.01
374.60	227.03
374.79	266.82
374.99	168.52
375.19	245.76
375.38	259.80
375.58	245.76
375.78	327.68
375.97	255.12
376.17	304.27
376.37	271.50
376.56	308.95
376.76	238.73
376.95	252.78
377.15	191.92
377.35	269.16
377.54	269.16
377.74	236.39
377.93	236.39
378.13	210.65
378.33	191.92
378.52	313.63
378.72	327.68
378.91	259.80
379.11	271.50
379.31	236.39
379.50	311.29
379.70	376.83
379.89	241.08
380.09	322.99
380.28	198.95
380.48	189.58
380.68	344.06
380.87	360.44
381.07	266.82
381.26	395.55
381.46	381.51
381.65	306.61
381.85	351.08
382.04	266.82
382.24	381.51
382.43	388.53
382.63	351.08
382.83	355.76
383.02	416.62
383.22	374.49
383.41	376.83
383.61	315.97
383.80	332.36
384.00	461.09
384.19	367.46
384.39	369.80
384.58	393.21
384.78	418.96
384.97	367.46
385.17	325.33
385.36	367.46
385.56	404.91
385.75	388.53
385.95	346.40
386.14	414.27
386.34	358.10
386.53	372.15
386.72	315.97
386.92	472.79
387.11	395.55
387.31	351.08
387.50	360.44
387.70	505.56
387.89	409.59
388.09	407.25
388.28	477.47
388.48	397.89
388.67	421.30
388.86	435.34
389.06	404.91
389.25	348.74
389.45	524.28
389.64	400.23
389.84	442.36
390.03	491.51
390.22	498.53
390.42	355.76
390.61	498.53
390.81	540.66
391.00	585.13
391.19	461.09
391.39	484.49
391.58	559.39
391.78	491.51
391.97	503.22
392.16	428.32
392.36	482.15
392.55	510.24
392.75	543.00
392.94	608.54
393.13	566.41
393.33	484.49
393.52	573.43
393.71	547.69
393.91	613.22
394.10	573.43
394.29	547.69
394.49	627.26
394.68	671.73
394.88	521.94
395.07	592.16
395.26	643.65
395.46	615.56
395.65	669.39
395.84	594.50
396.04	606.20
396.23	617.90
396.42	589.82
396.62	622.58
396.81	660.03
397.00	613.22
397.19	575.77
397.39	613.22
397.58	575.77
397.77	699.82
397.97	650.67
398.16	636.63
398.35	695.14
398.55	674.07
398.74	624.92
398.93	753.65
399.12	699.82
399.32	681.10
399.51	695.14
399.70	709.18
399.90	648.33
400.09	765.36
400.28	809.83
400.47	725.57
400.67	805.14
400.86	734.93
401.05	779.40
401.24	725.57
401.44	807.48
401.63	835.57
401.82	814.51
402.01	755.99
402.21	847.27
402.40	858.98
402.59	774.72
402.78	823.87
402.97	821.53
403.17	784.08
403.36	800.46
403.55	791.10
403.74	891.74
403.93	858.98
404.13	884.72
404.32	866.00
404.51	959.62
404.70	863.66
404.89	903.45
405.09	889.40
405.28	983.02
405.47	884.72
405.66	938.55
405.85	964.30
406.05	936.21
406.24	926.85
406.43	933.87
406.62	957.28
406.81	1142.18
407.00	994.73
407.20	1013.45
407.39	973.66
407.58	1048.56
407.77	990.05
407.96	1086.01
408.15	1146.86
408.34	1069.62
408.54	1177.29
408.73	1025.15
408.92	1029.84
409.11	1149.20
409.30	1027.50
409.49	1083.67
409.68	1177.29
409.87	1153.88
410.07	1170.27
410.26	1095.37
410.45	1125.80
410.64	1205.38
410.83	1116.44
411.02	1228.78
411.21	1254.53
411.40	1217.08
411.59	1242.82
411.78	1242.82
411.98	1172.61
412.17	1303.68
412.36	1315.38
412.55	1289.64
412.74	1320.06
412.93	1350.49
413.12	1334.11
413.31	1261.55
413.50	1394.96
413.69	1465.18
413.88	1409.00
414.07	1383.26
414.26	1343.47
414.45	1521.35
414.64	1444.11
414.83	1596.25
415.02	1577.52
415.22	1516.67
415.41	1523.69
415.60	1533.05
415.79	1582.20
415.98	1561.14
416.17	1521.35
416.36	1575.18
416.55	1605.61
416.74	1563.48
416.93	1760.08
417.12	1650.08
417.31	1727.32
417.50	1713.27
417.69	1706.25
417.88	1689.87
418.07	1776.47
418.26	1717.95
418.45	1769.44
418.64	1832.64
418.83	1785.83
419.02	1739.02
419.21	1734.34
419.39	1720.29
419.58	1804.55
419.77	1774.13
419.96	1952.01
420.15	1795.19
420.34	1797.53
420.53	1891.15
420.72	1799.87
420.91	1891.15
421.10	2047.97
421.29	1865.41
421.48	1846.68
421.67	1907.54
421.86	2052.65
422.05	1867.75
422.24	1900.52
422.43	1912.22
422.61	1970.73
422.80	2043.29
422.99	2064.35
423.18	2008.18
423.37	1937.96
423.56	2010.52
423.75	1952.01
423.94	1919.24
424.13	1823.28
424.32	2003.50
424.50	2001.16
424.69	2031.58
424.88	2005.84
425.07	2040.95
425.26	1961.37
425.45	2054.99
425.64	2012.86
425.83	2050.31
426.01	2139.25
426.20	1977.75
426.39	2012.86
426.58	1966.05
426.77	2059.67
426.96	2090.10
427.15	2097.12
427.33	2134.57
427.52	2022.22
427.71	2132.23
427.90	2033.93
428.09	2183.72
428.28	2129.89
428.46	2223.51
428.65	2134.57
428.84	2188.40
429.03	2335.85
429.22	2214.15
429.40	2235.21
429.59	2260.96
429.78	2045.63
429.97	2139.25
430.16	2146.27
430.34	2331.17
430.53	2363.94
430.72	2356.92
430.91	2300.75
431.10	2296.07
431.28	2361.60
431.47	2349.90
431.66	2476.29
431.85	2345.22
432.03	2377.98
432.22	2466.92
432.41	2457.56
432.60	2504.37
432.79	2438.84
432.97	2499.69
433.16	2324.15
433.35	2352.24
433.54	2502.03
433.72	2513.74
433.91	2314.79
434.10	2506.71
434.28	2583.95
434.47	2469.27
434.66	2504.37
434.85	2616.72
435.03	2572.25
435.22	2553.52
435.41	2633.10
435.59	2586.29
435.78	2569.91
435.97	2583.95
436.16	2532.46
436.34	2553.52
436.53	2717.36
436.72	2750.13
436.90	2698.64
437.09	2768.85
437.28	2710.34
437.46	2761.83
437.65	2799.28
437.84	2757.15
438.02	2792.26
438.21	2722.04
438.40	2745.45
438.58	2839.07
438.77	2832.05
438.96	2928.01
439.14	2785.24
439.33	2836.73
439.52	2888.22
439.70	2888.22
439.89	3040.36
440.08	2981.84
440.26	2920.99
440.45	3000.57
440.63	3063.76
440.82	3190.15
441.01	3033.33
441.19	3063.76
441.38	3117.59
441.57	3068.44
441.75	3201.85
441.94	3173.77
442.12	3218.24
442.31	3222.92
442.50	3199.51
442.68	3220.58
442.87	3286.11
443.05	3421.86
443.24	3236.96
443.43	3267.39
443.61	3379.73
443.80	3421.86
443.98	3260.37
444.17	3337.60
444.35	3405.48
444.54	3332.92
444.73	3445.27
444.91	3339.94
445.10	3496.76
445.28	3251.00
445.47	3337.60
445.65	3454.63
445.84	3459.31
446.02	3578.68
446.21	3466.33
446.39	3363.35
446.58	3435.91
446.77	3454.63
446.95	3302.50
447.14	3330.58
447.32	3478.04
447.51	3454.63
447.69	3440.59
447.88	3468.67
448.06	3454.63
448.25	3304.84
448.43	3480.38
448.62	3536.55
448.80	3517.83
448.99	3655.92
449.17	3588.04
449.36	3524.85
449.54	3641.87
449.73	3674.64
449.91	3681.66
450.10	3674.64
450.28	3801.03
450.46	3637.19
450.65	3637.19
450.83	3630.17
451.02	3747.20
451.20	3791.67
451.39	3840.82
451.57	3782.31
451.76	3662.94
451.94	3866.56
452.13	3758.90
452.31	3730.81
452.49	3761.24
452.68	3749.54
452.86	3730.81
453.05	3955.51
453.23	3740.18
453.42	3782.31
453.60	3854.86
453.78	3871.25
453.97	3845.50
454.15	3854.86
454.34	3889.97
454.52	4032.74
454.70	3999.98
454.89	4002.32
455.07	4081.89
455.26	3999.98
455.44	4037.42
455.62	4030.40
455.81	4098.28
455.99	3974.23
456.17	4109.98
456.36	4100.62
456.54	4203.60
456.73	4142.75
456.91	4358.08
457.09	4236.37
457.28	4435.32
457.46	4126.36
457.64	4297.22
457.83	4299.56
458.01	4234.03
458.19	4292.54
458.38	4315.95
458.56	4318.29
458.74	4374.46
458.93	4386.16
459.11	4484.47
459.29	4376.80
459.48	4451.70
459.66	4491.49
459.84	4383.82
460.03	4440.00
460.21	4440.00
460.39	4498.51
460.57	4444.68
460.76	4643.62
460.94	4734.90
461.12	4603.83
461.31	4580.43
461.49	4638.94
461.67	4498.51
461.85	4683.41
462.04	4674.05
462.22	4861.29
462.40	4753.63
462.59	4737.24
462.77	4650.64
462.95	4739.58
463.13	4819.16
463.32	4741.93
463.50	4802.78
463.68	4739.58
463.86	4828.53
464.05	4809.80
464.23	4851.93
464.41	4837.89
464.59	4683.41
464.78	4819.16
464.96	4809.80
465.14	4751.29
465.32	4933.85
465.50	4858.95
465.69	5008.75
465.87	4812.14
466.05	4978.32
466.23	4896.40
466.41	4919.81
466.60	5109.39
466.78	5097.69
466.96	4987.68
467.14	4823.84
467.32	5067.26
467.51	5130.45
467.69	4884.70
467.87	5095.35
468.05	5081.30
468.23	5095.35
468.41	5104.71
468.60	4919.81
468.78	5158.54
468.96	5102.37
469.14	5238.12
469.32	5186.63
469.50	5029.81
469.69	5245.14
469.87	5233.44
470.05	5331.74
470.23	5401.96
470.41	5418.34
470.59	5418.34
470.77	5411.32
470.95	5273.23
471.14	5481.53
471.32	5249.82
471.50	5647.71
471.68	5568.13
471.86	5476.85
472.04	5544.73
472.22	5713.25
472.40	5572.82
472.58	5572.82
472.77	5776.44
472.95	5680.48
473.13	5844.32
473.31	5806.87
473.49	5767.08
473.67	5750.70
473.85	5661.76
474.03	5785.80
474.21	5921.56
474.39	6099.44
474.57	6069.01
474.75	6115.82
474.93	6111.14
475.12	6122.84
475.30	5973.05
475.48	6157.95
475.66	6029.22
475.84	6291.36
476.02	6413.07
476.20	6272.64
476.38	6347.53
476.56	6455.20
476.74	6513.71
476.92	6415.41
477.10	6396.68
477.28	6607.33
477.46	6452.86
477.64	6665.85
477.82	6750.10
478.00	6806.28
478.18	6612.01
478.36	6904.58
478.54	7035.65
478.72	7070.76
478.90	7087.14
479.08	6991.18
479.26	7323.54
479.44	7084.80
479.62	7295.45
479.80	7337.58
479.98	7307.15
480.16	7461.63
480.34	7503.76
480.52	7435.88
480.70	7559.93
480.88	7585.68
481.06	7681.64
481.24	7662.91
481.41	7782.28
481.59	7721.43
481.77	7836.11
481.95	8023.36
482.13	7950.80
482.31	8095.91
482.49	8210.60
482.67	8175.49
482.85	8301.88
483.03	8259.75
483.21	8351.03
483.39	8432.95
483.57	8454.02
483.74	8430.61
483.92	8575.72
484.10	8641.26
484.28	8702.11
484.46	8842.54
484.64	9071.92
484.82	8915.10
485.00	9102.34
485.18	9254.48
485.35	9369.16
485.53	9341.08
485.71	9275.54
485.89	9703.86
486.07	9504.92
486.25	9657.05
486.43	9432.36
486.61	9645.35
486.78	9603.22
486.96	9818.55
487.14	10078.35
487.32	9891.10
487.50	10026.86
487.68	10132.18
487.85	10300.70
488.03	10270.27
488.21	10380.28
488.39	10614.33
488.57	10300.70
488.75	10373.25
488.92	10604.97
489.10	10555.82
489.28	10846.04
489.46	11002.86
489.64	10864.77
489.81	11084.78
489.99	11000.52
490.17	11328.19
490.35	11426.50
490.53	11398.41
490.70	11489.69
490.88	11403.09
491.06	11709.70
491.24	11398.41
491.41	11557.57
491.59	11782.26
491.77	11918.01
491.95	12081.85
492.13	12189.51
492.30	12030.35
492.48	12140.36
492.66	12322.92
492.84	12138.02
493.01	12374.41
493.19	12435.27
493.37	12615.49
493.54	12542.93
493.72	12751.24
493.90	12624.85
494.08	12793.37
494.25	12791.03
494.43	12975.93
494.61	13011.04
494.79	13092.96
494.96	13275.52
495.14	13387.86
495.32	13474.46
495.49	13376.16
495.67	13341.05
495.85	13628.94
496.02	13685.11
496.20	13799.80
496.38	13687.45
496.55	13741.29
496.73	14120.45
496.91	13738.94
497.09	13841.93
497.26	14087.68
497.44	14136.84
497.62	14122.79
497.79	14291.31
497.97	14305.35
498.14	14499.62
498.32	14906.87
498.50	14602.60
498.67	14487.92
498.85	14633.03
499.03	14736.01
499.20	14906.87
499.38	14775.80
499.56	14892.83
499.73	14939.64
499.91	15363.28
500.08	15412.43
500.26	15222.84
500.44	14977.09
500.61	15538.82
500.79	15225.18
500.97	15515.41
501.14	15548.18
501.32	15644.14
501.49	15515.41
501.67	15403.07
501.84	15641.80
502.02	15756.49
502.20	15953.09
502.37	15819.68
502.55	15927.35
502.72	15999.90
502.90	15976.50
503.07	15871.17
503.25	15824.36
503.43	16121.61
503.60	16444.60
503.78	16208.21
503.95	16599.08
504.13	16393.11
504.30	16332.26
504.48	16280.77
504.65	16484.39
504.83	16669.30
505.01	16683.34
505.18	16959.52
505.36	16830.79
505.53	16720.79
505.71	16776.96
505.88	17109.32
506.06	16858.88
506.23	17048.46
506.41	17053.14
506.58	17055.48
506.76	17280.18
506.93	17153.79
507.11	17378.48
507.28	17137.40
507.46	17348.05
507.63	17509.55
507.81	17240.39
507.98	17624.23
508.16	17689.77
508.33	17724.88
508.50	17769.35
508.68	17530.61
508.85	17853.61
509.03	18085.32
509.20	17949.57
509.38	17862.97
509.55	18036.17
509.73	18190.64
509.90	18178.94
510.08	18174.26
510.25	18045.53
510.42	18300.65
510.60	18420.02
510.77	18097.02
510.95	18611.94
511.12	18403.63
511.30	18370.86
511.47	18558.11
511.64	18719.60
511.82	18691.52
511.99	18757.05
512.17	19021.53
512.34	18827.27
512.51	18843.65
512.69	18991.11
512.86	18724.29
513.04	18899.83
513.21	19112.81
513.38	19318.78
513.56	19164.31
513.73	18726.63
513.90	19445.17
514.08	19161.97
514.25	19257.93
514.43	19356.23
514.60	19606.67
514.77	19316.44
514.95	19721.35
515.12	19679.22
515.29	19461.55
515.47	19447.51
515.64	19569.22
515.81	19719.01
515.99	20121.59
516.16	19971.79
516.33	20053.71
516.51	19711.99
516.68	19735.40
516.85	19833.70
517.03	20149.67
517.20	20236.27
517.37	20500.75
517.54	20233.93
517.72	20217.55
517.89	20231.59
518.06	20409.47
518.24	20210.53
518.41	20390.75
518.58	20425.86
518.75	20641.18
518.93	20353.30
519.10	21064.82
519.27	20659.91
519.45	20802.68
519.62	20482.03
519.79	20711.40
519.96	20652.89
520.14	20865.88
520.31	21034.39
520.48	21018.01
520.65	20992.26
520.83	20917.37
521.00	21392.50
521.17	21245.04
521.34	21270.79
521.52	20919.71
521.69	21151.42
521.86	21053.12
522.03	21245.04
522.20	21640.59
522.38	21507.18
522.55	21600.80
522.72	21542.29
522.89	21509.52
523.07	21619.53
523.24	22066.57
523.41	21832.52
523.58	21385.47
523.75	21914.44
523.92	21645.27
524.10	21811.45
524.27	22029.12
524.44	22211.68
524.61	22157.85
524.78	22167.21
524.96	22104.02
525.13	22153.17
525.30	22324.03
525.47	22398.93
525.64	22223.39
525.81	22237.43
525.98	22618.94
526.16	22363.82
526.33	22445.74
526.50	22869.37
526.67	22174.24
526.84	22527.66
527.01	22635.32
527.18	22700.86
527.36	22569.79
527.53	22548.72
527.70	22911.50
527.87	22686.81
528.04	23077.68
528.21	22984.06
528.38	22677.45
528.55	22948.95
528.72	22700.86
528.89	23075.34
529.07	23026.19
529.24	23122.15
529.41	23384.29
529.58	23070.66
529.75	23084.70
529.92	23075.34
530.09	23089.38
530.26	23466.21
530.43	23412.38
530.60	23461.53
530.77	23239.18
530.94	23592.60
531.11	23543.45
531.28	23346.84
531.46	23576.22
531.63	23611.32
531.80	23597.28
531.97	23901.55
532.14	23995.17
532.31	23428.76
532.48	23971.77
532.65	23908.57
532.82	23585.58
532.99	23718.99
533.16	23920.28
533.33	23723.67
533.50	23974.11
533.67	24144.97
533.84	24189.44
534.01	24077.09
534.18	23810.27
534.35	24180.07
534.52	24196.46
534.69	24236.25
534.86	24159.01
535.03	23943.68
535.20	24135.60
535.37	24423.49
535.54	24290.08
535.71	24060.71
535.88	24353.27
536.05	24336.89
536.22	24559.24
536.38	24664.57
536.55	24503.07
536.72	24900.96
536.89	24638.82
537.06	24556.90
537.23	24774.57
537.40	24828.40
537.57	24765.21
537.74	24535.84
537.91	24945.43
538.08	24940.75
538.25	24685.63
538.42	24919.68
538.59	24917.34
538.75	24898.62
538.92	25207.57
539.09	25329.28
539.26	24961.81
539.43	24842.45
539.60	25067.14
539.77	24861.17
539.94	25205.23
540.11	25336.30
540.28	25127.99
540.44	25357.36
540.61	25186.50
540.78	25280.13
540.95	25415.88
541.12	25167.78
541.29	25268.42
541.46	25343.32
541.62	25238.00
541.79	25549.29
541.96	25436.94
542.13	25158.42
542.30	25876.96
542.47	25458.01
542.63	25502.48
542.80	26178.89
542.97	26106.34
543.14	25869.94
543.31	26300.60
543.48	26096.97
543.64	26064.21
543.81	26057.18
543.98	26183.57
544.15	25895.69
544.32	25993.99
544.48	26038.46
544.65	26190.59
544.82	26321.66
544.99	26015.05
545.16	26228.04
545.32	26010.37
545.49	26216.34
545.66	26848.29
545.83	26431.67
546.00	26555.72
546.16	26431.67
546.33	26141.44
546.50	25986.97
546.67	26368.48
546.83	26242.09
547.00	26361.45
547.17	26567.42
547.34	26696.15
547.50	26167.19
547.67	26658.70
547.84	26686.79
548.00	26911.48
548.17	26857.65
548.34	26609.55
548.51	26827.22
548.67	27150.21
548.84	26726.58
549.01	26953.61
549.18	27199.37
549.34	26892.76
549.51	26958.29
549.68	27122.13
549.84	26611.89
550.01	27194.68
550.18	26689.13
550.34	27197.02
550.51	27061.27
550.68	27117.45
550.84	26824.88
551.01	26988.72
551.18	26567.42
551.34	27150.21
551.51	26867.01
551.68	27218.09
551.84	27199.37
552.01	27391.29
552.18	27564.49
552.34	27166.60
552.51	27386.61
552.68	27140.85
552.84	27351.50
553.01	27271.92
553.18	27278.94
553.34	27545.76
553.51	27517.68
553.67	27323.41
553.84	27768.12
554.01	27316.39
554.17	27370.22
554.34	27391.29
554.51	27583.21
554.67	27550.45
554.84	27777.48
555.00	27744.71
555.17	27880.46
555.33	27831.31
555.50	27487.25
555.67	27550.45
555.83	27454.48
556.00	27463.85
556.16	28290.06
556.33	27763.43
556.50	28166.01
556.66	28098.13
556.83	27477.89
556.99	28154.30
557.16	28224.52
557.32	28098.13
557.49	28271.33
557.65	27768.12
557.82	27878.12
557.98	28184.73
558.15	28215.16
558.32	28381.34
558.48	28332.18
558.65	28189.41
558.81	28456.23
558.98	27997.49
559.14	27819.61
559.31	28238.56
559.47	27964.72
559.64	28018.55
559.80	28224.52
559.97	28339.21
560.13	28041.96
560.30	28386.02
560.46	28254.95
560.63	28142.60
560.79	28236.22
560.96	28650.50
561.12	28327.50
561.29	28554.54
561.45	28496.02
561.61	28428.15
561.78	28687.95
561.94	28381.34
562.11	28430.49
562.27	28318.14
562.44	28088.77
562.60	28617.73
562.77	28479.64
562.93	28554.54
563.10	28547.51
563.26	28348.57
563.42	28479.64
563.59	28690.29
563.75	28753.48
563.92	28849.44
564.08	28753.48
564.24	28322.82
564.41	28524.11
564.57	28491.34
564.74	28622.41
564.90	28355.59
565.07	28685.61
565.23	28652.84
565.39	28694.97
565.56	28996.90
565.72	28833.06
565.88	28610.71
566.05	28570.92
566.21	28531.13
566.38	28797.95
566.54	28889.23
566.70	29219.25
566.87	28870.51
567.03	28924.34
567.19	28982.85
567.36	29006.26
567.52	29027.32
567.68	28744.12
567.85	28840.08
568.01	28704.33
568.17	28793.27
568.34	29097.54
568.50	28797.95
568.66	28870.51
568.83	29057.75
568.99	28659.86
569.15	28900.94
569.32	28975.83
569.48	28589.64
569.64	28830.72
569.81	29303.51
569.97	28872.85
570.13	29013.28
570.30	28811.99
570.46	29319.89
570.62	29064.77
570.78	28893.91
570.95	28596.67
571.11	29048.39
571.27	28847.10
571.43	28835.40
571.60	29191.16
571.76	29034.35
571.92	29373.72
572.09	28896.25
572.25	28835.40
572.41	29067.11
572.57	29289.46
572.74	29125.63
572.90	29069.45
573.06	29230.95
573.22	29064.77
573.38	29219.25
573.55	29106.90
573.71	29331.59
573.87	29303.51
574.03	29151.37
574.20	29301.17
574.36	29043.71
574.52	29034.35
574.68	29062.43
574.84	28950.09
575.01	29209.89
575.17	29252.02
575.33	29050.73
575.49	29039.03
575.65	28952.43
575.82	29364.36
575.98	29137.33
576.14	29345.64
576.30	29315.21
576.46	29142.01
576.62	28929.02
576.79	29392.45
576.95	29261.38
577.11	29465.00
577.27	29432.24
577.43	29305.85
577.59	29673.31
577.75	29146.69
577.92	29064.77
578.08	29221.59
578.24	29244.99
578.40	29078.82
578.56	29347.98
578.72	29408.83
578.88	29305.85
579.04	29376.06
579.21	29294.14
579.37	29319.89
579.53	29617.14
579.69	29479.05
579.85	29177.12
580.01	28985.19
580.17	29364.36
580.33	29848.85
580.49	29565.65
580.65	29802.04
580.82	29537.56
580.98	29170.10
581.14	29483.73
581.30	29359.68
581.46	29237.97
581.62	29570.33
581.78	28924.34
581.94	29048.39
582.10	29263.72
582.26	29434.58
582.42	29448.62
582.58	29273.08
582.74	29614.80
582.90	29078.82
583.06	29518.84
583.22	29397.13
583.38	29071.79
583.54	29125.63
583.70	29144.35
583.86	29308.19
584.02	29319.89
584.18	29333.93
584.34	29640.54
584.50	29509.47
584.66	29336.27
584.82	29315.21
584.98	29048.39
585.14	29347.98
585.30	29497.77
585.46	29556.28
585.62	29425.22
585.78	29504.79
585.94	29261.38
586.10	29479.05
586.26	29610.12
586.42	29724.80
586.58	29635.86
586.74	29563.31
586.90	29371.38
587.06	29404.15
587.22	29249.67
587.38	29336.27
587.54	29312.87
587.70	29422.87
587.86	29490.75
588.02	29724.80
588.18	30066.52
588.34	29528.20
588.49	29743.53
588.65	29511.81
588.81	29277.76
588.97	29778.64
589.13	29521.18
589.29	29652.25
589.45	29450.96
589.61	29853.53
589.77	30108.65
589.93	29706.08
590.08	29916.73
590.24	29603.10
590.40	30082.91
590.56	29832.47
590.72	29455.64
590.88	29249.67
591.04	29617.14
591.20	29940.13
591.35	29816.08
591.51	30150.78
591.67	30190.57
591.83	29888.64
591.99	29809.06
