SpectraSuite Data File
++++++++++++++++++++++++++++++++++++
Date: Fri Oct 18 13:58:30 GMT-05:00 2013
User: bianchi
Dark Spectrum Present: No
Reference Spectrum Present: No
Number of Sampled Component Spectra: 1
Spectrometers: USB2+H05261
Integration Time (usec): 50000 (USB2+H05261)
Spectra Averaged: 1 (USB2+H05261)
Boxcar Smoothing: 0 (USB2+H05261)
Correct for Electrical Dark: No (USB2+H05261)
Strobe/Lamp Enabled: No (USB2+H05261)
Correct for Detector Non-linearity: No (USB2+H05261)
Correct for Stray Light: No (USB2+H05261)
Number of Pixels in Processed Spectrum: 2048
>>>>>Begin Processed Spectral Data<<<<<
365.73	0.00
365.92	0.00
366.12	0.00
366.32	0.00
366.52	0.00
366.72	0.00
366.91	0.00
367.11	0.00
367.31	0.00
367.51	0.00
367.70	0.00
367.90	0.00
368.10	0.00
368.30	0.00
368.49	0.00
368.69	0.00
368.89	0.00
369.09	0.00
369.28	0.00
369.48	0.00
369.68	0.00
369.87	0.00
370.07	0.00
370.27	0.00
370.47	0.00
370.66	72.56
370.86	163.84
371.06	110.01
371.25	93.62
371.45	102.98
371.65	119.37
371.84	145.11
372.04	163.84
372.24	121.71
372.44	166.18
372.63	159.16
372.83	117.03
373.03	212.99
373.22	117.03
373.42	187.24
373.62	203.63
373.81	227.03
374.01	276.18
374.21	217.67
374.40	236.39
374.60	273.84
374.79	222.35
374.99	280.86
375.19	313.63
375.38	194.26
375.58	243.42
375.78	259.80
375.97	266.82
376.17	191.92
376.37	163.84
376.56	248.10
376.76	313.63
376.95	278.52
377.15	236.39
377.35	231.71
377.54	290.23
377.74	224.69
377.93	259.80
378.13	292.57
378.33	374.49
378.52	271.50
378.72	217.67
378.91	301.93
379.11	330.02
379.31	250.44
379.50	198.95
379.70	315.97
379.89	175.54
380.09	276.18
380.28	308.95
380.48	304.27
380.68	325.33
380.87	341.72
381.07	259.80
381.26	334.70
381.46	292.57
381.65	346.40
381.85	273.84
382.04	376.83
382.24	339.38
382.43	348.74
382.63	294.91
382.83	299.59
383.02	351.08
383.22	388.53
383.41	330.02
383.61	365.12
383.80	421.30
384.00	344.06
384.19	369.80
384.39	351.08
384.58	369.80
384.78	393.21
384.97	383.85
385.17	367.46
385.36	400.23
385.56	383.85
385.75	304.27
385.95	379.17
386.14	454.06
386.34	444.70
386.53	372.15
386.72	367.46
386.92	397.89
387.11	379.17
387.31	379.17
387.50	393.21
387.70	430.66
387.89	376.83
388.09	367.46
388.28	482.15
388.48	468.11
388.67	458.74
388.86	486.83
389.06	390.87
389.25	430.66
389.45	470.45
389.64	482.15
389.84	470.45
390.03	470.45
390.22	550.03
390.42	475.13
390.61	444.70
390.81	484.49
391.00	486.83
391.19	545.34
391.39	440.02
391.58	496.19
391.78	566.41
391.97	545.34
392.16	449.38
392.36	552.37
392.55	606.20
392.75	564.07
392.94	615.56
393.13	638.97
393.33	547.69
393.52	554.71
393.71	641.31
393.91	475.13
394.10	512.58
394.29	533.64
394.49	547.69
394.68	592.16
394.88	641.31
395.07	620.24
395.26	627.26
395.46	599.18
395.65	550.03
395.84	533.64
396.04	657.69
396.23	723.23
396.42	620.24
396.62	638.97
396.81	685.78
397.00	580.45
397.19	596.84
397.39	657.69
397.58	543.00
397.77	699.82
397.97	653.01
398.16	650.67
398.35	718.54
398.55	622.58
398.74	690.46
398.93	713.86
399.12	739.61
399.32	716.20
399.51	634.29
399.70	814.51
399.90	713.86
400.09	709.18
400.28	706.84
400.47	697.48
400.67	784.08
400.86	748.97
401.05	727.91
401.24	763.01
401.44	730.25
401.63	765.36
401.82	791.10
402.01	812.17
402.21	788.76
402.40	760.67
402.59	868.34
402.78	777.06
402.97	837.91
403.17	887.06
403.36	828.55
403.55	844.93
403.74	908.13
403.93	835.57
404.13	903.45
404.32	894.08
404.51	828.55
404.70	940.90
404.89	875.36
405.09	856.64
405.28	926.85
405.47	924.51
405.66	931.53
405.85	976.00
406.05	990.05
406.24	961.96
406.43	1013.45
406.62	992.39
406.81	1018.13
407.00	987.71
407.20	1076.65
407.39	1006.43
407.58	1011.11
407.77	1081.33
407.96	992.39
408.15	1062.60
408.34	994.73
408.54	1137.50
408.73	1132.82
408.92	1046.22
409.11	1118.78
409.30	1064.94
409.49	1125.80
409.68	1125.80
409.87	1123.46
410.07	1151.54
410.26	1156.22
410.45	1165.59
410.64	1135.16
410.83	1207.72
411.02	1196.01
411.21	1207.72
411.40	1240.48
411.59	1196.01
411.78	1261.55
411.98	1245.16
412.17	1268.57
412.36	1245.16
412.55	1249.85
412.74	1413.68
412.93	1249.85
413.12	1268.57
413.31	1291.98
413.50	1261.55
413.69	1425.39
413.88	1301.34
414.07	1299.00
414.26	1392.62
414.45	1458.15
414.64	1392.62
414.83	1479.22
415.02	1458.15
415.22	1453.47
415.41	1528.37
415.60	1542.41
415.79	1490.92
415.98	1526.03
416.17	1521.35
416.36	1596.25
416.55	1530.71
416.74	1549.43
416.93	1607.95
417.12	1570.50
417.31	1776.47
417.50	1645.40
417.69	1762.42
417.88	1680.50
418.07	1624.33
418.26	1717.95
418.45	1689.87
418.64	1792.85
418.83	1739.02
419.02	1685.19
419.21	1753.06
419.39	1746.04
419.58	1809.23
419.77	1689.87
419.96	1851.36
420.15	1888.81
420.34	1884.13
420.53	1844.34
420.72	1839.66
420.91	1914.56
421.10	1912.22
421.29	2001.16
421.48	1816.26
421.67	1849.02
421.86	1823.28
422.05	1867.75
422.24	1928.60
422.43	1874.77
422.61	1895.83
422.80	1994.14
422.99	2026.90
423.18	1909.88
423.37	2069.03
423.56	2010.52
423.75	1933.28
423.94	1952.01
424.13	1907.54
424.32	1778.81
424.50	1954.35
424.69	2003.50
424.88	2094.78
425.07	1919.24
425.26	1884.13
425.45	2054.99
425.64	2090.10
425.83	2043.29
426.01	2101.80
426.20	1935.62
426.39	2150.95
426.58	1975.41
426.77	2022.22
426.96	2076.06
427.15	2036.27
427.33	2120.53
427.52	2111.16
427.71	2050.31
427.90	2066.69
428.09	2050.31
428.28	2076.06
428.46	2204.78
428.65	2097.12
428.84	2183.72
429.03	2155.63
429.22	2108.82
429.40	2111.16
429.59	2293.72
429.78	1989.46
429.97	2057.33
430.16	2078.40
430.34	2242.23
430.53	2214.15
430.72	2265.64
430.91	2244.57
431.10	2303.09
431.28	2293.72
431.47	2197.76
431.66	2387.35
431.85	2094.78
432.03	2354.58
432.22	2443.52
432.41	2436.50
432.60	2406.07
432.79	2408.41
432.97	2396.71
433.16	2366.28
433.35	2445.86
433.54	2457.56
433.72	2473.95
433.91	2417.77
434.10	2431.82
434.28	2581.61
434.47	2464.58
434.66	2534.80
434.85	2558.21
435.03	2443.52
435.22	2471.61
435.41	2513.74
435.59	2574.59
435.78	2523.10
435.97	2497.35
436.16	2633.10
436.34	2513.74
436.53	2665.87
436.72	2703.32
436.90	2583.95
437.09	2661.19
437.28	2583.95
437.46	2523.10
437.65	2492.67
437.84	2785.24
438.02	2696.30
438.21	2750.13
438.40	2785.24
438.58	2860.13
438.77	2871.84
438.96	2818.00
439.14	2843.75
439.33	2815.66
439.52	2932.69
439.70	2876.52
439.89	2953.76
440.08	2942.05
440.26	3061.42
440.45	2995.89
440.63	3023.97
440.82	3138.66
441.01	2991.20
441.19	3133.98
441.38	3215.90
441.57	3068.44
441.75	3075.46
441.94	3155.04
442.12	3213.56
442.31	3176.11
442.50	3288.45
442.68	3201.85
442.87	3262.71
443.05	3316.54
443.24	3260.37
443.43	3272.07
443.61	3454.63
443.80	3428.88
443.98	3290.79
444.17	3239.30
444.35	3325.90
444.54	3384.41
444.73	3372.71
444.91	3379.73
445.10	3314.20
445.28	3375.05
445.47	3396.12
445.65	3407.82
445.84	3442.93
446.02	3342.28
446.21	3295.47
446.39	3328.24
446.58	3398.46
446.77	3332.92
446.95	3358.67
447.14	3447.61
447.32	3447.61
447.51	3358.67
447.69	3456.97
447.88	3344.63
448.06	3449.95
448.25	3403.14
448.43	3412.50
448.62	3304.84
448.80	3433.57
448.99	3447.61
449.17	3536.55
449.36	3447.61
449.54	3712.09
449.73	3730.81
449.91	3686.34
450.10	3536.55
450.28	3679.32
450.46	3595.06
450.65	3581.02
450.83	3719.11
451.02	3637.19
451.20	3653.58
451.39	3702.73
451.57	3602.08
451.76	3478.04
451.94	3667.62
452.13	3667.62
452.31	3789.33
452.49	3805.71
452.68	3672.30
452.86	3761.24
453.05	3796.35
453.23	3892.31
453.42	3737.84
453.60	3791.67
453.78	3861.88
453.97	3702.73
454.15	3798.69
454.34	3801.03
454.52	3976.57
454.70	3852.52
454.89	3899.33
455.07	4004.66
455.26	3871.25
455.44	3941.46
455.62	4051.47
455.81	4011.68
455.99	4107.64
456.17	3936.78
456.36	4119.34
456.54	4126.36
456.73	4210.62
456.91	4259.78
457.09	4329.99
457.28	4308.93
457.46	4133.39
457.64	4280.84
457.83	4196.58
458.01	4117.00
458.19	4306.59
458.38	4271.48
458.56	4285.52
458.74	4337.01
458.93	4180.20
459.11	4227.01
459.29	4374.46
459.48	4496.17
459.66	4411.91
459.84	4414.25
460.03	4528.94
460.21	4320.63
460.39	4388.50
460.57	4320.63
460.76	4358.08
460.94	4423.61
461.12	4451.70
461.31	4409.57
461.49	4447.02
461.67	4409.57
461.85	4493.83
462.04	4650.64
462.22	4667.03
462.40	4800.44
462.59	4650.64
462.77	4683.41
462.95	4624.90
463.13	4617.88
463.32	4905.76
463.50	4868.31
463.68	4739.58
463.86	4564.04
464.05	4613.20
464.23	4802.78
464.41	4807.46
464.59	4725.54
464.78	4854.27
464.96	4802.78
465.14	4674.05
465.32	4842.57
465.50	4812.14
465.69	4971.30
465.87	4828.53
466.05	4992.36
466.23	4746.61
466.41	4868.31
466.60	5067.26
466.78	4849.59
466.96	4856.61
467.14	4910.44
467.32	5163.22
467.51	5118.75
467.69	4975.98
467.87	5041.51
468.05	5057.90
468.23	4943.21
468.41	4910.44
468.60	5050.88
468.78	5179.61
468.96	5076.62
469.14	5102.37
469.32	5224.08
469.50	5102.37
469.69	5219.39
469.87	5095.35
470.05	5238.12
470.23	5188.97
470.41	5284.93
470.59	5399.62
470.77	5371.53
470.95	5343.44
471.14	5490.90
471.32	5373.87
471.50	5579.84
471.68	5500.26
471.86	5444.09
472.04	5441.75
472.22	5582.18
472.40	5530.69
472.58	5689.84
472.77	5554.09
472.95	5708.57
473.13	5968.37
473.31	5638.35
473.49	5764.74
473.67	5673.46
473.85	5685.16
474.03	5902.83
474.21	5872.40
474.39	5909.85
474.57	5860.70
474.75	5998.79
474.93	5949.64
475.12	5954.32
475.30	6045.60
475.48	6099.44
475.66	6087.73
475.84	6167.31
476.02	6263.27
476.20	6155.61
476.38	6223.48
476.56	6431.79
476.74	6370.94
476.92	6303.06
477.10	6361.58
477.28	6502.01
477.46	6471.58
477.64	6523.07
477.82	6752.45
478.00	6619.04
478.18	6972.46
478.36	6736.06
478.54	6988.84
478.72	6925.65
478.90	7047.35
479.08	6965.43
479.26	6984.16
479.44	7276.73
479.62	7260.34
479.80	7269.70
479.98	7286.09
480.16	7206.51
480.34	7447.58
480.52	7396.09
480.70	7503.76
480.88	7344.60
481.06	7494.40
481.24	7527.16
481.41	7740.15
481.59	7637.17
481.77	7751.85
481.95	7817.39
482.13	7908.67
482.31	7903.99
482.49	8107.62
482.67	7922.71
482.85	8189.53
483.03	7997.61
483.21	8388.48
483.39	8362.73
483.57	8360.39
483.74	8351.03
483.92	8610.83
484.10	8535.93
484.28	8528.91
484.46	8695.09
484.64	8940.85
484.82	8713.81
485.00	8755.94
485.18	9128.09
485.35	9291.93
485.53	9186.60
485.71	9202.99
485.89	9224.05
486.07	9144.47
486.25	9369.16
486.43	9317.67
486.61	9556.41
486.78	9472.15
486.96	9673.43
487.14	9895.78
487.32	9863.02
487.50	9619.60
487.68	9949.62
487.85	10237.50
488.03	10349.85
488.21	10380.28
488.39	10221.12
488.57	10546.45
488.75	10462.19
488.92	10537.09
489.10	10616.67
489.28	10820.30
489.46	10726.68
489.64	10860.09
489.81	11122.23
489.99	10897.53
490.17	11103.50
490.35	10998.18
490.53	11145.63
490.70	11417.13
490.88	11337.56
491.06	11236.91
491.24	11494.37
491.41	11433.52
491.59	11754.17
491.77	11742.47
491.95	11595.01
492.13	11920.35
492.30	12006.95
492.48	12025.67
492.66	12269.09
492.84	12145.04
493.01	12142.70
493.19	12404.84
493.37	12250.36
493.54	12484.42
493.72	12725.49
493.90	12348.67
494.08	12613.15
494.25	12809.75
494.43	12812.09
494.61	13034.44
494.79	13008.70
494.96	12954.87
495.14	13015.72
495.32	13259.13
495.49	13090.62
495.67	13153.81
495.85	13294.24
496.02	13453.40
496.20	13547.02
496.38	13572.77
496.55	13532.98
496.73	13778.73
496.91	13764.69
497.09	13898.10
497.26	13996.40
497.44	13671.07
497.62	13848.95
497.79	14178.97
497.97	14178.97
498.14	14274.93
498.32	14590.90
498.50	14310.04
498.67	14600.26
498.85	14492.60
499.03	14647.07
499.20	14937.30
499.38	14679.84
499.56	14813.25
499.73	14911.55
499.91	14909.21
500.08	15257.95
500.26	15023.90
500.44	15187.74
500.61	15124.54
500.79	14960.70
500.97	15295.40
501.14	15445.20
501.32	15566.90
501.49	15524.77
501.67	15520.09
501.84	15688.61
502.02	15424.13
502.20	15648.82
502.37	15826.70
502.55	15564.56
502.72	15917.98
502.90	15730.74
503.07	15854.79
503.25	15765.85
503.43	15660.52
503.60	15939.05
503.78	16013.95
503.95	16210.55
504.13	16037.35
504.30	16100.55
504.48	16425.88
504.65	16098.20
504.83	16311.19
505.01	16695.04
505.18	16776.96
505.36	16599.08
505.53	16737.17
505.71	16407.16
505.88	16631.85
506.06	16636.53
506.23	16872.92
506.41	16795.68
506.58	16809.73
506.76	16886.97
506.93	16861.22
507.11	16809.73
507.28	17123.36
507.46	17060.16
507.63	17116.34
507.81	17366.78
507.98	17420.61
508.16	17460.40
508.33	17451.03
508.50	17415.93
508.68	17514.23
508.85	17752.96
509.03	17446.35
509.20	17720.20
509.38	17762.33
509.55	17776.37
509.73	17816.16
509.90	17949.57
510.08	17610.19
510.25	18008.08
510.42	17982.34
510.60	18272.56
510.77	17872.33
510.95	18462.15
511.12	17980.00
511.30	18499.59
511.47	18682.16
511.64	18104.04
511.82	18485.55
511.99	18370.86
512.17	18640.03
512.34	18654.07
512.51	18649.39
512.69	18892.80
512.86	18836.63
513.04	18986.43
513.21	18630.66
513.38	19108.13
513.56	19068.34
513.73	18904.51
513.90	18916.21
514.08	18855.36
514.25	19105.79
514.43	19419.42
514.60	19215.80
514.77	19236.86
514.95	19372.61
515.12	19555.18
515.29	19122.18
515.47	19517.73
515.64	19300.06
515.81	19625.39
515.99	19770.51
516.16	19838.38
516.33	19758.80
516.51	19906.26
516.68	19803.27
516.85	19576.24
517.03	20072.43
517.20	20311.17
517.37	20049.03
517.54	19814.98
517.72	20018.60
517.89	20224.57
518.06	20320.53
518.24	20105.20
518.41	20081.80
518.58	20123.93
518.75	20149.67
518.93	20470.33
519.10	20519.48
519.27	20428.20
519.45	20184.78
519.62	20524.16
519.79	20407.13
519.96	20395.43
520.14	20924.39
520.31	20739.49
520.48	20840.13
520.65	20496.07
520.83	20652.89
521.00	20926.73
521.17	21083.55
521.34	20875.24
521.52	21088.23
521.69	20872.90
521.86	21142.06
522.03	21453.35
522.20	20891.62
522.38	21184.19
522.55	21518.89
522.72	20947.79
522.89	21420.58
523.07	21326.96
523.24	21429.94
523.41	21671.02
523.58	21380.79
523.75	21804.43
523.92	21479.10
524.10	21420.58
524.27	21685.06
524.44	21818.47
524.61	21696.77
524.78	21553.99
524.96	21788.05
525.13	21804.43
525.30	21912.10
525.47	21788.05
525.64	21774.00
525.81	22108.70
525.98	22171.89
526.16	22452.76
526.33	22078.27
526.50	22307.65
526.67	22228.07
526.84	22237.43
527.01	22127.42
527.18	22263.18
527.36	22490.21
527.53	22469.14
527.70	22923.21
527.87	23005.13
528.04	22602.55
528.21	22759.37
528.38	22703.20
528.55	22492.55
528.72	22775.75
528.89	22614.26
529.07	22630.64
529.24	22679.79
529.41	22787.46
529.58	22768.73
529.75	23096.41
529.92	23091.73
530.09	22740.64
530.26	22780.43
530.43	23449.83
530.60	22955.97
530.77	23145.56
530.94	23325.78
531.11	22860.01
531.28	23140.88
531.46	23183.01
531.63	23475.57
531.80	23426.42
531.97	23718.99
532.14	23604.30
532.31	23367.91
532.48	23653.45
532.65	23534.09
532.82	23108.11
532.99	23660.48
533.16	23424.08
533.33	23569.19
533.50	23924.96
533.67	23740.05
533.84	23365.57
534.01	23461.53
534.18	23571.54
534.35	23974.11
534.52	23718.99
534.69	23763.46
534.86	23978.79
535.03	23768.14
535.20	24072.41
535.37	23763.46
535.54	24004.53
535.71	24041.98
535.88	23950.70
536.05	24245.61
536.22	24456.26
536.38	24402.43
536.55	24372.00
536.72	24023.26
536.89	24369.66
537.06	24339.23
537.23	24620.10
537.40	24163.69
537.57	24364.98
537.74	24559.24
537.91	24854.15
538.08	24184.76
538.25	24641.16
538.42	24486.68
538.59	24709.04
538.75	24744.14
538.92	24737.12
539.09	24517.11
539.26	24676.27
539.43	24545.20
539.60	24943.09
539.77	24517.11
539.94	24907.98
540.11	24833.08
540.28	24851.81
540.44	24926.71
540.61	24884.58
540.78	25060.12
540.95	24849.47
541.12	24641.16
541.29	25015.65
541.46	25067.14
541.62	24711.38
541.79	25212.25
541.96	24610.73
542.13	25132.67
542.30	25282.47
542.47	25366.73
542.63	25315.23
542.80	25568.01
542.97	25364.39
543.14	26043.14
543.31	25638.23
543.48	25914.41
543.64	25818.45
543.81	25851.22
543.98	25820.79
544.15	25792.70
544.32	25972.92
544.48	25820.79
544.65	25799.73
544.82	25799.73
544.99	25553.97
545.16	25544.61
545.32	25867.60
545.49	25975.27
545.66	26251.45
545.83	26038.46
546.00	26204.64
546.16	26272.51
546.33	25692.06
546.50	25930.80
546.67	26150.81
546.83	25806.75
547.00	26169.53
547.17	26038.46
547.34	26068.89
547.50	26448.05
547.67	26579.12
547.84	26604.87
548.00	26462.10
548.17	26581.46
548.34	26094.63
548.51	26679.77
548.67	26499.55
548.84	26672.74
549.01	26401.24
549.18	26541.68
549.34	26305.28
549.51	26579.12
549.68	26567.42
549.84	26363.79
550.01	26469.12
550.18	26595.51
550.34	26689.13
550.51	26670.40
550.68	26796.79
550.84	26492.52
551.01	26852.97
551.18	26787.43
551.34	27012.12
551.51	27054.25
551.68	26979.36
551.84	27049.57
552.01	26696.15
552.18	26916.16
552.34	26934.88
552.51	26693.81
552.68	26773.39
552.84	27002.76
553.01	26930.20
553.18	26785.09
553.34	26937.23
553.51	26993.40
553.67	26881.05
553.84	27742.37
554.01	27243.84
554.17	27323.41
554.34	27110.43
554.51	27271.92
554.67	27704.92
554.84	27405.33
555.00	27276.60
555.17	27391.29
555.33	27295.33
555.50	27222.77
555.67	27136.17
555.83	27206.39
556.00	27412.35
556.16	27630.02
556.33	27555.13
556.50	27454.48
556.66	27850.03
556.83	27199.37
556.99	27901.53
557.16	27667.47
557.32	27578.53
557.49	27948.34
557.65	27494.27
557.82	27417.04
557.98	27548.11
558.15	27615.98
558.32	27707.26
558.48	27838.33
558.65	27505.98
558.81	27995.15
558.98	28168.35
559.14	27892.16
559.31	27828.97
559.47	28053.66
559.64	27681.52
559.80	27950.68
559.97	28027.92
560.13	27697.90
560.30	27709.60
560.46	28320.48
560.63	27995.15
560.79	28116.86
560.96	27974.08
561.12	27840.67
561.29	28018.55
561.45	28119.20
561.61	28065.36
561.78	28175.37
561.94	28041.96
562.11	28002.17
562.27	27859.40
562.44	28446.87
562.60	27908.55
562.77	27913.23
562.93	28128.56
563.10	28301.76
563.26	27821.95
563.42	28641.14
563.59	28198.77
563.75	28158.99
563.92	28273.67
564.08	28084.09
564.24	28264.31
564.41	28037.28
564.57	28304.10
564.74	28329.84
564.90	28229.20
565.07	28456.23
565.23	28577.94
565.39	28332.18
565.56	28411.76
565.72	28437.51
565.88	28224.52
566.05	28730.08
566.21	28173.03
566.38	28144.94
566.54	28278.35
566.70	28510.07
566.87	28573.26
567.03	28201.11
567.19	28793.27
567.36	28641.14
567.52	28449.21
567.68	28589.64
567.85	28451.55
568.01	28891.57
568.17	28189.41
568.34	28273.67
568.50	28683.27
568.66	28006.85
568.83	28699.65
568.99	28718.37
569.15	28819.02
569.32	28687.95
569.48	28421.13
569.64	28460.91
569.81	28694.97
569.97	28219.84
570.13	29263.72
570.30	28510.07
570.46	28900.94
570.62	28383.68
570.78	28329.84
570.95	28599.01
571.11	28769.86
571.27	28577.94
571.43	28474.96
571.60	28369.63
571.76	28409.42
571.92	28837.74
572.09	28404.74
572.25	29111.58
572.41	29013.28
572.57	28348.57
572.74	28683.27
572.90	28449.21
573.06	28521.77
573.22	28411.76
573.38	28446.87
573.55	28603.69
573.71	29015.62
573.87	29003.92
574.03	28535.81
574.20	28788.59
574.36	28741.78
574.52	29083.50
574.68	28610.71
574.84	28741.78
575.01	28723.05
575.17	28563.90
575.33	29069.45
575.49	28788.59
575.65	29006.26
575.82	28690.29
575.98	29235.63
576.14	29111.58
576.30	29109.24
576.46	28947.75
576.62	28414.10
576.79	28685.61
576.95	28699.65
577.11	28664.54
577.27	28739.44
577.43	28973.49
577.59	29284.78
577.75	28926.68
577.92	28393.04
578.08	28748.80
578.24	28943.06
578.40	29088.18
578.56	28701.99
578.72	29099.88
578.88	29254.36
579.04	29111.58
579.21	29195.84
579.37	29069.45
579.53	28891.57
579.69	28978.17
579.85	28704.33
580.01	28875.19
580.17	28577.94
580.33	28779.23
580.49	28889.23
580.65	29069.45
580.82	28711.35
580.98	29074.13
581.14	28992.22
581.30	29034.35
581.46	28800.29
581.62	29137.33
581.78	28840.08
581.94	28914.98
582.10	28758.16
582.26	28877.53
582.42	28933.70
582.58	28943.06
582.74	28816.68
582.90	29177.12
583.06	28844.76
583.22	29092.86
583.38	29163.08
583.54	28865.83
583.70	28907.96
583.86	29111.58
584.02	28922.00
584.18	28905.62
584.34	28922.00
584.50	29394.79
584.66	29027.32
584.82	29036.69
584.98	29324.57
585.14	28966.47
585.30	29127.97
585.46	29062.43
585.62	29041.37
585.78	29357.34
585.94	29198.18
586.10	29179.46
586.26	29373.72
586.42	29212.23
586.58	29062.43
586.74	28800.29
586.90	28973.49
587.06	29144.35
587.22	29315.21
587.38	29106.90
587.54	29287.12
587.70	29244.99
587.86	29186.48
588.02	29099.88
588.18	29495.43
588.34	28989.88
588.49	28987.53
588.65	29340.96
588.81	29270.74
588.97	28737.10
589.13	29083.50
589.29	28959.45
589.45	29142.01
589.61	29612.46
589.77	29418.19
589.93	29345.64
590.08	29495.43
590.24	29743.53
590.40	29582.03
590.56	29823.11
590.72	29429.90
590.88	29053.07
591.04	29193.50
591.20	29834.81
591.35	29673.31
591.51	30029.07
591.67	29516.50
591.83	29689.70
591.99	29467.34
