SpectraSuite Data File
++++++++++++++++++++++++++++++++++++
Date: Fri Oct 18 13:58:20 GMT-05:00 2013
User: bianchi
Dark Spectrum Present: No
Reference Spectrum Present: No
Number of Sampled Component Spectra: 1
Spectrometers: USB2+H05261
Integration Time (usec): 50000 (USB2+H05261)
Spectra Averaged: 1 (USB2+H05261)
Boxcar Smoothing: 0 (USB2+H05261)
Correct for Electrical Dark: No (USB2+H05261)
Strobe/Lamp Enabled: No (USB2+H05261)
Correct for Detector Non-linearity: No (USB2+H05261)
Correct for Stray Light: No (USB2+H05261)
Number of Pixels in Processed Spectrum: 2048
>>>>>Begin Processed Spectral Data<<<<<
365.73	0.00
365.92	0.00
366.12	0.00
366.32	0.00
366.52	0.00
366.72	0.00
366.91	0.00
367.11	0.00
367.31	0.00
367.51	0.00
367.70	0.00
367.90	0.00
368.10	0.00
368.30	0.00
368.49	0.00
368.69	0.00
368.89	0.00
369.09	0.00
369.28	0.00
369.48	0.00
369.68	0.00
369.87	0.00
370.07	0.00
370.27	0.00
370.47	0.00
370.66	25.75
370.86	95.96
371.06	105.32
371.25	145.11
371.45	112.35
371.65	170.86
371.84	201.29
372.04	210.65
372.24	121.71
372.44	196.60
372.63	182.56
372.83	128.73
373.03	227.03
373.22	198.95
373.42	198.95
373.62	259.80
373.81	212.99
374.01	224.69
374.21	241.08
374.40	224.69
374.60	173.20
374.79	208.31
374.99	236.39
375.19	224.69
375.38	227.03
375.58	292.57
375.78	215.33
375.97	238.73
376.17	313.63
376.37	236.39
376.56	262.14
376.76	299.59
376.95	241.08
377.15	294.91
377.35	322.99
377.54	259.80
377.74	252.78
377.93	262.14
378.13	208.31
378.33	278.52
378.52	222.35
378.72	358.10
378.91	318.31
379.11	311.29
379.31	273.84
379.50	292.57
379.70	334.70
379.89	320.65
380.09	320.65
380.28	358.10
380.48	269.16
380.68	276.18
380.87	315.97
381.07	332.36
381.26	262.14
381.46	290.23
381.65	264.48
381.85	362.78
382.04	353.42
382.24	369.80
382.43	341.72
382.63	339.38
382.83	273.84
383.02	308.95
383.22	411.93
383.41	337.04
383.61	358.10
383.80	374.49
384.00	334.70
384.19	362.78
384.39	409.59
384.58	318.31
384.78	451.72
384.97	465.77
385.17	367.46
385.36	330.02
385.56	360.44
385.75	344.06
385.95	339.38
386.14	440.02
386.34	383.85
386.53	433.00
386.72	440.02
386.92	458.74
387.11	388.53
387.31	397.89
387.50	411.93
387.70	407.25
387.89	362.78
388.09	407.25
388.28	482.15
388.48	484.49
388.67	397.89
388.86	489.17
389.06	479.81
389.25	470.45
389.45	465.77
389.64	496.19
389.84	416.62
390.03	435.34
390.22	479.81
390.42	451.72
390.61	449.38
390.81	580.45
391.00	524.28
391.19	454.06
391.39	566.41
391.58	571.09
391.78	550.03
391.97	510.24
392.16	507.90
392.36	561.73
392.55	489.17
392.75	505.56
392.94	594.50
393.13	550.03
393.33	603.86
393.52	606.20
393.71	554.71
393.91	451.72
394.10	599.18
394.29	617.90
394.49	571.09
394.68	596.84
394.88	575.77
395.07	688.12
395.26	716.20
395.46	624.92
395.65	571.09
395.84	685.78
396.04	716.20
396.23	697.48
396.42	610.88
396.62	620.24
396.81	699.82
397.00	603.86
397.19	660.03
397.39	669.39
397.58	669.39
397.77	634.29
397.97	641.31
398.16	786.42
398.35	683.44
398.55	713.86
398.74	601.52
398.93	702.16
399.12	692.80
399.32	674.07
399.51	739.61
399.70	674.07
399.90	819.19
400.09	671.73
400.28	842.59
400.47	720.88
400.67	753.65
400.86	737.27
401.05	779.40
401.24	795.78
401.44	851.96
401.63	844.93
401.82	798.12
402.01	854.30
402.21	851.96
402.40	781.74
402.59	896.43
402.78	821.53
402.97	896.43
403.17	760.67
403.36	884.72
403.55	830.89
403.74	821.53
403.93	847.27
404.13	800.46
404.32	891.74
404.51	926.85
404.70	887.06
404.89	929.19
405.09	922.17
405.28	968.98
405.47	901.11
405.66	882.38
405.85	971.32
406.05	985.37
406.24	1001.75
406.43	947.92
406.62	1029.84
406.81	1088.35
407.00	1100.05
407.20	957.28
407.39	1034.52
407.58	1095.37
407.77	1104.73
407.96	1081.33
408.15	1132.82
408.34	1083.67
408.54	1064.94
408.73	1093.03
408.92	1181.97
409.11	1135.16
409.30	1135.16
409.49	1118.78
409.68	1128.14
409.87	1167.93
410.07	1144.52
410.26	1057.92
410.45	1172.61
410.64	1165.59
410.83	1296.66
411.02	1191.33
411.21	1256.87
411.40	1238.14
411.59	1252.19
411.78	1210.06
411.98	1228.78
412.17	1322.40
412.36	1226.44
412.55	1224.10
412.74	1306.02
412.93	1350.49
413.12	1240.48
413.31	1366.87
413.50	1404.32
413.69	1350.49
413.88	1432.41
414.07	1430.07
414.26	1453.47
414.45	1451.13
414.64	1516.67
414.83	1570.50
415.02	1383.26
415.22	1493.26
415.41	1479.22
415.60	1657.10
415.79	1586.88
415.98	1636.03
416.17	1586.88
416.36	1561.14
416.55	1603.27
416.74	1605.61
416.93	1664.12
417.12	1659.44
417.31	1654.76
417.50	1650.08
417.69	1739.02
417.88	1839.66
418.07	1696.89
418.26	1755.40
418.45	1802.21
418.64	1949.67
418.83	1774.13
419.02	1795.19
419.21	1872.43
419.39	1914.56
419.58	1769.44
419.77	1827.96
419.96	1874.77
420.15	1839.66
420.34	1757.74
420.53	1832.64
420.72	1860.73
420.91	1909.88
421.10	1902.86
421.29	1949.67
421.48	1959.03
421.67	1900.52
421.86	1919.24
422.05	1977.75
422.24	1888.81
422.43	1954.35
422.61	1900.52
422.80	2085.42
422.99	2036.27
423.18	2001.16
423.37	2043.29
423.56	1977.75
423.75	1994.14
423.94	1916.90
424.13	1834.98
424.32	1970.73
424.50	1937.96
424.69	2073.71
424.88	1991.80
425.07	1923.92
425.26	1963.71
425.45	2059.67
425.64	2050.31
425.83	1991.80
426.01	2052.65
426.20	2026.90
426.39	1998.82
426.58	2080.74
426.77	2136.91
426.96	2153.29
427.15	2043.29
427.33	2232.87
427.52	2076.06
427.71	2108.82
427.90	2143.93
428.09	2167.34
428.28	2263.30
428.46	2155.63
428.65	2223.51
428.84	2246.91
429.03	2139.25
429.22	2157.97
429.40	2207.13
429.59	2146.27
429.78	2050.31
429.97	2174.36
430.16	2284.36
430.34	2354.58
430.53	2385.01
430.72	2347.56
430.91	2263.30
431.10	2317.13
431.28	2487.99
431.47	2420.11
431.66	2310.11
431.85	2296.07
432.03	2377.98
432.22	2382.67
432.41	2424.80
432.60	2495.01
432.79	2420.11
432.97	2480.97
433.16	2565.23
433.35	2525.44
433.54	2459.90
433.72	2523.10
433.91	2464.58
434.10	2450.54
434.28	2471.61
434.47	2605.02
434.66	2602.68
434.85	2511.39
435.03	2729.06
435.22	2628.42
435.41	2722.04
435.59	2562.89
435.78	2668.21
435.97	2651.83
436.16	2640.12
436.34	2574.59
436.53	2665.87
436.72	2743.11
436.90	2527.78
437.09	2796.94
437.28	2743.11
437.46	2682.25
437.65	2780.56
437.84	2885.88
438.02	2764.17
438.21	2820.35
438.40	2708.00
438.58	2829.71
438.77	2892.90
438.96	2773.53
439.14	2841.41
439.33	2946.73
439.52	2953.76
439.70	3012.27
439.89	3103.55
440.08	3045.04
440.26	3108.23
440.45	2942.05
440.63	3082.49
440.82	3063.76
441.01	3108.23
441.19	3087.17
441.38	3218.24
441.57	3098.87
441.75	3215.90
441.94	3239.30
442.12	3220.58
442.31	3344.63
442.50	3370.37
442.68	3169.09
442.87	3211.22
443.05	3311.86
443.24	3361.01
443.43	3325.90
443.61	3286.11
443.80	3433.57
443.98	3304.84
444.17	3307.18
444.35	3370.37
444.54	3508.46
444.73	3344.63
444.91	3363.35
445.10	3365.69
445.28	3487.40
445.47	3428.88
445.65	3344.63
445.84	3545.91
446.02	3527.19
446.21	3424.20
446.39	3492.08
446.58	3438.25
446.77	3548.25
446.95	3365.69
447.14	3545.91
447.32	3566.98
447.51	3473.36
447.69	3407.82
447.88	3574.00
448.06	3480.38
448.25	3571.66
448.43	3655.92
448.62	3515.48
448.80	3485.06
448.99	3763.58
449.17	3688.68
449.36	3492.08
449.54	3756.56
449.73	3616.13
449.91	3719.11
450.10	3552.93
450.28	3723.79
450.46	3782.31
450.65	3836.14
450.83	3691.02
451.02	3688.68
451.20	3791.67
451.39	3782.31
451.57	3824.44
451.76	3847.84
451.94	3812.73
452.13	3817.41
452.31	3822.09
452.49	3698.05
452.68	3896.99
452.86	3840.82
453.05	4023.38
453.23	3913.38
453.42	3824.44
453.60	3960.19
453.78	3875.93
453.97	3770.60
454.15	3964.87
454.34	3955.51
454.52	3925.08
454.70	3957.85
454.89	3971.89
455.07	3857.20
455.26	4051.47
455.44	4133.39
455.62	4142.75
455.81	4009.34
455.99	4095.94
456.17	4117.00
456.36	4114.66
456.54	4358.08
456.73	4301.90
456.91	4423.61
457.09	4224.67
457.28	4449.36
457.46	4182.54
457.64	4437.66
457.83	4383.82
458.01	4414.25
458.19	4470.42
458.38	4297.22
458.56	4402.55
458.74	4409.57
458.93	4388.50
459.11	4400.21
459.29	4517.23
459.48	4524.26
459.66	4440.00
459.84	4615.54
460.03	4554.68
460.21	4416.59
460.39	4564.04
460.57	4545.32
460.76	4723.20
460.94	4664.69
461.12	4627.24
461.31	4655.33
461.49	4627.24
461.67	4573.41
461.85	4704.48
462.04	4725.54
462.22	4950.23
462.40	4908.10
462.59	4730.22
462.77	4819.16
462.95	4784.06
463.13	4819.16
463.32	4762.99
463.50	4821.50
463.68	4887.04
463.86	4931.51
464.05	4842.57
464.23	4730.22
464.41	4870.65
464.59	4926.83
464.78	5041.51
464.96	4873.00
465.14	4947.89
465.32	5022.79
465.50	4983.00
465.69	4887.04
465.87	5090.67
466.05	5170.24
466.23	4957.25
466.41	5146.84
466.60	5205.35
466.78	5008.75
466.96	5097.69
467.14	4957.25
467.32	5118.75
467.51	5139.82
467.69	4983.00
467.87	5177.26
468.05	5032.15
468.23	5097.69
468.41	5277.91
468.60	5050.88
468.78	5310.68
468.96	5191.31
469.14	5245.14
469.32	5261.52
469.50	5315.36
469.69	5338.76
469.87	5434.72
470.05	5469.83
470.23	5348.12
470.41	5476.85
470.59	5568.13
470.77	5441.75
470.95	5668.78
471.14	5472.17
471.32	5338.76
471.50	5813.89
471.68	5645.37
471.86	5804.53
472.04	5680.48
472.22	5736.65
472.40	5572.82
472.58	5753.04
472.77	5809.21
472.95	5795.17
473.13	5984.75
473.31	5762.40
473.49	5806.87
473.67	5879.43
473.85	5743.67
474.03	6008.16
474.21	6047.94
474.39	6120.50
474.57	6129.86
474.75	6291.36
474.93	6171.99
475.12	6260.93
475.30	6125.18
475.48	6389.66
475.66	6246.89
475.84	6338.17
476.02	6349.87
476.20	6246.89
476.38	6431.79
476.56	6541.80
476.74	6752.45
476.92	6438.81
477.10	6623.72
477.28	6626.06
477.46	6569.88
477.64	6808.62
477.82	6799.26
478.00	7105.87
478.18	6977.14
478.36	7056.72
478.54	7073.10
478.72	7187.79
478.90	7012.24
479.08	7094.16
479.26	7300.13
479.44	7206.51
479.62	7201.83
479.80	7302.47
479.98	7485.03
480.16	7496.74
480.34	7564.61
480.52	7639.51
480.70	7721.43
480.88	7552.91
481.06	7686.32
481.24	7798.66
481.41	7880.58
481.59	7934.42
481.77	8173.15
481.95	8112.30
482.13	8109.96
482.31	8142.72
482.49	8292.52
482.67	8299.54
482.85	8322.94
483.03	8208.26
483.21	8435.29
483.39	8601.47
483.57	8643.60
483.74	8627.21
483.92	8889.35
484.10	8870.63
484.28	9043.83
484.46	9083.62
484.64	9228.73
484.82	9160.86
485.00	8879.99
485.18	9394.91
485.35	9401.93
485.53	9455.76
485.71	9394.91
485.89	9881.74
486.07	9516.62
486.25	9523.64
486.43	9561.09
486.61	9680.46
486.78	9844.29
486.96	9963.66
487.14	10101.75
487.32	10129.84
487.50	10345.17
487.68	10270.27
487.85	10396.66
488.03	10548.79
488.21	10539.43
488.39	10520.71
488.57	10733.70
488.75	10499.64
488.92	10913.92
489.10	10860.09
489.28	10885.83
489.46	11040.31
489.64	11066.05
489.81	11377.34
489.99	11438.20
490.17	11426.50
490.35	11314.15
490.53	11379.68
490.70	11599.70
490.88	11609.06
491.06	11805.66
491.24	11894.60
491.41	11903.96
491.59	11889.92
491.77	11950.78
491.95	12273.77
492.13	12086.53
492.30	12166.10
492.48	12264.41
492.66	12442.29
492.84	12322.92
493.01	12229.30
493.19	12910.40
493.37	12634.21
493.54	12601.44
493.72	12765.28
493.90	12968.91
494.08	12938.48
494.25	13240.41
494.43	13174.88
494.61	13259.13
494.79	13174.88
494.96	13357.44
495.14	13256.79
495.32	13584.47
495.49	13741.29
495.67	13650.00
495.85	13877.04
496.02	13991.72
496.20	13944.91
496.38	13963.64
496.55	14085.34
496.73	14312.38
496.91	14303.01
497.09	14324.08
497.26	14626.01
497.44	14452.81
497.62	14143.86
497.79	14497.28
497.97	14604.94
498.14	14583.88
498.32	14736.01
498.50	14686.86
498.67	15066.03
498.85	14792.19
499.03	15019.22
499.20	14956.02
499.38	15108.16
499.56	15222.84
499.73	15400.72
499.91	15346.89
500.08	15513.07
500.26	15323.49
500.44	15517.75
500.61	15328.17
500.79	15665.21
500.97	15592.65
501.14	15974.16
501.32	15730.74
501.49	15625.42
501.67	15943.73
501.84	15974.16
502.02	16060.76
502.20	16439.92
502.37	16257.36
502.55	16156.72
502.72	16248.00
502.90	16177.78
503.07	16313.53
503.25	16212.89
503.43	16456.31
503.60	16641.21
503.78	16795.68
503.95	16702.06
504.13	16758.24
504.30	16631.85
504.48	16781.64
504.65	16924.41
504.83	16961.86
505.01	17261.45
505.18	17034.42
505.36	17125.70
505.53	16851.86
505.71	17067.19
505.88	17249.75
506.06	17163.15
506.23	17444.01
506.41	17280.18
506.58	17502.53
506.76	17544.66
506.93	17446.35
507.11	17317.62
507.28	17748.28
507.46	17568.06
507.63	17675.73
507.81	17923.82
507.98	17598.49
508.16	17802.11
508.33	18026.81
508.50	18099.36
508.68	18230.43
508.85	18321.71
509.03	18012.76
509.20	18008.08
509.38	18560.45
509.55	18253.84
509.73	18352.14
509.90	18291.29
510.08	18611.94
510.25	18647.05
510.42	18654.07
510.60	18761.73
510.77	18572.15
510.95	18864.72
511.12	18455.12
511.30	18920.89
511.47	18932.59
511.64	18986.43
511.82	19274.31
511.99	19091.75
512.17	19300.06
512.34	19040.26
512.51	19339.85
512.69	19325.80
512.86	19040.26
513.04	19695.61
513.21	19342.19
513.38	19917.96
513.56	19522.41
513.73	19438.15
513.90	19641.78
514.08	19758.80
514.25	19744.76
514.43	19833.70
514.60	19707.31
514.77	19978.81
514.95	20049.03
515.12	19627.73
515.29	19733.06
515.47	19955.41
515.64	20224.57
515.81	20121.59
515.99	20135.63
516.16	20257.34
516.33	20400.11
516.51	20203.50
516.68	20126.27
516.85	20372.02
517.03	20430.54
517.20	20582.67
517.37	20524.16
517.54	20790.98
517.72	20767.57
517.89	20718.42
518.06	20814.38
518.24	20919.71
518.41	20952.48
518.58	20790.98
518.75	20587.35
518.93	20926.73
519.10	21088.23
519.27	21032.05
519.45	21160.78
519.62	21123.33
519.79	21167.80
519.96	21287.17
520.14	21448.67
520.31	21252.06
520.48	21427.60
520.65	21441.65
520.83	21280.15
521.00	21380.79
521.17	21582.08
521.34	21443.99
521.52	21713.15
521.69	21411.22
521.86	21694.43
522.03	21785.71
522.20	21692.08
522.38	21968.27
522.55	21963.59
522.72	21530.59
522.89	21717.83
523.07	22321.69
523.24	22174.24
523.41	22281.90
523.58	22127.42
523.75	22260.84
523.92	22183.60
524.10	22375.52
524.27	22136.79
524.44	22218.71
524.61	22501.91
524.78	22750.01
524.96	22644.68
525.13	22642.34
525.30	22691.49
525.47	22679.79
525.64	22370.84
525.81	23061.30
525.98	23171.30
526.16	22824.90
526.33	23356.21
526.50	23080.02
526.67	22651.70
526.84	23103.43
527.01	22824.90
527.18	23168.96
527.36	23110.45
527.53	23330.46
527.70	23592.60
527.87	23473.23
528.04	23321.10
528.21	23782.18
528.38	23094.07
528.55	23349.18
528.72	23115.13
528.89	23433.44
529.07	23386.63
529.24	23264.92
529.41	23826.65
529.58	23763.46
529.75	23412.38
529.92	23470.89
530.09	23995.17
530.26	23772.82
530.43	24025.60
530.60	23559.83
530.77	23770.48
530.94	23737.71
531.11	23480.25
531.28	23875.80
531.46	23960.06
531.63	23981.13
531.80	24350.93
531.97	24070.07
532.14	24294.76
532.31	24364.98
532.48	24205.82
532.65	24367.32
532.82	24039.64
532.99	24154.33
533.16	24294.76
533.33	24414.13
533.50	24458.60
533.67	24779.25
533.84	24294.76
534.01	24374.34
534.18	24229.23
534.35	24528.81
534.52	24376.68
534.69	24503.07
534.86	24999.26
535.03	24652.86
535.20	25003.94
535.37	24580.31
535.54	24741.80
535.71	24669.25
535.88	24732.44
536.05	24854.15
536.22	24987.56
536.38	24826.06
536.55	25010.96
536.72	25294.17
536.89	25172.46
537.06	24781.59
537.23	24907.98
537.40	25149.06
537.57	25057.78
537.74	25025.01
537.91	25769.30
538.08	25345.66
538.25	25418.22
538.42	24999.26
538.59	25675.68
538.75	25223.95
538.92	25221.61
539.09	25523.54
539.26	25781.00
539.43	25488.43
539.60	25406.52
539.77	25614.82
539.94	25717.81
540.11	25841.85
540.28	25635.89
540.44	25598.44
540.61	25441.62
540.78	25776.32
540.95	25706.10
541.12	25558.65
541.29	25532.90
541.46	25881.64
541.62	25881.64
541.79	25565.67
541.96	25432.26
542.13	26260.81
542.30	26078.25
542.47	26195.28
542.63	26101.65
542.80	26370.82
542.97	26380.18
543.14	26080.59
543.31	26302.94
543.48	26328.69
543.64	26689.13
543.81	26412.95
543.98	26581.46
544.15	26572.10
544.32	26829.56
544.48	26831.90
544.65	27084.68
544.82	26768.71
544.99	26349.75
545.16	26513.59
545.32	26733.60
545.49	26843.60
545.66	26647.00
545.83	26998.08
546.00	26834.24
546.16	27016.80
546.33	26331.03
546.50	26441.03
546.67	27154.90
546.83	26499.55
547.00	26682.11
547.17	27145.53
547.34	26761.69
547.50	27445.12
547.67	27292.99
547.84	27234.47
548.00	26939.57
548.17	26993.40
548.34	26984.04
548.51	27372.57
548.67	27285.97
548.84	27559.81
549.01	27026.17
549.18	27452.14
549.34	27271.92
549.51	27550.45
549.68	27222.77
549.84	27580.87
550.01	27545.76
550.18	27761.09
550.34	27424.06
550.51	27866.42
550.68	27744.71
550.84	27440.44
551.01	27859.40
551.18	27608.96
551.34	27627.68
551.51	27449.80
551.68	27576.19
551.84	27707.26
552.01	27852.38
552.18	27859.40
552.34	27711.94
552.51	28180.05
552.68	27529.38
552.84	27967.06
553.01	28116.86
553.18	28147.28
553.34	27796.20
553.51	28077.07
553.67	28109.83
553.84	28137.92
554.01	28039.62
554.17	27990.47
554.34	28538.15
554.51	27957.70
554.67	28009.19
554.84	27784.50
555.00	28126.22
555.17	28205.80
555.33	28390.70
555.50	28254.95
555.67	28149.62
555.83	28112.17
556.00	28180.05
556.16	28285.37
556.33	28261.97
556.50	28690.29
556.66	28599.01
556.83	28362.61
556.99	28687.95
557.16	28486.66
557.32	28542.83
557.49	28505.38
557.65	28369.63
557.82	28524.11
557.98	28397.72
558.15	28659.86
558.32	28720.71
558.48	28645.82
558.65	28725.39
558.81	28758.16
558.98	28811.99
559.14	29057.75
559.31	28713.69
559.47	28648.16
559.64	29097.54
559.80	29221.59
559.97	29081.16
560.13	28617.73
560.30	28484.32
560.46	28711.35
560.63	28678.58
560.79	29127.97
560.96	28704.33
561.12	28793.27
561.29	28826.04
561.45	28786.25
561.61	28954.77
561.78	29214.57
561.94	28903.28
562.11	28884.55
562.27	29193.50
562.44	29186.48
562.60	29017.96
562.77	29134.99
562.93	29076.48
563.10	29181.80
563.26	29301.17
563.42	29233.29
563.59	29097.54
563.75	28816.68
563.92	29317.55
564.08	29174.78
564.24	29303.51
564.41	29174.78
564.57	29050.73
564.74	29345.64
564.90	29450.96
565.07	29530.54
565.23	29081.16
565.39	29237.97
565.56	29729.48
565.72	28814.34
565.88	29104.56
566.05	29132.65
566.21	29383.09
566.38	29460.32
566.54	29493.09
566.70	29532.88
566.87	29809.06
567.03	29645.23
567.19	29600.76
567.36	29607.78
567.52	29394.79
567.68	29549.26
567.85	29095.20
568.01	29757.57
568.17	29621.82
568.34	29710.76
568.50	29544.58
568.66	29617.14
568.83	29715.44
568.99	29390.11
569.15	29553.94
569.32	29467.34
569.48	29198.18
569.64	29350.32
569.81	29364.36
569.97	29298.83
570.13	29666.29
570.30	29369.04
570.46	29663.95
570.62	29743.53
570.78	29546.92
570.95	29539.90
571.11	29450.96
571.27	29556.28
571.43	29532.88
571.60	29769.27
571.76	29582.03
571.92	30174.19
572.09	29919.07
572.25	29764.59
572.41	29645.23
572.57	29722.46
572.74	29598.41
572.90	30036.09
573.06	29876.94
573.22	29610.12
573.38	29769.27
573.55	29460.32
573.71	29689.70
573.87	30024.39
574.03	30043.12
574.20	29984.60
574.36	29797.36
574.52	29666.29
574.68	29532.88
574.84	29766.93
575.01	29715.44
575.17	29701.40
575.33	29687.36
575.49	29364.36
575.65	30071.20
575.82	29890.98
575.98	29605.44
576.14	29771.61
576.30	29476.71
576.46	29666.29
576.62	29942.47
576.79	30118.01
576.95	29874.60
577.11	30019.71
577.27	29905.02
577.43	30078.22
577.59	29825.45
577.75	29830.13
577.92	29294.14
578.08	29626.50
578.24	29509.47
578.40	29785.66
578.56	29825.45
578.72	30043.12
578.88	30148.44
579.04	29979.92
579.21	29759.91
579.37	30015.03
579.53	29708.42
579.69	29745.87
579.85	29846.51
580.01	29846.51
580.17	30052.48
580.33	29895.66
580.49	29926.09
580.65	30162.48
580.82	29876.94
580.98	30085.25
581.14	29993.97
581.30	29958.86
581.46	30118.01
581.62	29701.40
581.78	29823.11
581.94	30174.19
582.10	29722.46
582.26	30052.48
582.42	29738.85
582.58	30089.93
582.74	30019.71
582.90	29958.86
583.06	30267.81
583.22	30164.82
583.38	29956.52
583.54	30005.67
583.70	29940.13
583.86	30015.03
584.02	29975.24
584.18	30511.22
584.34	30586.12
584.50	29846.51
584.66	30279.51
584.82	30106.31
584.98	30120.35
585.14	30190.57
585.30	29933.11
585.46	29813.74
585.62	29839.49
585.78	29867.58
585.94	29792.68
586.10	29834.81
586.26	29893.32
586.42	30272.49
586.58	30052.48
586.74	30029.07
586.90	30136.74
587.06	29848.85
587.22	30064.18
587.38	29790.34
587.54	30377.81
587.70	30438.67
587.86	30300.58
588.02	30068.86
588.18	30742.94
588.34	30134.40
588.49	29738.85
588.65	30448.03
588.81	29970.56
588.97	30085.25
589.13	30092.27
589.29	29970.56
589.45	30291.21
589.61	30202.27
589.77	30845.92
589.93	30389.52
590.08	30691.44
590.24	30410.58
590.40	30754.64
590.56	30429.30
590.72	29844.17
590.88	30356.75
591.04	30513.56
591.20	30642.29
591.35	30534.63
591.51	30815.49
591.67	30670.38
591.83	30904.43
591.99	30382.49
