SpectraSuite Data File
++++++++++++++++++++++++++++++++++++
Date: Fri Oct 18 13:58:04 GMT-05:00 2013
User: bianchi
Dark Spectrum Present: No
Reference Spectrum Present: No
Number of Sampled Component Spectra: 1
Spectrometers: USB2+H05261
Integration Time (usec): 50000 (USB2+H05261)
Spectra Averaged: 1 (USB2+H05261)
Boxcar Smoothing: 0 (USB2+H05261)
Correct for Electrical Dark: No (USB2+H05261)
Strobe/Lamp Enabled: No (USB2+H05261)
Correct for Detector Non-linearity: No (USB2+H05261)
Correct for Stray Light: No (USB2+H05261)
Number of Pixels in Processed Spectrum: 2048
>>>>>Begin Processed Spectral Data<<<<<
365.73	0.00
365.92	0.00
366.12	0.00
366.32	0.00
366.52	0.00
366.72	0.00
366.91	0.00
367.11	0.00
367.31	0.00
367.51	0.00
367.70	0.00
367.90	0.00
368.10	0.00
368.30	0.00
368.49	0.00
368.69	0.00
368.89	0.00
369.09	0.00
369.28	0.00
369.48	0.00
369.68	0.00
369.87	0.00
370.07	0.00
370.27	0.00
370.47	18.72
370.66	149.79
370.86	98.30
371.06	100.64
371.25	189.58
371.45	196.60
371.65	201.29
371.84	102.98
372.04	117.03
372.24	168.52
372.44	152.13
372.63	163.84
372.83	203.63
373.03	203.63
373.22	145.11
373.42	215.33
373.62	273.84
373.81	205.97
374.01	177.88
374.21	182.56
374.40	201.29
374.60	220.01
374.79	278.52
374.99	269.16
375.19	259.80
375.38	264.48
375.58	306.61
375.78	255.12
375.97	290.23
376.17	285.55
376.37	355.76
376.56	271.50
376.76	220.01
376.95	236.39
377.15	187.24
377.35	248.10
377.54	224.69
377.74	290.23
377.93	220.01
378.13	262.14
378.33	304.27
378.52	259.80
378.72	283.20
378.91	292.57
379.11	315.97
379.31	346.40
379.50	217.67
379.70	262.14
379.89	311.29
380.09	266.82
380.28	304.27
380.48	325.33
380.68	248.10
380.87	297.25
381.07	313.63
381.26	301.93
381.46	287.89
381.65	374.49
381.85	327.68
382.04	362.78
382.24	369.80
382.43	327.68
382.63	381.51
382.83	330.02
383.02	407.25
383.22	353.42
383.41	379.17
383.61	397.89
383.80	351.08
384.00	414.27
384.19	402.57
384.39	362.78
384.58	379.17
384.78	365.12
384.97	355.76
385.17	337.04
385.36	355.76
385.56	402.57
385.75	353.42
385.95	414.27
386.14	400.23
386.34	451.72
386.53	346.40
386.72	402.57
386.92	395.55
387.11	395.55
387.31	512.58
387.50	447.04
387.70	449.38
387.89	395.55
388.09	390.87
388.28	444.70
388.48	414.27
388.67	482.15
388.86	433.00
389.06	447.04
389.25	519.60
389.45	519.60
389.64	538.32
389.84	484.49
390.03	418.96
390.22	550.03
390.42	479.81
390.61	505.56
390.81	498.53
391.00	521.94
391.19	447.04
391.39	468.11
391.58	538.32
391.78	592.16
391.97	498.53
392.16	528.96
392.36	540.66
392.55	524.28
392.75	601.52
392.94	554.71
393.13	531.30
393.33	479.81
393.52	503.22
393.71	641.31
393.91	603.86
394.10	489.17
394.29	517.26
394.49	610.88
394.68	617.90
394.88	641.31
395.07	713.86
395.26	655.35
395.46	645.99
395.65	676.41
395.84	704.50
396.04	732.59
396.23	718.54
396.42	631.94
396.62	662.37
396.81	606.20
397.00	627.26
397.19	645.99
397.39	723.23
397.58	748.97
397.77	741.95
397.97	650.67
398.16	716.20
398.35	732.59
398.55	622.58
398.74	763.01
398.93	746.63
399.12	753.65
399.32	702.16
399.51	645.99
399.70	741.95
399.90	741.95
400.09	791.10
400.28	739.61
400.47	779.40
400.67	823.87
400.86	828.55
401.05	798.12
401.24	798.12
401.44	877.70
401.63	758.33
401.82	770.04
402.01	767.70
402.21	795.78
402.40	826.21
402.59	861.32
402.78	898.77
402.97	802.80
403.17	823.87
403.36	910.47
403.55	903.45
403.74	873.02
403.93	896.43
404.13	919.83
404.32	938.55
404.51	950.26
404.70	983.02
404.89	940.90
405.09	940.90
405.28	877.70
405.47	936.21
405.66	1046.22
405.85	945.58
406.05	968.98
406.24	1060.26
406.43	976.00
406.62	1013.45
406.81	1011.11
407.00	964.30
407.20	1013.45
407.39	999.41
407.58	1111.75
407.77	1081.33
407.96	1111.75
408.15	1090.69
408.34	1015.79
408.54	1100.05
408.73	1074.31
408.92	1135.16
409.11	1165.59
409.30	1111.75
409.49	1095.37
409.68	1029.84
409.87	1107.07
410.07	1228.78
410.26	1238.14
410.45	1247.51
410.64	1177.29
410.83	1186.65
411.02	1144.52
411.21	1235.80
411.40	1338.79
411.59	1177.29
411.78	1287.29
411.98	1329.42
412.17	1324.74
412.36	1303.68
412.55	1345.81
412.74	1338.79
412.93	1394.96
413.12	1263.89
413.31	1462.83
413.50	1404.32
413.69	1472.20
413.88	1570.50
414.07	1500.28
414.26	1448.79
414.45	1502.62
414.64	1490.92
414.83	1490.92
415.02	1430.07
415.22	1549.43
415.41	1516.67
415.60	1612.63
415.79	1596.25
415.98	1589.22
416.17	1633.69
416.36	1626.67
416.55	1612.63
416.74	1624.33
416.93	1724.97
417.12	1671.14
417.31	1722.63
417.50	1717.95
417.69	1727.32
417.88	1682.85
418.07	1722.63
418.26	1844.34
418.45	1783.49
418.64	1888.81
418.83	1905.20
419.02	1795.19
419.21	1741.36
419.39	1778.81
419.58	1832.64
419.77	1802.21
419.96	1790.51
420.15	1872.43
420.34	1914.56
420.53	1933.28
420.72	1973.07
420.91	1851.36
421.10	1914.56
421.29	1937.96
421.48	1961.37
421.67	1935.62
421.86	2022.22
422.05	2057.33
422.24	1870.09
422.43	1949.67
422.61	2062.01
422.80	2125.21
422.99	2134.57
423.18	1933.28
423.37	2085.42
423.56	2008.18
423.75	1996.48
423.94	1970.73
424.13	1928.60
424.32	1933.28
424.50	2024.56
424.69	2054.99
424.88	2010.52
425.07	2008.18
425.26	1968.39
425.45	2059.67
425.64	2085.42
425.83	2019.88
426.01	2054.99
426.20	2085.42
426.39	2106.48
426.58	1998.82
426.77	2160.31
426.96	2115.84
427.15	2141.59
427.33	2129.89
427.52	2181.38
427.71	2101.80
427.90	2118.18
428.09	2186.06
428.28	2153.29
428.46	2275.00
428.65	2275.00
428.84	2345.22
429.03	2291.38
429.22	2258.62
429.40	2321.81
429.59	2333.51
429.78	2214.15
429.97	2155.63
430.16	2265.64
430.34	2347.56
430.53	2410.75
430.72	2345.22
430.91	2303.09
431.10	2333.51
431.28	2387.35
431.47	2354.58
431.66	2436.50
431.85	2335.85
432.03	2417.77
432.22	2492.67
432.41	2415.43
432.60	2551.18
432.79	2427.14
432.97	2560.55
433.16	2464.58
433.35	2509.05
433.54	2534.80
433.72	2525.44
433.91	2539.48
434.10	2539.48
434.28	2539.48
434.47	2553.52
434.66	2530.12
434.85	2621.40
435.03	2546.50
435.22	2581.61
435.41	2703.32
435.59	2637.78
435.78	2729.06
435.97	2579.27
436.16	2637.78
436.34	2623.74
436.53	2684.59
436.72	2700.98
436.90	2918.65
437.09	2752.47
437.28	2595.65
437.46	2827.37
437.65	2766.51
437.84	2724.38
438.02	2773.53
438.21	2675.23
438.40	2754.81
438.58	2892.90
438.77	2953.76
438.96	2874.18
439.14	2972.48
439.33	2946.73
439.52	2963.12
439.70	2981.84
439.89	3236.96
440.08	3108.23
440.26	3089.51
440.45	3082.49
440.63	3180.79
440.82	3159.72
441.01	3159.72
441.19	3129.30
441.38	3293.13
441.57	3283.77
441.75	3215.90
441.94	3288.45
442.12	3353.99
442.31	3337.60
442.50	3297.81
442.68	3358.67
442.87	3499.10
443.05	3499.10
443.24	3382.07
443.43	3325.90
443.61	3431.23
443.80	3478.04
443.98	3414.84
444.17	3295.47
444.35	3414.84
444.54	3501.44
444.73	3428.88
444.91	3398.46
445.10	3480.38
445.28	3494.42
445.47	3328.24
445.65	3494.42
445.84	3503.78
446.02	3503.78
446.21	3562.30
446.39	3471.01
446.58	3480.38
446.77	3548.25
446.95	3419.52
447.14	3391.44
447.32	3676.98
447.51	3424.20
447.69	3538.89
447.88	3641.87
448.06	3536.55
448.25	3391.44
448.43	3585.70
448.62	3632.51
448.80	3606.77
448.99	3623.15
449.17	3534.21
449.36	3634.85
449.54	3665.28
449.73	3840.82
449.91	3709.75
450.10	3632.51
450.28	3765.92
450.46	3794.01
450.65	3857.20
450.83	3772.94
451.02	3831.46
451.20	3873.59
451.39	3749.54
451.57	3686.34
451.76	3707.41
451.94	3868.91
452.13	3943.80
452.31	3946.14
452.49	3840.82
452.68	3953.16
452.86	3899.33
453.05	3913.38
453.23	4133.39
453.42	3896.99
453.60	3826.78
453.78	3815.07
453.97	3887.63
454.15	4067.85
454.34	4011.68
454.52	4035.08
454.70	3943.80
454.89	4060.83
455.07	3920.40
455.26	4124.02
455.44	4198.92
455.62	4140.41
455.81	4131.05
455.99	4166.15
456.17	4135.73
456.36	4205.94
456.54	4077.21
456.73	4154.45
456.91	4236.37
457.09	4409.57
457.28	4524.26
457.46	4430.63
457.64	4631.92
457.83	4278.50
458.01	4395.53
458.19	4400.21
458.38	4437.66
458.56	4512.55
458.74	4447.02
458.93	4393.19
459.11	4358.08
459.29	4386.16
459.48	4479.79
459.66	4444.68
459.84	4643.62
460.03	4489.15
460.21	4648.30
460.39	4552.34
460.57	4454.04
460.76	4631.92
460.94	4706.82
461.12	4697.46
461.31	4816.82
461.49	4727.88
461.67	4575.75
461.85	4943.21
462.04	4720.86
462.22	5076.62
462.40	4814.48
462.59	4826.18
462.77	4723.20
462.95	4739.58
463.13	4830.87
463.32	4812.14
463.50	4849.59
463.68	4868.31
463.86	4929.17
464.05	4868.31
464.23	4814.48
464.41	4950.23
464.59	4767.67
464.78	5043.85
464.96	4840.23
465.14	4926.83
465.32	4943.21
465.50	5069.60
465.69	5135.14
465.87	5102.37
466.05	5095.35
466.23	4975.98
466.41	5039.17
466.60	5156.20
466.78	5001.72
466.96	5109.39
467.14	5097.69
467.32	5093.01
467.51	5195.99
467.69	5114.07
467.87	5259.18
468.05	5172.58
468.23	5109.39
468.41	5132.79
468.60	5228.76
468.78	5224.08
468.96	5261.52
469.14	5364.51
469.32	5352.81
469.50	5277.91
469.69	5537.71
469.87	5404.30
470.05	5572.82
470.23	5441.75
470.41	5596.22
470.59	5521.32
470.77	5460.47
470.95	5671.12
471.14	5490.90
471.32	5596.22
471.50	5612.60
471.68	5605.58
471.86	5650.05
472.04	5724.95
472.22	5654.73
472.40	5701.54
472.58	5760.06
472.77	5839.64
472.95	5902.83
473.13	6033.90
473.31	5762.40
473.49	5928.58
473.67	5708.57
473.85	5870.06
474.03	6209.44
474.21	5994.11
474.39	6012.84
474.57	6253.91
474.75	6179.01
474.93	6312.42
475.12	6272.64
475.30	6436.47
475.48	6300.72
475.66	6438.81
475.84	6277.32
476.02	6314.77
476.20	6406.05
476.38	6359.24
476.56	6520.73
476.74	6693.93
476.92	6731.38
477.10	6586.27
477.28	6682.23
477.46	6754.79
477.64	6843.73
477.82	6820.32
478.00	7005.22
478.18	6998.20
478.36	7112.89
478.54	7164.38
478.72	7143.32
478.90	7349.28
479.08	7337.58
479.26	7433.54
479.44	7405.46
479.62	7405.46
479.80	7463.97
479.98	7438.22
480.16	7683.98
480.34	7566.95
480.52	7667.60
480.70	7644.19
480.88	7501.42
481.06	7887.61
481.24	7822.07
481.41	7798.66
481.59	7908.67
481.77	8056.12
481.95	8175.49
482.13	8332.31
482.31	8273.79
482.49	8376.78
482.67	8344.01
482.85	8702.11
483.03	8552.32
483.21	8557.00
483.39	8685.73
483.57	8580.40
483.74	8762.97
483.92	9039.15
484.10	8863.61
484.28	8837.86
484.46	9294.27
484.64	9130.43
484.82	9013.40
485.00	9057.87
485.18	9352.78
485.35	9493.21
485.53	9472.15
485.71	9465.13
485.89	9841.95
486.07	9647.69
486.25	9490.87
486.43	9668.75
486.61	9750.67
486.78	9916.85
486.96	10038.56
487.14	10361.55
487.32	10108.77
487.50	10338.15
487.68	10340.49
487.85	10492.62
488.03	10590.92
488.21	10843.70
488.39	10644.76
488.57	10712.63
488.75	10848.38
488.92	10850.72
489.10	10944.34
489.28	11084.78
489.46	11246.27
489.64	11190.10
489.81	11367.98
489.99	11470.97
490.17	11386.71
490.35	11723.74
490.53	11576.29
490.70	11564.59
490.88	11861.84
491.06	11812.68
491.24	11786.94
491.41	12035.03
491.59	12037.38
491.77	12241.00
491.95	12446.97
492.13	12512.50
492.30	12198.87
492.48	12521.87
492.66	12585.06
492.84	12594.42
493.01	12636.55
493.19	12798.05
493.37	12805.07
493.54	12982.95
493.72	13139.77
493.90	13057.85
494.08	12987.63
494.25	13294.24
494.43	13254.45
494.61	13437.02
494.79	13645.32
494.96	13532.98
495.14	13479.15
495.32	13664.05
495.49	13823.20
495.67	13586.81
495.85	13947.25
496.02	13893.42
496.20	14139.18
496.38	13944.91
496.55	14478.55
496.73	14387.27
496.91	14417.70
497.09	14630.69
497.26	14618.99
497.44	14497.28
497.62	14565.15
497.79	14963.04
497.97	14506.64
498.14	15040.28
498.32	15098.80
498.50	15122.20
498.67	15028.58
498.85	15356.25
499.03	15346.89
499.20	15122.20
499.38	15129.22
499.56	15435.83
499.73	15552.86
499.91	15840.75
500.08	15562.22
500.26	15602.01
500.44	15407.75
500.61	15833.72
500.79	15606.69
500.97	16095.86
501.14	16161.40
501.32	16070.12
501.49	16009.26
501.67	16161.40
501.84	15929.69
502.02	16074.80
502.20	16259.70
502.37	16458.65
502.55	16414.18
502.72	16491.41
502.90	16697.38
503.07	16606.10
503.25	16702.06
503.43	16702.06
503.60	16840.15
503.78	16664.61
503.95	16816.75
504.13	16872.92
504.30	16964.20
504.48	16917.39
504.65	17172.51
504.83	17071.87
505.01	17287.20
505.18	17074.21
505.36	17469.76
505.53	17322.30
505.71	17235.70
505.88	17216.98
506.06	16987.61
506.23	17561.04
506.41	17525.93
506.58	17561.04
506.76	17645.30
506.93	17542.32
507.11	17720.20
507.28	17827.86
507.46	17844.24
507.63	18092.34
507.81	18047.87
507.98	17881.69
508.16	18115.75
508.33	18342.78
508.50	17994.04
508.68	18066.60
508.85	18342.78
509.03	18408.31
509.20	18298.31
509.38	18740.67
509.55	18459.81
509.73	18593.22
509.90	18553.43
510.08	18487.89
510.25	18845.99
510.42	18628.32
510.60	18953.66
510.77	19033.24
510.95	19190.05
511.12	18789.82
511.30	18820.25
511.47	19054.30
511.64	19103.45
511.82	19143.24
511.99	19309.42
512.17	19414.74
512.34	19171.33
512.51	19339.85
512.69	19482.62
512.86	19594.96
513.04	19562.20
513.21	19562.20
513.38	19723.69
513.56	19772.85
513.73	19548.15
513.90	19960.09
514.08	19580.92
514.25	20130.95
514.43	20023.28
514.60	19992.86
514.77	20013.92
514.95	20482.03
515.12	19859.45
515.29	19943.70
515.47	20109.88
515.64	20552.24
515.81	20212.87
515.99	20491.39
516.16	20580.33
516.33	20430.54
516.51	20816.72
516.68	20540.54
516.85	20435.22
517.03	20713.74
517.20	20996.95
517.37	20872.90
517.54	20870.56
517.72	20739.49
517.89	20606.08
518.06	20999.29
518.24	20950.14
518.41	20896.30
518.58	21474.42
518.75	21053.12
518.93	21319.94
519.10	21338.66
519.27	21343.35
519.45	21081.21
519.62	21165.46
519.79	21341.00
519.96	21408.88
520.14	21694.43
520.31	21633.57
520.48	21799.75
520.65	21926.14
520.83	21443.99
521.00	21839.54
521.17	21376.11
521.34	21462.71
521.52	22022.10
521.69	21680.38
521.86	22010.40
522.03	21933.16
522.20	22366.16
522.38	22232.75
522.55	22242.11
522.72	22087.64
522.89	22284.24
523.07	22497.23
523.24	22361.48
523.41	22527.66
523.58	22410.63
523.75	22328.71
523.92	22354.46
524.10	22487.87
524.27	22611.92
524.44	22691.49
524.61	22871.72
524.78	22820.22
524.96	22979.38
525.13	22897.46
525.30	22860.01
525.47	23044.91
525.64	22745.33
525.81	23014.49
525.98	23073.00
526.16	23187.69
526.33	23021.51
526.50	23253.22
526.67	23084.70
526.84	23330.46
527.01	22881.08
527.18	23372.59
527.36	23426.42
527.53	23541.11
527.70	23714.31
527.87	23592.60
528.04	23576.22
528.21	23931.98
528.38	23632.39
528.55	23616.01
528.72	23824.31
528.89	23702.61
529.07	23730.69
529.24	23960.06
529.41	23936.66
529.58	23939.00
529.75	23498.98
529.92	24030.28
530.09	23843.04
530.26	24034.96
530.43	24098.16
530.60	23831.33
530.77	23976.45
530.94	24208.16
531.11	24100.50
531.28	24238.59
531.46	24297.10
531.63	24299.44
531.80	24311.14
531.97	24402.43
532.14	24657.54
532.31	24446.90
532.48	24229.23
532.65	24187.10
532.82	24718.40
532.99	24507.75
533.16	24711.38
533.33	24666.91
533.50	24889.26
533.67	24933.73
533.84	24613.07
534.01	24940.75
534.18	24437.53
534.35	25043.73
534.52	24587.33
534.69	25060.12
534.86	24889.26
535.03	24737.12
535.20	25137.35
535.37	25287.15
535.54	25387.79
535.71	24694.99
535.88	24987.56
536.05	24959.47
536.22	25301.19
536.38	25427.58
536.55	25755.26
536.72	25355.02
536.89	24929.05
537.06	25495.46
537.23	25642.91
537.40	25015.65
537.57	25284.81
537.74	25287.15
537.91	25710.78
538.08	25638.23
538.25	25434.60
538.42	25481.41
538.59	25523.54
538.75	25603.12
538.92	25488.43
539.09	25687.38
539.26	25577.37
539.43	25490.77
539.60	26370.82
539.77	26003.35
539.94	26342.73
540.11	25855.90
540.28	25900.37
540.44	26143.78
540.61	25832.49
540.78	26160.17
540.95	25949.52
541.12	26010.37
541.29	26211.66
541.46	26235.06
541.62	26286.56
541.79	26174.21
541.96	25694.40
542.13	26258.47
542.30	26181.23
542.47	26558.06
542.63	26345.07
542.80	26787.43
542.97	26707.85
543.14	26532.31
543.31	26707.85
543.48	26618.91
543.64	26855.31
543.81	26958.29
543.98	26965.31
544.15	26998.08
544.32	26930.20
544.48	27559.81
544.65	26897.44
544.82	26717.22
544.99	26895.10
545.16	27161.92
545.32	26967.65
545.49	27096.38
545.66	27281.28
545.83	27204.05
546.00	27377.25
546.16	27082.34
546.33	26871.69
546.50	26817.86
546.67	26885.73
546.83	27072.98
547.00	26843.60
547.17	27445.12
547.34	27290.65
547.50	27328.10
547.67	27372.57
547.84	27704.92
548.00	27711.94
548.17	27831.31
548.34	27260.22
548.51	27981.10
548.67	27871.10
548.84	27639.39
549.01	28037.28
549.18	27859.40
549.34	27576.19
549.51	27491.93
549.68	27711.94
549.84	27913.23
550.01	27906.21
550.18	27323.41
550.34	27992.81
550.51	28056.00
550.68	28053.66
550.84	27770.46
551.01	28147.28
551.18	27557.47
551.34	27627.68
551.51	28037.28
551.68	28170.69
551.84	28339.21
552.01	27967.06
552.18	28231.54
552.34	27971.74
552.51	28484.32
552.68	28252.61
552.84	28470.28
553.01	27934.29
553.18	28552.20
553.34	28397.72
553.51	28116.86
553.67	28465.60
553.84	28680.92
554.01	28652.84
554.17	28863.49
554.34	28393.04
554.51	28257.29
554.67	28369.63
554.84	28755.82
555.00	28451.55
555.17	28802.63
555.33	28699.65
555.50	28744.12
555.67	28381.34
555.83	28219.84
556.00	28823.70
556.16	28826.04
556.33	28774.55
556.50	28540.49
556.66	29057.75
556.83	28687.95
556.99	29151.37
557.16	29378.40
557.32	29151.37
557.49	28828.38
557.65	28718.37
557.82	28961.79
557.98	28987.53
558.15	29116.26
558.32	29071.79
558.48	29074.13
558.65	29305.85
558.81	28938.38
558.98	29020.30
559.14	29504.79
559.31	28793.27
559.47	28788.59
559.64	29062.43
559.80	28999.24
559.97	29336.27
560.13	29670.97
560.30	29247.33
560.46	29046.05
560.63	29252.02
560.79	29207.55
560.96	29596.07
561.12	29350.32
561.29	29118.60
561.45	29558.63
561.61	29378.40
561.78	29443.94
561.94	29521.18
562.11	29191.16
562.27	29263.72
562.44	29034.35
562.60	29455.64
562.77	29322.23
562.93	29509.47
563.10	29390.11
563.26	29539.90
563.42	30008.01
563.59	29509.47
563.75	29443.94
563.92	29727.14
564.08	29024.98
564.24	29729.48
564.41	29408.83
564.57	29692.04
564.74	29631.18
564.90	29696.72
565.07	29677.99
565.23	29626.50
565.39	29457.98
565.56	29867.58
565.72	29675.65
565.88	29446.28
566.05	29542.24
566.21	29577.35
566.38	29579.69
566.54	29797.36
566.70	30195.25
566.87	30078.22
567.03	30288.87
567.19	30129.72
567.36	29876.94
567.52	30000.99
567.68	30120.35
567.85	29848.85
568.01	29965.88
568.17	29617.14
568.34	30068.86
568.50	29883.96
568.66	29830.13
568.83	30103.97
568.99	30274.83
569.15	29839.49
569.32	30096.95
569.48	29720.12
569.64	29874.60
569.81	29495.43
569.97	29933.11
570.13	30113.33
570.30	29778.64
570.46	30237.38
570.62	30043.12
570.78	29762.25
570.95	29635.86
571.11	29628.84
571.27	29710.76
571.43	29855.87
571.60	29757.57
571.76	29790.34
571.92	29968.22
572.09	29975.24
572.25	30345.05
572.41	30167.16
572.57	30331.00
572.74	30103.97
572.90	29816.08
573.06	29914.39
573.22	30096.95
573.38	29813.74
573.55	30146.10
573.71	30632.93
573.87	30284.19
574.03	30202.27
574.20	30148.44
574.36	30352.07
574.52	30139.08
574.68	30328.66
574.84	30401.22
575.01	30129.72
575.17	30265.47
575.33	30216.32
575.49	30305.26
575.65	30293.55
575.82	30354.41
575.98	30279.51
576.14	30036.09
576.30	30155.46
576.46	30314.62
576.62	29933.11
576.79	30375.47
576.95	30260.79
577.11	30370.79
577.27	30403.56
577.43	30347.39
577.59	30417.60
577.75	30141.42
577.92	30260.79
578.08	30424.62
578.24	30288.87
578.40	30195.25
578.56	30036.09
578.72	30305.26
578.88	30242.06
579.04	30396.54
579.21	30401.22
579.37	30632.93
579.53	30094.61
579.69	30235.04
579.85	30033.75
580.01	30328.66
580.17	30118.01
580.33	30059.50
580.49	30361.43
580.65	30515.90
580.82	30576.76
580.98	30658.68
581.14	30859.96
581.30	30445.69
581.46	30218.66
581.62	30363.77
581.78	30279.51
581.94	30593.14
582.10	30426.96
582.26	30019.71
582.42	30452.71
582.58	30609.53
582.74	30490.16
582.90	30796.77
583.06	30462.07
583.22	30396.54
583.38	30471.43
583.54	30380.15
583.70	30352.07
583.86	30396.54
584.02	29989.28
584.18	30429.30
584.34	30459.73
584.50	30836.56
584.66	30527.61
584.82	30265.47
584.98	30543.99
585.14	30167.16
585.30	30677.40
585.46	30464.41
585.62	30230.36
585.78	30555.69
585.94	30286.53
586.10	30473.78
586.26	30586.12
586.42	30703.15
586.58	30689.10
586.74	30209.29
586.90	30412.92
587.06	30382.49
587.22	30820.17
587.38	30628.25
587.54	30548.67
587.70	30948.90
587.86	30815.49
588.02	30703.15
588.18	30710.17
588.34	30859.96
588.49	30796.77
588.65	30768.68
588.81	30396.54
588.97	30398.88
589.13	30387.18
589.29	30684.42
589.45	30562.72
589.61	30707.83
589.77	30984.01
589.93	30677.40
590.08	31005.08
590.24	30845.92
590.40	31145.51
590.56	31206.36
590.72	30644.63
590.88	30906.77
591.04	30698.47
591.20	30745.28
591.35	31002.74
591.51	31159.55
591.67	30918.48
591.83	31218.07
591.99	30677.40
