SpectraSuite Data File
++++++++++++++++++++++++++++++++++++
Date: Fri Oct 18 13:58:17 GMT-05:00 2013
User: bianchi
Dark Spectrum Present: No
Reference Spectrum Present: No
Number of Sampled Component Spectra: 1
Spectrometers: USB2+H05261
Integration Time (usec): 50000 (USB2+H05261)
Spectra Averaged: 1 (USB2+H05261)
Boxcar Smoothing: 0 (USB2+H05261)
Correct for Electrical Dark: No (USB2+H05261)
Strobe/Lamp Enabled: No (USB2+H05261)
Correct for Detector Non-linearity: No (USB2+H05261)
Correct for Stray Light: No (USB2+H05261)
Number of Pixels in Processed Spectrum: 2048
>>>>>Begin Processed Spectral Data<<<<<
365.73	0.00
365.92	0.00
366.12	0.00
366.32	0.00
366.52	0.00
366.72	0.00
366.91	0.00
367.11	0.00
367.31	0.00
367.51	0.00
367.70	0.00
367.90	0.00
368.10	0.00
368.30	0.00
368.49	0.00
368.69	0.00
368.89	0.00
369.09	0.00
369.28	0.00
369.48	0.00
369.68	0.00
369.87	0.00
370.07	0.00
370.27	0.00
370.47	0.00
370.66	49.15
370.86	77.24
371.06	86.60
371.25	133.41
371.45	72.56
371.65	95.96
371.84	117.03
372.04	173.20
372.24	187.24
372.44	156.82
372.63	201.29
372.83	205.97
373.03	264.48
373.22	182.56
373.42	170.86
373.62	191.92
373.81	259.80
374.01	210.65
374.21	191.92
374.40	285.55
374.60	236.39
374.79	262.14
374.99	205.97
375.19	191.92
375.38	184.90
375.58	234.05
375.78	278.52
375.97	276.18
376.17	327.68
376.37	259.80
376.56	245.76
376.76	318.31
376.95	245.76
377.15	290.23
377.35	290.23
377.54	292.57
377.74	264.48
377.93	243.42
378.13	198.95
378.33	308.95
378.52	266.82
378.72	294.91
378.91	315.97
379.11	220.01
379.31	379.17
379.50	255.12
379.70	330.02
379.89	290.23
380.09	280.86
380.28	273.84
380.48	269.16
380.68	285.55
380.87	231.71
381.07	346.40
381.26	348.74
381.46	315.97
381.65	351.08
381.85	299.59
382.04	292.57
382.24	271.50
382.43	301.93
382.63	313.63
382.83	369.80
383.02	320.65
383.22	358.10
383.41	243.42
383.61	292.57
383.80	386.19
384.00	322.99
384.19	418.96
384.39	353.42
384.58	339.38
384.78	334.70
384.97	337.04
385.17	390.87
385.36	444.70
385.56	433.00
385.75	435.34
385.95	383.85
386.14	393.21
386.34	435.34
386.53	421.30
386.72	374.49
386.92	402.57
387.11	367.46
387.31	418.96
387.50	461.09
387.70	423.64
387.89	454.06
388.09	402.57
388.28	423.64
388.48	444.70
388.67	468.11
388.86	425.98
389.06	411.93
389.25	404.91
389.45	526.62
389.64	395.55
389.84	416.62
390.03	479.81
390.22	425.98
390.42	451.72
390.61	449.38
390.81	463.43
391.00	477.47
391.19	557.05
391.39	521.94
391.58	566.41
391.78	486.83
391.97	566.41
392.16	568.75
392.36	526.62
392.55	540.66
392.75	550.03
392.94	599.18
393.13	568.75
393.33	505.56
393.52	486.83
393.71	627.26
393.91	594.50
394.10	557.05
394.29	559.39
394.49	578.11
394.68	557.05
394.88	585.13
395.07	631.94
395.26	559.39
395.46	608.54
395.65	587.47
395.84	615.56
396.04	660.03
396.23	568.75
396.42	620.24
396.62	671.73
396.81	653.01
397.00	711.52
397.19	627.26
397.39	603.86
397.58	671.73
397.77	692.80
397.97	676.41
398.16	699.82
398.35	685.78
398.55	755.99
398.74	662.37
398.93	795.78
399.12	655.35
399.32	631.94
399.51	730.25
399.70	760.67
399.90	667.05
400.09	692.80
400.28	732.59
400.47	737.27
400.67	800.46
400.86	753.65
401.05	741.95
401.24	844.93
401.44	826.21
401.63	802.80
401.82	791.10
402.01	901.11
402.21	772.38
402.40	858.98
402.59	760.67
402.78	851.96
402.97	851.96
403.17	748.97
403.36	910.47
403.55	833.23
403.74	835.57
403.93	807.48
404.13	917.49
404.32	910.47
404.51	877.70
404.70	896.43
404.89	816.85
405.09	844.93
405.28	929.19
405.47	894.08
405.66	992.39
405.85	891.74
406.05	863.66
406.24	999.41
406.43	1062.60
406.62	992.39
406.81	985.37
407.00	940.90
407.20	1048.56
407.39	994.73
407.58	973.66
407.77	1008.77
407.96	985.37
408.15	1071.97
408.34	985.37
408.54	1046.22
408.73	1086.01
408.92	1090.69
409.11	1050.90
409.30	1146.86
409.49	1186.65
409.68	1093.03
409.87	1004.09
410.07	1205.38
410.26	1107.07
410.45	1076.65
410.64	1123.46
410.83	1186.65
411.02	1261.55
411.21	1238.14
411.40	1231.12
411.59	1249.85
411.78	1287.29
411.98	1277.93
412.17	1268.57
412.36	1324.74
412.55	1224.10
412.74	1366.87
412.93	1299.00
413.12	1341.13
413.31	1507.30
413.50	1446.45
413.69	1404.32
413.88	1320.06
414.07	1401.98
414.26	1404.32
414.45	1434.75
414.64	1376.24
414.83	1497.94
415.02	1561.14
415.22	1500.28
415.41	1549.43
415.60	1516.67
415.79	1537.73
415.98	1591.56
416.17	1479.22
416.36	1554.12
416.55	1706.25
416.74	1533.05
416.93	1631.35
417.12	1694.55
417.31	1607.95
417.50	1755.40
417.69	1664.12
417.88	1708.59
418.07	1699.23
418.26	1804.55
418.45	1739.02
418.64	1858.39
418.83	1856.04
419.02	1825.62
419.21	1860.73
419.39	1842.00
419.58	1755.40
419.77	1771.79
419.96	1830.30
420.15	1839.66
420.34	1928.60
420.53	1795.19
420.72	1825.62
420.91	1865.41
421.10	1834.98
421.29	1877.11
421.48	1921.58
421.67	1980.09
421.86	1867.75
422.05	1895.83
422.24	1994.14
422.43	1959.03
422.61	1963.71
422.80	1991.80
422.99	1926.26
423.18	2031.58
423.37	1989.46
423.56	1937.96
423.75	1930.94
423.94	1975.41
424.13	1877.11
424.32	1905.20
424.50	1994.14
424.69	1996.48
424.88	2022.22
425.07	2071.37
425.26	1975.41
425.45	2038.61
425.64	2017.54
425.83	1982.43
426.01	1963.71
426.20	2038.61
426.39	2108.82
426.58	1984.77
426.77	2066.69
426.96	2069.03
427.15	2043.29
427.33	2197.76
427.52	2040.95
427.71	2181.38
427.90	2099.46
428.09	2181.38
428.28	2207.13
428.46	2207.13
428.65	2251.60
428.84	2275.00
429.03	2260.96
429.22	2183.72
429.40	2136.91
429.59	2289.04
429.78	2153.29
429.97	2026.90
430.16	2228.19
430.34	2326.49
430.53	2338.20
430.72	2319.47
430.91	2258.62
431.10	2359.26
431.28	2356.92
431.47	2249.25
431.66	2352.24
431.85	2352.24
432.03	2417.77
432.22	2408.41
432.41	2289.04
432.60	2509.05
432.79	2403.73
432.97	2483.31
433.16	2469.27
433.35	2385.01
433.54	2502.03
433.72	2569.91
433.91	2457.56
434.10	2551.18
434.28	2399.05
434.47	2553.52
434.66	2597.99
434.85	2684.59
435.03	2640.12
435.22	2628.42
435.41	2605.02
435.59	2665.87
435.78	2775.88
435.97	2518.42
436.16	2775.88
436.34	2654.17
436.53	2740.77
436.72	2700.98
436.90	2696.30
437.09	2700.98
437.28	2679.91
437.46	2712.68
437.65	2839.07
437.84	2801.62
438.02	2738.43
438.21	2743.11
438.40	2693.96
438.58	2813.32
438.77	2895.24
438.96	2717.36
439.14	2909.29
439.33	2925.67
439.52	2885.88
439.70	2935.03
439.89	2904.60
440.08	3019.29
440.26	2916.31
440.45	3052.06
440.63	3014.61
440.82	2993.55
441.01	3026.31
441.19	3136.32
441.38	3150.36
441.57	3239.30
441.75	3185.47
441.94	3218.24
442.12	3365.69
442.31	3361.01
442.50	3288.45
442.68	3164.40
442.87	3335.26
443.05	3391.44
443.24	3311.86
443.43	3412.50
443.61	3241.64
443.80	3414.84
443.98	3276.75
444.17	3232.28
444.35	3372.71
444.54	3478.04
444.73	3356.33
444.91	3337.60
445.10	3456.97
445.28	3311.86
445.47	3337.60
445.65	3295.47
445.84	3513.14
446.02	3496.76
446.21	3428.88
446.39	3382.07
446.58	3435.91
446.77	3461.65
446.95	3391.44
447.14	3442.93
447.32	3433.57
447.51	3438.25
447.69	3398.46
447.88	3489.74
448.06	3379.73
448.25	3358.67
448.43	3602.08
448.62	3487.40
448.80	3517.83
448.99	3590.38
449.17	3538.89
449.36	3555.27
449.54	3602.08
449.73	3641.87
449.91	3620.81
450.10	3777.62
450.28	3606.77
450.46	3667.62
450.65	3674.64
450.83	3761.24
451.02	3749.54
451.20	3756.56
451.39	3819.75
451.57	3819.75
451.76	3716.77
451.94	3609.11
452.13	3854.86
452.31	3829.12
452.49	3852.52
452.68	3838.48
452.86	3934.44
453.05	3932.10
453.23	3915.72
453.42	3817.41
453.60	3812.73
453.78	3803.37
453.97	3871.25
454.15	3932.10
454.34	3983.59
454.52	4002.32
454.70	3882.95
454.89	3871.25
455.07	3925.08
455.26	4086.58
455.44	4138.07
455.62	3894.65
455.81	3990.61
455.99	4098.28
456.17	4067.85
456.36	4173.18
456.54	4102.96
456.73	4100.62
456.91	4313.61
457.09	4315.95
457.28	4276.16
457.46	4243.39
457.64	4332.33
457.83	4353.40
458.01	4278.50
458.19	4360.42
458.38	4329.99
458.56	4479.79
458.74	4306.59
458.93	4327.65
459.11	4475.10
459.29	4315.95
459.48	4421.27
459.66	4390.84
459.84	4393.19
460.03	4423.61
460.21	4526.60
460.39	4475.10
460.57	4360.42
460.76	4561.70
460.94	4465.74
461.12	4674.05
461.31	4482.13
461.49	4542.98
461.67	4519.57
461.85	4727.88
462.04	4620.22
462.22	5064.92
462.40	4594.47
462.59	4650.64
462.77	4753.63
462.95	4657.67
463.13	4760.65
463.32	4746.61
463.50	4788.74
463.68	4854.27
463.86	4915.12
464.05	4751.29
464.23	4755.97
464.41	4739.58
464.59	4718.52
464.78	4903.42
464.96	4809.80
465.14	4685.75
465.32	4809.80
465.50	4849.59
465.69	5118.75
465.87	4947.89
466.05	5020.45
466.23	5027.47
466.41	5043.85
466.60	5233.44
466.78	4973.64
466.96	5078.96
467.14	5041.51
467.32	5060.24
467.51	5280.25
467.69	4999.38
467.87	5200.67
468.05	5200.67
468.23	5198.33
468.41	5102.37
468.60	5074.28
468.78	5322.38
468.96	5214.71
469.14	5418.34
469.32	5287.27
469.50	5130.45
469.69	5121.09
469.87	5425.36
470.05	5320.04
470.23	5420.68
470.41	5369.19
470.59	5411.32
470.77	5385.57
470.95	5343.44
471.14	5397.28
471.32	5476.85
471.50	5481.53
471.68	5589.20
471.86	5430.04
472.04	5542.39
472.22	5689.84
472.40	5500.26
472.58	5724.95
472.77	5706.23
472.95	5715.59
473.13	6071.35
473.31	5724.95
473.49	5900.49
473.67	5865.38
473.85	5966.03
474.03	6047.94
474.21	5923.90
474.39	5987.09
474.57	6120.50
474.75	6122.84
474.93	6040.92
475.12	6129.86
475.30	6010.50
475.48	6204.76
475.66	6190.72
475.84	6310.08
476.02	6356.90
476.20	6436.47
476.38	6427.11
476.56	6527.75
476.74	6544.14
476.92	6389.66
477.10	6738.40
477.28	6619.04
477.46	6569.88
477.64	6700.95
477.82	6738.40
478.00	6885.86
478.18	6839.05
478.36	6902.24
478.54	6972.46
478.72	7063.74
478.90	7206.51
479.08	7220.55
479.26	7265.02
479.44	7358.64
479.62	7152.68
479.80	7307.15
479.98	7218.21
480.16	7332.90
480.34	7356.30
480.52	7599.72
480.70	7590.36
480.88	7463.97
481.06	7681.64
481.24	7606.74
481.41	7712.07
481.59	7866.54
481.77	7957.82
481.95	7925.05
482.13	8056.12
482.31	8051.44
482.49	8224.64
482.67	8285.50
482.85	8287.84
483.03	8336.99
483.21	8557.00
483.39	8283.16
483.57	8542.96
483.74	8479.76
483.92	8601.47
484.10	8557.00
484.28	8830.84
484.46	8938.51
484.64	9109.36
484.82	9008.72
485.00	8999.36
485.18	9210.01
485.35	9401.93
485.53	9240.44
485.71	9277.88
485.89	9542.36
486.07	9406.61
486.25	9488.53
486.43	9509.60
486.61	9645.35
486.78	9781.10
486.96	9848.97
487.14	9947.28
487.32	9949.62
487.50	9734.29
487.68	10279.63
487.85	10300.70
488.03	10403.68
488.21	10438.79
488.39	10459.85
488.57	10342.83
488.75	10726.68
488.92	10792.21
489.10	10846.04
489.28	10923.28
489.46	11105.84
489.64	11019.24
489.81	11304.79
489.99	11037.97
490.17	11213.51
490.35	11566.93
490.53	11524.80
490.70	11658.21
490.88	11693.32
491.06	11695.66
491.24	11466.28
491.41	11705.02
491.59	11964.82
491.77	11878.22
491.95	12051.42
492.13	12035.03
492.30	12161.42
492.48	12126.32
492.66	12262.07
492.84	12341.64
493.01	12325.26
493.19	12620.17
493.37	12395.48
493.54	12573.36
493.72	12823.80
493.90	12702.09
494.08	12889.33
494.25	12786.35
494.43	12865.92
494.61	13273.18
494.79	13268.50
494.96	13233.39
495.14	13050.83
495.32	13174.88
495.49	13336.37
495.67	13469.78
495.85	13762.35
496.02	13558.72
496.20	14033.85
496.38	13752.99
496.55	13872.36
496.73	14061.94
496.91	14005.77
497.09	14228.12
497.26	14195.35
497.44	14284.29
497.62	14335.78
497.79	14427.06
497.97	14420.04
498.14	14787.50
498.32	14958.36
498.50	14733.67
498.67	14761.76
498.85	14909.21
499.03	14846.02
499.20	15213.48
499.38	15358.60
499.56	14813.25
499.73	15332.85
499.91	14970.07
500.08	15150.29
500.26	15138.58
500.44	15309.44
500.61	15328.17
500.79	15470.94
500.97	15688.61
501.14	15960.11
501.32	15908.62
501.49	15903.94
501.67	15894.58
501.84	16056.08
502.02	15967.13
502.20	15873.51
502.37	16011.60
502.55	15864.15
502.72	15892.24
502.90	16437.58
503.07	16107.57
503.25	16477.37
503.43	16077.14
503.60	16453.97
503.78	16535.88
503.95	16294.81
504.13	16505.46
504.30	16760.58
504.48	16690.36
504.65	16788.66
504.83	16739.51
505.01	16802.71
505.18	16915.05
505.36	17104.64
505.53	16987.61
505.71	16854.20
505.88	16872.92
506.06	17027.40
506.23	17137.40
506.41	17034.42
506.58	17362.09
506.76	17259.11
506.93	17275.49
507.11	17142.08
507.28	17458.06
507.46	17413.59
507.63	17624.23
507.81	17556.36
507.98	17549.34
508.16	17745.94
508.33	17493.16
508.50	17675.73
508.68	17923.82
508.85	18153.20
509.03	17839.56
509.20	18181.28
509.38	18244.48
509.55	18253.84
509.73	17905.10
509.90	18277.24
510.08	18394.27
510.25	18288.95
510.42	18319.37
510.60	18808.54
510.77	18176.60
510.95	18429.38
511.12	18642.37
511.30	18611.94
511.47	18845.99
511.64	18778.12
511.82	18785.14
511.99	18726.63
512.17	18897.49
512.34	18806.20
512.51	18979.40
512.69	18953.66
512.86	18941.96
513.04	19124.52
513.21	19145.58
513.38	19332.82
513.56	19557.52
513.73	19288.35
513.90	19222.82
514.08	19403.04
514.25	19360.91
514.43	19456.87
514.60	19749.44
514.77	19903.92
514.95	19861.79
515.12	19587.94
515.29	19592.62
515.47	20077.12
515.64	19924.98
515.81	19983.49
515.99	20032.65
516.16	20184.78
516.33	19957.75
516.51	20112.22
516.68	19812.63
516.85	20365.00
517.03	20376.70
517.20	20538.20
517.37	20570.97
517.54	20568.63
517.72	20601.40
517.89	20271.38
518.06	20540.54
518.24	20592.03
518.41	20498.41
518.58	20638.84
518.75	20915.03
518.93	20821.41
519.10	20781.62
519.27	21064.82
519.45	20636.50
519.62	20645.87
519.79	20835.45
519.96	21020.35
520.14	20800.34
520.31	21010.99
520.48	21348.03
520.65	20863.54
520.83	21343.35
521.00	21542.29
521.17	21163.12
521.34	21191.21
521.52	21462.71
521.69	21525.91
521.86	21729.53
522.03	21748.26
522.20	21678.04
522.38	21624.21
522.55	21909.75
522.72	21420.58
522.89	21867.63
523.07	22307.65
523.24	21493.14
523.41	22394.25
523.58	21802.09
523.75	22171.89
523.92	22136.79
524.10	21926.14
524.27	22015.08
524.44	22625.96
524.61	22312.33
524.78	22574.47
524.96	22242.11
525.13	22553.40
525.30	22618.94
525.47	22127.42
525.64	22434.03
525.81	22546.38
525.98	22883.42
526.16	22712.56
526.33	22932.57
526.50	22906.82
526.67	22487.87
526.84	22651.70
527.01	22647.02
527.18	22670.43
527.36	23278.97
527.53	22750.01
527.70	23316.42
527.87	23332.80
528.04	23056.62
528.21	23136.20
528.38	22904.48
528.55	23241.52
528.72	23131.51
528.89	23150.24
529.07	23433.44
529.24	23285.99
529.41	23428.76
529.58	23168.96
529.75	23798.57
529.92	23433.44
530.09	23332.80
530.26	23592.60
530.43	23534.09
530.60	23454.51
530.77	23477.91
530.94	23721.33
531.11	23756.44
531.28	23658.14
531.46	23393.65
531.63	23723.67
531.80	24070.07
531.97	23857.08
532.14	23943.68
532.31	24049.00
532.48	23754.10
532.65	23789.20
532.82	24114.54
532.99	24051.34
533.16	24027.94
533.33	24159.01
533.50	24388.38
533.67	24123.90
533.84	24067.73
534.01	24086.45
534.18	23744.73
534.35	24470.30
534.52	23974.11
534.69	24397.74
534.86	24517.11
535.03	24723.08
535.20	24425.83
535.37	24379.02
535.54	24559.24
535.71	24505.41
535.88	24624.78
536.05	24631.80
536.22	24732.44
536.38	25064.80
536.55	24842.45
536.72	24877.55
536.89	24833.08
537.06	24559.24
537.23	24685.63
537.40	24950.11
537.57	24575.62
537.74	25266.08
537.91	25109.27
538.08	25177.14
538.25	24828.40
538.42	25034.37
538.59	24989.90
538.75	25001.60
538.92	25130.33
539.09	25235.66
539.26	25373.75
539.43	25357.36
539.60	25589.08
539.77	25563.33
539.94	25811.43
540.11	25490.77
540.28	25242.68
540.44	25422.90
540.61	25776.32
540.78	25532.90
540.95	25656.95
541.12	25359.70
541.29	25532.90
541.46	25781.00
541.62	25692.06
541.79	25905.05
541.96	25525.88
542.13	25781.00
542.30	25654.61
542.47	25968.24
542.63	26611.89
542.80	25944.84
542.97	25881.64
543.14	26551.04
543.31	26359.11
543.48	26324.01
543.64	26314.64
543.81	26228.04
543.98	26312.30
544.15	26522.95
544.32	26455.08
544.48	26649.34
544.65	26216.34
544.82	26270.17
544.99	26242.09
545.16	26476.14
545.32	26010.37
545.49	26548.70
545.66	26761.69
545.83	26628.27
546.00	26436.35
546.16	26651.68
546.33	26338.05
546.50	26368.48
546.67	26745.30
546.83	26298.26
547.00	26398.90
547.17	26731.26
547.34	26600.19
547.50	27112.77
547.67	26888.07
547.84	26876.37
548.00	27080.00
548.17	27122.13
548.34	27000.42
548.51	26852.97
548.67	27138.51
548.84	27037.87
549.01	27007.44
549.18	27197.02
549.34	27154.90
549.51	27023.83
549.68	27175.96
549.84	27229.79
550.01	27131.49
550.18	26728.92
550.34	27164.26
550.51	27449.80
550.68	27524.70
550.84	27063.61
551.01	27646.41
551.18	27194.68
551.34	27175.96
551.51	27276.60
551.68	27702.58
551.84	27445.12
552.01	27599.60
552.18	27690.88
552.34	27721.30
552.51	27529.38
552.68	27697.90
552.84	27424.06
553.01	27887.48
553.18	27002.76
553.34	27782.16
553.51	27718.96
553.67	27899.19
553.84	27800.88
554.01	28044.30
554.17	27901.53
554.34	27702.58
554.51	27850.03
554.67	27749.39
554.84	27669.81
555.00	27571.51
555.17	28166.01
555.33	27660.45
555.50	27679.18
555.67	28252.61
555.83	28151.96
556.00	27854.72
556.16	27995.15
556.33	27828.97
556.50	28259.63
556.66	28327.50
556.83	27913.23
556.99	28070.04
557.16	28414.10
557.32	28641.14
557.49	28290.06
557.65	28123.88
557.82	28383.68
557.98	28194.09
558.15	28409.42
558.32	28158.99
558.48	28755.82
558.65	28437.51
558.81	28313.46
558.98	28521.77
559.14	28535.81
559.31	28081.75
559.47	28301.76
559.64	28137.92
559.80	28526.45
559.97	28575.60
560.13	28264.31
560.30	28350.91
560.46	28659.86
560.63	28294.74
560.79	28524.11
560.96	28467.94
561.12	28339.21
561.29	28610.71
561.45	28671.56
561.61	28652.84
561.78	28655.18
561.94	28699.65
562.11	29081.16
562.27	28629.43
562.44	28360.27
562.60	28643.48
562.77	28629.43
562.93	28542.83
563.10	29298.83
563.26	28673.90
563.42	29041.37
563.59	28608.37
563.75	28961.79
563.92	28922.00
564.08	28849.44
564.24	28720.71
564.41	28914.98
564.57	28687.95
564.74	28730.08
564.90	29095.20
565.07	28814.34
565.23	28910.30
565.39	29317.55
565.56	28931.36
565.72	29090.52
565.88	29219.25
566.05	28830.72
566.21	28966.47
566.38	28856.46
566.54	29137.33
566.70	29537.56
566.87	29085.84
567.03	29198.18
567.19	29425.22
567.36	28891.57
567.52	29158.39
567.68	29057.75
567.85	29071.79
568.01	29708.42
568.17	29146.69
568.34	29188.82
568.50	29099.88
568.66	29193.50
568.83	29474.37
568.99	29202.86
569.15	28987.53
569.32	29149.03
569.48	29104.56
569.64	29460.32
569.81	29109.24
569.97	29284.78
570.13	29385.43
570.30	29062.43
570.46	29551.60
570.62	29280.10
570.78	29184.14
570.95	29106.90
571.11	29287.12
571.27	28914.98
571.43	29163.08
571.60	29399.47
571.76	29462.66
571.92	29544.58
572.09	29668.63
572.25	29212.23
572.41	29366.70
572.57	29521.18
572.74	29401.81
572.90	29422.87
573.06	29331.59
573.22	29521.18
573.38	29345.64
573.55	29628.84
573.71	29530.54
573.87	29399.47
574.03	29415.85
574.20	29675.65
574.36	29645.23
574.52	29397.13
574.68	29556.28
574.84	29703.74
575.01	29434.58
575.17	29570.33
575.33	29586.71
575.49	29228.61
575.65	29638.20
575.82	29507.13
575.98	29366.70
576.14	29500.11
576.30	29586.71
576.46	29308.19
576.62	29483.73
576.79	29661.61
576.95	29467.34
577.11	29759.91
577.27	29560.97
577.43	29659.27
577.59	29699.06
577.75	29584.37
577.92	29298.83
578.08	29553.94
578.24	29237.97
578.40	29343.30
578.56	29514.16
578.72	29612.46
578.88	29572.67
579.04	29764.59
579.21	29544.58
579.37	29312.87
579.53	29682.67
579.69	29479.05
579.85	29600.76
580.01	29996.31
580.17	29624.16
580.33	29343.30
580.49	29689.70
580.65	30134.40
580.82	29752.89
580.98	29951.84
581.14	29895.66
581.30	29778.64
581.46	29631.18
581.62	29799.70
581.78	29233.29
581.94	29785.66
582.10	29432.24
582.26	29752.89
582.42	29811.40
582.58	29757.57
582.74	29783.32
582.90	29181.80
583.06	29427.56
583.22	29352.66
583.38	29694.38
583.54	29965.88
583.70	29584.37
583.86	29869.92
584.02	29680.33
584.18	29336.27
584.34	29935.45
584.50	29923.75
584.66	29476.71
584.82	29635.86
584.98	29685.01
585.14	29408.83
585.30	29944.81
585.46	29895.66
585.62	29724.80
585.78	30106.31
585.94	30115.67
586.10	29825.45
586.26	30036.09
586.42	29977.58
586.58	29993.97
586.74	29731.83
586.90	29743.53
587.06	29502.45
587.22	29816.08
587.38	29759.91
587.54	29525.86
587.70	30188.23
587.86	29907.37
588.02	29713.10
588.18	29919.07
588.34	29701.40
588.49	29689.70
588.65	30223.34
588.81	29771.61
588.97	29771.61
589.13	30181.21
589.29	29879.28
589.45	29954.18
589.61	29975.24
589.77	30000.99
589.93	30125.04
590.08	29940.13
590.24	30405.90
590.40	30457.39
590.56	30436.33
590.72	30235.04
590.88	29977.58
591.04	30033.75
591.20	30118.01
591.35	30230.36
591.51	30548.67
591.67	30265.47
591.83	30480.80
591.99	30335.68
592.15	30169.51
