SpectraSuite Data File
++++++++++++++++++++++++++++++++++++
Date: Fri Oct 18 13:57:58 GMT-05:00 2013
User: bianchi
Dark Spectrum Present: No
Reference Spectrum Present: No
Number of Sampled Component Spectra: 1
Spectrometers: USB2+H05261
Integration Time (usec): 50000 (USB2+H05261)
Spectra Averaged: 1 (USB2+H05261)
Boxcar Smoothing: 0 (USB2+H05261)
Correct for Electrical Dark: No (USB2+H05261)
Strobe/Lamp Enabled: No (USB2+H05261)
Correct for Detector Non-linearity: No (USB2+H05261)
Correct for Stray Light: No (USB2+H05261)
Number of Pixels in Processed Spectrum: 2048
>>>>>Begin Processed Spectral Data<<<<<
365.73	0.00
365.92	0.00
366.12	0.00
366.32	0.00
366.52	0.00
366.72	0.00
366.91	0.00
367.11	0.00
367.31	0.00
367.51	0.00
367.70	0.00
367.90	0.00
368.10	0.00
368.30	0.00
368.49	0.00
368.69	0.00
368.89	0.00
369.09	0.00
369.28	0.00
369.48	0.00
369.68	0.00
369.87	0.00
370.07	0.00
370.27	0.00
370.47	23.41
370.66	58.51
370.86	105.32
371.06	114.69
371.25	154.48
371.45	114.69
371.65	135.75
371.84	187.24
372.04	187.24
372.24	166.18
372.44	79.58
372.63	217.67
372.83	264.48
373.03	182.56
373.22	154.48
373.42	175.54
373.62	252.78
373.81	290.23
374.01	224.69
374.21	250.44
374.40	234.05
374.60	320.65
374.79	236.39
374.99	177.88
375.19	241.08
375.38	294.91
375.58	241.08
375.78	311.29
375.97	182.56
376.17	322.99
376.37	248.10
376.56	322.99
376.76	212.99
376.95	269.16
377.15	301.93
377.35	283.20
377.54	283.20
377.74	215.33
377.93	222.35
378.13	283.20
378.33	266.82
378.52	243.42
378.72	325.33
378.91	280.86
379.11	292.57
379.31	255.12
379.50	264.48
379.70	325.33
379.89	299.59
380.09	318.31
380.28	355.76
380.48	259.80
380.68	325.33
380.87	330.02
381.07	294.91
381.26	322.99
381.46	292.57
381.65	374.49
381.85	266.82
382.04	355.76
382.24	348.74
382.43	362.78
382.63	379.17
382.83	348.74
383.02	374.49
383.22	409.59
383.41	369.80
383.61	330.02
383.80	409.59
384.00	327.68
384.19	351.08
384.39	425.98
384.58	395.55
384.78	379.17
384.97	393.21
385.17	259.80
385.36	435.34
385.56	458.74
385.75	325.33
385.95	433.00
386.14	414.27
386.34	379.17
386.53	339.38
386.72	341.72
386.92	454.06
387.11	425.98
387.31	414.27
387.50	379.17
387.70	433.00
387.89	414.27
388.09	447.04
388.28	451.72
388.48	409.59
388.67	428.32
388.86	514.92
389.06	437.68
389.25	447.04
389.45	479.81
389.64	451.72
389.84	498.53
390.03	451.72
390.22	447.04
390.42	477.47
390.61	468.11
390.81	456.40
391.00	484.49
391.19	566.41
391.39	580.45
391.58	472.79
391.78	489.17
391.97	543.00
392.16	505.56
392.36	514.92
392.55	617.90
392.75	575.77
392.94	514.92
393.13	596.84
393.33	533.64
393.52	503.22
393.71	606.20
393.91	578.11
394.10	566.41
394.29	636.63
394.49	545.34
394.68	594.50
394.88	624.92
395.07	667.05
395.26	615.56
395.46	589.82
395.65	655.35
395.84	596.84
396.04	702.16
396.23	716.20
396.42	620.24
396.62	596.84
396.81	690.46
397.00	638.97
397.19	727.91
397.39	709.18
397.58	697.48
397.77	685.78
397.97	653.01
398.16	704.50
398.35	648.33
398.55	758.33
398.74	795.78
398.93	814.51
399.12	615.56
399.32	720.88
399.51	711.52
399.70	669.39
399.90	718.54
400.09	734.93
400.28	784.08
400.47	805.14
400.67	770.04
400.86	716.20
401.05	870.68
401.24	795.78
401.44	854.30
401.63	770.04
401.82	809.83
402.01	851.96
402.21	751.31
402.40	823.87
402.59	798.12
402.78	873.02
402.97	823.87
403.17	840.25
403.36	875.36
403.55	929.19
403.74	959.62
403.93	891.74
404.13	866.00
404.32	908.13
404.51	856.64
404.70	985.37
404.89	968.98
405.09	952.60
405.28	985.37
405.47	1043.88
405.66	1071.97
405.85	1032.18
406.05	973.66
406.24	919.83
406.43	983.02
406.62	1055.58
406.81	1034.52
407.00	985.37
407.20	1001.75
407.39	1041.54
407.58	1081.33
407.77	1128.14
407.96	1100.05
408.15	1036.86
408.34	1123.46
408.54	1081.33
408.73	1118.78
408.92	1156.22
409.11	1062.60
409.30	1144.52
409.49	1217.08
409.68	1191.33
409.87	1256.87
410.07	1109.41
410.26	1188.99
410.45	1177.29
410.64	1284.95
410.83	1174.95
411.02	1210.06
411.21	1341.13
411.40	1277.93
411.59	1299.00
411.78	1310.70
411.98	1350.49
412.17	1306.02
412.36	1299.00
412.55	1345.81
412.74	1399.64
412.93	1341.13
413.12	1287.29
413.31	1483.90
413.50	1380.92
413.69	1448.79
413.88	1533.05
414.07	1387.94
414.26	1423.05
414.45	1586.88
414.64	1516.67
414.83	1495.60
415.02	1458.15
415.22	1507.30
415.41	1610.29
415.60	1565.82
415.79	1668.80
415.98	1699.23
416.17	1570.50
416.36	1689.87
416.55	1699.23
416.74	1687.53
416.93	1727.32
417.12	1664.12
417.31	1654.76
417.50	1710.93
417.69	1781.15
417.88	1710.93
418.07	1706.25
418.26	1762.42
418.45	1750.72
418.64	1823.28
418.83	1736.68
419.02	1823.28
419.21	1858.39
419.39	1832.64
419.58	1825.62
419.77	1891.15
419.96	1820.94
420.15	1893.49
420.34	1907.54
420.53	1874.77
420.72	2057.33
420.91	1987.11
421.10	2003.50
421.29	2122.87
421.48	1963.71
421.67	1956.69
421.86	1900.52
422.05	1987.11
422.24	2031.58
422.43	2015.20
422.61	2012.86
422.80	2092.44
422.99	1933.28
423.18	2120.53
423.37	1982.43
423.56	2094.78
423.75	1959.03
423.94	2033.93
424.13	1954.35
424.32	1926.26
424.50	2073.71
424.69	2139.25
424.88	2125.21
425.07	2104.14
425.26	2059.67
425.45	2087.76
425.64	2076.06
425.83	2113.50
426.01	2062.01
426.20	2087.76
426.39	2045.63
426.58	2113.50
426.77	2244.57
426.96	2150.95
427.15	2054.99
427.33	2132.23
427.52	2146.27
427.71	2062.01
427.90	2209.47
428.09	2195.42
428.28	2216.49
428.46	2258.62
428.65	2382.67
428.84	2249.25
429.03	2387.35
429.22	2291.38
429.40	2214.15
429.59	2338.20
429.78	2125.21
429.97	2333.51
430.16	2237.55
430.34	2251.60
430.53	2314.79
430.72	2331.17
430.91	2499.69
431.10	2335.85
431.28	2392.03
431.47	2436.50
431.66	2497.35
431.85	2394.37
432.03	2413.09
432.22	2499.69
432.41	2387.35
432.60	2377.98
432.79	2436.50
432.97	2499.69
433.16	2473.95
433.35	2567.57
433.54	2616.72
433.72	2654.17
433.91	2579.27
434.10	2633.10
434.28	2499.69
434.47	2567.57
434.66	2668.21
434.85	2740.77
435.03	2705.66
435.22	2593.31
435.41	2747.79
435.59	2658.85
435.78	2766.51
435.97	2696.30
436.16	2803.96
436.34	2597.99
436.53	2719.70
436.72	2729.06
436.90	2562.89
437.09	2740.77
437.28	2649.49
437.46	2754.81
437.65	2794.60
437.84	2803.96
438.02	2820.35
438.21	2850.77
438.40	2860.13
438.58	2963.12
438.77	2944.39
438.96	2897.58
439.14	2958.44
439.33	3056.74
439.52	3080.14
439.70	2991.20
439.89	3192.49
440.08	3082.49
440.26	3122.27
440.45	3159.72
440.63	3105.89
440.82	3276.75
441.01	3129.30
441.19	3145.68
441.38	3251.00
441.57	3260.37
441.75	3218.24
441.94	3241.64
442.12	3405.48
442.31	3389.10
442.50	3213.56
442.68	3398.46
442.87	3351.65
443.05	3548.25
443.24	3494.42
443.43	3459.31
443.61	3384.41
443.80	3478.04
443.98	3468.67
444.17	3295.47
444.35	3419.52
444.54	3653.58
444.73	3548.25
444.91	3440.59
445.10	3602.08
445.28	3527.19
445.47	3541.23
445.65	3325.90
445.84	3550.59
446.02	3536.55
446.21	3485.06
446.39	3478.04
446.58	3515.48
446.77	3515.48
446.95	3501.44
447.14	3604.42
447.32	3569.32
447.51	3590.38
447.69	3644.21
447.88	3688.68
448.06	3653.58
448.25	3611.45
448.43	3630.17
448.62	3620.81
448.80	3660.60
448.99	3728.47
449.17	3749.54
449.36	3765.92
449.54	3737.84
449.73	3747.20
449.91	3721.45
450.10	3857.20
450.28	3887.63
450.46	3801.03
450.65	3691.02
450.83	3896.99
451.02	3810.39
451.20	3803.37
451.39	3850.18
451.57	3873.59
451.76	3803.37
451.94	3878.27
452.13	3936.78
452.31	3985.93
452.49	3805.71
452.68	3878.27
452.86	3927.42
453.05	3971.89
453.23	3822.09
453.42	4016.36
453.60	3995.29
453.78	4095.94
453.97	4004.66
454.15	3925.08
454.34	4018.70
454.52	4100.62
454.70	4163.81
454.89	4173.18
455.07	4180.20
455.26	4074.87
455.44	4126.36
455.62	4222.33
455.81	4170.83
455.99	4278.50
456.17	4070.19
456.36	4273.82
456.54	4236.37
456.73	4353.40
456.91	4367.44
457.09	4423.61
457.28	4430.63
457.46	4322.97
457.64	4503.19
457.83	4341.69
458.01	4404.89
458.19	4559.36
458.38	4489.15
458.56	4542.98
458.74	4610.86
458.93	4697.46
459.11	4432.97
459.29	4533.62
459.48	4596.81
459.66	4535.96
459.84	4643.62
460.03	4718.52
460.21	4498.51
460.39	4667.03
460.57	4596.81
460.76	4685.75
460.94	4662.35
461.12	4561.70
461.31	4854.27
461.49	4660.01
461.67	4645.96
461.85	4692.77
462.04	4819.16
462.22	5029.81
462.40	4861.29
462.59	4957.25
462.77	4765.33
462.95	4957.25
463.13	4795.76
463.32	4882.36
463.50	4952.57
463.68	4997.04
463.86	4861.29
464.05	4842.57
464.23	4781.71
464.41	5015.77
464.59	4931.51
464.78	5039.17
464.96	4985.34
465.14	4978.32
465.32	5029.81
465.50	5085.98
465.69	5242.80
465.87	5125.77
466.05	5165.56
466.23	5071.94
466.41	5198.33
466.60	5364.51
466.78	5060.24
466.96	5018.11
467.14	5083.64
467.32	5109.39
467.51	5289.61
467.69	5149.18
467.87	5287.27
468.05	5350.46
468.23	5186.63
468.41	5303.65
468.60	5441.75
468.78	5411.32
468.96	5313.02
469.14	5411.32
469.32	5617.29
469.50	5261.52
469.69	5521.32
469.87	5565.79
470.05	5488.56
470.23	5441.75
470.41	5565.79
470.59	5607.92
470.77	5530.69
470.95	5483.88
471.14	5788.14
471.32	5666.44
471.50	5830.27
471.68	5820.91
471.86	5708.57
472.04	5682.82
472.22	5923.90
472.40	5720.27
472.58	5839.64
472.77	5942.62
472.95	6106.46
473.13	6139.23
473.31	5975.39
473.49	5966.03
473.67	5963.68
473.85	6022.20
474.03	6296.04
474.21	6001.13
474.39	6113.48
474.57	6246.89
474.75	6382.64
474.93	6202.42
475.12	6232.85
475.30	6193.06
475.48	6260.93
475.66	6403.71
475.84	6459.88
476.02	6399.02
476.20	6436.47
476.38	6558.18
476.56	6719.68
476.74	6682.23
476.92	6682.23
477.10	6656.48
477.28	6686.91
477.46	6780.53
477.64	7009.90
477.82	6899.90
478.00	7232.26
478.18	6888.20
478.36	7112.89
478.54	7115.23
478.72	7293.11
478.90	7349.28
479.08	7428.86
479.26	7463.97
479.44	7447.58
479.62	7522.48
479.80	7721.43
479.98	7599.72
480.16	7784.62
480.34	7770.58
480.52	7903.99
480.70	7815.05
480.88	7730.79
481.06	7751.85
481.24	7730.79
481.41	8152.09
481.59	8133.36
481.77	8189.53
481.95	8236.35
482.13	8098.25
482.31	8259.75
482.49	8542.96
482.67	8407.20
482.85	8664.66
483.03	8657.64
483.21	8564.02
483.39	8854.25
483.57	8858.93
483.74	8865.95
483.92	8933.82
484.10	8919.78
484.28	9013.40
484.46	9034.47
484.64	9334.06
484.82	9266.18
485.00	9561.09
485.18	9376.19
485.35	9624.28
485.53	9565.77
485.71	9556.41
485.89	9895.78
486.07	9919.19
486.25	9701.52
486.43	9729.61
486.61	10071.33
486.78	10087.71
486.96	10197.71
487.14	10256.23
487.32	10129.84
487.50	10410.70
487.68	10464.54
487.85	10670.50
488.03	10848.38
488.21	10855.40
488.39	10960.73
488.57	10757.10
488.75	10949.03
488.92	11194.78
489.10	11162.01
489.28	11073.07
489.46	11342.24
489.64	11236.91
489.81	11396.07
489.99	11506.07
490.17	11669.91
490.35	11791.62
490.53	11810.34
490.70	11910.99
490.88	11854.81
491.06	12159.08
491.24	11988.22
491.41	12255.04
491.59	12109.93
491.77	12322.92
491.95	12411.86
492.13	12484.42
492.30	12706.77
492.48	12697.41
492.66	12807.41
492.84	12428.24
493.01	12730.17
493.19	12865.92
493.37	13041.46
493.54	13057.85
493.72	13121.04
493.90	13245.09
494.08	13329.35
494.25	13488.51
494.43	13547.02
494.61	13530.64
494.79	13570.43
494.96	13671.07
495.14	13748.31
495.32	13973.00
495.49	13961.30
495.67	14148.54
495.85	13961.30
496.02	14225.78
496.20	14040.87
496.38	14174.28
496.55	14527.71
496.73	14403.66
496.91	14752.40
497.09	14789.85
497.26	14600.26
497.44	14815.59
497.62	14675.16
497.79	14939.64
497.97	14862.40
498.14	15176.03
498.32	15096.46
498.50	15311.78
498.67	15073.05
498.85	15129.22
499.03	15475.62
499.20	15421.79
499.38	15517.75
499.56	15461.58
499.73	15613.71
499.91	15873.51
500.08	15866.49
500.26	15501.37
500.44	15754.15
500.61	15697.97
500.79	16154.38
500.97	16020.97
501.14	16215.23
501.32	16191.83
501.49	16311.19
501.67	16088.84
501.84	16238.64
502.02	16105.23
502.20	16236.30
502.37	16533.54
502.55	16662.27
502.72	16496.10
502.90	16512.48
503.07	16533.54
503.25	16484.39
503.43	16629.51
503.60	16844.84
503.78	16734.83
503.95	17020.38
504.13	16924.41
504.30	17046.12
504.48	16812.07
504.65	17441.67
504.83	17345.71
505.01	17614.87
505.18	17605.51
505.36	17547.00
505.53	17561.04
505.71	17539.97
505.88	17575.08
506.06	17436.99
506.23	17848.93
506.41	17834.88
506.58	17783.39
506.76	17713.17
506.93	17692.11
507.11	17717.86
507.28	17958.93
507.46	18106.38
507.63	18031.49
507.81	18300.65
507.98	18001.06
508.16	18108.72
508.33	18235.11
508.50	18345.12
508.68	18473.85
508.85	18726.63
509.03	18513.64
509.20	18747.69
509.38	18789.82
509.55	18850.67
509.73	18726.63
509.90	18862.38
510.08	19112.81
510.25	18902.17
510.42	18939.62
510.60	19288.35
510.77	19236.86
510.95	18965.36
511.12	19241.54
511.30	19325.80
511.47	19447.51
511.64	19403.04
511.82	19747.10
511.99	19470.92
512.17	19566.88
512.34	19711.99
512.51	19831.36
512.69	20049.03
512.86	19655.82
513.04	19957.75
513.21	20147.33
513.38	19875.83
513.56	20046.69
513.73	19784.55
513.90	19946.05
514.08	19903.92
514.25	20189.46
514.43	20432.88
514.60	20372.02
514.77	20407.13
514.95	20184.78
515.12	20343.94
515.29	20421.17
515.47	20617.78
515.64	21081.21
515.81	20566.29
515.99	20645.87
516.16	20849.49
516.33	20528.84
516.51	21050.78
516.68	20367.34
516.85	21053.12
517.03	21109.29
517.20	21160.78
517.37	21039.08
517.54	20943.11
517.72	21511.86
517.89	21146.74
518.06	21003.97
518.24	21390.16
518.41	21261.43
518.58	21221.64
518.75	21191.21
518.93	21579.74
519.10	21575.06
519.27	21345.69
519.45	21238.02
519.62	21687.40
519.79	21640.59
519.96	21778.68
520.14	21642.93
520.31	21607.83
520.48	21628.89
520.65	21654.64
520.83	21977.63
521.00	21837.20
521.17	22043.17
521.34	22075.93
521.52	22127.42
521.69	22199.98
521.86	22157.85
522.03	22106.36
522.20	22190.62
522.38	22520.63
522.55	22211.68
522.72	22146.15
522.89	22405.95
523.07	22712.56
523.24	22604.89
523.41	22780.43
523.58	22394.25
523.75	22831.93
523.92	22618.94
524.10	22738.30
524.27	22792.14
524.44	22963.00
524.61	23342.16
524.78	23143.22
524.96	23550.47
525.13	23021.51
525.30	23056.62
525.47	23023.85
525.64	23007.47
525.81	23147.90
525.98	23477.91
526.16	23363.23
526.33	23232.16
526.50	23267.27
526.67	23133.86
526.84	23346.84
527.01	23349.18
527.18	23587.92
527.36	23679.20
527.53	23805.59
527.70	23742.39
527.87	23730.69
528.04	23812.61
528.21	23889.85
528.38	23843.04
528.55	23981.13
528.72	23964.75
528.89	23971.77
529.07	23917.93
529.24	24088.79
529.41	24290.08
529.58	24276.04
529.75	23875.80
529.92	23845.38
530.09	24194.12
530.26	24023.26
530.43	24247.95
530.60	24320.51
530.77	24376.68
530.94	24648.18
531.11	24189.44
531.28	24126.24
531.46	24472.64
531.63	24603.71
531.80	24741.80
531.97	24709.04
532.14	24411.79
532.31	24821.38
532.48	24496.05
532.65	24795.64
532.82	24769.89
532.99	24884.58
533.16	24907.98
533.33	24933.73
533.50	25254.38
533.67	25256.72
533.84	24751.17
534.01	25046.07
534.18	24837.76
534.35	25453.33
534.52	25156.08
534.69	25350.34
534.86	25610.14
535.03	25383.11
535.20	25294.17
535.37	25303.53
535.54	25240.34
535.71	24788.61
535.88	25729.51
536.05	25221.61
536.22	25645.25
536.38	25509.50
536.55	25504.82
536.72	25682.70
536.89	25738.87
537.06	25642.91
537.23	25586.74
537.40	25432.26
537.57	25771.64
537.74	25869.94
537.91	26169.53
538.08	25982.29
538.25	25827.81
538.42	25855.90
538.59	25823.13
538.75	25773.98
538.92	25905.05
539.09	25909.73
539.26	26045.48
539.43	25968.24
539.60	25898.03
539.77	26300.60
539.94	26111.02
540.11	26183.57
540.28	26487.84
540.44	25923.77
540.61	26377.84
540.78	26127.40
540.95	26558.06
541.12	26094.63
541.29	26508.91
541.46	26164.85
541.62	26019.74
541.79	26298.26
541.96	26080.59
542.13	26387.20
542.30	27028.51
542.47	26995.74
542.63	26597.85
542.80	27030.85
542.97	27056.59
543.14	27152.55
543.31	27054.25
543.48	27042.55
543.64	27374.91
543.81	27096.38
543.98	27513.00
544.15	27337.46
544.32	27283.62
544.48	27494.27
544.65	27302.35
544.82	27103.40
544.99	26962.97
545.16	27449.80
545.32	27171.28
545.49	27211.07
545.66	27730.67
545.83	27447.46
546.00	27468.53
546.16	27255.54
546.33	27672.15
546.50	27365.54
546.67	27962.38
546.83	27295.33
547.00	27278.94
547.17	27513.00
547.34	27735.35
547.50	27924.93
547.67	27838.33
547.84	27686.20
548.00	27758.75
548.17	27711.94
548.34	27967.06
548.51	27768.12
548.67	28102.81
548.84	28219.84
549.01	28079.41
549.18	28079.41
549.34	28095.79
549.51	27978.76
549.68	27587.89
549.84	27915.57
550.01	28121.54
550.18	28025.57
550.34	28102.81
550.51	28217.50
550.68	28425.81
550.84	27779.82
551.01	28320.48
551.18	28065.36
551.34	28063.02
551.51	27882.80
551.68	28428.15
551.84	28280.69
552.01	28320.48
552.18	28439.85
552.34	28268.99
552.51	28411.76
552.68	28451.55
552.84	28807.31
553.01	28788.59
553.18	28329.84
553.34	28793.27
553.51	28999.24
553.67	28914.98
553.84	29055.41
554.01	28608.37
554.17	29017.96
554.34	28835.40
554.51	28617.73
554.67	28837.74
554.84	28732.42
555.00	28624.75
555.17	28814.34
555.33	29340.96
555.50	28931.36
555.67	29127.97
555.83	28826.04
556.00	28765.18
556.16	28716.03
556.33	29064.77
556.50	29254.36
556.66	29453.30
556.83	28936.04
556.99	29364.36
557.16	29156.05
557.32	29305.85
557.49	29371.38
557.65	29132.65
557.82	28985.19
557.98	29244.99
558.15	28914.98
558.32	29153.71
558.48	29186.48
558.65	29134.99
558.81	29219.25
558.98	29575.01
559.14	29612.46
559.31	29399.47
559.47	29350.32
559.64	29039.03
559.80	29579.69
559.97	29612.46
560.13	29259.04
560.30	29219.25
560.46	29610.12
560.63	29703.74
560.79	29434.58
560.96	29619.48
561.12	29553.94
561.29	29413.51
561.45	29397.13
561.61	29729.48
561.78	29776.30
561.94	29694.38
562.11	29734.17
562.27	29872.26
562.44	29977.58
562.60	29556.28
562.77	29661.61
562.93	29731.83
563.10	29951.84
563.26	29759.91
563.42	29979.92
563.59	29680.33
563.75	30045.46
563.92	30110.99
564.08	29376.06
564.24	29818.42
564.41	29862.90
564.57	30050.14
564.74	30211.64
564.90	29816.08
565.07	30417.60
565.23	29998.65
565.39	30270.15
565.56	29907.37
565.72	30019.71
565.88	30045.46
566.05	29916.73
566.21	30061.84
566.38	30422.28
566.54	29898.00
566.70	30328.66
566.87	30534.63
567.03	30518.25
567.19	30312.28
567.36	29972.90
567.52	29890.98
567.68	30536.97
567.85	30221.00
568.01	30209.29
568.17	29642.88
568.34	30321.64
568.50	30331.00
568.66	30249.08
568.83	30019.71
568.99	29993.97
569.15	30239.72
569.32	30316.96
569.48	29773.95
569.64	30174.19
569.81	30265.47
569.97	30345.05
570.13	30527.61
570.30	30513.56
570.46	30178.87
570.62	30256.11
570.78	30838.90
570.95	29998.65
571.11	30040.78
571.27	30204.61
571.43	30426.96
571.60	30396.54
571.76	30333.34
571.92	30260.79
572.09	30436.33
572.25	30843.58
572.41	30642.29
572.57	30370.79
572.74	30859.96
572.90	30363.77
573.06	30246.74
573.22	30679.74
573.38	30328.66
573.55	30160.14
573.71	30948.90
573.87	30721.87
574.03	30249.08
574.20	30441.01
574.36	30600.16
574.52	30349.73
574.68	30520.59
574.84	30691.44
575.01	30412.92
575.17	30672.72
575.33	30368.45
575.49	30541.65
575.65	30780.39
575.82	30780.39
575.98	30749.96
576.14	30883.37
576.30	30764.00
576.46	30532.29
576.62	30377.81
576.79	30511.22
576.95	30174.19
577.11	30677.40
577.27	30899.75
577.43	31370.20
577.59	30642.29
577.75	30635.27
577.92	30497.18
578.08	30436.33
578.24	30794.43
578.40	30719.53
578.56	30579.10
578.72	30789.75
578.88	30721.87
579.04	30939.54
579.21	30504.20
579.37	30998.06
579.53	30700.81
579.69	30871.67
579.85	30506.54
580.01	30799.11
580.17	30616.55
580.33	30686.76
580.49	30642.29
580.65	30703.15
580.82	30967.63
580.98	30698.47
581.14	30998.06
581.30	31126.78
581.46	30639.95
581.62	30703.15
581.78	30604.84
581.94	30848.26
582.10	30342.70
582.26	30904.43
582.42	30478.46
582.58	30815.49
582.74	30890.39
582.90	30635.27
583.06	30864.64
583.22	30499.52
583.38	30852.94
583.54	30534.63
583.70	30745.28
583.86	30707.83
584.02	30838.90
584.18	30871.67
584.34	30749.96
584.50	31070.61
584.66	30588.46
584.82	30665.70
584.98	30621.23
585.14	30855.28
585.30	30810.81
585.46	31012.10
585.62	30415.26
585.78	30756.98
585.94	30710.17
586.10	30881.03
586.26	31044.87
586.42	30976.99
586.58	30988.69
586.74	30733.57
586.90	30778.04
587.06	30731.23
587.22	30684.42
587.38	30707.83
587.54	30941.88
587.70	30775.70
587.86	30946.56
588.02	30937.20
588.18	31409.99
588.34	31129.12
588.49	31150.19
588.65	30789.75
588.81	30845.92
588.97	31028.48
589.13	30904.43
589.29	31054.23
589.45	31262.54
589.61	31262.54
589.77	31431.05
589.93	31089.34
590.08	31117.42
590.24	31225.09
590.40	31133.81
590.56	31189.98
590.72	30670.38
590.88	30803.79
591.04	31171.25
591.20	31515.31
591.35	31288.28
591.51	31608.93
591.67	31370.20
591.83	31285.94
