SpectraSuite Data File
++++++++++++++++++++++++++++++++++++
Date: Fri Oct 18 13:58:13 GMT-05:00 2013
User: bianchi
Dark Spectrum Present: No
Reference Spectrum Present: No
Number of Sampled Component Spectra: 1
Spectrometers: USB2+H05261
Integration Time (usec): 50000 (USB2+H05261)
Spectra Averaged: 1 (USB2+H05261)
Boxcar Smoothing: 0 (USB2+H05261)
Correct for Electrical Dark: No (USB2+H05261)
Strobe/Lamp Enabled: No (USB2+H05261)
Correct for Detector Non-linearity: No (USB2+H05261)
Correct for Stray Light: No (USB2+H05261)
Number of Pixels in Processed Spectrum: 2048
>>>>>Begin Processed Spectral Data<<<<<
365.73	32.77
365.92	32.77
366.12	32.77
366.32	0.00
366.52	0.00
366.72	0.00
366.91	0.00
367.11	0.00
367.31	0.00
367.51	0.00
367.70	0.00
367.90	0.00
368.10	0.00
368.30	0.00
368.49	0.00
368.69	0.00
368.89	0.00
369.09	0.00
369.28	0.00
369.48	0.00
369.68	0.00
369.87	0.00
370.07	0.00
370.27	0.00
370.47	0.00
370.66	51.49
370.86	168.52
371.06	98.30
371.25	117.03
371.45	203.63
371.65	163.84
371.84	163.84
372.04	156.82
372.24	102.98
372.44	152.13
372.63	163.84
372.83	191.92
373.03	187.24
373.22	182.56
373.42	189.58
373.62	276.18
373.81	283.20
374.01	255.12
374.21	257.46
374.40	217.67
374.60	320.65
374.79	170.86
374.99	231.71
375.19	201.29
375.38	238.73
375.58	229.37
375.78	252.78
375.97	273.84
376.17	304.27
376.37	259.80
376.56	269.16
376.76	369.80
376.95	311.29
377.15	292.57
377.35	308.95
377.54	280.86
377.74	255.12
377.93	271.50
378.13	285.55
378.33	264.48
378.52	322.99
378.72	341.72
378.91	248.10
379.11	280.86
379.31	313.63
379.50	313.63
379.70	388.53
379.89	299.59
380.09	372.15
380.28	367.46
380.48	280.86
380.68	332.36
380.87	308.95
381.07	362.78
381.26	269.16
381.46	299.59
381.65	290.23
381.85	341.72
382.04	348.74
382.24	306.61
382.43	320.65
382.63	311.29
382.83	294.91
383.02	369.80
383.22	400.23
383.41	362.78
383.61	353.42
383.80	430.66
384.00	496.19
384.19	348.74
384.39	395.55
384.58	411.93
384.78	447.04
384.97	444.70
385.17	266.82
385.36	360.44
385.56	393.21
385.75	353.42
385.95	491.51
386.14	454.06
386.34	442.36
386.53	444.70
386.72	390.87
386.92	442.36
387.11	437.68
387.31	397.89
387.50	440.02
387.70	458.74
387.89	468.11
388.09	379.17
388.28	503.22
388.48	484.49
388.67	456.40
388.86	493.85
389.06	442.36
389.25	440.02
389.45	482.15
389.64	421.30
389.84	461.09
390.03	503.22
390.22	451.72
390.42	489.17
390.61	475.13
390.81	543.00
391.00	465.77
391.19	568.75
391.39	400.23
391.58	512.58
391.78	447.04
391.97	566.41
392.16	512.58
392.36	622.58
392.55	599.18
392.75	561.73
392.94	554.71
393.13	596.84
393.33	533.64
393.52	580.45
393.71	559.39
393.91	585.13
394.10	543.00
394.29	601.52
394.49	620.24
394.68	620.24
394.88	664.71
395.07	622.58
395.26	669.39
395.46	730.25
395.65	634.29
395.84	629.60
396.04	627.26
396.23	585.13
396.42	702.16
396.62	601.52
396.81	683.44
397.00	622.58
397.19	751.31
397.39	711.52
397.58	774.72
397.77	702.16
397.97	788.76
398.16	751.31
398.35	683.44
398.55	786.42
398.74	795.78
398.93	674.07
399.12	744.29
399.32	685.78
399.51	802.80
399.70	856.64
399.90	744.29
400.09	784.08
400.28	746.63
400.47	823.87
400.67	847.27
400.86	901.11
401.05	833.23
401.24	793.44
401.44	786.42
401.63	887.06
401.82	866.00
402.01	922.17
402.21	873.02
402.40	858.98
402.59	905.79
402.78	830.89
402.97	805.14
403.17	816.85
403.36	812.17
403.55	851.96
403.74	940.90
403.93	985.37
404.13	952.60
404.32	866.00
404.51	964.30
404.70	1008.77
404.89	926.85
405.09	936.21
405.28	952.60
405.47	1081.33
405.66	1006.43
405.85	1146.86
406.05	980.68
406.24	1097.71
406.43	997.07
406.62	1001.75
406.81	1123.46
407.00	1013.45
407.20	980.68
407.39	976.00
407.58	1074.31
407.77	1156.22
407.96	1093.03
408.15	1137.50
408.34	1029.84
408.54	1160.91
408.73	1062.60
408.92	1071.97
409.11	1144.52
409.30	1123.46
409.49	1198.35
409.68	1125.80
409.87	1184.31
410.07	1224.10
410.26	1221.76
410.45	1205.38
410.64	1317.72
410.83	1306.02
411.02	1273.25
411.21	1228.78
411.40	1203.04
411.59	1313.04
411.78	1303.68
411.98	1341.13
412.17	1306.02
412.36	1317.72
412.55	1329.42
412.74	1348.15
412.93	1448.79
413.12	1399.64
413.31	1437.09
413.50	1420.71
413.69	1404.32
413.88	1462.83
414.07	1441.77
414.26	1462.83
414.45	1458.15
414.64	1437.09
414.83	1549.43
415.02	1467.52
415.22	1551.78
415.41	1549.43
415.60	1577.52
415.79	1565.82
415.98	1549.43
416.17	1575.18
416.36	1657.10
416.55	1586.88
416.74	1666.46
416.93	1598.59
417.12	1603.27
417.31	1748.38
417.50	1680.50
417.69	1764.76
417.88	1689.87
418.07	1699.23
418.26	1778.81
418.45	1933.28
418.64	1832.64
418.83	1940.30
419.02	1820.94
419.21	1858.39
419.39	1921.58
419.58	1909.88
419.77	1909.88
419.96	1867.75
420.15	1898.17
420.34	1966.05
420.53	1881.79
420.72	1930.94
420.91	2003.50
421.10	1900.52
421.29	2012.86
421.48	1816.26
421.67	1975.41
421.86	1998.82
422.05	1867.75
422.24	1944.99
422.43	1989.46
422.61	2015.20
422.80	2127.55
422.99	2059.67
423.18	2040.95
423.37	2087.76
423.56	2083.08
423.75	2129.89
423.94	2136.91
424.13	1844.34
424.32	2064.35
424.50	2012.86
424.69	2148.61
424.88	2150.95
425.07	2059.67
425.26	2083.08
425.45	2111.16
425.64	2122.87
425.83	2066.69
426.01	2078.40
426.20	2050.31
426.39	2062.01
426.58	2141.59
426.77	2104.14
426.96	2167.34
427.15	2106.48
427.33	2176.70
427.52	2101.80
427.71	2193.08
427.90	2321.81
428.09	2195.42
428.28	2134.57
428.46	2239.89
428.65	2272.66
428.84	2223.51
429.03	2331.17
429.22	2167.34
429.40	2406.07
429.59	2373.30
429.78	2279.68
429.97	2275.00
430.16	2232.87
430.34	2300.75
430.53	2445.86
430.72	2471.61
430.91	2424.80
431.10	2420.11
431.28	2457.56
431.47	2459.90
431.66	2509.05
431.85	2483.31
432.03	2401.39
432.22	2483.31
432.41	2469.27
432.60	2647.15
432.79	2553.52
432.97	2548.84
433.16	2495.01
433.35	2457.56
433.54	2546.50
433.72	2658.85
433.91	2527.78
434.10	2523.10
434.28	2574.59
434.47	2602.68
434.66	2623.74
434.85	2745.45
435.03	2677.57
435.22	2609.70
435.41	2670.55
435.59	2715.02
435.78	2593.31
435.97	2750.13
436.16	2656.51
436.34	2794.60
436.53	2787.58
436.72	2848.43
436.90	2771.19
437.09	2764.17
437.28	2719.70
437.46	2782.90
437.65	2815.66
437.84	2832.05
438.02	2726.72
438.21	2850.77
438.40	2843.75
438.58	2946.73
438.77	2836.73
438.96	3000.57
439.14	3056.74
439.33	3005.25
439.52	2881.20
439.70	3098.87
439.89	3155.04
440.08	2979.50
440.26	3094.19
440.45	3089.51
440.63	3185.47
440.82	3251.00
441.01	3187.81
441.19	3218.24
441.38	3239.30
441.57	3349.31
441.75	3276.75
441.94	3309.52
442.12	3339.94
442.31	3337.60
442.50	3445.27
442.68	3442.93
442.87	3503.78
443.05	3452.29
443.24	3475.70
443.43	3440.59
443.61	3417.18
443.80	3428.88
443.98	3419.52
444.17	3393.78
444.35	3485.06
444.54	3609.11
444.73	3531.87
444.91	3639.53
445.10	3562.30
445.28	3454.63
445.47	3461.65
445.65	3606.77
445.84	3548.25
446.02	3520.17
446.21	3597.40
446.39	3510.80
446.58	3574.00
446.77	3564.64
446.95	3339.94
447.14	3541.23
447.32	3557.61
447.51	3648.90
447.69	3712.09
447.88	3648.90
448.06	3571.66
448.25	3665.28
448.43	3651.24
448.62	3700.39
448.80	3545.91
448.99	3660.60
449.17	3665.28
449.36	3653.58
449.54	3613.79
449.73	3669.96
449.91	3749.54
450.10	3789.33
450.28	3784.65
450.46	3824.44
450.65	3925.08
450.83	3894.65
451.02	3999.98
451.20	3934.44
451.39	3854.86
451.57	3756.56
451.76	3871.25
451.94	3962.53
452.13	3946.14
452.31	3808.05
452.49	4021.04
452.68	3913.38
452.86	3861.88
453.05	3964.87
453.23	4023.38
453.42	3976.57
453.60	3794.01
453.78	4004.66
453.97	3960.19
454.15	3999.98
454.34	4035.08
454.52	4067.85
454.70	4032.74
454.89	4205.94
455.07	4135.73
455.26	4067.85
455.44	4236.37
455.62	4238.71
455.81	4175.52
455.99	4229.35
456.17	4147.43
456.36	4348.72
456.54	4348.72
456.73	4407.23
456.91	4505.53
457.09	4411.91
457.28	4475.10
457.46	4304.25
457.64	4365.10
457.83	4479.79
458.01	4397.87
458.19	4482.13
458.38	4479.79
458.56	4571.07
458.74	4461.06
458.93	4613.20
459.11	4381.48
459.29	4423.61
459.48	4564.04
459.66	4655.33
459.84	4547.66
460.03	4631.92
460.21	4636.60
460.39	4624.90
460.57	4681.07
460.76	4697.46
460.94	4718.52
461.12	4809.80
461.31	4645.96
461.49	4662.35
461.67	4622.56
461.85	5055.56
462.04	4882.36
462.22	5188.97
462.40	4865.97
462.59	4741.93
462.77	4999.38
462.95	4819.16
463.13	4809.80
463.32	5078.96
463.50	4903.42
463.68	4964.28
463.86	5046.20
464.05	4779.37
464.23	4877.68
464.41	5013.43
464.59	4894.06
464.78	5228.76
464.96	4978.32
465.14	5022.79
465.32	5046.20
465.50	5219.39
465.69	5149.18
465.87	4980.66
466.05	5135.14
466.23	5130.45
466.41	5270.89
466.60	5181.95
466.78	5181.95
466.96	5062.58
467.14	5137.48
467.32	5198.33
467.51	5268.55
467.69	5125.77
467.87	5151.52
468.05	5355.15
468.23	5224.08
468.41	5149.18
468.60	5235.78
468.78	5210.03
468.96	5277.91
469.14	5376.21
469.32	5495.58
469.50	5352.81
469.69	5511.96
469.87	5481.53
470.05	5769.42
470.23	5633.67
470.41	5563.45
470.59	5582.18
470.77	5633.67
470.95	5568.13
471.14	5650.05
471.32	5556.43
471.50	5774.10
471.68	5692.18
471.86	5568.13
472.04	5930.92
472.22	6059.65
472.40	5816.23
472.58	5762.40
472.77	5891.13
472.95	6033.90
473.13	6141.57
473.31	5895.81
473.49	5820.91
473.67	5935.60
473.85	5891.13
474.03	6153.27
474.21	6237.53
474.39	6148.59
474.57	6209.44
474.75	6293.70
474.93	6235.19
475.12	6321.79
475.30	6338.17
475.48	6410.73
475.66	6399.02
475.84	6284.34
476.02	6604.99
476.20	6401.37
476.38	6626.06
476.56	6698.61
476.74	6672.87
476.92	6623.72
477.10	6637.76
477.28	6965.43
477.46	6832.02
477.64	6731.38
477.82	7087.14
478.00	7124.59
478.18	7103.53
478.36	7220.55
478.54	7208.85
478.72	7248.64
478.90	7339.92
479.08	7194.81
479.26	7403.11
479.44	7527.16
479.62	7499.08
479.80	7522.48
479.98	7581.00
480.16	7964.84
480.34	7648.87
480.52	7812.71
480.70	7747.17
480.88	7447.58
481.06	7901.65
481.24	7852.50
481.41	7955.48
481.59	8098.25
481.77	8241.03
481.95	8339.33
482.13	8458.70
482.31	8351.03
482.49	8582.74
482.67	8355.71
482.85	8479.76
483.03	8816.80
483.21	8725.52
483.39	8896.38
483.57	8730.20
483.74	8748.92
483.92	9020.42
484.10	8957.23
484.28	9076.60
484.46	9303.63
484.64	9380.87
484.82	9151.49
485.00	9240.44
485.18	9551.73
485.35	9631.30
485.53	9598.54
485.71	9745.99
485.89	9778.76
486.07	9643.01
486.25	9748.33
486.43	9928.55
486.61	9912.17
486.78	10097.07
486.96	10394.32
487.14	10380.28
487.32	10370.91
487.50	10408.36
487.68	10422.41
487.85	10719.65
488.03	10644.76
488.21	11040.31
488.39	10771.15
488.57	11070.73
488.75	11063.71
488.92	11052.01
489.10	11241.59
489.28	11424.15
489.46	11398.41
489.64	11265.00
489.81	11824.39
489.99	11810.34
490.17	11620.76
490.35	11955.46
490.53	11833.75
490.70	11747.15
490.88	11950.78
491.06	11976.52
491.24	11939.07
491.41	12285.47
491.59	12215.26
491.77	12259.73
491.95	12231.64
492.13	12552.29
492.30	12674.00
492.48	12788.69
492.66	12608.47
492.84	12624.85
493.01	12908.05
493.19	12645.91
493.37	12849.54
493.54	13018.06
493.72	13125.72
493.90	13200.62
494.08	13118.70
494.25	13399.57
494.43	13610.22
494.61	13472.12
494.79	13748.31
494.96	13921.51
495.14	13635.96
495.32	13984.70
495.49	13813.84
495.67	14185.99
495.85	14136.84
496.02	14396.64
496.20	14174.28
496.38	14527.71
496.55	14317.06
496.73	14616.65
496.91	14572.18
497.09	14611.96
497.26	14628.35
497.44	14736.01
497.62	14672.82
497.79	14920.92
497.97	15033.26
498.14	15316.47
498.32	15508.39
498.50	15016.88
498.67	15426.47
498.85	15185.40
499.03	15276.68
499.20	15400.72
499.38	15697.97
499.56	15609.03
499.73	15510.73
499.91	15772.87
500.08	15957.77
500.26	15641.80
500.44	15793.94
500.61	15936.71
500.79	15960.11
500.97	16088.84
501.14	16074.80
501.32	16137.99
501.49	16215.23
501.67	16255.02
501.84	16063.10
502.02	16606.10
502.20	16421.20
502.37	16695.04
502.55	16505.46
502.72	16924.41
502.90	16484.39
503.07	16566.31
503.25	16908.03
503.43	16512.48
503.60	17329.33
503.78	17310.60
503.95	17025.06
504.13	17074.21
504.30	17069.53
504.48	17317.62
504.65	17338.69
504.83	17607.85
505.01	17699.13
505.18	17575.08
505.36	17598.49
505.53	17544.66
505.71	17415.93
505.88	17666.36
506.06	17329.33
506.23	17984.68
506.41	18012.76
506.58	17781.05
506.76	17982.34
506.93	18054.89
507.11	17649.98
507.28	17926.16
507.46	18195.32
507.63	18277.24
507.81	18302.99
507.98	18324.05
508.16	18457.46
508.33	18321.71
508.50	18260.86
508.68	18485.55
508.85	18661.09
509.03	18611.94
509.20	18775.78
509.38	18824.93
509.55	18998.13
509.73	18789.82
509.90	18918.55
510.08	18738.33
510.25	18834.29
510.42	18913.87
510.60	19211.12
510.77	19213.46
510.95	19295.38
511.12	19185.37
511.30	19323.46
511.47	19232.18
511.64	19243.88
511.82	19566.88
511.99	19681.56
512.17	19398.36
512.34	19543.47
512.51	19756.46
512.69	19791.57
512.86	19964.77
513.04	19737.74
513.21	19719.01
513.38	20077.12
513.56	20215.21
513.73	19833.70
513.90	20262.02
514.08	20051.37
514.25	20306.49
514.43	20381.38
514.60	20505.43
514.77	20320.53
514.95	20732.47
515.12	20367.34
515.29	20627.14
515.47	20374.36
515.64	20652.89
515.81	20608.42
515.99	21006.31
516.16	21097.59
516.33	20868.22
516.51	21055.46
516.68	20896.30
516.85	21144.40
517.03	20805.02
517.20	21163.12
517.37	20786.30
517.54	21142.06
517.72	21092.91
517.89	21310.58
518.06	20947.79
518.24	21146.74
518.41	21270.79
518.58	21301.22
518.75	21331.64
518.93	21497.82
519.10	21582.08
519.27	21834.86
519.45	21568.04
519.62	21699.11
519.79	21525.91
519.96	22094.66
520.14	21851.24
520.31	22087.64
520.48	21991.67
520.65	21823.16
520.83	22038.48
521.00	21947.20
521.17	21970.61
521.34	22120.40
521.52	21680.38
521.69	22033.80
521.86	22139.13
522.03	22562.76
522.20	22317.01
522.38	22314.67
522.55	22668.09
522.72	22586.17
522.89	22553.40
523.07	22792.14
523.24	22419.99
523.41	22565.10
523.58	22721.92
523.75	23147.90
523.92	22731.28
524.10	22740.64
524.27	22838.95
524.44	23049.60
524.61	23082.36
524.78	23068.32
524.96	23157.26
525.13	23183.01
525.30	23388.97
525.47	23173.64
525.64	23332.80
525.81	23199.39
525.98	23358.55
526.16	23307.05
526.33	23536.43
526.50	23702.61
526.67	23250.88
526.84	23573.88
527.01	23747.08
527.18	23538.77
527.36	23726.01
527.53	23798.57
527.70	23889.85
527.87	24123.90
528.04	23749.42
528.21	23992.83
528.38	23990.49
528.55	24259.65
528.72	24065.39
528.89	24151.99
529.07	23983.47
529.24	24226.89
529.41	24528.81
529.58	24091.13
529.75	24280.72
529.92	24257.31
530.09	24325.19
530.26	24285.40
530.43	24271.36
530.60	23985.81
530.77	24549.88
530.94	24474.98
531.11	24409.45
531.28	24542.86
531.46	24613.07
531.63	24304.12
531.80	24465.62
531.97	24893.94
532.14	24943.09
532.31	24723.08
532.48	24900.96
532.65	24919.68
532.82	24730.10
532.99	24903.30
533.16	24744.14
533.33	25373.75
533.50	25181.82
533.67	25230.98
533.84	25326.94
534.01	25001.60
534.18	25212.25
534.35	24940.75
534.52	25085.86
534.69	25696.74
534.86	25333.96
535.03	25249.70
535.20	25429.92
535.37	25326.94
535.54	25806.75
535.71	25142.03
535.88	25275.45
536.05	25158.42
536.22	25802.07
536.38	25867.60
536.55	25678.02
536.72	25654.61
536.89	25699.08
537.06	25907.39
537.23	26017.40
537.40	25696.74
537.57	25525.88
537.74	25993.99
537.91	25972.92
538.08	25802.07
538.25	25883.98
538.42	25881.64
538.59	25912.07
538.75	25872.28
538.92	26209.32
539.09	25921.43
539.26	25888.67
539.43	26359.11
539.60	26288.90
539.77	26326.35
539.94	26569.76
540.11	26160.17
540.28	25848.88
540.44	26356.77
540.61	26183.57
540.78	26188.25
540.95	26256.13
541.12	26459.76
541.29	26553.38
541.46	26373.16
541.62	26672.74
541.79	26536.99
541.96	26235.06
542.13	26560.40
542.30	26742.96
542.47	26838.92
542.63	26541.68
542.80	27222.77
542.97	27175.96
543.14	26995.74
543.31	26890.41
543.48	26867.01
543.64	27276.60
543.81	27281.28
543.98	27576.19
544.15	26927.86
544.32	27534.06
544.48	27623.00
544.65	27030.85
544.82	27597.26
544.99	27152.55
545.16	27211.07
545.32	27541.08
545.49	27482.57
545.66	27693.22
545.83	27711.94
546.00	27442.78
546.16	27620.66
546.33	27328.10
546.50	27407.67
546.67	27793.86
546.83	26951.27
547.00	27782.16
547.17	27833.65
547.34	28247.93
547.50	27510.66
547.67	28041.96
547.84	28081.75
548.00	27915.57
548.17	28493.68
548.34	28025.57
548.51	28039.62
548.67	28304.10
548.84	28041.96
549.01	27995.15
549.18	27889.82
549.34	28004.51
549.51	27915.57
549.68	28072.39
549.84	28297.08
550.01	27924.93
550.18	28173.03
550.34	28559.22
550.51	28531.13
550.68	28268.99
550.84	28376.66
551.01	28327.50
551.18	28215.16
551.34	28264.31
551.51	28046.64
551.68	28507.72
551.84	28568.58
552.01	28634.11
552.18	28566.24
552.34	27946.00
552.51	28694.97
552.68	28685.61
552.84	28521.77
553.01	28849.44
553.18	28655.18
553.34	28744.12
553.51	28730.08
553.67	28678.58
553.84	29277.76
554.01	28973.49
554.17	29273.08
554.34	28872.85
554.51	28851.78
554.67	28980.51
554.84	28884.55
555.00	29036.69
555.17	28851.78
555.33	28989.88
555.50	28929.02
555.67	29048.39
555.83	29088.18
556.00	29029.66
556.16	29186.48
556.33	29015.62
556.50	28940.72
556.66	28994.56
556.83	28966.47
556.99	29277.76
557.16	29350.32
557.32	29289.46
557.49	29067.11
557.65	29109.24
557.82	29240.31
557.98	29212.23
558.15	29406.49
558.32	29596.07
558.48	29631.18
558.65	29355.00
558.81	29429.90
558.98	29713.10
559.14	29266.06
559.31	29259.04
559.47	29619.48
559.64	29450.96
559.80	29666.29
559.97	29612.46
560.13	29439.26
560.30	29867.58
560.46	29647.57
560.63	29275.42
560.79	30082.91
560.96	29799.70
561.12	29710.76
561.29	29317.55
561.45	29748.21
561.61	29874.60
561.78	29954.18
561.94	30078.22
562.11	29830.13
562.27	29848.85
562.44	29734.17
562.60	29958.86
562.77	30349.73
562.93	29832.47
563.10	30157.80
563.26	29923.75
563.42	29993.97
563.59	29853.53
563.75	30237.38
563.92	29872.26
564.08	29687.36
564.24	29685.01
564.41	29916.73
564.57	29851.19
564.74	29837.15
564.90	29984.60
565.07	29907.37
565.23	30059.50
565.39	30146.10
565.56	30031.41
565.72	29694.38
565.88	29809.06
566.05	30197.59
566.21	29830.13
566.38	29846.51
566.54	30162.48
566.70	30019.71
566.87	30555.69
567.03	30478.46
567.19	30398.88
567.36	30424.62
567.52	30033.75
567.68	30345.05
567.85	30188.23
568.01	30192.91
568.17	30506.54
568.34	30328.66
568.50	30141.42
568.66	30333.34
568.83	30452.71
568.99	30288.87
569.15	30321.64
569.32	30256.11
569.48	30433.99
569.64	30225.68
569.81	30719.53
569.97	30363.77
570.13	30424.62
570.30	30052.48
570.46	30499.52
570.62	30424.62
570.78	29977.58
570.95	30319.30
571.11	30080.56
571.27	30323.98
571.43	29928.43
571.60	30345.05
571.76	30115.67
571.92	30501.86
572.09	30597.82
572.25	30871.67
572.41	30398.88
572.57	30494.84
572.74	30785.07
572.90	30623.57
573.06	30345.05
573.22	30611.87
573.38	30693.79
573.55	30511.22
573.71	30597.82
573.87	30808.47
574.03	30522.93
574.20	30876.35
574.36	30127.38
574.52	30441.01
574.68	30504.20
574.84	30452.71
575.01	30700.81
575.17	30401.22
575.33	30298.23
575.49	30534.63
575.65	30506.54
575.82	30859.96
575.98	30848.26
576.14	30520.59
576.30	30682.08
576.46	30654.00
576.62	30766.34
576.79	30555.69
576.95	30459.73
577.11	30817.83
577.27	30817.83
577.43	30815.49
577.59	30771.02
577.75	30771.02
577.92	30735.92
578.08	30658.68
578.24	30487.82
578.40	30710.17
578.56	30532.29
578.72	30490.16
578.88	30941.88
579.04	30764.00
579.21	30881.03
579.37	30878.69
579.53	30595.48
579.69	30698.47
579.85	30541.65
580.01	30686.76
580.17	30579.10
580.33	30941.88
580.49	30918.48
580.65	30714.85
580.82	30888.05
580.98	30642.29
581.14	30579.10
581.30	30728.89
581.46	30852.94
581.62	30941.88
581.78	30895.07
581.94	30976.99
582.10	30600.16
582.26	30836.56
582.42	30536.97
582.58	31112.74
582.74	31246.15
582.90	31147.85
583.06	30864.64
583.22	30866.98
583.38	30597.82
583.54	30944.22
583.70	30717.19
583.86	30993.37
584.02	30338.02
584.18	30628.25
584.34	30768.68
584.50	31246.15
584.66	31187.64
584.82	30834.22
584.98	30813.15
585.14	31206.36
585.30	30602.50
585.46	30618.89
585.62	30670.38
585.78	31215.72
585.94	30558.03
586.10	31103.38
586.26	31182.96
586.42	31157.21
586.58	30764.00
586.74	30686.76
586.90	30373.13
587.06	30934.86
587.22	31168.91
587.38	30787.41
587.54	30948.90
587.70	31395.95
587.86	30974.65
588.02	31079.97
588.18	31438.08
588.34	31363.18
588.49	30941.88
588.65	31185.30
588.81	30897.41
588.97	31152.53
589.13	31037.84
589.29	31101.04
589.45	31365.52
589.61	31257.85
589.77	31601.91
589.93	31271.90
590.08	31218.07
590.24	31269.56
590.40	31690.85
590.56	31737.66
590.72	31372.54
590.88	30993.37
591.04	30946.56
591.20	31494.25
591.35	31302.32
591.51	31604.25
591.67	31433.39
591.83	31405.31
