SpectraSuite Data File
++++++++++++++++++++++++++++++++++++
Date: Fri Oct 18 13:57:57 GMT-05:00 2013
User: bianchi
Dark Spectrum Present: No
Reference Spectrum Present: No
Number of Sampled Component Spectra: 1
Spectrometers: USB2+H05261
Integration Time (usec): 50000 (USB2+H05261)
Spectra Averaged: 1 (USB2+H05261)
Boxcar Smoothing: 0 (USB2+H05261)
Correct for Electrical Dark: No (USB2+H05261)
Strobe/Lamp Enabled: No (USB2+H05261)
Correct for Detector Non-linearity: No (USB2+H05261)
Correct for Stray Light: No (USB2+H05261)
Number of Pixels in Processed Spectrum: 2048
>>>>>Begin Processed Spectral Data<<<<<
365.73	0.00
365.92	0.00
366.12	0.00
366.32	0.00
366.52	0.00
366.72	0.00
366.91	0.00
367.11	0.00
367.31	0.00
367.51	0.00
367.70	0.00
367.90	0.00
368.10	0.00
368.30	0.00
368.49	0.00
368.69	0.00
368.89	0.00
369.09	0.00
369.28	0.00
369.48	0.00
369.68	0.00
369.87	0.00
370.07	0.00
370.27	0.00
370.47	0.00
370.66	39.79
370.86	107.66
371.06	145.11
371.25	74.90
371.45	81.92
371.65	170.86
371.84	107.66
372.04	156.82
372.24	145.11
372.44	182.56
372.63	201.29
372.83	269.16
373.03	191.92
373.22	189.58
373.42	198.95
373.62	215.33
373.81	196.60
374.01	278.52
374.21	271.50
374.40	215.33
374.60	201.29
374.79	217.67
374.99	250.44
375.19	313.63
375.38	313.63
375.58	287.89
375.78	273.84
375.97	217.67
376.17	266.82
376.37	285.55
376.56	280.86
376.76	220.01
376.95	252.78
377.15	332.36
377.35	273.84
377.54	271.50
377.74	325.33
377.93	252.78
378.13	217.67
378.33	257.46
378.52	325.33
378.72	306.61
378.91	290.23
379.11	283.20
379.31	320.65
379.50	203.63
379.70	311.29
379.89	325.33
380.09	320.65
380.28	250.44
380.48	283.20
380.68	348.74
380.87	325.33
381.07	318.31
381.26	365.12
381.46	311.29
381.65	320.65
381.85	365.12
382.04	346.40
382.24	395.55
382.43	351.08
382.63	327.68
382.83	266.82
383.02	383.85
383.22	369.80
383.41	304.27
383.61	346.40
383.80	381.51
384.00	379.17
384.19	386.19
384.39	425.98
384.58	393.21
384.78	428.32
384.97	428.32
385.17	416.62
385.36	362.78
385.56	393.21
385.75	395.55
385.95	433.00
386.14	461.09
386.34	395.55
386.53	407.25
386.72	388.53
386.92	505.56
387.11	376.83
387.31	397.89
387.50	395.55
387.70	468.11
387.89	433.00
388.09	486.83
388.28	447.04
388.48	486.83
388.67	456.40
388.86	416.62
389.06	538.32
389.25	472.79
389.45	423.64
389.64	496.19
389.84	566.41
390.03	512.58
390.22	482.15
390.42	486.83
390.61	463.43
390.81	472.79
391.00	456.40
391.19	404.91
391.39	538.32
391.58	489.17
391.78	514.92
391.97	465.77
392.16	514.92
392.36	580.45
392.55	552.37
392.75	631.94
392.94	486.83
393.13	573.43
393.33	564.07
393.52	571.09
393.71	573.43
393.91	538.32
394.10	589.82
394.29	648.33
394.49	554.71
394.68	606.20
394.88	540.66
395.07	559.39
395.26	566.41
395.46	564.07
395.65	702.16
395.84	615.56
396.04	702.16
396.23	662.37
396.42	608.54
396.62	641.31
396.81	606.20
397.00	627.26
397.19	727.91
397.39	723.23
397.58	655.35
397.77	695.14
397.97	751.31
398.16	688.12
398.35	758.33
398.55	690.46
398.74	791.10
398.93	723.23
399.12	748.97
399.32	767.70
399.51	737.27
399.70	812.17
399.90	748.97
400.09	828.55
400.28	765.36
400.47	734.93
400.67	786.42
400.86	784.08
401.05	821.53
401.24	795.78
401.44	791.10
401.63	814.51
401.82	828.55
402.01	837.91
402.21	903.45
402.40	809.83
402.59	851.96
402.78	828.55
402.97	861.32
403.17	945.58
403.36	898.77
403.55	866.00
403.74	954.94
403.93	880.04
404.13	840.25
404.32	875.36
404.51	980.68
404.70	1128.14
404.89	957.28
405.09	992.39
405.28	1001.75
405.47	884.72
405.66	1022.81
405.85	1004.09
406.05	905.79
406.24	1043.88
406.43	1043.88
406.62	968.98
406.81	1039.20
407.00	987.71
407.20	992.39
407.39	1083.67
407.58	1071.97
407.77	1013.45
407.96	1114.10
408.15	1081.33
408.34	1174.95
408.54	1123.46
408.73	1228.78
408.92	1125.80
409.11	1224.10
409.30	1181.97
409.49	1231.12
409.68	1210.06
409.87	1167.93
410.07	1170.27
410.26	1135.16
410.45	1088.35
410.64	1198.35
410.83	1320.06
411.02	1245.16
411.21	1256.87
411.40	1291.98
411.59	1284.95
411.78	1254.53
411.98	1320.06
412.17	1261.55
412.36	1165.59
412.55	1331.76
412.74	1434.75
412.93	1373.89
413.12	1310.70
413.31	1423.05
413.50	1416.02
413.69	1371.55
413.88	1486.24
414.07	1500.28
414.26	1366.87
414.45	1507.30
414.64	1647.74
414.83	1582.20
415.02	1425.39
415.22	1577.52
415.41	1647.74
415.60	1558.80
415.79	1561.14
415.98	1549.43
416.17	1654.76
416.36	1577.52
416.55	1626.67
416.74	1682.85
416.93	1689.87
417.12	1685.19
417.31	1694.55
417.50	1729.66
417.69	1750.72
417.88	1729.66
418.07	1823.28
418.26	1849.02
418.45	1785.83
418.64	1856.04
418.83	1944.99
419.02	1842.00
419.21	1884.13
419.39	1764.76
419.58	1947.33
419.77	1820.94
419.96	1797.53
420.15	1952.01
420.34	1895.83
420.53	1879.45
420.72	1926.26
420.91	1982.43
421.10	2029.24
421.29	2029.24
421.48	2003.50
421.67	1947.33
421.86	2047.97
422.05	2017.54
422.24	2050.31
422.43	2099.46
422.61	2005.84
422.80	2022.22
422.99	1966.05
423.18	2054.99
423.37	2024.56
423.56	2038.61
423.75	2017.54
423.94	1921.58
424.13	1933.28
424.32	1975.41
424.50	2099.46
424.69	2148.61
424.88	2038.61
425.07	2076.06
425.26	1961.37
425.45	1987.11
425.64	1970.73
425.83	2153.29
426.01	2122.87
426.20	2080.74
426.39	2120.53
426.58	2092.44
426.77	2015.20
426.96	2076.06
427.15	2127.55
427.33	2190.74
427.52	2106.48
427.71	2134.57
427.90	2160.31
428.09	2179.04
428.28	2223.51
428.46	2148.61
428.65	2310.11
428.84	2282.02
429.03	2307.77
429.22	2211.81
429.40	2335.85
429.59	2197.76
429.78	2174.36
429.97	2314.79
430.16	2246.91
430.34	2356.92
430.53	2352.24
430.72	2298.41
430.91	2328.83
431.10	2223.51
431.28	2305.43
431.47	2443.52
431.66	2539.48
431.85	2443.52
432.03	2506.71
432.22	2457.56
432.41	2445.86
432.60	2548.84
432.79	2387.35
432.97	2555.86
433.16	2511.39
433.35	2459.90
433.54	2555.86
433.72	2677.57
433.91	2485.65
434.10	2588.63
434.28	2565.23
434.47	2635.44
434.66	2595.65
434.85	2684.59
435.03	2483.31
435.22	2635.44
435.41	2750.13
435.59	2572.25
435.78	2693.96
435.97	2768.85
436.16	2722.04
436.34	2633.10
436.53	2803.96
436.72	2813.32
436.90	2782.90
437.09	2736.09
437.28	2689.28
437.46	2892.90
437.65	2836.73
437.84	2841.41
438.02	2729.06
438.21	2808.64
438.40	2780.56
438.58	2820.35
438.77	2939.71
438.96	2902.26
439.14	2977.16
439.33	3002.91
439.52	3021.63
439.70	3042.70
439.89	3091.85
440.08	3089.51
440.26	3119.93
440.45	3117.59
440.63	3087.17
440.82	3150.36
441.01	3183.13
441.19	3201.85
441.38	3227.60
441.57	3199.51
441.75	3272.07
441.94	3485.06
442.12	3417.18
442.31	3447.61
442.50	3349.31
442.68	3283.77
442.87	3398.46
443.05	3466.33
443.24	3419.52
443.43	3442.93
443.61	3295.47
443.80	3618.47
443.98	3304.84
444.17	3370.37
444.35	3501.44
444.54	3377.39
444.73	3576.34
444.91	3435.91
445.10	3550.59
445.28	3494.42
445.47	3407.82
445.65	3534.21
445.84	3517.83
446.02	3583.36
446.21	3595.06
446.39	3478.04
446.58	3599.74
446.77	3576.34
446.95	3461.65
447.14	3557.61
447.32	3613.79
447.51	3630.17
447.69	3637.19
447.88	3606.77
448.06	3618.47
448.25	3599.74
448.43	3777.62
448.62	3566.98
448.80	3604.42
448.99	3702.73
449.17	3625.49
449.36	3613.79
449.54	3658.26
449.73	3691.02
449.91	3618.47
450.10	3667.62
450.28	3763.58
450.46	3803.37
450.65	3836.14
450.83	3691.02
451.02	3829.12
451.20	3901.67
451.39	3906.35
451.57	3854.86
451.76	3786.99
451.94	3875.93
452.13	3833.80
452.31	3967.21
452.49	3894.65
452.68	3878.27
452.86	4002.32
453.05	4007.00
453.23	4126.36
453.42	3861.88
453.60	4023.38
453.78	4030.40
453.97	4046.79
454.15	4021.04
454.34	3999.98
454.52	4112.32
454.70	4039.76
454.89	4152.11
455.07	4046.79
455.26	4070.19
455.44	4215.30
455.62	4201.26
455.81	4161.47
455.99	4327.65
456.17	4198.92
456.36	4297.22
456.54	4292.54
456.73	4421.27
456.91	4411.91
457.09	4292.54
457.28	4496.17
457.46	4311.27
457.64	4498.51
457.83	4571.07
458.01	4257.43
458.19	4575.75
458.38	4414.25
458.56	4519.57
458.74	4601.49
458.93	4383.82
459.11	4477.44
459.29	4435.32
459.48	4512.55
459.66	4547.66
459.84	4699.80
460.03	4713.84
460.21	4716.18
460.39	4662.35
460.57	4706.82
460.76	4681.07
460.94	4704.48
461.12	4786.40
461.31	4657.67
461.49	4732.56
461.67	4610.86
461.85	4765.33
462.04	4858.95
462.22	5069.60
462.40	4805.12
462.59	4908.10
462.77	4837.89
462.95	5041.51
463.13	4798.10
463.32	4865.97
463.50	4957.25
463.68	5013.43
463.86	4959.60
464.05	4870.65
464.23	4987.68
464.41	4915.12
464.59	4891.72
464.78	5041.51
464.96	5025.13
465.14	4910.44
465.32	5093.01
465.50	4971.30
465.69	5179.61
465.87	4950.23
466.05	5095.35
466.23	5139.82
466.41	5121.09
466.60	5137.48
466.78	5121.09
466.96	5050.88
467.14	5128.11
467.32	4905.76
467.51	5362.17
467.69	5102.37
467.87	5394.93
468.05	5263.86
468.23	5266.21
468.41	5268.55
468.60	5331.74
468.78	5439.40
468.96	5249.82
469.14	5458.13
469.32	5427.70
469.50	5228.76
469.69	5423.02
469.87	5418.34
470.05	5568.13
470.23	5605.58
470.41	5579.84
470.59	5631.33
470.77	5352.81
470.95	5516.64
471.14	5582.18
471.32	5528.35
471.50	5626.65
471.68	5689.84
471.86	5699.20
472.04	5764.74
472.22	5827.93
472.40	5872.40
472.58	5881.77
472.77	5830.27
472.95	6066.67
473.13	6038.58
473.31	6043.26
473.49	5788.14
473.67	6008.16
473.85	5912.19
474.03	6120.50
474.21	6087.73
474.39	6211.78
474.57	6274.98
474.75	6155.61
474.93	6504.35
475.12	6225.82
475.30	6457.54
475.48	6188.38
475.66	6279.66
475.84	6499.67
476.02	6656.48
476.20	6628.40
476.38	6717.34
476.56	6707.98
476.74	6747.76
476.92	6569.88
477.10	6682.23
477.28	6729.04
477.46	6733.72
477.64	6902.24
477.82	7023.95
478.00	7028.63
478.18	7103.53
478.36	7201.83
478.54	7143.32
478.72	7208.85
478.90	7293.11
479.08	7391.41
479.26	7403.11
479.44	7602.06
479.62	7414.82
479.80	7545.89
479.98	7637.17
480.16	7623.12
480.34	7728.45
480.52	7808.03
480.70	7719.09
480.88	7920.37
481.06	7836.11
481.24	7857.18
481.41	7939.10
481.59	8203.58
481.77	8065.49
481.95	8079.53
482.13	8287.84
482.31	8393.16
482.49	8400.18
482.67	8528.91
482.85	8610.83
483.03	8732.54
483.21	8816.80
483.39	8692.75
483.57	8784.03
483.74	8826.16
483.92	8891.70
484.10	9074.26
484.28	9312.99
484.46	9144.47
484.64	9434.70
484.82	9256.82
485.00	9247.46
485.18	9577.47
485.35	9631.30
485.53	9343.42
485.71	9633.64
485.89	9966.00
486.07	9731.95
486.25	9834.93
486.43	10068.98
486.61	9877.06
486.78	10291.34
486.96	10342.83
487.14	10382.62
487.32	10181.33
487.50	10284.31
487.68	10303.04
487.85	10626.03
488.03	10640.08
488.21	10736.04
488.39	10857.75
488.57	10864.77
488.75	10738.38
488.92	10998.18
489.10	11356.28
489.28	11297.77
489.46	11281.38
489.64	11358.62
489.81	11676.93
489.99	11599.70
490.17	11477.99
490.35	11831.41
490.53	11800.98
490.70	11920.35
490.88	11667.57
491.06	12138.02
491.24	11927.37
491.41	12215.26
491.59	12184.83
491.77	12222.28
491.95	12510.16
492.13	12439.95
492.30	12393.14
492.48	12566.34
492.66	12608.47
492.84	12753.58
493.01	12954.87
493.19	12879.97
493.37	13062.53
493.54	12875.29
493.72	13359.78
493.90	13025.08
494.08	13277.86
494.25	13385.52
494.43	13474.46
494.61	13542.34
494.79	13640.64
494.96	13540.00
495.14	13582.13
495.32	13532.98
495.49	13865.33
495.67	13930.87
495.85	14303.01
496.02	14066.62
496.20	14380.25
496.38	14340.46
496.55	14214.07
496.73	14691.54
496.91	14354.51
497.09	14511.32
497.26	14780.48
497.44	14523.02
497.62	14747.72
497.79	15016.88
497.97	14911.55
498.14	15110.50
498.32	15037.94
498.50	15325.83
498.67	15126.88
498.85	15229.87
499.03	15726.06
499.20	15241.57
499.38	15339.87
499.56	15454.56
499.73	15580.95
499.91	15864.15
500.08	15651.16
500.26	15480.30
500.44	15716.70
500.61	15833.72
500.79	15559.88
500.97	15955.43
501.14	16163.74
501.32	16067.78
501.49	16280.77
501.67	16016.29
501.84	16114.59
502.02	16336.94
502.20	16348.64
502.37	16676.32
502.55	16449.28
502.72	16713.77
502.90	16648.23
503.07	16678.66
503.25	16655.25
503.43	16430.56
503.60	16800.37
503.78	17146.76
503.95	16893.99
504.13	17029.74
504.30	17064.85
504.48	17006.33
504.65	17205.28
504.83	17216.98
505.01	17397.20
505.18	17411.25
505.36	17743.60
505.53	17167.83
505.71	17488.48
505.88	17621.89
506.06	17575.08
506.23	17640.62
506.41	17781.05
506.58	17605.51
506.76	18134.47
506.93	17926.16
507.11	17701.47
507.28	18080.64
507.46	18153.20
507.63	17771.69
507.81	18391.93
507.98	18204.69
508.16	18099.36
508.33	18185.96
508.50	18527.68
508.68	18094.68
508.85	18394.27
509.03	18408.31
509.20	18764.07
509.38	18710.24
509.55	18724.29
509.73	18761.73
509.90	18801.52
510.08	18951.32
510.25	18754.71
510.42	19110.47
510.60	18904.51
510.77	19190.05
510.95	19173.67
511.12	18902.17
511.30	19091.75
511.47	19274.31
511.64	19531.77
511.82	19646.46
511.99	19297.72
512.17	19644.12
512.34	19536.45
512.51	19613.69
512.69	19611.35
512.86	19719.01
513.04	19634.75
513.21	20037.33
513.38	19967.11
513.56	19850.08
513.73	19721.35
513.90	19985.83
514.08	19854.76
514.25	20299.47
514.43	20229.25
514.60	20292.44
514.77	20414.15
514.95	20365.00
515.12	20435.22
515.29	20463.30
515.47	20376.70
515.64	20379.04
515.81	20503.09
515.99	20568.63
516.16	20954.82
516.33	20692.68
516.51	20973.54
516.68	20727.78
516.85	20606.08
517.03	20730.12
517.20	21221.64
517.37	21083.55
517.54	20893.96
517.72	21027.37
517.89	21235.68
518.06	21273.13
518.24	21158.44
518.41	21188.87
518.58	21383.13
518.75	21432.29
518.93	21687.40
519.10	21387.82
519.27	21671.02
519.45	21514.20
519.62	21785.71
519.79	21600.80
519.96	21928.48
520.14	21717.83
520.31	21633.57
520.48	21785.71
520.65	21862.94
520.83	21930.82
521.00	21781.03
521.17	21809.11
521.34	21986.99
521.52	22230.41
521.69	22391.91
521.86	22405.95
522.03	22338.07
522.20	22349.78
522.38	22302.96
522.55	22185.94
522.72	22256.15
522.89	22356.80
523.07	22345.09
523.24	22742.99
523.41	22525.32
523.58	22745.33
523.75	22396.59
523.92	22518.29
524.10	22642.34
524.27	22621.28
524.44	22902.14
524.61	23009.81
524.78	23232.16
524.96	23082.36
525.13	23101.09
525.30	23122.15
525.47	23175.98
525.64	23220.45
525.81	23180.67
525.98	23534.09
526.16	23030.87
526.33	23487.28
526.50	23733.03
526.67	23381.95
526.84	23234.50
527.01	23075.34
527.18	23711.97
527.36	23847.72
527.53	23697.92
527.70	24123.90
527.87	23625.37
528.04	23922.62
528.21	23908.57
528.38	23197.05
528.55	23978.79
528.72	24093.47
528.89	24144.97
529.07	23892.19
529.24	24151.99
529.41	24276.04
529.58	23910.91
529.75	23985.81
529.92	23931.98
530.09	24060.71
530.26	23990.49
530.43	24243.27
530.60	24446.90
530.77	24353.27
530.94	24458.60
531.11	24109.86
531.28	24409.45
531.46	24489.03
531.63	24795.64
531.80	24849.47
531.97	24474.98
532.14	24266.67
532.31	24535.84
532.48	24929.05
532.65	24620.10
532.82	24812.02
532.99	24561.58
533.16	24533.50
533.33	24837.76
533.50	24994.58
533.67	24933.73
533.84	24734.78
534.01	24786.27
534.18	24989.90
534.35	25420.56
534.52	25130.33
534.69	25223.95
534.86	25223.95
535.03	25249.70
535.20	25200.55
535.37	25305.87
535.54	25305.87
535.71	24992.24
535.88	25104.59
536.05	25415.88
536.22	25521.20
536.38	25762.28
536.55	25757.60
536.72	25420.56
536.89	25465.03
537.06	25563.33
537.23	25769.30
537.40	25610.14
537.57	26075.91
537.74	25673.34
537.91	26211.66
538.08	26047.82
538.25	25984.63
538.42	25895.69
538.59	25722.49
538.75	25635.89
538.92	25371.41
539.09	26216.34
539.26	26150.81
539.43	26164.85
539.60	26551.04
539.77	26349.75
539.94	26192.94
540.11	26380.18
540.28	26300.60
540.44	26267.83
540.61	26279.54
540.78	26499.55
540.95	26375.50
541.12	26031.44
541.29	26534.65
541.46	26625.93
541.62	26300.60
541.79	26558.06
541.96	26260.81
542.13	26111.02
542.30	26579.12
542.47	26515.93
542.63	26939.57
542.80	26972.33
542.97	26595.51
543.14	26897.44
543.31	27044.89
543.48	26656.36
543.64	27295.33
543.81	27232.13
543.98	27108.08
544.15	27297.67
544.32	27077.66
544.48	27370.22
544.65	27199.37
544.82	26838.92
544.99	27246.18
545.16	27054.25
545.32	27138.51
545.49	27395.97
545.66	27854.72
545.83	27597.26
546.00	27599.60
546.16	27344.48
546.33	27346.82
546.50	27065.96
546.67	27875.78
546.83	27393.63
547.00	27838.33
547.17	27414.69
547.34	28041.96
547.50	27924.93
547.67	27943.66
547.84	27587.89
548.00	27686.20
548.17	28013.87
548.34	27344.48
548.51	27810.25
548.67	27924.93
548.84	27969.40
549.01	27988.13
549.18	27688.54
549.34	27859.40
549.51	27882.80
549.68	27669.81
549.84	27704.92
550.01	28222.18
550.18	27641.73
550.34	28322.82
550.51	28360.27
550.68	28388.36
550.84	28231.54
551.01	28201.11
551.18	27784.50
551.34	28056.00
551.51	28458.57
551.68	28189.41
551.84	28540.49
552.01	28519.43
552.18	28416.44
552.34	28332.18
552.51	28414.10
552.68	28514.75
552.84	28594.32
553.01	28692.63
553.18	28680.92
553.34	28666.88
553.51	28514.75
553.67	28727.74
553.84	28570.92
554.01	28716.03
554.17	29027.32
554.34	29095.20
554.51	28776.89
554.67	28683.27
554.84	28865.83
555.00	28957.11
555.17	28755.82
555.33	28952.43
555.50	28819.02
555.67	28840.08
555.83	28826.04
556.00	29024.98
556.16	29109.24
556.33	29081.16
556.50	29139.67
556.66	29151.37
556.83	29144.35
556.99	29280.10
557.16	29315.21
557.32	29163.08
557.49	29399.47
557.65	29116.26
557.82	29249.67
557.98	29486.07
558.15	29343.30
558.32	29624.16
558.48	29488.41
558.65	29567.99
558.81	29252.02
558.98	29338.62
559.14	29558.63
559.31	29263.72
559.47	29376.06
559.64	29202.86
559.80	29401.81
559.97	29577.35
560.13	29500.11
560.30	29446.28
560.46	29523.52
560.63	29886.30
560.79	29525.86
560.96	29596.07
561.12	29362.02
561.29	29703.74
561.45	29668.63
561.61	30010.35
561.78	29792.68
561.94	29668.63
562.11	29914.39
562.27	29654.59
562.44	29610.12
562.60	29546.92
562.77	29364.36
562.93	29867.58
563.10	29907.37
563.26	29666.29
563.42	29830.13
563.59	29855.87
563.75	29876.94
563.92	29956.52
564.08	29799.70
564.24	30078.22
564.41	29844.17
564.57	29874.60
564.74	29696.72
564.90	30316.96
565.07	29905.02
565.23	29780.98
565.39	29874.60
565.56	30164.82
565.72	30071.20
565.88	29951.84
566.05	29996.31
566.21	29923.75
566.38	30244.40
566.54	29806.72
566.70	30522.93
566.87	30546.33
567.03	30323.98
567.19	30469.09
567.36	30361.43
567.52	30089.93
567.68	30377.81
567.85	29905.02
568.01	30494.84
568.17	30363.77
568.34	29930.77
568.50	30174.19
568.66	30232.70
568.83	30663.36
568.99	30125.04
569.15	30230.36
569.32	30169.51
569.48	29670.97
569.64	30412.92
569.81	30213.98
569.97	30167.16
570.13	30361.43
570.30	29603.10
570.46	30492.50
570.62	30391.86
570.78	30602.50
570.95	30221.00
571.11	30338.02
571.27	30183.55
571.43	30272.49
571.60	30490.16
571.76	30677.40
571.92	30799.11
572.09	30331.00
572.25	30338.02
572.41	30572.08
572.57	30106.31
572.74	29958.86
572.90	30302.92
573.06	30146.10
573.22	30419.94
573.38	30597.82
573.55	30206.95
573.71	30665.70
573.87	30668.04
574.03	30377.81
574.20	30401.22
574.36	30403.56
574.52	30469.09
574.68	30384.83
574.84	30202.27
575.01	30134.40
575.17	30328.66
575.33	30462.07
575.49	30536.97
575.65	30780.39
575.82	30604.84
575.98	30398.88
576.14	30771.02
576.30	30691.44
576.46	30424.62
576.62	30553.35
576.79	30333.34
576.95	30499.52
577.11	30593.14
577.27	30801.45
577.43	30536.97
577.59	30459.73
577.75	30897.41
577.92	30384.83
578.08	30398.88
578.24	30649.32
578.40	30532.29
578.56	30464.41
578.72	30661.02
578.88	30874.01
579.04	30728.89
579.21	30604.84
579.37	30754.64
579.53	30740.60
579.69	30267.81
579.85	30525.27
580.01	30623.57
580.17	30696.13
580.33	30572.08
580.49	30504.20
580.65	30733.57
580.82	31084.65
580.98	30813.15
581.14	30644.63
581.30	30504.20
581.46	30354.41
581.62	30754.64
581.78	30490.16
581.94	30424.62
582.10	30359.09
582.26	31058.91
582.42	30904.43
582.58	31033.16
582.74	31168.91
582.90	30817.83
583.06	30937.20
583.22	30705.49
583.38	30941.88
583.54	30677.40
583.70	30663.36
583.86	30827.20
584.02	30366.11
584.18	30756.98
584.34	30792.09
584.50	31101.04
584.66	30689.10
584.82	30546.33
584.98	31077.63
585.14	30897.41
585.30	30775.70
585.46	30492.50
585.62	30726.55
585.78	30558.03
585.94	30775.70
586.10	30878.69
586.26	30700.81
586.42	31192.32
586.58	30845.92
586.74	30874.01
586.90	30429.30
587.06	30377.81
587.22	30749.96
587.38	30691.44
587.54	31325.73
587.70	31168.91
587.86	30916.14
588.02	31161.89
588.18	31140.83
588.34	31014.44
588.49	30843.58
588.65	30967.63
588.81	30611.87
588.97	30827.20
589.13	30848.26
589.29	30967.63
589.45	30960.61
589.61	31222.75
589.77	31065.93
589.93	31398.29
590.08	30927.84
590.24	31459.14
590.40	31405.31
590.56	31559.78
590.72	30845.92
590.88	30958.27
591.04	31428.71
591.20	31330.41
591.35	31414.67
591.51	31405.31
591.67	31243.81
591.83	31580.85
