SpectraSuite Data File
++++++++++++++++++++++++++++++++++++
Date: Fri Oct 18 13:58:42 GMT-05:00 2013
User: bianchi
Dark Spectrum Present: No
Reference Spectrum Present: No
Number of Sampled Component Spectra: 1
Spectrometers: USB2+H05261
Integration Time (usec): 50000 (USB2+H05261)
Spectra Averaged: 1 (USB2+H05261)
Boxcar Smoothing: 0 (USB2+H05261)
Correct for Electrical Dark: No (USB2+H05261)
Strobe/Lamp Enabled: No (USB2+H05261)
Correct for Detector Non-linearity: No (USB2+H05261)
Correct for Stray Light: No (USB2+H05261)
Number of Pixels in Processed Spectrum: 2048
>>>>>Begin Processed Spectral Data<<<<<
365.73	0.00
365.92	0.00
366.12	0.00
366.32	0.00
366.52	0.00
366.72	0.00
366.91	0.00
367.11	0.00
367.31	0.00
367.51	0.00
367.70	0.00
367.90	0.00
368.10	0.00
368.30	0.00
368.49	0.00
368.69	0.00
368.89	0.00
369.09	0.00
369.28	0.00
369.48	0.00
369.68	0.00
369.87	0.00
370.07	0.00
370.27	0.00
370.47	0.00
370.66	72.56
370.86	112.35
371.06	222.35
371.25	177.88
371.45	173.20
371.65	138.09
371.84	98.30
372.04	102.98
372.24	163.84
372.44	168.52
372.63	194.26
372.83	259.80
373.03	191.92
373.22	217.67
373.42	287.89
373.62	203.63
373.81	248.10
374.01	257.46
374.21	210.65
374.40	299.59
374.60	220.01
374.79	182.56
374.99	299.59
375.19	220.01
375.38	259.80
375.58	210.65
375.78	196.60
375.97	297.25
376.17	245.76
376.37	369.80
376.56	318.31
376.76	236.39
376.95	304.27
377.15	365.12
377.35	276.18
377.54	280.86
377.74	236.39
377.93	278.52
378.13	227.03
378.33	266.82
378.52	341.72
378.72	257.46
378.91	257.46
379.11	367.46
379.31	273.84
379.50	234.05
379.70	308.95
379.89	299.59
380.09	292.57
380.28	299.59
380.48	308.95
380.68	248.10
380.87	276.18
381.07	344.06
381.26	315.97
381.46	367.46
381.65	271.50
381.85	304.27
382.04	339.38
382.24	283.20
382.43	315.97
382.63	294.91
382.83	374.49
383.02	367.46
383.22	318.31
383.41	372.15
383.61	344.06
383.80	379.17
384.00	407.25
384.19	386.19
384.39	372.15
384.58	374.49
384.78	404.91
384.97	337.04
385.17	369.80
385.36	414.27
385.56	402.57
385.75	390.87
385.95	386.19
386.14	437.68
386.34	374.49
386.53	407.25
386.72	444.70
386.92	341.72
387.11	404.91
387.31	341.72
387.50	393.21
387.70	374.49
387.89	430.66
388.09	400.23
388.28	374.49
388.48	404.91
388.67	463.43
388.86	404.91
389.06	397.89
389.25	477.47
389.45	475.13
389.64	472.79
389.84	416.62
390.03	477.47
390.22	470.45
390.42	472.79
390.61	423.64
390.81	517.26
391.00	430.66
391.19	519.60
391.39	521.94
391.58	552.37
391.78	519.60
391.97	496.19
392.16	491.51
392.36	606.20
392.55	486.83
392.75	451.72
392.94	524.28
393.13	535.98
393.33	524.28
393.52	477.47
393.71	475.13
393.91	465.77
394.10	547.69
394.29	566.41
394.49	540.66
394.68	535.98
394.88	512.58
395.07	559.39
395.26	585.13
395.46	603.86
395.65	610.88
395.84	585.13
396.04	631.94
396.23	645.99
396.42	664.71
396.62	662.37
396.81	732.59
397.00	608.54
397.19	702.16
397.39	624.92
397.58	704.50
397.77	690.46
397.97	678.76
398.16	653.01
398.35	695.14
398.55	622.58
398.74	779.40
398.93	711.52
399.12	730.25
399.32	664.71
399.51	704.50
399.70	772.38
399.90	772.38
400.09	791.10
400.28	732.59
400.47	823.87
400.67	842.59
400.86	748.97
401.05	713.86
401.24	767.70
401.44	837.91
401.63	833.23
401.82	835.57
402.01	823.87
402.21	809.83
402.40	877.70
402.59	847.27
402.78	882.38
402.97	774.72
403.17	786.42
403.36	861.32
403.55	812.17
403.74	978.34
403.93	912.81
404.13	901.11
404.32	807.48
404.51	950.26
404.70	873.02
404.89	830.89
405.09	884.72
405.28	821.53
405.47	919.83
405.66	999.41
405.85	997.07
406.05	887.06
406.24	966.64
406.43	1053.24
406.62	966.64
406.81	1001.75
407.00	950.26
407.20	999.41
407.39	1006.43
407.58	1137.50
407.77	1036.86
407.96	990.05
408.15	1081.33
408.34	1062.60
408.54	1046.22
408.73	1130.48
408.92	1039.20
409.11	1114.10
409.30	1153.88
409.49	1069.62
409.68	1111.75
409.87	1142.18
410.07	1128.14
410.26	1144.52
410.45	1125.80
410.64	1226.44
410.83	1177.29
411.02	1196.01
411.21	1210.06
411.40	1205.38
411.59	1256.87
411.78	1275.59
411.98	1277.93
412.17	1212.40
412.36	1259.21
412.55	1235.80
412.74	1364.53
412.93	1299.00
413.12	1357.51
413.31	1469.86
413.50	1453.47
413.69	1287.29
413.88	1446.45
414.07	1413.68
414.26	1467.52
414.45	1451.13
414.64	1397.30
414.83	1427.73
415.02	1486.24
415.22	1570.50
415.41	1476.88
415.60	1582.20
415.79	1603.27
415.98	1589.22
416.17	1600.93
416.36	1624.33
416.55	1523.69
416.74	1603.27
416.93	1638.38
417.12	1668.80
417.31	1666.46
417.50	1708.59
417.69	1764.76
417.88	1743.70
418.07	1729.66
418.26	1771.79
418.45	1750.72
418.64	1774.13
418.83	1755.40
419.02	1729.66
419.21	1799.87
419.39	1837.32
419.58	1732.00
419.77	1811.57
419.96	1809.23
420.15	1900.52
420.34	1916.90
420.53	1792.85
420.72	1930.94
420.91	1872.43
421.10	1902.86
421.29	1968.39
421.48	1942.64
421.67	2003.50
421.86	1863.07
422.05	1975.41
422.24	1970.73
422.43	1928.60
422.61	1935.62
422.80	1994.14
422.99	1970.73
423.18	2071.37
423.37	2040.95
423.56	1998.82
423.75	1975.41
423.94	2008.18
424.13	1900.52
424.32	1989.46
424.50	2038.61
424.69	2087.76
424.88	2062.01
425.07	1970.73
425.26	1961.37
425.45	2026.90
425.64	1980.09
425.83	2125.21
426.01	2019.88
426.20	2090.10
426.39	1952.01
426.58	2019.88
426.77	1991.80
426.96	2062.01
427.15	2012.86
427.33	2022.22
427.52	2019.88
427.71	2036.27
427.90	2186.06
428.09	2153.29
428.28	2155.63
428.46	2204.78
428.65	2181.38
428.84	2143.93
429.03	2258.62
429.22	2148.61
429.40	2188.40
429.59	2335.85
429.78	2157.97
429.97	2097.12
430.16	2153.29
430.34	2279.68
430.53	2317.13
430.72	2347.56
430.91	2267.98
431.10	2265.64
431.28	2340.54
431.47	2392.03
431.66	2408.41
431.85	2492.67
432.03	2410.75
432.22	2485.65
432.41	2436.50
432.60	2541.82
432.79	2392.03
432.97	2431.82
433.16	2422.45
433.35	2485.65
433.54	2518.42
433.72	2506.71
433.91	2492.67
434.10	2436.50
434.28	2516.08
434.47	2485.65
434.66	2623.74
434.85	2583.95
435.03	2630.76
435.22	2471.61
435.41	2696.30
435.59	2595.65
435.78	2738.43
435.97	2635.44
436.16	2609.70
436.34	2778.22
436.53	2712.68
436.72	2722.04
436.90	2712.68
437.09	2789.92
437.28	2736.09
437.46	2602.68
437.65	2810.98
437.84	2736.09
438.02	2754.81
438.21	2696.30
438.40	2729.06
438.58	2761.83
438.77	2906.95
438.96	2754.81
439.14	2902.26
439.33	2897.58
439.52	2986.52
439.70	2984.18
439.89	2918.65
440.08	2928.01
440.26	3145.68
440.45	3122.27
440.63	3126.96
440.82	3089.51
441.01	3089.51
441.19	3173.77
441.38	3197.17
441.57	3255.69
441.75	3253.34
441.94	3122.27
442.12	3363.35
442.31	3288.45
442.50	3283.77
442.68	3304.84
442.87	3213.56
443.05	3176.11
443.24	3377.39
443.43	3391.44
443.61	3316.54
443.80	3506.12
443.98	3335.26
444.17	3234.62
444.35	3339.94
444.54	3524.85
444.73	3447.61
444.91	3407.82
445.10	3485.06
445.28	3501.44
445.47	3379.73
445.65	3485.06
445.84	3456.97
446.02	3515.48
446.21	3398.46
446.39	3461.65
446.58	3403.14
446.77	3428.88
446.95	3407.82
447.14	3468.67
447.32	3494.42
447.51	3405.48
447.69	3510.80
447.88	3466.33
448.06	3548.25
448.25	3398.46
448.43	3576.34
448.62	3520.17
448.80	3480.38
448.99	3559.95
449.17	3555.27
449.36	3571.66
449.54	3644.21
449.73	3693.37
449.91	3672.30
450.10	3609.11
450.28	3789.33
450.46	3688.68
450.65	3691.02
450.83	3859.54
451.02	3740.18
451.20	3763.58
451.39	3812.73
451.57	3751.88
451.76	3676.98
451.94	3688.68
452.13	3758.90
452.31	3857.20
452.49	3777.62
452.68	3852.52
452.86	3864.22
453.05	3859.54
453.23	4032.74
453.42	3868.91
453.60	3983.59
453.78	3997.64
453.97	3737.84
454.15	3836.14
454.34	3955.51
454.52	4056.15
454.70	3941.46
454.89	4070.19
455.07	4002.32
455.26	4170.83
455.44	4114.66
455.62	4002.32
455.81	4072.53
455.99	4109.98
456.17	4077.21
456.36	4011.68
456.54	4145.09
456.73	4222.33
456.91	4283.18
457.09	4306.59
457.28	4273.82
457.46	4285.52
457.64	4442.34
457.83	4187.22
458.01	4409.57
458.19	4440.00
458.38	4339.35
458.56	4421.27
458.74	4397.87
458.93	4374.46
459.11	4507.87
459.29	4423.61
459.48	4465.74
459.66	4411.91
459.84	4367.44
460.03	4531.28
460.21	4329.99
460.39	4535.96
460.57	4472.76
460.76	4491.49
460.94	4596.81
461.12	4491.49
461.31	4667.03
461.49	4655.33
461.67	4519.57
461.85	4720.86
462.04	4662.35
462.22	4688.09
462.40	4751.29
462.59	4620.22
462.77	4737.24
462.95	4791.08
463.13	4814.48
463.32	4589.79
463.50	4901.08
463.68	4882.36
463.86	4734.90
464.05	4856.61
464.23	4660.01
464.41	4926.83
464.59	4741.93
464.78	5055.56
464.96	4765.33
465.14	4837.89
465.32	4980.66
465.50	4865.97
465.69	5123.43
465.87	4971.30
466.05	4926.83
466.23	5069.60
466.41	5111.73
466.60	5160.88
466.78	4957.25
466.96	4880.02
467.14	4999.38
467.32	5015.77
467.51	5249.82
467.69	4924.49
467.87	4936.19
468.05	5048.54
468.23	5097.69
468.41	5135.14
468.60	5280.25
468.78	5263.86
468.96	5123.43
469.14	5221.74
469.32	5366.85
469.50	5277.91
469.69	5345.78
469.87	5224.08
470.05	5460.47
470.23	5249.82
470.41	5313.02
470.59	5408.98
470.77	5373.87
470.95	5420.68
471.14	5479.19
471.32	5453.45
471.50	5589.20
471.68	5507.28
471.86	5638.35
472.04	5416.00
472.22	5596.22
472.40	5607.92
472.58	5661.76
472.77	5706.23
472.95	5874.74
473.13	6031.56
473.31	5797.51
473.49	5701.54
473.67	5879.43
473.85	5823.25
474.03	5977.73
474.21	5954.32
474.39	6008.16
474.57	5884.11
474.75	6169.65
474.93	6085.39
475.12	6017.52
475.30	6054.97
475.48	6061.99
475.66	6167.31
475.84	6169.65
476.02	6303.06
476.20	6394.34
476.38	6434.13
476.56	6338.17
476.74	6382.64
476.92	6527.75
477.10	6424.77
477.28	6588.61
477.46	6705.63
477.64	6637.76
477.82	6867.13
478.00	6909.26
478.18	6754.79
478.36	6965.43
478.54	6904.58
478.72	7096.50
478.90	6925.65
479.08	7143.32
479.26	7253.32
479.44	7187.79
479.62	7431.20
479.80	7393.75
479.98	7398.43
480.16	7555.25
480.34	7480.35
480.52	7595.04
480.70	7719.09
480.88	7473.33
481.06	7688.66
481.24	7723.77
481.41	7665.25
481.59	7721.43
481.77	8013.99
481.95	8102.93
482.13	7929.74
482.31	8084.21
482.49	8032.72
482.67	8318.26
482.85	8292.52
483.03	8360.39
483.21	8257.41
483.39	8519.55
483.57	8409.54
483.74	8454.02
483.92	8585.08
484.10	8552.32
484.28	8830.84
484.46	8992.34
484.64	9160.86
484.82	8964.25
485.00	8945.53
485.18	9062.55
485.35	9364.48
485.53	9111.71
485.71	9408.95
485.89	9497.89
486.07	9355.12
486.25	9507.26
486.43	9528.32
486.61	9706.20
486.78	9949.62
486.96	10029.20
487.14	10101.75
487.32	9874.72
487.50	9846.63
487.68	10073.67
487.85	10207.08
488.03	10539.43
488.21	10289.00
488.39	10497.30
488.57	10616.67
488.75	10572.20
488.92	10738.38
489.10	10747.74
489.28	10942.00
489.46	10991.16
489.64	10869.45
489.81	11096.48
489.99	11190.10
490.17	11250.96
490.35	11765.87
490.53	11461.60
490.70	11489.69
490.88	11538.84
491.06	11595.01
491.24	11517.78
491.41	11812.68
491.59	11798.64
491.77	11922.69
491.95	11761.19
492.13	11922.69
492.30	12170.79
492.48	12245.68
492.66	12217.60
492.84	12255.04
493.01	12554.63
493.19	12280.79
493.37	12704.43
493.54	12718.47
493.72	12573.36
493.90	12816.77
494.08	12945.50
494.25	12910.40
494.43	12842.52
494.61	13137.43
494.79	13099.98
494.96	13076.57
495.14	13050.83
495.32	13312.97
495.49	13149.13
495.67	13451.06
495.85	13532.98
496.02	13692.13
496.20	13692.13
496.38	13905.12
496.55	13858.31
496.73	14127.47
496.91	14207.05
497.09	14277.27
497.26	14366.21
497.44	14052.58
497.62	14258.54
497.79	14483.24
497.97	14256.20
498.14	14462.17
498.32	14647.07
498.50	14628.35
498.67	14728.99
498.85	14618.99
499.03	14862.40
499.20	14979.43
499.38	15016.88
499.56	15059.01
499.73	15084.75
499.91	15157.31
500.08	15321.15
500.26	15131.56
500.44	15468.60
500.61	15400.72
500.79	15482.64
500.97	15503.71
501.14	15740.10
501.32	16009.26
501.49	15522.43
501.67	15723.72
501.84	15761.17
502.02	15688.61
502.20	16053.73
502.37	16086.50
502.55	16020.97
502.72	16159.06
502.90	16091.18
503.07	16105.23
503.25	16137.99
503.43	16142.67
503.60	16446.94
503.78	16276.09
503.95	16421.20
504.13	16067.78
504.30	16475.03
504.48	16404.81
504.65	16578.01
504.83	16872.92
505.01	17118.68
505.18	16666.95
505.36	17060.16
505.53	16690.36
505.71	16940.80
505.88	16910.37
506.06	16910.37
506.23	17298.90
506.41	17167.83
506.58	16973.56
506.76	17305.92
506.93	17266.13
507.11	17474.44
507.28	17696.79
507.46	17338.69
507.63	17448.69
507.81	17848.93
507.98	17692.11
508.16	17483.80
508.33	17385.50
508.50	17820.84
508.68	17699.13
508.85	18085.32
509.03	17598.49
509.20	17994.04
509.38	18160.22
509.55	18520.66
509.73	18129.79
509.90	18071.28
510.08	17991.70
510.25	18602.58
510.42	18665.77
510.60	18494.91
510.77	18693.86
510.95	18497.25
511.12	18696.20
511.30	18478.53
511.47	18602.58
511.64	18497.25
511.82	18555.77
511.99	18810.89
512.17	18939.62
512.34	18899.83
512.51	19084.73
512.69	19087.07
512.86	19051.96
513.04	19012.17
513.21	19271.97
513.38	19396.02
513.56	19213.46
513.73	19391.34
513.90	19379.64
514.08	19260.27
514.25	19318.78
514.43	19648.80
514.60	19489.64
514.77	19632.41
514.95	19747.10
515.12	19639.44
515.29	19611.35
515.47	19679.22
515.64	19817.32
515.81	19974.13
515.99	19981.15
516.16	20152.01
516.33	20084.14
516.51	20180.10
516.68	19946.05
516.85	20013.92
517.03	20140.31
517.20	20205.84
517.37	20226.91
517.54	20465.64
517.72	20442.24
517.89	20496.07
518.06	20325.21
518.24	20531.18
518.41	20365.00
518.58	20741.83
518.75	20720.76
518.93	20779.28
519.10	20882.26
519.27	20819.07
519.45	20840.13
519.62	20947.79
519.79	20879.92
519.96	20877.58
520.14	21010.99
520.31	21006.31
520.48	21226.32
520.65	21025.03
520.83	21319.94
521.00	21247.38
521.17	21343.35
521.34	21149.08
521.52	21275.47
521.69	21546.97
521.86	21678.04
522.03	21680.38
522.20	21415.90
522.38	21469.73
522.55	21820.81
522.72	21556.33
522.89	22183.60
523.07	22036.14
523.24	22005.72
523.41	21972.95
523.58	21638.25
523.75	22064.23
523.92	21722.51
524.10	21708.47
524.27	21862.94
524.44	22108.70
524.61	22345.09
524.78	22178.92
524.96	22008.06
525.13	22455.10
525.30	22162.53
525.47	22120.40
525.64	22356.80
525.81	22614.26
525.98	22874.06
526.16	22640.00
526.33	22656.39
526.50	22483.19
526.67	22632.98
526.84	22754.69
527.01	22560.42
527.18	22565.10
527.36	22588.51
527.53	22986.40
527.70	23213.43
527.87	23122.15
528.04	22787.46
528.21	22988.74
528.38	23047.26
528.55	23154.92
528.72	23325.78
528.89	23330.46
529.07	23288.33
529.24	23033.21
529.41	23461.53
529.58	23110.45
529.75	23152.58
529.92	23283.65
530.09	23630.05
530.26	23536.43
530.43	23339.82
530.60	23381.95
530.77	23534.09
530.94	23468.55
531.11	23206.41
531.28	23735.37
531.46	23735.37
531.63	23828.99
531.80	23828.99
531.97	23789.20
532.14	23800.91
532.31	23728.35
532.48	23463.87
532.65	23800.91
532.82	23665.16
532.99	24116.88
533.16	23866.44
533.33	24208.16
533.50	24266.67
533.67	24123.90
533.84	24149.65
534.01	24027.94
534.18	24203.48
534.35	24175.39
534.52	24077.09
534.69	24226.89
534.86	24484.34
535.03	24580.31
535.20	24428.17
535.37	24409.45
535.54	24697.33
535.71	24077.09
535.88	24276.04
536.05	24676.27
536.22	24819.04
536.38	24999.26
536.55	24699.67
536.72	25055.43
536.89	24418.81
537.06	24723.08
537.23	24561.58
537.40	25064.80
537.57	24805.00
537.74	24900.96
537.91	24924.36
538.08	25076.50
538.25	24854.15
538.42	25062.46
538.59	24774.57
538.75	24947.77
538.92	24879.89
539.09	25022.67
539.26	25348.00
539.43	25450.99
539.60	25383.11
539.77	25226.29
539.94	25198.21
540.11	25212.25
540.28	25256.72
540.44	25310.55
540.61	25331.62
540.78	25277.79
540.95	25209.91
541.12	25420.56
541.29	25420.56
541.46	25132.67
541.62	25324.60
541.79	25465.03
541.96	25757.60
542.13	25539.93
542.30	25518.86
542.47	26015.05
542.63	25731.85
542.80	25591.42
542.97	26178.89
543.14	26302.94
543.31	26160.17
543.48	26050.16
543.64	26199.96
543.81	26073.57
543.98	26031.44
544.15	26132.08
544.32	26649.34
544.48	26548.70
544.65	26511.25
544.82	26174.21
544.99	25963.56
545.16	26206.98
545.32	26258.47
545.49	26572.10
545.66	26593.17
545.83	26569.76
546.00	26895.10
546.16	26218.68
546.33	26272.51
546.50	26146.12
546.67	26560.40
546.83	26293.58
547.00	26583.80
547.17	26731.26
547.34	26895.10
547.50	26579.12
547.67	26698.49
547.84	26721.90
548.00	26923.18
548.17	27014.46
548.34	26611.89
548.51	26792.11
548.67	27035.53
548.84	27115.11
549.01	26988.72
549.18	27016.80
549.34	26862.33
549.51	26855.31
549.68	27274.26
549.84	26979.36
550.01	27147.87
550.18	27267.24
550.34	27559.81
550.51	27583.21
550.68	27225.11
550.84	27110.43
551.01	26991.06
551.18	27084.68
551.34	26721.90
551.51	27168.94
551.68	27201.71
551.84	27367.88
552.01	27295.33
552.18	27590.24
552.34	27454.48
552.51	27676.83
552.68	27545.76
552.84	27304.69
553.01	27442.78
553.18	27438.10
553.34	27737.69
553.51	27976.42
553.67	28081.75
553.84	28292.40
554.01	27798.54
554.17	27681.52
554.34	27674.49
554.51	27690.88
554.67	27693.22
554.84	27672.15
555.00	27683.86
555.17	27983.44
555.33	27821.95
555.50	28013.87
555.67	27861.74
555.83	27772.80
556.00	27473.21
556.16	28407.08
556.33	28016.21
556.50	28105.15
556.66	28168.35
556.83	28067.70
556.99	28477.30
557.16	28168.35
557.32	28379.00
557.49	28119.20
557.65	28198.77
557.82	28231.54
557.98	27723.65
558.15	27978.76
558.32	28645.82
558.48	28268.99
558.65	28032.60
558.81	28348.57
558.98	28395.38
559.14	28254.95
559.31	28182.39
559.47	28259.63
559.64	28589.64
559.80	28699.65
559.97	28854.12
560.13	28608.37
560.30	28470.28
560.46	28744.12
560.63	28547.51
560.79	28699.65
560.96	28664.54
561.12	28875.19
561.29	28402.40
561.45	28622.41
561.61	28746.46
561.78	28594.32
561.94	28664.54
562.11	29008.60
562.27	28676.24
562.44	28676.24
562.60	28694.97
562.77	28589.64
562.93	28212.82
563.10	28926.68
563.26	28851.78
563.42	28912.64
563.59	28680.92
563.75	28819.02
563.92	28896.25
564.08	28732.42
564.24	28903.28
564.41	28657.52
564.57	28634.11
564.74	28617.73
564.90	29092.86
565.07	28734.76
565.23	28624.75
565.39	29130.31
565.56	28980.51
565.72	29151.37
565.88	29261.38
566.05	28929.02
566.21	29092.86
566.38	28741.78
566.54	29401.81
566.70	29102.22
566.87	29399.47
567.03	29078.82
567.19	29298.83
567.36	29160.73
567.52	28732.42
567.68	29308.19
567.85	28711.35
568.01	29074.13
568.17	29109.24
568.34	28975.83
568.50	29024.98
568.66	29020.30
568.83	29160.73
568.99	29514.16
569.15	29766.93
569.32	28945.41
569.48	29034.35
569.64	29144.35
569.81	29139.67
569.97	29462.66
570.13	29013.28
570.30	29305.85
570.46	29062.43
570.62	29369.04
570.78	29003.92
570.95	28973.49
571.11	29401.81
571.27	28919.66
571.43	28914.98
571.60	29486.07
571.76	28950.09
571.92	29291.80
572.09	29441.60
572.25	29039.03
572.41	29322.23
572.57	29177.12
572.74	29399.47
572.90	29153.71
573.06	29160.73
573.22	29518.84
573.38	29493.09
573.55	29095.20
573.71	29371.38
573.87	29663.95
574.03	29291.80
574.20	29053.07
574.36	29144.35
574.52	29167.76
574.68	29399.47
574.84	29453.30
575.01	29242.65
575.17	29343.30
575.33	29713.10
575.49	29476.71
575.65	29603.10
575.82	29167.76
575.98	29186.48
576.14	29371.38
576.30	29277.76
576.46	29312.87
576.62	29415.85
576.79	29310.53
576.95	29371.38
577.11	29380.74
577.27	29764.59
577.43	29355.00
577.59	29371.38
577.75	29347.98
577.92	29071.79
578.08	29617.14
578.24	29120.95
578.40	29352.66
578.56	29640.54
578.72	29532.88
578.88	30015.03
579.04	29687.36
579.21	29549.26
579.37	29780.98
579.53	29301.17
579.69	29163.08
579.85	29654.59
580.01	29649.91
580.17	29465.00
580.33	29556.28
580.49	29575.01
580.65	29682.67
580.82	29385.43
580.98	29710.76
581.14	29425.22
581.30	29752.89
581.46	29930.77
581.62	29500.11
581.78	29453.30
581.94	29343.30
582.10	29338.62
582.26	29731.83
582.42	29530.54
582.58	29345.64
582.74	29649.91
582.90	29811.40
583.06	29661.61
583.22	29490.75
583.38	29488.41
583.54	29319.89
583.70	29221.59
583.86	29755.23
584.02	29715.44
584.18	29614.80
584.34	29621.82
584.50	29921.41
584.66	29893.32
584.82	29652.25
584.98	29937.79
585.14	29649.91
585.30	29598.41
585.46	29584.37
585.62	29439.26
585.78	29675.65
585.94	29301.17
586.10	29680.33
586.26	29731.83
586.42	29837.15
586.58	29933.11
586.74	30129.72
586.90	30008.01
587.06	29425.22
587.22	29666.29
587.38	29766.93
587.54	29874.60
587.70	29993.97
587.86	29844.17
588.02	29804.38
588.18	29970.56
588.34	30263.13
588.49	29677.99
588.65	29748.21
588.81	29383.09
588.97	29827.79
589.13	30040.78
589.29	29930.77
589.45	29825.45
589.61	30307.60
589.77	30202.27
589.93	29977.58
590.08	30391.86
590.24	30167.16
590.40	30426.96
590.56	30342.70
590.72	29860.55
590.88	29502.45
591.04	30122.69
591.20	30211.64
591.35	30085.25
591.51	30003.33
591.67	30373.13
591.83	30354.41
591.99	30164.82
