SpectraSuite Data File
++++++++++++++++++++++++++++++++++++
Date: Fri Oct 18 13:58:25 GMT-05:00 2013
User: bianchi
Dark Spectrum Present: No
Reference Spectrum Present: No
Number of Sampled Component Spectra: 1
Spectrometers: USB2+H05261
Integration Time (usec): 50000 (USB2+H05261)
Spectra Averaged: 1 (USB2+H05261)
Boxcar Smoothing: 0 (USB2+H05261)
Correct for Electrical Dark: No (USB2+H05261)
Strobe/Lamp Enabled: No (USB2+H05261)
Correct for Detector Non-linearity: No (USB2+H05261)
Correct for Stray Light: No (USB2+H05261)
Number of Pixels in Processed Spectrum: 2048
>>>>>Begin Processed Spectral Data<<<<<
365.73	0.00
365.92	0.00
366.12	0.00
366.32	0.00
366.52	0.00
366.72	0.00
366.91	0.00
367.11	0.00
367.31	0.00
367.51	0.00
367.70	0.00
367.90	0.00
368.10	0.00
368.30	0.00
368.49	0.00
368.69	0.00
368.89	0.00
369.09	0.00
369.28	0.00
369.48	0.00
369.68	0.00
369.87	0.00
370.07	0.00
370.27	0.00
370.47	0.00
370.66	53.83
370.86	32.77
371.06	105.32
371.25	107.66
371.45	184.90
371.65	147.45
371.84	184.90
372.04	210.65
372.24	187.24
372.44	121.71
372.63	203.63
372.83	145.11
373.03	212.99
373.22	194.26
373.42	175.54
373.62	255.12
373.81	243.42
374.01	175.54
374.21	287.89
374.40	187.24
374.60	241.08
374.79	196.60
374.99	313.63
375.19	212.99
375.38	180.22
375.58	198.95
375.78	250.44
375.97	177.88
376.17	212.99
376.37	266.82
376.56	276.18
376.76	259.80
376.95	280.86
377.15	259.80
377.35	262.14
377.54	220.01
377.74	271.50
377.93	259.80
378.13	306.61
378.33	229.37
378.52	264.48
378.72	304.27
378.91	376.83
379.11	262.14
379.31	227.03
379.50	285.55
379.70	259.80
379.89	416.62
380.09	372.15
380.28	313.63
380.48	327.68
380.68	215.33
380.87	257.46
381.07	348.74
381.26	306.61
381.46	362.78
381.65	290.23
381.85	327.68
382.04	327.68
382.24	409.59
382.43	348.74
382.63	320.65
382.83	315.97
383.02	409.59
383.22	358.10
383.41	266.82
383.61	292.57
383.80	395.55
384.00	360.44
384.19	369.80
384.39	322.99
384.58	379.17
384.78	395.55
384.97	383.85
385.17	435.34
385.36	374.49
385.56	355.76
385.75	402.57
385.95	411.93
386.14	463.43
386.34	416.62
386.53	430.66
386.72	383.85
386.92	341.72
387.11	358.10
387.31	430.66
387.50	379.17
387.70	470.45
387.89	444.70
388.09	430.66
388.28	388.53
388.48	484.49
388.67	470.45
388.86	545.34
389.06	433.00
389.25	482.15
389.45	440.02
389.64	465.77
389.84	468.11
390.03	475.13
390.22	491.51
390.42	479.81
390.61	475.13
390.81	470.45
391.00	543.00
391.19	477.47
391.39	486.83
391.58	489.17
391.78	496.19
391.97	407.25
392.16	496.19
392.36	573.43
392.55	491.51
392.75	498.53
392.94	491.51
393.13	503.22
393.33	519.60
393.52	561.73
393.71	585.13
393.91	559.39
394.10	610.88
394.29	589.82
394.49	585.13
394.68	641.31
394.88	631.94
395.07	599.18
395.26	582.79
395.46	613.22
395.65	596.84
395.84	568.75
396.04	674.07
396.23	603.86
396.42	641.31
396.62	669.39
396.81	688.12
397.00	643.65
397.19	603.86
397.39	664.71
397.58	617.90
397.77	699.82
397.97	615.56
398.16	706.84
398.35	772.38
398.55	592.16
398.74	730.25
398.93	676.41
399.12	730.25
399.32	730.25
399.51	692.80
399.70	725.57
399.90	720.88
400.09	716.20
400.28	734.93
400.47	716.20
400.67	763.01
400.86	765.36
401.05	793.44
401.24	777.06
401.44	746.63
401.63	770.04
401.82	781.74
402.01	725.57
402.21	746.63
402.40	791.10
402.59	884.72
402.78	765.36
402.97	802.80
403.17	851.96
403.36	891.74
403.55	830.89
403.74	976.00
403.93	805.14
404.13	954.94
404.32	915.15
404.51	858.98
404.70	954.94
404.89	978.34
405.09	922.17
405.28	952.60
405.47	931.53
405.66	997.07
405.85	983.02
406.05	936.21
406.24	976.00
406.43	987.71
406.62	1032.18
406.81	983.02
407.00	990.05
407.20	1071.97
407.39	1001.75
407.58	1036.86
407.77	978.34
407.96	1090.69
408.15	1088.35
408.34	1086.01
408.54	1165.59
408.73	1001.75
408.92	1067.28
409.11	1109.41
409.30	1142.18
409.49	1102.39
409.68	1153.88
409.87	1109.41
410.07	1111.75
410.26	1135.16
410.45	1090.69
410.64	1191.33
410.83	1247.51
411.02	1249.85
411.21	1212.40
411.40	1247.51
411.59	1277.93
411.78	1238.14
411.98	1153.88
412.17	1203.04
412.36	1249.85
412.55	1294.32
412.74	1364.53
412.93	1448.79
413.12	1299.00
413.31	1373.89
413.50	1434.75
413.69	1423.05
413.88	1439.43
414.07	1439.43
414.26	1469.86
414.45	1455.81
414.64	1394.96
414.83	1355.17
415.02	1488.58
415.22	1446.45
415.41	1476.88
415.60	1570.50
415.79	1535.39
415.98	1544.75
416.17	1502.62
416.36	1589.22
416.55	1511.99
416.74	1605.61
416.93	1715.61
417.12	1659.44
417.31	1668.80
417.50	1678.16
417.69	1809.23
417.88	1713.27
418.07	1682.85
418.26	1694.55
418.45	1664.12
418.64	1785.83
418.83	1877.11
419.02	1710.93
419.21	1757.74
419.39	1816.26
419.58	1844.34
419.77	1750.72
419.96	1827.96
420.15	1834.98
420.34	1898.17
420.53	1809.23
420.72	1895.83
420.91	1902.86
421.10	1860.73
421.29	1905.20
421.48	1846.68
421.67	1975.41
421.86	1952.01
422.05	2024.56
422.24	1825.62
422.43	1849.02
422.61	1926.26
422.80	1989.46
422.99	1851.36
423.18	1977.75
423.37	1984.77
423.56	1937.96
423.75	1989.46
423.94	1935.62
424.13	1820.94
424.32	1952.01
424.50	2157.97
424.69	2115.84
424.88	2047.97
425.07	2087.76
425.26	1982.43
425.45	1930.94
425.64	1877.11
425.83	1968.39
426.01	2052.65
426.20	2036.27
426.39	2005.84
426.58	2008.18
426.77	2052.65
426.96	1937.96
427.15	2062.01
427.33	2106.48
427.52	2057.33
427.71	2097.12
427.90	2136.91
428.09	2108.82
428.28	2127.55
428.46	2162.66
428.65	2172.02
428.84	2120.53
429.03	2179.04
429.22	2188.40
429.40	2279.68
429.59	2246.91
429.78	2165.00
429.97	2050.31
430.16	2162.66
430.34	2193.08
430.53	2319.47
430.72	2239.89
430.91	2312.45
431.10	2218.83
431.28	2260.96
431.47	2352.24
431.66	2394.37
431.85	2260.96
432.03	2314.79
432.22	2380.32
432.41	2368.62
432.60	2478.63
432.79	2396.71
432.97	2443.52
433.16	2415.43
433.35	2466.92
433.54	2548.84
433.72	2356.92
433.91	2462.24
434.10	2406.07
434.28	2520.76
434.47	2574.59
434.66	2682.25
434.85	2534.80
435.03	2509.05
435.22	2534.80
435.41	2651.83
435.59	2672.89
435.78	2635.44
435.97	2672.89
436.16	2684.59
436.34	2738.43
436.53	2686.94
436.72	2752.47
436.90	2600.34
437.09	2778.22
437.28	2609.70
437.46	2693.96
437.65	2745.45
437.84	2796.94
438.02	2649.49
438.21	2775.88
438.40	2731.41
438.58	2881.20
438.77	2787.58
438.96	2881.20
439.14	2869.50
439.33	2977.16
439.52	3014.61
439.70	2862.48
439.89	3026.31
440.08	2832.05
440.26	3005.25
440.45	2972.48
440.63	2988.86
440.82	3117.59
441.01	3019.29
441.19	3105.89
441.38	3077.80
441.57	3229.94
441.75	3089.51
441.94	3335.26
442.12	3260.37
442.31	3246.32
442.50	3234.62
442.68	3204.19
442.87	3269.73
443.05	3260.37
443.24	3300.16
443.43	3297.81
443.61	3433.57
443.80	3487.40
443.98	3393.78
444.17	3187.81
444.35	3487.40
444.54	3351.65
444.73	3424.20
444.91	3424.20
445.10	3492.08
445.28	3442.93
445.47	3239.30
445.65	3466.33
445.84	3531.87
446.02	3461.65
446.21	3407.82
446.39	3297.81
446.58	3492.08
446.77	3377.39
446.95	3332.92
447.14	3372.71
447.32	3637.19
447.51	3412.50
447.69	3417.18
447.88	3569.32
448.06	3506.12
448.25	3578.68
448.43	3468.67
448.62	3557.61
448.80	3365.69
448.99	3531.87
449.17	3578.68
449.36	3480.38
449.54	3569.32
449.73	3578.68
449.91	3674.64
450.10	3817.41
450.28	3740.18
450.46	3578.68
450.65	3733.15
450.83	3618.47
451.02	3730.81
451.20	3688.68
451.39	3740.18
451.57	3597.40
451.76	3616.13
451.94	3733.15
452.13	3852.52
452.31	3782.31
452.49	3695.71
452.68	3885.29
452.86	3941.46
453.05	3999.98
453.23	3840.82
453.42	3789.33
453.60	3859.54
453.78	3999.98
453.97	3955.51
454.15	3786.99
454.34	3819.75
454.52	3913.38
454.70	3925.08
454.89	3913.38
455.07	3920.40
455.26	4065.51
455.44	4042.11
455.62	3915.72
455.81	3955.51
455.99	3908.69
456.17	4133.39
456.36	4007.00
456.54	4072.53
456.73	4241.05
456.91	4180.20
457.09	4234.03
457.28	4355.74
457.46	4161.47
457.64	4280.84
457.83	4283.18
458.01	4334.67
458.19	4531.28
458.38	4283.18
458.56	4421.27
458.74	4421.27
458.93	4454.04
459.11	4374.46
459.29	4428.29
459.48	4266.80
459.66	4409.57
459.84	4432.97
460.03	4451.70
460.21	4376.80
460.39	4512.55
460.57	4320.63
460.76	4564.04
460.94	4573.41
461.12	4636.60
461.31	4575.75
461.49	4521.92
461.67	4671.71
461.85	4681.07
462.04	4596.81
462.22	4786.40
462.40	4594.47
462.59	4734.90
462.77	4711.50
462.95	4741.93
463.13	4695.11
463.32	4807.46
463.50	4805.12
463.68	4865.97
463.86	4887.04
464.05	4734.90
464.23	4856.61
464.41	4952.57
464.59	4755.97
464.78	4961.94
464.96	4849.59
465.14	4807.46
465.32	4947.89
465.50	4961.94
465.69	4922.15
465.87	4924.49
466.05	4940.87
466.23	4919.81
466.41	4997.04
466.60	5104.71
466.78	4901.08
466.96	4950.23
467.14	4917.47
467.32	5069.60
467.51	5149.18
467.69	5090.67
467.87	4992.36
468.05	5114.07
468.23	4936.19
468.41	4985.34
468.60	5128.11
468.78	5259.18
468.96	5081.30
469.14	5165.56
469.32	5179.61
469.50	5071.94
469.69	5245.14
469.87	5338.76
470.05	5383.23
470.23	5341.10
470.41	5371.53
470.59	5441.75
470.77	5268.55
470.95	5432.38
471.14	5540.05
471.32	5430.04
471.50	5500.26
471.68	5439.40
471.86	5511.96
472.04	5490.90
472.22	5722.61
472.40	5570.48
472.58	5614.95
472.77	5565.79
472.95	5731.97
473.13	5870.06
473.31	5680.48
473.49	5685.16
473.67	5909.85
473.85	5757.72
474.03	5966.03
474.21	5881.77
474.39	5935.60
474.57	6029.22
474.75	6150.93
474.93	6101.78
475.12	6078.37
475.30	6179.01
475.48	6052.63
475.66	6300.72
475.84	6097.10
476.02	6237.53
476.20	6324.13
476.38	6457.54
476.56	6539.46
476.74	6586.27
476.92	6436.47
477.10	6497.33
477.28	6518.39
477.46	6602.65
477.64	6677.55
477.82	6806.28
478.00	6855.43
478.18	6883.52
478.36	7126.93
478.54	6930.33
478.72	7087.14
478.90	7075.44
479.08	7026.29
479.26	7288.43
479.44	7307.15
479.62	7035.65
479.80	7428.86
479.98	7349.28
480.16	7513.12
480.34	7463.97
480.52	7581.00
480.70	7653.55
480.88	7433.54
481.06	7641.85
481.24	7538.87
481.41	7763.56
481.59	7765.90
481.77	7906.33
481.95	7932.08
482.13	8070.17
482.31	7861.86
482.49	8124.00
482.67	8187.19
482.85	8290.18
483.03	8322.94
483.21	8613.17
483.39	8461.04
483.57	8491.46
483.74	8716.16
483.92	8706.79
484.10	8428.27
484.28	8851.91
484.46	8926.80
484.64	9151.49
484.82	8734.88
485.00	8933.82
485.18	9107.02
485.35	9198.31
485.53	9029.79
485.71	9502.58
485.89	9511.94
486.07	9380.87
486.25	9352.78
486.43	9486.19
486.61	9675.77
486.78	9661.73
486.96	9678.12
487.14	9813.87
487.32	10209.42
487.50	10101.75
487.68	10001.11
487.85	10244.52
488.03	10141.54
488.21	10438.79
488.39	10307.72
488.57	10431.77
488.75	10448.15
488.92	10785.19
489.10	10703.27
489.28	10743.06
489.46	11056.69
489.64	10867.11
489.81	11239.25
489.99	11159.67
490.17	11084.78
490.35	11356.28
490.53	11400.75
490.70	11492.03
490.88	11384.37
491.06	11604.38
491.24	11513.10
491.41	11892.26
491.59	11637.14
491.77	11976.52
491.95	12049.08
492.13	12002.27
492.30	12229.30
492.48	12044.40
492.66	11974.18
492.84	12100.57
493.01	12322.92
493.19	12346.33
493.37	12437.61
493.54	12585.06
493.72	12650.60
493.90	12882.31
494.08	12950.18
494.25	13020.40
494.43	13055.51
494.61	12971.25
494.79	13165.51
494.96	13018.06
495.14	13219.35
495.32	13228.71
495.49	13317.65
495.67	13474.46
495.85	13385.52
496.02	13795.12
496.20	13710.86
496.38	13951.93
496.55	14071.30
496.73	14057.26
496.91	14134.50
497.09	14047.90
497.26	14134.50
497.44	14068.96
497.62	14398.98
497.79	14342.80
497.97	14611.96
498.14	14565.15
498.32	14738.35
498.50	14775.80
498.67	14750.06
498.85	14691.54
499.03	15047.30
499.20	14827.29
499.38	14775.80
499.56	14839.00
499.73	15147.95
499.91	15337.53
500.08	15555.20
500.26	14956.02
500.44	15227.53
500.61	15524.77
500.79	15358.60
500.97	15269.66
501.14	15597.33
501.32	15749.46
501.49	15468.60
501.67	15700.31
501.84	15651.16
502.02	15786.91
502.20	15955.43
502.37	16053.73
502.55	15791.59
502.72	16203.53
502.90	15957.77
503.07	15936.71
503.25	16212.89
503.43	15908.62
503.60	16374.39
503.78	16458.65
503.95	16526.52
504.13	16166.08
504.30	16402.47
504.48	16421.20
504.65	16751.21
504.83	16519.50
505.01	16774.62
505.18	16737.17
505.36	16980.59
505.53	16744.19
505.71	16858.88
505.88	16945.48
506.06	16891.65
506.23	16999.31
506.41	16910.37
506.58	17224.00
506.76	17338.69
506.93	17280.18
507.11	17156.13
507.28	17401.88
507.46	17233.36
507.63	17385.50
507.81	17652.32
507.98	17390.18
508.16	17371.46
508.33	17642.96
508.50	17893.40
508.68	17832.54
508.85	18082.98
509.03	17767.01
509.20	18061.91
509.38	18384.91
509.55	18302.99
509.73	18221.07
509.90	18054.89
510.08	18167.24
510.25	18118.09
510.42	18530.02
510.60	18274.90
510.77	18497.25
510.95	18485.55
511.12	18466.83
511.30	18494.91
511.47	18321.71
511.64	18586.19
511.82	18906.85
511.99	18614.28
512.17	18902.17
512.34	19009.83
512.51	18888.12
512.69	19012.17
512.86	18904.51
513.04	19232.18
513.21	19197.07
513.38	19262.61
513.56	18855.36
513.73	19068.34
513.90	19171.33
514.08	19201.76
514.25	19365.59
514.43	19398.36
514.60	19503.68
514.77	19630.07
514.95	19506.02
515.12	19328.14
515.29	19510.71
515.47	19686.25
515.64	19903.92
515.81	19665.18
515.99	20011.58
516.16	20086.48
516.33	20292.44
516.51	20072.43
516.68	20081.80
516.85	20367.34
517.03	20060.73
517.20	20280.74
517.37	20486.71
517.54	20514.80
517.72	20238.61
517.89	20224.57
518.06	20444.58
518.24	20191.80
518.41	20589.69
518.58	20493.73
518.75	20622.46
518.93	20849.49
519.10	20779.28
519.27	20790.98
519.45	20851.83
519.62	20641.18
519.79	20798.00
519.96	20528.84
520.14	21319.94
520.31	20931.41
520.48	21036.74
520.65	21270.79
520.83	20954.82
521.00	20872.90
521.17	21085.89
521.34	21139.72
521.52	21149.08
521.69	21050.78
521.86	21378.45
522.03	21308.24
522.20	21266.11
522.38	21668.68
522.55	21568.04
522.72	21781.03
522.89	21537.61
523.07	22043.17
523.24	21855.92
523.41	21989.33
523.58	21633.57
523.75	21839.54
523.92	21668.68
524.10	21708.47
524.27	21942.52
524.44	21867.63
524.61	22345.09
524.78	22171.89
524.96	21951.88
525.13	22246.79
525.30	22127.42
525.47	22434.03
525.64	22375.52
525.81	22504.25
525.98	22520.63
526.16	22305.31
526.33	22600.21
526.50	22735.96
526.67	22263.18
526.84	22286.58
527.01	22766.39
527.18	22600.21
527.36	23096.41
527.53	22838.95
527.70	22834.27
527.87	23082.36
528.04	23030.87
528.21	22647.02
528.38	22911.50
528.55	22845.97
528.72	23264.92
528.89	23157.26
529.07	23321.10
529.24	23447.49
529.41	23206.41
529.58	23122.15
529.75	23262.58
529.92	23344.50
530.09	22735.96
530.26	23185.35
530.43	23697.92
530.60	23257.90
530.77	23342.16
530.94	23489.62
531.11	23452.17
531.28	23246.20
531.46	23541.11
531.63	23414.72
531.80	23594.94
531.97	23386.63
532.14	23765.80
532.31	23939.00
532.48	23779.84
532.65	23854.74
532.82	23723.67
532.99	23798.57
533.16	24037.30
533.33	23880.49
533.50	24098.16
533.67	24250.29
533.84	23967.09
534.01	23676.86
534.18	23957.72
534.35	24269.01
534.52	24156.67
534.69	24379.02
534.86	24266.67
535.03	24187.10
535.20	24287.74
535.37	24458.60
535.54	24540.52
535.71	24332.21
535.88	24542.86
536.05	24528.81
536.22	24673.93
536.38	24655.20
536.55	24500.73
536.72	24676.27
536.89	24772.23
537.06	24629.46
537.23	24615.41
537.40	24414.13
537.57	24797.98
537.74	24816.70
537.91	24638.82
538.08	24954.79
538.25	25069.48
538.42	25172.46
538.59	24741.80
538.75	24922.02
538.92	25104.59
539.09	25088.20
539.26	25055.43
539.43	25380.77
539.60	25214.59
539.77	25352.68
539.94	25298.85
540.11	25310.55
540.28	25120.97
540.44	25142.03
540.61	25062.46
540.78	25153.74
540.95	25404.17
541.12	25647.59
541.29	25404.17
541.46	25233.32
541.62	25579.71
541.79	25455.67
541.96	25198.21
542.13	25268.42
542.30	25757.60
542.47	25921.43
542.63	25912.07
542.80	25853.56
542.97	25954.20
543.14	26171.87
543.31	26057.18
543.48	26162.51
543.64	26246.77
543.81	26008.03
543.98	26469.12
544.15	25914.41
544.32	26288.90
544.48	26567.42
544.65	26113.36
544.82	26085.27
544.99	26096.97
545.16	26143.78
545.32	26314.64
545.49	26429.33
545.66	26546.36
545.83	26504.23
546.00	26457.42
546.16	26609.55
546.33	26324.01
546.50	26333.37
546.67	26370.82
546.83	26434.01
547.00	26684.45
547.17	26436.35
547.34	26572.10
547.50	26398.90
547.67	27019.14
547.84	26735.94
548.00	26647.00
548.17	26977.01
548.34	26913.82
548.51	26766.37
548.67	27222.77
548.84	26920.84
549.01	27005.10
549.18	27346.82
549.34	26824.88
549.51	26876.37
549.68	26888.07
549.84	26838.92
550.01	26972.33
550.18	26932.54
550.34	27213.41
550.51	27175.96
550.68	27044.89
550.84	27028.51
551.01	27276.60
551.18	26906.80
551.34	27082.34
551.51	27222.77
551.68	27274.26
551.84	27211.07
552.01	27131.49
552.18	27449.80
552.34	27564.49
552.51	27241.50
552.68	27466.19
552.84	27442.78
553.01	27342.14
553.18	27386.61
553.34	27552.79
553.51	27267.24
553.67	27756.41
553.84	27847.69
554.01	27295.33
554.17	27503.64
554.34	27861.74
554.51	27531.72
554.67	27765.78
554.84	27658.11
555.00	27615.98
555.17	27597.26
555.33	28034.94
555.50	28065.36
555.67	27754.07
555.83	27812.59
556.00	28280.69
556.16	27969.40
556.33	27833.65
556.50	27852.38
556.66	27747.05
556.83	27887.48
556.99	28051.32
557.16	27999.83
557.32	28004.51
557.49	28133.24
557.65	27730.67
557.82	27990.47
557.98	28130.90
558.15	28067.70
558.32	28219.84
558.48	28428.15
558.65	28393.04
558.81	28353.25
558.98	28198.77
559.14	28285.37
559.31	28304.10
559.47	28158.99
559.64	28032.60
559.80	28306.44
559.97	28519.43
560.13	28704.33
560.30	28552.20
560.46	28496.02
560.63	27903.87
560.79	28547.51
560.96	28189.41
561.12	28346.23
561.29	28535.81
561.45	28308.78
561.61	28477.30
561.78	28465.60
561.94	28638.80
562.11	28739.44
562.27	28699.65
562.44	28587.30
562.60	28400.06
562.77	28692.63
562.93	28215.16
563.10	28669.22
563.26	28793.27
563.42	28952.43
563.59	28753.48
563.75	28940.72
563.92	28631.77
564.08	28493.68
564.24	28741.78
564.41	28563.90
564.57	28767.52
564.74	28811.99
564.90	28833.06
565.07	28582.62
565.23	29017.96
565.39	28517.09
565.56	29179.46
565.72	28744.12
565.88	28711.35
566.05	28617.73
566.21	28723.05
566.38	28701.99
566.54	28835.40
566.70	28800.29
566.87	29027.32
567.03	29020.30
567.19	29104.56
567.36	29015.62
567.52	28994.56
567.68	28996.90
567.85	28779.23
568.01	29233.29
568.17	28821.36
568.34	29127.97
568.50	28727.74
568.66	29067.11
568.83	29118.60
568.99	28596.67
569.15	29177.12
569.32	28758.16
569.48	28704.33
569.64	29043.71
569.81	28900.94
569.97	28802.63
570.13	29523.52
570.30	28959.45
570.46	29310.53
570.62	29193.50
570.78	28627.09
570.95	28849.44
571.11	28917.32
571.27	28538.15
571.43	28615.39
571.60	29324.57
571.76	28755.82
571.92	28851.78
572.09	28751.14
572.25	29340.96
572.41	28982.85
572.57	29165.42
572.74	29254.36
572.90	29041.37
573.06	29146.69
573.22	29015.62
573.38	29336.27
573.55	28982.85
573.71	29266.06
573.87	29305.85
574.03	29221.59
574.20	29200.52
574.36	29336.27
574.52	29116.26
574.68	29305.85
574.84	29240.31
575.01	29261.38
575.17	29256.70
575.33	28978.17
575.49	28999.24
575.65	29474.37
575.82	29546.92
575.98	29455.64
576.14	29448.62
576.30	29450.96
576.46	29504.79
576.62	29036.69
576.79	29081.16
576.95	29284.78
577.11	29371.38
577.27	29516.50
577.43	29301.17
577.59	29228.61
577.75	29050.73
577.92	29233.29
578.08	29366.70
578.24	28973.49
578.40	29160.73
578.56	29343.30
578.72	29408.83
578.88	29474.37
579.04	29748.21
579.21	29216.91
579.37	29685.01
579.53	29146.69
579.69	29572.67
579.85	29560.97
580.01	29380.74
580.17	29048.39
580.33	29584.37
580.49	29418.19
580.65	29617.14
580.82	29425.22
580.98	29399.47
581.14	29244.99
581.30	29694.38
581.46	29247.33
581.62	29315.21
581.78	29441.60
581.94	28914.98
582.10	29263.72
582.26	29759.91
582.42	29603.10
582.58	29795.02
582.74	29469.69
582.90	29663.95
583.06	29607.78
583.22	29273.08
583.38	29532.88
583.54	29610.12
583.70	29497.77
583.86	29603.10
584.02	29303.51
584.18	29612.46
584.34	29448.62
584.50	29668.63
584.66	29621.82
584.82	29820.77
584.98	29680.33
585.14	29350.32
585.30	28982.85
585.46	29357.34
585.62	29390.11
585.78	29685.01
585.94	29132.65
586.10	29448.62
586.26	29563.31
586.42	29785.66
586.58	29692.04
586.74	29436.92
586.90	29113.92
587.06	29621.82
587.22	29436.92
587.38	29560.97
587.54	29488.41
587.70	30125.04
587.86	29750.55
588.02	29771.61
588.18	30036.09
588.34	29759.91
588.49	30045.46
588.65	29570.33
588.81	29809.06
588.97	29727.14
589.13	29460.32
589.29	29600.76
589.45	30085.25
589.61	29490.75
589.77	30040.78
589.93	29675.65
590.08	29853.53
590.24	29858.21
590.40	29989.28
590.56	29806.72
590.72	29675.65
590.88	29790.34
591.04	29589.05
591.20	29923.75
591.35	30045.46
591.51	30328.66
591.67	30307.60
591.83	29923.75
591.99	29890.98
