SpectraSuite Data File
++++++++++++++++++++++++++++++++++++
Date: Fri Oct 18 13:58:18 GMT-05:00 2013
User: bianchi
Dark Spectrum Present: No
Reference Spectrum Present: No
Number of Sampled Component Spectra: 1
Spectrometers: USB2+H05261
Integration Time (usec): 50000 (USB2+H05261)
Spectra Averaged: 1 (USB2+H05261)
Boxcar Smoothing: 0 (USB2+H05261)
Correct for Electrical Dark: No (USB2+H05261)
Strobe/Lamp Enabled: No (USB2+H05261)
Correct for Detector Non-linearity: No (USB2+H05261)
Correct for Stray Light: No (USB2+H05261)
Number of Pixels in Processed Spectrum: 2048
>>>>>Begin Processed Spectral Data<<<<<
365.73	0.00
365.92	0.00
366.12	0.00
366.32	0.00
366.52	0.00
366.72	0.00
366.91	0.00
367.11	0.00
367.31	0.00
367.51	0.00
367.70	0.00
367.90	0.00
368.10	0.00
368.30	0.00
368.49	0.00
368.69	0.00
368.89	0.00
369.09	0.00
369.28	0.00
369.48	0.00
369.68	0.00
369.87	0.00
370.07	0.00
370.27	0.00
370.47	0.00
370.66	35.11
370.86	91.28
371.06	44.47
371.25	107.66
371.45	138.09
371.65	142.77
371.84	184.90
372.04	152.13
372.24	147.45
372.44	107.66
372.63	177.88
372.83	292.57
373.03	170.86
373.22	280.86
373.42	224.69
373.62	166.18
373.81	264.48
374.01	229.37
374.21	252.78
374.40	227.03
374.60	208.31
374.79	304.27
374.99	215.33
375.19	304.27
375.38	283.20
375.58	297.25
375.78	201.29
375.97	276.18
376.17	301.93
376.37	304.27
376.56	318.31
376.76	229.37
376.95	290.23
377.15	283.20
377.35	231.71
377.54	259.80
377.74	231.71
377.93	236.39
378.13	285.55
378.33	285.55
378.52	259.80
378.72	280.86
378.91	231.71
379.11	306.61
379.31	238.73
379.50	290.23
379.70	337.04
379.89	341.72
380.09	306.61
380.28	330.02
380.48	280.86
380.68	273.84
380.87	215.33
381.07	306.61
381.26	358.10
381.46	297.25
381.65	294.91
381.85	273.84
382.04	374.49
382.24	339.38
382.43	330.02
382.63	294.91
382.83	358.10
383.02	259.80
383.22	313.63
383.41	299.59
383.61	229.37
383.80	372.15
384.00	299.59
384.19	418.96
384.39	339.38
384.58	308.95
384.78	353.42
384.97	332.36
385.17	386.19
385.36	411.93
385.56	395.55
385.75	315.97
385.95	425.98
386.14	351.08
386.34	461.09
386.53	428.32
386.72	297.25
386.92	402.57
387.11	407.25
387.31	428.32
387.50	393.21
387.70	482.15
387.89	418.96
388.09	456.40
388.28	512.58
388.48	449.38
388.67	425.98
388.86	444.70
389.06	505.56
389.25	517.26
389.45	435.34
389.64	400.23
389.84	444.70
390.03	524.28
390.22	479.81
390.42	479.81
390.61	447.04
390.81	512.58
391.00	451.72
391.19	589.82
391.39	500.87
391.58	564.07
391.78	482.15
391.97	526.62
392.16	491.51
392.36	465.77
392.55	519.60
392.75	568.75
392.94	561.73
393.13	594.50
393.33	486.83
393.52	575.77
393.71	634.29
393.91	571.09
394.10	592.16
394.29	561.73
394.49	503.22
394.68	580.45
394.88	727.91
395.07	550.03
395.26	566.41
395.46	550.03
395.65	613.22
395.84	589.82
396.04	624.92
396.23	662.37
396.42	636.63
396.62	650.67
396.81	660.03
397.00	552.37
397.19	601.52
397.39	615.56
397.58	638.97
397.77	674.07
397.97	695.14
398.16	669.39
398.35	748.97
398.55	702.16
398.74	716.20
398.93	737.27
399.12	697.48
399.32	713.86
399.51	671.73
399.70	800.46
399.90	711.52
400.09	725.57
400.28	802.80
400.47	784.08
400.67	765.36
400.86	784.08
401.05	730.25
401.24	854.30
401.44	802.80
401.63	807.48
401.82	758.33
402.01	791.10
402.21	730.25
402.40	837.91
402.59	861.32
402.78	777.06
402.97	786.42
403.17	894.08
403.36	898.77
403.55	779.40
403.74	821.53
403.93	826.21
404.13	903.45
404.32	854.30
404.51	856.64
404.70	903.45
404.89	954.94
405.09	999.41
405.28	936.21
405.47	936.21
405.66	978.34
405.85	952.60
406.05	983.02
406.24	990.05
406.43	968.98
406.62	964.30
406.81	1020.47
407.00	1008.77
407.20	1008.77
407.39	938.55
407.58	1015.79
407.77	1074.31
407.96	1095.37
408.15	1107.07
408.34	1064.94
408.54	1153.88
408.73	1114.10
408.92	1086.01
409.11	1193.67
409.30	1170.27
409.49	1121.12
409.68	1067.28
409.87	1167.93
410.07	1128.14
410.26	1167.93
410.45	1165.59
410.64	1165.59
410.83	1224.10
411.02	1233.46
411.21	1306.02
411.40	1217.08
411.59	1172.61
411.78	1240.48
411.98	1336.45
412.17	1294.32
412.36	1219.42
412.55	1282.61
412.74	1362.19
412.93	1303.68
413.12	1277.93
413.31	1411.34
413.50	1240.48
413.69	1303.68
413.88	1359.85
414.07	1411.34
414.26	1476.88
414.45	1441.77
414.64	1465.18
414.83	1458.15
415.02	1418.36
415.22	1554.12
415.41	1502.62
415.60	1638.38
415.79	1514.33
415.98	1565.82
416.17	1636.03
416.36	1645.40
416.55	1561.14
416.74	1706.25
416.93	1607.95
417.12	1678.16
417.31	1694.55
417.50	1708.59
417.69	1600.93
417.88	1701.57
418.07	1708.59
418.26	1771.79
418.45	1771.79
418.64	1790.51
418.83	1722.63
419.02	1762.42
419.21	1689.87
419.39	1949.67
419.58	1844.34
419.77	1863.07
419.96	1839.66
420.15	1830.30
420.34	1832.64
420.53	1865.41
420.72	1923.92
420.91	1853.70
421.10	1879.45
421.29	1949.67
421.48	1804.55
421.67	1921.58
421.86	1947.33
422.05	1844.34
422.24	1888.81
422.43	1914.56
422.61	2012.86
422.80	1994.14
422.99	2005.84
423.18	2064.35
423.37	1959.03
423.56	2024.56
423.75	1937.96
423.94	1926.26
424.13	1933.28
424.32	1926.26
424.50	2010.52
424.69	1982.43
424.88	2019.88
425.07	1963.71
425.26	2003.50
425.45	1975.41
425.64	1956.69
425.83	1991.80
426.01	2136.91
426.20	2047.97
426.39	1944.99
426.58	2169.68
426.77	2162.66
426.96	2045.63
427.15	2179.04
427.33	2132.23
427.52	2218.83
427.71	2134.57
427.90	2101.80
428.09	2186.06
428.28	2232.87
428.46	2160.31
428.65	2162.66
428.84	2230.53
429.03	2221.17
429.22	2085.42
429.40	2214.15
429.59	2242.23
429.78	2195.42
429.97	2139.25
430.16	2324.15
430.34	2385.01
430.53	2324.15
430.72	2211.81
430.91	2289.04
431.10	2251.60
431.28	2424.80
431.47	2452.88
431.66	2417.77
431.85	2389.69
432.03	2429.48
432.22	2457.56
432.41	2380.32
432.60	2401.39
432.79	2345.22
432.97	2408.41
433.16	2380.32
433.35	2478.63
433.54	2476.29
433.72	2544.16
433.91	2389.69
434.10	2509.05
434.28	2464.58
434.47	2523.10
434.66	2602.68
434.85	2511.39
435.03	2513.74
435.22	2651.83
435.41	2593.31
435.59	2544.16
435.78	2612.04
435.97	2640.12
436.16	2717.36
436.34	2562.89
436.53	2633.10
436.72	2813.32
436.90	2733.75
437.09	2801.62
437.28	2600.34
437.46	2686.94
437.65	2703.32
437.84	2752.47
438.02	2867.16
438.21	2628.42
438.40	2689.28
438.58	2904.60
438.77	2773.53
438.96	2888.22
439.14	2771.19
439.33	2923.33
439.52	2993.55
439.70	3073.12
439.89	2967.80
440.08	3042.70
440.26	3054.40
440.45	3059.08
440.63	2958.44
440.82	3155.04
441.01	3016.95
441.19	3028.65
441.38	3180.79
441.57	3133.98
441.75	3108.23
441.94	3297.81
442.12	3204.19
442.31	3288.45
442.50	3290.79
442.68	3307.18
442.87	3206.53
443.05	3265.05
443.24	3368.03
443.43	3295.47
443.61	3368.03
443.80	3377.39
443.98	3293.13
444.17	3286.11
444.35	3311.86
444.54	3382.07
444.73	3365.69
444.91	3459.31
445.10	3363.35
445.28	3269.73
445.47	3318.88
445.65	3459.31
445.84	3548.25
446.02	3588.04
446.21	3597.40
446.39	3375.05
446.58	3639.53
446.77	3508.46
446.95	3363.35
447.14	3492.08
447.32	3513.14
447.51	3382.07
447.69	3550.59
447.88	3602.08
448.06	3435.91
448.25	3564.64
448.43	3599.74
448.62	3386.76
448.80	3438.25
448.99	3503.78
449.17	3536.55
449.36	3574.00
449.54	3545.91
449.73	3639.53
449.91	3672.30
450.10	3651.24
450.28	3709.75
450.46	3644.21
450.65	3740.18
450.83	3712.09
451.02	3658.26
451.20	3789.33
451.39	3892.31
451.57	3761.24
451.76	3861.88
451.94	3684.00
452.13	3822.09
452.31	3889.97
452.49	3684.00
452.68	3822.09
452.86	3859.54
453.05	4079.55
453.23	3950.82
453.42	3887.63
453.60	3730.81
453.78	3786.99
453.97	3768.26
454.15	3934.44
454.34	3906.35
454.52	3936.78
454.70	4007.00
454.89	4018.70
455.07	3974.23
455.26	3920.40
455.44	4063.17
455.62	3988.27
455.81	3964.87
455.99	4154.45
456.17	3911.04
456.36	4187.22
456.54	4212.96
456.73	4109.98
456.91	4353.40
457.09	4311.27
457.28	4395.53
457.46	4194.24
457.64	4175.52
457.83	4337.01
458.01	4161.47
458.19	4273.82
458.38	4545.32
458.56	4344.03
458.74	4531.28
458.93	4411.91
459.11	4430.63
459.29	4353.40
459.48	4447.02
459.66	4383.82
459.84	4512.55
460.03	4521.92
460.21	4477.44
460.39	4557.02
460.57	4505.53
460.76	4575.75
460.94	4493.83
461.12	4475.10
461.31	4503.19
461.49	4636.60
461.67	4613.20
461.85	4622.56
462.04	4526.60
462.22	5055.56
462.40	4699.80
462.59	4723.20
462.77	4837.89
462.95	4755.97
463.13	4727.88
463.32	4718.52
463.50	4716.18
463.68	4856.61
463.86	4887.04
464.05	4798.10
464.23	4678.73
464.41	4898.74
464.59	4671.71
464.78	5088.32
464.96	4936.19
465.14	4910.44
465.32	4964.28
465.50	4978.32
465.69	4994.70
465.87	4880.02
466.05	4973.64
466.23	4919.81
466.41	4973.64
466.60	5114.07
466.78	4987.68
466.96	4961.94
467.14	4919.81
467.32	5109.39
467.51	5048.54
467.69	4901.08
467.87	5151.52
468.05	5093.01
468.23	5149.18
468.41	5025.13
468.60	5142.16
468.78	5205.35
468.96	5170.24
469.14	5128.11
469.32	5317.70
469.50	5177.26
469.69	5305.99
469.87	5289.61
470.05	5401.96
470.23	5369.19
470.41	5441.75
470.59	5465.15
470.77	5305.99
470.95	5427.70
471.14	5533.03
471.32	5416.00
471.50	5820.91
471.68	5724.95
471.86	5638.35
472.04	5696.86
472.22	5795.17
472.40	5664.10
472.58	5528.35
472.77	5664.10
472.95	5954.32
473.13	5968.37
473.31	5802.19
473.49	5661.76
473.67	5867.72
473.85	5860.70
474.03	5982.41
474.21	5893.47
474.39	5970.71
474.57	5989.43
474.75	6218.80
474.93	6237.53
475.12	5956.66
475.30	6038.58
475.48	6026.88
475.66	6260.93
475.84	6080.71
476.02	6307.74
476.20	6319.45
476.38	6331.15
476.56	6511.37
476.74	6399.02
476.92	6429.45
477.10	6511.37
477.28	6752.45
477.46	6520.73
477.64	6623.72
477.82	6745.42
478.00	6909.26
478.18	6995.86
478.36	6953.73
478.54	7073.10
478.72	6895.22
478.90	7014.59
479.08	7208.85
479.26	7243.96
479.44	7091.82
479.62	7232.26
479.80	7377.37
479.98	7274.38
480.16	7648.87
480.34	7499.08
480.52	7592.70
480.70	7588.02
480.88	7442.90
481.06	7590.36
481.24	7604.40
481.41	7845.48
481.59	7889.95
481.77	7873.56
481.95	8025.70
482.13	8212.94
482.31	7864.20
482.49	8170.81
482.67	8292.52
482.85	8393.16
483.03	8374.44
483.21	8374.44
483.39	8517.21
483.57	8285.50
483.74	8657.64
483.92	8617.85
484.10	8557.00
484.28	8627.21
484.46	8931.48
484.64	8968.93
484.82	8854.25
485.00	9078.94
485.18	8959.57
485.35	9362.14
485.53	9444.06
485.71	9528.32
485.89	9540.02
486.07	9404.27
486.25	9528.32
486.43	9647.69
486.61	9607.90
486.78	9827.91
486.96	9802.16
487.14	9907.49
487.32	9982.38
487.50	10122.82
487.68	10153.24
487.85	10338.15
488.03	10469.22
488.21	10359.21
488.39	10235.16
488.57	10600.29
488.75	10663.48
488.92	10855.40
489.10	10640.08
489.28	10719.65
489.46	11089.46
489.64	11108.18
489.81	11433.52
489.99	11154.99
490.17	11103.50
490.35	11527.14
490.53	11194.78
490.70	11517.78
490.88	11641.82
491.06	11843.11
491.24	11508.41
491.41	11981.20
491.59	12011.63
491.77	11782.26
491.95	12025.67
492.13	12152.06
492.30	12126.32
492.48	12081.85
492.66	12241.00
492.84	12205.89
493.01	12430.59
493.19	12648.26
493.37	12437.61
493.54	12681.02
493.72	12978.27
493.90	12840.18
494.08	12798.05
494.25	12872.95
494.43	13055.51
494.61	13233.39
494.79	13280.20
494.96	13327.01
495.14	13334.03
495.32	13310.63
495.49	13448.72
495.67	13619.58
495.85	13699.16
496.02	13612.56
496.20	13689.79
496.38	13804.48
496.55	13713.20
496.73	14270.25
496.91	13870.01
497.09	14057.26
497.26	14352.16
497.44	14232.80
497.62	14104.07
497.79	14647.07
497.97	14417.70
498.14	14600.26
498.32	14747.72
498.50	14539.41
498.67	14817.93
498.85	14640.05
499.03	14916.23
499.20	14691.54
499.38	14902.19
499.56	14827.29
499.73	15253.27
499.91	15407.75
500.08	15482.64
500.26	15276.68
500.44	15311.78
500.61	15452.22
500.79	15349.23
500.97	15489.67
501.14	15609.03
501.32	15686.27
501.49	15754.15
501.67	15620.74
501.84	15529.45
502.02	15798.62
502.20	15882.88
502.37	16175.44
502.55	16037.35
502.72	16002.24
502.90	16079.48
503.07	15887.56
503.25	16229.27
503.43	16114.59
503.60	16311.19
503.78	16435.24
503.95	16362.69
504.13	16343.96
504.30	16592.06
504.48	16535.88
504.65	16589.72
504.83	16781.64
505.01	16924.41
505.18	16856.54
505.36	17245.07
505.53	16657.59
505.71	17088.25
505.88	16783.98
506.06	16781.64
506.23	17490.82
506.41	17200.60
506.58	17277.83
506.76	17268.47
506.93	17357.41
507.11	17050.80
507.28	17350.39
507.46	17907.44
507.63	17685.09
507.81	17734.24
507.98	17640.62
508.16	17813.82
508.33	17657.00
508.50	17633.60
508.68	17994.04
508.85	17764.67
509.03	17802.11
509.20	17958.93
509.38	18106.38
509.55	18106.38
509.73	18284.26
509.90	18260.86
510.08	18104.04
510.25	18523.00
510.42	18523.00
510.60	18415.34
510.77	18649.39
510.95	18466.83
511.12	18654.07
511.30	18633.00
511.47	18661.09
511.64	18677.48
511.82	18991.11
511.99	18874.08
512.17	19044.94
512.34	18883.44
512.51	18918.55
512.69	18977.06
512.86	18963.02
513.04	19293.04
513.21	19466.24
513.38	19491.98
513.56	19276.65
513.73	19358.57
513.90	19248.57
514.08	19332.82
514.25	19630.07
514.43	19398.36
514.60	19777.53
514.77	19562.20
514.95	19641.78
515.12	19346.87
515.29	19669.86
515.47	19693.27
515.64	19946.05
515.81	19892.21
515.99	20128.61
516.16	20152.01
516.33	20095.84
516.51	20297.13
516.68	19995.20
516.85	20257.34
517.03	20229.25
517.20	20278.40
517.37	20402.45
517.54	20505.43
517.72	20400.11
517.89	20718.42
518.06	20425.86
518.24	20542.88
518.41	20570.97
518.58	20870.56
518.75	20519.48
518.93	20683.31
519.10	20596.71
519.27	21165.46
519.45	20741.83
519.62	21158.44
519.79	20877.58
519.96	20816.72
520.14	21156.10
520.31	20964.18
520.48	21081.21
520.65	20980.56
520.83	21261.43
521.00	21298.88
521.17	21336.32
521.34	21240.36
521.52	21228.66
521.69	21607.83
521.86	21530.59
522.03	21607.83
522.20	21694.43
522.38	21799.75
522.55	21659.32
522.72	21385.47
522.89	21474.42
523.07	22211.68
523.24	21649.96
523.41	22029.12
523.58	21792.73
523.75	22300.62
523.92	22003.38
524.10	21914.44
524.27	22181.26
524.44	22595.53
524.61	22363.82
524.78	22246.79
524.96	22267.86
525.13	22513.61
525.30	22216.36
525.47	22279.56
525.64	22340.41
525.81	22780.43
525.98	22438.72
526.16	22829.59
526.33	22548.72
526.50	23033.21
526.67	22658.73
526.84	22724.26
527.01	22658.73
527.18	22944.27
527.36	23042.57
527.53	23070.66
527.70	22951.29
527.87	23115.13
528.04	22789.80
528.21	22885.76
528.38	23117.47
528.55	23283.65
528.72	23204.07
528.89	23201.73
529.07	23054.28
529.24	23082.36
529.41	23229.82
529.58	23346.84
529.75	22925.55
529.92	23342.16
530.09	23449.83
530.26	23651.11
530.43	23695.58
530.60	23627.71
530.77	23709.63
530.94	23999.85
531.11	23353.87
531.28	23300.03
531.46	23833.68
531.63	23969.43
531.80	23887.51
531.97	24151.99
532.14	24460.94
532.31	23693.24
532.48	23845.38
532.65	24119.22
532.82	24196.46
532.99	23831.33
533.16	23936.66
533.33	23992.83
533.50	24482.00
533.67	24191.78
533.84	23758.78
534.01	23992.83
534.18	24161.35
534.35	24465.62
534.52	24421.15
534.69	24498.39
534.86	24542.86
535.03	24140.29
535.20	24734.78
535.37	24346.25
535.54	24482.00
535.71	24704.35
535.88	24161.35
536.05	24336.89
536.22	24882.24
536.38	24870.53
536.55	24807.34
536.72	25329.28
536.89	24606.05
537.06	24854.15
537.23	25116.29
537.40	24877.55
537.57	24882.24
537.74	24952.45
537.91	25195.87
538.08	25408.86
538.25	24769.89
538.42	25301.19
538.59	25097.56
538.75	25064.80
538.92	25450.99
539.09	25324.60
539.26	25369.07
539.43	25216.93
539.60	25366.73
539.77	25563.33
539.94	25607.80
540.11	25184.16
540.28	25542.27
540.44	25479.07
540.61	25507.16
540.78	25331.62
540.95	25802.07
541.12	25490.77
541.29	25652.27
541.46	25867.60
541.62	25322.26
541.79	25820.79
541.96	25039.05
542.13	25729.51
542.30	25633.55
542.47	25979.95
542.63	25745.89
542.80	26003.35
542.97	26415.29
543.14	26595.51
543.31	25940.16
543.48	25876.96
543.64	26345.07
543.81	26176.55
543.98	26155.49
544.15	26410.60
544.32	26478.48
544.48	26937.23
544.65	25940.16
544.82	26548.70
544.99	26164.85
545.16	26504.23
545.32	26483.16
545.49	26867.01
545.66	26904.46
545.83	26850.63
546.00	26916.16
546.16	26457.42
546.33	26497.20
546.50	26555.72
546.67	26855.31
546.83	26403.58
547.00	26593.17
547.17	26668.06
547.34	26686.79
547.50	26871.69
547.67	26927.86
547.84	26693.81
548.00	26717.22
548.17	27087.02
548.34	26878.71
548.51	27166.60
548.67	27400.65
548.84	26913.82
549.01	27009.78
549.18	27269.58
549.34	26827.22
549.51	27026.17
549.68	27211.07
549.84	26850.63
550.01	26965.31
550.18	26742.96
550.34	27484.91
550.51	27527.04
550.68	27576.19
550.84	27248.52
551.01	27384.27
551.18	27276.60
551.34	27175.96
551.51	27328.10
551.68	27276.60
551.84	27459.16
552.01	27847.69
552.18	27620.66
552.34	27498.95
552.51	27742.37
552.68	27550.45
552.84	27615.98
553.01	27578.53
553.18	27634.71
553.34	27835.99
553.51	27913.23
553.67	27723.65
553.84	28025.57
554.01	27915.57
554.17	27831.31
554.34	27529.38
554.51	28032.60
554.67	28025.57
554.84	27833.65
555.00	27693.22
555.17	27871.10
555.33	28163.67
555.50	27969.40
555.67	28041.96
555.83	27740.03
556.00	28343.89
556.16	27850.03
556.33	27672.15
556.50	28182.39
556.66	27814.93
556.83	27929.61
556.99	28606.03
557.16	28837.74
557.32	28201.11
557.49	28114.52
557.65	28203.46
557.82	28149.62
557.98	27983.44
558.15	28397.72
558.32	28006.85
558.48	28236.22
558.65	28313.46
558.81	28355.59
558.98	28650.50
559.14	28617.73
559.31	28191.75
559.47	28404.74
559.64	28341.55
559.80	28463.25
559.97	28540.49
560.13	28828.38
560.30	28545.17
560.46	28992.22
560.63	28486.66
560.79	28629.43
560.96	28659.86
561.12	28074.73
561.29	28313.46
561.45	28404.74
561.61	28371.97
561.78	28926.68
561.94	28252.61
562.11	28765.18
562.27	28669.22
562.44	28936.04
562.60	28720.71
562.77	28395.38
562.93	28638.80
563.10	28987.53
563.26	28826.04
563.42	29528.20
563.59	28884.55
563.75	29144.35
563.92	28907.96
564.08	28744.12
564.24	28631.77
564.41	28664.54
564.57	28694.97
564.74	28807.31
564.90	29109.24
565.07	28985.19
565.23	29254.36
565.39	28889.23
565.56	29226.27
565.72	29123.29
565.88	28945.41
566.05	28730.08
566.21	29024.98
566.38	28802.63
566.54	28954.77
566.70	28992.22
566.87	29469.69
567.03	29127.97
567.19	29483.73
567.36	28819.02
567.52	29310.53
567.68	28879.87
567.85	29376.06
568.01	29240.31
568.17	28952.43
568.34	29149.03
568.50	28940.72
568.66	29099.88
568.83	29462.66
568.99	29071.79
569.15	29151.37
569.32	29008.60
569.48	29214.57
569.64	29462.66
569.81	29516.50
569.97	29230.95
570.13	29614.80
570.30	28924.34
570.46	29689.70
570.62	29357.34
570.78	29003.92
570.95	28762.84
571.11	29750.55
571.27	29090.52
571.43	29266.06
571.60	29429.90
571.76	29153.71
571.92	29017.96
572.09	29415.85
572.25	29139.67
572.41	29565.65
572.57	29256.70
572.74	29663.95
572.90	29305.85
573.06	29565.65
573.22	29532.88
573.38	29816.08
573.55	29340.96
573.71	29638.20
573.87	29443.94
574.03	29661.61
574.20	29551.60
574.36	29221.59
574.52	29425.22
574.68	28793.27
574.84	29572.67
575.01	29575.01
575.17	29373.72
575.33	29474.37
575.49	29635.86
575.65	29544.58
575.82	29612.46
575.98	29589.05
576.14	29476.71
576.30	29333.93
576.46	29631.18
576.62	29415.85
576.79	29408.83
576.95	29280.10
577.11	29675.65
577.27	29832.47
577.43	29806.72
577.59	29586.71
577.75	29511.81
577.92	29305.85
578.08	29376.06
578.24	29446.28
578.40	29364.36
578.56	29415.85
578.72	29715.44
578.88	29788.00
579.04	29771.61
579.21	29530.54
579.37	29598.41
579.53	29743.53
579.69	29600.76
579.85	29235.63
580.01	29907.37
580.17	29188.82
580.33	29640.54
580.49	29401.81
580.65	29951.84
580.82	29841.83
580.98	29621.82
581.14	29553.94
581.30	29736.51
581.46	29649.91
581.62	29570.33
581.78	29647.57
581.94	29979.92
582.10	29755.23
582.26	29378.40
582.42	29308.19
582.58	29642.88
582.74	29343.30
582.90	29558.63
583.06	30110.99
583.22	29748.21
583.38	29701.40
583.54	29778.64
583.70	29579.69
583.86	29834.81
584.02	29619.48
584.18	30066.52
584.34	29795.02
584.50	29879.28
584.66	29483.73
584.82	29624.16
584.98	29958.86
585.14	29727.14
585.30	29638.20
585.46	29923.75
585.62	29125.63
585.78	29577.35
585.94	29282.44
586.10	29802.04
586.26	29930.77
586.42	29612.46
586.58	29797.36
586.74	29598.41
586.90	29673.31
587.06	29280.10
587.22	30003.33
587.38	29422.87
587.54	29844.17
587.70	30101.63
587.86	29710.76
588.02	29706.08
588.18	30253.76
588.34	29516.50
588.49	29816.08
588.65	29631.18
588.81	29762.25
588.97	29720.12
589.13	29799.70
589.29	29869.92
589.45	29895.66
589.61	30089.93
589.77	30323.98
589.93	30132.06
590.08	30120.35
590.24	30319.30
590.40	30188.23
590.56	30087.59
590.72	30504.20
590.88	29848.85
591.04	29954.18
591.20	30000.99
591.35	30279.51
591.51	29923.75
591.67	30270.15
591.83	30223.34
591.99	30026.73
