SpectraSuite Data File
++++++++++++++++++++++++++++++++++++
Date: Fri Oct 18 13:58:27 GMT-05:00 2013
User: bianchi
Dark Spectrum Present: No
Reference Spectrum Present: No
Number of Sampled Component Spectra: 1
Spectrometers: USB2+H05261
Integration Time (usec): 50000 (USB2+H05261)
Spectra Averaged: 1 (USB2+H05261)
Boxcar Smoothing: 0 (USB2+H05261)
Correct for Electrical Dark: No (USB2+H05261)
Strobe/Lamp Enabled: No (USB2+H05261)
Correct for Detector Non-linearity: No (USB2+H05261)
Correct for Stray Light: No (USB2+H05261)
Number of Pixels in Processed Spectrum: 2048
>>>>>Begin Processed Spectral Data<<<<<
365.73	0.00
365.92	0.00
366.12	0.00
366.32	0.00
366.52	0.00
366.72	0.00
366.91	0.00
367.11	0.00
367.31	0.00
367.51	0.00
367.70	0.00
367.90	0.00
368.10	0.00
368.30	0.00
368.49	0.00
368.69	0.00
368.89	0.00
369.09	0.00
369.28	0.00
369.48	0.00
369.68	0.00
369.87	0.00
370.07	0.00
370.27	0.00
370.47	0.00
370.66	18.72
370.86	77.24
371.06	105.32
371.25	128.73
371.45	51.49
371.65	175.54
371.84	217.67
372.04	147.45
372.24	161.50
372.44	140.43
372.63	184.90
372.83	217.67
373.03	196.60
373.22	175.54
373.42	175.54
373.62	271.50
373.81	210.65
374.01	257.46
374.21	229.37
374.40	205.97
374.60	241.08
374.79	220.01
374.99	287.89
375.19	222.35
375.38	184.90
375.58	276.18
375.78	271.50
375.97	306.61
376.17	285.55
376.37	208.31
376.56	236.39
376.76	220.01
376.95	304.27
377.15	344.06
377.35	273.84
377.54	180.22
377.74	191.92
377.93	252.78
378.13	287.89
378.33	271.50
378.52	210.65
378.72	301.93
378.91	311.29
379.11	269.16
379.31	264.48
379.50	313.63
379.70	313.63
379.89	238.73
380.09	315.97
380.28	280.86
380.48	337.04
380.68	273.84
380.87	304.27
381.07	376.83
381.26	376.83
381.46	271.50
381.65	425.98
381.85	339.38
382.04	320.65
382.24	301.93
382.43	383.85
382.63	348.74
382.83	297.25
383.02	341.72
383.22	334.70
383.41	355.76
383.61	313.63
383.80	423.64
384.00	339.38
384.19	344.06
384.39	355.76
384.58	404.91
384.78	332.36
384.97	416.62
385.17	400.23
385.36	311.29
385.56	360.44
385.75	334.70
385.95	334.70
386.14	348.74
386.34	418.96
386.53	337.04
386.72	421.30
386.92	435.34
387.11	315.97
387.31	407.25
387.50	407.25
387.70	365.12
387.89	414.27
388.09	454.06
388.28	435.34
388.48	320.65
388.67	402.57
388.86	477.47
389.06	440.02
389.25	486.83
389.45	400.23
389.64	430.66
389.84	411.93
390.03	479.81
390.22	498.53
390.42	437.68
390.61	383.85
390.81	491.51
391.00	418.96
391.19	435.34
391.39	517.26
391.58	477.47
391.78	442.36
391.97	538.32
392.16	500.87
392.36	557.05
392.55	514.92
392.75	535.98
392.94	547.69
393.13	519.60
393.33	552.37
393.52	573.43
393.71	578.11
393.91	554.71
394.10	582.79
394.29	589.82
394.49	594.50
394.68	533.64
394.88	592.16
395.07	589.82
395.26	510.24
395.46	596.84
395.65	585.13
395.84	636.63
396.04	678.76
396.23	636.63
396.42	617.90
396.62	629.60
396.81	674.07
397.00	683.44
397.19	599.18
397.39	718.54
397.58	770.04
397.77	678.76
397.97	645.99
398.16	674.07
398.35	690.46
398.55	690.46
398.74	741.95
398.93	702.16
399.12	662.37
399.32	727.91
399.51	751.31
399.70	741.95
399.90	781.74
400.09	777.06
400.28	826.21
400.47	732.59
400.67	727.91
400.86	793.44
401.05	777.06
401.24	753.65
401.44	741.95
401.63	866.00
401.82	842.59
402.01	812.17
402.21	727.91
402.40	784.08
402.59	868.34
402.78	800.46
402.97	896.43
403.17	884.72
403.36	887.06
403.55	854.30
403.74	866.00
403.93	887.06
404.13	908.13
404.32	870.68
404.51	849.61
404.70	877.70
404.89	922.17
405.09	957.28
405.28	936.21
405.47	903.45
405.66	994.73
405.85	926.85
406.05	945.58
406.24	952.60
406.43	1064.94
406.62	990.05
406.81	1102.39
407.00	990.05
407.20	983.02
407.39	1011.11
407.58	931.53
407.77	1048.56
407.96	1008.77
408.15	1071.97
408.34	929.19
408.54	1055.58
408.73	1057.92
408.92	1107.07
409.11	1123.46
409.30	1132.82
409.49	1170.27
409.68	1200.69
409.87	1139.84
410.07	1172.61
410.26	1118.78
410.45	1179.63
410.64	1097.71
410.83	1212.40
411.02	1135.16
411.21	1303.68
411.40	1196.01
411.59	1210.06
411.78	1308.36
411.98	1240.48
412.17	1315.38
412.36	1268.57
412.55	1327.08
412.74	1352.83
412.93	1268.57
413.12	1224.10
413.31	1385.60
413.50	1348.15
413.69	1273.25
413.88	1399.64
414.07	1350.49
414.26	1362.19
414.45	1441.77
414.64	1467.52
414.83	1418.36
415.02	1458.15
415.22	1495.60
415.41	1504.96
415.60	1437.09
415.79	1577.52
415.98	1607.95
416.17	1633.69
416.36	1631.35
416.55	1626.67
416.74	1706.25
416.93	1565.82
417.12	1764.76
417.31	1673.48
417.50	1586.88
417.69	1785.83
417.88	1764.76
418.07	1706.25
418.26	1933.28
418.45	1696.89
418.64	1806.89
418.83	1778.81
419.02	1879.45
419.21	1701.57
419.39	1816.26
419.58	1802.21
419.77	1916.90
419.96	1858.39
420.15	1851.36
420.34	1844.34
420.53	1963.71
420.72	1959.03
420.91	1844.34
421.10	1935.62
421.29	1987.11
421.48	1870.09
421.67	2003.50
421.86	1947.33
422.05	2015.20
422.24	1891.15
422.43	1907.54
422.61	2045.63
422.80	2045.63
422.99	1923.92
423.18	1956.69
423.37	2104.14
423.56	1973.07
423.75	1991.80
423.94	1984.77
424.13	1834.98
424.32	1853.70
424.50	1837.32
424.69	2085.42
424.88	2064.35
425.07	2092.44
425.26	1884.13
425.45	2050.31
425.64	1954.35
425.83	2005.84
426.01	1982.43
426.20	2090.10
426.39	2045.63
426.58	2064.35
426.77	2146.27
426.96	2143.93
427.15	1994.14
427.33	2071.37
427.52	2010.52
427.71	2022.22
427.90	2179.04
428.09	2239.89
428.28	2188.40
428.46	2155.63
428.65	2092.44
428.84	2132.23
429.03	2211.81
429.22	2054.99
429.40	2298.41
429.59	2174.36
429.78	2209.47
429.97	2045.63
430.16	2230.53
430.34	2347.56
430.53	2209.47
430.72	2263.30
430.91	2342.88
431.10	2277.34
431.28	2314.79
431.47	2443.52
431.66	2324.15
431.85	2338.20
432.03	2317.13
432.22	2333.51
432.41	2382.67
432.60	2385.01
432.79	2356.92
432.97	2516.08
433.16	2450.54
433.35	2368.62
433.54	2399.05
433.72	2431.82
433.91	2466.92
434.10	2597.99
434.28	2513.74
434.47	2686.94
434.66	2574.59
434.85	2525.44
435.03	2530.12
435.22	2600.34
435.41	2546.50
435.59	2569.91
435.78	2586.29
435.97	2616.72
436.16	2555.86
436.34	2565.23
436.53	2539.48
436.72	2860.13
436.90	2612.04
437.09	2637.78
437.28	2579.27
437.46	2654.17
437.65	2672.89
437.84	2810.98
438.02	2724.38
438.21	2726.72
438.40	2679.91
438.58	2834.39
438.77	2782.90
438.96	2764.17
439.14	2951.42
439.33	2813.32
439.52	2860.13
439.70	3000.57
439.89	2977.16
440.08	3038.02
440.26	3033.33
440.45	2970.14
440.63	3000.57
440.82	3197.17
441.01	3112.91
441.19	3124.62
441.38	3206.53
441.57	3096.53
441.75	3201.85
441.94	3311.86
442.12	3190.15
442.31	3269.73
442.50	3297.81
442.68	3220.58
442.87	3325.90
443.05	3236.96
443.24	3279.09
443.43	3297.81
443.61	3346.97
443.80	3468.67
443.98	3382.07
444.17	3133.98
444.35	3421.86
444.54	3302.50
444.73	3426.54
444.91	3433.57
445.10	3346.97
445.28	3438.25
445.47	3370.37
445.65	3386.76
445.84	3459.31
446.02	3574.00
446.21	3419.52
446.39	3489.74
446.58	3403.14
446.77	3510.80
446.95	3433.57
447.14	3361.01
447.32	3417.18
447.51	3386.76
447.69	3426.54
447.88	3400.80
448.06	3452.29
448.25	3318.88
448.43	3508.46
448.62	3463.99
448.80	3499.10
448.99	3478.04
449.17	3485.06
449.36	3494.42
449.54	3648.90
449.73	3536.55
449.91	3660.60
450.10	3630.17
450.28	3735.50
450.46	3531.87
450.65	3854.86
450.83	3655.92
451.02	3679.32
451.20	3709.75
451.39	3840.82
451.57	3611.45
451.76	3686.34
451.94	3688.68
452.13	3873.59
452.31	3843.16
452.49	3845.50
452.68	3695.71
452.86	3817.41
453.05	3789.33
453.23	3861.88
453.42	3822.09
453.60	3889.97
453.78	3866.56
453.97	3894.65
454.15	3920.40
454.34	3943.80
454.52	3932.10
454.70	4016.36
454.89	4095.94
455.07	4002.32
455.26	3995.29
455.44	4194.24
455.62	4088.92
455.81	4086.58
455.99	4159.13
456.17	3981.25
456.36	4297.22
456.54	4201.26
456.73	4257.43
456.91	4313.61
457.09	4227.01
457.28	4327.65
457.46	4212.96
457.64	4212.96
457.83	4327.65
458.01	4362.76
458.19	4468.08
458.38	4402.55
458.56	4461.06
458.74	4297.22
458.93	4259.78
459.11	4531.28
459.29	4374.46
459.48	4449.36
459.66	4418.93
459.84	4585.11
460.03	4622.56
460.21	4421.27
460.39	4531.28
460.57	4582.77
460.76	4414.25
460.94	4498.51
461.12	4718.52
461.31	4500.85
461.49	4423.61
461.67	4535.96
461.85	4732.56
462.04	4732.56
462.22	4781.71
462.40	4739.58
462.59	4655.33
462.77	4835.55
462.95	4709.16
463.13	4802.78
463.32	4744.27
463.50	4851.93
463.68	4896.40
463.86	4837.89
464.05	4767.67
464.23	4554.68
464.41	4961.94
464.59	4875.34
464.78	4915.12
464.96	4805.12
465.14	4774.69
465.32	4842.57
465.50	4938.53
465.69	4847.25
465.87	4849.59
466.05	4971.30
466.23	5001.72
466.41	4980.66
466.60	5135.14
466.78	4894.06
466.96	4999.38
467.14	4896.40
467.32	5057.90
467.51	5266.21
467.69	4922.15
467.87	4966.62
468.05	5261.52
468.23	5228.76
468.41	5247.48
468.60	5104.71
468.78	5062.58
468.96	5093.01
469.14	5254.50
469.32	5214.71
469.50	5102.37
469.69	5310.68
469.87	5273.23
470.05	5259.18
470.23	5359.83
470.41	5474.51
470.59	5308.34
470.77	5352.81
470.95	5329.40
471.14	5301.31
471.32	5439.40
471.50	5483.88
471.68	5584.52
471.86	5448.77
472.04	5570.48
472.22	5558.77
472.40	5488.56
472.58	5652.39
472.77	5724.95
472.95	5771.76
473.13	5870.06
473.31	5722.61
473.49	5755.38
473.67	5741.33
473.85	5841.98
474.03	5966.03
474.21	6122.84
474.39	6003.47
474.57	5989.43
474.75	6066.67
474.93	6150.93
475.12	6104.12
475.30	6237.53
475.48	6101.78
475.66	6289.02
475.84	6101.78
476.02	6258.59
476.20	6244.55
476.38	6558.18
476.56	6647.12
476.74	6502.01
476.92	6417.75
477.10	6401.37
477.28	6509.03
477.46	6693.93
477.64	6593.29
477.82	6572.22
478.00	6867.13
478.18	6700.95
478.36	7033.31
478.54	6923.30
478.72	7028.63
478.90	7110.55
479.08	6995.86
479.26	7138.63
479.44	7143.32
479.62	7218.21
479.80	7215.87
479.98	7253.32
480.16	7592.70
480.34	7506.10
480.52	7653.55
480.70	7475.67
480.88	7475.67
481.06	7850.16
481.24	7658.23
481.41	7859.52
481.59	7527.16
481.77	7768.24
481.95	8028.04
482.13	7939.10
482.31	8301.88
482.49	8067.83
482.67	8182.51
482.85	8271.45
483.03	8491.46
483.21	8397.84
483.39	8587.43
483.57	8496.14
483.74	8758.28
483.92	8760.63
484.10	8863.61
484.28	8674.03
484.46	8727.86
484.64	9109.36
484.82	8842.54
485.00	8844.88
485.18	9357.46
485.35	9352.78
485.53	9294.27
485.71	9430.02
485.89	9444.06
486.07	9486.19
486.25	9343.42
486.43	9631.30
486.61	9584.49
486.78	9757.69
486.96	9956.64
487.14	10087.71
487.32	9778.76
487.50	9973.02
487.68	10036.22
487.85	10279.63
488.03	10169.63
488.21	10464.54
488.39	10382.62
488.57	10635.39
488.75	10600.29
488.92	10745.40
489.10	10757.10
489.28	10892.85
489.46	10977.11
489.64	10883.49
489.81	11112.86
489.99	11232.23
490.17	11225.21
490.35	11330.53
490.53	11562.25
490.70	11428.84
490.88	11552.88
491.06	11815.02
491.24	11749.49
491.41	11651.19
491.59	12002.27
491.77	11634.80
491.95	12236.32
492.13	12304.20
492.30	12063.12
492.48	12161.42
492.66	12149.72
492.84	12131.00
493.01	12552.29
493.19	12320.58
493.37	12606.13
493.54	12360.37
493.72	12704.43
493.90	12608.47
494.08	12624.85
494.25	12919.76
494.43	13041.46
494.61	13205.30
494.79	13036.78
494.96	12774.64
495.14	13319.99
495.32	13673.41
495.49	13593.83
495.67	13514.25
495.85	13568.09
496.02	13813.84
496.20	13809.16
496.38	13916.83
496.55	13635.96
496.73	13975.34
496.91	13987.04
497.09	14115.77
497.26	14150.88
497.44	14024.49
497.62	14221.10
497.79	14420.04
497.97	14427.06
498.14	14497.28
498.32	14789.85
498.50	14616.65
498.67	14794.53
498.85	14668.14
499.03	14934.96
499.20	14644.73
499.38	14918.57
499.56	15180.71
499.73	15021.56
499.91	15206.46
500.08	15138.58
500.26	15206.46
500.44	15164.33
500.61	15250.93
500.79	15393.70
500.97	15489.67
501.14	15499.03
501.32	15662.86
501.49	15447.54
501.67	15669.89
501.84	15721.38
502.02	15917.98
502.20	15726.06
502.37	15861.81
502.55	16063.10
502.72	15967.13
502.90	16009.26
503.07	16130.97
503.25	16231.62
503.43	16156.72
503.60	16147.36
503.78	16491.41
503.95	16329.92
504.13	16472.69
504.30	16168.42
504.48	16575.67
504.65	16645.89
504.83	16865.90
505.01	17074.21
505.18	16924.41
505.36	16999.31
505.53	16819.09
505.71	16975.91
505.88	17151.45
506.06	16943.14
506.23	17212.30
506.41	16933.78
506.58	17123.36
506.76	17338.69
506.93	17200.60
507.11	17011.01
507.28	17177.19
507.46	17577.42
507.63	17488.48
507.81	17645.30
507.98	17436.99
508.16	17745.94
508.33	17413.59
508.50	17752.96
508.68	17600.83
508.85	17877.01
509.03	17886.37
509.20	18181.28
509.38	18258.52
509.55	18200.01
509.73	18422.36
509.90	18073.62
510.08	18082.98
510.25	18129.79
510.42	18270.22
510.60	18438.74
510.77	18548.75
510.95	18623.64
511.12	18457.46
511.30	18707.90
511.47	18607.26
511.64	18703.22
511.82	19056.64
511.99	18897.49
512.17	19028.56
512.34	18902.17
512.51	18782.80
512.69	18792.16
512.86	18607.26
513.04	19145.58
513.21	19309.42
513.38	19424.11
513.56	19438.15
513.73	19229.84
513.90	19262.61
514.08	19461.55
514.25	19318.78
514.43	19529.43
514.60	19440.49
514.77	19477.94
514.95	19756.46
515.12	19999.88
515.29	19555.18
515.47	19386.66
515.64	20091.16
515.81	19929.66
515.99	19789.23
516.16	20058.39
516.33	20053.71
516.51	20217.55
516.68	19990.52
516.85	19882.85
517.03	20098.18
517.20	20114.56
517.37	20030.30
517.54	20315.85
517.72	20561.61
517.89	20451.60
518.06	20489.05
518.24	20245.63
518.41	20262.02
518.58	20559.27
518.75	20341.60
518.93	20556.93
519.10	20563.95
519.27	20648.21
519.45	20498.41
519.62	20648.21
519.79	20554.58
519.96	20699.70
520.14	21006.31
520.31	21376.11
520.48	21289.51
520.65	21078.86
520.83	21125.68
521.00	21287.17
521.17	21247.38
521.34	21303.56
521.52	21336.32
521.69	21408.88
521.86	21399.52
522.03	21458.03
522.20	21142.06
522.38	21385.47
522.55	21537.61
522.72	21551.65
522.89	21855.92
523.07	21881.67
523.24	21844.22
523.41	22136.79
523.58	21736.56
523.75	22171.89
523.92	21743.58
524.10	22017.42
524.27	22099.34
524.44	22387.22
524.61	21958.91
524.78	22286.58
524.96	22108.70
525.13	22176.58
525.30	21968.27
525.47	22181.26
525.64	22157.85
525.81	22150.83
525.98	22565.10
526.16	22354.46
526.33	22319.35
526.50	22691.49
526.67	22422.33
526.84	22354.46
527.01	22651.70
527.18	22684.47
527.36	23044.91
527.53	22663.41
527.70	23009.81
527.87	23168.96
528.04	22937.25
528.21	23033.21
528.38	22967.68
528.55	23042.57
528.72	23065.98
528.89	23295.35
529.07	23005.13
529.24	23119.81
529.41	23342.16
529.58	23445.15
529.75	23183.01
529.92	23105.77
530.09	23466.21
530.26	23363.23
530.43	23293.01
530.60	23297.69
530.77	23658.14
530.94	23309.40
531.11	23267.27
531.28	23604.30
531.46	23466.21
531.63	23470.89
531.80	23946.02
531.97	23892.19
532.14	23770.48
532.31	23817.29
532.48	23660.48
532.65	23901.55
532.82	23683.88
532.99	24144.97
533.16	23974.11
533.33	23960.06
533.50	24243.27
533.67	24137.94
533.84	24130.92
534.01	23875.80
534.18	24084.11
534.35	24109.86
534.52	23906.23
534.69	24575.62
534.86	24521.79
535.03	24208.16
535.20	24470.30
535.37	24624.78
535.54	24451.58
535.71	24287.74
535.88	24388.38
536.05	24589.67
536.22	24631.80
536.38	24907.98
536.55	24652.86
536.72	24769.89
536.89	24741.80
537.06	24877.55
537.23	24797.98
537.40	24819.04
537.57	24636.48
537.74	24865.85
537.91	25085.86
538.08	25324.60
538.25	24669.25
538.42	24926.71
538.59	24809.68
538.75	24814.36
538.92	25017.99
539.09	25039.05
539.26	25207.57
539.43	25074.16
539.60	25118.63
539.77	25376.09
539.94	25291.83
540.11	25380.77
540.28	25394.81
540.44	25132.67
540.61	25067.14
540.78	25406.52
540.95	24982.88
541.12	25429.92
541.29	25273.10
541.46	25633.55
541.62	25233.32
541.79	25596.10
541.96	25207.57
542.13	25539.93
542.30	25619.50
542.47	26146.12
542.63	25331.62
542.80	25788.02
542.97	25984.63
543.14	26101.65
543.31	25862.92
543.48	25558.65
543.64	26087.61
543.81	25972.92
543.98	26068.89
544.15	26242.09
544.32	26155.49
544.48	26476.14
544.65	26375.50
544.82	26176.55
544.99	25865.26
545.16	26071.23
545.32	26527.63
545.49	26560.40
545.66	26546.36
545.83	26211.66
546.00	26656.36
546.16	26473.80
546.33	26120.38
546.50	26155.49
546.67	26305.28
546.83	25942.50
547.00	26375.50
547.17	26342.73
547.34	26864.67
547.50	26387.20
547.67	26483.16
547.84	26635.30
548.00	26487.84
548.17	26738.28
548.34	26635.30
548.51	26967.65
548.67	26841.26
548.84	26820.20
549.01	26892.76
549.18	26869.35
549.34	26771.05
549.51	26749.98
549.68	27080.00
549.84	26775.73
550.01	26822.54
550.18	26977.01
550.34	26965.31
550.51	27648.75
550.68	27482.57
550.84	26941.91
551.01	27260.22
551.18	27140.85
551.34	26906.80
551.51	26958.29
551.68	27250.86
551.84	27782.16
552.01	27274.26
552.18	27456.82
552.34	27559.81
552.51	27679.18
552.68	27077.66
552.84	27461.51
553.01	27388.95
553.18	27442.78
553.34	27740.03
553.51	27243.84
553.67	27611.30
553.84	27779.82
554.01	27606.62
554.17	27555.13
554.34	27892.16
554.51	27770.46
554.67	27672.15
554.84	27229.79
555.00	27662.79
555.17	27211.07
555.33	27854.72
555.50	27737.69
555.67	27496.61
555.83	27744.71
556.00	27730.67
556.16	27854.72
556.33	27812.59
556.50	27604.28
556.66	27833.65
556.83	27740.03
556.99	27962.38
557.16	28187.07
557.32	28030.26
557.49	28400.06
557.65	27702.58
557.82	28086.43
557.98	28154.30
558.15	28198.77
558.32	28379.00
558.48	28025.57
558.65	28194.09
558.81	28318.14
558.98	28175.37
559.14	28643.48
559.31	28240.90
559.47	28364.95
559.64	28278.35
559.80	28318.14
559.97	28437.51
560.13	28285.37
560.30	28252.61
560.46	28474.96
560.63	28259.63
560.79	28437.51
560.96	28671.56
561.12	28428.15
561.29	28217.50
561.45	28591.98
561.61	28599.01
561.78	28566.24
561.94	28601.35
562.11	28615.39
562.27	28748.80
562.44	28449.21
562.60	28236.22
562.77	28524.11
562.93	28521.77
563.10	28896.25
563.26	28547.51
563.42	28959.45
563.59	28507.72
563.75	28451.55
563.92	28999.24
564.08	28620.07
564.24	28854.12
564.41	28554.54
564.57	28245.58
564.74	28767.52
564.90	28996.90
565.07	28781.57
565.23	28877.53
565.39	28793.27
565.56	28994.56
565.72	28325.16
565.88	28961.79
566.05	28374.31
566.21	28924.34
566.38	28811.99
566.54	28947.75
566.70	28734.76
566.87	29062.43
567.03	29120.95
567.19	29420.53
567.36	28816.68
567.52	28893.91
567.68	29092.86
567.85	28943.06
568.01	28720.71
568.17	28603.69
568.34	29134.99
568.50	29067.11
568.66	28950.09
568.83	29223.93
568.99	28992.22
569.15	28975.83
569.32	29160.73
569.48	28627.09
569.64	29263.72
569.81	28849.44
569.97	29160.73
570.13	28980.51
570.30	29097.54
570.46	29024.98
570.62	28875.19
570.78	28907.96
570.95	28711.35
571.11	29228.61
571.27	28767.52
571.43	29165.42
571.60	28994.56
571.76	28840.08
571.92	28772.21
572.09	28879.87
572.25	28961.79
572.41	29378.40
572.57	29280.10
572.74	29259.04
572.90	29411.17
573.06	29298.83
573.22	29256.70
573.38	29191.16
573.55	28999.24
573.71	29745.87
573.87	29589.05
574.03	29046.05
574.20	29256.70
574.36	29113.92
574.52	29172.44
574.68	29170.10
574.84	29294.14
575.01	29104.56
575.17	29139.67
575.33	28863.49
575.49	29289.46
575.65	29287.12
575.82	29399.47
575.98	29125.63
576.14	29521.18
576.30	29270.74
576.46	29055.41
576.62	29315.21
576.79	29289.46
576.95	29099.88
577.11	29170.10
577.27	29460.32
577.43	29610.12
577.59	29296.49
577.75	29212.23
577.92	29181.80
578.08	28891.57
578.24	29259.04
578.40	29036.69
578.56	29544.58
578.72	29329.25
578.88	29600.76
579.04	29589.05
579.21	29514.16
579.37	29163.08
579.53	29511.81
579.69	29109.24
579.85	29333.93
580.01	29392.45
580.17	29357.34
580.33	29270.74
580.49	29294.14
580.65	29589.05
580.82	29483.73
580.98	29490.75
581.14	29383.09
581.30	29476.71
581.46	29209.89
581.62	29392.45
581.78	29212.23
581.94	29649.91
582.10	29282.44
582.26	29436.92
582.42	29453.30
582.58	29560.97
582.74	29319.89
582.90	29553.94
583.06	29390.11
583.22	29450.96
583.38	29380.74
583.54	29598.41
583.70	29832.47
583.86	29163.08
584.02	29247.33
584.18	29909.71
584.34	29905.02
584.50	29701.40
584.66	29495.43
584.82	29408.83
584.98	29525.86
585.14	29329.25
585.30	29530.54
585.46	29233.29
585.62	29280.10
585.78	29472.03
585.94	29216.91
586.10	29441.60
586.26	29528.20
586.42	29509.47
586.58	29937.79
586.74	29366.70
586.90	29600.76
587.06	29443.94
587.22	29294.14
587.38	29266.06
587.54	29642.88
587.70	30059.50
587.86	29549.26
588.02	29876.94
588.18	29567.99
588.34	29827.79
588.49	30010.35
588.65	29706.08
588.81	29563.31
588.97	29727.14
589.13	29687.36
589.29	29476.71
589.45	29600.76
589.61	29518.84
589.77	30075.88
589.93	30195.25
590.08	29427.56
590.24	29420.53
590.40	29727.14
590.56	30110.99
590.72	29607.78
590.88	29806.72
591.04	29984.60
591.20	29998.65
591.35	30103.97
591.51	30169.51
591.67	30029.07
591.83	30188.23
591.99	29745.87
