SpectraSuite Data File
++++++++++++++++++++++++++++++++++++
Date: Fri Oct 18 13:58:04 GMT-05:00 2013
User: bianchi
Dark Spectrum Present: No
Reference Spectrum Present: No
Number of Sampled Component Spectra: 1
Spectrometers: USB2+H05261
Integration Time (usec): 50000 (USB2+H05261)
Spectra Averaged: 1 (USB2+H05261)
Boxcar Smoothing: 0 (USB2+H05261)
Correct for Electrical Dark: No (USB2+H05261)
Strobe/Lamp Enabled: No (USB2+H05261)
Correct for Detector Non-linearity: No (USB2+H05261)
Correct for Stray Light: No (USB2+H05261)
Number of Pixels in Processed Spectrum: 2048
>>>>>Begin Processed Spectral Data<<<<<
365.73	0.00
365.92	0.00
366.12	0.00
366.32	0.00
366.52	0.00
366.72	0.00
366.91	0.00
367.11	0.00
367.31	0.00
367.51	0.00
367.70	0.00
367.90	0.00
368.10	0.00
368.30	0.00
368.49	0.00
368.69	0.00
368.89	0.00
369.09	0.00
369.28	0.00
369.48	0.00
369.68	0.00
369.87	0.00
370.07	0.00
370.27	0.00
370.47	2.34
370.66	32.77
370.86	72.56
371.06	149.79
371.25	126.39
371.45	131.07
371.65	163.84
371.84	114.69
372.04	154.48
372.24	161.50
372.44	189.58
372.63	102.98
372.83	147.45
373.03	252.78
373.22	210.65
373.42	201.29
373.62	229.37
373.81	133.41
374.01	175.54
374.21	215.33
374.40	276.18
374.60	297.25
374.79	220.01
374.99	292.57
375.19	262.14
375.38	198.95
375.58	212.99
375.78	304.27
375.97	222.35
376.17	222.35
376.37	208.31
376.56	236.39
376.76	262.14
376.95	259.80
377.15	220.01
377.35	266.82
377.54	292.57
377.74	203.63
377.93	320.65
378.13	334.70
378.33	308.95
378.52	299.59
378.72	325.33
378.91	315.97
379.11	283.20
379.31	245.76
379.50	241.08
379.70	313.63
379.89	229.37
380.09	262.14
380.28	283.20
380.48	276.18
380.68	297.25
380.87	320.65
381.07	372.15
381.26	400.23
381.46	393.21
381.65	367.46
381.85	346.40
382.04	297.25
382.24	311.29
382.43	318.31
382.63	327.68
382.83	332.36
383.02	386.19
383.22	374.49
383.41	374.49
383.61	362.78
383.80	367.46
384.00	348.74
384.19	379.17
384.39	386.19
384.58	444.70
384.78	372.15
384.97	388.53
385.17	414.27
385.36	365.12
385.56	339.38
385.75	369.80
385.95	362.78
386.14	393.21
386.34	454.06
386.53	442.36
386.72	339.38
386.92	395.55
387.11	407.25
387.31	444.70
387.50	461.09
387.70	477.47
387.89	458.74
388.09	447.04
388.28	362.78
388.48	472.79
388.67	433.00
388.86	461.09
389.06	470.45
389.25	465.77
389.45	477.47
389.64	461.09
389.84	482.15
390.03	482.15
390.22	507.90
390.42	493.85
390.61	505.56
390.81	454.06
391.00	505.56
391.19	512.58
391.39	566.41
391.58	449.38
391.78	540.66
391.97	526.62
392.16	503.22
392.36	547.69
392.55	559.39
392.75	561.73
392.94	592.16
393.13	561.73
393.33	535.98
393.52	552.37
393.71	486.83
393.91	650.67
394.10	589.82
394.29	592.16
394.49	631.94
394.68	643.65
394.88	599.18
395.07	664.71
395.26	634.29
395.46	660.03
395.65	711.52
395.84	683.44
396.04	589.82
396.23	678.76
396.42	744.29
396.62	636.63
396.81	657.69
397.00	655.35
397.19	720.88
397.39	678.76
397.58	795.78
397.77	741.95
397.97	674.07
398.16	653.01
398.35	737.27
398.55	734.93
398.74	650.67
398.93	716.20
399.12	716.20
399.32	734.93
399.51	734.93
399.70	802.80
399.90	744.29
400.09	748.97
400.28	760.67
400.47	791.10
400.67	753.65
400.86	753.65
401.05	812.17
401.24	777.06
401.44	903.45
401.63	861.32
401.82	819.19
402.01	809.83
402.21	833.23
402.40	814.51
402.59	814.51
402.78	947.92
402.97	828.55
403.17	887.06
403.36	863.66
403.55	884.72
403.74	919.83
403.93	809.83
404.13	812.17
404.32	936.21
404.51	840.25
404.70	884.72
404.89	926.85
405.09	940.90
405.28	973.66
405.47	884.72
405.66	1001.75
405.85	1013.45
406.05	983.02
406.24	1067.28
406.43	1006.43
406.62	1055.58
406.81	1093.03
407.00	929.19
407.20	1025.15
407.39	1062.60
407.58	1053.24
407.77	1071.97
407.96	1123.46
408.15	1130.48
408.34	1057.92
408.54	1144.52
408.73	1132.82
408.92	1109.41
409.11	1125.80
409.30	1174.95
409.49	1114.10
409.68	1146.86
409.87	1128.14
410.07	1172.61
410.26	1156.22
410.45	1203.04
410.64	1210.06
410.83	1235.80
411.02	1252.19
411.21	1317.72
411.40	1254.53
411.59	1324.74
411.78	1200.69
411.98	1270.91
412.17	1263.89
412.36	1256.87
412.55	1275.59
412.74	1387.94
412.93	1397.30
413.12	1394.96
413.31	1416.02
413.50	1385.60
413.69	1397.30
413.88	1394.96
414.07	1378.58
414.26	1523.69
414.45	1432.41
414.64	1526.03
414.83	1528.37
415.02	1455.81
415.22	1516.67
415.41	1708.59
415.60	1483.90
415.79	1621.99
415.98	1605.61
416.17	1659.44
416.36	1598.59
416.55	1575.18
416.74	1654.76
416.93	1636.03
417.12	1614.97
417.31	1678.16
417.50	1643.06
417.69	1673.48
417.88	1816.26
418.07	1764.76
418.26	1952.01
418.45	1776.47
418.64	1844.34
418.83	1881.79
419.02	1788.17
419.21	1694.55
419.39	1792.85
419.58	1736.68
419.77	1879.45
419.96	1846.68
420.15	1893.49
420.34	1797.53
420.53	1907.54
420.72	1966.05
420.91	1790.51
421.10	1933.28
421.29	2062.01
421.48	1935.62
421.67	2015.20
421.86	1937.96
422.05	2015.20
422.24	1966.05
422.43	1984.77
422.61	2104.14
422.80	2113.50
422.99	2106.48
423.18	2047.97
423.37	2165.00
423.56	1977.75
423.75	2059.67
423.94	1935.62
424.13	1912.22
424.32	1874.77
424.50	2069.03
424.69	2115.84
424.88	2139.25
425.07	2090.10
425.26	1891.15
425.45	2076.06
425.64	2073.71
425.83	2083.08
426.01	2101.80
426.20	2120.53
426.39	2022.22
426.58	2064.35
426.77	2080.74
426.96	2106.48
427.15	2186.06
427.33	2160.31
427.52	2083.08
427.71	2193.08
427.90	2172.02
428.09	2279.68
428.28	2172.02
428.46	2160.31
428.65	2232.87
428.84	2188.40
429.03	2228.19
429.22	2160.31
429.40	2328.83
429.59	2284.36
429.78	2239.89
429.97	2122.87
430.16	2235.21
430.34	2293.72
430.53	2424.80
430.72	2375.64
430.91	2279.68
431.10	2232.87
431.28	2532.46
431.47	2513.74
431.66	2452.88
431.85	2415.43
432.03	2441.18
432.22	2466.92
432.41	2410.75
432.60	2403.73
432.79	2450.54
432.97	2417.77
433.16	2483.31
433.35	2548.84
433.54	2511.39
433.72	2485.65
433.91	2511.39
434.10	2607.36
434.28	2502.03
434.47	2497.35
434.66	2658.85
434.85	2693.96
435.03	2595.65
435.22	2579.27
435.41	2785.24
435.59	2656.51
435.78	2647.15
435.97	2686.94
436.16	2846.09
436.34	2736.09
436.53	2719.70
436.72	2750.13
436.90	2771.19
437.09	2761.83
437.28	2696.30
437.46	2729.06
437.65	2810.98
437.84	2867.16
438.02	2700.98
438.21	2729.06
438.40	2888.22
438.58	2848.43
438.77	2878.86
438.96	2967.80
439.14	2871.84
439.33	3028.65
439.52	2970.14
439.70	3054.40
439.89	3129.30
440.08	3073.12
440.26	3112.91
440.45	3295.47
440.63	3047.38
440.82	3110.57
441.01	3155.04
441.19	3049.72
441.38	3206.53
441.57	3206.53
441.75	3164.40
441.94	3503.78
442.12	3185.47
442.31	3405.48
442.50	3302.50
442.68	3403.14
442.87	3356.33
443.05	3332.92
443.24	3585.70
443.43	3403.14
443.61	3562.30
443.80	3473.36
443.98	3361.01
444.17	3353.99
444.35	3398.46
444.54	3513.14
444.73	3428.88
444.91	3463.99
445.10	3611.45
445.28	3445.27
445.47	3370.37
445.65	3410.16
445.84	3433.57
446.02	3412.50
446.21	3459.31
446.39	3564.64
446.58	3698.05
446.77	3522.51
446.95	3506.12
447.14	3576.34
447.32	3653.58
447.51	3442.93
447.69	3445.27
447.88	3482.72
448.06	3611.45
448.25	3578.68
448.43	3520.17
448.62	3630.17
448.80	3571.66
448.99	3487.40
449.17	3520.17
449.36	3674.64
449.54	3763.58
449.73	3815.07
449.91	3777.62
450.10	3861.88
450.28	3770.60
450.46	3754.22
450.65	3716.77
450.83	3733.15
451.02	3875.93
451.20	3894.65
451.39	3850.18
451.57	3812.73
451.76	3833.80
451.94	3889.97
452.13	3824.44
452.31	3946.14
452.49	3688.68
452.68	4004.66
452.86	3871.25
453.05	3889.97
453.23	3964.87
453.42	3864.22
453.60	3859.54
453.78	3974.23
453.97	3815.07
454.15	4035.08
454.34	3955.51
454.52	4035.08
454.70	3985.93
454.89	4112.32
455.07	4147.43
455.26	4100.62
455.44	4042.11
455.62	4156.79
455.81	4074.87
455.99	4126.36
456.17	4170.83
456.36	4205.94
456.54	4273.82
456.73	4238.71
456.91	4440.00
457.09	4311.27
457.28	4432.97
457.46	4318.29
457.64	4435.32
457.83	4376.80
458.01	4465.74
458.19	4308.93
458.38	4449.36
458.56	4547.66
458.74	4608.51
458.93	4451.70
459.11	4500.85
459.29	4461.06
459.48	4514.89
459.66	4594.47
459.84	4648.30
460.03	4587.45
460.21	4571.07
460.39	4554.68
460.57	4716.18
460.76	4664.69
460.94	4748.95
461.12	4720.86
461.31	4688.09
461.49	4779.37
461.67	4702.14
461.85	4833.21
462.04	4655.33
462.22	5029.81
462.40	4795.76
462.59	4854.27
462.77	4784.06
462.95	4762.99
463.13	4966.62
463.32	4954.91
463.50	4676.39
463.68	4931.51
463.86	4844.91
464.05	4947.89
464.23	4924.49
464.41	5158.54
464.59	4842.57
464.78	5104.71
464.96	4971.30
465.14	4901.08
465.32	4994.70
465.50	5067.26
465.69	5188.97
465.87	4891.72
466.05	4924.49
466.23	5057.90
466.41	5153.86
466.60	5214.71
466.78	5156.20
466.96	5118.75
467.14	5036.83
467.32	5144.50
467.51	5221.74
467.69	5076.62
467.87	5095.35
468.05	5249.82
468.23	5160.88
468.41	5156.20
468.60	5245.14
468.78	5277.91
468.96	5132.79
469.14	5357.49
469.32	5373.87
469.50	5245.14
469.69	5518.98
469.87	5275.57
470.05	5626.65
470.23	5481.53
470.41	5518.98
470.59	5593.88
470.77	5596.22
470.95	5575.16
471.14	5516.64
471.32	5577.50
471.50	5584.52
471.68	5671.12
471.86	5738.99
472.04	5706.23
472.22	5909.85
472.40	5771.76
472.58	5858.36
472.77	5940.28
472.95	5942.62
473.13	6092.41
473.31	6029.22
473.49	5837.30
473.67	6129.86
473.85	6050.28
474.03	5980.07
474.21	5928.58
474.39	6244.55
474.57	6246.89
474.75	6228.17
474.93	6293.70
475.12	6267.95
475.30	6502.01
475.48	6228.17
475.66	6410.73
475.84	6289.02
476.02	6450.52
476.20	6434.13
476.38	6656.48
476.56	6710.32
476.74	6656.48
476.92	6497.33
477.10	6633.08
477.28	6754.79
477.46	6677.55
477.64	6670.53
477.82	6796.92
478.00	7159.70
478.18	6981.82
478.36	7061.40
478.54	7290.77
478.72	7087.14
478.90	7080.12
479.08	7440.56
479.26	7297.79
479.44	7480.35
479.62	7496.74
479.80	7485.03
479.98	7733.13
480.16	7581.00
480.34	7733.13
480.52	7824.41
480.70	7707.38
480.88	7784.62
481.06	7889.95
481.24	7646.53
481.41	7955.48
481.59	7880.58
481.77	8049.10
481.95	8241.03
482.13	8360.39
482.31	8224.64
482.49	8285.50
482.67	8367.42
482.85	8493.80
483.03	8435.29
483.21	8648.28
483.39	8622.53
483.57	8699.77
483.74	8826.16
483.92	8802.75
484.10	8903.40
484.28	9132.77
484.46	9212.35
484.64	9298.95
484.82	9151.49
485.00	9380.87
485.18	9261.50
485.35	9268.52
485.53	9441.72
485.71	9547.05
485.89	9806.84
486.07	9673.43
486.25	9647.69
486.43	9661.73
486.61	9823.23
486.78	10012.81
486.96	10085.37
487.14	10181.33
487.32	10263.25
487.50	10249.21
487.68	10485.60
487.85	10572.20
488.03	10548.79
488.21	10796.89
488.39	10714.97
488.57	10853.06
488.75	10595.61
488.92	11073.07
489.10	11316.49
489.28	11112.86
489.46	11176.06
489.64	11370.32
489.81	11580.97
489.99	11473.31
490.17	11510.75
490.35	11726.08
490.53	11470.97
490.70	11852.47
490.88	11733.11
491.06	12018.65
491.24	11894.60
491.41	12133.34
491.59	12121.63
491.77	12208.23
491.95	12353.35
492.13	12446.97
492.30	12329.94
492.48	12643.57
492.66	12648.26
492.84	12313.56
493.01	13032.10
493.19	12575.70
493.37	13053.17
493.54	12987.63
493.72	12842.52
493.90	12849.54
494.08	13078.91
494.25	13420.63
494.43	13547.02
494.61	13511.91
494.79	13525.96
494.96	13549.36
495.14	13748.31
495.32	13792.78
495.49	13865.33
495.67	13914.48
495.85	13909.80
496.02	13949.59
496.20	14162.58
496.38	14281.95
496.55	14195.35
496.73	14366.21
496.91	14394.29
497.09	14352.16
497.26	14824.95
497.44	14611.96
497.62	14314.72
497.79	14822.61
497.97	14963.04
498.14	15042.62
498.32	15080.07
498.50	15246.25
498.67	15236.89
498.85	15183.06
499.03	15122.20
499.20	15166.67
499.38	15328.17
499.56	15187.74
499.73	15700.31
499.91	15587.97
500.08	15885.22
500.26	15564.56
500.44	15550.52
500.61	15784.57
500.79	15634.78
500.97	15962.45
501.14	16140.33
501.32	16170.76
501.49	16121.61
501.67	16112.25
501.84	16173.10
502.02	16285.45
502.20	16407.16
502.37	16552.27
502.55	16152.04
502.72	16336.94
502.90	16531.20
503.07	16271.40
503.25	16709.08
503.43	16681.00
503.60	16704.40
503.78	16606.10
503.95	17048.46
504.13	16816.75
504.30	16748.87
504.48	16795.68
504.65	16910.37
504.83	16994.63
505.01	17334.01
505.18	17261.45
505.36	17322.30
505.53	17020.38
505.71	17310.60
505.88	17598.49
506.06	17359.75
506.23	17577.42
506.41	17759.98
506.58	17657.00
506.76	17769.35
506.93	18012.76
507.11	17593.81
507.28	17825.52
507.46	17914.46
507.63	17872.33
507.81	18012.76
507.98	17949.57
508.16	18225.75
508.33	18239.79
508.50	18040.85
508.68	18139.15
508.85	18724.29
509.03	18492.57
509.20	18621.30
509.38	18464.49
509.55	18574.49
509.73	18581.51
509.90	19089.41
510.08	18548.75
510.25	18611.94
510.42	18735.99
510.60	19101.11
510.77	19009.83
510.95	19379.64
511.12	19087.07
511.30	18988.77
511.47	19054.30
511.64	19304.74
511.82	19501.34
511.99	19417.08
512.17	19559.86
512.34	19271.97
512.51	19293.04
512.69	19557.52
512.86	19648.80
513.04	19831.36
513.21	19428.79
513.38	19798.59
513.56	19985.83
513.73	19466.24
513.90	19623.05
514.08	19920.30
514.25	19964.77
514.43	20098.18
514.60	20243.29
514.77	19901.58
514.95	20311.17
515.12	20519.48
515.29	20084.14
515.47	20348.62
515.64	20357.98
515.81	20425.86
515.99	20645.87
516.16	20549.90
516.33	20585.01
516.51	20549.90
516.68	20540.54
516.85	20570.97
517.03	20903.32
517.20	20566.29
517.37	20933.75
517.54	20783.96
517.72	20903.32
517.89	20645.87
518.06	21099.93
518.24	21102.27
518.41	20884.60
518.58	21174.83
518.75	21219.30
518.93	21106.95
519.10	21256.75
519.27	21600.80
519.45	21343.35
519.62	21345.69
519.79	21568.04
519.96	21415.90
520.14	21544.63
520.31	21404.20
520.48	21970.61
520.65	21378.45
520.83	21940.18
521.00	21635.91
521.17	21771.66
521.34	21717.83
521.52	22054.87
521.69	22001.04
521.86	22237.43
522.03	22078.27
522.20	22265.52
522.38	22066.57
522.55	22221.05
522.72	22352.12
522.89	22380.20
523.07	22738.30
523.24	22623.62
523.41	22988.74
523.58	22267.86
523.75	22569.79
523.92	22249.13
524.10	22768.73
524.27	22583.83
524.44	22817.88
524.61	23063.64
524.78	22897.46
524.96	22717.24
525.13	22913.84
525.30	22955.97
525.47	23009.81
525.64	22906.82
525.81	23115.13
525.98	23463.87
526.16	23105.77
526.33	23339.82
526.50	23311.74
526.67	23264.92
526.84	23206.41
527.01	22974.70
527.18	23520.04
527.36	23662.82
527.53	23782.18
527.70	23587.92
527.87	23737.71
528.04	23772.82
528.21	23744.73
528.38	23805.59
528.55	23632.39
528.72	23491.96
528.89	23718.99
529.07	23672.18
529.24	23836.02
529.41	23995.17
529.58	23690.90
529.75	23908.57
529.92	23817.29
530.09	23761.12
530.26	23978.79
530.43	24315.83
530.60	24004.53
530.77	24149.65
530.94	23971.77
531.11	23718.99
531.28	24217.52
531.46	24081.77
531.63	24404.77
531.80	24652.86
531.97	24622.44
532.14	24238.59
532.31	24643.50
532.48	24486.68
532.65	24474.98
532.82	24493.71
532.99	24720.74
533.16	24734.78
533.33	24964.15
533.50	25343.32
533.67	24718.40
533.84	24898.62
534.01	24716.06
534.18	24526.47
534.35	24900.96
534.52	24779.25
534.69	25249.70
534.86	25191.19
535.03	25003.94
535.20	25659.29
535.37	25186.50
535.54	25132.67
535.71	25200.55
535.88	25233.32
536.05	25216.93
536.22	25273.10
536.38	25436.94
536.55	25486.09
536.72	25448.64
536.89	25462.69
537.06	25317.57
537.23	25277.79
537.40	25628.87
537.57	25481.41
537.74	25497.80
537.91	25947.18
538.08	25804.41
538.25	25273.10
538.42	25986.97
538.59	26176.55
538.75	25748.23
538.92	25748.23
539.09	25741.21
539.26	25673.34
539.43	26078.25
539.60	25577.37
539.77	25706.10
539.94	25830.15
540.11	25874.62
540.28	25965.90
540.44	26340.39
540.61	25912.07
540.78	26228.04
540.95	26139.10
541.12	26244.43
541.29	26288.90
541.46	26295.92
541.62	25940.16
541.79	26548.70
541.96	26178.89
542.13	26443.37
542.30	26387.20
542.47	26724.24
542.63	26473.80
542.80	26958.29
542.97	26703.17
543.14	27058.93
543.31	26576.78
543.48	26661.04
543.64	26897.44
543.81	26969.99
543.98	27187.66
544.15	26731.26
544.32	26930.20
544.48	27356.18
544.65	26960.63
544.82	27075.32
544.99	26782.75
545.16	26977.01
545.32	27175.96
545.49	27379.59
545.66	27431.08
545.83	27147.87
546.00	27763.43
546.16	27288.31
546.33	27384.27
546.50	27180.64
546.67	27255.54
546.83	27150.21
547.00	27098.72
547.17	27786.84
547.34	27615.98
547.50	27522.36
547.67	27721.30
547.84	27302.35
548.00	27999.83
548.17	27915.57
548.34	27482.57
548.51	27866.42
548.67	27700.24
548.84	27953.02
549.01	27410.01
549.18	27632.36
549.34	27990.47
549.51	27779.82
549.68	27683.86
549.84	27871.10
550.01	27740.03
550.18	27505.98
550.34	27791.52
550.51	28039.62
550.68	28144.94
550.84	27655.77
551.01	27983.44
551.18	27915.57
551.34	27936.63
551.51	28236.22
551.68	28280.69
551.84	28322.82
552.01	28147.28
552.18	28538.15
552.34	28147.28
552.51	28327.50
552.68	28329.84
552.84	28051.32
553.01	28063.02
553.18	28250.27
553.34	28744.12
553.51	28699.65
553.67	28402.40
553.84	29113.92
554.01	28709.01
554.17	28589.64
554.34	28664.54
554.51	28599.01
554.67	28285.37
554.84	28774.55
555.00	28573.26
555.17	28650.50
555.33	29085.84
555.50	28664.54
555.67	28809.65
555.83	29111.58
556.00	28842.42
556.16	29142.01
556.33	28603.69
556.50	28737.10
556.66	29043.71
556.83	28559.22
556.99	29153.71
557.16	29071.79
557.32	28439.85
557.49	29296.49
557.65	28912.64
557.82	28833.06
557.98	29092.86
558.15	28622.41
558.32	29280.10
558.48	28996.90
558.65	29399.47
558.81	29069.45
558.98	29305.85
559.14	29212.23
559.31	29209.89
559.47	29071.79
559.64	29598.41
559.80	29088.18
559.97	29465.00
560.13	29088.18
560.30	29509.47
560.46	29212.23
560.63	29462.66
560.79	29434.58
560.96	29553.94
561.12	29429.90
561.29	29338.62
561.45	29373.72
561.61	29603.10
561.78	29219.25
561.94	29287.12
562.11	29565.65
562.27	29567.99
562.44	29392.45
562.60	29666.29
562.77	29432.24
562.93	29256.70
563.10	29390.11
563.26	29486.07
563.42	29652.25
563.59	29715.44
563.75	29670.97
563.92	29909.71
564.08	29415.85
564.24	29565.65
564.41	29715.44
564.57	29720.12
564.74	29617.14
564.90	29874.60
565.07	29675.65
565.23	29776.30
565.39	29479.05
565.56	29912.05
565.72	29830.13
565.88	29493.09
566.05	29724.80
566.21	30000.99
566.38	29633.52
566.54	30202.27
566.70	30190.57
566.87	30024.39
567.03	29631.18
567.19	30295.89
567.36	29813.74
567.52	29795.02
567.68	30047.80
567.85	30110.99
568.01	29862.90
568.17	29947.15
568.34	30176.53
568.50	30136.74
568.66	30466.75
568.83	30080.56
568.99	29883.96
569.15	30127.38
569.32	29886.30
569.48	30286.53
569.64	30136.74
569.81	30153.12
569.97	29830.13
570.13	30141.42
570.30	30120.35
570.46	30359.09
570.62	30099.29
570.78	29986.94
570.95	29879.28
571.11	29942.47
571.27	30066.52
571.43	30242.06
571.60	30462.07
571.76	30331.00
571.92	29984.60
572.09	30249.08
572.25	30272.49
572.41	30572.08
572.57	30019.71
572.74	30405.90
572.90	29696.72
573.06	29858.21
573.22	30192.91
573.38	30323.98
573.55	30010.35
573.71	30508.88
573.87	30480.80
574.03	30323.98
574.20	30469.09
574.36	29806.72
574.52	29907.37
574.68	30239.72
574.84	30717.19
575.01	30405.90
575.17	30068.86
575.33	30087.59
575.49	30375.47
575.65	30148.44
575.82	30656.34
575.98	29968.22
576.14	30136.74
576.30	30431.65
576.46	30494.84
576.62	30520.59
576.79	30199.93
576.95	30302.92
577.11	30382.49
577.27	30312.28
577.43	30668.04
577.59	30157.80
577.75	30316.96
577.92	30073.54
578.08	30199.93
578.24	30221.00
578.40	30632.93
578.56	30192.91
578.72	30387.18
578.88	30808.47
579.04	31063.59
579.21	30267.81
579.37	30639.95
579.53	30478.46
579.69	30703.15
579.85	30012.69
580.01	30665.70
580.17	30284.19
580.33	30157.80
580.49	30511.22
580.65	30740.60
580.82	30328.66
580.98	30920.82
581.14	30518.25
581.30	30478.46
581.46	30265.47
581.62	30614.21
581.78	29986.94
581.94	30431.65
582.10	30558.03
582.26	30436.33
582.42	30464.41
582.58	30710.17
582.74	30829.54
582.90	30574.42
583.06	30499.52
583.22	30731.23
583.38	30536.97
583.54	30658.68
583.70	30518.25
583.86	30335.68
584.02	30466.75
584.18	30558.03
584.34	30946.56
584.50	30679.74
584.66	30600.16
584.82	30087.59
584.98	30604.84
585.14	30572.08
585.30	30167.16
585.46	31040.18
585.62	30368.45
585.78	30686.76
585.94	30316.96
586.10	30340.36
586.26	30558.03
586.42	30998.06
586.58	30906.77
586.74	30213.98
586.90	30178.87
587.06	30080.56
587.22	30583.78
587.38	30581.44
587.54	30749.96
587.70	30885.71
587.86	30670.38
588.02	30857.62
588.18	30771.02
588.34	31002.74
588.49	30670.38
588.65	30771.02
588.81	30588.46
588.97	30700.81
589.13	30857.62
589.29	30675.06
589.45	31124.44
589.61	30874.01
589.77	31077.63
589.93	30843.58
590.08	31421.69
590.24	31152.53
590.40	31189.98
590.56	30654.00
590.72	31005.08
590.88	30789.75
591.04	30497.18
591.20	31356.16
591.35	30984.01
591.51	31220.41
591.67	30923.16
591.83	31267.22
