SpectraSuite Data File
++++++++++++++++++++++++++++++++++++
Date: Fri Oct 18 13:58:26 GMT-05:00 2013
User: bianchi
Dark Spectrum Present: No
Reference Spectrum Present: No
Number of Sampled Component Spectra: 1
Spectrometers: USB2+H05261
Integration Time (usec): 50000 (USB2+H05261)
Spectra Averaged: 1 (USB2+H05261)
Boxcar Smoothing: 0 (USB2+H05261)
Correct for Electrical Dark: No (USB2+H05261)
Strobe/Lamp Enabled: No (USB2+H05261)
Correct for Detector Non-linearity: No (USB2+H05261)
Correct for Stray Light: No (USB2+H05261)
Number of Pixels in Processed Spectrum: 2048
>>>>>Begin Processed Spectral Data<<<<<
365.73	0.00
365.92	0.00
366.12	0.00
366.32	0.00
366.52	0.00
366.72	0.00
366.91	0.00
367.11	0.00
367.31	0.00
367.51	0.00
367.70	0.00
367.90	0.00
368.10	0.00
368.30	0.00
368.49	0.00
368.69	0.00
368.89	0.00
369.09	0.00
369.28	0.00
369.48	0.00
369.68	0.00
369.87	0.00
370.07	0.00
370.27	0.00
370.47	39.79
370.66	16.38
370.86	25.75
371.06	147.45
371.25	210.65
371.45	128.73
371.65	168.52
371.84	114.69
372.04	124.05
372.24	187.24
372.44	210.65
372.63	252.78
372.83	231.71
373.03	222.35
373.22	241.08
373.42	154.48
373.62	173.20
373.81	238.73
374.01	259.80
374.21	236.39
374.40	255.12
374.60	315.97
374.79	262.14
374.99	194.26
375.19	259.80
375.38	234.05
375.58	231.71
375.78	250.44
375.97	241.08
376.17	255.12
376.37	325.33
376.56	264.48
376.76	241.08
376.95	234.05
377.15	299.59
377.35	234.05
377.54	255.12
377.74	285.55
377.93	334.70
378.13	264.48
378.33	264.48
378.52	236.39
378.72	285.55
378.91	304.27
379.11	224.69
379.31	308.95
379.50	210.65
379.70	287.89
379.89	362.78
380.09	259.80
380.28	294.91
380.48	294.91
380.68	212.99
380.87	243.42
381.07	318.31
381.26	369.80
381.46	344.06
381.65	255.12
381.85	280.86
382.04	304.27
382.24	322.99
382.43	360.44
382.63	393.21
382.83	299.59
383.02	369.80
383.22	330.02
383.41	402.57
383.61	313.63
383.80	390.87
384.00	374.49
384.19	388.53
384.39	437.68
384.58	404.91
384.78	358.10
384.97	397.89
385.17	383.85
385.36	322.99
385.56	372.15
385.75	330.02
385.95	341.72
386.14	454.06
386.34	344.06
386.53	390.87
386.72	369.80
386.92	376.83
387.11	402.57
387.31	393.21
387.50	435.34
387.70	369.80
387.89	358.10
388.09	393.21
388.28	397.89
388.48	465.77
388.67	425.98
388.86	393.21
389.06	486.83
389.25	512.58
389.45	493.85
389.64	484.49
389.84	411.93
390.03	447.04
390.22	486.83
390.42	440.02
390.61	414.27
390.81	482.15
391.00	496.19
391.19	500.87
391.39	491.51
391.58	498.53
391.78	414.27
391.97	519.60
392.16	454.06
392.36	573.43
392.55	503.22
392.75	540.66
392.94	610.88
393.13	596.84
393.33	472.79
393.52	578.11
393.71	608.54
393.91	573.43
394.10	585.13
394.29	589.82
394.49	613.22
394.68	531.30
394.88	660.03
395.07	641.31
395.26	580.45
395.46	568.75
395.65	664.71
395.84	615.56
396.04	589.82
396.23	641.31
396.42	641.31
396.62	578.11
396.81	599.18
397.00	596.84
397.19	636.63
397.39	627.26
397.58	723.23
397.77	711.52
397.97	688.12
398.16	676.41
398.35	725.57
398.55	603.86
398.74	697.48
398.93	737.27
399.12	699.82
399.32	748.97
399.51	648.33
399.70	713.86
399.90	805.14
400.09	716.20
400.28	746.63
400.47	751.31
400.67	760.67
400.86	828.55
401.05	753.65
401.24	821.53
401.44	849.61
401.63	798.12
401.82	685.78
402.01	760.67
402.21	793.44
402.40	767.70
402.59	858.98
402.78	840.25
402.97	826.21
403.17	917.49
403.36	884.72
403.55	842.59
403.74	833.23
403.93	870.68
404.13	936.21
404.32	973.66
404.51	964.30
404.70	842.59
404.89	903.45
405.09	922.17
405.28	980.68
405.47	936.21
405.66	903.45
405.85	950.26
406.05	910.47
406.24	959.62
406.43	1046.22
406.62	1015.79
406.81	987.71
407.00	983.02
407.20	987.71
407.39	987.71
407.58	947.92
407.77	1008.77
407.96	1067.28
408.15	1046.22
408.34	1137.50
408.54	980.68
408.73	1114.10
408.92	1200.69
409.11	1104.73
409.30	1167.93
409.49	1132.82
409.68	1228.78
409.87	1088.35
410.07	1193.67
410.26	1240.48
410.45	1160.91
410.64	1249.85
410.83	1142.18
411.02	1200.69
411.21	1142.18
411.40	1245.16
411.59	1324.74
411.78	1273.25
411.98	1184.31
412.17	1282.61
412.36	1280.27
412.55	1287.29
412.74	1416.02
412.93	1334.11
413.12	1385.60
413.31	1399.64
413.50	1345.81
413.69	1392.62
413.88	1448.79
414.07	1383.26
414.26	1441.77
414.45	1481.56
414.64	1528.37
414.83	1507.30
415.02	1551.78
415.22	1373.89
415.41	1490.92
415.60	1483.90
415.79	1540.07
415.98	1565.82
416.17	1607.95
416.36	1643.06
416.55	1614.97
416.74	1605.61
416.93	1556.46
417.12	1610.29
417.31	1666.46
417.50	1636.03
417.69	1755.40
417.88	1769.44
418.07	1722.63
418.26	1741.36
418.45	1664.12
418.64	1870.09
418.83	1853.70
419.02	1720.29
419.21	1842.00
419.39	1865.41
419.58	1839.66
419.77	1849.02
419.96	1785.83
420.15	1905.20
420.34	1870.09
420.53	1895.83
420.72	1940.30
420.91	1973.07
421.10	1895.83
421.29	1888.81
421.48	1888.81
421.67	1947.33
421.86	1837.32
422.05	2001.16
422.24	1944.99
422.43	2036.27
422.61	1893.49
422.80	1893.49
422.99	1996.48
423.18	1959.03
423.37	2026.90
423.56	1973.07
423.75	2019.88
423.94	1881.79
424.13	1830.30
424.32	1886.47
424.50	2019.88
424.69	2069.03
424.88	2036.27
425.07	2024.56
425.26	2026.90
425.45	1914.56
425.64	1923.92
425.83	2090.10
426.01	2057.33
426.20	2071.37
426.39	2157.97
426.58	2015.20
426.77	2078.40
426.96	2169.68
427.15	2001.16
427.33	2127.55
427.52	2038.61
427.71	2225.85
427.90	2172.02
428.09	2204.78
428.28	2242.23
428.46	2289.04
428.65	2181.38
428.84	2345.22
429.03	2422.45
429.22	2232.87
429.40	2356.92
429.59	2307.77
429.78	2125.21
429.97	2167.34
430.16	2232.87
430.34	2317.13
430.53	2310.11
430.72	2368.62
430.91	2356.92
431.10	2368.62
431.28	2387.35
431.47	2422.45
431.66	2413.09
431.85	2387.35
432.03	2448.20
432.22	2459.90
432.41	2420.11
432.60	2401.39
432.79	2471.61
432.97	2403.73
433.16	2443.52
433.35	2492.67
433.54	2579.27
433.72	2586.29
433.91	2485.65
434.10	2473.95
434.28	2516.08
434.47	2532.46
434.66	2534.80
434.85	2558.21
435.03	2588.63
435.22	2562.89
435.41	2623.74
435.59	2754.81
435.78	2710.34
435.97	2534.80
436.16	2576.93
436.34	2637.78
436.53	2703.32
436.72	2740.77
436.90	2511.39
437.09	2670.55
437.28	2614.38
437.46	2712.68
437.65	2750.13
437.84	2855.45
438.02	2752.47
438.21	2832.05
438.40	2822.69
438.58	2825.03
438.77	2916.31
438.96	2818.00
439.14	2930.35
439.33	2977.16
439.52	2972.48
439.70	3005.25
439.89	2937.37
440.08	3082.49
440.26	2993.55
440.45	2998.23
440.63	3098.87
440.82	3073.12
441.01	3129.30
441.19	3199.51
441.38	3105.89
441.57	3187.81
441.75	3199.51
441.94	3300.16
442.12	3164.40
442.31	3332.92
442.50	3269.73
442.68	3386.76
442.87	3246.32
443.05	3302.50
443.24	3433.57
443.43	3403.14
443.61	3344.63
443.80	3456.97
443.98	3309.52
444.17	3197.17
444.35	3419.52
444.54	3396.12
444.73	3482.72
444.91	3499.10
445.10	3407.82
445.28	3386.76
445.47	3496.76
445.65	3400.80
445.84	3445.27
446.02	3485.06
446.21	3478.04
446.39	3510.80
446.58	3456.97
446.77	3384.41
446.95	3314.20
447.14	3438.25
447.32	3639.53
447.51	3595.06
447.69	3583.36
447.88	3588.04
448.06	3552.93
448.25	3527.19
448.43	3648.90
448.62	3494.42
448.80	3391.44
448.99	3576.34
449.17	3777.62
449.36	3648.90
449.54	3700.39
449.73	3775.28
449.91	3794.01
450.10	3730.81
450.28	3709.75
450.46	3770.60
450.65	3740.18
450.83	3794.01
451.02	3691.02
451.20	3819.75
451.39	3712.09
451.57	3726.13
451.76	3777.62
451.94	3686.34
452.13	3859.54
452.31	3803.37
452.49	3765.92
452.68	3962.53
452.86	3887.63
453.05	3920.40
453.23	3936.78
453.42	3822.09
453.60	3833.80
453.78	3911.04
453.97	3852.52
454.15	3962.53
454.34	4088.92
454.52	3992.95
454.70	4002.32
454.89	4032.74
455.07	4042.11
455.26	4007.00
455.44	4184.88
455.62	4025.72
455.81	4051.47
455.99	4079.55
456.17	4109.98
456.36	4203.60
456.54	4175.52
456.73	4311.27
456.91	4386.16
457.09	4325.31
457.28	4374.46
457.46	4163.81
457.64	4414.25
457.83	4404.89
458.01	4428.29
458.19	4386.16
458.38	4367.44
458.56	4411.91
458.74	4414.25
458.93	4252.75
459.11	4388.50
459.29	4461.06
459.48	4451.70
459.66	4517.23
459.84	4554.68
460.03	4493.83
460.21	4517.23
460.39	4678.73
460.57	4479.79
460.76	4491.49
460.94	4629.58
461.12	4704.48
461.31	4571.07
461.49	4533.62
461.67	4547.66
461.85	4664.69
462.04	4720.86
462.22	4898.74
462.40	4657.67
462.59	4683.41
462.77	4767.67
462.95	4777.03
463.13	4781.71
463.32	4884.70
463.50	4887.04
463.68	4856.61
463.86	4774.69
464.05	4929.17
464.23	4765.33
464.41	5088.32
464.59	4805.12
464.78	5041.51
464.96	4938.53
465.14	4816.82
465.32	4905.76
465.50	4887.04
465.69	4975.98
465.87	4959.60
466.05	4950.23
466.23	5057.90
466.41	5006.41
466.60	5125.77
466.78	5053.22
466.96	5144.50
467.14	5093.01
467.32	5151.52
467.51	5219.39
467.69	4945.55
467.87	5128.11
468.05	5130.45
468.23	5132.79
468.41	5139.82
468.60	5214.71
468.78	5291.95
468.96	5359.83
469.14	5334.08
469.32	5350.46
469.50	5142.16
469.69	5231.10
469.87	5303.65
470.05	5497.92
470.23	5420.68
470.41	5385.57
470.59	5451.11
470.77	5408.98
470.95	5451.11
471.14	5547.07
471.32	5509.62
471.50	5596.22
471.68	5526.00
471.86	5666.44
472.04	5804.53
472.22	5785.80
472.40	5785.80
472.58	5666.44
472.77	5540.05
472.95	5900.49
473.13	5895.81
473.31	5841.98
473.49	5933.26
473.67	5788.14
473.85	5884.11
474.03	6036.24
474.21	5930.92
474.39	6047.94
474.57	6057.31
474.75	6256.25
474.93	6190.72
475.12	6228.17
475.30	6043.26
475.48	6017.52
475.66	6179.01
475.84	6200.08
476.02	6307.74
476.20	6251.57
476.38	6314.77
476.56	6525.41
476.74	6511.37
476.92	6469.24
477.10	6654.14
477.28	6623.72
477.46	6586.27
477.64	6604.99
477.82	6679.89
478.00	6956.07
478.18	7049.69
478.36	6935.01
478.54	6916.28
478.72	7075.44
478.90	7126.93
479.08	7211.19
479.26	7103.53
479.44	7307.15
479.62	7274.38
479.80	7321.20
479.98	7482.69
480.16	7557.59
480.34	7583.34
480.52	7573.97
480.70	7648.87
480.88	7637.17
481.06	7639.51
481.24	7515.46
481.41	7749.51
481.59	7875.90
481.77	7915.69
481.95	8161.45
482.13	7903.99
482.31	8067.83
482.49	8166.13
482.67	8477.42
482.85	8484.44
483.03	8493.80
483.21	8372.10
483.39	8554.66
483.57	8603.81
483.74	8594.45
483.92	8781.69
484.10	8631.90
484.28	8875.31
484.46	9118.73
484.64	8971.27
484.82	8872.97
485.00	8945.53
485.18	9261.50
485.35	9441.72
485.53	9427.68
485.71	9415.98
485.89	9469.81
486.07	9399.59
486.25	9371.50
486.43	9671.09
486.61	9724.93
486.78	9774.08
486.96	9973.02
487.14	10104.09
487.32	9961.32
487.50	10057.28
487.68	10181.33
487.85	10251.55
488.03	10567.52
488.21	10560.50
488.39	10555.82
488.57	10586.24
488.75	10548.79
488.92	10808.59
489.10	10972.43
489.28	10719.65
489.46	10930.30
489.64	10974.77
489.81	11206.48
489.99	11353.94
490.17	11325.85
490.35	11555.22
490.53	11527.14
490.70	11604.38
490.88	11513.10
491.06	11674.59
491.24	11529.48
491.41	11723.74
491.59	11889.92
491.77	11997.59
491.95	12093.55
492.13	11934.39
492.30	12180.15
492.48	12353.35
492.66	12416.54
492.84	12283.13
493.01	12585.06
493.19	12451.65
493.37	12468.03
493.54	12769.96
493.72	12629.53
493.90	12989.97
494.08	13018.06
494.25	13025.08
494.43	13111.68
494.61	13287.22
494.79	13209.98
494.96	13235.73
495.14	13364.46
495.32	13621.92
495.49	13373.82
495.67	13692.13
495.85	13652.34
496.02	13785.76
496.20	13961.30
496.38	14066.62
496.55	13811.50
496.73	14394.29
496.91	13961.30
497.09	14256.20
497.26	14527.71
497.44	14174.28
497.62	14396.64
497.79	14480.89
497.97	14508.98
498.14	14651.75
498.32	14654.09
498.50	14698.56
498.67	14834.32
498.85	14750.06
499.03	14888.15
499.20	14937.30
499.38	15028.58
499.56	15337.53
499.73	15309.44
499.91	15309.44
500.08	15747.12
500.26	15180.71
500.44	15335.19
500.61	15616.05
500.79	15384.34
500.97	15580.95
501.14	15969.48
501.32	15609.03
501.49	15847.77
501.67	15873.51
501.84	15988.20
502.02	15983.52
502.20	16056.08
502.37	16156.72
502.55	16229.27
502.72	15960.11
502.90	16133.31
503.07	16365.03
503.25	15749.46
503.43	16255.02
503.60	16606.10
503.78	16634.19
503.95	16327.58
504.13	16472.69
504.30	16266.72
504.48	16498.44
504.65	16582.70
504.83	16706.74
505.01	16793.34
505.18	17018.04
505.36	17270.81
505.53	16938.46
505.71	17048.46
505.88	17142.08
506.06	17324.65
506.23	17488.48
506.41	17453.37
506.58	17090.59
506.76	17191.23
506.93	17371.46
507.11	17216.98
507.28	17518.91
507.46	17521.25
507.63	17584.44
507.81	17558.70
507.98	17666.36
508.16	17806.80
508.33	17441.67
508.50	17980.00
508.68	18094.68
508.85	18106.38
509.03	18157.88
509.20	18335.76
509.38	18263.20
509.55	18164.90
509.73	18356.82
509.90	18064.25
510.08	17963.61
510.25	18253.84
510.42	18628.32
510.60	18530.02
510.77	18651.73
510.95	18815.57
511.12	18675.13
511.30	18551.09
511.47	18857.70
511.64	18813.23
511.82	19201.76
511.99	18707.90
512.17	18820.25
512.34	18918.55
512.51	18696.20
512.69	19339.85
512.86	19091.75
513.04	19330.48
513.21	19157.28
513.38	19499.00
513.56	19510.71
513.73	19552.84
513.90	19412.40
514.08	19475.60
514.25	19611.35
514.43	19777.53
514.60	19768.16
514.77	19723.69
514.95	19824.34
515.12	19578.58
515.29	19634.75
515.47	20030.30
515.64	20123.93
515.81	19812.63
515.99	20013.92
516.16	20475.01
516.33	20348.62
516.51	20322.87
516.68	19854.76
516.85	20156.69
517.03	20297.13
517.20	20343.94
517.37	20460.96
517.54	20575.65
517.72	20526.50
517.89	20477.35
518.06	20362.66
518.24	20589.69
518.41	20379.04
518.58	20805.02
518.75	20608.42
518.93	21130.36
519.10	21013.33
519.27	20802.68
519.45	20996.95
519.62	20863.54
519.79	20943.11
519.96	21212.28
520.14	21125.68
520.31	21078.86
520.48	21343.35
520.65	21200.57
520.83	21324.62
521.00	21373.77
521.17	20989.92
521.34	21352.71
521.52	21743.58
521.69	21671.02
521.86	21884.01
522.03	21738.90
522.20	21785.71
522.38	21708.47
522.55	21446.33
522.72	21673.36
522.89	21795.07
523.07	22370.84
523.24	21949.54
523.41	22150.83
523.58	21694.43
523.75	22237.43
523.92	21860.60
524.10	22029.12
524.27	22244.45
524.44	22239.77
524.61	22288.92
524.78	22466.80
524.96	22190.62
525.13	22490.21
525.30	22466.80
525.47	22707.88
525.64	22679.79
525.81	22595.53
525.98	22822.56
526.16	22717.24
526.33	22712.56
526.50	22918.53
526.67	22726.60
526.84	22946.61
527.01	22656.39
527.18	22752.35
527.36	23080.02
527.53	22902.14
527.70	23417.06
527.87	23101.09
528.04	23171.30
528.21	23342.16
528.38	23019.17
528.55	22808.52
528.72	23421.74
528.89	23271.95
529.07	23356.21
529.24	23065.98
529.41	23428.76
529.58	23433.44
529.75	23164.28
529.92	23452.17
530.09	23101.09
530.26	23555.15
530.43	23227.48
530.60	23578.56
530.77	23775.16
530.94	23850.06
531.11	23452.17
531.28	23599.62
531.46	23777.50
531.63	23683.88
531.80	23728.35
531.97	24137.94
532.14	24215.18
532.31	23943.68
532.48	23812.61
532.65	24070.07
532.82	24114.54
532.99	24009.22
533.16	23805.59
533.33	24194.12
533.50	24451.58
533.67	24217.52
533.84	24126.24
534.01	24416.47
534.18	24027.94
534.35	24627.12
534.52	24568.60
534.69	24381.36
534.86	24556.90
535.03	24538.18
535.20	24812.02
535.37	24692.65
535.54	24283.06
535.71	24580.31
535.88	24687.97
536.05	24243.27
536.22	24650.52
536.38	25282.47
536.55	24704.35
536.72	25064.80
536.89	24809.68
537.06	25022.67
537.23	25135.01
537.40	25029.69
537.57	25242.68
537.74	25186.50
537.91	25518.86
538.08	25399.49
538.25	24797.98
538.42	25081.18
538.59	25387.79
538.75	24837.76
538.92	25186.50
539.09	24992.24
539.26	25441.62
539.43	25390.13
539.60	25228.63
539.77	24807.34
539.94	25401.83
540.11	25357.36
540.28	25675.68
540.44	25127.99
540.61	25422.90
540.78	25591.42
540.95	25883.98
541.12	25422.90
541.29	25579.71
541.46	25460.35
541.62	25221.61
541.79	26045.48
541.96	25490.77
542.13	25813.77
542.30	25759.94
542.47	26136.76
542.63	26031.44
542.80	26127.40
542.97	26188.25
543.14	26359.11
543.31	26312.30
543.48	25947.18
543.64	26431.67
543.81	26616.57
543.98	26214.00
544.15	26125.06
544.32	26647.00
544.48	26831.90
544.65	26281.88
544.82	26155.49
544.99	26162.51
545.16	26389.54
545.32	26267.83
545.49	26522.95
545.66	26911.48
545.83	26717.22
546.00	26579.12
546.16	26787.43
546.33	26277.19
546.50	26586.15
546.67	26831.90
546.83	26192.94
547.00	26719.56
547.17	26754.66
547.34	26845.94
547.50	26820.20
547.67	27180.64
547.84	26663.38
548.00	26958.29
548.17	27037.87
548.34	27264.90
548.51	27285.97
548.67	27190.00
548.84	27222.77
549.01	26995.74
549.18	27264.90
549.34	26981.70
549.51	27098.72
549.68	27178.30
549.84	27103.40
550.01	27428.74
550.18	27072.98
550.34	27630.02
550.51	27288.31
550.68	27728.33
550.84	27131.49
551.01	27395.97
551.18	27398.31
551.34	27421.72
551.51	27236.81
551.68	27370.22
551.84	27653.43
552.01	27105.74
552.18	27363.20
552.34	27461.51
552.51	27552.79
552.68	27508.32
552.84	27662.79
553.01	27770.46
553.18	27545.76
553.34	27821.95
553.51	27501.29
553.67	27868.76
553.84	28163.67
554.01	27988.13
554.17	28128.56
554.34	27578.53
554.51	27988.13
554.67	28123.88
554.84	27761.09
555.00	27885.14
555.17	28011.53
555.33	28318.14
555.50	28046.64
555.67	28065.36
555.83	27978.76
556.00	27927.27
556.16	28013.87
556.33	28395.38
556.50	28044.30
556.66	28500.70
556.83	27758.75
556.99	28421.13
557.16	28720.71
557.32	28395.38
557.49	28690.29
557.65	28411.76
557.82	28208.14
557.98	28418.78
558.15	28350.91
558.32	28336.87
558.48	28467.94
558.65	28561.56
558.81	28596.67
558.98	28290.06
559.14	28538.15
559.31	28570.92
559.47	27941.32
559.64	28671.56
559.80	28493.68
559.97	29003.92
560.13	28587.30
560.30	28725.39
560.46	28783.91
560.63	28821.36
560.79	28687.95
560.96	28931.36
561.12	28444.53
561.29	28446.87
561.45	28568.58
561.61	28936.04
561.78	28503.04
561.94	28540.49
562.11	29146.69
562.27	28936.04
562.44	28868.17
562.60	28992.22
562.77	28959.45
562.93	28863.49
563.10	28706.67
563.26	28699.65
563.42	29259.04
563.59	28704.33
563.75	28795.61
563.92	29043.71
564.08	28704.33
564.24	28910.30
564.41	28657.52
564.57	28903.28
564.74	28706.67
564.90	29305.85
565.07	29034.35
565.23	28900.94
565.39	29322.23
565.56	29111.58
565.72	29270.74
565.88	29455.64
566.05	29062.43
566.21	28828.38
566.38	29228.61
566.54	29207.55
566.70	29024.98
566.87	28992.22
567.03	29333.93
567.19	29294.14
567.36	29256.70
567.52	29387.77
567.68	28982.85
567.85	29291.80
568.01	29502.45
568.17	29123.29
568.34	29088.18
568.50	29284.78
568.66	29153.71
568.83	29476.71
568.99	29207.55
569.15	28924.34
569.32	29266.06
569.48	29308.19
569.64	29113.92
569.81	29383.09
569.97	29074.13
570.13	29333.93
570.30	29020.30
570.46	29415.85
570.62	29322.23
570.78	29336.27
570.95	29123.29
571.11	29654.59
571.27	29294.14
571.43	29240.31
571.60	29303.51
571.76	29212.23
571.92	29511.81
572.09	29596.07
572.25	29493.09
572.41	29766.93
572.57	29633.52
572.74	29666.29
572.90	29216.91
573.06	29109.24
573.22	29411.17
573.38	29493.09
573.55	29284.78
573.71	29776.30
573.87	29706.08
574.03	29242.65
574.20	29507.13
574.36	29542.24
574.52	29174.78
574.68	29460.32
574.84	29333.93
575.01	29362.02
575.17	29528.20
575.33	29635.86
575.49	29479.05
575.65	29633.52
575.82	29591.39
575.98	29287.12
576.14	29649.91
576.30	29537.56
576.46	29450.96
576.62	29022.64
576.79	29553.94
576.95	29170.10
577.11	29586.71
577.27	29600.76
577.43	29905.02
577.59	29425.22
577.75	29530.54
577.92	29542.24
578.08	29177.12
578.24	29163.08
578.40	29563.31
578.56	29619.48
578.72	29729.48
578.88	29722.46
579.04	29893.32
579.21	29338.62
579.37	29649.91
579.53	29380.74
579.69	29413.51
579.85	29340.96
580.01	29677.99
580.17	29640.54
580.33	29649.91
580.49	29776.30
580.65	29802.04
580.82	29886.30
580.98	29603.10
581.14	29851.19
581.30	29638.20
581.46	29757.57
581.62	29553.94
581.78	29642.88
581.94	29685.01
582.10	29233.29
582.26	29792.68
582.42	29652.25
582.58	29907.37
582.74	29923.75
582.90	29809.06
583.06	30029.07
583.22	29795.02
583.38	29720.12
583.54	29605.44
583.70	29818.42
583.86	29553.94
584.02	29834.81
584.18	29860.55
584.34	29432.24
584.50	29860.55
584.66	29717.78
584.82	29729.48
584.98	29898.00
585.14	29869.92
585.30	29741.19
585.46	29820.77
585.62	29462.66
585.78	29715.44
585.94	29254.36
586.10	29986.94
586.26	29926.09
586.42	30108.65
586.58	30064.18
586.74	30003.33
586.90	29785.66
587.06	29706.08
587.22	29560.97
587.38	29619.48
587.54	30082.91
587.70	29668.63
587.86	29631.18
588.02	30160.14
588.18	29773.95
588.34	29970.56
588.49	29642.88
588.65	29930.77
588.81	30026.73
588.97	29577.35
589.13	30221.00
589.29	29860.55
589.45	29572.67
589.61	29858.21
589.77	30167.16
589.93	29963.54
590.08	30003.33
590.24	30302.92
590.40	29935.45
590.56	30380.15
590.72	30050.14
590.88	29617.14
591.04	30024.39
591.20	30415.26
591.35	30223.34
591.51	30555.69
591.67	30267.81
591.83	30462.07
591.99	29759.91
