SpectraSuite Data File
++++++++++++++++++++++++++++++++++++
Date: Fri Oct 18 13:58:35 GMT-05:00 2013
User: bianchi
Dark Spectrum Present: No
Reference Spectrum Present: No
Number of Sampled Component Spectra: 1
Spectrometers: USB2+H05261
Integration Time (usec): 50000 (USB2+H05261)
Spectra Averaged: 1 (USB2+H05261)
Boxcar Smoothing: 0 (USB2+H05261)
Correct for Electrical Dark: No (USB2+H05261)
Strobe/Lamp Enabled: No (USB2+H05261)
Correct for Detector Non-linearity: No (USB2+H05261)
Correct for Stray Light: No (USB2+H05261)
Number of Pixels in Processed Spectrum: 2048
>>>>>Begin Processed Spectral Data<<<<<
365.73	0.00
365.92	0.00
366.12	0.00
366.32	0.00
366.52	0.00
366.72	0.00
366.91	0.00
367.11	0.00
367.31	0.00
367.51	0.00
367.70	0.00
367.90	0.00
368.10	0.00
368.30	0.00
368.49	0.00
368.69	0.00
368.89	0.00
369.09	0.00
369.28	0.00
369.48	0.00
369.68	0.00
369.87	0.00
370.07	0.00
370.27	0.00
370.47	0.00
370.66	102.98
370.86	77.24
371.06	140.43
371.25	121.71
371.45	18.72
371.65	131.07
371.84	166.18
372.04	187.24
372.24	133.41
372.44	166.18
372.63	166.18
372.83	173.20
373.03	234.05
373.22	187.24
373.42	161.50
373.62	234.05
373.81	250.44
374.01	273.84
374.21	215.33
374.40	255.12
374.60	290.23
374.79	217.67
374.99	212.99
375.19	175.54
375.38	238.73
375.58	290.23
375.78	285.55
375.97	255.12
376.17	264.48
376.37	278.52
376.56	269.16
376.76	381.51
376.95	271.50
377.15	222.35
377.35	180.22
377.54	297.25
377.74	318.31
377.93	262.14
378.13	320.65
378.33	264.48
378.52	266.82
378.72	255.12
378.91	297.25
379.11	276.18
379.31	304.27
379.50	339.38
379.70	386.19
379.89	313.63
380.09	266.82
380.28	283.20
380.48	315.97
380.68	346.40
380.87	332.36
381.07	259.80
381.26	306.61
381.46	360.44
381.65	308.95
381.85	243.42
382.04	294.91
382.24	327.68
382.43	358.10
382.63	337.04
382.83	353.42
383.02	376.83
383.22	327.68
383.41	301.93
383.61	397.89
383.80	400.23
384.00	381.51
384.19	369.80
384.39	465.77
384.58	327.68
384.78	400.23
384.97	393.21
385.17	315.97
385.36	330.02
385.56	306.61
385.75	353.42
385.95	315.97
386.14	395.55
386.34	440.02
386.53	397.89
386.72	351.08
386.92	386.19
387.11	447.04
387.31	430.66
387.50	423.64
387.70	400.23
387.89	418.96
388.09	442.36
388.28	440.02
388.48	404.91
388.67	440.02
388.86	430.66
389.06	510.24
389.25	416.62
389.45	514.92
389.64	470.45
389.84	486.83
390.03	545.34
390.22	531.30
390.42	512.58
390.61	524.28
390.81	557.05
391.00	465.77
391.19	566.41
391.39	505.56
391.58	538.32
391.78	524.28
391.97	512.58
392.16	510.24
392.36	554.71
392.55	543.00
392.75	498.53
392.94	507.90
393.13	543.00
393.33	543.00
393.52	568.75
393.71	655.35
393.91	601.52
394.10	547.69
394.29	634.29
394.49	592.16
394.68	601.52
394.88	634.29
395.07	622.58
395.26	648.33
395.46	664.71
395.65	772.38
395.84	631.94
396.04	685.78
396.23	613.22
396.42	613.22
396.62	571.09
396.81	676.41
397.00	559.39
397.19	683.44
397.39	655.35
397.58	624.92
397.77	657.69
397.97	674.07
398.16	702.16
398.35	748.97
398.55	713.86
398.74	732.59
398.93	751.31
399.12	636.63
399.32	657.69
399.51	753.65
399.70	819.19
399.90	704.50
400.09	732.59
400.28	765.36
400.47	692.80
400.67	732.59
400.86	809.83
401.05	688.12
401.24	744.29
401.44	699.82
401.63	784.08
401.82	770.04
402.01	805.14
402.21	805.14
402.40	830.89
402.59	842.59
402.78	751.31
402.97	734.93
403.17	753.65
403.36	992.39
403.55	901.11
403.74	945.58
403.93	851.96
404.13	866.00
404.32	919.83
404.51	842.59
404.70	891.74
404.89	875.36
405.09	990.05
405.28	954.94
405.47	1018.13
405.66	1001.75
405.85	936.21
406.05	882.38
406.24	947.92
406.43	978.34
406.62	1029.84
406.81	1107.07
407.00	1064.94
407.20	971.32
407.39	973.66
407.58	971.32
407.77	1053.24
407.96	1078.99
408.15	1064.94
408.34	1036.86
408.54	1043.88
408.73	1064.94
408.92	1020.47
409.11	1238.14
409.30	1064.94
409.49	1149.20
409.68	1128.14
409.87	1142.18
410.07	1179.63
410.26	1114.10
410.45	1219.42
410.64	1247.51
410.83	1221.76
411.02	1193.67
411.21	1188.99
411.40	1097.71
411.59	1181.97
411.78	1123.46
411.98	1235.80
412.17	1334.11
412.36	1268.57
412.55	1348.15
412.74	1261.55
412.93	1383.26
413.12	1261.55
413.31	1387.94
413.50	1390.28
413.69	1409.00
413.88	1509.65
414.07	1502.62
414.26	1380.92
414.45	1540.07
414.64	1479.22
414.83	1542.41
415.02	1448.79
415.22	1455.81
415.41	1554.12
415.60	1504.96
415.79	1502.62
415.98	1514.33
416.17	1619.65
416.36	1519.01
416.55	1605.61
416.74	1678.16
416.93	1689.87
417.12	1689.87
417.31	1706.25
417.50	1643.06
417.69	1715.61
417.88	1767.10
418.07	1746.04
418.26	1689.87
418.45	1701.57
418.64	1755.40
418.83	1809.23
419.02	1720.29
419.21	1755.40
419.39	1825.62
419.58	1860.73
419.77	1874.77
419.96	1797.53
420.15	1928.60
420.34	1905.20
420.53	1891.15
420.72	1973.07
420.91	1905.20
421.10	1858.39
421.29	1991.80
421.48	1898.17
421.67	2022.22
421.86	1991.80
422.05	1984.77
422.24	1949.67
422.43	2038.61
422.61	1949.67
422.80	1975.41
422.99	2008.18
423.18	2115.84
423.37	2015.20
423.56	1994.14
423.75	2054.99
423.94	1930.94
424.13	1900.52
424.32	1928.60
424.50	2073.71
424.69	2066.69
424.88	2108.82
425.07	2054.99
425.26	1928.60
425.45	2146.27
425.64	2043.29
425.83	2001.16
426.01	2078.40
426.20	1996.48
426.39	2064.35
426.58	2097.12
426.77	2047.97
426.96	2200.10
427.15	2066.69
427.33	2129.89
427.52	2143.93
427.71	2069.03
427.90	2148.61
428.09	2150.95
428.28	2214.15
428.46	2256.28
428.65	2193.08
428.84	2260.96
429.03	2340.54
429.22	2139.25
429.40	2300.75
429.59	2239.89
429.78	2312.45
429.97	2190.74
430.16	2347.56
430.34	2368.62
430.53	2370.96
430.72	2265.64
430.91	2363.94
431.10	2342.88
431.28	2326.49
431.47	2403.73
431.66	2375.64
431.85	2424.80
432.03	2392.03
432.22	2387.35
432.41	2406.07
432.60	2401.39
432.79	2366.28
432.97	2347.56
433.16	2436.50
433.35	2380.32
433.54	2534.80
433.72	2607.36
433.91	2504.37
434.10	2541.82
434.28	2551.18
434.47	2464.58
434.66	2609.70
434.85	2654.17
435.03	2469.27
435.22	2525.44
435.41	2647.15
435.59	2612.04
435.78	2656.51
435.97	2717.36
436.16	2626.08
436.34	2726.72
436.53	2513.74
436.72	2700.98
436.90	2710.34
437.09	2693.96
437.28	2609.70
437.46	2708.00
437.65	2839.07
437.84	2935.03
438.02	2794.60
438.21	2839.07
438.40	2712.68
438.58	2963.12
438.77	2862.48
438.96	2743.11
439.14	3073.12
439.33	2925.67
439.52	2846.09
439.70	2848.43
439.89	2979.50
440.08	3028.65
440.26	2995.89
440.45	3040.36
440.63	3061.42
440.82	3152.70
441.01	3232.28
441.19	3169.09
441.38	3255.69
441.57	3229.94
441.75	3187.81
441.94	3243.98
442.12	3283.77
442.31	3363.35
442.50	3414.84
442.68	3389.10
442.87	3372.71
443.05	3456.97
443.24	3363.35
443.43	3417.18
443.61	3410.16
443.80	3478.04
443.98	3286.11
444.17	3433.57
444.35	3527.19
444.54	3506.12
444.73	3496.76
444.91	3407.82
445.10	3466.33
445.28	3445.27
445.47	3351.65
445.65	3442.93
445.84	3424.20
446.02	3501.44
446.21	3447.61
446.39	3361.01
446.58	3538.89
446.77	3557.61
446.95	3403.14
447.14	3538.89
447.32	3529.53
447.51	3440.59
447.69	3508.46
447.88	3480.38
448.06	3569.32
448.25	3597.40
448.43	3667.62
448.62	3478.04
448.80	3613.79
448.99	3499.10
449.17	3620.81
449.36	3588.04
449.54	3728.47
449.73	3686.34
449.91	3707.41
450.10	3857.20
450.28	3672.30
450.46	3693.37
450.65	3798.69
450.83	3803.37
451.02	3721.45
451.20	3981.25
451.39	3833.80
451.57	3653.58
451.76	3798.69
451.94	3786.99
452.13	3815.07
452.31	3939.12
452.49	3700.39
452.68	3868.91
452.86	3852.52
453.05	3918.06
453.23	3985.93
453.42	3882.95
453.60	3859.54
453.78	3915.72
453.97	3885.29
454.15	3854.86
454.34	3955.51
454.52	3927.42
454.70	3985.93
454.89	4100.62
455.07	4002.32
455.26	4025.72
455.44	4203.60
455.62	4011.68
455.81	4023.38
455.99	4063.17
456.17	4105.30
456.36	4163.81
456.54	4285.52
456.73	4297.22
456.91	4334.67
457.09	4519.57
457.28	4278.50
457.46	4245.73
457.64	4320.63
457.83	4428.29
458.01	4358.08
458.19	4484.47
458.38	4400.21
458.56	4470.42
458.74	4390.84
458.93	4341.69
459.11	4451.70
459.29	4388.50
459.48	4514.89
459.66	4409.57
459.84	4559.36
460.03	4622.56
460.21	4447.02
460.39	4582.77
460.57	4589.79
460.76	4601.49
460.94	4739.58
461.12	4681.07
461.31	4847.25
461.49	4580.43
461.67	4542.98
461.85	4760.65
462.04	4634.26
462.22	4795.76
462.40	4788.74
462.59	4868.31
462.77	4812.14
462.95	4884.70
463.13	4887.04
463.32	4823.84
463.50	4830.87
463.68	4873.00
463.86	4889.38
464.05	4830.87
464.23	4842.57
464.41	4959.60
464.59	4844.91
464.78	5198.33
464.96	4915.12
465.14	4823.84
465.32	5011.09
465.50	4877.68
465.69	5130.45
465.87	4961.94
466.05	5121.09
466.23	5107.05
466.41	5156.20
466.60	5212.37
466.78	5008.75
466.96	4919.81
467.14	5043.85
467.32	5053.22
467.51	5130.45
467.69	5041.51
467.87	5210.03
468.05	5149.18
468.23	5224.08
468.41	5144.50
468.60	5331.74
468.78	5181.95
468.96	5149.18
469.14	5125.77
469.32	5254.50
469.50	5207.69
469.69	5425.36
469.87	5350.46
470.05	5483.88
470.23	5486.22
470.41	5378.55
470.59	5495.58
470.77	5444.09
470.95	5568.13
471.14	5643.03
471.32	5516.64
471.50	5558.77
471.68	5724.95
471.86	5671.12
472.04	5764.74
472.22	5762.40
472.40	5575.16
472.58	5682.82
472.77	5867.72
472.95	5720.27
473.13	6134.54
473.31	5839.64
473.49	5809.21
473.67	5919.21
473.85	5863.04
474.03	6033.90
474.21	5994.11
474.39	6120.50
474.57	6003.47
474.75	6113.48
474.93	6237.53
475.12	6033.90
475.30	6244.55
475.48	6106.46
475.66	6244.55
475.84	6293.70
476.02	6396.68
476.20	6431.79
476.38	6506.69
476.56	6679.89
476.74	6478.60
476.92	6504.35
477.10	6497.33
477.28	6745.42
477.46	6628.40
477.64	6780.53
477.82	6869.47
478.00	7002.88
478.18	6951.39
478.36	6899.90
478.54	6970.12
478.72	7159.70
478.90	7180.76
479.08	7311.83
479.26	7241.62
479.44	7307.15
479.62	7541.21
479.80	7286.09
479.98	7478.01
480.16	7583.34
480.34	7588.02
480.52	7602.06
480.70	7683.98
480.88	7691.00
481.06	7660.57
481.24	7836.11
481.41	8077.19
481.59	8006.97
481.77	8086.55
481.95	8161.45
482.13	8180.17
482.31	8149.75
482.49	8414.23
482.67	8187.19
482.85	8456.36
483.03	8582.74
483.21	8594.45
483.39	8615.51
483.57	8512.53
483.74	8697.43
483.92	8725.52
484.10	8732.54
484.28	8929.14
484.46	9092.98
484.64	8919.78
484.82	9107.02
485.00	9078.94
485.18	9198.31
485.35	9565.77
485.53	9266.18
485.71	9514.28
485.89	9947.28
486.07	9549.39
486.25	9724.93
486.43	9516.62
486.61	9703.86
486.78	9900.47
486.96	10249.21
487.14	10066.64
487.32	10085.37
487.50	10083.03
487.68	10078.35
487.85	10490.28
488.03	10443.47
488.21	10724.33
488.39	10586.24
488.57	10661.14
488.75	10710.29
488.92	10986.47
489.10	10883.49
489.28	11110.52
489.46	11337.56
489.64	11131.59
489.81	11101.16
489.99	11307.13
490.17	11372.66
490.35	11344.58
490.53	11407.77
490.70	11763.53
490.88	11702.68
491.06	11763.53
491.24	11709.70
491.41	11871.20
491.59	11852.47
491.77	12271.43
491.95	12072.48
492.13	12318.24
492.30	12276.11
492.48	11992.90
492.66	12428.24
492.84	12482.08
493.01	12432.93
493.19	12418.88
493.37	12940.82
493.54	12924.44
493.72	12793.37
493.90	13018.06
494.08	12919.76
494.25	13095.30
494.43	13144.45
494.61	13357.44
494.79	13399.57
494.96	13439.36
495.14	13638.30
495.32	13610.22
495.49	13862.99
495.67	13600.85
495.85	13692.13
496.02	14059.60
496.20	13776.39
496.38	13811.50
496.55	14190.67
496.73	14281.95
496.91	14317.06
497.09	14218.75
497.26	14469.19
497.44	14366.21
497.62	14366.21
497.79	14633.03
497.97	14480.89
498.14	14869.42
498.32	15096.46
498.50	14831.97
498.67	14953.68
498.85	14714.95
499.03	14885.81
499.20	14906.87
499.38	15197.10
499.56	15035.60
499.73	15234.55
499.91	15604.35
500.08	15606.69
500.26	15250.93
500.44	15625.42
500.61	15887.56
500.79	15606.69
500.97	15473.28
501.14	15730.74
501.32	15992.88
501.49	15857.13
501.67	15730.74
501.84	15997.56
502.02	16224.59
502.20	16402.47
502.37	16362.69
502.55	16402.47
502.72	16297.15
502.90	16343.96
503.07	16250.34
503.25	16243.32
503.43	16606.10
503.60	16779.30
503.78	16650.57
503.95	16531.20
504.13	16624.83
504.30	16702.06
504.48	16652.91
504.65	16783.98
504.83	17088.25
505.01	17078.89
505.18	16837.81
505.36	16950.16
505.53	17188.89
505.71	17048.46
505.88	16968.88
506.06	17111.66
506.23	17736.58
506.41	17303.58
506.58	17371.46
506.76	17420.61
506.93	17371.46
507.11	17184.21
507.28	17577.42
507.46	17525.93
507.63	17926.16
507.81	18036.17
507.98	17603.17
508.16	17912.12
508.33	17865.31
508.50	17900.42
508.68	17832.54
508.85	18553.43
509.03	18319.37
509.20	18396.61
509.38	17996.38
509.55	18717.26
509.73	18668.11
509.90	18420.02
510.08	18497.25
510.25	18457.46
510.42	18389.59
510.60	18462.15
510.77	18853.02
510.95	18972.38
511.12	18689.18
511.30	18672.79
511.47	18796.84
511.64	18792.16
511.82	18909.19
511.99	18810.89
512.17	19129.20
512.34	19192.39
512.51	18956.00
512.69	19349.21
512.86	19278.99
513.04	19417.08
513.21	19517.73
513.38	19538.79
513.56	19660.50
513.73	19211.12
513.90	19707.31
514.08	19370.27
514.25	19702.63
514.43	19885.19
514.60	19878.17
514.77	19763.48
514.95	20201.16
515.12	20009.24
515.29	20011.58
515.47	19995.20
515.64	20418.83
515.81	20137.97
515.99	20163.72
516.16	20128.61
516.33	20477.35
516.51	20669.27
516.68	20463.30
516.85	20596.71
517.03	20615.44
517.20	20390.75
517.37	20959.50
517.54	20606.08
517.72	20620.12
517.89	20613.10
518.06	20655.23
518.24	20592.03
518.41	20704.38
518.58	20776.94
518.75	20812.04
518.93	21151.42
519.10	20718.42
519.27	21231.00
519.45	20980.56
519.62	21294.19
519.79	20676.29
519.96	21104.61
520.14	21109.29
520.31	21310.58
520.48	21380.79
520.65	21109.29
520.83	21469.73
521.00	21635.91
521.17	21170.15
521.34	21465.05
521.52	21556.33
521.69	21453.35
521.86	21933.16
522.03	22033.80
522.20	21923.80
522.38	21984.65
522.55	21928.48
522.72	22071.25
522.89	22441.06
523.07	22129.77
523.24	22078.27
523.41	22342.75
523.58	22291.26
523.75	22302.96
523.92	22141.47
524.10	22284.24
524.27	22478.50
524.44	22757.03
524.61	22642.34
524.78	22534.68
524.96	22883.42
525.13	22712.56
525.30	22930.23
525.47	22733.62
525.64	22892.78
525.81	22792.14
525.98	22813.20
526.16	22693.83
526.33	23070.66
526.50	22827.24
526.67	22635.32
526.84	22852.99
527.01	23098.75
527.18	22995.76
527.36	23248.54
527.53	23318.76
527.70	23384.29
527.87	23601.96
528.04	23129.17
528.21	23428.76
528.38	23143.22
528.55	23594.94
528.72	23452.17
528.89	23276.63
529.07	23625.37
529.24	23307.05
529.41	23784.52
529.58	23545.79
529.75	23697.92
529.92	23466.21
530.09	23927.30
530.26	24037.30
530.43	23735.37
530.60	23838.36
530.77	23744.73
530.94	23854.74
531.11	23882.83
531.28	23704.95
531.46	24081.77
531.63	23964.75
531.80	24149.65
531.97	24273.70
532.14	24273.70
532.31	23779.84
532.48	24332.21
532.65	24112.20
532.82	24306.46
532.99	24379.02
533.16	24287.74
533.33	24498.39
533.50	24269.01
533.67	24568.60
533.84	24507.75
534.01	24386.04
534.18	24322.85
534.35	24952.45
534.52	24664.57
534.69	24807.34
534.86	25102.25
535.03	24907.98
535.20	24519.45
535.37	24868.19
535.54	24465.62
535.71	24868.19
535.88	24947.77
536.05	24982.88
536.22	25013.31
536.38	25008.62
536.55	25259.06
536.72	25226.29
536.89	25144.38
537.06	24645.84
537.23	25579.71
537.40	25181.82
537.57	25254.38
537.74	25198.21
537.91	25556.31
538.08	25376.09
538.25	25245.02
538.42	25507.16
538.59	25296.51
538.75	24945.43
538.92	25535.24
539.09	25455.67
539.26	25455.67
539.43	25357.36
539.60	25448.64
539.77	25556.31
539.94	25628.87
540.11	25790.36
540.28	25919.09
540.44	25919.09
540.61	25631.21
540.78	26031.44
540.95	25874.62
541.12	25549.29
541.29	25923.77
541.46	25584.40
541.62	25724.83
541.79	25853.56
541.96	25865.26
542.13	25727.17
542.30	26185.91
542.47	26319.32
542.63	26167.19
542.80	26148.46
542.97	26651.68
543.14	26188.25
543.31	26263.15
543.48	26375.50
543.64	26321.66
543.81	26539.33
543.98	26787.43
544.15	26562.74
544.32	26937.23
544.48	26813.18
544.65	26843.60
544.82	26759.34
544.99	26843.60
545.16	26661.04
545.32	26672.74
545.49	26864.67
545.66	26939.57
545.83	26951.27
546.00	27192.34
546.16	26998.08
546.33	26841.26
546.50	26742.96
546.67	26738.28
546.83	26848.29
547.00	26705.51
547.17	27091.70
547.34	27110.43
547.50	26944.25
547.67	27520.02
547.84	27262.56
548.00	27346.82
548.17	27356.18
548.34	26941.91
548.51	27559.81
548.67	27257.88
548.84	27014.46
549.01	27435.76
549.18	27473.21
549.34	27335.12
549.51	27384.27
549.68	27388.95
549.84	27522.36
550.01	27611.30
550.18	27456.82
550.34	27754.07
550.51	27384.27
550.68	27730.67
550.84	27520.02
551.01	27482.57
551.18	27477.89
551.34	27386.61
551.51	27538.74
551.68	27644.07
551.84	27864.08
552.01	27583.21
552.18	27672.15
552.34	27669.81
552.51	27920.25
552.68	27496.61
552.84	27725.99
553.01	27936.63
553.18	27847.69
553.34	28161.33
553.51	27894.50
553.67	27943.66
553.84	28184.73
554.01	28247.93
554.17	27971.74
554.34	27768.12
554.51	28114.52
554.67	27920.25
554.84	28102.81
555.00	28533.47
555.17	28481.98
555.33	27990.47
555.50	28081.75
555.67	28320.48
555.83	28416.44
556.00	27934.29
556.16	28439.85
556.33	28313.46
556.50	28252.61
556.66	28524.11
556.83	28423.47
556.99	28559.22
557.16	28807.31
557.32	28652.84
557.49	28919.66
557.65	28376.66
557.82	28545.17
557.98	28545.17
558.15	28931.36
558.32	28701.99
558.48	28421.13
558.65	28711.35
558.81	28561.56
558.98	28776.89
559.14	28882.21
559.31	28659.86
559.47	28514.75
559.64	28580.28
559.80	28875.19
559.97	28809.65
560.13	28582.62
560.30	29188.82
560.46	28968.81
560.63	29163.08
560.79	28896.25
560.96	28898.59
561.12	29039.03
561.29	28725.39
561.45	29200.52
561.61	28870.51
561.78	28800.29
561.94	29123.29
562.11	29106.90
562.27	28833.06
562.44	29127.97
562.60	28809.65
562.77	29032.00
562.93	29085.84
563.10	29317.55
563.26	29078.82
563.42	29607.78
563.59	29041.37
563.75	29010.94
563.92	29062.43
564.08	28950.09
564.24	28912.64
564.41	29280.10
564.57	29167.76
564.74	28840.08
564.90	29221.59
565.07	29317.55
565.23	29111.58
565.39	29738.85
565.56	29160.73
565.72	29301.17
565.88	29642.88
566.05	29291.80
566.21	29413.51
566.38	29177.12
566.54	29085.84
566.70	29670.97
566.87	29261.38
567.03	29483.73
567.19	29708.42
567.36	29673.31
567.52	29092.86
567.68	29734.17
567.85	29507.13
568.01	29600.76
568.17	29373.72
568.34	29874.60
568.50	29483.73
568.66	29472.03
568.83	29879.28
568.99	29188.82
569.15	29373.72
569.32	29687.36
569.48	29406.49
569.64	29497.77
569.81	29818.42
569.97	29764.59
570.13	29886.30
570.30	29516.50
570.46	29649.91
570.62	29603.10
570.78	29614.80
570.95	29560.97
571.11	29785.66
571.27	29181.80
571.43	29333.93
571.60	29706.08
571.76	29567.99
571.92	29699.06
572.09	29783.32
572.25	29600.76
572.41	29963.54
572.57	29734.17
572.74	29937.79
572.90	29741.19
573.06	29539.90
573.22	29507.13
573.38	29659.27
573.55	29495.43
573.71	30115.67
573.87	29804.38
574.03	29809.06
574.20	29579.69
574.36	29792.68
574.52	29909.71
574.68	29685.01
574.84	29677.99
575.01	29717.78
575.17	29654.59
575.33	29865.24
575.49	29986.94
575.65	30036.09
575.82	29830.13
575.98	29429.90
576.14	29612.46
576.30	29661.61
576.46	29703.74
576.62	29996.31
576.79	29996.31
576.95	29867.58
577.11	30185.89
577.27	29759.91
577.43	30235.04
577.59	29371.38
577.75	30080.56
577.92	30052.48
578.08	29933.11
578.24	29991.62
578.40	29860.55
578.56	29677.99
578.72	29886.30
578.88	30260.79
579.04	30066.52
579.21	29783.32
579.37	29905.02
579.53	30103.97
579.69	29975.24
579.85	30101.63
580.01	29855.87
580.17	29525.86
580.33	30073.54
580.49	29865.24
580.65	30108.65
580.82	30249.08
580.98	29813.74
581.14	29881.62
581.30	30160.14
581.46	30073.54
581.62	30134.40
581.78	30064.18
581.94	29722.46
582.10	30003.33
582.26	30099.29
582.42	29940.13
582.58	30148.44
582.74	30057.16
582.90	30080.56
583.06	30019.71
583.22	29788.00
583.38	29816.08
583.54	30167.16
583.70	30136.74
583.86	29855.87
584.02	29937.79
584.18	30019.71
584.34	30029.07
584.50	30047.80
584.66	30038.44
584.82	30127.38
584.98	30108.65
585.14	30085.25
585.30	29528.20
585.46	29921.41
585.62	29708.42
585.78	30197.59
585.94	29984.60
586.10	30005.67
586.26	30094.61
586.42	30305.26
586.58	30305.26
586.74	29956.52
586.90	29680.33
587.06	29942.47
587.22	30199.93
587.38	30167.16
587.54	30235.04
587.70	30513.56
587.86	30026.73
588.02	30511.22
588.18	30274.83
588.34	30366.11
588.49	30253.76
588.65	29858.21
588.81	30181.21
588.97	30389.52
589.13	30228.02
589.29	30171.85
589.45	29958.86
589.61	30293.55
589.77	30431.65
589.93	30225.68
590.08	30398.88
590.24	30340.36
590.40	30408.24
590.56	30480.80
590.72	30228.02
590.88	30384.83
591.04	30352.07
591.20	30759.32
591.35	30721.87
591.51	30883.37
591.67	30469.09
591.83	31019.12
591.99	30581.44
