SpectraSuite Data File
++++++++++++++++++++++++++++++++++++
Date: Fri Oct 18 13:58:27 GMT-05:00 2013
User: bianchi
Dark Spectrum Present: No
Reference Spectrum Present: No
Number of Sampled Component Spectra: 1
Spectrometers: USB2+H05261
Integration Time (usec): 50000 (USB2+H05261)
Spectra Averaged: 1 (USB2+H05261)
Boxcar Smoothing: 0 (USB2+H05261)
Correct for Electrical Dark: No (USB2+H05261)
Strobe/Lamp Enabled: No (USB2+H05261)
Correct for Detector Non-linearity: No (USB2+H05261)
Correct for Stray Light: No (USB2+H05261)
Number of Pixels in Processed Spectrum: 2048
>>>>>Begin Processed Spectral Data<<<<<
365.73	0.00
365.92	0.00
366.12	0.00
366.32	0.00
366.52	0.00
366.72	0.00
366.91	0.00
367.11	0.00
367.31	0.00
367.51	0.00
367.70	0.00
367.90	0.00
368.10	0.00
368.30	0.00
368.49	0.00
368.69	0.00
368.89	0.00
369.09	0.00
369.28	0.00
369.48	0.00
369.68	0.00
369.87	0.00
370.07	0.00
370.27	0.00
370.47	0.00
370.66	21.06
370.86	91.28
371.06	163.84
371.25	140.43
371.45	63.19
371.65	128.73
371.84	170.86
372.04	196.60
372.24	182.56
372.44	198.95
372.63	180.22
372.83	170.86
373.03	203.63
373.22	163.84
373.42	327.68
373.62	243.42
373.81	198.95
374.01	184.90
374.21	208.31
374.40	168.52
374.60	229.37
374.79	327.68
374.99	264.48
375.19	234.05
375.38	231.71
375.58	229.37
375.78	203.63
375.97	257.46
376.17	311.29
376.37	278.52
376.56	322.99
376.76	294.91
376.95	229.37
377.15	257.46
377.35	222.35
377.54	259.80
377.74	264.48
377.93	325.33
378.13	257.46
378.33	285.55
378.52	252.78
378.72	266.82
378.91	278.52
379.11	301.93
379.31	304.27
379.50	241.08
379.70	306.61
379.89	383.85
380.09	315.97
380.28	290.23
380.48	355.76
380.68	287.89
380.87	290.23
381.07	294.91
381.26	318.31
381.46	301.93
381.65	353.42
381.85	376.83
382.04	341.72
382.24	395.55
382.43	245.76
382.63	362.78
382.83	337.04
383.02	301.93
383.22	365.12
383.41	315.97
383.61	308.95
383.80	290.23
384.00	395.55
384.19	308.95
384.39	325.33
384.58	292.57
384.78	348.74
384.97	400.23
385.17	362.78
385.36	402.57
385.56	355.76
385.75	346.40
385.95	348.74
386.14	393.21
386.34	376.83
386.53	294.91
386.72	383.85
386.92	383.85
387.11	449.38
387.31	393.21
387.50	416.62
387.70	479.81
387.89	346.40
388.09	461.09
388.28	430.66
388.48	435.34
388.67	465.77
388.86	461.09
389.06	425.98
389.25	517.26
389.45	496.19
389.64	442.36
389.84	425.98
390.03	458.74
390.22	484.49
390.42	498.53
390.61	479.81
390.81	496.19
391.00	470.45
391.19	517.26
391.39	533.64
391.58	580.45
391.78	465.77
391.97	503.22
392.16	507.90
392.36	482.15
392.55	507.90
392.75	561.73
392.94	484.49
393.13	458.74
393.33	557.05
393.52	547.69
393.71	543.00
393.91	580.45
394.10	566.41
394.29	664.71
394.49	596.84
394.68	582.79
394.88	683.44
395.07	575.77
395.26	535.98
395.46	643.65
395.65	608.54
395.84	615.56
396.04	699.82
396.23	601.52
396.42	582.79
396.62	650.67
396.81	596.84
397.00	599.18
397.19	695.14
397.39	676.41
397.58	674.07
397.77	674.07
397.97	638.97
398.16	671.73
398.35	697.48
398.55	657.69
398.74	678.76
398.93	688.12
399.12	767.70
399.32	709.18
399.51	763.01
399.70	755.99
399.90	753.65
400.09	770.04
400.28	828.55
400.47	744.29
400.67	781.74
400.86	798.12
401.05	599.18
401.24	758.33
401.44	805.14
401.63	847.27
401.82	858.98
402.01	798.12
402.21	795.78
402.40	683.44
402.59	695.14
402.78	868.34
402.97	856.64
403.17	805.14
403.36	837.91
403.55	875.36
403.74	821.53
403.93	882.38
404.13	976.00
404.32	847.27
404.51	903.45
404.70	868.34
404.89	866.00
405.09	901.11
405.28	961.96
405.47	903.45
405.66	968.98
405.85	1011.11
406.05	1004.09
406.24	959.62
406.43	1043.88
406.62	1006.43
406.81	1074.31
407.00	990.05
407.20	943.24
407.39	1121.12
407.58	1128.14
407.77	1128.14
407.96	1097.71
408.15	1062.60
408.34	1041.54
408.54	1109.41
408.73	1118.78
408.92	1083.67
409.11	1170.27
409.30	1111.75
409.49	1109.41
409.68	1093.03
409.87	1205.38
410.07	1121.12
410.26	1095.37
410.45	1191.33
410.64	1270.91
410.83	1174.95
411.02	1146.86
411.21	1228.78
411.40	1170.27
411.59	1254.53
411.78	1299.00
411.98	1287.29
412.17	1336.45
412.36	1249.85
412.55	1315.38
412.74	1350.49
412.93	1284.95
413.12	1294.32
413.31	1357.51
413.50	1355.17
413.69	1341.13
413.88	1432.41
414.07	1423.05
414.26	1467.52
414.45	1509.65
414.64	1418.36
414.83	1451.13
415.02	1551.78
415.22	1495.60
415.41	1495.60
415.60	1544.75
415.79	1479.22
415.98	1549.43
416.17	1570.50
416.36	1617.31
416.55	1633.69
416.74	1614.97
416.93	1671.14
417.12	1568.16
417.31	1713.27
417.50	1774.13
417.69	1713.27
417.88	1657.10
418.07	1685.19
418.26	1638.38
418.45	1783.49
418.64	1790.51
418.83	1837.32
419.02	1720.29
419.21	1797.53
419.39	1863.07
419.58	1816.26
419.77	1858.39
419.96	1823.28
420.15	1811.57
420.34	1963.71
420.53	1856.04
420.72	1930.94
420.91	1846.68
421.10	1846.68
421.29	2073.71
421.48	1926.26
421.67	1909.88
421.86	1954.35
422.05	1991.80
422.24	1881.79
422.43	2001.16
422.61	1989.46
422.80	2015.20
422.99	2085.42
423.18	2047.97
423.37	2036.27
423.56	1856.04
423.75	2129.89
423.94	1926.26
424.13	1893.49
424.32	1804.55
424.50	1966.05
424.69	2024.56
424.88	1994.14
425.07	2129.89
425.26	1942.64
425.45	2104.14
425.64	1949.67
425.83	1998.82
426.01	2029.24
426.20	2040.95
426.39	2047.97
426.58	2054.99
426.77	2015.20
426.96	2038.61
427.15	2160.31
427.33	2101.80
427.52	2122.87
427.71	2150.95
427.90	2062.01
428.09	2260.96
428.28	2223.51
428.46	2303.09
428.65	2167.34
428.84	2146.27
429.03	2244.57
429.22	2017.54
429.40	2253.94
429.59	2165.00
429.78	2181.38
429.97	2094.78
430.16	2207.13
430.34	2282.02
430.53	2335.85
430.72	2300.75
430.91	2314.79
431.10	2352.24
431.28	2270.32
431.47	2387.35
431.66	2312.45
431.85	2345.22
432.03	2399.05
432.22	2485.65
432.41	2457.56
432.60	2487.99
432.79	2380.32
432.97	2431.82
433.16	2471.61
433.35	2459.90
433.54	2546.50
433.72	2427.14
433.91	2555.86
434.10	2525.44
434.28	2576.93
434.47	2602.68
434.66	2401.39
434.85	2583.95
435.03	2597.99
435.22	2574.59
435.41	2607.36
435.59	2651.83
435.78	2649.49
435.97	2574.59
436.16	2640.12
436.34	2722.04
436.53	2654.17
436.72	2717.36
436.90	2740.77
437.09	2712.68
437.28	2579.27
437.46	2661.19
437.65	2679.91
437.84	2675.23
438.02	2782.90
438.21	2761.83
438.40	2780.56
438.58	2773.53
438.77	2883.54
438.96	2827.37
439.14	2935.03
439.33	2974.82
439.52	2953.76
439.70	3026.31
439.89	3005.25
440.08	3112.91
440.26	2974.82
440.45	3047.38
440.63	3126.96
440.82	3089.51
441.01	3218.24
441.19	3063.76
441.38	3091.85
441.57	3155.04
441.75	3208.87
441.94	3201.85
442.12	3169.09
442.31	3225.26
442.50	3328.24
442.68	3400.80
442.87	3220.58
443.05	3358.67
443.24	3517.83
443.43	3361.01
443.61	3487.40
443.80	3485.06
443.98	3267.39
444.17	3258.03
444.35	3405.48
444.54	3407.82
444.73	3501.44
444.91	3384.41
445.10	3361.01
445.28	3318.88
445.47	3478.04
445.65	3426.54
445.84	3412.50
446.02	3417.18
446.21	3316.54
446.39	3382.07
446.58	3456.97
446.77	3473.36
446.95	3403.14
447.14	3403.14
447.32	3496.76
447.51	3463.99
447.69	3489.74
447.88	3405.48
448.06	3475.70
448.25	3557.61
448.43	3529.53
448.62	3478.04
448.80	3538.89
448.99	3557.61
449.17	3513.14
449.36	3379.73
449.54	3513.14
449.73	3817.41
449.91	3625.49
450.10	3655.92
450.28	3651.24
450.46	3747.20
450.65	3733.15
450.83	3681.66
451.02	3801.03
451.20	3737.84
451.39	3700.39
451.57	3686.34
451.76	3653.58
451.94	3777.62
452.13	3796.35
452.31	3850.18
452.49	3770.60
452.68	3882.95
452.86	3857.20
453.05	3896.99
453.23	3845.50
453.42	3770.60
453.60	3611.45
453.78	3866.56
453.97	3735.50
454.15	3810.39
454.34	3918.06
454.52	3978.91
454.70	3948.48
454.89	3988.27
455.07	3955.51
455.26	3997.64
455.44	4109.98
455.62	4046.79
455.81	4065.51
455.99	4114.66
456.17	4065.51
456.36	4173.18
456.54	4086.58
456.73	4145.09
456.91	4248.07
457.09	4161.47
457.28	4301.90
457.46	4320.63
457.64	4227.01
457.83	4264.46
458.01	4184.88
458.19	4442.34
458.38	4271.48
458.56	4374.46
458.74	4348.72
458.93	4320.63
459.11	4351.06
459.29	4390.84
459.48	4379.14
459.66	4409.57
459.84	4566.39
460.03	4517.23
460.21	4517.23
460.39	4404.89
460.57	4496.17
460.76	4376.80
460.94	4610.86
461.12	4542.98
461.31	4676.39
461.49	4629.58
461.67	4564.04
461.85	4496.17
462.04	4667.03
462.22	4608.51
462.40	4791.08
462.59	4844.91
462.77	4711.50
462.95	4823.84
463.13	4823.84
463.32	4770.01
463.50	4753.63
463.68	4898.74
463.86	4809.80
464.05	4741.93
464.23	4802.78
464.41	4954.91
464.59	4777.03
464.78	4957.25
464.96	4863.63
465.14	4772.35
465.32	5121.09
465.50	5053.22
465.69	5018.11
465.87	4877.68
466.05	4931.51
466.23	4980.66
466.41	5081.30
466.60	5186.63
466.78	4844.91
466.96	5060.24
467.14	4983.00
467.32	5186.63
467.51	4901.08
467.69	5093.01
467.87	5125.77
468.05	5210.03
468.23	5006.41
468.41	5167.90
468.60	5163.22
468.78	5184.29
468.96	5102.37
469.14	5336.42
469.32	5205.35
469.50	5144.50
469.69	5338.76
469.87	5369.19
470.05	5383.23
470.23	5369.19
470.41	5228.76
470.59	5373.87
470.77	5158.54
470.95	5469.83
471.14	5439.40
471.32	5341.10
471.50	5526.00
471.68	5643.03
471.86	5570.48
472.04	5710.91
472.22	5645.37
472.40	5563.45
472.58	5621.97
472.77	5900.49
472.95	5940.28
473.13	5996.45
473.31	5736.65
473.49	5731.97
473.67	5715.59
473.85	6010.50
474.03	5970.71
474.21	5949.64
474.39	6045.60
474.57	5902.83
474.75	6134.54
474.93	6132.20
475.12	6085.39
475.30	6181.35
475.48	6080.71
475.66	6218.80
475.84	6228.17
476.02	6230.51
476.20	6204.76
476.38	6260.93
476.56	6551.16
476.74	6476.26
476.92	6518.39
477.10	6530.09
477.28	6516.05
477.46	6597.97
477.64	6595.63
477.82	6780.53
478.00	6743.08
478.18	6801.60
478.36	6820.32
478.54	6925.65
478.72	7068.42
478.90	7131.61
479.08	7108.21
479.26	7424.18
479.44	7421.84
479.62	7222.89
479.80	7447.58
479.98	7403.11
480.16	7536.52
480.34	7375.03
480.52	7618.44
480.70	7555.25
480.88	7417.16
481.06	7740.15
481.24	7557.59
481.41	7742.49
481.59	7981.23
481.77	8102.93
481.95	7999.95
482.13	8093.57
482.31	7803.35
482.49	8238.69
482.67	8276.13
482.85	8226.98
483.03	8479.76
483.21	8669.34
483.39	8678.71
483.57	8482.10
483.74	8641.26
483.92	8767.65
484.10	8697.43
484.28	8765.31
484.46	8884.67
484.64	8968.93
484.82	8884.67
485.00	8919.78
485.18	9252.14
485.35	9202.99
485.53	9277.88
485.71	9385.55
485.89	9565.77
486.07	9481.51
486.25	9448.74
486.43	9448.74
486.61	9659.39
486.78	9844.29
486.96	9863.02
487.14	9811.53
487.32	9937.91
487.50	10108.77
487.68	10174.31
487.85	10136.86
488.03	10616.67
488.21	10565.18
488.39	10647.10
488.57	10621.35
488.75	10572.20
488.92	10754.76
489.10	10736.04
489.28	10932.64
489.46	10920.94
489.64	10951.37
489.81	11328.19
489.99	11194.78
490.17	11126.91
490.35	11197.12
490.53	11309.47
490.70	11648.85
490.88	11585.65
491.06	11580.97
491.24	11548.20
491.41	11606.72
491.59	12028.01
491.77	11873.54
491.95	12030.35
492.13	11878.22
492.30	12067.80
492.48	11969.50
492.66	12351.01
492.84	12430.59
493.01	12311.22
493.19	12390.80
493.37	12802.73
493.54	12704.43
493.72	12947.84
493.90	12573.36
494.08	12652.94
494.25	13074.23
494.43	12968.91
494.61	13177.22
494.79	13261.48
494.96	13032.10
495.14	13011.04
495.32	13502.55
495.49	13305.95
495.67	13422.97
495.85	13720.22
496.02	13687.45
496.20	13715.54
496.38	13867.67
496.55	14071.30
496.73	14057.26
496.91	13898.10
497.09	14176.62
497.26	14125.13
497.44	14274.93
497.62	14457.49
497.79	14455.15
497.97	14525.36
498.14	14810.91
498.32	14703.25
498.50	14717.29
498.67	15035.60
498.85	14574.52
499.03	14778.14
499.20	14822.61
499.38	14960.70
499.56	15264.97
499.73	15145.61
499.91	15213.48
500.08	15405.41
500.26	15267.31
500.44	15288.38
500.61	15119.86
500.79	15166.67
500.97	15400.72
501.14	15602.01
501.32	15606.69
501.49	15669.89
501.67	15309.44
501.84	15669.89
502.02	15829.04
502.20	15948.41
502.37	16102.89
502.55	16002.24
502.72	16020.97
502.90	16093.52
503.07	15885.22
503.25	16037.35
503.43	16280.77
503.60	16369.71
503.78	16306.51
503.95	16526.52
504.13	16535.88
504.30	16503.12
504.48	16355.66
504.65	16655.25
504.83	16734.83
505.01	16919.73
505.18	16669.30
505.36	16807.39
505.53	17069.53
505.71	17268.47
505.88	16985.27
506.06	16973.56
506.23	17132.72
506.41	16798.02
506.58	17249.75
506.76	17301.24
506.93	17266.13
507.11	17181.87
507.28	17556.36
507.46	17521.25
507.63	17703.81
507.81	17713.17
507.98	17549.34
508.16	17348.05
508.33	17696.79
508.50	17781.05
508.68	17895.74
508.85	18019.78
509.03	18029.15
509.20	18031.49
509.38	18202.35
509.55	18031.49
509.73	17895.74
509.90	18050.21
510.08	18068.94
510.25	18113.41
510.42	18679.82
510.60	18452.78
510.77	18527.68
510.95	18527.68
511.12	18394.27
511.30	18328.74
511.47	18560.45
511.64	18448.10
511.82	18974.72
511.99	18803.86
512.17	19150.26
512.34	19136.22
512.51	19129.20
512.69	19257.93
512.86	18972.38
513.04	18897.49
513.21	19410.06
513.38	19531.77
513.56	19679.22
513.73	19073.03
513.90	19555.18
514.08	19428.79
514.25	19702.63
514.43	19314.10
514.60	19761.14
514.77	19522.41
514.95	19711.99
515.12	19599.65
515.29	19686.25
515.47	19529.43
515.64	19861.79
515.81	19864.13
515.99	20133.29
516.16	20123.93
516.33	20130.95
516.51	20119.24
516.68	19866.47
516.85	20013.92
517.03	20100.52
517.20	20479.69
517.37	20428.20
517.54	20245.63
517.72	20285.42
517.89	20278.40
518.06	20287.76
518.24	20538.20
518.41	20517.14
518.58	20716.08
518.75	20505.43
518.93	20938.43
519.10	20805.02
519.27	20676.29
519.45	20861.19
519.62	20877.58
519.79	20690.34
519.96	20872.90
520.14	21142.06
520.31	20926.73
520.48	21027.37
520.65	21137.38
520.83	21132.70
521.00	21207.59
521.17	21050.78
521.34	21280.15
521.52	21214.62
521.69	21504.84
521.86	21563.36
522.03	21769.32
522.20	21385.47
522.38	21549.31
522.55	21617.19
522.72	21572.72
522.89	21551.65
523.07	21944.86
523.24	21837.20
523.41	22040.82
523.58	21769.32
523.75	21792.73
523.92	21579.74
524.10	21710.81
524.27	22057.21
524.44	21977.63
524.61	22686.81
524.78	22375.52
524.96	22384.88
525.13	22595.53
525.30	22363.82
525.47	22478.50
525.64	22328.71
525.81	22590.85
525.98	22485.53
526.16	22492.55
526.33	22745.33
526.50	22981.72
526.67	22551.06
526.84	22796.82
527.01	22651.70
527.18	22551.06
527.36	22871.72
527.53	23051.94
527.70	23096.41
527.87	22988.74
528.04	22988.74
528.21	23028.53
528.38	22881.08
528.55	23241.52
528.72	23187.69
528.89	23463.87
529.07	23124.49
529.24	23431.10
529.41	23119.81
529.58	23239.18
529.75	22977.04
529.92	23400.68
530.09	23145.56
530.26	23054.28
530.43	23220.45
530.60	23271.95
530.77	23454.51
530.94	23506.00
531.11	23463.87
531.28	23405.36
531.46	23438.12
531.63	23536.43
531.80	24060.71
531.97	23910.91
532.14	24095.82
532.31	23700.26
532.48	23999.85
532.65	23861.76
532.82	23571.54
532.99	23814.95
533.16	23742.39
533.33	24137.94
533.50	24240.93
533.67	24226.89
533.84	23995.17
534.01	23789.20
534.18	24126.24
534.35	24294.76
534.52	24505.41
534.69	24372.00
534.86	24325.19
535.03	24287.74
535.20	24482.00
535.37	24400.08
535.54	24568.60
535.71	24229.23
535.88	24713.72
536.05	24493.71
536.22	24851.81
536.38	25057.78
536.55	24465.62
536.72	24671.59
536.89	24833.08
537.06	24793.29
537.23	25032.03
537.40	24907.98
537.57	25041.39
537.74	25078.84
537.91	24744.14
538.08	25060.12
538.25	25144.38
538.42	25095.22
538.59	25120.97
538.75	24987.56
538.92	24936.07
539.09	25174.80
539.26	25266.08
539.43	25092.88
539.60	25331.62
539.77	25235.66
539.94	25483.75
540.11	25214.59
540.28	25472.05
540.44	25291.83
540.61	25439.28
540.78	25275.45
540.95	25560.99
541.12	25397.15
541.29	25443.96
541.46	25710.78
541.62	25450.99
541.79	25652.27
541.96	25371.41
542.13	25804.41
542.30	25116.29
542.47	25565.67
542.63	25996.33
542.80	25525.88
542.97	26022.08
543.14	26368.48
543.31	25708.44
543.48	26092.29
543.64	25900.37
543.81	26291.24
543.98	26260.81
544.15	26340.39
544.32	26345.07
544.48	26469.12
544.65	26202.30
544.82	26382.52
544.99	26047.82
545.16	26122.72
545.32	26298.26
545.49	26405.92
545.66	26658.70
545.83	26380.18
546.00	26857.65
546.16	26698.49
546.33	26246.77
546.50	26527.63
546.67	26691.47
546.83	26574.44
547.00	26661.04
547.17	26871.69
547.34	26771.05
547.50	26848.29
547.67	26738.28
547.84	26583.80
548.00	26630.62
548.17	26991.06
548.34	26930.20
548.51	26831.90
548.67	27030.85
548.84	27119.79
549.01	26965.31
549.18	27012.12
549.34	26815.52
549.51	26829.56
549.68	26967.65
549.84	26948.93
550.01	26923.18
550.18	26991.06
550.34	27220.43
550.51	27262.56
550.68	27578.53
550.84	26995.74
551.01	27115.11
551.18	26958.29
551.34	27115.11
551.51	27154.90
551.68	27367.88
551.84	27438.10
552.01	27335.12
552.18	27454.48
552.34	27316.39
552.51	27213.41
552.68	27328.10
552.84	27740.03
553.01	27487.25
553.18	27728.33
553.34	27524.70
553.51	27557.47
553.67	27946.00
553.84	28348.57
554.01	27709.60
554.17	27201.71
554.34	27871.10
554.51	27318.73
554.67	27920.25
554.84	28023.23
555.00	27845.35
555.17	27765.78
555.33	28013.87
555.50	27697.90
555.67	27798.54
555.83	28034.94
556.00	27964.72
556.16	28233.88
556.33	28315.80
556.50	28147.28
556.66	27950.68
556.83	27875.78
556.99	28414.10
557.16	28198.77
557.32	28158.99
557.49	28645.82
557.65	27714.28
557.82	27880.46
557.98	28046.64
558.15	28367.29
558.32	28264.31
558.48	28215.16
558.65	28170.69
558.81	28250.27
558.98	28297.08
559.14	28311.12
559.31	28343.89
559.47	28355.59
559.64	28395.38
559.80	28446.87
559.97	28357.93
560.13	28056.00
560.30	28542.83
560.46	27899.19
560.63	28528.79
560.79	28388.36
560.96	28596.67
561.12	28891.57
561.29	28346.23
561.45	28655.18
561.61	28673.90
561.78	28327.50
561.94	29046.05
562.11	28694.97
562.27	28926.68
562.44	28643.48
562.60	28421.13
562.77	28669.22
562.93	28379.00
563.10	28854.12
563.26	28961.79
563.42	29034.35
563.59	28549.85
563.75	28797.95
563.92	28610.71
564.08	28685.61
564.24	28706.67
564.41	28697.31
564.57	28823.70
564.74	29071.79
564.90	28856.46
565.07	28821.36
565.23	29015.62
565.39	28959.45
565.56	29043.71
565.72	28891.57
565.88	29102.22
566.05	28580.28
566.21	28734.76
566.38	28821.36
566.54	28795.61
566.70	29146.69
566.87	29350.32
567.03	29099.88
567.19	29572.67
567.36	29090.52
567.52	28919.66
567.68	29296.49
567.85	29039.03
568.01	29144.35
568.17	29207.55
568.34	29411.17
568.50	29149.03
568.66	29041.37
568.83	29394.79
568.99	29008.60
569.15	28999.24
569.32	28809.65
569.48	28397.72
569.64	28900.94
569.81	29017.96
569.97	28875.19
570.13	29273.08
570.30	29163.08
570.46	29053.07
570.62	29195.84
570.78	29029.66
570.95	29156.05
571.11	28865.83
571.27	29209.89
571.43	28807.31
571.60	29198.18
571.76	29216.91
571.92	29123.29
572.09	29228.61
572.25	29556.28
572.41	29315.21
572.57	29102.22
572.74	29579.69
572.90	29256.70
573.06	29415.85
573.22	29053.07
573.38	29160.73
573.55	29378.40
573.71	29345.64
573.87	29668.63
574.03	29345.64
574.20	29429.90
574.36	29317.55
574.52	29298.83
574.68	29479.05
574.84	29191.16
575.01	29818.42
575.17	29575.01
575.33	29631.18
575.49	29191.16
575.65	29326.91
575.82	29425.22
575.98	29413.51
576.14	29724.80
576.30	29542.24
576.46	29441.60
576.62	29476.71
576.79	29184.14
576.95	29376.06
577.11	29624.16
577.27	29605.44
577.43	29277.76
577.59	29642.88
577.75	29553.94
577.92	29186.48
578.08	29191.16
578.24	29127.97
578.40	29502.45
578.56	29525.86
578.72	29406.49
578.88	29399.47
579.04	29701.40
579.21	29317.55
579.37	29579.69
579.53	29668.63
579.69	29247.33
579.85	29214.57
580.01	29537.56
580.17	29333.93
580.33	29663.95
580.49	29081.16
580.65	29553.94
580.82	29717.78
580.98	29685.01
581.14	29633.52
581.30	29755.23
581.46	29062.43
581.62	29677.99
581.78	29336.27
581.94	29317.55
582.10	29333.93
582.26	29570.33
582.42	29738.85
582.58	29809.06
582.74	29537.56
582.90	29593.73
583.06	29846.51
583.22	29682.67
583.38	29362.02
583.54	29256.70
583.70	29394.79
583.86	29518.84
584.02	29076.48
584.18	29645.23
584.34	29544.58
584.50	29954.18
584.66	29434.58
584.82	29191.16
584.98	29586.71
585.14	29406.49
585.30	29378.40
585.46	29575.01
585.62	29137.33
585.78	29591.39
585.94	29500.11
586.10	29752.89
586.26	29773.95
586.42	29731.83
586.58	29846.51
586.74	29481.39
586.90	29586.71
587.06	29167.76
587.22	29275.42
587.38	29563.31
587.54	29619.48
587.70	29488.41
587.86	29544.58
588.02	29465.00
588.18	29996.31
588.34	29708.42
588.49	29965.88
588.65	29436.92
588.81	29467.34
588.97	29387.77
589.13	29633.52
589.29	29652.25
589.45	29752.89
589.61	30150.78
589.77	29773.95
589.93	30363.77
590.08	29895.66
590.24	30108.65
590.40	30000.99
590.56	30101.63
590.72	29909.71
590.88	29446.28
591.04	29645.23
591.20	30443.35
591.35	30033.75
591.51	30202.27
591.67	29942.47
591.83	30342.70
591.99	30134.40
