SpectraSuite Data File
++++++++++++++++++++++++++++++++++++
Date: Fri Oct 18 13:58:19 GMT-05:00 2013
User: bianchi
Dark Spectrum Present: No
Reference Spectrum Present: No
Number of Sampled Component Spectra: 1
Spectrometers: USB2+H05261
Integration Time (usec): 50000 (USB2+H05261)
Spectra Averaged: 1 (USB2+H05261)
Boxcar Smoothing: 0 (USB2+H05261)
Correct for Electrical Dark: No (USB2+H05261)
Strobe/Lamp Enabled: No (USB2+H05261)
Correct for Detector Non-linearity: No (USB2+H05261)
Correct for Stray Light: No (USB2+H05261)
Number of Pixels in Processed Spectrum: 2048
>>>>>Begin Processed Spectral Data<<<<<
365.73	0.00
365.92	0.00
366.12	0.00
366.32	0.00
366.52	0.00
366.72	0.00
366.91	0.00
367.11	0.00
367.31	0.00
367.51	0.00
367.70	0.00
367.90	0.00
368.10	0.00
368.30	0.00
368.49	0.00
368.69	0.00
368.89	0.00
369.09	0.00
369.28	0.00
369.48	0.00
369.68	0.00
369.87	0.00
370.07	0.00
370.27	0.00
370.47	0.00
370.66	121.71
370.86	58.51
371.06	138.09
371.25	166.18
371.45	81.92
371.65	156.82
371.84	140.43
372.04	177.88
372.24	203.63
372.44	201.29
372.63	173.20
372.83	203.63
373.03	191.92
373.22	231.71
373.42	266.82
373.62	201.29
373.81	259.80
374.01	238.73
374.21	308.95
374.40	229.37
374.60	259.80
374.79	215.33
374.99	222.35
375.19	220.01
375.38	271.50
375.58	271.50
375.78	283.20
375.97	287.89
376.17	234.05
376.37	231.71
376.56	280.86
376.76	304.27
376.95	248.10
377.15	278.52
377.35	322.99
377.54	191.92
377.74	215.33
377.93	315.97
378.13	337.04
378.33	297.25
378.52	306.61
378.72	215.33
378.91	294.91
379.11	315.97
379.31	308.95
379.50	264.48
379.70	341.72
379.89	330.02
380.09	358.10
380.28	269.16
380.48	311.29
380.68	313.63
380.87	262.14
381.07	339.38
381.26	299.59
381.46	318.31
381.65	327.68
381.85	390.87
382.04	299.59
382.24	287.89
382.43	325.33
382.63	313.63
382.83	353.42
383.02	369.80
383.22	259.80
383.41	269.16
383.61	311.29
383.80	458.74
384.00	400.23
384.19	421.30
384.39	325.33
384.58	287.89
384.78	421.30
384.97	402.57
385.17	411.93
385.36	330.02
385.56	388.53
385.75	402.57
385.95	374.49
386.14	358.10
386.34	423.64
386.53	423.64
386.72	383.85
386.92	433.00
387.11	440.02
387.31	449.38
387.50	400.23
387.70	379.17
387.89	416.62
388.09	404.91
388.28	458.74
388.48	414.27
388.67	423.64
388.86	376.83
389.06	468.11
389.25	447.04
389.45	461.09
389.64	433.00
389.84	531.30
390.03	498.53
390.22	498.53
390.42	507.90
390.61	456.40
390.81	550.03
391.00	498.53
391.19	470.45
391.39	484.49
391.58	531.30
391.78	547.69
391.97	554.71
392.16	552.37
392.36	603.86
392.55	538.32
392.75	517.26
392.94	601.52
393.13	559.39
393.33	571.09
393.52	559.39
393.71	629.60
393.91	575.77
394.10	585.13
394.29	550.03
394.49	575.77
394.68	547.69
394.88	655.35
395.07	596.84
395.26	603.86
395.46	580.45
395.65	664.71
395.84	613.22
396.04	739.61
396.23	690.46
396.42	650.67
396.62	622.58
396.81	692.80
397.00	657.69
397.19	716.20
397.39	655.35
397.58	638.97
397.77	667.05
397.97	713.86
398.16	653.01
398.35	697.48
398.55	716.20
398.74	702.16
398.93	788.76
399.12	653.01
399.32	653.01
399.51	695.14
399.70	753.65
399.90	713.86
400.09	744.29
400.28	779.40
400.47	662.37
400.67	779.40
400.86	809.83
401.05	779.40
401.24	821.53
401.44	894.08
401.63	858.98
401.82	840.25
402.01	734.93
402.21	842.59
402.40	767.70
402.59	800.46
402.78	877.70
402.97	889.40
403.17	861.32
403.36	819.19
403.55	856.64
403.74	910.47
403.93	933.87
404.13	887.06
404.32	863.66
404.51	903.45
404.70	926.85
404.89	931.53
405.09	931.53
405.28	938.55
405.47	959.62
405.66	980.68
405.85	912.81
406.05	959.62
406.24	1041.54
406.43	1013.45
406.62	1046.22
406.81	1029.84
407.00	1015.79
407.20	1001.75
407.39	992.39
407.58	1083.67
407.77	1043.88
407.96	1081.33
408.15	1062.60
408.34	1053.24
408.54	1102.39
408.73	1130.48
408.92	1111.75
409.11	1125.80
409.30	1186.65
409.49	1210.06
409.68	1146.86
409.87	1121.12
410.07	1137.50
410.26	1135.16
410.45	1153.88
410.64	1242.82
410.83	1196.01
411.02	1284.95
411.21	1158.57
411.40	1228.78
411.59	1299.00
411.78	1235.80
411.98	1226.44
412.17	1275.59
412.36	1327.08
412.55	1416.02
412.74	1324.74
412.93	1331.76
413.12	1359.85
413.31	1425.39
413.50	1303.68
413.69	1481.56
413.88	1411.34
414.07	1493.26
414.26	1490.92
414.45	1434.75
414.64	1486.24
414.83	1558.80
415.02	1547.09
415.22	1467.52
415.41	1533.05
415.60	1533.05
415.79	1570.50
415.98	1631.35
416.17	1596.25
416.36	1624.33
416.55	1650.08
416.74	1680.50
416.93	1643.06
417.12	1703.91
417.31	1689.87
417.50	1652.42
417.69	1729.66
417.88	1806.89
418.07	1771.79
418.26	1732.00
418.45	1781.15
418.64	1921.58
418.83	1905.20
419.02	1891.15
419.21	1832.64
419.39	1900.52
419.58	1799.87
419.77	1837.32
419.96	1865.41
420.15	1781.15
420.34	1851.36
420.53	2005.84
420.72	1935.62
420.91	1832.64
421.10	1830.30
421.29	1877.11
421.48	1916.90
421.67	1930.94
421.86	1996.48
422.05	2083.08
422.24	1900.52
422.43	2015.20
422.61	2029.24
422.80	2001.16
422.99	2054.99
423.18	2122.87
423.37	2043.29
423.56	2057.33
423.75	2066.69
423.94	2078.40
424.13	1860.73
424.32	1947.33
424.50	2083.08
424.69	2125.21
424.88	2122.87
425.07	1980.09
425.26	1966.05
425.45	2026.90
425.64	2040.95
425.83	2080.74
426.01	2045.63
426.20	2169.68
426.39	2132.23
426.58	2111.16
426.77	2106.48
426.96	2047.97
427.15	2157.97
427.33	2225.85
427.52	2141.59
427.71	2239.89
427.90	2244.57
428.09	2244.57
428.28	2228.19
428.46	2244.57
428.65	2183.72
428.84	2293.72
429.03	2296.07
429.22	2136.91
429.40	2289.04
429.59	2396.71
429.78	2258.62
429.97	2202.44
430.16	2200.10
430.34	2424.80
430.53	2387.35
430.72	2385.01
430.91	2331.17
431.10	2333.51
431.28	2370.96
431.47	2422.45
431.66	2380.32
431.85	2377.98
432.03	2429.48
432.22	2614.38
432.41	2612.04
432.60	2520.76
432.79	2370.96
432.97	2448.20
433.16	2626.08
433.35	2516.08
433.54	2476.29
433.72	2476.29
433.91	2511.39
434.10	2572.25
434.28	2413.09
434.47	2642.46
434.66	2569.91
434.85	2541.82
435.03	2448.20
435.22	2502.03
435.41	2693.96
435.59	2626.08
435.78	2712.68
435.97	2649.49
436.16	2642.46
436.34	2703.32
436.53	2700.98
436.72	2782.90
436.90	2686.94
437.09	2773.53
437.28	2689.28
437.46	2729.06
437.65	2813.32
437.84	2708.00
438.02	2827.37
438.21	2822.69
438.40	2794.60
438.58	2818.00
438.77	2827.37
438.96	2911.63
439.14	3009.93
439.33	2967.80
439.52	2995.89
439.70	3014.61
439.89	3089.51
440.08	3019.29
440.26	2993.55
440.45	3068.44
440.63	2979.50
440.82	3204.19
441.01	3080.14
441.19	3180.79
441.38	3279.09
441.57	3265.05
441.75	3335.26
441.94	3370.37
442.12	3178.45
442.31	3272.07
442.50	3365.69
442.68	3274.41
442.87	3382.07
443.05	3293.13
443.24	3372.71
443.43	3442.93
443.61	3501.44
443.80	3405.48
443.98	3290.79
444.17	3318.88
444.35	3447.61
444.54	3445.27
444.73	3501.44
444.91	3363.35
445.10	3461.65
445.28	3424.20
445.47	3293.13
445.65	3445.27
445.84	3524.85
446.02	3644.21
446.21	3375.05
446.39	3449.95
446.58	3599.74
446.77	3557.61
446.95	3445.27
447.14	3562.30
447.32	3527.19
447.51	3478.04
447.69	3534.21
447.88	3658.26
448.06	3557.61
448.25	3492.08
448.43	3653.58
448.62	3674.64
448.80	3543.57
448.99	3632.51
449.17	3674.64
449.36	3585.70
449.54	3728.47
449.73	3782.31
449.91	3829.12
450.10	3667.62
450.28	3779.97
450.46	3634.85
450.65	3679.32
450.83	3896.99
451.02	3707.41
451.20	3810.39
451.39	3864.22
451.57	3660.60
451.76	3808.05
451.94	3794.01
452.13	3803.37
452.31	3845.50
452.49	3803.37
452.68	4042.11
452.86	3974.23
453.05	3995.29
453.23	3941.46
453.42	3981.25
453.60	3894.65
453.78	3946.14
453.97	3911.04
454.15	3957.85
454.34	3953.16
454.52	4053.81
454.70	4058.49
454.89	4100.62
455.07	4131.05
455.26	4222.33
455.44	4222.33
455.62	4191.90
455.81	4084.23
455.99	4126.36
456.17	4109.98
456.36	4154.45
456.54	4297.22
456.73	4255.09
456.91	4262.12
457.09	4346.37
457.28	4376.80
457.46	4283.18
457.64	4463.40
457.83	4355.74
458.01	4271.48
458.19	4449.36
458.38	4428.29
458.56	4322.97
458.74	4308.93
458.93	4505.53
459.11	4557.02
459.29	4444.68
459.48	4486.81
459.66	4470.42
459.84	4573.41
460.03	4662.35
460.21	4559.36
460.39	4451.70
460.57	4573.41
460.76	4568.73
460.94	4657.67
461.12	4615.54
461.31	4608.51
461.49	4664.69
461.67	4615.54
461.85	4704.48
462.04	4713.84
462.22	5043.85
462.40	4887.04
462.59	4744.27
462.77	4762.99
462.95	4781.71
463.13	4788.74
463.32	4840.23
463.50	4903.42
463.68	4936.19
463.86	4959.60
464.05	4924.49
464.23	4891.72
464.41	4905.76
464.59	4903.42
464.78	5060.24
464.96	4819.16
465.14	4929.17
465.32	4994.70
465.50	5069.60
465.69	5100.03
465.87	5111.73
466.05	4994.70
466.23	4985.34
466.41	5097.69
466.60	5387.91
466.78	5144.50
466.96	4954.91
467.14	5011.09
467.32	5144.50
467.51	5226.42
467.69	5004.07
467.87	5305.99
468.05	5235.78
468.23	5242.80
468.41	5123.43
468.60	5294.29
468.78	5378.55
468.96	5224.08
469.14	5249.82
469.32	5334.08
469.50	5317.70
469.69	5399.62
469.87	5451.11
470.05	5341.10
470.23	5296.63
470.41	5481.53
470.59	5364.51
470.77	5439.40
470.95	5502.60
471.14	5687.50
471.32	5441.75
471.50	5600.90
471.68	5832.62
471.86	5757.72
472.04	5713.25
472.22	5797.51
472.40	5671.12
472.58	5547.07
472.77	5837.30
472.95	5893.47
473.13	5987.09
473.31	5776.44
473.49	6012.84
473.67	5942.62
473.85	5944.96
474.03	6001.13
474.21	5935.60
474.39	5898.15
474.57	6162.63
474.75	6167.31
474.93	6209.44
475.12	6249.23
475.30	6258.59
475.48	6328.81
475.66	6427.11
475.84	6420.09
476.02	6312.42
476.20	6506.69
476.38	6499.67
476.56	6717.34
476.74	6546.48
476.92	6586.27
477.10	6473.92
477.28	6670.53
477.46	6661.16
477.64	6747.76
477.82	6892.88
478.00	6775.85
478.18	6960.75
478.36	7124.59
478.54	7180.76
478.72	7115.23
478.90	7232.26
479.08	7124.59
479.26	7201.83
479.44	7351.62
479.62	7337.58
479.80	7492.05
479.98	7482.69
480.16	7487.37
480.34	7545.89
480.52	7646.53
480.70	7604.40
480.88	7562.27
481.06	7801.01
481.24	7819.73
481.41	7941.44
481.59	8006.97
481.77	7957.82
481.95	8208.26
482.13	8327.63
482.31	8016.33
482.49	8159.11
482.67	8325.29
482.85	8465.72
483.03	8547.64
483.21	8566.36
483.39	8446.99
483.57	8690.41
483.74	8685.73
483.92	8887.01
484.10	8601.47
484.28	8922.12
484.46	9214.69
484.64	9132.77
484.82	9102.34
485.00	9242.78
485.18	9404.27
485.35	9582.15
485.53	9315.33
485.71	9488.53
485.89	9645.35
486.07	9750.67
486.25	9568.11
486.43	9764.72
486.61	9776.42
486.78	9832.59
486.96	10090.05
487.14	10249.21
487.32	10015.15
487.50	10111.11
487.68	10078.35
487.85	10410.70
488.03	10733.70
488.21	10490.28
488.39	10675.18
488.57	10595.61
488.75	10789.87
488.92	11044.99
489.10	11026.26
489.28	10899.87
489.46	11185.42
489.64	11178.40
489.81	11400.75
489.99	11459.26
490.17	11365.64
490.35	11698.00
490.53	11531.82
490.70	11847.79
490.88	11719.06
491.06	11723.74
491.24	11578.63
491.41	12086.53
491.59	12283.13
491.77	12063.12
491.95	12175.47
492.13	12334.62
492.30	12425.90
492.48	12383.77
492.66	12437.61
492.84	12498.46
493.01	12657.62
493.19	12540.59
493.37	13116.36
493.54	13001.68
493.72	12917.42
493.90	13202.96
494.08	12989.97
494.25	13118.70
494.43	12975.93
494.61	13245.09
494.79	13235.73
494.96	13277.86
495.14	13348.08
495.32	13664.05
495.49	13612.56
495.67	13596.17
495.85	13879.38
496.02	13954.27
496.20	13776.39
496.38	13980.02
496.55	14059.60
496.73	14162.58
496.91	14183.65
497.09	14497.28
497.26	14279.61
497.44	14546.43
497.62	14555.79
497.79	14717.29
497.97	14448.13
498.14	14787.50
498.32	15063.69
498.50	15049.64
498.67	14843.68
498.85	14925.60
499.03	14956.02
499.20	15056.67
499.38	15023.90
499.56	15269.66
499.73	15332.85
499.91	15346.89
500.08	15712.02
500.26	15328.17
500.44	15325.83
500.61	15587.97
500.79	15566.90
500.97	15990.54
501.14	16079.48
501.32	15983.52
501.49	15936.71
501.67	15761.17
501.84	15913.30
502.02	16203.53
502.20	16318.22
502.37	16229.27
502.55	16219.91
502.72	16203.53
502.90	16395.45
503.07	16079.48
503.25	16376.73
503.43	16416.52
503.60	16652.91
503.78	16709.08
503.95	16437.58
504.13	16648.23
504.30	16840.15
504.48	16767.60
504.65	16828.45
504.83	17081.23
505.01	17462.74
505.18	17245.07
505.36	17275.49
505.53	17102.29
505.71	17167.83
505.88	17163.15
506.06	17228.68
506.23	17329.33
506.41	17364.43
506.58	17692.11
506.76	17734.24
506.93	17495.50
507.11	17420.61
507.28	17537.63
507.46	17818.50
507.63	17792.75
507.81	18111.07
507.98	17982.34
508.16	17783.39
508.33	17846.58
508.50	18085.32
508.68	18066.60
508.85	17811.48
509.03	18118.09
509.20	18389.59
509.38	18656.41
509.55	18338.10
509.73	18743.01
509.90	18448.10
510.08	18530.02
510.25	18417.68
510.42	18815.57
510.60	19040.26
510.77	19019.19
510.95	19007.49
511.12	18822.59
511.30	18743.01
511.47	18995.79
511.64	18874.08
511.82	19246.23
511.99	19126.86
512.17	19344.53
512.34	19580.92
512.51	19295.38
512.69	19131.54
512.86	19620.71
513.04	19564.54
513.21	19377.30
513.38	19431.13
513.56	19686.25
513.73	19534.11
513.90	19763.48
514.08	19803.27
514.25	19852.42
514.43	19726.04
514.60	19524.75
514.77	19885.19
514.95	20116.90
515.12	19782.21
515.29	20020.94
515.47	20498.41
515.64	20128.61
515.81	20187.12
515.99	20205.84
516.16	20257.34
516.33	20540.54
516.51	20484.37
516.68	20175.42
516.85	20067.75
517.03	20688.00
517.20	20577.99
517.37	20610.76
517.54	20994.61
517.72	21146.74
517.89	20978.22
518.06	20891.62
518.24	21027.37
518.41	20790.98
518.58	20812.04
518.75	21046.10
518.93	21163.12
519.10	21282.49
519.27	21266.11
519.45	20938.43
519.62	21572.72
519.79	21149.08
519.96	21668.68
520.14	21219.30
520.31	21404.20
520.48	21589.10
520.65	21666.34
520.83	21617.19
521.00	21542.29
521.17	21511.86
521.34	21745.92
521.52	21774.00
521.69	22143.81
521.86	21762.30
522.03	21762.30
522.20	22082.95
522.38	22111.04
522.55	22111.04
522.72	22078.27
522.89	22015.08
523.07	22143.81
523.24	22242.11
523.41	22005.72
523.58	21958.91
523.75	22317.01
523.92	22218.71
524.10	22136.79
524.27	22511.27
524.44	22216.36
524.61	22876.40
524.78	22810.86
524.96	22347.44
525.13	22836.61
525.30	22927.89
525.47	22572.13
525.64	22768.73
525.81	22817.88
525.98	22988.74
526.16	23044.91
526.33	22717.24
526.50	22888.10
526.67	23096.41
526.84	22827.24
527.01	22944.27
527.18	22963.00
527.36	23487.28
527.53	23044.91
527.70	23391.31
527.87	23428.76
528.04	23098.75
528.21	23330.46
528.38	23236.84
528.55	23583.24
528.72	23253.22
528.89	23679.20
529.07	23440.47
529.24	23220.45
529.41	23541.11
529.58	23597.28
529.75	23562.17
529.92	23800.91
530.09	23910.91
530.26	24032.62
530.43	23885.17
530.60	23716.65
530.77	23946.02
530.94	23887.51
531.11	23997.51
531.28	23786.86
531.46	24041.98
531.63	24159.01
531.80	24133.26
531.97	24297.10
532.14	24362.64
532.31	24191.78
532.48	24191.78
532.65	24325.19
532.82	24332.21
532.99	24400.08
533.16	24135.60
533.33	24629.46
533.50	24718.40
533.67	24496.05
533.84	24128.58
534.01	24208.16
534.18	24439.87
534.35	24563.92
534.52	24886.92
534.69	24886.92
534.86	24795.64
535.03	24678.61
535.20	24858.83
535.37	24849.47
535.54	24996.92
535.71	24636.48
535.88	24772.23
536.05	25291.83
536.22	24959.47
536.38	25057.78
536.55	25209.91
536.72	25034.37
536.89	25282.47
537.06	24975.86
537.23	25249.70
537.40	25268.42
537.57	24971.18
537.74	25420.56
537.91	25364.39
538.08	25324.60
538.25	25268.42
538.42	25443.96
538.59	25315.23
538.75	25631.21
538.92	25460.35
539.09	25736.53
539.26	25722.49
539.43	25572.69
539.60	25633.55
539.77	25570.35
539.94	26050.16
540.11	25598.44
540.28	25940.16
540.44	25458.01
540.61	25898.03
540.78	25734.19
540.95	26068.89
541.12	25937.82
541.29	25666.31
541.46	25930.80
541.62	25530.56
541.79	25862.92
541.96	25816.11
542.13	25998.67
542.30	26211.66
542.47	26501.89
542.63	26300.60
542.80	26419.97
542.97	26394.22
543.14	26380.18
543.31	26417.63
543.48	26717.22
543.64	26595.51
543.81	26218.68
543.98	26684.45
544.15	26607.21
544.32	26778.07
544.48	26576.78
544.65	26885.73
544.82	26632.96
544.99	26511.25
545.16	26822.54
545.32	26778.07
545.49	27138.51
545.66	27075.32
545.83	27222.77
546.00	26927.86
546.16	26937.23
546.33	27068.30
546.50	26473.80
546.67	26771.05
546.83	26749.98
547.00	27164.26
547.17	26787.43
547.34	27271.92
547.50	27288.31
547.67	27278.94
547.84	26913.82
548.00	27339.80
548.17	27157.24
548.34	27318.73
548.51	27562.15
548.67	27442.78
548.84	27693.22
549.01	27576.19
549.18	27372.57
549.34	27704.92
549.51	27417.04
549.68	27379.59
549.84	27627.68
550.01	27728.33
550.18	27192.34
550.34	27625.34
550.51	27786.84
550.68	27885.14
550.84	27426.40
551.01	27700.24
551.18	27515.34
551.34	27634.71
551.51	27585.55
551.68	27229.79
551.84	27730.67
552.01	27573.85
552.18	28074.73
552.34	27847.69
552.51	27674.49
552.68	28009.19
552.84	28189.41
553.01	27997.49
553.18	27889.82
553.34	28348.57
553.51	27974.08
553.67	28226.86
553.84	28402.40
554.01	28173.03
554.17	27953.02
554.34	28154.30
554.51	27756.41
554.67	28634.11
554.84	28531.13
555.00	27999.83
555.17	28088.77
555.33	28315.80
555.50	28222.18
555.67	28231.54
555.83	28510.07
556.00	28311.12
556.16	28636.45
556.33	28259.63
556.50	28547.51
556.66	28952.43
556.83	28606.03
556.99	28645.82
557.16	28863.49
557.32	28575.60
557.49	28945.41
557.65	28713.69
557.82	28741.78
557.98	28687.95
558.15	28533.47
558.32	29043.71
558.48	28601.35
558.65	28751.14
558.81	28540.49
558.98	28809.65
559.14	29008.60
559.31	28945.41
559.47	28961.79
559.64	28879.87
559.80	28786.25
559.97	29149.03
560.13	28416.44
560.30	28975.83
560.46	28526.45
560.63	29158.39
560.79	28739.44
560.96	28746.46
561.12	29144.35
561.29	28875.19
561.45	28591.98
561.61	29013.28
561.78	29235.63
561.94	29156.05
562.11	29371.38
562.27	29219.25
562.44	28889.23
562.60	28945.41
562.77	28886.89
562.93	29142.01
563.10	29680.33
563.26	28868.17
563.42	29699.06
563.59	29214.57
563.75	29202.86
563.92	29296.49
564.08	28926.68
564.24	29355.00
564.41	29083.50
564.57	28992.22
564.74	29060.09
564.90	29373.72
565.07	29034.35
565.23	29617.14
565.39	29193.50
565.56	29408.83
565.72	29427.56
565.88	29457.98
566.05	29682.67
566.21	29387.77
566.38	29539.90
566.54	29029.66
566.70	29521.18
566.87	29607.78
567.03	29825.45
567.19	29832.47
567.36	29118.60
567.52	29301.17
567.68	29457.98
567.85	29181.80
568.01	29570.33
568.17	29743.53
568.34	29652.25
568.50	29385.43
568.66	29420.53
568.83	29853.53
568.99	29481.39
569.15	29249.67
569.32	29357.34
569.48	29399.47
569.64	29806.72
569.81	29909.71
569.97	29792.68
570.13	29834.81
570.30	29640.54
570.46	29886.30
570.62	29654.59
570.78	29785.66
570.95	29565.65
571.11	29582.03
571.27	29642.88
571.43	29315.21
571.60	29750.55
571.76	29596.07
571.92	29972.90
572.09	29827.79
572.25	29874.60
572.41	29895.66
572.57	29975.24
572.74	29898.00
572.90	29736.51
573.06	29989.28
573.22	29909.71
573.38	30162.48
573.55	29975.24
573.71	30092.27
573.87	29907.37
574.03	29811.40
574.20	29727.14
574.36	29893.32
574.52	29820.77
574.68	29638.20
574.84	29951.84
575.01	30059.50
575.17	30024.39
575.33	29895.66
575.49	30223.34
575.65	29710.76
575.82	30160.14
575.98	29685.01
576.14	29851.19
576.30	29668.63
576.46	29741.19
576.62	30024.39
576.79	30003.33
576.95	29624.16
577.11	29867.58
577.27	30295.89
577.43	30267.81
577.59	29837.15
577.75	30134.40
577.92	29881.62
578.08	29886.30
578.24	29607.78
578.40	30057.16
578.56	29865.24
578.72	30340.36
578.88	30321.64
579.04	29888.64
579.21	30101.63
579.37	30183.55
579.53	30108.65
579.69	29809.06
579.85	29947.15
580.01	29795.02
580.17	30029.07
580.33	29951.84
580.49	30003.33
580.65	29982.26
580.82	30649.32
580.98	29914.39
581.14	30508.88
581.30	30000.99
581.46	29937.79
581.62	30122.69
581.78	29659.27
581.94	30218.66
582.10	29680.33
582.26	30272.49
582.42	30174.19
582.58	29970.56
582.74	29984.60
582.90	30284.19
583.06	30167.16
583.22	29949.50
583.38	30167.16
583.54	29752.89
583.70	29806.72
583.86	29944.81
584.02	30099.29
584.18	29883.96
584.34	30288.87
584.50	30433.99
584.66	30405.90
584.82	29907.37
584.98	30050.14
585.14	29930.77
585.30	29949.50
585.46	29914.39
585.62	30040.78
585.78	30237.38
585.94	29823.11
586.10	30263.13
586.26	30157.80
586.42	30665.70
586.58	30429.30
586.74	30354.41
586.90	29930.77
587.06	29820.77
587.22	30015.03
587.38	30288.87
587.54	30417.60
587.70	30342.70
587.86	30162.48
588.02	30340.36
588.18	30139.08
588.34	30059.50
588.49	30352.07
588.65	30309.94
588.81	30323.98
588.97	30431.65
589.13	30389.52
589.29	30354.41
589.45	30281.85
589.61	30590.80
589.77	30473.78
589.93	30291.21
590.08	30473.78
590.24	30153.12
590.40	30595.48
590.56	30623.57
590.72	30452.71
590.88	30000.99
591.04	30412.92
591.20	30415.26
591.35	30677.40
591.51	30703.15
591.67	30623.57
591.83	30855.28
591.99	30670.38
