SpectraSuite Data File
++++++++++++++++++++++++++++++++++++
Date: Fri Oct 18 13:58:25 GMT-05:00 2013
User: bianchi
Dark Spectrum Present: No
Reference Spectrum Present: No
Number of Sampled Component Spectra: 1
Spectrometers: USB2+H05261
Integration Time (usec): 50000 (USB2+H05261)
Spectra Averaged: 1 (USB2+H05261)
Boxcar Smoothing: 0 (USB2+H05261)
Correct for Electrical Dark: No (USB2+H05261)
Strobe/Lamp Enabled: No (USB2+H05261)
Correct for Detector Non-linearity: No (USB2+H05261)
Correct for Stray Light: No (USB2+H05261)
Number of Pixels in Processed Spectrum: 2048
>>>>>Begin Processed Spectral Data<<<<<
365.73	0.00
365.92	0.00
366.12	0.00
366.32	0.00
366.52	0.00
366.72	0.00
366.91	0.00
367.11	0.00
367.31	0.00
367.51	0.00
367.70	0.00
367.90	0.00
368.10	0.00
368.30	0.00
368.49	0.00
368.69	0.00
368.89	0.00
369.09	0.00
369.28	0.00
369.48	0.00
369.68	0.00
369.87	0.00
370.07	0.00
370.27	0.00
370.47	0.00
370.66	53.83
370.86	77.24
371.06	163.84
371.25	112.35
371.45	135.75
371.65	168.52
371.84	149.79
372.04	131.07
372.24	159.16
372.44	135.75
372.63	189.58
372.83	166.18
373.03	180.22
373.22	264.48
373.42	273.84
373.62	187.24
373.81	196.60
374.01	208.31
374.21	283.20
374.40	304.27
374.60	170.86
374.79	285.55
374.99	229.37
375.19	173.20
375.38	229.37
375.58	234.05
375.78	252.78
375.97	229.37
376.17	266.82
376.37	308.95
376.56	271.50
376.76	229.37
376.95	285.55
377.15	180.22
377.35	208.31
377.54	301.93
377.74	255.12
377.93	229.37
378.13	269.16
378.33	304.27
378.52	205.97
378.72	285.55
378.91	315.97
379.11	301.93
379.31	325.33
379.50	238.73
379.70	220.01
379.89	304.27
380.09	308.95
380.28	259.80
380.48	273.84
380.68	269.16
380.87	264.48
381.07	334.70
381.26	285.55
381.46	341.72
381.65	212.99
381.85	259.80
382.04	287.89
382.24	351.08
382.43	255.12
382.63	318.31
382.83	400.23
383.02	379.17
383.22	369.80
383.41	285.55
383.61	325.33
383.80	360.44
384.00	285.55
384.19	430.66
384.39	407.25
384.58	374.49
384.78	365.12
384.97	381.51
385.17	369.80
385.36	423.64
385.56	351.08
385.75	348.74
385.95	390.87
386.14	390.87
386.34	402.57
386.53	348.74
386.72	402.57
386.92	416.62
387.11	367.46
387.31	397.89
387.50	390.87
387.70	409.59
387.89	458.74
388.09	440.02
388.28	442.36
388.48	425.98
388.67	472.79
388.86	491.51
389.06	421.30
389.25	461.09
389.45	454.06
389.64	454.06
389.84	517.26
390.03	393.21
390.22	435.34
390.42	503.22
390.61	383.85
390.81	458.74
391.00	524.28
391.19	496.19
391.39	566.41
391.58	482.15
391.78	489.17
391.97	461.09
392.16	496.19
392.36	559.39
392.55	582.79
392.75	645.99
392.94	535.98
393.13	484.49
393.33	528.96
393.52	573.43
393.71	599.18
393.91	578.11
394.10	622.58
394.29	573.43
394.49	521.94
394.68	648.33
394.88	617.90
395.07	624.92
395.26	615.56
395.46	620.24
395.65	664.71
395.84	610.88
396.04	592.16
396.23	695.14
396.42	622.58
396.62	709.18
396.81	791.10
397.00	664.71
397.19	770.04
397.39	746.63
397.58	674.07
397.77	702.16
397.97	702.16
398.16	594.50
398.35	718.54
398.55	688.12
398.74	753.65
398.93	718.54
399.12	725.57
399.32	657.69
399.51	676.41
399.70	711.52
399.90	676.41
400.09	802.80
400.28	765.36
400.47	788.76
400.67	786.42
400.86	758.33
401.05	704.50
401.24	814.51
401.44	887.06
401.63	835.57
401.82	849.61
402.01	863.66
402.21	828.55
402.40	835.57
402.59	805.14
402.78	887.06
402.97	807.48
403.17	861.32
403.36	842.59
403.55	826.21
403.74	971.32
403.93	959.62
404.13	889.40
404.32	856.64
404.51	840.25
404.70	957.28
404.89	945.58
405.09	887.06
405.28	915.15
405.47	952.60
405.66	926.85
405.85	947.92
406.05	943.24
406.24	1060.26
406.43	1032.18
406.62	1036.86
406.81	954.94
407.00	1001.75
407.20	1006.43
407.39	976.00
407.58	1076.65
407.77	1086.01
407.96	1060.26
408.15	1076.65
408.34	1088.35
408.54	973.66
408.73	1132.82
408.92	1027.50
409.11	1107.07
409.30	1139.84
409.49	1156.22
409.68	1083.67
409.87	1116.44
410.07	1139.84
410.26	1137.50
410.45	1196.01
410.64	1188.99
410.83	1217.08
411.02	1191.33
411.21	1224.10
411.40	1256.87
411.59	1301.34
411.78	1291.98
411.98	1219.42
412.17	1275.59
412.36	1322.40
412.55	1334.11
412.74	1380.92
412.93	1331.76
413.12	1282.61
413.31	1341.13
413.50	1313.04
413.69	1362.19
413.88	1479.22
414.07	1446.45
414.26	1472.20
414.45	1376.24
414.64	1413.68
414.83	1542.41
415.02	1509.65
415.22	1423.05
415.41	1469.86
415.60	1575.18
415.79	1528.37
415.98	1626.67
416.17	1540.07
416.36	1685.19
416.55	1636.03
416.74	1584.54
416.93	1629.01
417.12	1727.32
417.31	1659.44
417.50	1687.53
417.69	1673.48
417.88	1734.34
418.07	1652.42
418.26	1785.83
418.45	1762.42
418.64	1748.38
418.83	1710.93
419.02	1811.57
419.21	1727.32
419.39	1813.92
419.58	1743.70
419.77	1776.47
419.96	1842.00
420.15	1937.96
420.34	1781.15
420.53	1820.94
420.72	1795.19
420.91	1834.98
421.10	1907.54
421.29	2010.52
421.48	1867.75
421.67	1982.43
421.86	1909.88
422.05	2029.24
422.24	1975.41
422.43	1961.37
422.61	2090.10
422.80	1956.69
422.99	2066.69
423.18	1902.86
423.37	1844.34
423.56	2005.84
423.75	1959.03
423.94	1888.81
424.13	1966.05
424.32	1900.52
424.50	1935.62
424.69	2043.29
424.88	2090.10
425.07	1968.39
425.26	1973.07
425.45	1998.82
425.64	2064.35
425.83	1916.90
426.01	2038.61
426.20	2087.76
426.39	1963.71
426.58	2024.56
426.77	2057.33
426.96	2174.36
427.15	2052.65
427.33	2104.14
427.52	2010.52
427.71	2064.35
427.90	2076.06
428.09	2083.08
428.28	2087.76
428.46	2223.51
428.65	2181.38
428.84	2267.98
429.03	2202.44
429.22	2174.36
429.40	2298.41
429.59	2298.41
429.78	2057.33
429.97	2223.51
430.16	2228.19
430.34	2169.68
430.53	2342.88
430.72	2305.43
430.91	2331.17
431.10	2333.51
431.28	2349.90
431.47	2396.71
431.66	2457.56
431.85	2326.49
432.03	2438.84
432.22	2506.71
432.41	2342.88
432.60	2361.60
432.79	2534.80
432.97	2466.92
433.16	2438.84
433.35	2450.54
433.54	2574.59
433.72	2534.80
433.91	2452.88
434.10	2485.65
434.28	2452.88
434.47	2389.69
434.66	2581.61
434.85	2593.31
435.03	2597.99
435.22	2541.82
435.41	2663.53
435.59	2649.49
435.78	2518.42
435.97	2656.51
436.16	2633.10
436.34	2663.53
436.53	2745.45
436.72	2696.30
436.90	2670.55
437.09	2677.57
437.28	2710.34
437.46	2705.66
437.65	2619.06
437.84	2782.90
438.02	2810.98
438.21	2663.53
438.40	2633.10
438.58	2846.09
438.77	2911.63
438.96	2782.90
439.14	2808.64
439.33	2916.31
439.52	2841.41
439.70	2939.71
439.89	2939.71
440.08	3009.93
440.26	2916.31
440.45	2998.23
440.63	3014.61
440.82	3124.62
441.01	2998.23
441.19	3084.83
441.38	3164.40
441.57	3234.62
441.75	3178.45
441.94	3283.77
442.12	3152.70
442.31	3363.35
442.50	3229.94
442.68	3272.07
442.87	3218.24
443.05	3353.99
443.24	3335.26
443.43	3297.81
443.61	3365.69
443.80	3487.40
443.98	3253.34
444.17	3382.07
444.35	3492.08
444.54	3478.04
444.73	3417.18
444.91	3353.99
445.10	3447.61
445.28	3424.20
445.47	3246.32
445.65	3478.04
445.84	3571.66
446.02	3480.38
446.21	3513.14
446.39	3396.12
446.58	3379.73
446.77	3389.10
446.95	3279.09
447.14	3417.18
447.32	3456.97
447.51	3475.70
447.69	3541.23
447.88	3534.21
448.06	3499.10
448.25	3489.74
448.43	3487.40
448.62	3485.06
448.80	3571.66
448.99	3548.25
449.17	3637.19
449.36	3606.77
449.54	3679.32
449.73	3737.84
449.91	3648.90
450.10	3630.17
450.28	3702.73
450.46	3681.66
450.65	3588.04
450.83	3772.94
451.02	3658.26
451.20	3658.26
451.39	3637.19
451.57	3653.58
451.76	3749.54
451.94	3791.67
452.13	3845.50
452.31	3808.05
452.49	3789.33
452.68	3817.41
452.86	3812.73
453.05	3852.52
453.23	3817.41
453.42	3932.10
453.60	3681.66
453.78	3894.65
453.97	3770.60
454.15	3894.65
454.34	3934.44
454.52	3899.33
454.70	3936.78
454.89	3866.56
455.07	4014.02
455.26	3878.27
455.44	4107.64
455.62	4098.28
455.81	4224.67
455.99	4086.58
456.17	3911.04
456.36	4166.15
456.54	4035.08
456.73	4142.75
456.91	4283.18
457.09	4266.80
457.28	4351.06
457.46	4299.56
457.64	4306.59
457.83	4400.21
458.01	4234.03
458.19	4411.91
458.38	4322.97
458.56	4447.02
458.74	4465.74
458.93	4440.00
459.11	4425.95
459.29	4388.50
459.48	4564.04
459.66	4472.76
459.84	4484.47
460.03	4535.96
460.21	4430.63
460.39	4454.04
460.57	4552.34
460.76	4521.92
460.94	4842.57
461.12	4608.51
461.31	4779.37
461.49	4585.11
461.67	4535.96
461.85	4610.86
462.04	4589.79
462.22	4777.03
462.40	4716.18
462.59	4709.16
462.77	4695.11
462.95	4905.76
463.13	4765.33
463.32	4917.47
463.50	4765.33
463.68	4777.03
463.86	4798.10
464.05	4685.75
464.23	4812.14
464.41	4826.18
464.59	4851.93
464.78	5064.92
464.96	4905.76
465.14	4917.47
465.32	4931.51
465.50	4936.19
465.69	4784.06
465.87	4954.91
466.05	4887.04
466.23	4833.21
466.41	5029.81
466.60	5165.56
466.78	4912.78
466.96	5036.83
467.14	4922.15
467.32	5011.09
467.51	5004.07
467.69	5027.47
467.87	4975.98
468.05	4999.38
468.23	5177.26
468.41	5046.20
468.60	5144.50
468.78	5177.26
468.96	5102.37
469.14	5254.50
469.32	5401.96
469.50	5156.20
469.69	5493.24
469.87	5313.02
470.05	5528.35
470.23	5357.49
470.41	5343.44
470.59	5401.96
470.77	5408.98
470.95	5444.09
471.14	5526.00
471.32	5526.00
471.50	5593.88
471.68	5647.71
471.86	5607.92
472.04	5572.82
472.22	5764.74
472.40	5495.58
472.58	5757.72
472.77	5645.37
472.95	5727.29
473.13	5991.77
473.31	5783.46
473.49	5692.18
473.67	5708.57
473.85	5844.32
474.03	5818.57
474.21	6010.50
474.39	5949.64
474.57	6026.88
474.75	6193.06
474.93	6073.69
475.12	6017.52
475.30	6251.57
475.48	6113.48
475.66	6190.72
475.84	6115.82
476.02	6347.53
476.20	6305.40
476.38	6375.62
476.56	6504.35
476.74	6265.61
476.92	6487.96
477.10	6483.28
477.28	6560.52
477.46	6579.25
477.64	6628.40
477.82	6806.28
478.00	6768.83
478.18	6801.60
478.36	6834.36
478.54	7007.56
478.72	7052.03
478.90	7112.89
479.08	6977.14
479.26	7126.93
479.44	7330.56
479.62	7286.09
479.80	7250.98
479.98	7302.47
480.16	7407.80
480.34	7454.61
480.52	7620.78
480.70	7480.35
480.88	7527.16
481.06	7763.56
481.24	7679.30
481.41	7634.83
481.59	7742.49
481.77	7805.69
481.95	8058.46
482.13	8018.68
482.31	7997.61
482.49	8243.37
482.67	7960.16
482.85	8187.19
483.03	8367.42
483.21	8486.78
483.39	8552.32
483.57	8526.57
483.74	8613.17
483.92	8496.14
484.10	8538.27
484.28	8833.18
484.46	9032.13
484.64	9022.77
484.82	8769.99
485.00	9015.74
485.18	9102.34
485.35	9233.41
485.53	9254.48
485.71	9369.16
485.89	9509.60
486.07	9343.42
486.25	9591.52
486.43	9614.92
486.61	9483.85
486.78	9762.37
486.96	9818.55
487.14	9884.08
487.32	10134.52
487.50	10087.71
487.68	10113.45
487.85	10094.73
488.03	10319.42
488.21	10516.03
488.39	10445.81
488.57	10635.39
488.75	10553.48
488.92	10799.23
489.10	10876.47
489.28	10911.58
489.46	10956.05
489.64	11012.22
489.81	11382.03
489.99	11042.65
490.17	11447.56
490.35	11571.61
490.53	11342.24
490.70	11634.80
490.88	11545.86
491.06	11648.85
491.24	11758.85
491.41	11737.79
491.59	11969.50
491.77	11889.92
491.95	12222.28
492.13	11889.92
492.30	12245.68
492.48	12126.32
492.66	12358.03
492.84	12273.77
493.01	12407.18
493.19	12526.55
493.37	12517.18
493.54	12400.16
493.72	13032.10
493.90	12819.11
494.08	12856.56
494.25	12985.29
494.43	12940.82
494.61	13439.36
494.79	13268.50
494.96	13008.70
495.14	13404.25
495.32	13357.44
495.49	13451.06
495.67	13472.12
495.85	13678.09
496.02	13778.73
496.20	13965.98
496.38	13722.56
496.55	13902.78
496.73	13970.66
496.91	14221.10
497.09	13949.59
497.26	14029.17
497.44	14174.28
497.62	14197.69
497.79	14342.80
497.97	14169.60
498.14	14455.15
498.32	14843.68
498.50	14644.73
498.67	14782.82
498.85	14754.74
499.03	14876.44
499.20	14981.77
499.38	14803.89
499.56	15143.27
499.73	15138.58
499.91	15234.55
500.08	15300.08
500.26	15150.29
500.44	15267.31
500.61	15571.58
500.79	15255.61
500.97	15587.97
501.14	15719.04
501.32	15524.77
501.49	15747.12
501.67	15396.04
501.84	16023.31
502.02	15920.32
502.20	15915.64
502.37	16037.35
502.55	16025.65
502.72	15969.48
502.90	16011.60
503.07	16077.14
503.25	16322.90
503.43	16027.99
503.60	16304.17
503.78	16585.04
503.95	16578.01
504.13	16332.26
504.30	16353.32
504.48	16456.31
504.65	16519.50
504.83	16727.81
505.01	16767.60
505.18	16603.76
505.36	17132.72
505.53	16758.24
505.71	16863.56
505.88	16957.18
506.06	16849.52
506.23	17235.70
506.41	17118.68
506.58	17053.14
506.76	17273.15
506.93	17191.23
507.11	17268.47
507.28	17104.64
507.46	17530.61
507.63	17525.93
507.81	17748.28
507.98	17432.31
508.16	17860.63
508.33	17483.80
508.50	17680.41
508.68	17692.11
508.85	18029.15
509.03	17830.20
509.20	17893.40
509.38	18029.15
509.55	18347.46
509.73	18108.72
509.90	18181.28
510.08	18061.91
510.25	18286.61
510.42	18431.72
510.60	18558.11
510.77	18366.18
510.95	18590.88
511.12	18415.34
511.30	18345.12
511.47	18586.19
511.64	18815.57
511.82	18647.05
511.99	18960.68
512.17	18967.70
512.34	18703.22
512.51	18904.51
512.69	18808.54
512.86	19082.39
513.04	19295.38
513.21	19098.77
513.38	19316.44
513.56	19014.51
513.73	19044.94
513.90	19309.42
514.08	19047.28
514.25	19438.15
514.43	19662.84
514.60	19550.49
514.77	19428.79
514.95	19709.65
515.12	19604.33
515.29	19515.39
515.47	19786.89
515.64	19803.27
515.81	19882.85
515.99	20053.71
516.16	20063.07
516.33	20304.15
516.51	20212.87
516.68	20058.39
516.85	20362.66
517.03	20353.30
517.20	20414.15
517.37	20320.53
517.54	20671.61
517.72	20388.41
517.89	20533.52
518.06	20425.86
518.24	20301.81
518.41	20795.66
518.58	20903.32
518.75	20432.88
518.93	20783.96
519.10	20554.58
519.27	20568.63
519.45	20645.87
519.62	20882.26
519.79	20816.72
519.96	20959.50
520.14	21078.86
520.31	20795.66
520.48	21219.30
520.65	21095.25
520.83	21317.60
521.00	21221.64
521.17	21235.68
521.34	21266.11
521.52	21305.90
521.69	21586.76
521.86	21727.19
522.03	21453.35
522.20	21596.12
522.38	21902.73
522.55	21687.40
522.72	21591.44
522.89	21900.39
523.07	21696.77
523.24	22099.34
523.41	21834.86
523.58	21750.60
523.75	21802.09
523.92	21961.25
524.10	21666.34
524.27	21963.59
524.44	22361.48
524.61	22377.86
524.78	22314.67
524.96	22286.58
525.13	22469.14
525.30	22225.73
525.47	22377.86
525.64	22094.66
525.81	22382.54
525.98	22822.56
526.16	22682.13
526.33	22764.05
526.50	22661.07
526.67	22396.59
526.84	22696.17
527.01	22939.59
527.18	22799.16
527.36	22742.99
527.53	22700.86
527.70	23070.66
527.87	23103.43
528.04	22932.57
528.21	22864.69
528.38	22984.06
528.55	22712.56
528.72	23192.37
528.89	23290.67
529.07	22939.59
529.24	23161.94
529.41	23243.86
529.58	23332.80
529.75	23049.60
529.92	23300.03
530.09	23154.92
530.26	23400.68
530.43	23676.86
530.60	23192.37
530.77	23168.96
530.94	23293.01
531.11	23536.43
531.28	23538.77
531.46	23777.50
531.63	23386.63
531.80	23625.37
531.97	24081.77
532.14	23843.04
532.31	23887.51
532.48	23882.83
532.65	24119.22
532.82	23896.87
532.99	23585.58
533.16	23850.06
533.33	24056.03
533.50	24196.46
533.67	24137.94
533.84	24088.79
534.01	24081.77
534.18	24093.47
534.35	24243.27
534.52	24194.12
534.69	24084.11
534.86	24418.81
535.03	24257.31
535.20	24601.37
535.37	24334.55
535.54	24449.24
535.71	24194.12
535.88	24524.13
536.05	24437.53
536.22	24751.17
536.38	24774.57
536.55	24858.83
536.72	24629.46
536.89	24697.33
537.06	24594.35
537.23	24706.70
537.40	24734.78
537.57	24973.52
537.74	24797.98
537.91	25109.27
538.08	25050.75
538.25	25032.03
538.42	25118.63
538.59	24992.24
538.75	24694.99
538.92	24964.15
539.09	25373.75
539.26	25303.53
539.43	25055.43
539.60	25401.83
539.77	25273.10
539.94	25242.68
540.11	25373.75
540.28	25427.58
540.44	25408.86
540.61	25095.22
540.78	25345.66
540.95	25558.65
541.12	25369.07
541.29	25844.20
541.46	25404.17
541.62	25245.02
541.79	25553.97
541.96	25254.38
542.13	25432.26
542.30	25752.91
542.47	25773.98
542.63	25715.47
542.80	25802.07
542.97	25947.18
543.14	26043.14
543.31	26164.85
543.48	25869.94
543.64	26061.87
543.81	25993.99
543.98	26471.46
544.15	26183.57
544.32	26448.05
544.48	26361.45
544.65	26239.75
544.82	26263.15
544.99	25916.75
545.16	26010.37
545.32	26403.58
545.49	26417.63
545.66	26698.49
545.83	27091.70
546.00	26810.84
546.16	26426.99
546.33	26075.91
546.50	26370.82
546.67	26230.38
546.83	26274.85
547.00	26579.12
547.17	26361.45
547.34	26654.02
547.50	26831.90
547.67	27105.74
547.84	26876.37
548.00	26960.63
548.17	27077.66
548.34	26810.84
548.51	26993.40
548.67	27119.79
548.84	27026.17
549.01	26696.15
549.18	27023.83
549.34	26923.18
549.51	26787.43
549.68	27077.66
549.84	26981.70
550.01	27126.81
550.18	27058.93
550.34	27206.39
550.51	27220.43
550.68	27534.06
550.84	26883.39
551.01	27473.21
551.18	27108.08
551.34	27384.27
551.51	27372.57
551.68	27517.68
551.84	27344.48
552.01	27328.10
552.18	27688.54
552.34	27700.24
552.51	27630.02
552.68	27232.13
552.84	27129.15
553.01	27831.31
553.18	27304.69
553.34	27702.58
553.51	27541.08
553.67	27718.96
553.84	27938.97
554.01	27910.89
554.17	28020.89
554.34	27662.79
554.51	27775.14
554.67	27606.62
554.84	28266.65
555.00	27674.49
555.17	27655.77
555.33	27735.35
555.50	27964.72
555.67	27824.29
555.83	27981.10
556.00	27871.10
556.16	28006.85
556.33	27962.38
556.50	27854.72
556.66	27927.27
556.83	27793.86
556.99	28187.07
557.16	28273.67
557.32	28374.31
557.49	28411.76
557.65	28063.02
557.82	27866.42
557.98	27955.36
558.15	28510.07
558.32	28411.76
558.48	28034.94
558.65	28364.95
558.81	28320.48
558.98	28287.71
559.14	28226.86
559.31	28107.49
559.47	28320.48
559.64	28077.07
559.80	28329.84
559.97	28409.42
560.13	28776.89
560.30	28690.29
560.46	28411.76
560.63	28278.35
560.79	28276.01
560.96	28524.11
561.12	28287.71
561.29	28367.29
561.45	28788.59
561.61	28559.22
561.78	28489.00
561.94	28479.64
562.11	28711.35
562.27	28393.04
562.44	28493.68
562.60	28250.27
562.77	28615.39
562.93	28826.04
563.10	28753.48
563.26	28432.83
563.42	29041.37
563.59	28505.38
563.75	28992.22
563.92	28769.86
564.08	28219.84
564.24	28624.75
564.41	28386.02
564.57	28514.75
564.74	28716.03
564.90	28545.17
565.07	28985.19
565.23	28889.23
565.39	28575.60
565.56	29139.67
565.72	29099.88
565.88	28776.89
566.05	28753.48
566.21	29029.66
566.38	28608.37
566.54	28704.33
566.70	28959.45
566.87	28994.56
567.03	28896.25
567.19	29270.74
567.36	28914.98
567.52	28903.28
567.68	29177.12
567.85	28865.83
568.01	28802.63
568.17	28842.42
568.34	29048.39
568.50	29083.50
568.66	28957.11
568.83	29277.76
568.99	28931.36
569.15	29195.84
569.32	29055.41
569.48	28575.60
569.64	29514.16
569.81	29015.62
569.97	29266.06
570.13	28933.70
570.30	28964.13
570.46	29462.66
570.62	29125.63
570.78	29219.25
570.95	28826.04
571.11	28835.40
571.27	28821.36
571.43	29032.00
571.60	28889.23
571.76	28929.02
571.92	29170.10
572.09	29207.55
572.25	29453.30
572.41	29137.33
572.57	29429.90
572.74	29797.36
572.90	29015.62
573.06	29205.20
573.22	29301.17
573.38	29090.52
573.55	29024.98
573.71	29441.60
573.87	29509.47
574.03	29050.73
574.20	29247.33
574.36	29476.71
574.52	29113.92
574.68	29277.76
574.84	29032.00
575.01	29319.89
575.17	29191.16
575.33	29324.57
575.49	29085.84
575.65	29174.78
575.82	29575.01
575.98	29125.63
576.14	29607.78
576.30	29577.35
576.46	29240.31
576.62	29092.86
576.79	29387.77
576.95	29146.69
577.11	29483.73
577.27	29558.63
577.43	29411.17
577.59	29420.53
577.75	29507.13
577.92	29139.67
578.08	29167.76
578.24	29530.54
578.40	29596.07
578.56	29074.13
578.72	29401.81
578.88	29785.66
579.04	29427.56
579.21	29544.58
579.37	29553.94
579.53	29579.69
579.69	28905.62
579.85	29287.12
580.01	29193.50
580.17	29256.70
580.33	29600.76
580.49	29137.33
580.65	29635.86
580.82	29420.53
580.98	29345.64
581.14	29551.60
581.30	29713.10
581.46	28903.28
581.62	29596.07
581.78	29436.92
581.94	29326.91
582.10	29556.28
582.26	29376.06
582.42	29773.95
582.58	29465.00
582.74	29605.44
582.90	29731.83
583.06	29647.57
583.22	29649.91
583.38	29886.30
583.54	29261.38
583.70	29413.51
583.86	29666.29
584.02	29530.54
584.18	29617.14
584.34	29670.97
584.50	29717.78
584.66	29415.85
584.82	29455.64
584.98	29420.53
585.14	29734.17
585.30	29376.06
585.46	28957.11
585.62	29699.06
585.78	29500.11
585.94	29560.97
586.10	29507.13
586.26	29532.88
586.42	29743.53
586.58	29818.42
586.74	29504.79
586.90	29509.47
587.06	29500.11
587.22	29560.97
587.38	29441.60
587.54	30017.37
587.70	29827.79
587.86	29567.99
588.02	29612.46
588.18	29900.34
588.34	29572.67
588.49	29907.37
588.65	29706.08
588.81	29984.60
588.97	29631.18
589.13	30008.01
589.29	29706.08
589.45	29869.92
589.61	29743.53
589.77	30068.86
589.93	30223.34
590.08	30228.02
590.24	29972.90
590.40	29909.71
590.56	30047.80
590.72	29771.61
590.88	29230.95
591.04	29933.11
591.20	30101.63
591.35	29795.02
591.51	30040.78
591.67	30150.78
591.83	30221.00
591.99	30129.72
