SpectraSuite Data File
++++++++++++++++++++++++++++++++++++
Date: Fri Oct 18 13:58:14 GMT-05:00 2013
User: bianchi
Dark Spectrum Present: No
Reference Spectrum Present: No
Number of Sampled Component Spectra: 1
Spectrometers: USB2+H05261
Integration Time (usec): 50000 (USB2+H05261)
Spectra Averaged: 1 (USB2+H05261)
Boxcar Smoothing: 0 (USB2+H05261)
Correct for Electrical Dark: No (USB2+H05261)
Strobe/Lamp Enabled: No (USB2+H05261)
Correct for Detector Non-linearity: No (USB2+H05261)
Correct for Stray Light: No (USB2+H05261)
Number of Pixels in Processed Spectrum: 2048
>>>>>Begin Processed Spectral Data<<<<<
365.73	0.00
365.92	0.00
366.12	0.00
366.32	0.00
366.52	0.00
366.72	0.00
366.91	0.00
367.11	0.00
367.31	0.00
367.51	0.00
367.70	0.00
367.90	0.00
368.10	0.00
368.30	0.00
368.49	0.00
368.69	0.00
368.89	0.00
369.09	0.00
369.28	0.00
369.48	0.00
369.68	0.00
369.87	0.00
370.07	0.00
370.27	0.00
370.47	0.00
370.66	70.22
370.86	72.56
371.06	142.77
371.25	145.11
371.45	135.75
371.65	170.86
371.84	208.31
372.04	180.22
372.24	212.99
372.44	107.66
372.63	191.92
372.83	238.73
373.03	163.84
373.22	170.86
373.42	201.29
373.62	191.92
373.81	220.01
374.01	245.76
374.21	229.37
374.40	315.97
374.60	264.48
374.79	212.99
374.99	212.99
375.19	203.63
375.38	301.93
375.58	280.86
375.78	264.48
375.97	306.61
376.17	306.61
376.37	278.52
376.56	212.99
376.76	327.68
376.95	238.73
377.15	320.65
377.35	280.86
377.54	299.59
377.74	297.25
377.93	269.16
378.13	276.18
378.33	271.50
378.52	266.82
378.72	243.42
378.91	276.18
379.11	304.27
379.31	280.86
379.50	283.20
379.70	327.68
379.89	285.55
380.09	299.59
380.28	184.90
380.48	299.59
380.68	327.68
380.87	376.83
381.07	365.12
381.26	327.68
381.46	402.57
381.65	344.06
381.85	341.72
382.04	266.82
382.24	304.27
382.43	402.57
382.63	376.83
382.83	341.72
383.02	353.42
383.22	304.27
383.41	308.95
383.61	332.36
383.80	320.65
384.00	390.87
384.19	351.08
384.39	346.40
384.58	365.12
384.78	376.83
384.97	259.80
385.17	400.23
385.36	360.44
385.56	351.08
385.75	395.55
385.95	351.08
386.14	367.46
386.34	358.10
386.53	390.87
386.72	388.53
386.92	407.25
387.11	367.46
387.31	330.02
387.50	337.04
387.70	330.02
387.89	416.62
388.09	397.89
388.28	484.49
388.48	418.96
388.67	425.98
388.86	374.49
389.06	449.38
389.25	461.09
389.45	339.38
389.64	461.09
389.84	519.60
390.03	411.93
390.22	463.43
390.42	458.74
390.61	486.83
390.81	475.13
391.00	505.56
391.19	496.19
391.39	468.11
391.58	505.56
391.78	533.64
391.97	603.86
392.16	463.43
392.36	472.79
392.55	484.49
392.75	564.07
392.94	578.11
393.13	554.71
393.33	519.60
393.52	524.28
393.71	594.50
393.91	585.13
394.10	610.88
394.29	552.37
394.49	456.40
394.68	571.09
394.88	622.58
395.07	580.45
395.26	622.58
395.46	615.56
395.65	608.54
395.84	631.94
396.04	683.44
396.23	580.45
396.42	692.80
396.62	643.65
396.81	674.07
397.00	620.24
397.19	734.93
397.39	664.71
397.58	702.16
397.77	627.26
397.97	711.52
398.16	664.71
398.35	704.50
398.55	645.99
398.74	681.10
398.93	723.23
399.12	718.54
399.32	685.78
399.51	791.10
399.70	685.78
399.90	784.08
400.09	816.85
400.28	732.59
400.47	763.01
400.67	795.78
400.86	753.65
401.05	734.93
401.24	847.27
401.44	800.46
401.63	786.42
401.82	765.36
402.01	863.66
402.21	784.08
402.40	837.91
402.59	842.59
402.78	774.72
402.97	763.01
403.17	912.81
403.36	849.61
403.55	823.87
403.74	889.40
403.93	891.74
404.13	929.19
404.32	887.06
404.51	905.79
404.70	903.45
404.89	943.24
405.09	922.17
405.28	980.68
405.47	947.92
405.66	987.71
405.85	997.07
406.05	940.90
406.24	1018.13
406.43	1067.28
406.62	964.30
406.81	1039.20
407.00	1006.43
407.20	980.68
407.39	997.07
407.58	1043.88
407.77	1114.10
407.96	1116.44
408.15	1128.14
408.34	1076.65
408.54	1093.03
408.73	1015.79
408.92	1081.33
409.11	1170.27
409.30	1067.28
409.49	1102.39
409.68	1118.78
409.87	1156.22
410.07	1198.35
410.26	1114.10
410.45	1191.33
410.64	1217.08
410.83	1210.06
411.02	1188.99
411.21	1242.82
411.40	1221.76
411.59	1289.64
411.78	1289.64
411.98	1235.80
412.17	1301.34
412.36	1214.74
412.55	1306.02
412.74	1198.35
412.93	1289.64
413.12	1317.72
413.31	1437.09
413.50	1350.49
413.69	1380.92
413.88	1420.71
414.07	1448.79
414.26	1453.47
414.45	1432.41
414.64	1359.85
414.83	1509.65
415.02	1509.65
415.22	1465.18
415.41	1540.07
415.60	1605.61
415.79	1607.95
415.98	1533.05
416.17	1626.67
416.36	1577.52
416.55	1629.01
416.74	1680.50
416.93	1633.69
417.12	1682.85
417.31	1682.85
417.50	1607.95
417.69	1774.13
417.88	1849.02
418.07	1675.82
418.26	1778.81
418.45	1816.26
418.64	1856.04
418.83	1781.15
419.02	1757.74
419.21	1818.60
419.39	1706.25
419.58	1797.53
419.77	1830.30
419.96	1825.62
420.15	1820.94
420.34	1816.26
420.53	1795.19
420.72	1956.69
420.91	1844.34
421.10	1867.75
421.29	1963.71
421.48	1961.37
421.67	1970.73
421.86	1947.33
422.05	1949.67
422.24	1987.11
422.43	1870.09
422.61	2012.86
422.80	2012.86
422.99	2005.84
423.18	1968.39
423.37	1959.03
423.56	2017.54
423.75	2017.54
423.94	1926.26
424.13	1872.43
424.32	1905.20
424.50	2017.54
424.69	1928.60
424.88	2113.50
425.07	1949.67
425.26	2092.44
425.45	2033.93
425.64	1891.15
425.83	2015.20
426.01	2047.97
426.20	2026.90
426.39	1989.46
426.58	2029.24
426.77	1994.14
426.96	2059.67
427.15	2118.18
427.33	2148.61
427.52	2106.48
427.71	2186.06
427.90	2101.80
428.09	2078.40
428.28	2146.27
428.46	2127.55
428.65	2179.04
428.84	2249.25
429.03	2284.36
429.22	2101.80
429.40	2188.40
429.59	2246.91
429.78	2017.54
429.97	2071.37
430.16	2232.87
430.34	2289.04
430.53	2293.72
430.72	2270.32
430.91	2417.77
431.10	2251.60
431.28	2310.11
431.47	2363.94
431.66	2499.69
431.85	2270.32
432.03	2279.68
432.22	2455.22
432.41	2413.09
432.60	2368.62
432.79	2335.85
432.97	2396.71
433.16	2422.45
433.35	2289.04
433.54	2530.12
433.72	2530.12
433.91	2530.12
434.10	2532.46
434.28	2459.90
434.47	2581.61
434.66	2469.27
434.85	2502.03
435.03	2504.37
435.22	2541.82
435.41	2717.36
435.59	2661.19
435.78	2665.87
435.97	2628.42
436.16	2609.70
436.34	2597.99
436.53	2656.51
436.72	2759.49
436.90	2609.70
437.09	2705.66
437.28	2757.15
437.46	2715.02
437.65	2651.83
437.84	2820.35
438.02	2789.92
438.21	2731.41
438.40	2696.30
438.58	2928.01
438.77	2829.71
438.96	2935.03
439.14	3045.04
439.33	2937.37
439.52	2841.41
439.70	2869.50
439.89	3082.49
440.08	2991.20
440.26	2949.08
440.45	3045.04
440.63	3141.00
440.82	3183.13
441.01	3089.51
441.19	2979.50
441.38	3169.09
441.57	3204.19
441.75	3232.28
441.94	3239.30
442.12	3183.13
442.31	3386.76
442.50	3346.97
442.68	3393.78
442.87	3239.30
443.05	3227.60
443.24	3403.14
443.43	3293.13
443.61	3363.35
443.80	3471.01
443.98	3487.40
444.17	3234.62
444.35	3386.76
444.54	3480.38
444.73	3463.99
444.91	3440.59
445.10	3447.61
445.28	3473.36
445.47	3506.12
445.65	3337.60
445.84	3475.70
446.02	3508.46
446.21	3421.86
446.39	3293.13
446.58	3597.40
446.77	3431.23
446.95	3419.52
447.14	3501.44
447.32	3417.18
447.51	3562.30
447.69	3463.99
447.88	3494.42
448.06	3447.61
448.25	3468.67
448.43	3562.30
448.62	3468.67
448.80	3447.61
448.99	3588.04
449.17	3627.83
449.36	3421.86
449.54	3751.88
449.73	3838.48
449.91	3620.81
450.10	3730.81
450.28	3662.94
450.46	3665.28
450.65	3719.11
450.83	3634.85
451.02	3726.13
451.20	3751.88
451.39	3714.43
451.57	3693.37
451.76	3726.13
451.94	3941.46
452.13	3927.42
452.31	3672.30
452.49	3747.20
452.68	3810.39
452.86	3747.20
453.05	3798.69
453.23	3852.52
453.42	3906.35
453.60	3971.89
453.78	3957.85
453.97	3871.25
454.15	3962.53
454.34	3845.50
454.52	3911.04
454.70	3925.08
454.89	4114.66
455.07	4138.07
455.26	4046.79
455.44	4128.70
455.62	4107.64
455.81	4051.47
455.99	3925.08
456.17	4222.33
456.36	4135.73
456.54	4156.79
456.73	4208.28
456.91	4292.54
457.09	4421.27
457.28	4376.80
457.46	4189.56
457.64	4308.93
457.83	4273.82
458.01	4285.52
458.19	4472.76
458.38	4280.84
458.56	4376.80
458.74	4411.91
458.93	4264.46
459.11	4524.26
459.29	4498.51
459.48	4423.61
459.66	4510.21
459.84	4660.01
460.03	4711.50
460.21	4638.94
460.39	4545.32
460.57	4454.04
460.76	4620.22
460.94	4652.98
461.12	4606.17
461.31	4545.32
461.49	4734.90
461.67	4526.60
461.85	4697.46
462.04	4664.69
462.22	4861.29
462.40	4753.63
462.59	4634.26
462.77	4676.39
462.95	4791.08
463.13	4779.37
463.32	4688.09
463.50	4830.87
463.68	4809.80
463.86	4723.20
464.05	4805.12
464.23	4814.48
464.41	4990.02
464.59	4741.93
464.78	5015.77
464.96	4983.00
465.14	4800.44
465.32	4926.83
465.50	4922.15
465.69	4884.70
465.87	4968.96
466.05	4990.02
466.23	4781.71
466.41	5090.67
466.60	5125.77
466.78	5064.92
466.96	5025.13
467.14	5097.69
467.32	5160.88
467.51	5011.09
467.69	4980.66
467.87	5139.82
468.05	5315.36
468.23	5085.98
468.41	5067.26
468.60	5097.69
468.78	5310.68
468.96	5015.77
469.14	5336.42
469.32	5366.85
469.50	5097.69
469.69	5273.23
469.87	5418.34
470.05	5516.64
470.23	5331.74
470.41	5296.63
470.59	5427.70
470.77	5366.85
470.95	5467.49
471.14	5565.79
471.32	5432.38
471.50	5579.84
471.68	5633.67
471.86	5582.18
472.04	5682.82
472.22	5736.65
472.40	5542.39
472.58	5612.60
472.77	5701.54
472.95	5778.78
473.13	5893.47
473.31	5914.53
473.49	5664.10
473.67	5771.76
473.85	5851.34
474.03	5991.77
474.21	5846.66
474.39	5870.06
474.57	6024.54
474.75	6146.25
474.93	6080.71
475.12	6207.10
475.30	6047.94
475.48	6090.07
475.66	6232.85
475.84	6267.95
476.02	6347.53
476.20	6452.86
476.38	6438.81
476.56	6511.37
476.74	6490.31
476.92	6548.82
477.10	6413.07
477.28	6637.76
477.46	6518.39
477.64	6516.05
477.82	6729.04
478.00	6972.46
478.18	6899.90
478.36	6946.71
478.54	7033.31
478.72	7213.53
478.90	7035.65
479.08	7098.84
479.26	7325.88
479.44	7328.22
479.62	7302.47
479.80	7433.54
479.98	7281.41
480.16	7541.21
480.34	7552.91
480.52	7555.25
480.70	7749.51
480.88	7543.55
481.06	7721.43
481.24	7698.02
481.41	7782.28
481.59	7911.01
481.77	8037.40
481.95	8037.40
482.13	7992.93
482.31	8037.40
482.49	8257.41
482.67	8166.13
482.85	8500.83
483.03	8446.99
483.21	8573.38
483.39	8592.11
483.57	8517.21
483.74	8620.19
483.92	8582.74
484.10	8741.90
484.28	8779.35
484.46	8882.33
484.64	9001.70
484.82	8952.55
485.00	9259.16
485.18	9275.54
485.35	9280.22
485.53	9062.55
485.71	9146.81
485.89	9685.14
486.07	9483.85
486.25	9198.31
486.43	9657.05
486.61	9692.16
486.78	9720.24
486.96	9933.23
487.14	10080.69
487.32	10209.42
487.50	10083.03
487.68	10125.16
487.85	10394.32
488.03	10321.76
488.21	10448.15
488.39	10607.31
488.57	10710.29
488.75	10448.15
488.92	10726.68
489.10	10855.40
489.28	10829.66
489.46	11138.61
489.64	10731.36
489.81	11087.12
489.99	11246.27
490.17	11250.96
490.35	11477.99
490.53	11283.72
490.70	11433.52
490.88	11288.40
491.06	11882.90
491.24	11597.35
491.41	12011.63
491.59	11791.62
491.77	11950.78
491.95	12051.42
492.13	12189.51
492.30	12189.51
492.48	12159.08
492.66	12376.75
492.84	12257.39
493.01	12435.27
493.19	12571.02
493.37	12498.46
493.54	12549.95
493.72	12760.60
493.90	12542.93
494.08	12961.89
494.25	12931.46
494.43	13027.42
494.61	13160.83
494.79	13565.74
494.96	12929.12
495.14	13668.73
495.32	13853.63
495.49	13460.42
495.67	13282.54
495.85	13708.52
496.02	13905.12
496.20	13806.82
496.38	14012.79
496.55	13633.62
496.73	14078.32
496.91	13970.66
497.09	14246.84
497.26	14251.52
497.44	14148.54
497.62	14239.82
497.79	14567.49
497.97	14476.21
498.14	14853.04
498.32	14665.80
498.50	14899.85
498.67	15066.03
498.85	15033.26
499.03	14951.34
499.20	14827.29
499.38	14993.47
499.56	15026.24
499.73	15185.40
499.91	15374.98
500.08	15293.06
500.26	15302.42
500.44	15157.31
500.61	15309.44
500.79	15566.90
500.97	15583.29
501.14	15594.99
501.32	15838.41
501.49	15653.50
501.67	15939.05
501.84	15822.02
502.02	15789.25
502.20	15927.35
502.37	16463.33
502.55	16098.20
502.72	16098.20
502.90	16264.38
503.07	16219.91
503.25	16149.70
503.43	16311.19
503.60	16453.97
503.78	16472.69
503.95	16531.20
504.13	16664.61
504.30	16545.25
504.48	16657.59
504.65	16627.17
504.83	16863.56
505.01	17137.40
505.18	17001.65
505.36	16882.28
505.53	16819.09
505.71	17001.65
505.88	17048.46
506.06	17231.02
506.23	17200.60
506.41	17205.28
506.58	17425.29
506.76	17418.27
506.93	17228.68
507.11	17394.86
507.28	17231.02
507.46	17565.72
507.63	17556.36
507.81	17542.32
507.98	17755.30
508.16	17898.08
508.33	17877.01
508.50	17671.04
508.68	17862.97
508.85	18057.23
509.03	18059.57
509.20	18202.35
509.38	18396.61
509.55	18221.07
509.73	18244.48
509.90	18146.17
510.08	18462.15
510.25	18221.07
510.42	18317.03
510.60	18649.39
510.77	18640.03
510.95	18649.39
511.12	18403.63
511.30	18480.87
511.47	18771.10
511.64	18728.97
511.82	18768.76
511.99	19108.13
512.17	19288.35
512.34	18899.83
512.51	18939.62
512.69	18988.77
512.86	19211.12
513.04	19452.19
513.21	19503.68
513.38	19168.99
513.56	19405.38
513.73	19283.67
513.90	19293.04
514.08	19342.19
514.25	19704.97
514.43	19594.96
514.60	19768.16
514.77	19555.18
514.95	19751.78
515.12	19751.78
515.29	19786.89
515.47	19805.61
515.64	20105.20
515.81	19847.74
515.99	20159.03
516.16	20285.42
516.33	20114.56
516.51	20100.52
516.68	20100.52
516.85	20325.21
517.03	20510.11
517.20	20477.35
517.37	20423.51
517.54	20655.23
517.72	20383.73
517.89	20423.51
518.06	20547.56
518.24	20542.88
518.41	20638.84
518.58	20737.15
518.75	20856.51
518.93	20652.89
519.10	20940.77
519.27	20933.75
519.45	20662.25
519.62	20814.38
519.79	21146.74
519.96	21055.46
520.14	21268.45
520.31	21158.44
520.48	21436.97
520.65	21502.50
520.83	21228.66
521.00	21483.78
521.17	21338.66
521.34	21191.21
521.52	21394.84
521.69	21422.92
521.86	21710.81
522.03	21656.98
522.20	21689.74
522.38	21659.32
522.55	21436.97
522.72	21542.29
522.89	21797.41
523.07	21738.90
523.24	21963.59
523.41	22515.95
523.58	21703.79
523.75	22073.59
523.92	21837.20
524.10	22176.58
524.27	22073.59
524.44	22038.48
524.61	22258.49
524.78	22228.07
524.96	22480.85
525.13	22572.13
525.30	22326.37
525.47	22462.12
525.64	22302.96
525.81	22469.14
525.98	22806.18
526.16	22855.33
526.33	22768.73
526.50	22963.00
526.67	22703.20
526.84	22707.88
527.01	22663.41
527.18	22726.60
527.36	22845.97
527.53	23007.47
527.70	23489.62
527.87	23311.74
528.04	23044.91
528.21	23194.71
528.38	22647.02
528.55	23129.17
528.72	23271.95
528.89	23555.15
529.07	23208.75
529.24	23206.41
529.41	23501.32
529.58	23159.60
529.75	23229.82
529.92	23154.92
530.09	23578.56
530.26	23463.87
530.43	23913.25
530.60	23702.61
530.77	23314.08
530.94	23857.08
531.11	23758.78
531.28	23662.82
531.46	23686.22
531.63	23613.66
531.80	23955.38
531.97	24198.80
532.14	24130.92
532.31	23510.68
532.48	24086.45
532.65	24449.24
532.82	23939.00
532.99	24100.50
533.16	24081.77
533.33	24369.66
533.50	24264.33
533.67	24259.65
533.84	23990.49
534.01	23845.38
534.18	23910.91
534.35	24498.39
534.52	24575.62
534.69	24713.72
534.86	24425.83
535.03	24622.44
535.20	24584.99
535.37	24594.35
535.54	24903.30
535.71	24589.67
535.88	24416.47
536.05	24510.09
536.22	24807.34
536.38	24938.41
536.55	24769.89
536.72	24870.53
536.89	24643.50
537.06	24814.36
537.23	24762.87
537.40	25036.71
537.57	24879.89
537.74	25060.12
537.91	25432.26
538.08	25284.81
538.25	24898.62
538.42	24898.62
538.59	25404.17
538.75	25125.65
538.92	25071.82
539.09	25294.17
539.26	25619.50
539.43	25572.69
539.60	25493.12
539.77	25163.10
539.94	25343.32
540.11	25441.62
540.28	25291.83
540.44	25626.53
540.61	25570.35
540.78	25158.42
540.95	25481.41
541.12	25834.83
541.29	25804.41
541.46	25722.49
541.62	25687.38
541.79	25701.42
541.96	25333.96
542.13	25607.80
542.30	25654.61
542.47	26242.09
542.63	25649.93
542.80	26480.82
542.97	26513.59
543.14	26295.92
543.31	26349.75
543.48	26218.68
543.64	26555.72
543.81	26132.08
543.98	26700.83
544.15	26499.55
544.32	26321.66
544.48	26279.54
544.65	26342.73
544.82	26197.62
544.99	26155.49
545.16	26164.85
545.32	26609.55
545.49	26408.26
545.66	26967.65
545.83	26654.02
546.00	26981.70
546.16	26614.23
546.33	26333.37
546.50	26244.43
546.67	26848.29
546.83	26412.95
547.00	26717.22
547.17	26991.06
547.34	26857.65
547.50	27201.71
547.67	27232.13
547.84	26607.21
548.00	26668.06
548.17	27005.10
548.34	27040.21
548.51	27426.40
548.67	26988.72
548.84	26841.26
549.01	27278.94
549.18	27044.89
549.34	27103.40
549.51	27012.12
549.68	27166.60
549.84	27143.19
550.01	27232.13
550.18	26960.63
550.34	27276.60
550.51	27384.27
550.68	27531.72
550.84	27262.56
551.01	27957.70
551.18	27028.51
551.34	27456.82
551.51	27569.17
551.68	27721.30
551.84	27529.38
552.01	27449.80
552.18	27606.62
552.34	27740.03
552.51	27487.25
552.68	27505.98
552.84	27740.03
553.01	27681.52
553.18	27552.79
553.34	28212.82
553.51	27784.50
553.67	27733.01
553.84	28173.03
554.01	27850.03
554.17	27964.72
554.34	27901.53
554.51	27761.09
554.67	28018.55
554.84	27630.02
555.00	27702.58
555.17	27962.38
555.33	28093.45
555.50	27812.59
555.67	28044.30
555.83	27667.47
556.00	27992.81
556.16	28545.17
556.33	28306.44
556.50	28180.05
556.66	28271.33
556.83	28182.39
556.99	28566.24
557.16	28650.50
557.32	28566.24
557.49	28257.29
557.65	27887.48
557.82	28498.36
557.98	28222.18
558.15	28423.47
558.32	28418.78
558.48	28376.66
558.65	28336.87
558.81	28041.96
558.98	28655.18
559.14	28381.34
559.31	28381.34
559.47	28634.11
559.64	28531.13
559.80	28428.15
559.97	28868.17
560.13	28694.97
560.30	28507.72
560.46	28706.67
560.63	28811.99
560.79	28797.95
560.96	28669.22
561.12	28428.15
561.29	28287.71
561.45	28472.62
561.61	28519.43
561.78	28631.77
561.94	28947.75
562.11	28896.25
562.27	28823.70
562.44	28968.81
562.60	28814.34
562.77	28545.17
562.93	29191.16
563.10	29160.73
563.26	28987.53
563.42	28954.77
563.59	28800.29
563.75	28697.31
563.92	29242.65
564.08	28865.83
564.24	28828.38
564.41	28622.41
564.57	28767.52
564.74	29188.82
564.90	29415.85
565.07	29209.89
565.23	29083.50
565.39	28929.02
565.56	29247.33
565.72	28910.30
565.88	28996.90
566.05	28643.48
566.21	28952.43
566.38	28978.17
566.54	29097.54
566.70	29619.48
566.87	29355.00
567.03	29399.47
567.19	29537.56
567.36	29228.61
567.52	29027.32
567.68	29359.68
567.85	29109.24
568.01	29134.99
568.17	29350.32
568.34	29275.42
568.50	29394.79
568.66	29411.17
568.83	29453.30
568.99	29177.12
569.15	29013.28
569.32	29303.51
569.48	28924.34
569.64	29001.58
569.81	29383.09
569.97	29350.32
570.13	29401.81
570.30	29156.05
570.46	29551.60
570.62	29544.58
570.78	29488.41
570.95	29441.60
571.11	29336.27
571.27	29071.79
571.43	29418.19
571.60	29570.33
571.76	29439.26
571.92	29511.81
572.09	29575.01
572.25	29776.30
572.41	29394.79
572.57	29610.12
572.74	29862.90
572.90	29223.93
573.06	29343.30
573.22	29305.85
573.38	29457.98
573.55	29413.51
573.71	29582.03
573.87	29631.18
574.03	29935.45
574.20	29191.16
574.36	29502.45
574.52	29392.45
574.68	29553.94
574.84	29607.78
575.01	29591.39
575.17	29663.95
575.33	29097.54
575.49	29820.77
575.65	29872.26
575.82	29755.23
575.98	29282.44
576.14	29795.02
576.30	29909.71
576.46	29958.86
576.62	29355.00
576.79	29743.53
576.95	29282.44
577.11	29640.54
577.27	29837.15
577.43	29722.46
577.59	29867.58
577.75	29823.11
577.92	29797.36
578.08	29570.33
578.24	29235.63
578.40	29427.56
578.56	29916.73
578.72	29507.13
578.88	29916.73
579.04	29539.90
579.21	29699.06
579.37	29724.80
579.53	29935.45
579.69	29656.93
579.85	29699.06
580.01	29474.37
580.17	29355.00
580.33	29909.71
580.49	29685.01
580.65	29914.39
580.82	29989.28
580.98	29708.42
581.14	30068.86
581.30	29837.15
581.46	29509.47
581.62	29759.91
581.78	29656.93
581.94	29907.37
582.10	29439.26
582.26	29237.97
582.42	29673.31
582.58	29879.28
582.74	29624.16
582.90	29958.86
583.06	29743.53
583.22	29860.55
583.38	29748.21
583.54	29792.68
583.70	29738.85
583.86	29806.72
584.02	29839.49
584.18	29947.15
584.34	29804.38
584.50	30010.35
584.66	29745.87
584.82	29575.01
584.98	29799.70
585.14	29813.74
585.30	29418.19
585.46	29818.42
585.62	29518.84
585.78	30223.34
585.94	29762.25
586.10	29645.23
586.26	29785.66
586.42	29954.18
586.58	30068.86
586.74	29954.18
586.90	29954.18
587.06	29748.21
587.22	29518.84
587.38	29757.57
587.54	30047.80
587.70	30089.93
587.86	29977.58
588.02	30031.41
588.18	29961.20
588.34	29750.55
588.49	30045.46
588.65	29788.00
588.81	29883.96
588.97	29748.21
589.13	30164.82
589.29	29544.58
589.45	30249.08
589.61	30181.21
589.77	29883.96
589.93	30328.66
590.08	30279.51
590.24	30302.92
590.40	30464.41
590.56	30326.32
590.72	30188.23
590.88	29909.71
591.04	30129.72
591.20	30169.51
591.35	30632.93
591.51	30438.67
591.67	30277.17
591.83	30941.88
591.99	30185.89
