SpectraSuite Data File
++++++++++++++++++++++++++++++++++++
Date: Fri Oct 18 13:58:26 GMT-05:00 2013
User: bianchi
Dark Spectrum Present: No
Reference Spectrum Present: No
Number of Sampled Component Spectra: 1
Spectrometers: USB2+H05261
Integration Time (usec): 50000 (USB2+H05261)
Spectra Averaged: 1 (USB2+H05261)
Boxcar Smoothing: 0 (USB2+H05261)
Correct for Electrical Dark: No (USB2+H05261)
Strobe/Lamp Enabled: No (USB2+H05261)
Correct for Detector Non-linearity: No (USB2+H05261)
Correct for Stray Light: No (USB2+H05261)
Number of Pixels in Processed Spectrum: 2048
>>>>>Begin Processed Spectral Data<<<<<
365.73	0.00
365.92	0.00
366.12	0.00
366.32	0.00
366.52	0.00
366.72	0.00
366.91	0.00
367.11	0.00
367.31	0.00
367.51	0.00
367.70	0.00
367.90	0.00
368.10	0.00
368.30	0.00
368.49	0.00
368.69	0.00
368.89	0.00
369.09	0.00
369.28	0.00
369.48	0.00
369.68	0.00
369.87	0.00
370.07	0.00
370.27	0.00
370.47	0.00
370.66	91.28
370.86	74.90
371.06	128.73
371.25	182.56
371.45	189.58
371.65	67.88
371.84	91.28
372.04	138.09
372.24	184.90
372.44	170.86
372.63	234.05
372.83	187.24
373.03	154.48
373.22	243.42
373.42	140.43
373.62	145.11
373.81	215.33
374.01	358.10
374.21	222.35
374.40	212.99
374.60	231.71
374.79	252.78
374.99	280.86
375.19	283.20
375.38	198.95
375.58	187.24
375.78	227.03
375.97	241.08
376.17	362.78
376.37	269.16
376.56	318.31
376.76	243.42
376.95	255.12
377.15	269.16
377.35	191.92
377.54	273.84
377.74	243.42
377.93	311.29
378.13	416.62
378.33	264.48
378.52	264.48
378.72	255.12
378.91	315.97
379.11	299.59
379.31	245.76
379.50	266.82
379.70	248.10
379.89	365.12
380.09	250.44
380.28	245.76
380.48	280.86
380.68	330.02
380.87	318.31
381.07	365.12
381.26	372.15
381.46	308.95
381.65	325.33
381.85	262.14
382.04	297.25
382.24	308.95
382.43	351.08
382.63	334.70
382.83	351.08
383.02	327.68
383.22	313.63
383.41	374.49
383.61	386.19
383.80	390.87
384.00	379.17
384.19	400.23
384.39	402.57
384.58	313.63
384.78	428.32
384.97	372.15
385.17	383.85
385.36	325.33
385.56	421.30
385.75	367.46
385.95	337.04
386.14	334.70
386.34	362.78
386.53	400.23
386.72	409.59
386.92	379.17
387.11	386.19
387.31	409.59
387.50	458.74
387.70	388.53
387.89	414.27
388.09	449.38
388.28	388.53
388.48	421.30
388.67	472.79
388.86	414.27
389.06	463.43
389.25	454.06
389.45	442.36
389.64	491.51
389.84	425.98
390.03	547.69
390.22	440.02
390.42	414.27
390.61	437.68
390.81	503.22
391.00	557.05
391.19	519.60
391.39	433.00
391.58	500.87
391.78	489.17
391.97	552.37
392.16	472.79
392.36	596.84
392.55	554.71
392.75	615.56
392.94	496.19
393.13	484.49
393.33	491.51
393.52	599.18
393.71	606.20
393.91	671.73
394.10	594.50
394.29	582.79
394.49	566.41
394.68	624.92
394.88	521.94
395.07	645.99
395.26	662.37
395.46	636.63
395.65	631.94
395.84	582.79
396.04	596.84
396.23	622.58
396.42	596.84
396.62	723.23
396.81	739.61
397.00	662.37
397.19	622.58
397.39	690.46
397.58	741.95
397.77	664.71
397.97	676.41
398.16	784.08
398.35	690.46
398.55	645.99
398.74	795.78
398.93	739.61
399.12	716.20
399.32	678.76
399.51	624.92
399.70	777.06
399.90	753.65
400.09	741.95
400.28	732.59
400.47	809.83
400.67	791.10
400.86	856.64
401.05	744.29
401.24	795.78
401.44	798.12
401.63	809.83
401.82	828.55
402.01	739.61
402.21	795.78
402.40	774.72
402.59	917.49
402.78	868.34
402.97	894.08
403.17	938.55
403.36	856.64
403.55	875.36
403.74	873.02
403.93	908.13
404.13	938.55
404.32	866.00
404.51	856.64
404.70	929.19
404.89	849.61
405.09	936.21
405.28	894.08
405.47	971.32
405.66	976.00
405.85	985.37
406.05	987.71
406.24	1050.90
406.43	1050.90
406.62	1043.88
406.81	1053.24
407.00	1020.47
407.20	1006.43
407.39	952.60
407.58	1057.92
407.77	990.05
407.96	1008.77
408.15	1029.84
408.34	1041.54
408.54	1116.44
408.73	1029.84
408.92	1123.46
409.11	1123.46
409.30	1114.10
409.49	1139.84
409.68	1149.20
409.87	1203.04
410.07	1121.12
410.26	1177.29
410.45	1184.31
410.64	1249.85
410.83	1184.31
411.02	1203.04
411.21	1280.27
411.40	1348.15
411.59	1235.80
411.78	1146.86
411.98	1188.99
412.17	1338.79
412.36	1334.11
412.55	1289.64
412.74	1331.76
412.93	1308.36
413.12	1362.19
413.31	1315.38
413.50	1306.02
413.69	1448.79
413.88	1364.53
414.07	1427.73
414.26	1385.60
414.45	1439.43
414.64	1439.43
414.83	1439.43
415.02	1455.81
415.22	1437.09
415.41	1565.82
415.60	1439.43
415.79	1540.07
415.98	1467.52
416.17	1514.33
416.36	1511.99
416.55	1614.97
416.74	1699.23
416.93	1584.54
417.12	1631.35
417.31	1654.76
417.50	1612.63
417.69	1713.27
417.88	1741.36
418.07	1671.14
418.26	1713.27
418.45	1717.95
418.64	1741.36
418.83	1802.21
419.02	1837.32
419.21	1849.02
419.39	1753.06
419.58	1727.32
419.77	1823.28
419.96	1853.70
420.15	1933.28
420.34	1944.99
420.53	1872.43
420.72	1900.52
420.91	1980.09
421.10	1975.41
421.29	1966.05
421.48	1956.69
421.67	2008.18
421.86	2022.22
422.05	1998.82
422.24	1912.22
422.43	1952.01
422.61	1879.45
422.80	2043.29
422.99	1994.14
423.18	2113.50
423.37	1966.05
423.56	1973.07
423.75	1961.37
423.94	1961.37
424.13	1809.23
424.32	1940.30
424.50	2010.52
424.69	2012.86
424.88	2064.35
425.07	2008.18
425.26	1968.39
425.45	1935.62
425.64	1984.77
425.83	2005.84
426.01	2008.18
426.20	2057.33
426.39	2036.27
426.58	1982.43
426.77	2104.14
426.96	2099.46
427.15	2111.16
427.33	2078.40
427.52	2113.50
427.71	2207.13
427.90	1970.73
428.09	2115.84
428.28	2172.02
428.46	2076.06
428.65	2064.35
428.84	2258.62
429.03	2197.76
429.22	2167.34
429.40	2251.60
429.59	2307.77
429.78	2029.24
429.97	2223.51
430.16	2296.07
430.34	2282.02
430.53	2317.13
430.72	2291.38
430.91	2312.45
431.10	2284.36
431.28	2298.41
431.47	2399.05
431.66	2443.52
431.85	2373.30
432.03	2431.82
432.22	2466.92
432.41	2387.35
432.60	2436.50
432.79	2408.41
432.97	2415.43
433.16	2373.30
433.35	2363.94
433.54	2473.95
433.72	2504.37
433.91	2499.69
434.10	2457.56
434.28	2478.63
434.47	2633.10
434.66	2518.42
434.85	2698.64
435.03	2593.31
435.22	2495.01
435.41	2672.89
435.59	2715.02
435.78	2621.40
435.97	2619.06
436.16	2637.78
436.34	2736.09
436.53	2668.21
436.72	2836.73
436.90	2609.70
437.09	2792.26
437.28	2651.83
437.46	2686.94
437.65	2668.21
437.84	2825.03
438.02	2726.72
438.21	2780.56
438.40	2801.62
438.58	2869.50
438.77	2984.18
438.96	2827.37
439.14	3035.67
439.33	2939.71
439.52	2979.50
439.70	2963.12
439.89	3007.59
440.08	3014.61
440.26	3075.46
440.45	3035.67
440.63	3103.55
440.82	2995.89
441.01	3112.91
441.19	3119.93
441.38	3141.00
441.57	3286.11
441.75	3150.36
441.94	3293.13
442.12	3258.03
442.31	3344.63
442.50	3225.26
442.68	3344.63
442.87	3375.05
443.05	3222.92
443.24	3283.77
443.43	3288.45
443.61	3328.24
443.80	3433.57
443.98	3370.37
444.17	3225.26
444.35	3363.35
444.54	3503.78
444.73	3428.88
444.91	3368.03
445.10	3375.05
445.28	3398.46
445.47	3449.95
445.65	3431.23
445.84	3370.37
446.02	3510.80
446.21	3323.56
446.39	3557.61
446.58	3541.23
446.77	3520.17
446.95	3531.87
447.14	3499.10
447.32	3496.76
447.51	3538.89
447.69	3414.84
447.88	3524.85
448.06	3386.76
448.25	3482.72
448.43	3538.89
448.62	3524.85
448.80	3487.40
448.99	3515.48
449.17	3524.85
449.36	3548.25
449.54	3796.35
449.73	3679.32
449.91	3768.26
450.10	3585.70
450.28	3630.17
450.46	3742.52
450.65	3660.60
450.83	3742.52
451.02	3702.73
451.20	3588.04
451.39	3791.67
451.57	3655.92
451.76	3602.08
451.94	3719.11
452.13	3861.88
452.31	3740.18
452.49	3859.54
452.68	3871.25
452.86	3852.52
453.05	3899.33
453.23	4004.66
453.42	3882.95
453.60	3854.86
453.78	3878.27
453.97	3859.54
454.15	3999.98
454.34	3925.08
454.52	4021.04
454.70	3894.65
454.89	3946.14
455.07	4025.72
455.26	4032.74
455.44	4140.41
455.62	3999.98
455.81	4095.94
455.99	4168.49
456.17	4180.20
456.36	4051.47
456.54	4217.65
456.73	4367.44
456.91	4255.09
457.09	4325.31
457.28	4472.76
457.46	4290.20
457.64	4458.72
457.83	4348.72
458.01	4304.25
458.19	4348.72
458.38	4337.01
458.56	4381.48
458.74	4475.10
458.93	4465.74
459.11	4374.46
459.29	4519.57
459.48	4374.46
459.66	4463.40
459.84	4353.40
460.03	4674.05
460.21	4678.73
460.39	4599.15
460.57	4552.34
460.76	4470.42
460.94	4589.79
461.12	4528.94
461.31	4617.88
461.49	4648.30
461.67	4594.47
461.85	4772.35
462.04	4603.83
462.22	4868.31
462.40	4725.54
462.59	4688.09
462.77	4657.67
462.95	4702.14
463.13	4751.29
463.32	4861.29
463.50	4880.02
463.68	4851.93
463.86	4746.61
464.05	4877.68
464.23	4793.42
464.41	4926.83
464.59	4873.00
464.78	4830.87
464.96	4854.27
465.14	4868.31
465.32	5151.52
465.50	5053.22
465.69	4975.98
465.87	4947.89
466.05	5069.60
466.23	5011.09
466.41	5027.47
466.60	5107.05
466.78	5167.90
466.96	4973.64
467.14	5018.11
467.32	5114.07
467.51	5104.71
467.69	5097.69
467.87	5011.09
468.05	5118.75
468.23	5060.24
468.41	5048.54
468.60	5043.85
468.78	5170.24
468.96	5177.26
469.14	5303.65
469.32	5245.14
469.50	5090.67
469.69	5467.49
469.87	5446.43
470.05	5390.25
470.23	5437.06
470.41	5490.90
470.59	5462.81
470.77	5444.09
470.95	5476.85
471.14	5547.07
471.32	5554.09
471.50	5483.88
471.68	5671.12
471.86	5692.18
472.04	5561.11
472.22	5706.23
472.40	5600.90
472.58	5741.33
472.77	5827.93
472.95	5795.17
473.13	5905.17
473.31	5863.04
473.49	5776.44
473.67	5799.85
473.85	5849.00
474.03	6024.54
474.21	6076.03
474.39	5891.13
474.57	6045.60
474.75	6052.63
474.93	6190.72
475.12	6136.88
475.30	6246.89
475.48	6209.44
475.66	6150.93
475.84	6359.24
476.02	6314.77
476.20	6375.62
476.38	6527.75
476.56	6539.46
476.74	6586.27
476.92	6530.09
477.10	6410.73
477.28	6478.60
477.46	6558.18
477.64	6581.59
477.82	6626.06
478.00	6986.50
478.18	6719.68
478.36	6937.35
478.54	7059.06
478.72	7101.19
478.90	7176.08
479.08	6984.16
479.26	7183.10
479.44	7236.94
479.62	7229.91
479.80	7461.63
479.98	7524.82
480.16	7627.81
480.34	7517.80
480.52	7543.55
480.70	7616.10
480.88	7576.31
481.06	7679.30
481.24	7609.08
481.41	7812.71
481.59	7875.90
481.77	7981.23
481.95	8063.15
482.13	7896.97
482.31	8030.38
482.49	8360.39
482.67	8119.32
482.85	8304.22
483.03	8505.51
483.21	8585.08
483.39	8517.21
483.57	8528.91
483.74	8887.01
483.92	8549.98
484.10	8585.08
484.28	8755.94
484.46	8844.88
484.64	9179.58
484.82	9013.40
485.00	8828.50
485.18	9123.41
485.35	9451.08
485.53	9460.45
485.71	9488.53
485.89	9589.17
486.07	9504.92
486.25	9507.26
486.43	9525.98
486.61	9605.56
486.78	9783.44
486.96	9982.38
487.14	9968.34
487.32	10040.90
487.50	9909.83
487.68	10258.57
487.85	10326.44
488.03	10445.81
488.21	10609.65
488.39	10452.83
488.57	10574.54
488.75	10846.04
488.92	10930.30
489.10	10665.82
489.28	10974.77
489.46	11154.99
489.64	11215.85
489.81	11311.81
489.99	11346.92
490.17	11510.75
490.35	11353.94
490.53	11367.98
490.70	11499.05
490.88	11688.64
491.06	11740.13
491.24	11918.01
491.41	11836.09
491.59	11976.52
491.77	11882.90
491.95	12205.89
492.13	12035.03
492.30	12259.73
492.48	12313.56
492.66	12299.52
492.84	12301.86
493.01	12355.69
493.19	12297.17
493.37	12613.15
493.54	12776.98
493.72	12952.52
493.90	12727.83
494.08	12872.95
494.25	13001.68
494.43	13111.68
494.61	13188.92
494.79	13275.52
494.96	13088.28
495.14	13460.42
495.32	13392.55
495.49	13343.39
495.67	13781.07
495.85	13797.46
496.02	13771.71
496.20	13764.69
496.38	13919.17
496.55	14017.47
496.73	14288.97
496.91	14230.46
497.09	14171.94
497.26	14471.53
497.44	14345.14
497.62	14148.54
497.79	14551.11
497.97	14487.92
498.14	14775.80
498.32	14836.66
498.50	14913.89
498.67	14782.82
498.85	14981.77
499.03	15089.43
499.20	14963.04
499.38	15133.90
499.56	15255.61
499.73	15314.13
499.91	15225.18
500.08	15398.38
500.26	15243.91
500.44	15538.82
500.61	15342.21
500.79	15419.45
500.97	15789.25
501.14	15941.39
501.32	15672.23
501.49	15613.71
501.67	15824.36
501.84	15915.64
502.02	15681.59
502.20	15920.32
502.37	16072.46
502.55	16027.99
502.72	16231.62
502.90	16236.30
503.07	16173.10
503.25	16449.28
503.43	16212.89
503.60	16168.42
503.78	16791.00
503.95	16613.12
504.13	16758.24
504.30	16456.31
504.48	16465.67
504.65	16685.68
504.83	16959.52
505.01	16758.24
505.18	16807.39
505.36	17076.55
505.53	16753.55
505.71	17057.82
505.88	17043.78
506.06	16833.13
506.23	16999.31
506.41	17341.03
506.58	17128.04
506.76	17345.71
506.93	17556.36
507.11	17298.90
507.28	17556.36
507.46	17738.92
507.63	17668.70
507.81	17933.18
507.98	17586.79
508.16	18040.85
508.33	17439.33
508.50	17944.89
508.68	17900.42
508.85	17851.27
509.03	17954.25
509.20	18480.87
509.38	18307.67
509.55	18370.86
509.73	18244.48
509.90	18258.52
510.08	18302.99
510.25	18356.82
510.42	18218.73
510.60	18443.42
510.77	18728.97
510.95	18621.30
511.12	18862.38
511.30	18544.06
511.47	18705.56
511.64	19058.98
511.82	18897.49
511.99	18721.95
512.17	19157.28
512.34	18986.43
512.51	19302.40
512.69	19152.60
512.86	19232.18
513.04	19278.99
513.21	19433.47
513.38	19417.08
513.56	19433.47
513.73	19653.48
513.90	19372.61
514.08	19653.48
514.25	19531.77
514.43	19672.20
514.60	19786.89
514.77	19520.07
514.95	19796.25
515.12	19683.91
515.29	19789.23
515.47	19889.87
515.64	19999.88
515.81	19791.57
515.99	20250.32
516.16	20350.96
516.33	20205.84
516.51	20175.42
516.68	20245.63
516.85	20243.29
517.03	20292.44
517.20	20463.30
517.37	20498.41
517.54	20538.20
517.72	20414.15
517.89	20538.20
518.06	20669.27
518.24	20652.89
518.41	20531.18
518.58	20702.04
518.75	20842.47
518.93	20807.36
519.10	20648.21
519.27	21118.65
519.45	21015.67
519.62	21036.74
519.79	20772.25
519.96	21144.40
520.14	21088.23
520.31	20989.92
520.48	21376.11
520.65	21212.28
520.83	21289.51
521.00	21371.43
521.17	21118.65
521.34	21228.66
521.52	21724.85
521.69	21975.29
521.86	21586.76
522.03	21624.21
522.20	21905.07
522.38	21750.60
522.55	21656.98
522.72	21649.96
522.89	21956.57
523.07	21673.36
523.24	21905.07
523.41	22068.91
523.58	22026.78
523.75	21933.16
523.92	22141.47
524.10	22270.20
524.27	22134.45
524.44	22546.38
524.61	22307.65
524.78	22537.02
524.96	22104.02
525.13	22462.12
525.30	22445.74
525.47	22537.02
525.64	22312.33
525.81	22576.81
525.98	22759.37
526.16	22789.80
526.33	22455.10
526.50	22867.03
526.67	22642.34
526.84	22757.03
527.01	22941.93
527.18	22801.50
527.36	22927.89
527.53	22761.71
527.70	23180.67
527.87	22831.93
528.04	23077.68
528.21	23337.48
528.38	23204.07
528.55	23143.22
528.72	22927.89
528.89	23374.93
529.07	23400.68
529.24	23154.92
529.41	23330.46
529.58	23438.12
529.75	23424.08
529.92	23225.14
530.09	23690.90
530.26	23597.28
530.43	23623.03
530.60	23410.04
530.77	23503.66
530.94	23878.15
531.11	23587.92
531.28	23735.37
531.46	24105.18
531.63	23791.55
531.80	23861.76
531.97	24126.24
532.14	24240.93
532.31	23920.28
532.48	24156.67
532.65	24238.59
532.82	23868.78
532.99	23976.45
533.16	24285.40
533.33	24458.60
533.50	24292.42
533.67	24219.86
533.84	23992.83
534.01	24404.77
534.18	24208.16
534.35	24037.30
534.52	24580.31
534.69	24411.79
534.86	24374.34
535.03	24425.83
535.20	24524.13
535.37	24257.31
535.54	24528.81
535.71	24133.26
535.88	24945.43
536.05	24685.63
536.22	24797.98
536.38	24783.93
536.55	25153.74
536.72	24755.85
536.89	25006.28
537.06	24882.24
537.23	24992.24
537.40	24926.71
537.57	25156.08
537.74	24985.22
537.91	25273.10
538.08	25046.07
538.25	25174.80
538.42	25228.63
538.59	25392.47
538.75	24741.80
538.92	25170.12
539.09	25507.16
539.26	25614.82
539.43	25745.89
539.60	25060.12
539.77	25385.45
539.94	25591.42
540.11	25645.25
540.28	25436.94
540.44	25577.37
540.61	25408.86
540.78	25577.37
540.95	25350.34
541.12	25788.02
541.29	25458.01
541.46	25825.47
541.62	25575.03
541.79	25687.38
541.96	25350.34
542.13	25420.56
542.30	25757.60
542.47	25872.28
542.63	26232.72
542.80	25820.79
542.97	26057.18
543.14	26050.16
543.31	26087.61
543.48	26183.57
543.64	26520.61
543.81	26464.44
543.98	26249.11
544.15	26281.88
544.32	26209.32
544.48	26565.08
544.65	26008.03
544.82	26094.63
544.99	26775.73
545.16	26209.32
545.32	26195.28
545.49	26553.38
545.66	27269.58
545.83	26764.03
546.00	27014.46
546.16	26487.84
546.33	26675.09
546.50	26345.07
546.67	26927.86
546.83	26410.60
547.00	26726.58
547.17	27087.02
547.34	26576.78
547.50	26808.50
547.67	27339.80
547.84	26988.72
548.00	27229.79
548.17	27171.28
548.34	26639.98
548.51	27225.11
548.67	27297.67
548.84	27161.92
549.01	27297.67
549.18	27374.91
549.34	27236.81
549.51	27206.39
549.68	27648.75
549.84	27161.92
550.01	27484.91
550.18	27131.49
550.34	27693.22
550.51	27328.10
550.68	27613.64
550.84	27159.58
551.01	27482.57
551.18	26986.38
551.34	27204.05
551.51	27426.40
551.68	27377.25
551.84	27557.47
552.01	27208.73
552.18	27707.26
552.34	27653.43
552.51	27754.07
552.68	27482.57
552.84	27903.87
553.01	27805.56
553.18	27711.94
553.34	27922.59
553.51	27740.03
553.67	27658.11
553.84	27934.29
554.01	28362.61
554.17	27779.82
554.34	27648.75
554.51	28002.17
554.67	27976.42
554.84	28163.67
555.00	27793.86
555.17	27814.93
555.33	27955.36
555.50	27974.08
555.67	28044.30
555.83	27843.01
556.00	28100.47
556.16	28341.55
556.33	28105.15
556.50	28299.42
556.66	28606.03
556.83	27873.44
556.99	28596.67
557.16	28212.82
557.32	28390.70
557.49	28002.17
557.65	28140.26
557.82	28271.33
557.98	28568.58
558.15	28355.59
558.32	28407.08
558.48	28222.18
558.65	28496.02
558.81	28465.60
558.98	28268.99
559.14	28320.48
559.31	28500.70
559.47	28414.10
559.64	28936.04
559.80	28699.65
559.97	28725.39
560.13	28175.37
560.30	28425.81
560.46	28655.18
560.63	28650.50
560.79	28940.72
560.96	29001.58
561.12	28280.69
561.29	28648.16
561.45	28505.38
561.61	28751.14
561.78	29137.33
561.94	28713.69
562.11	28746.46
562.27	28732.42
562.44	28889.23
562.60	28549.85
562.77	28589.64
562.93	28577.94
563.10	29137.33
563.26	28584.96
563.42	29394.79
563.59	28830.72
563.75	29088.18
563.92	28844.76
564.08	29160.73
564.24	28989.88
564.41	28636.45
564.57	28776.89
564.74	28952.43
564.90	28952.43
565.07	28643.48
565.23	29132.65
565.39	29287.12
565.56	28954.77
565.72	28933.70
565.88	28978.17
566.05	29165.42
566.21	29179.46
566.38	28950.09
566.54	29209.89
566.70	29319.89
566.87	29153.71
567.03	29113.92
567.19	29523.52
567.36	29029.66
567.52	29219.25
567.68	29544.58
567.85	29340.96
568.01	29603.10
568.17	29022.64
568.34	29912.05
568.50	29205.20
568.66	29273.08
568.83	29212.23
568.99	29247.33
569.15	29457.98
569.32	29383.09
569.48	29359.68
569.64	29542.24
569.81	29364.36
569.97	29469.69
570.13	29326.91
570.30	29289.46
570.46	29296.49
570.62	29364.36
570.78	29085.84
570.95	29071.79
571.11	29556.28
571.27	28917.32
571.43	29378.40
571.60	29275.42
571.76	29553.94
571.92	29326.91
572.09	29209.89
572.25	29345.64
572.41	29392.45
572.57	29642.88
572.74	29495.43
572.90	29528.20
573.06	29352.66
573.22	29352.66
573.38	29537.56
573.55	29736.51
573.71	29687.36
573.87	29556.28
574.03	29521.18
574.20	29525.86
574.36	29488.41
574.52	29528.20
574.68	29652.25
574.84	29481.39
575.01	29640.54
575.17	29631.18
575.33	29244.99
575.49	29551.60
575.65	29134.99
575.82	29708.42
575.98	29675.65
576.14	29589.05
576.30	29785.66
576.46	29659.27
576.62	29612.46
576.79	29558.63
576.95	29415.85
577.11	29347.98
577.27	29935.45
577.43	29556.28
577.59	29818.42
577.75	29422.87
577.92	29263.72
578.08	29160.73
578.24	29486.07
578.40	29326.91
578.56	29509.47
578.72	29642.88
578.88	29940.13
579.04	29790.34
579.21	29841.83
579.37	29631.18
579.53	29696.72
579.69	29408.83
579.85	29610.12
580.01	29722.46
580.17	29287.12
580.33	29736.51
580.49	29411.17
580.65	29518.84
580.82	29785.66
580.98	29783.32
581.14	29345.64
581.30	29851.19
581.46	29605.44
581.62	29638.20
581.78	29397.13
581.94	29867.58
582.10	29560.97
582.26	29474.37
582.42	29633.52
582.58	29883.96
582.74	29851.19
582.90	29720.12
583.06	29600.76
583.22	29551.60
583.38	29879.28
583.54	29940.13
583.70	29757.57
583.86	29860.55
584.02	29542.24
584.18	30218.66
584.34	29748.21
584.50	30082.91
584.66	29776.30
584.82	29642.88
584.98	29635.86
585.14	29677.99
585.30	29710.76
585.46	29837.15
585.62	29584.37
585.78	29947.15
585.94	29296.49
586.10	30015.03
586.26	29902.68
586.42	29827.79
586.58	29958.86
586.74	29790.34
586.90	29701.40
587.06	29610.12
587.22	29816.08
587.38	29935.45
587.54	30127.38
587.70	30146.10
587.86	30015.03
588.02	29804.38
588.18	30089.93
588.34	30096.95
588.49	29780.98
588.65	30251.42
588.81	29890.98
588.97	30148.44
589.13	29745.87
589.29	29788.00
589.45	29785.66
589.61	30003.33
589.77	30396.54
589.93	30267.81
590.08	30279.51
590.24	30099.29
590.40	30089.93
590.56	29954.18
590.72	29825.45
590.88	29989.28
591.04	29788.00
591.20	30349.73
591.35	30438.67
591.51	30581.44
591.67	30333.34
591.83	30574.42
591.99	30094.61
