SpectraSuite Data File
++++++++++++++++++++++++++++++++++++
Date: Fri Oct 18 13:58:29 GMT-05:00 2013
User: bianchi
Dark Spectrum Present: No
Reference Spectrum Present: No
Number of Sampled Component Spectra: 1
Spectrometers: USB2+H05261
Integration Time (usec): 50000 (USB2+H05261)
Spectra Averaged: 1 (USB2+H05261)
Boxcar Smoothing: 0 (USB2+H05261)
Correct for Electrical Dark: No (USB2+H05261)
Strobe/Lamp Enabled: No (USB2+H05261)
Correct for Detector Non-linearity: No (USB2+H05261)
Correct for Stray Light: No (USB2+H05261)
Number of Pixels in Processed Spectrum: 2048
>>>>>Begin Processed Spectral Data<<<<<
365.73	0.00
365.92	0.00
366.12	0.00
366.32	0.00
366.52	0.00
366.72	0.00
366.91	0.00
367.11	0.00
367.31	0.00
367.51	0.00
367.70	0.00
367.90	0.00
368.10	0.00
368.30	0.00
368.49	0.00
368.69	0.00
368.89	0.00
369.09	0.00
369.28	0.00
369.48	0.00
369.68	0.00
369.87	0.00
370.07	0.00
370.27	0.00
370.47	0.00
370.66	72.56
370.86	46.81
371.06	112.35
371.25	180.22
371.45	81.92
371.65	229.37
371.84	170.86
372.04	184.90
372.24	112.35
372.44	210.65
372.63	88.94
372.83	177.88
373.03	229.37
373.22	196.60
373.42	203.63
373.62	196.60
373.81	283.20
374.01	241.08
374.21	149.79
374.40	243.42
374.60	238.73
374.79	313.63
374.99	330.02
375.19	287.89
375.38	191.92
375.58	210.65
375.78	161.50
375.97	227.03
376.17	255.12
376.37	231.71
376.56	229.37
376.76	182.56
376.95	238.73
377.15	292.57
377.35	203.63
377.54	236.39
377.74	367.46
377.93	264.48
378.13	259.80
378.33	217.67
378.52	224.69
378.72	325.33
378.91	339.38
379.11	222.35
379.31	262.14
379.50	322.99
379.70	294.91
379.89	379.17
380.09	332.36
380.28	332.36
380.48	278.52
380.68	285.55
380.87	203.63
381.07	308.95
381.26	341.72
381.46	372.15
381.65	301.93
381.85	276.18
382.04	243.42
382.24	318.31
382.43	353.42
382.63	390.87
382.83	278.52
383.02	365.12
383.22	353.42
383.41	341.72
383.61	351.08
383.80	444.70
384.00	355.76
384.19	318.31
384.39	301.93
384.58	360.44
384.78	404.91
384.97	425.98
385.17	372.15
385.36	334.70
385.56	332.36
385.75	409.59
385.95	372.15
386.14	325.33
386.34	348.74
386.53	322.99
386.72	409.59
386.92	404.91
387.11	418.96
387.31	484.49
387.50	369.80
387.70	402.57
387.89	414.27
388.09	433.00
388.28	486.83
388.48	404.91
388.67	491.51
388.86	376.83
389.06	491.51
389.25	456.40
389.45	449.38
389.64	510.24
389.84	472.79
390.03	468.11
390.22	444.70
390.42	500.87
390.61	507.90
390.81	444.70
391.00	493.85
391.19	514.92
391.39	449.38
391.58	503.22
391.78	512.58
391.97	535.98
392.16	543.00
392.36	463.43
392.55	575.77
392.75	505.56
392.94	547.69
393.13	528.96
393.33	535.98
393.52	547.69
393.71	585.13
393.91	573.43
394.10	578.11
394.29	650.67
394.49	498.53
394.68	613.22
394.88	547.69
395.07	585.13
395.26	667.05
395.46	643.65
395.65	678.76
395.84	603.86
396.04	718.54
396.23	638.97
396.42	613.22
396.62	634.29
396.81	667.05
397.00	662.37
397.19	636.63
397.39	671.73
397.58	648.33
397.77	613.22
397.97	660.03
398.16	674.07
398.35	676.41
398.55	660.03
398.74	695.14
398.93	737.27
399.12	655.35
399.32	718.54
399.51	695.14
399.70	767.70
399.90	699.82
400.09	734.93
400.28	746.63
400.47	837.91
400.67	800.46
400.86	690.46
401.05	788.76
401.24	851.96
401.44	856.64
401.63	814.51
401.82	737.27
402.01	781.74
402.21	800.46
402.40	816.85
402.59	798.12
402.78	840.25
402.97	919.83
403.17	866.00
403.36	847.27
403.55	840.25
403.74	819.19
403.93	887.06
404.13	901.11
404.32	877.70
404.51	945.58
404.70	870.68
404.89	915.15
405.09	992.39
405.28	884.72
405.47	976.00
405.66	929.19
405.85	1027.50
406.05	971.32
406.24	1001.75
406.43	1046.22
406.62	1039.20
406.81	1020.47
407.00	1046.22
407.20	1086.01
407.39	990.05
407.58	1001.75
407.77	1116.44
407.96	1067.28
408.15	1107.07
408.34	1125.80
408.54	1041.54
408.73	1062.60
408.92	1109.41
409.11	1067.28
409.30	1142.18
409.49	1107.07
409.68	1203.04
409.87	1200.69
410.07	1221.76
410.26	1198.35
410.45	1205.38
410.64	1198.35
410.83	1188.99
411.02	1153.88
411.21	1203.04
411.40	1266.23
411.59	1179.63
411.78	1191.33
411.98	1341.13
412.17	1394.96
412.36	1362.19
412.55	1275.59
412.74	1268.57
412.93	1355.17
413.12	1242.82
413.31	1472.20
413.50	1397.30
413.69	1341.13
413.88	1476.88
414.07	1453.47
414.26	1397.30
414.45	1540.07
414.64	1455.81
414.83	1540.07
415.02	1455.81
415.22	1530.71
415.41	1607.95
415.60	1497.94
415.79	1540.07
415.98	1551.78
416.17	1636.03
416.36	1659.44
416.55	1696.89
416.74	1673.48
416.93	1713.27
417.12	1650.08
417.31	1668.80
417.50	1783.49
417.69	1729.66
417.88	1750.72
418.07	1710.93
418.26	1696.89
418.45	1739.02
418.64	1816.26
418.83	1774.13
419.02	1736.68
419.21	1846.68
419.39	1785.83
419.58	1900.52
419.77	1813.92
419.96	1823.28
420.15	1952.01
420.34	1827.96
420.53	1907.54
420.72	1870.09
420.91	1921.58
421.10	1891.15
421.29	1952.01
421.48	1886.47
421.67	1907.54
421.86	1872.43
422.05	2003.50
422.24	1914.56
422.43	1926.26
422.61	1996.48
422.80	2043.29
422.99	2003.50
423.18	2019.88
423.37	2022.22
423.56	2047.97
423.75	2064.35
423.94	1968.39
424.13	1914.56
424.32	1888.81
424.50	1998.82
424.69	2092.44
424.88	2153.29
425.07	2043.29
425.26	1942.64
425.45	2099.46
425.64	2132.23
425.83	2047.97
426.01	2162.66
426.20	2085.42
426.39	2127.55
426.58	1998.82
426.77	2069.03
426.96	2211.81
427.15	2134.57
427.33	2125.21
427.52	2003.50
427.71	2223.51
427.90	2200.10
428.09	2122.87
428.28	2111.16
428.46	2129.89
428.65	2267.98
428.84	2279.68
429.03	2197.76
429.22	2125.21
429.40	2282.02
429.59	2284.36
429.78	2225.85
429.97	2186.06
430.16	2169.68
430.34	2275.00
430.53	2310.11
430.72	2331.17
430.91	2291.38
431.10	2279.68
431.28	2373.30
431.47	2375.64
431.66	2345.22
431.85	2314.79
432.03	2394.37
432.22	2478.63
432.41	2530.12
432.60	2429.48
432.79	2424.80
432.97	2413.09
433.16	2431.82
433.35	2394.37
433.54	2471.61
433.72	2457.56
433.91	2490.33
434.10	2502.03
434.28	2525.44
434.47	2518.42
434.66	2700.98
434.85	2747.79
435.03	2448.20
435.22	2553.52
435.41	2640.12
435.59	2590.97
435.78	2605.02
435.97	2476.29
436.16	2743.11
436.34	2597.99
436.53	2562.89
436.72	2658.85
436.90	2626.08
437.09	2801.62
437.28	2579.27
437.46	2726.72
437.65	2757.15
437.84	2913.97
438.02	2672.89
438.21	2759.49
438.40	2738.43
438.58	2890.56
438.77	2820.35
438.96	2787.58
439.14	2836.73
439.33	2958.44
439.52	2892.90
439.70	2923.33
439.89	2925.67
440.08	3094.19
440.26	3049.72
440.45	3145.68
440.63	3126.96
440.82	3096.53
441.01	3122.27
441.19	2958.44
441.38	3255.69
441.57	3126.96
441.75	3213.56
441.94	3321.22
442.12	3215.90
442.31	3180.79
442.50	3314.20
442.68	3276.75
442.87	3384.41
443.05	3323.56
443.24	3389.10
443.43	3309.52
443.61	3428.88
443.80	3515.48
443.98	3398.46
444.17	3190.15
444.35	3384.41
444.54	3344.63
444.73	3613.79
444.91	3391.44
445.10	3323.56
445.28	3424.20
445.47	3361.01
445.65	3405.48
445.84	3426.54
446.02	3625.49
446.21	3433.57
446.39	3471.01
446.58	3417.18
446.77	3463.99
446.95	3293.13
447.14	3421.86
447.32	3606.77
447.51	3618.47
447.69	3440.59
447.88	3501.44
448.06	3550.59
448.25	3487.40
448.43	3463.99
448.62	3454.63
448.80	3611.45
448.99	3508.46
449.17	3754.22
449.36	3538.89
449.54	3557.61
449.73	3817.41
449.91	3693.37
450.10	3723.79
450.28	3765.92
450.46	3733.15
450.65	3786.99
450.83	3709.75
451.02	3674.64
451.20	3859.54
451.39	3859.54
451.57	3660.60
451.76	3684.00
451.94	3875.93
452.13	3941.46
452.31	3812.73
452.49	3796.35
452.68	3812.73
452.86	3812.73
453.05	3896.99
453.23	3859.54
453.42	3932.10
453.60	3801.03
453.78	3822.09
453.97	3859.54
454.15	4100.62
454.34	3885.29
454.52	3971.89
454.70	3988.27
454.89	4016.36
455.07	3960.19
455.26	4009.34
455.44	4095.94
455.62	3925.08
455.81	3997.64
455.99	4173.18
456.17	4105.30
456.36	4121.68
456.54	4166.15
456.73	4196.58
456.91	4170.83
457.09	4358.08
457.28	4362.76
457.46	4325.31
457.64	4297.22
457.83	4276.16
458.01	4227.01
458.19	4337.01
458.38	4182.54
458.56	4367.44
458.74	4484.47
458.93	4362.76
459.11	4320.63
459.29	4451.70
459.48	4641.28
459.66	4393.19
459.84	4667.03
460.03	4620.22
460.21	4552.34
460.39	4589.79
460.57	4491.49
460.76	4662.35
460.94	4594.47
461.12	4652.98
461.31	4571.07
461.49	4580.43
461.67	4519.57
461.85	4851.93
462.04	4725.54
462.22	4692.77
462.40	4753.63
462.59	4699.80
462.77	4800.44
462.95	4688.09
463.13	4737.24
463.32	4856.61
463.50	4926.83
463.68	4931.51
463.86	4727.88
464.05	4767.67
464.23	4880.02
464.41	5025.13
464.59	4812.14
464.78	4954.91
464.96	4844.91
465.14	4702.14
465.32	4917.47
465.50	5102.37
465.69	5018.11
465.87	4842.57
466.05	5034.49
466.23	5008.75
466.41	5006.41
466.60	5275.57
466.78	5039.17
466.96	5055.56
467.14	5107.05
467.32	5069.60
467.51	5177.26
467.69	4950.23
467.87	4990.02
468.05	5252.16
468.23	5088.32
468.41	5217.05
468.60	5235.78
468.78	5315.36
468.96	5142.16
469.14	5305.99
469.32	5184.29
469.50	5193.65
469.69	5462.81
469.87	5331.74
470.05	5516.64
470.23	5210.03
470.41	5378.55
470.59	5460.47
470.77	5308.34
470.95	5561.11
471.14	5523.66
471.32	5453.45
471.50	5565.79
471.68	5612.60
471.86	5591.54
472.04	5516.64
472.22	5743.67
472.40	5643.03
472.58	5530.69
472.77	5762.40
472.95	5778.78
473.13	5923.90
473.31	5806.87
473.49	5963.68
473.67	5891.13
473.85	5898.15
474.03	5905.17
474.21	6017.52
474.39	6010.50
474.57	5947.30
474.75	6258.59
474.93	6118.16
475.12	6157.95
475.30	6083.05
475.48	6022.20
475.66	6312.42
475.84	6274.98
476.02	6434.13
476.20	6445.84
476.38	6462.22
476.56	6581.59
476.74	6546.48
476.92	6532.44
477.10	6565.20
477.28	6679.89
477.46	6609.67
477.64	6773.51
477.82	6722.02
478.00	6986.50
478.18	6925.65
478.36	7012.24
478.54	7119.91
478.72	6932.67
478.90	7045.01
479.08	7222.89
479.26	7206.51
479.44	7194.81
479.62	7269.70
479.80	7368.01
479.98	7501.42
480.16	7531.84
480.34	7719.09
480.52	7625.47
480.70	7550.57
480.88	7414.82
481.06	7749.51
481.24	7625.47
481.41	7786.96
481.59	7971.86
481.77	8049.10
481.95	7953.14
482.13	7955.48
482.31	7927.39
482.49	8341.67
482.67	8159.11
482.85	8329.97
483.03	8587.43
483.21	8545.30
483.39	8627.21
483.57	8524.23
483.74	8697.43
483.92	8517.21
484.10	8617.85
484.28	8727.86
484.46	8994.68
484.64	8947.87
484.82	9125.75
485.00	9032.13
485.18	9373.85
485.35	9657.05
485.53	9523.64
485.71	9380.87
485.89	9633.64
486.07	9357.46
486.25	9635.99
486.43	9710.88
486.61	9603.22
486.78	9884.08
486.96	9839.61
487.14	9998.77
487.32	10127.50
487.50	10092.39
487.68	10146.22
487.85	10174.31
488.03	10527.73
488.21	10492.62
488.39	10513.69
488.57	10553.48
488.75	10569.86
488.92	10846.04
489.10	10827.32
489.28	10911.58
489.46	11197.12
489.64	11089.46
489.81	11190.10
489.99	11227.55
490.17	11122.23
490.35	11349.26
490.53	11487.35
490.70	11578.63
490.88	11438.20
491.06	11817.36
491.24	11620.76
491.41	11779.92
491.59	11967.16
491.77	11955.46
491.95	12135.68
492.13	12208.23
492.30	12421.22
492.48	12126.32
492.66	12102.91
492.84	12241.00
493.01	12453.99
493.19	12592.08
493.37	12718.47
493.54	12826.14
493.72	12856.56
493.90	12964.23
494.08	12950.18
494.25	13041.46
494.43	12910.40
494.61	13352.76
494.79	13401.91
494.96	13341.05
495.14	13460.42
495.32	13659.37
495.49	13345.73
495.67	13488.51
495.85	13591.49
496.02	13951.93
496.20	13628.94
496.38	13860.65
496.55	13848.95
496.73	14120.45
496.91	14113.43
497.09	14125.13
497.26	14356.85
497.44	14366.21
497.62	14190.67
497.79	14710.27
497.97	14581.54
498.14	14668.14
498.32	14810.91
498.50	14658.78
498.67	14972.41
498.85	14738.35
499.03	14963.04
499.20	14876.44
499.38	15187.74
499.56	15300.08
499.73	15204.12
499.91	15213.48
500.08	15241.57
500.26	15131.56
500.44	15573.92
500.61	15438.17
500.79	15534.14
500.97	15466.26
501.14	16107.57
501.32	15728.40
501.49	15742.44
501.67	15627.76
501.84	15892.24
502.02	15719.04
502.20	15833.72
502.37	16219.91
502.55	16027.99
502.72	16105.23
502.90	16203.53
503.07	15901.60
503.25	16329.92
503.43	16573.33
503.60	16596.74
503.78	16308.85
503.95	16533.54
504.13	16620.14
504.30	16517.16
504.48	16343.96
504.65	16664.61
504.83	16879.94
505.01	16959.52
505.18	16945.48
505.36	17263.79
505.53	17027.40
505.71	17146.76
505.88	17291.88
506.06	16716.11
506.23	17596.15
506.41	17128.04
506.58	17493.16
506.76	17621.89
506.93	17317.62
507.11	17214.64
507.28	17425.29
507.46	17341.03
507.63	17844.24
507.81	17902.76
507.98	17717.86
508.16	17652.32
508.33	17699.13
508.50	17825.52
508.68	17944.89
508.85	18164.90
509.03	18120.43
509.20	18019.78
509.38	18050.21
509.55	18434.06
509.73	18258.52
509.90	18417.68
510.08	18001.06
510.25	17907.44
510.42	18649.39
510.60	18796.84
510.77	18857.70
510.95	18845.99
511.12	18434.06
511.30	18384.91
511.47	18661.09
511.64	18803.86
511.82	18906.85
511.99	18944.30
512.17	19147.92
512.34	18927.91
512.51	18829.61
512.69	19318.78
512.86	19300.06
513.04	19185.37
513.21	19426.45
513.38	19311.76
513.56	19524.75
513.73	19360.91
513.90	19414.74
514.08	19580.92
514.25	19508.37
514.43	19506.02
514.60	19962.43
514.77	19770.51
514.95	19779.87
515.12	19964.77
515.29	19969.45
515.47	19646.46
515.64	19894.55
515.81	19700.29
515.99	19943.70
516.16	20051.37
516.33	20067.75
516.51	20308.83
516.68	20072.43
516.85	20304.15
517.03	20498.41
517.20	20208.19
517.37	20350.96
517.54	20449.26
517.72	20346.28
517.89	20372.02
518.06	20556.93
518.24	20601.40
518.41	20407.13
518.58	20800.34
518.75	20851.83
518.93	20926.73
519.10	20856.51
519.27	20858.85
519.45	20807.36
519.62	20982.90
519.79	21106.95
519.96	20652.89
520.14	21289.51
520.31	21010.99
520.48	21139.72
520.65	20971.20
520.83	21420.58
521.00	21198.23
521.17	21479.10
521.34	21085.89
521.52	21532.93
521.69	21352.71
521.86	21867.63
522.03	21839.54
522.20	21596.12
522.38	21975.29
522.55	21727.19
522.72	21605.49
522.89	21539.95
523.07	21830.18
523.24	21982.31
523.41	22052.53
523.58	22040.82
523.75	22073.59
523.92	21968.27
524.10	22249.13
524.27	21996.35
524.44	22267.86
524.61	22602.55
524.78	22307.65
524.96	22279.56
525.13	22478.50
525.30	22389.56
525.47	22534.68
525.64	22501.91
525.81	22333.39
525.98	22754.69
526.16	22672.77
526.33	22895.12
526.50	22766.39
526.67	22597.87
526.84	22511.27
527.01	22808.52
527.18	22546.38
527.36	23089.38
527.53	22740.64
527.70	23480.25
527.87	23150.24
528.04	22829.59
528.21	22977.04
528.38	22939.59
528.55	23323.44
528.72	23143.22
528.89	23211.09
529.07	23506.00
529.24	23232.16
529.41	23599.62
529.58	23353.87
529.75	23466.21
529.92	23718.99
530.09	23356.21
530.26	23534.09
530.43	23498.98
530.60	23669.84
530.77	23482.59
530.94	23651.11
531.11	23569.19
531.28	23672.18
531.46	23861.76
531.63	24077.09
531.80	23960.06
531.97	24051.34
532.14	23995.17
532.31	23747.08
532.48	23735.37
532.65	24173.05
532.82	23922.62
532.99	24311.14
533.16	23758.78
533.33	24311.14
533.50	24123.90
533.67	24116.88
533.84	24086.45
534.01	23964.75
534.18	24292.42
534.35	24444.56
534.52	24570.94
534.69	24128.58
534.86	24339.23
535.03	24411.79
535.20	24301.78
535.37	24741.80
535.54	24666.91
535.71	24772.23
535.88	24809.68
536.05	24552.22
536.22	24938.41
536.38	25067.14
536.55	24802.66
536.72	24896.28
536.89	24683.29
537.06	24758.19
537.23	24999.26
537.40	25139.69
537.57	25167.78
537.74	25081.18
537.91	25371.41
538.08	24889.26
538.25	24938.41
538.42	25010.96
538.59	24950.11
538.75	24884.58
538.92	25025.01
539.09	25458.01
539.26	25500.14
539.43	25235.66
539.60	25338.64
539.77	25333.96
539.94	25490.77
540.11	25663.97
540.28	25450.99
540.44	25458.01
540.61	25446.30
540.78	25366.73
540.95	25287.15
541.12	25572.69
541.29	25593.76
541.46	25872.28
541.62	25722.49
541.79	25741.21
541.96	25584.40
542.13	25614.82
542.30	25497.80
542.47	25893.35
542.63	26040.80
542.80	26316.98
542.97	26132.08
543.14	26132.08
543.31	25837.17
543.48	26319.32
543.64	26431.67
543.81	26639.98
543.98	26654.02
544.15	26202.30
544.32	26424.65
544.48	26569.76
544.65	26441.03
544.82	26464.44
544.99	25937.82
545.16	26485.50
545.32	26150.81
545.49	26565.08
545.66	27175.96
545.83	26958.29
546.00	26906.80
546.16	26604.87
546.33	26396.56
546.50	26143.78
546.67	26831.90
546.83	26672.74
547.00	26717.22
547.17	26728.92
547.34	26850.63
547.50	27040.21
547.67	26984.04
547.84	26923.18
548.00	27307.03
548.17	27012.12
548.34	27269.58
548.51	27239.15
548.67	27440.44
548.84	27204.05
549.01	27197.02
549.18	27021.48
549.34	27337.46
549.51	27047.23
549.68	27154.90
549.84	27215.75
550.01	27501.29
550.18	27157.24
550.34	26981.70
550.51	27538.74
550.68	27213.41
550.84	27246.18
551.01	27517.68
551.18	26895.10
551.34	27136.17
551.51	27281.28
551.68	27510.66
551.84	27634.71
552.01	27161.92
552.18	27578.53
552.34	27688.54
552.51	27721.30
552.68	27646.41
552.84	27374.91
553.01	27449.80
553.18	27725.99
553.34	27786.84
553.51	27569.17
553.67	27494.27
553.84	28100.47
554.01	28231.54
554.17	27988.13
554.34	27363.20
554.51	27763.43
554.67	28093.45
554.84	28126.22
555.00	27971.74
555.17	27962.38
555.33	27718.96
555.50	27798.54
555.67	28034.94
555.83	27950.68
556.00	28360.27
556.16	28423.47
556.33	27936.63
556.50	28109.83
556.66	28158.99
556.83	28219.84
556.99	28341.55
557.16	28629.43
557.32	28496.02
557.49	28357.93
557.65	28222.18
557.82	27784.50
557.98	28140.26
558.15	28369.63
558.32	28531.13
558.48	28156.64
558.65	28320.48
558.81	28444.53
558.98	28397.72
559.14	28964.13
559.31	28547.51
559.47	28498.36
559.64	28402.40
559.80	28683.27
559.97	28491.34
560.13	28582.62
560.30	28540.49
560.46	28418.78
560.63	28570.92
560.79	28535.81
560.96	28966.47
561.12	28533.47
561.29	28397.72
561.45	28542.83
561.61	28599.01
561.78	28772.21
561.94	28577.94
562.11	28907.96
562.27	28931.36
562.44	29188.82
562.60	28500.70
562.77	28875.19
562.93	28545.17
563.10	29036.69
563.26	28732.42
563.42	29027.32
563.59	28954.77
563.75	28828.38
563.92	29383.09
564.08	29008.60
564.24	28774.55
564.41	28858.81
564.57	28739.44
564.74	29003.92
564.90	28783.91
565.07	29076.48
565.23	29235.63
565.39	29003.92
565.56	29116.26
565.72	28898.59
565.88	28811.99
566.05	28912.64
566.21	29336.27
566.38	29043.71
566.54	29193.50
566.70	29254.36
566.87	29219.25
567.03	29570.33
567.19	29504.79
567.36	29326.91
567.52	28907.96
567.68	29134.99
567.85	29156.05
568.01	28945.41
568.17	29179.46
568.34	29181.80
568.50	28837.74
568.66	29198.18
568.83	29434.58
568.99	29331.59
569.15	29163.08
569.32	29289.46
569.48	29247.33
569.64	29153.71
569.81	29422.87
569.97	29233.29
570.13	29591.39
570.30	29198.18
570.46	29188.82
570.62	29387.77
570.78	29376.06
570.95	29134.99
571.11	29083.50
571.27	29024.98
571.43	29476.71
571.60	29589.05
571.76	28999.24
571.92	29469.69
572.09	29345.64
572.25	29200.52
572.41	29380.74
572.57	29415.85
572.74	29862.90
572.90	29291.80
573.06	29677.99
573.22	29275.42
573.38	29352.66
573.55	28907.96
573.71	29521.18
573.87	29612.46
574.03	29387.77
574.20	29579.69
574.36	29432.24
574.52	29200.52
574.68	29132.65
574.84	29647.57
575.01	29343.30
575.17	29605.44
575.33	29656.93
575.49	29785.66
575.65	29806.72
575.82	29542.24
575.98	29415.85
576.14	29532.88
576.30	29914.39
576.46	29137.33
576.62	29280.10
576.79	29493.09
576.95	29462.66
577.11	29322.23
577.27	29790.34
577.43	29504.79
577.59	29467.34
577.75	29666.29
577.92	29633.52
578.08	29165.42
578.24	29851.19
578.40	29673.31
578.56	29886.30
578.72	29500.11
578.88	29930.77
579.04	30033.75
579.21	29785.66
579.37	29460.32
579.53	29886.30
579.69	29202.86
579.85	29563.31
580.01	29862.90
580.17	29504.79
580.33	29750.55
580.49	29612.46
580.65	29542.24
580.82	29811.40
580.98	29617.14
581.14	29825.45
581.30	29907.37
581.46	29355.00
581.62	29605.44
581.78	29263.72
581.94	29905.02
582.10	29516.50
582.26	29502.45
582.42	29722.46
582.58	29579.69
582.74	29312.87
582.90	29879.28
583.06	30015.03
583.22	29724.80
583.38	29912.05
583.54	29752.89
583.70	29530.54
583.86	29645.23
584.02	29387.77
584.18	29738.85
584.34	29905.02
584.50	30129.72
584.66	29956.52
584.82	29743.53
584.98	29769.27
585.14	29752.89
585.30	29825.45
585.46	29518.84
585.62	29680.33
585.78	29717.78
585.94	29397.13
586.10	29914.39
586.26	29495.43
586.42	30005.67
586.58	29731.83
586.74	29977.58
586.90	29673.31
587.06	29825.45
587.22	29813.74
587.38	29670.97
587.54	29844.17
587.70	30232.70
587.86	29837.15
588.02	29958.86
588.18	29972.90
588.34	29752.89
588.49	30110.99
588.65	29617.14
588.81	29453.30
588.97	29832.47
589.13	30113.33
589.29	29940.13
589.45	30129.72
589.61	30316.96
589.77	30134.40
589.93	30206.95
590.08	30017.37
590.24	30043.12
590.40	30134.40
590.56	30389.52
590.72	29839.49
590.88	29900.34
591.04	30089.93
591.20	30242.06
591.35	30267.81
591.51	30508.88
591.67	30621.23
591.83	30441.01
591.99	30370.79
