SpectraSuite Data File
++++++++++++++++++++++++++++++++++++
Date: Fri Oct 18 13:58:22 GMT-05:00 2013
User: bianchi
Dark Spectrum Present: No
Reference Spectrum Present: No
Number of Sampled Component Spectra: 1
Spectrometers: USB2+H05261
Integration Time (usec): 50000 (USB2+H05261)
Spectra Averaged: 1 (USB2+H05261)
Boxcar Smoothing: 0 (USB2+H05261)
Correct for Electrical Dark: No (USB2+H05261)
Strobe/Lamp Enabled: No (USB2+H05261)
Correct for Detector Non-linearity: No (USB2+H05261)
Correct for Stray Light: No (USB2+H05261)
Number of Pixels in Processed Spectrum: 2048
>>>>>Begin Processed Spectral Data<<<<<
365.73	0.00
365.92	0.00
366.12	0.00
366.32	0.00
366.52	0.00
366.72	0.00
366.91	0.00
367.11	0.00
367.31	0.00
367.51	0.00
367.70	0.00
367.90	0.00
368.10	0.00
368.30	0.00
368.49	0.00
368.69	0.00
368.89	0.00
369.09	0.00
369.28	0.00
369.48	0.00
369.68	0.00
369.87	0.00
370.07	0.00
370.27	0.00
370.47	0.00
370.66	63.19
370.86	100.64
371.06	140.43
371.25	156.82
371.45	163.84
371.65	117.03
371.84	159.16
372.04	191.92
372.24	182.56
372.44	224.69
372.63	238.73
372.83	149.79
373.03	145.11
373.22	203.63
373.42	259.80
373.62	201.29
373.81	163.84
374.01	224.69
374.21	259.80
374.40	203.63
374.60	154.48
374.79	320.65
374.99	257.46
375.19	252.78
375.38	257.46
375.58	238.73
375.78	215.33
375.97	215.33
376.17	241.08
376.37	283.20
376.56	241.08
376.76	236.39
376.95	252.78
377.15	255.12
377.35	327.68
377.54	259.80
377.74	236.39
377.93	290.23
378.13	290.23
378.33	322.99
378.52	276.18
378.72	257.46
378.91	287.89
379.11	367.46
379.31	276.18
379.50	241.08
379.70	255.12
379.89	308.95
380.09	318.31
380.28	290.23
380.48	299.59
380.68	360.44
380.87	283.20
381.07	348.74
381.26	271.50
381.46	353.42
381.65	259.80
381.85	353.42
382.04	313.63
382.24	327.68
382.43	348.74
382.63	325.33
382.83	379.17
383.02	355.76
383.22	376.83
383.41	325.33
383.61	346.40
383.80	358.10
384.00	358.10
384.19	372.15
384.39	294.91
384.58	376.83
384.78	475.13
384.97	376.83
385.17	409.59
385.36	440.02
385.56	390.87
385.75	433.00
385.95	362.78
386.14	489.17
386.34	433.00
386.53	379.17
386.72	465.77
386.92	400.23
387.11	362.78
387.31	463.43
387.50	348.74
387.70	442.36
387.89	416.62
388.09	512.58
388.28	433.00
388.48	390.87
388.67	414.27
388.86	435.34
389.06	381.51
389.25	341.72
389.45	388.53
389.64	421.30
389.84	503.22
390.03	437.68
390.22	498.53
390.42	496.19
390.61	517.26
390.81	458.74
391.00	433.00
391.19	514.92
391.39	465.77
391.58	589.82
391.78	470.45
391.97	505.56
392.16	573.43
392.36	543.00
392.55	521.94
392.75	430.66
392.94	535.98
393.13	596.84
393.33	503.22
393.52	512.58
393.71	552.37
393.91	617.90
394.10	547.69
394.29	519.60
394.49	477.47
394.68	575.77
394.88	571.09
395.07	650.67
395.26	657.69
395.46	585.13
395.65	599.18
395.84	615.56
396.04	678.76
396.23	641.31
396.42	629.60
396.62	636.63
396.81	624.92
397.00	622.58
397.19	674.07
397.39	711.52
397.58	671.73
397.77	671.73
397.97	692.80
398.16	713.86
398.35	758.33
398.55	641.31
398.74	732.59
398.93	664.71
399.12	711.52
399.32	676.41
399.51	727.91
399.70	716.20
399.90	730.25
400.09	837.91
400.28	807.48
400.47	723.23
400.67	777.06
400.86	830.89
401.05	767.70
401.24	833.23
401.44	692.80
401.63	784.08
401.82	788.76
402.01	779.40
402.21	851.96
402.40	875.36
402.59	842.59
402.78	781.74
402.97	788.76
403.17	807.48
403.36	866.00
403.55	816.85
403.74	781.74
403.93	908.13
404.13	875.36
404.32	908.13
404.51	828.55
404.70	926.85
404.89	847.27
405.09	990.05
405.28	926.85
405.47	926.85
405.66	1015.79
405.85	994.73
406.05	992.39
406.24	1025.15
406.43	1006.43
406.62	968.98
406.81	1006.43
407.00	933.87
407.20	910.47
407.39	1001.75
407.58	987.71
407.77	987.71
407.96	1050.90
408.15	1057.92
408.34	1102.39
408.54	1022.81
408.73	1076.65
408.92	1048.56
409.11	1102.39
409.30	1224.10
409.49	1156.22
409.68	1146.86
409.87	1210.06
410.07	1142.18
410.26	1125.80
410.45	1181.97
410.64	1184.31
410.83	1179.63
411.02	1181.97
411.21	1242.82
411.40	1172.61
411.59	1331.76
411.78	1296.66
411.98	1268.57
412.17	1401.98
412.36	1355.17
412.55	1252.19
412.74	1322.40
412.93	1378.58
413.12	1240.48
413.31	1378.58
413.50	1320.06
413.69	1331.76
413.88	1401.98
414.07	1476.88
414.26	1420.71
414.45	1540.07
414.64	1547.09
414.83	1493.26
415.02	1526.03
415.22	1563.48
415.41	1467.52
415.60	1537.73
415.79	1530.71
415.98	1434.75
416.17	1549.43
416.36	1577.52
416.55	1661.78
416.74	1586.88
416.93	1614.97
417.12	1631.35
417.31	1617.31
417.50	1614.97
417.69	1809.23
417.88	1682.85
418.07	1757.74
418.26	1701.57
418.45	1687.53
418.64	1832.64
418.83	1874.77
419.02	1837.32
419.21	1877.11
419.39	1713.27
419.58	1750.72
419.77	1797.53
419.96	1856.04
420.15	1842.00
420.34	1907.54
420.53	1830.30
420.72	1886.47
420.91	1825.62
421.10	1940.30
421.29	1905.20
421.48	1895.83
421.67	1944.99
421.86	1935.62
422.05	2153.29
422.24	2026.90
422.43	1994.14
422.61	1982.43
422.80	1926.26
422.99	1902.86
423.18	2038.61
423.37	2111.16
423.56	1949.67
423.75	1977.75
423.94	1989.46
424.13	2015.20
424.32	1977.75
424.50	1984.77
424.69	2017.54
424.88	2085.42
425.07	1937.96
425.26	2052.65
425.45	2024.56
425.64	2064.35
425.83	2050.31
426.01	2019.88
426.20	2033.93
426.39	2064.35
426.58	1961.37
426.77	2064.35
426.96	2003.50
427.15	2090.10
427.33	2134.57
427.52	2057.33
427.71	2143.93
427.90	2251.60
428.09	2141.59
428.28	2167.34
428.46	2015.20
428.65	2111.16
428.84	2342.88
429.03	2275.00
429.22	2251.60
429.40	2251.60
429.59	2321.81
429.78	2193.08
429.97	2169.68
430.16	2174.36
430.34	2186.06
430.53	2214.15
430.72	2263.30
430.91	2410.75
431.10	2324.15
431.28	2385.01
431.47	2377.98
431.66	2450.54
431.85	2340.54
432.03	2401.39
432.22	2469.27
432.41	2462.24
432.60	2487.99
432.79	2399.05
432.97	2410.75
433.16	2436.50
433.35	2422.45
433.54	2469.27
433.72	2516.08
433.91	2427.14
434.10	2434.16
434.28	2415.43
434.47	2443.52
434.66	2597.99
434.85	2485.65
435.03	2612.04
435.22	2574.59
435.41	2597.99
435.59	2597.99
435.78	2675.23
435.97	2621.40
436.16	2710.34
436.34	2705.66
436.53	2637.78
436.72	2832.05
436.90	2642.46
437.09	2689.28
437.28	2771.19
437.46	2766.51
437.65	2754.81
437.84	2796.94
438.02	2689.28
438.21	2764.17
438.40	2691.62
438.58	2820.35
438.77	2888.22
438.96	2885.88
439.14	2843.75
439.33	2885.88
439.52	2925.67
439.70	2923.33
439.89	2972.48
440.08	2935.03
440.26	3042.70
440.45	3143.34
440.63	3166.74
440.82	3103.55
441.01	3016.95
441.19	3126.96
441.38	3206.53
441.57	3276.75
441.75	3176.11
441.94	3346.97
442.12	3215.90
442.31	3227.60
442.50	3335.26
442.68	3229.94
442.87	3272.07
443.05	3276.75
443.24	3463.99
443.43	3361.01
443.61	3452.29
443.80	3534.21
443.98	3389.10
444.17	3215.90
444.35	3309.52
444.54	3433.57
444.73	3433.57
444.91	3365.69
445.10	3353.99
445.28	3552.93
445.47	3375.05
445.65	3454.63
445.84	3550.59
446.02	3442.93
446.21	3492.08
446.39	3424.20
446.58	3522.51
446.77	3503.78
446.95	3384.41
447.14	3501.44
447.32	3428.88
447.51	3517.83
447.69	3510.80
447.88	3531.87
448.06	3501.44
448.25	3517.83
448.43	3630.17
448.62	3590.38
448.80	3473.36
448.99	3459.31
449.17	3623.15
449.36	3513.14
449.54	3630.17
449.73	3705.07
449.91	3611.45
450.10	3726.13
450.28	3798.69
450.46	3756.56
450.65	3756.56
450.83	3840.82
451.02	3815.07
451.20	3836.14
451.39	3749.54
451.57	3662.94
451.76	3784.65
451.94	3747.20
452.13	3826.78
452.31	3786.99
452.49	3754.22
452.68	3798.69
452.86	3889.97
453.05	3817.41
453.23	3838.48
453.42	3693.37
453.60	3758.90
453.78	3901.67
453.97	3875.93
454.15	4021.04
454.34	3913.38
454.52	3999.98
454.70	4121.68
454.89	4124.02
455.07	3974.23
455.26	3974.23
455.44	4070.19
455.62	4035.08
455.81	3964.87
455.99	4056.15
456.17	4250.41
456.36	4140.41
456.54	4245.73
456.73	4304.25
456.91	4325.31
457.09	4217.65
457.28	4348.72
457.46	4297.22
457.64	4306.59
457.83	4369.78
458.01	4262.12
458.19	4276.16
458.38	4311.27
458.56	4547.66
458.74	4430.63
458.93	4479.79
459.11	4491.49
459.29	4573.41
459.48	4552.34
459.66	4514.89
459.84	4437.66
460.03	4444.68
460.21	4514.89
460.39	4596.81
460.57	4449.36
460.76	4627.24
460.94	4620.22
461.12	4629.58
461.31	4681.07
461.49	4685.75
461.67	4603.83
461.85	4751.29
462.04	4634.26
462.22	4748.95
462.40	4685.75
462.59	4596.81
462.77	4704.48
462.95	4833.21
463.13	4730.22
463.32	4795.76
463.50	4898.74
463.68	4835.55
463.86	4908.10
464.05	4772.35
464.23	4784.06
464.41	4971.30
464.59	4858.95
464.78	4901.08
464.96	4851.93
465.14	4931.51
465.32	5083.64
465.50	5221.74
465.69	5146.84
465.87	4856.61
466.05	4903.42
466.23	5053.22
466.41	5153.86
466.60	5137.48
466.78	5071.94
466.96	5083.64
467.14	5165.56
467.32	5057.90
467.51	5062.58
467.69	5050.88
467.87	5090.67
468.05	5146.84
468.23	5158.54
468.41	5205.35
468.60	5025.13
468.78	5252.16
468.96	5149.18
469.14	5114.07
469.32	5249.82
469.50	5130.45
469.69	5303.65
469.87	5416.00
470.05	5437.06
470.23	5240.46
470.41	5462.81
470.59	5507.28
470.77	5397.28
470.95	5408.98
471.14	5495.58
471.32	5488.56
471.50	5521.32
471.68	5593.88
471.86	5713.25
472.04	5481.53
472.22	5886.45
472.40	5544.73
472.58	5673.46
472.77	5813.89
472.95	5710.91
473.13	5895.81
473.31	5900.49
473.49	5816.23
473.67	5846.66
473.85	5879.43
474.03	6176.67
474.21	5933.26
474.39	5944.96
474.57	6064.33
474.75	6001.13
474.93	6230.51
475.12	6127.52
475.30	6132.20
475.48	6104.12
475.66	6085.39
475.84	6190.72
476.02	6321.79
476.20	6321.79
476.38	6509.03
476.56	6551.16
476.74	6537.12
476.92	6396.68
477.10	6555.84
477.28	6722.02
477.46	6588.61
477.64	6647.12
477.82	6862.45
478.00	6974.80
478.18	7028.63
478.36	6874.15
478.54	7042.67
478.72	6923.30
478.90	7194.81
479.08	6991.18
479.26	7353.96
479.44	7286.09
479.62	7421.84
479.80	7405.46
479.98	7349.28
480.16	7398.43
480.34	7400.77
480.52	7632.49
480.70	7709.72
480.88	7501.42
481.06	7691.00
481.24	7597.38
481.41	7805.69
481.59	7822.07
481.77	7770.58
481.95	8053.78
482.13	8140.38
482.31	8168.47
482.49	8236.35
482.67	8320.60
482.85	8329.97
483.03	8475.08
483.21	8451.67
483.39	8542.96
483.57	8437.63
483.74	8753.60
483.92	8854.25
484.10	8645.94
484.28	8784.03
484.46	9048.51
484.64	9111.71
484.82	8947.87
485.00	9226.39
485.18	9193.62
485.35	9408.95
485.53	9214.69
485.71	9394.91
485.89	9619.60
486.07	9516.62
486.25	9635.99
486.43	9582.15
486.61	9745.99
486.78	9734.29
486.96	9848.97
487.14	10146.22
487.32	10026.86
487.50	10052.60
487.68	10331.12
487.85	10326.44
488.03	10410.70
488.21	10579.22
488.39	10614.33
488.57	10551.14
488.75	10714.97
488.92	10782.85
489.10	11087.12
489.28	10991.16
489.46	11201.80
489.64	11033.29
489.81	11281.38
489.99	11265.00
490.17	11232.23
490.35	11559.91
490.53	11463.94
490.70	11513.10
490.88	11529.48
491.06	11669.91
491.24	11485.01
491.41	11737.79
491.59	11882.90
491.77	11826.73
491.95	11824.39
492.13	12009.29
492.30	12077.16
492.48	12121.63
492.66	12086.53
492.84	12453.99
493.01	12461.01
493.19	12582.72
493.37	12549.95
493.54	12622.51
493.72	12840.18
493.90	12709.11
494.08	13004.02
494.25	13081.25
494.43	13139.77
494.61	13202.96
494.79	13263.82
494.96	13378.50
495.14	13345.73
495.32	13273.18
495.49	13509.57
495.67	13577.45
495.85	13788.10
496.02	13757.67
496.20	13879.38
496.38	13813.84
496.55	13715.54
496.73	14452.81
496.91	14033.85
497.09	14036.19
497.26	14050.24
497.44	14040.87
497.62	14375.57
497.79	14682.18
497.97	14466.85
498.14	14918.57
498.32	14923.26
498.50	14815.59
498.67	14839.00
498.85	14831.97
499.03	14974.75
499.20	15080.07
499.38	14934.96
499.56	14970.07
499.73	15087.09
499.91	15382.00
500.08	15122.20
500.26	15419.45
500.44	15068.37
500.61	15527.11
500.79	15243.91
500.97	15379.66
501.14	15894.58
501.32	15819.68
501.49	15712.02
501.67	15784.57
501.84	15775.21
502.02	15604.35
502.20	15978.84
502.37	16084.16
502.55	16318.22
502.72	16252.68
502.90	16238.64
503.07	16219.91
503.25	16016.29
503.43	16423.54
503.60	16152.04
503.78	16432.90
503.95	16411.84
504.13	16507.80
504.30	16395.45
504.48	16690.36
504.65	16889.31
504.83	16872.92
505.01	16952.50
505.18	16657.59
505.36	17224.00
505.53	17144.42
505.71	17170.17
505.88	17235.70
506.06	16772.28
506.23	17151.45
506.41	17308.26
506.58	17240.39
506.76	17408.90
506.93	17486.14
507.11	17296.56
507.28	17224.00
507.46	17394.86
507.63	17568.06
507.81	17717.86
507.98	17603.17
508.16	17579.76
508.33	17678.07
508.50	17743.60
508.68	17902.76
508.85	18185.96
509.03	18192.98
509.20	18230.43
509.38	18305.33
509.55	18420.02
509.73	18230.43
509.90	18246.82
510.08	18207.03
510.25	18291.29
510.42	18363.84
510.60	18317.03
510.77	18569.81
510.95	18707.90
511.12	18733.65
511.30	18560.45
511.47	18778.12
511.64	18780.46
511.82	18972.38
511.99	18810.89
512.17	19246.23
512.34	19075.37
512.51	19049.62
512.69	19058.98
512.86	19227.50
513.04	19447.51
513.21	18963.02
513.38	18977.06
513.56	19552.84
513.73	19264.95
513.90	19676.88
514.08	19274.31
514.25	19461.55
514.43	19908.60
514.60	19473.26
514.77	19669.86
514.95	20063.07
515.12	19819.66
515.29	19686.25
515.47	19924.98
515.64	20327.55
515.81	20004.56
515.99	20149.67
516.16	20372.02
516.33	20215.21
516.51	20269.04
516.68	19969.45
516.85	20025.62
517.03	20432.88
517.20	20240.95
517.37	20517.14
517.54	20430.54
517.72	20706.72
517.89	20400.11
518.06	20353.30
518.24	20531.18
518.41	20472.67
518.58	20772.25
518.75	20666.93
518.93	20816.72
519.10	20765.23
519.27	20898.64
519.45	21088.23
519.62	21048.44
519.79	20945.45
519.96	21003.97
520.14	21167.80
520.31	21109.29
520.48	21483.78
520.65	21223.98
520.83	21418.24
521.00	21535.27
521.17	21474.42
521.34	21207.59
521.52	21638.25
521.69	21584.42
521.86	21603.14
522.03	21827.84
522.20	21666.34
522.38	21827.84
522.55	22033.80
522.72	21769.32
522.89	21778.68
523.07	22052.53
523.24	22089.98
523.41	22127.42
523.58	21734.21
523.75	22300.62
523.92	21865.28
524.10	22052.53
524.27	21996.35
524.44	22347.44
524.61	22419.99
524.78	22670.43
524.96	22328.71
525.13	22462.12
525.30	22349.78
525.47	22693.83
525.64	22530.00
525.81	22576.81
525.98	22888.10
526.16	22537.02
526.33	22569.79
526.50	23112.79
526.67	22682.13
526.84	22698.52
527.01	22515.95
527.18	22881.08
527.36	22878.74
527.53	22885.76
527.70	23019.17
527.87	23321.10
528.04	22909.16
528.21	23091.73
528.38	22927.89
528.55	23023.85
528.72	23295.35
528.89	23419.40
529.07	23517.70
529.24	22965.34
529.41	23290.67
529.58	23634.73
529.75	23229.82
529.92	22960.66
530.09	23522.38
530.26	23637.07
530.43	23749.42
530.60	23777.50
530.77	23826.65
530.94	23899.21
531.11	23613.66
531.28	23569.19
531.46	23379.61
531.63	23749.42
531.80	23964.75
531.97	24067.73
532.14	23833.68
532.31	24067.73
532.48	24088.79
532.65	24128.58
532.82	23737.71
532.99	24056.03
533.16	24154.33
533.33	24374.34
533.50	24350.93
533.67	24622.44
533.84	24226.89
534.01	24238.59
534.18	24191.78
534.35	24489.03
534.52	24484.34
534.69	24430.51
534.86	24643.50
535.03	24376.68
535.20	24718.40
535.37	24699.67
535.54	24222.20
535.71	24613.07
535.88	24507.75
536.05	25123.31
536.22	24858.83
536.38	24959.47
536.55	24713.72
536.72	24650.52
536.89	24957.13
537.06	25193.53
537.23	24805.00
537.40	25099.90
537.57	24933.73
537.74	24973.52
537.91	25242.68
538.08	25118.63
538.25	24996.92
538.42	24959.47
538.59	25324.60
538.75	24760.53
538.92	24877.55
539.09	25029.69
539.26	24985.22
539.43	25170.12
539.60	25355.02
539.77	25406.52
539.94	25607.80
540.11	25336.30
540.28	25467.37
540.44	25453.33
540.61	25359.70
540.78	25291.83
540.95	25603.12
541.12	25542.27
541.29	25757.60
541.46	25937.82
541.62	25696.74
541.79	25834.83
541.96	25378.43
542.13	25937.82
542.30	25523.54
542.47	25837.17
542.63	25979.95
542.80	26366.13
542.97	26316.98
543.14	26162.51
543.31	26122.72
543.48	26211.66
543.64	26340.39
543.81	26536.99
543.98	26256.13
544.15	26548.70
544.32	26469.12
544.48	26434.01
544.65	26274.85
544.82	26450.39
544.99	26515.93
545.16	26597.85
545.32	26438.69
545.49	26852.97
545.66	26506.57
545.83	26848.29
546.00	26962.97
546.16	26401.24
546.33	26672.74
546.50	26429.33
546.67	26576.78
546.83	26551.04
547.00	26796.79
547.17	26693.81
547.34	27007.44
547.50	27138.51
547.67	27164.26
547.84	26831.90
548.00	27112.77
548.17	27145.53
548.34	27229.79
548.51	27386.61
548.67	27131.49
548.84	27335.12
549.01	27012.12
549.18	27241.50
549.34	26977.01
549.51	27267.24
549.68	27084.68
549.84	26939.57
550.01	26925.52
550.18	27253.20
550.34	27316.39
550.51	27573.85
550.68	27545.76
550.84	27395.97
551.01	27484.91
551.18	27164.26
551.34	27316.39
551.51	27365.54
551.68	27576.19
551.84	27269.58
552.01	27438.10
552.18	27814.93
552.34	27618.32
552.51	27772.80
552.68	27131.49
552.84	27817.27
553.01	27508.32
553.18	27733.01
553.34	27779.82
553.51	27648.75
553.67	28065.36
553.84	28100.47
554.01	28039.62
554.17	27770.46
554.34	27899.19
554.51	27615.98
554.67	27838.33
554.84	27608.96
555.00	28056.00
555.17	28194.09
555.33	28074.73
555.50	28308.78
555.67	28070.04
555.83	27814.93
556.00	27569.17
556.16	28367.29
556.33	28187.07
556.50	28048.98
556.66	28327.50
556.83	28081.75
556.99	28442.19
557.16	28603.69
557.32	28381.34
557.49	28456.23
557.65	28350.91
557.82	28283.03
557.98	28091.11
558.15	28175.37
558.32	28254.95
558.48	28423.47
558.65	28219.84
558.81	28512.41
558.98	28313.46
559.14	28596.67
559.31	29013.28
559.47	28620.07
559.64	28521.77
559.80	28547.51
559.97	28842.42
560.13	28362.61
560.30	28470.28
560.46	28746.46
560.63	28648.16
560.79	28896.25
560.96	28741.78
561.12	28278.35
561.29	28669.22
561.45	28816.68
561.61	28940.72
561.78	28730.08
561.94	28563.90
562.11	28879.87
562.27	28788.59
562.44	28959.45
562.60	28954.77
562.77	28760.50
562.93	28865.83
563.10	29062.43
563.26	28744.12
563.42	29535.22
563.59	28727.74
563.75	29008.60
563.92	28786.25
564.08	28891.57
564.24	29029.66
564.41	28922.00
564.57	28861.15
564.74	28685.61
564.90	29036.69
565.07	29184.14
565.23	29207.55
565.39	29097.54
565.56	29373.72
565.72	28833.06
565.88	29001.58
566.05	28519.43
566.21	29139.67
566.38	29088.18
566.54	28996.90
566.70	29216.91
566.87	29387.77
567.03	29174.78
567.19	29460.32
567.36	29172.44
567.52	29020.30
567.68	29287.12
567.85	28804.97
568.01	29287.12
568.17	29181.80
568.34	28879.87
568.50	29296.49
568.66	28989.88
568.83	29282.44
568.99	29443.94
569.15	29766.93
569.32	29411.17
569.48	28959.45
569.64	29153.71
569.81	29233.29
569.97	29165.42
570.13	29516.50
570.30	29336.27
570.46	29139.67
570.62	29380.74
570.78	29427.56
570.95	29247.33
571.11	29350.32
571.27	29160.73
571.43	29006.26
571.60	29359.68
571.76	29467.34
571.92	29347.98
572.09	29476.71
572.25	29575.01
572.41	29443.94
572.57	29043.71
572.74	29888.64
572.90	29268.40
573.06	29537.56
573.22	29355.00
573.38	29450.96
573.55	29516.50
573.71	29963.54
573.87	29677.99
574.03	29453.30
574.20	30050.14
574.36	29324.57
574.52	29172.44
574.68	29834.81
574.84	29488.41
575.01	29336.27
575.17	29727.14
575.33	29294.14
575.49	29514.16
575.65	29336.27
575.82	29844.17
575.98	29340.96
576.14	29399.47
576.30	29357.34
576.46	29710.76
576.62	28854.12
576.79	29666.29
576.95	29233.29
577.11	29804.38
577.27	29247.33
577.43	29572.67
577.59	29504.79
577.75	29689.70
577.92	29392.45
578.08	29408.83
578.24	29369.04
578.40	29912.05
578.56	29530.54
578.72	29869.92
578.88	29596.07
579.04	29701.40
579.21	29560.97
579.37	29324.57
579.53	29865.24
579.69	29769.27
579.85	29509.47
580.01	29811.40
580.17	29221.59
580.33	29539.90
580.49	29336.27
580.65	29844.17
580.82	29673.31
580.98	29509.47
581.14	29876.94
581.30	29947.15
581.46	29560.97
581.62	29708.42
581.78	29446.28
581.94	29912.05
582.10	29483.73
582.26	29507.13
582.42	29558.63
582.58	29919.07
582.74	29832.47
582.90	29876.94
583.06	30000.99
583.22	29895.66
583.38	29776.30
583.54	29589.05
583.70	29432.24
583.86	29722.46
584.02	29631.18
584.18	29729.48
584.34	29813.74
584.50	29839.49
584.66	29762.25
584.82	29670.97
584.98	30232.70
585.14	29731.83
585.30	29710.76
585.46	29762.25
585.62	29633.52
585.78	29511.81
585.94	29947.15
586.10	29383.09
586.26	29675.65
586.42	30230.36
586.58	30008.01
586.74	29921.41
586.90	30015.03
587.06	29577.35
587.22	30118.01
587.38	29448.62
587.54	29937.79
587.70	30036.09
587.86	29926.09
588.02	29694.38
588.18	29954.18
588.34	30054.82
588.49	29790.34
588.65	29876.94
588.81	30157.80
588.97	30029.07
589.13	29937.79
589.29	30136.74
589.45	29933.11
589.61	30103.97
589.77	30178.87
589.93	30209.29
590.08	30230.36
590.24	30080.56
590.40	30150.78
590.56	30604.84
590.72	29916.73
590.88	30169.51
591.04	29937.79
591.20	30153.12
591.35	30202.27
591.51	30293.55
591.67	30366.11
591.83	30462.07
591.99	30352.07
