SpectraSuite Data File
++++++++++++++++++++++++++++++++++++
Date: Fri Oct 18 13:58:34 GMT-05:00 2013
User: bianchi
Dark Spectrum Present: No
Reference Spectrum Present: No
Number of Sampled Component Spectra: 1
Spectrometers: USB2+H05261
Integration Time (usec): 50000 (USB2+H05261)
Spectra Averaged: 1 (USB2+H05261)
Boxcar Smoothing: 0 (USB2+H05261)
Correct for Electrical Dark: No (USB2+H05261)
Strobe/Lamp Enabled: No (USB2+H05261)
Correct for Detector Non-linearity: No (USB2+H05261)
Correct for Stray Light: No (USB2+H05261)
Number of Pixels in Processed Spectrum: 2048
>>>>>Begin Processed Spectral Data<<<<<
365.73	0.00
365.92	0.00
366.12	0.00
366.32	0.00
366.52	0.00
366.72	0.00
366.91	0.00
367.11	0.00
367.31	0.00
367.51	0.00
367.70	0.00
367.90	0.00
368.10	0.00
368.30	0.00
368.49	0.00
368.69	0.00
368.89	0.00
369.09	0.00
369.28	0.00
369.48	0.00
369.68	0.00
369.87	0.00
370.07	0.00
370.27	0.00
370.47	0.00
370.66	107.66
370.86	67.88
371.06	128.73
371.25	182.56
371.45	117.03
371.65	126.39
371.84	194.26
372.04	121.71
372.24	159.16
372.44	140.43
372.63	133.41
372.83	266.82
373.03	154.48
373.22	161.50
373.42	189.58
373.62	205.97
373.81	196.60
374.01	149.79
374.21	184.90
374.40	161.50
374.60	306.61
374.79	215.33
374.99	255.12
375.19	287.89
375.38	159.16
375.58	196.60
375.78	351.08
375.97	252.78
376.17	304.27
376.37	280.86
376.56	203.63
376.76	203.63
376.95	304.27
377.15	283.20
377.35	280.86
377.54	290.23
377.74	315.97
377.93	318.31
378.13	273.84
378.33	238.73
378.52	238.73
378.72	313.63
378.91	264.48
379.11	313.63
379.31	278.52
379.50	280.86
379.70	351.08
379.89	245.76
380.09	294.91
380.28	280.86
380.48	299.59
380.68	285.55
380.87	376.83
381.07	351.08
381.26	255.12
381.46	294.91
381.65	311.29
381.85	313.63
382.04	351.08
382.24	332.36
382.43	348.74
382.63	304.27
382.83	339.38
383.02	346.40
383.22	379.17
383.41	290.23
383.61	362.78
383.80	351.08
384.00	348.74
384.19	306.61
384.39	355.76
384.58	308.95
384.78	332.36
384.97	376.83
385.17	395.55
385.36	418.96
385.56	332.36
385.75	425.98
385.95	346.40
386.14	437.68
386.34	418.96
386.53	379.17
386.72	355.76
386.92	379.17
387.11	409.59
387.31	470.45
387.50	386.19
387.70	386.19
387.89	458.74
388.09	411.93
388.28	341.72
388.48	468.11
388.67	435.34
388.86	388.53
389.06	444.70
389.25	458.74
389.45	465.77
389.64	456.40
389.84	454.06
390.03	493.85
390.22	521.94
390.42	543.00
390.61	503.22
390.81	531.30
391.00	571.09
391.19	479.81
391.39	463.43
391.58	447.04
391.78	547.69
391.97	543.00
392.16	500.87
392.36	517.26
392.55	472.79
392.75	472.79
392.94	519.60
393.13	475.13
393.33	521.94
393.52	533.64
393.71	606.20
393.91	571.09
394.10	566.41
394.29	547.69
394.49	582.79
394.68	641.31
394.88	606.20
395.07	603.86
395.26	622.58
395.46	678.76
395.65	608.54
395.84	664.71
396.04	571.09
396.23	681.10
396.42	648.33
396.62	695.14
396.81	617.90
397.00	592.16
397.19	657.69
397.39	594.50
397.58	624.92
397.77	671.73
397.97	603.86
398.16	704.50
398.35	615.56
398.55	772.38
398.74	704.50
398.93	685.78
399.12	788.76
399.32	711.52
399.51	683.44
399.70	718.54
399.90	732.59
400.09	816.85
400.28	758.33
400.47	746.63
400.67	725.57
400.86	763.01
401.05	746.63
401.24	746.63
401.44	772.38
401.63	835.57
401.82	837.91
402.01	828.55
402.21	877.70
402.40	791.10
402.59	788.76
402.78	812.17
402.97	924.51
403.17	929.19
403.36	812.17
403.55	812.17
403.74	870.68
403.93	943.24
404.13	908.13
404.32	851.96
404.51	861.32
404.70	985.37
404.89	898.77
405.09	915.15
405.28	877.70
405.47	933.87
405.66	1004.09
405.85	1048.56
406.05	985.37
406.24	924.51
406.43	947.92
406.62	1081.33
406.81	1046.22
407.00	976.00
407.20	929.19
407.39	947.92
407.58	1114.10
407.77	1036.86
407.96	1025.15
408.15	1043.88
408.34	1036.86
408.54	1025.15
408.73	1121.12
408.92	1020.47
409.11	1163.25
409.30	1111.75
409.49	1149.20
409.68	1128.14
409.87	1118.78
410.07	1167.93
410.26	1205.38
410.45	1067.28
410.64	1160.91
410.83	1228.78
411.02	1247.51
411.21	1301.34
411.40	1240.48
411.59	1226.44
411.78	1240.48
411.98	1270.91
412.17	1320.06
412.36	1284.95
412.55	1294.32
412.74	1392.62
412.93	1350.49
413.12	1310.70
413.31	1383.26
413.50	1427.73
413.69	1451.13
413.88	1406.66
414.07	1420.71
414.26	1378.58
414.45	1423.05
414.64	1352.83
414.83	1558.80
415.02	1533.05
415.22	1565.82
415.41	1664.12
415.60	1511.99
415.79	1493.26
415.98	1556.46
416.17	1526.03
416.36	1549.43
416.55	1493.26
416.74	1699.23
416.93	1596.25
417.12	1689.87
417.31	1617.31
417.50	1626.67
417.69	1717.95
417.88	1755.40
418.07	1736.68
418.26	1727.32
418.45	1825.62
418.64	1856.04
418.83	1804.55
419.02	1685.19
419.21	1769.44
419.39	1806.89
419.58	1776.47
419.77	1732.00
419.96	1914.56
420.15	1804.55
420.34	1837.32
420.53	1830.30
420.72	1966.05
420.91	1809.23
421.10	1961.37
421.29	2010.52
421.48	1886.47
421.67	1895.83
421.86	1919.24
422.05	1870.09
422.24	2022.22
422.43	1975.41
422.61	1872.43
422.80	2057.33
422.99	2019.88
423.18	2017.54
423.37	2069.03
423.56	2043.29
423.75	1959.03
423.94	1991.80
424.13	1940.30
424.32	2012.86
424.50	2057.33
424.69	2047.97
424.88	1980.09
425.07	1987.11
425.26	1968.39
425.45	2064.35
425.64	2062.01
425.83	2069.03
426.01	2078.40
426.20	2104.14
426.39	1987.11
426.58	2012.86
426.77	2069.03
426.96	2003.50
427.15	2099.46
427.33	2104.14
427.52	2040.95
427.71	2125.21
427.90	2125.21
428.09	2310.11
428.28	2050.31
428.46	2190.74
428.65	2239.89
428.84	2310.11
429.03	2312.45
429.22	2202.44
429.40	2251.60
429.59	2249.25
429.78	2087.76
429.97	2054.99
430.16	2282.02
430.34	2242.23
430.53	2284.36
430.72	2249.25
430.91	2263.30
431.10	2277.34
431.28	2312.45
431.47	2303.09
431.66	2438.84
431.85	2408.41
432.03	2382.67
432.22	2406.07
432.41	2448.20
432.60	2385.01
432.79	2296.07
432.97	2431.82
433.16	2394.37
433.35	2466.92
433.54	2609.70
433.72	2525.44
433.91	2567.57
434.10	2448.20
434.28	2396.71
434.47	2534.80
434.66	2569.91
434.85	2567.57
435.03	2614.38
435.22	2647.15
435.41	2628.42
435.59	2621.40
435.78	2672.89
435.97	2684.59
436.16	2722.04
436.34	2527.78
436.53	2710.34
436.72	2785.24
436.90	2651.83
437.09	2820.35
437.28	2672.89
437.46	2717.36
437.65	2759.49
437.84	2853.11
438.02	2857.79
438.21	2782.90
438.40	2740.77
438.58	2825.03
438.77	2850.77
438.96	2881.20
439.14	2925.67
439.33	2801.62
439.52	2981.84
439.70	2939.71
439.89	2984.18
440.08	2993.55
440.26	2984.18
440.45	3035.67
440.63	3103.55
440.82	3075.46
441.01	3122.27
441.19	3183.13
441.38	3159.72
441.57	3199.51
441.75	3180.79
441.94	3318.88
442.12	3274.41
442.31	3337.60
442.50	3274.41
442.68	3309.52
442.87	3405.48
443.05	3307.18
443.24	3241.64
443.43	3316.54
443.61	3456.97
443.80	3487.40
443.98	3232.28
444.17	3248.66
444.35	3363.35
444.54	3396.12
444.73	3405.48
444.91	3456.97
445.10	3487.40
445.28	3440.59
445.47	3314.20
445.65	3445.27
445.84	3606.77
446.02	3489.74
446.21	3475.70
446.39	3346.97
446.58	3557.61
446.77	3543.57
446.95	3353.99
447.14	3471.01
447.32	3522.51
447.51	3543.57
447.69	3433.57
447.88	3508.46
448.06	3520.17
448.25	3527.19
448.43	3529.53
448.62	3653.58
448.80	3520.17
448.99	3473.36
449.17	3517.83
449.36	3433.57
449.54	3426.54
449.73	3712.09
449.91	3744.86
450.10	3700.39
450.28	3756.56
450.46	3803.37
450.65	3740.18
450.83	3712.09
451.02	3660.60
451.20	3623.15
451.39	3763.58
451.57	3602.08
451.76	3716.77
451.94	3669.96
452.13	3892.31
452.31	3817.41
452.49	3751.88
452.68	3859.54
452.86	3695.71
453.05	3988.27
453.23	3932.10
453.42	3852.52
453.60	3758.90
453.78	3918.06
453.97	4016.36
454.15	3896.99
454.34	3819.75
454.52	4002.32
454.70	3943.80
454.89	3939.12
455.07	4037.42
455.26	4098.28
455.44	4159.13
455.62	4077.21
455.81	4102.96
455.99	4009.34
456.17	4142.75
456.36	4196.58
456.54	4266.80
456.73	4313.61
456.91	4212.96
457.09	4304.25
457.28	4318.29
457.46	4341.69
457.64	4496.17
457.83	4341.69
458.01	4250.41
458.19	4252.75
458.38	4376.80
458.56	4362.76
458.74	4463.40
458.93	4383.82
459.11	4344.03
459.29	4449.36
459.48	4634.26
459.66	4542.98
459.84	4468.08
460.03	4620.22
460.21	4631.92
460.39	4608.51
460.57	4498.51
460.76	4580.43
460.94	4634.26
461.12	4620.22
461.31	4638.94
461.49	4440.00
461.67	4491.49
461.85	4688.09
462.04	4683.41
462.22	4795.76
462.40	4725.54
462.59	4725.54
462.77	4709.16
462.95	4699.80
463.13	4681.07
463.32	4854.27
463.50	4875.34
463.68	4966.62
463.86	4793.42
464.05	4891.72
464.23	4873.00
464.41	5029.81
464.59	4762.99
464.78	5036.83
464.96	4863.63
465.14	4889.38
465.32	4938.53
465.50	5001.72
465.69	4980.66
465.87	4774.69
466.05	5029.81
466.23	5057.90
466.41	4910.44
466.60	5188.97
466.78	5088.32
466.96	5064.92
467.14	5090.67
467.32	4915.12
467.51	5018.11
467.69	5137.48
467.87	5174.92
468.05	5027.47
468.23	5069.60
468.41	5057.90
468.60	5273.23
468.78	5217.05
468.96	5198.33
469.14	5345.78
469.32	5301.31
469.50	5107.05
469.69	5404.30
469.87	5376.21
470.05	5270.89
470.23	5462.81
470.41	5460.47
470.59	5404.30
470.77	5313.02
470.95	5474.51
471.14	5556.43
471.32	5334.08
471.50	5671.12
471.68	5640.69
471.86	5460.47
472.04	5582.18
472.22	5579.84
472.40	5657.07
472.58	5860.70
472.77	5687.50
472.95	5900.49
473.13	6080.71
473.31	5715.59
473.49	5753.04
473.67	5926.24
473.85	5935.60
474.03	6085.39
474.21	6033.90
474.39	6099.44
474.57	6057.31
474.75	6200.08
474.93	6052.63
475.12	5994.11
475.30	6232.85
475.48	6267.95
475.66	6326.47
475.84	6200.08
476.02	6171.99
476.20	6399.02
476.38	6319.45
476.56	6345.19
476.74	6480.94
476.92	6438.81
477.10	6555.84
477.28	6698.61
477.46	6665.85
477.64	6731.38
477.82	6773.51
478.00	6939.69
478.18	6960.75
478.36	6876.49
478.54	6935.01
478.72	7002.88
478.90	7054.37
479.08	7272.04
479.26	7363.33
479.44	7204.17
479.62	7140.97
479.80	7262.68
479.98	7478.01
480.16	7527.16
480.34	7501.42
480.52	7510.78
480.70	7653.55
480.88	7503.76
481.06	7679.30
481.24	7510.78
481.41	7611.42
481.59	8023.36
481.77	7992.93
481.95	7939.10
482.13	8170.81
482.31	8189.53
482.49	8170.81
482.67	8142.72
482.85	8245.71
483.03	8650.62
483.21	8475.08
483.39	8535.93
483.57	8564.02
483.74	8571.04
483.92	8674.03
484.10	8667.00
484.28	8929.14
484.46	9043.83
484.64	9015.74
484.82	8800.41
485.00	9018.08
485.18	9153.84
485.35	9415.98
485.53	9387.89
485.71	9523.64
485.89	9575.13
486.07	9584.49
486.25	9753.01
486.43	9659.39
486.61	9568.11
486.78	9984.73
486.96	9792.80
487.14	10076.01
487.32	9760.03
487.50	9989.41
487.68	10171.97
487.85	10307.72
488.03	10284.31
488.21	10658.80
488.39	10593.26
488.57	10607.31
488.75	10579.22
488.92	10729.02
489.10	10906.90
489.28	10909.24
489.46	10991.16
489.64	11133.93
489.81	11293.08
489.99	11236.91
490.17	11218.19
490.35	11688.64
490.53	11445.22
490.70	11700.34
490.88	11557.57
491.06	11782.26
491.24	11543.52
491.41	11763.53
491.59	11826.73
491.77	11880.56
491.95	12255.04
492.13	12154.40
492.30	12341.64
492.48	12180.15
492.66	12292.49
492.84	12381.43
493.01	12163.76
493.19	12519.53
493.37	12449.31
493.54	12917.42
493.72	12894.01
493.90	12681.02
494.08	13046.15
494.25	13102.32
494.43	13095.30
494.61	13392.55
494.79	13109.34
494.96	13233.39
495.14	13205.30
495.32	13458.08
495.49	13584.47
495.67	13525.96
495.85	13661.71
496.02	13734.26
496.20	13743.63
496.38	13851.29
496.55	13949.59
496.73	14331.10
496.91	14139.18
497.09	14120.45
497.26	14413.02
497.44	14251.52
497.62	14174.28
497.79	14628.35
497.97	14527.71
498.14	14562.81
498.32	14684.52
498.50	14736.01
498.67	14960.70
498.85	14834.32
499.03	14827.29
499.20	15075.39
499.38	14822.61
499.56	14906.87
499.73	15386.68
499.91	15363.28
500.08	15620.74
500.26	15164.33
500.44	15440.51
500.61	15733.08
500.79	15550.52
500.97	15634.78
501.14	15756.49
501.32	15569.24
501.49	15854.79
501.67	16180.12
501.84	15632.44
502.02	15822.02
502.20	16039.69
502.37	16269.06
502.55	16004.58
502.72	16189.49
502.90	16184.80
503.07	16088.84
503.25	16248.00
503.43	16013.95
503.60	16430.56
503.78	16685.68
503.95	16166.08
504.13	16570.99
504.30	16531.20
504.48	16716.11
504.65	16875.26
504.83	17025.06
505.01	16870.58
505.18	17022.72
505.36	16741.85
505.53	16868.24
505.71	17202.94
505.88	17200.60
506.06	17085.91
506.23	17432.31
506.41	17092.93
506.58	17607.85
506.76	17193.58
506.93	17593.81
507.11	17341.03
507.28	17319.96
507.46	17415.93
507.63	17502.53
507.81	17736.58
507.98	17453.37
508.16	17701.47
508.33	17642.96
508.50	17855.95
508.68	17867.65
508.85	18160.22
509.03	18090.00
509.20	18349.80
509.38	18068.94
509.55	18338.10
509.73	18162.56
509.90	18539.38
510.08	18195.32
510.25	18583.85
510.42	18525.34
510.60	18836.63
510.77	18778.12
510.95	18640.03
511.12	18473.85
511.30	18682.16
511.47	18925.57
511.64	18616.62
511.82	19117.50
511.99	19063.66
512.17	19133.88
512.34	19094.09
512.51	19351.55
512.69	19056.64
512.86	19286.01
513.04	19601.99
513.21	19477.94
513.38	19583.26
513.56	19466.24
513.73	19400.70
513.90	19323.46
514.08	19454.53
514.25	19601.99
514.43	19604.33
514.60	19969.45
514.77	19576.24
514.95	19761.14
515.12	19442.83
515.29	19662.84
515.47	19946.05
515.64	19908.60
515.81	20009.24
515.99	20137.97
516.16	20470.33
516.33	20053.71
516.51	20336.91
516.68	19955.41
516.85	19917.96
517.03	20355.64
517.20	20379.04
517.37	20498.41
517.54	20135.63
517.72	20346.28
517.89	20657.57
518.06	20276.06
518.24	20372.02
518.41	20191.80
518.58	20790.98
518.75	20673.95
518.93	20943.11
519.10	20695.02
519.27	20748.85
519.45	20688.00
519.62	21298.88
519.79	21186.53
519.96	20819.07
520.14	21006.31
520.31	20924.39
520.48	21076.52
520.65	21041.42
520.83	21497.82
521.00	21331.64
521.17	21202.91
521.34	21418.24
521.52	21593.78
521.69	21315.26
521.86	21497.82
522.03	21928.48
522.20	21727.19
522.38	21348.03
522.55	21645.27
522.72	21671.02
522.89	21743.58
523.07	22106.36
523.24	22218.71
523.41	22553.40
523.58	22097.00
523.75	21900.39
523.92	21984.65
524.10	22239.77
524.27	22160.19
524.44	22288.92
524.61	22813.20
524.78	22628.30
524.96	22214.02
525.13	22281.90
525.30	22281.90
525.47	22314.67
525.64	22628.30
525.81	22728.94
525.98	22764.05
526.16	22586.17
526.33	22885.76
526.50	22693.83
526.67	22473.82
526.84	22616.60
527.01	22700.86
527.18	22920.87
527.36	22567.45
527.53	23016.83
527.70	23309.40
527.87	23293.01
528.04	23192.37
528.21	23159.60
528.38	22974.70
528.55	23372.59
528.72	23126.83
528.89	23538.77
529.07	23381.95
529.24	23166.62
529.41	23524.72
529.58	23344.50
529.75	23302.37
529.92	23527.06
530.09	23468.55
530.26	23293.01
530.43	23541.11
530.60	23215.77
530.77	23468.55
530.94	23403.02
531.11	23845.38
531.28	23410.04
531.46	23747.08
531.63	24063.05
531.80	23887.51
531.97	24025.60
532.14	24135.60
532.31	23885.17
532.48	24292.42
532.65	24156.67
532.82	23950.70
532.99	24102.84
533.16	24170.71
533.33	24175.39
533.50	24229.23
533.67	24589.67
533.84	24283.06
534.01	24407.11
534.18	24140.29
534.35	24510.09
534.52	24498.39
534.69	24561.58
534.86	24540.52
535.03	24247.95
535.20	24533.50
535.37	24716.06
535.54	24861.17
535.71	24458.60
535.88	24505.41
536.05	24781.59
536.22	24882.24
536.38	24739.46
536.55	25174.80
536.72	24957.13
536.89	25226.29
537.06	25003.94
537.23	24790.95
537.40	24774.57
537.57	24699.67
537.74	24907.98
537.91	25549.29
538.08	24844.79
538.25	25003.94
538.42	25275.45
538.59	25394.81
538.75	25010.96
538.92	25177.14
539.09	25216.93
539.26	25453.33
539.43	25390.13
539.60	25528.22
539.77	25259.06
539.94	25394.81
540.11	25076.50
540.28	25785.68
540.44	25303.53
540.61	25556.31
540.78	25254.38
540.95	25523.54
541.12	25476.73
541.29	25593.76
541.46	25853.56
541.62	25425.24
541.79	25713.13
541.96	25298.85
542.13	25788.02
542.30	25771.64
542.47	25972.92
542.63	25860.58
542.80	26380.18
542.97	26307.62
543.14	26171.87
543.31	26092.29
543.48	25734.19
543.64	26134.42
543.81	26389.54
543.98	26478.48
544.15	26471.46
544.32	26558.06
544.48	26710.19
544.65	26089.95
544.82	26434.01
544.99	26118.04
545.16	26572.10
545.32	26803.82
545.49	26682.11
545.66	26665.72
545.83	26848.29
546.00	26782.75
546.16	26576.78
546.33	26614.23
546.50	26607.21
546.67	26677.43
546.83	26595.51
547.00	26831.90
547.17	26647.00
547.34	26845.94
547.50	27075.32
547.67	27152.55
547.84	27049.57
548.00	27070.64
548.17	27182.98
548.34	27154.90
548.51	26850.63
548.67	27433.42
548.84	27278.94
549.01	27276.60
549.18	27110.43
549.34	27080.00
549.51	27449.80
549.68	27058.93
549.84	26916.16
550.01	27175.96
550.18	27243.84
550.34	27496.61
550.51	27627.68
550.68	27735.35
550.84	27030.85
551.01	27323.41
551.18	27529.38
551.34	27229.79
551.51	27388.95
551.68	27405.33
551.84	27370.22
552.01	27620.66
552.18	27690.88
552.34	27681.52
552.51	27789.18
552.68	27398.31
552.84	27882.80
553.01	27737.69
553.18	27332.78
553.34	28046.64
553.51	27737.69
553.67	27941.32
553.84	27662.79
554.01	27770.46
554.17	27534.06
554.34	28107.49
554.51	27660.45
554.67	28194.09
554.84	28196.43
555.00	27857.06
555.17	27927.27
555.33	28046.64
555.50	27709.60
555.67	28283.03
555.83	27791.52
556.00	28041.96
556.16	28219.84
556.33	28393.04
556.50	28084.09
556.66	28456.23
556.83	28449.21
556.99	28533.47
557.16	28280.69
557.32	28325.16
557.49	28591.98
557.65	28137.92
557.82	28409.42
557.98	28210.48
558.15	28327.50
558.32	28573.26
558.48	28643.48
558.65	28842.42
558.81	28444.53
558.98	28631.77
559.14	28561.56
559.31	28528.79
559.47	28283.03
559.64	28465.60
559.80	28622.41
559.97	28893.91
560.13	28582.62
560.30	28629.43
560.46	28755.82
560.63	28666.88
560.79	28697.31
560.96	28840.08
561.12	28643.48
561.29	28641.14
561.45	28734.76
561.61	28610.71
561.78	28690.29
561.94	28608.37
562.11	28760.50
562.27	28774.55
562.44	28746.46
562.60	28797.95
562.77	28751.14
562.93	28402.40
563.10	29137.33
563.26	28596.67
563.42	29149.03
563.59	28919.66
563.75	28966.47
563.92	28929.02
564.08	28903.28
564.24	29017.96
564.41	28811.99
564.57	29050.73
564.74	28924.34
564.90	29186.48
565.07	29132.65
565.23	29294.14
565.39	29174.78
565.56	29207.55
565.72	28996.90
565.88	29092.86
566.05	28931.36
566.21	28741.78
566.38	29165.42
566.54	29071.79
566.70	29818.42
566.87	29317.55
567.03	28978.17
567.19	29488.41
567.36	29256.70
567.52	28802.63
567.68	29207.55
567.85	28926.68
568.01	29425.22
568.17	28914.98
568.34	29184.14
568.50	29277.76
568.66	29036.69
568.83	29109.24
568.99	28952.43
569.15	29677.99
569.32	29319.89
569.48	29027.32
569.64	29799.70
569.81	29532.88
569.97	29139.67
570.13	29010.94
570.30	29209.89
570.46	29329.25
570.62	29759.91
570.78	29291.80
570.95	29032.00
571.11	29296.49
571.27	29179.46
571.43	29191.16
571.60	29472.03
571.76	29380.74
571.92	29397.13
572.09	29170.10
572.25	30167.16
572.41	29500.11
572.57	29362.02
572.74	29598.41
572.90	29453.30
573.06	29280.10
573.22	29553.94
573.38	29244.99
573.55	29118.60
573.71	29820.77
573.87	29570.33
574.03	29537.56
574.20	29619.48
574.36	29219.25
574.52	29525.86
574.68	29591.39
574.84	29387.77
575.01	29399.47
575.17	29759.91
575.33	29427.56
575.49	29759.91
575.65	29649.91
575.82	29743.53
575.98	29504.79
576.14	29638.20
576.30	29502.45
576.46	29467.34
576.62	29378.40
576.79	29687.36
576.95	29757.57
577.11	29933.11
577.27	29488.41
577.43	29661.61
577.59	29495.43
577.75	29713.10
577.92	29427.56
578.08	29378.40
578.24	29380.74
578.40	29366.70
578.56	29617.14
578.72	29776.30
578.88	29762.25
579.04	29790.34
579.21	29790.34
579.37	29769.27
579.53	29661.61
579.69	29724.80
579.85	29244.99
580.01	29771.61
580.17	29638.20
580.33	29677.99
580.49	29542.24
580.65	30052.48
580.82	29713.10
580.98	29762.25
581.14	29853.53
581.30	29647.57
581.46	29750.55
581.62	29680.33
581.78	29668.63
581.94	29481.39
582.10	29727.14
582.26	29436.92
582.42	29593.73
582.58	30183.55
582.74	29532.88
582.90	29483.73
583.06	29586.71
583.22	29811.40
583.38	30085.25
583.54	29186.48
583.70	29553.94
583.86	29898.00
584.02	29734.17
584.18	29830.13
584.34	29797.36
584.50	29811.40
584.66	29738.85
584.82	29596.07
584.98	29373.72
585.14	29827.79
585.30	29422.87
585.46	29596.07
585.62	29390.11
585.78	29727.14
585.94	29525.86
586.10	29631.18
586.26	29659.27
586.42	30127.38
586.58	29460.32
586.74	30029.07
586.90	29738.85
587.06	29635.86
587.22	29804.38
587.38	29685.01
587.54	29750.55
587.70	30171.85
587.86	30031.41
588.02	29928.43
588.18	30504.20
588.34	30206.95
588.49	29792.68
588.65	29738.85
588.81	29986.94
588.97	29764.59
589.13	29652.25
589.29	29668.63
589.45	30211.64
589.61	30305.26
589.77	30052.48
589.93	30256.11
590.08	29977.58
590.24	30272.49
590.40	30239.72
590.56	30195.25
590.72	29734.17
590.88	29586.71
591.04	30040.78
591.20	30335.68
591.35	30663.36
591.51	30314.62
591.67	30167.16
591.83	30253.76
591.99	30410.58
