SpectraSuite Data File
++++++++++++++++++++++++++++++++++++
Date: Fri Oct 18 13:58:22 GMT-05:00 2013
User: bianchi
Dark Spectrum Present: No
Reference Spectrum Present: No
Number of Sampled Component Spectra: 1
Spectrometers: USB2+H05261
Integration Time (usec): 50000 (USB2+H05261)
Spectra Averaged: 1 (USB2+H05261)
Boxcar Smoothing: 0 (USB2+H05261)
Correct for Electrical Dark: No (USB2+H05261)
Strobe/Lamp Enabled: No (USB2+H05261)
Correct for Detector Non-linearity: No (USB2+H05261)
Correct for Stray Light: No (USB2+H05261)
Number of Pixels in Processed Spectrum: 2048
>>>>>Begin Processed Spectral Data<<<<<
365.73	0.00
365.92	0.00
366.12	0.00
366.32	0.00
366.52	0.00
366.72	0.00
366.91	0.00
367.11	0.00
367.31	0.00
367.51	0.00
367.70	0.00
367.90	0.00
368.10	0.00
368.30	0.00
368.49	0.00
368.69	0.00
368.89	0.00
369.09	0.00
369.28	0.00
369.48	0.00
369.68	0.00
369.87	0.00
370.07	0.00
370.27	0.00
370.47	0.00
370.66	58.51
370.86	70.22
371.06	138.09
371.25	135.75
371.45	159.16
371.65	119.37
371.84	205.97
372.04	124.05
372.24	182.56
372.44	227.03
372.63	217.67
372.83	208.31
373.03	255.12
373.22	222.35
373.42	210.65
373.62	231.71
373.81	220.01
374.01	248.10
374.21	222.35
374.40	243.42
374.60	238.73
374.79	217.67
374.99	276.18
375.19	194.26
375.38	283.20
375.58	245.76
375.78	278.52
375.97	243.42
376.17	308.95
376.37	266.82
376.56	255.12
376.76	259.80
376.95	234.05
377.15	276.18
377.35	252.78
377.54	259.80
377.74	311.29
377.93	276.18
378.13	341.72
378.33	292.57
378.52	299.59
378.72	299.59
378.91	278.52
379.11	313.63
379.31	304.27
379.50	250.44
379.70	297.25
379.89	339.38
380.09	250.44
380.28	353.42
380.48	278.52
380.68	351.08
380.87	332.36
381.07	304.27
381.26	313.63
381.46	304.27
381.65	372.15
381.85	292.57
382.04	292.57
382.24	283.20
382.43	353.42
382.63	341.72
382.83	414.27
383.02	393.21
383.22	285.55
383.41	269.16
383.61	407.25
383.80	390.87
384.00	348.74
384.19	379.17
384.39	318.31
384.58	320.65
384.78	315.97
384.97	334.70
385.17	395.55
385.36	325.33
385.56	386.19
385.75	447.04
385.95	348.74
386.14	379.17
386.34	369.80
386.53	390.87
386.72	400.23
386.92	388.53
387.11	421.30
387.31	409.59
387.50	400.23
387.70	416.62
387.89	418.96
388.09	416.62
388.28	425.98
388.48	379.17
388.67	475.13
388.86	421.30
389.06	409.59
389.25	535.98
389.45	437.68
389.64	388.53
389.84	435.34
390.03	477.47
390.22	475.13
390.42	423.64
390.61	437.68
390.81	456.40
391.00	526.62
391.19	594.50
391.39	458.74
391.58	477.47
391.78	500.87
391.97	592.16
392.16	528.96
392.36	622.58
392.55	521.94
392.75	517.26
392.94	566.41
393.13	514.92
393.33	582.79
393.52	589.82
393.71	505.56
393.91	601.52
394.10	613.22
394.29	634.29
394.49	538.32
394.68	606.20
394.88	624.92
395.07	660.03
395.26	624.92
395.46	575.77
395.65	566.41
395.84	744.29
396.04	690.46
396.23	641.31
396.42	624.92
396.62	638.97
396.81	716.20
397.00	629.60
397.19	674.07
397.39	685.78
397.58	702.16
397.77	641.31
397.97	681.10
398.16	706.84
398.35	716.20
398.55	674.07
398.74	723.23
398.93	788.76
399.12	685.78
399.32	718.54
399.51	704.50
399.70	669.39
399.90	671.73
400.09	725.57
400.28	788.76
400.47	676.41
400.67	702.16
400.86	828.55
401.05	812.17
401.24	774.72
401.44	763.01
401.63	821.53
401.82	837.91
402.01	777.06
402.21	753.65
402.40	861.32
402.59	880.04
402.78	814.51
402.97	903.45
403.17	840.25
403.36	887.06
403.55	875.36
403.74	823.87
403.93	882.38
404.13	901.11
404.32	873.02
404.51	947.92
404.70	924.51
404.89	861.32
405.09	957.28
405.28	957.28
405.47	922.17
405.66	983.02
405.85	1008.77
406.05	903.45
406.24	828.55
406.43	999.41
406.62	1032.18
406.81	1057.92
407.00	987.71
407.20	1020.47
407.39	1060.26
407.58	1008.77
407.77	887.06
407.96	1006.43
408.15	1025.15
408.34	1086.01
408.54	983.02
408.73	1111.75
408.92	1086.01
409.11	1121.12
409.30	1074.31
409.49	1097.71
409.68	1057.92
409.87	1160.91
410.07	1160.91
410.26	1095.37
410.45	1198.35
410.64	1249.85
410.83	1205.38
411.02	1170.27
411.21	1177.29
411.40	1191.33
411.59	1165.59
411.78	1275.59
411.98	1268.57
412.17	1249.85
412.36	1324.74
412.55	1299.00
412.74	1252.19
412.93	1376.24
413.12	1343.47
413.31	1366.87
413.50	1310.70
413.69	1392.62
413.88	1369.21
414.07	1519.01
414.26	1430.07
414.45	1369.21
414.64	1467.52
414.83	1511.99
415.02	1511.99
415.22	1549.43
415.41	1551.78
415.60	1500.28
415.79	1514.33
415.98	1554.12
416.17	1582.20
416.36	1577.52
416.55	1582.20
416.74	1715.61
416.93	1640.72
417.12	1582.20
417.31	1713.27
417.50	1820.94
417.69	1750.72
417.88	1631.35
418.07	1746.04
418.26	1666.46
418.45	1781.15
418.64	1734.34
418.83	1729.66
419.02	1720.29
419.21	1729.66
419.39	1785.83
419.58	1774.13
419.77	1757.74
419.96	1783.49
420.15	1792.85
420.34	1846.68
420.53	1834.98
420.72	1834.98
420.91	1844.34
421.10	2017.54
421.29	1954.35
421.48	2029.24
421.67	1877.11
421.86	1898.17
422.05	1907.54
422.24	1952.01
422.43	2036.27
422.61	2054.99
422.80	2029.24
422.99	2031.58
423.18	1870.09
423.37	2036.27
423.56	1998.82
423.75	1970.73
423.94	2080.74
424.13	1802.21
424.32	1895.83
424.50	1947.33
424.69	2073.71
424.88	2052.65
425.07	2097.12
425.26	2003.50
425.45	2057.33
425.64	1940.30
425.83	1959.03
426.01	2005.84
426.20	1944.99
426.39	2129.89
426.58	2066.69
426.77	2127.55
426.96	2022.22
427.15	2113.50
427.33	2122.87
427.52	2080.74
427.71	2181.38
427.90	2122.87
428.09	2195.42
428.28	2228.19
428.46	2200.10
428.65	2246.91
428.84	2221.17
429.03	2249.25
429.22	2235.21
429.40	2186.06
429.59	2193.08
429.78	2155.63
429.97	2069.03
430.16	2312.45
430.34	2232.87
430.53	2331.17
430.72	2197.76
430.91	2277.34
431.10	2277.34
431.28	2340.54
431.47	2373.30
431.66	2338.20
431.85	2303.09
432.03	2356.92
432.22	2480.97
432.41	2417.77
432.60	2415.43
432.79	2328.83
432.97	2438.84
433.16	2450.54
433.35	2459.90
433.54	2380.32
433.72	2502.03
433.91	2597.99
434.10	2530.12
434.28	2340.54
434.47	2555.86
434.66	2588.63
434.85	2490.33
435.03	2548.84
435.22	2560.55
435.41	2677.57
435.59	2663.53
435.78	2534.80
435.97	2633.10
436.16	2574.59
436.34	2576.93
436.53	2647.15
436.72	2656.51
436.90	2581.61
437.09	2623.74
437.28	2658.85
437.46	2705.66
437.65	2658.85
437.84	2665.87
438.02	2733.75
438.21	2862.48
438.40	2658.85
438.58	2857.79
438.77	2850.77
438.96	2829.71
439.14	2892.90
439.33	2881.20
439.52	3052.06
439.70	2918.65
439.89	3014.61
440.08	2895.24
440.26	3054.40
440.45	2935.03
440.63	3190.15
440.82	3030.99
441.01	3190.15
441.19	3007.59
441.38	3164.40
441.57	3204.19
441.75	3073.12
441.94	3248.66
442.12	3169.09
442.31	3300.16
442.50	3206.53
442.68	3314.20
442.87	3288.45
443.05	3288.45
443.24	3328.24
443.43	3365.69
443.61	3321.22
443.80	3524.85
443.98	3379.73
444.17	3283.77
444.35	3351.65
444.54	3426.54
444.73	3311.86
444.91	3393.78
445.10	3323.56
445.28	3297.81
445.47	3314.20
445.65	3412.50
445.84	3426.54
446.02	3412.50
446.21	3323.56
446.39	3258.03
446.58	3473.36
446.77	3536.55
446.95	3410.16
447.14	3520.17
447.32	3555.27
447.51	3555.27
447.69	3407.82
447.88	3543.57
448.06	3548.25
448.25	3487.40
448.43	3625.49
448.62	3499.10
448.80	3417.18
448.99	3475.70
449.17	3578.68
449.36	3496.76
449.54	3616.13
449.73	3637.19
449.91	3782.31
450.10	3669.96
450.28	3737.84
450.46	3744.86
450.65	3651.24
450.83	3599.74
451.02	3749.54
451.20	3709.75
451.39	3805.71
451.57	3730.81
451.76	3786.99
451.94	3693.37
452.13	3829.12
452.31	3866.56
452.49	3784.65
452.68	3782.31
452.86	3660.60
453.05	3908.69
453.23	3911.04
453.42	3726.13
453.60	3896.99
453.78	3852.52
453.97	3990.61
454.15	3885.29
454.34	4009.34
454.52	4084.23
454.70	3953.16
454.89	3939.12
455.07	4114.66
455.26	4060.83
455.44	4093.60
455.62	4077.21
455.81	4098.28
455.99	4107.64
456.17	4105.30
456.36	4196.58
456.54	4163.81
456.73	4208.28
456.91	4070.19
457.09	4292.54
457.28	4393.19
457.46	4175.52
457.64	4430.63
457.83	4454.04
458.01	4337.01
458.19	4430.63
458.38	4341.69
458.56	4414.25
458.74	4421.27
458.93	4531.28
459.11	4409.57
459.29	4409.57
459.48	4477.44
459.66	4484.47
459.84	4381.48
460.03	4442.34
460.21	4456.38
460.39	4498.51
460.57	4512.55
460.76	4564.04
460.94	4636.60
461.12	4594.47
461.31	4627.24
461.49	4561.70
461.67	4423.61
461.85	4615.54
462.04	4685.75
462.22	4849.59
462.40	4669.37
462.59	4858.95
462.77	4608.51
462.95	4648.30
463.13	4765.33
463.32	4807.46
463.50	4741.93
463.68	4755.97
463.86	4767.67
464.05	4877.68
464.23	4744.27
464.41	4889.38
464.59	4767.67
464.78	4882.36
464.96	4992.36
465.14	4802.78
465.32	4873.00
465.50	4868.31
465.69	4968.96
465.87	4919.81
466.05	4816.82
466.23	4968.96
466.41	4992.36
466.60	5142.16
466.78	4994.70
466.96	4964.28
467.14	4922.15
467.32	5331.74
467.51	5186.63
467.69	5029.81
467.87	5107.05
468.05	5221.74
468.23	5170.24
468.41	5004.07
468.60	5256.84
468.78	5277.91
468.96	5170.24
469.14	5102.37
469.32	5226.42
469.50	5207.69
469.69	5322.38
469.87	5256.84
470.05	5317.70
470.23	5380.89
470.41	5439.40
470.59	5563.45
470.77	5418.34
470.95	5376.21
471.14	5603.24
471.32	5355.15
471.50	5598.56
471.68	5481.53
471.86	5661.76
472.04	5668.78
472.22	5715.59
472.40	5689.84
472.58	5802.19
472.77	5750.70
472.95	5715.59
473.13	6047.94
473.31	5673.46
473.49	5736.65
473.67	5767.08
473.85	5598.56
474.03	5841.98
474.21	6104.12
474.39	6174.33
474.57	6024.54
474.75	6073.69
474.93	6200.08
475.12	6045.60
475.30	6221.14
475.48	6169.65
475.66	6033.90
475.84	6157.95
476.02	6195.40
476.20	6424.77
476.38	6413.07
476.56	6413.07
476.74	6633.08
476.92	6448.18
477.10	6509.03
477.28	6588.61
477.46	6651.80
477.64	6558.18
477.82	6600.31
478.00	6775.85
478.18	6869.47
478.36	6836.70
478.54	6899.90
478.72	6993.52
478.90	6965.43
479.08	7094.16
479.26	7131.61
479.44	7349.28
479.62	7370.35
479.80	7349.28
479.98	7276.73
480.16	7611.42
480.34	7435.88
480.52	7522.48
480.70	7590.36
480.88	7447.58
481.06	7506.10
481.24	7756.54
481.41	7524.82
481.59	7918.03
481.77	7899.31
481.95	7953.14
482.13	7978.89
482.31	8023.36
482.49	8271.45
482.67	7981.23
482.85	8327.63
483.03	8444.65
483.21	8374.44
483.39	8386.14
483.57	8552.32
483.74	8514.87
483.92	8608.49
484.10	8395.50
484.28	8896.38
484.46	9210.01
484.64	9043.83
484.82	8748.92
485.00	9149.15
485.18	9060.21
485.35	9153.84
485.53	9214.69
485.71	9390.23
485.89	9542.36
486.07	9570.45
486.25	9376.19
486.43	9551.73
486.61	9589.17
486.78	9722.59
486.96	9685.14
487.14	9919.19
487.32	10010.47
487.50	9879.40
487.68	10253.89
487.85	10193.03
488.03	10544.11
488.21	10335.81
488.39	10588.58
488.57	10679.86
488.75	10609.65
488.92	10668.16
489.10	10867.11
489.28	10846.04
489.46	11042.65
489.64	10822.64
489.81	11101.16
489.99	11119.89
490.17	11059.03
490.35	11328.19
490.53	11351.60
490.70	11492.03
490.88	11527.14
491.06	11765.87
491.24	11562.25
491.41	11763.53
491.59	11714.38
491.77	11953.12
491.95	12049.08
492.13	11857.15
492.30	11906.31
492.48	12114.61
492.66	12018.65
492.84	12315.90
493.01	12395.48
493.19	12435.27
493.37	12418.88
493.54	12685.70
493.72	12540.59
493.90	12748.90
494.08	12762.94
494.25	12875.29
494.43	13006.36
494.61	13053.17
494.79	13336.37
494.96	13149.13
495.14	13352.76
495.32	13523.62
495.49	13645.32
495.67	13399.57
495.85	13521.27
496.02	13844.27
496.20	13881.72
496.38	13830.23
496.55	13860.65
496.73	14146.20
496.91	13956.61
497.09	14207.05
497.26	14242.16
497.44	14068.96
497.62	14195.35
497.79	14431.74
497.97	14338.12
498.14	14768.78
498.32	14471.53
498.50	14806.23
498.67	14817.93
498.85	14740.69
499.03	14773.46
499.20	14967.73
499.38	14834.32
499.56	15059.01
499.73	15110.50
499.91	15122.20
500.08	15407.75
500.26	15000.49
500.44	15164.33
500.61	15431.15
500.79	15206.46
500.97	15587.97
501.14	15791.59
501.32	15623.08
501.49	15585.63
501.67	15499.03
501.84	15604.35
502.02	15700.31
502.20	15903.94
502.37	16262.04
502.55	15932.03
502.72	15824.36
502.90	16063.10
503.07	15934.37
503.25	16170.76
503.43	16175.44
503.60	16430.56
503.78	16231.62
503.95	16280.77
504.13	16788.66
504.30	16549.93
504.48	16240.98
504.65	16643.55
504.83	16601.42
505.01	16849.52
505.18	16741.85
505.36	16877.60
505.53	17032.08
505.71	17198.26
505.88	17020.38
506.06	17097.61
506.23	17502.53
506.41	17130.38
506.58	17357.41
506.76	17132.72
506.93	17090.59
507.11	17240.39
507.28	17212.30
507.46	17315.28
507.63	17504.87
507.81	17579.76
507.98	17589.13
508.16	17605.51
508.33	17696.79
508.50	17930.84
508.68	17916.80
508.85	18150.85
509.03	17977.65
509.20	18251.50
509.38	18200.01
509.55	18338.10
509.73	18200.01
509.90	17893.40
510.08	18200.01
510.25	18230.43
510.42	18455.12
510.60	18331.08
510.77	18396.61
510.95	18546.40
511.12	18609.60
511.30	18623.64
511.47	18855.36
511.64	18946.64
511.82	19276.65
511.99	18803.86
512.17	18455.12
512.34	18822.59
512.51	18815.57
512.69	18993.45
512.86	18710.24
513.04	19241.54
513.21	19159.63
513.38	19033.24
513.56	19225.16
513.73	19358.57
513.90	18993.45
514.08	19318.78
514.25	19187.71
514.43	19625.39
514.60	19644.12
514.77	19791.57
514.95	19747.10
515.12	19524.75
515.29	19637.09
515.47	19555.18
515.64	19971.79
515.81	19800.93
515.99	20102.86
516.16	20156.69
516.33	20184.78
516.51	20215.21
516.68	19880.51
516.85	19924.98
517.03	20409.47
517.20	20435.22
517.37	20212.87
517.54	20203.50
517.72	20421.17
517.89	20278.40
518.06	20561.61
518.24	20615.44
518.41	20283.08
518.58	20477.35
518.75	20718.42
518.93	20851.83
519.10	20842.47
519.27	20863.54
519.45	20753.53
519.62	20517.14
519.79	20872.90
519.96	20917.37
520.14	21116.31
520.31	21125.68
520.48	21163.12
520.65	21092.91
520.83	21357.39
521.00	21202.91
521.17	21408.88
521.34	21207.59
521.52	21310.58
521.69	21530.59
521.86	21462.71
522.03	21469.73
522.20	21671.02
522.38	21944.86
522.55	21579.74
522.72	21673.36
522.89	21832.52
523.07	22029.12
523.24	21846.56
523.41	21820.81
523.58	22106.36
523.75	21825.50
523.92	21617.19
524.10	21729.53
524.27	22143.81
524.44	22197.64
524.61	22274.88
524.78	22228.07
524.96	22005.72
525.13	22260.84
525.30	22314.67
525.47	22530.00
525.64	22221.05
525.81	22492.55
525.98	22640.00
526.16	22553.40
526.33	22567.45
526.50	22806.18
526.67	22782.77
526.84	22560.42
527.01	22782.77
527.18	22651.70
527.36	22899.80
527.53	22927.89
527.70	22874.06
527.87	23206.41
528.04	22752.35
528.21	22864.69
528.38	22857.67
528.55	23175.98
528.72	23150.24
528.89	23042.57
529.07	23229.82
529.24	22995.76
529.41	23517.70
529.58	23260.24
529.75	23515.36
529.92	23445.15
530.09	23367.91
530.26	23592.60
530.43	23459.19
530.60	23211.09
530.77	23051.94
530.94	23580.90
531.11	23482.59
531.28	23765.80
531.46	23496.64
531.63	23779.84
531.80	23702.61
531.97	23931.98
532.14	23885.17
532.31	23796.23
532.48	24156.67
532.65	24025.60
532.82	23716.65
532.99	23857.08
533.16	23674.52
533.33	23997.51
533.50	23924.96
533.67	24233.91
533.84	23854.74
534.01	23901.55
534.18	24051.34
534.35	24577.97
534.52	24203.48
534.69	24711.38
534.86	24655.20
535.03	24336.89
535.20	24325.19
535.37	24577.97
535.54	24599.03
535.71	24285.40
535.88	24374.34
536.05	24493.71
536.22	24678.61
536.38	24793.29
536.55	24966.49
536.72	24812.02
536.89	24561.58
537.06	24631.80
537.23	25001.60
537.40	24788.61
537.57	24797.98
537.74	24863.51
537.91	24938.41
538.08	25195.87
538.25	25111.61
538.42	25053.09
538.59	24996.92
538.75	25048.41
538.92	24910.32
539.09	25385.45
539.26	25352.68
539.43	25331.62
539.60	25017.99
539.77	25348.00
539.94	25626.53
540.11	25333.96
540.28	25221.61
540.44	25050.75
540.61	25174.80
540.78	25331.62
540.95	25338.64
541.12	25724.83
541.29	25706.10
541.46	25528.22
541.62	25619.50
541.79	25682.70
541.96	25455.67
542.13	25940.16
542.30	25984.63
542.47	25879.30
542.63	25895.69
542.80	25640.57
542.97	26096.97
543.14	26174.21
543.31	25991.65
543.48	26033.78
543.64	26249.11
543.81	26354.43
543.98	26529.97
544.15	26513.59
544.32	26637.64
544.48	26307.62
544.65	26022.08
544.82	26321.66
544.99	25891.01
545.16	26153.15
545.32	26326.35
545.49	26864.67
545.66	26548.70
545.83	26368.48
546.00	26806.16
546.16	26354.43
546.33	26164.85
546.50	26101.65
546.67	26272.51
546.83	26565.08
547.00	26789.77
547.17	26607.21
547.34	26654.02
547.50	26988.72
547.67	27094.04
547.84	26808.50
548.00	26548.70
548.17	27037.87
548.34	26536.99
548.51	26878.71
548.67	26925.52
548.84	26848.29
549.01	27049.57
549.18	26916.16
549.34	26920.84
549.51	27110.43
549.68	26995.74
549.84	27058.93
550.01	26855.31
550.18	26740.62
550.34	26960.63
550.51	27222.77
550.68	27030.85
550.84	27084.68
551.01	27489.59
551.18	27152.55
551.34	27124.47
551.51	27056.59
551.68	27204.05
551.84	27688.54
552.01	27697.90
552.18	27520.02
552.34	27531.72
552.51	27604.28
552.68	27318.73
552.84	27084.68
553.01	27728.33
553.18	27611.30
553.34	28030.26
553.51	27601.94
553.67	27716.62
553.84	27793.86
554.01	27662.79
554.17	27765.78
554.34	27573.85
554.51	27873.44
554.67	27758.75
554.84	28048.98
555.00	27440.44
555.17	27704.92
555.33	27793.86
555.50	27681.52
555.67	27896.85
555.83	28236.22
556.00	27711.94
556.16	27901.53
556.33	28018.55
556.50	27889.82
556.66	27807.90
556.83	28016.21
556.99	28100.47
557.16	28261.97
557.32	27962.38
557.49	28474.96
557.65	27782.16
557.82	27864.08
557.98	28238.56
558.15	28599.01
558.32	28343.89
558.48	28287.71
558.65	28435.17
558.81	27992.81
558.98	28371.97
559.14	28128.56
559.31	28039.62
559.47	27847.69
559.64	28329.84
559.80	28393.04
559.97	28334.53
560.13	28486.66
560.30	28432.83
560.46	28746.46
560.63	28435.17
560.79	28313.46
560.96	28926.68
561.12	28472.62
561.29	28327.50
561.45	28559.22
561.61	28596.67
561.78	28699.65
561.94	28437.51
562.11	28762.84
562.27	28711.35
562.44	28563.90
562.60	28512.41
562.77	28650.50
562.93	28034.94
563.10	28917.32
563.26	28519.43
563.42	28978.17
563.59	28666.88
563.75	28615.39
563.92	28744.12
564.08	28608.37
564.24	28865.83
564.41	28912.64
564.57	28690.29
564.74	28790.93
564.90	28816.68
565.07	28922.00
565.23	29137.33
565.39	29165.42
565.56	29315.21
565.72	28865.83
565.88	28786.25
566.05	28589.64
566.21	28898.59
566.38	28823.70
566.54	28627.09
566.70	29088.18
566.87	29322.23
567.03	29039.03
567.19	29446.28
567.36	29198.18
567.52	28699.65
567.68	29191.16
567.85	28929.02
568.01	28723.05
568.17	29003.92
568.34	29261.38
568.50	28723.05
568.66	28725.39
568.83	29535.22
568.99	29366.70
569.15	29287.12
569.32	28924.34
569.48	28692.63
569.64	29249.67
569.81	28875.19
569.97	28987.53
570.13	29776.30
570.30	29212.23
570.46	29076.48
570.62	29460.32
570.78	28994.56
570.95	28980.51
571.11	29427.56
571.27	28549.85
571.43	29069.45
571.60	29488.41
571.76	29448.62
571.92	29392.45
572.09	29443.94
572.25	29228.61
572.41	29333.93
572.57	29385.43
572.74	29352.66
572.90	28844.76
573.06	29195.84
573.22	29762.25
573.38	29392.45
573.55	29586.71
573.71	29340.96
573.87	29413.51
574.03	29493.09
574.20	29324.57
574.36	29149.03
574.52	29376.06
574.68	29490.75
574.84	29352.66
575.01	29390.11
575.17	29226.27
575.33	29163.08
575.49	29729.48
575.65	29551.60
575.82	29422.87
575.98	29631.18
576.14	29219.25
576.30	29476.71
576.46	29666.29
576.62	29235.63
576.79	29593.73
576.95	29476.71
577.11	29766.93
577.27	29734.17
577.43	29542.24
577.59	29523.52
577.75	29362.02
577.92	29319.89
578.08	29457.98
578.24	29294.14
578.40	29371.38
578.56	29610.12
578.72	29848.85
578.88	30022.05
579.04	29750.55
579.21	29467.34
579.37	29694.38
579.53	29748.21
579.69	29188.82
579.85	29111.58
580.01	29614.80
580.17	29380.74
580.33	29352.66
580.49	29619.48
580.65	29184.14
580.82	29717.78
580.98	29762.25
581.14	29858.21
581.30	29577.35
581.46	29434.58
581.62	29500.11
581.78	29235.63
581.94	29324.57
582.10	29303.51
582.26	29839.49
582.42	29621.82
582.58	29167.76
582.74	29228.61
582.90	29855.87
583.06	29830.13
583.22	29525.86
583.38	29628.84
583.54	29724.80
583.70	29572.67
583.86	29900.34
584.02	29308.19
584.18	29766.93
584.34	29912.05
584.50	29640.54
584.66	29951.84
584.82	29425.22
584.98	29610.12
585.14	29347.98
585.30	29448.62
585.46	29731.83
585.62	29539.90
585.78	29603.10
585.94	29282.44
586.10	29647.57
586.26	29717.78
586.42	29900.34
586.58	29638.20
586.74	29507.13
586.90	29230.95
587.06	29385.43
587.22	29645.23
587.38	29577.35
587.54	29467.34
587.70	29701.40
587.86	29879.28
588.02	29881.62
588.18	29975.24
588.34	29628.84
588.49	29961.20
588.65	29465.00
588.81	29537.56
588.97	29745.87
589.13	29867.58
589.29	29413.51
589.45	29888.64
589.61	29912.05
589.77	30050.14
589.93	30008.01
590.08	30129.72
590.24	29970.56
590.40	30295.89
590.56	29516.50
590.72	30132.06
590.88	29759.91
591.04	29652.25
591.20	30436.33
591.35	30162.48
591.51	30223.34
591.67	30190.57
591.83	30380.15
591.99	29780.98
