SpectraSuite Data File
++++++++++++++++++++++++++++++++++++
Date: Fri Oct 18 13:58:37 GMT-05:00 2013
User: bianchi
Dark Spectrum Present: No
Reference Spectrum Present: No
Number of Sampled Component Spectra: 1
Spectrometers: USB2+H05261
Integration Time (usec): 50000 (USB2+H05261)
Spectra Averaged: 1 (USB2+H05261)
Boxcar Smoothing: 0 (USB2+H05261)
Correct for Electrical Dark: No (USB2+H05261)
Strobe/Lamp Enabled: No (USB2+H05261)
Correct for Detector Non-linearity: No (USB2+H05261)
Correct for Stray Light: No (USB2+H05261)
Number of Pixels in Processed Spectrum: 2048
>>>>>Begin Processed Spectral Data<<<<<
365.73	0.00
365.92	0.00
366.12	0.00
366.32	0.00
366.52	0.00
366.72	0.00
366.91	0.00
367.11	0.00
367.31	0.00
367.51	0.00
367.70	0.00
367.90	0.00
368.10	0.00
368.30	0.00
368.49	0.00
368.69	0.00
368.89	0.00
369.09	0.00
369.28	0.00
369.48	0.00
369.68	0.00
369.87	0.00
370.07	0.00
370.27	0.00
370.47	0.00
370.66	35.11
370.86	121.71
371.06	196.60
371.25	133.41
371.45	93.62
371.65	147.45
371.84	142.77
372.04	152.13
372.24	173.20
372.44	114.69
372.63	93.62
372.83	205.97
373.03	152.13
373.22	177.88
373.42	208.31
373.62	222.35
373.81	194.26
374.01	276.18
374.21	259.80
374.40	250.44
374.60	227.03
374.79	231.71
374.99	203.63
375.19	252.78
375.38	311.29
375.58	269.16
375.78	262.14
375.97	304.27
376.17	306.61
376.37	280.86
376.56	259.80
376.76	196.60
376.95	234.05
377.15	276.18
377.35	315.97
377.54	297.25
377.74	245.76
377.93	292.57
378.13	231.71
378.33	334.70
378.52	231.71
378.72	290.23
378.91	301.93
379.11	250.44
379.31	255.12
379.50	177.88
379.70	269.16
379.89	369.80
380.09	332.36
380.28	325.33
380.48	322.99
380.68	299.59
380.87	322.99
381.07	222.35
381.26	264.48
381.46	322.99
381.65	325.33
381.85	318.31
382.04	257.46
382.24	262.14
382.43	306.61
382.63	285.55
382.83	306.61
383.02	304.27
383.22	339.38
383.41	379.17
383.61	388.53
383.80	400.23
384.00	386.19
384.19	327.68
384.39	402.57
384.58	388.53
384.78	423.64
384.97	332.36
385.17	407.25
385.36	395.55
385.56	358.10
385.75	341.72
385.95	451.72
386.14	409.59
386.34	337.04
386.53	400.23
386.72	327.68
386.92	411.93
387.11	463.43
387.31	442.36
387.50	416.62
387.70	355.76
387.89	383.85
388.09	449.38
388.28	381.51
388.48	395.55
388.67	521.94
388.86	435.34
389.06	538.32
389.25	409.59
389.45	484.49
389.64	545.34
389.84	603.86
390.03	465.77
390.22	500.87
390.42	566.41
390.61	505.56
390.81	519.60
391.00	514.92
391.19	423.64
391.39	540.66
391.58	531.30
391.78	526.62
391.97	458.74
392.16	528.96
392.36	557.05
392.55	475.13
392.75	491.51
392.94	503.22
393.13	613.22
393.33	535.98
393.52	554.71
393.71	526.62
393.91	629.60
394.10	561.73
394.29	557.05
394.49	486.83
394.68	580.45
394.88	587.47
395.07	627.26
395.26	531.30
395.46	587.47
395.65	695.14
395.84	657.69
396.04	667.05
396.23	580.45
396.42	617.90
396.62	636.63
396.81	716.20
397.00	681.10
397.19	627.26
397.39	671.73
397.58	629.60
397.77	674.07
397.97	610.88
398.16	580.45
398.35	805.14
398.55	741.95
398.74	603.86
398.93	748.97
399.12	664.71
399.32	758.33
399.51	711.52
399.70	725.57
399.90	725.57
400.09	737.27
400.28	746.63
400.47	793.44
400.67	737.27
400.86	826.21
401.05	734.93
401.24	720.88
401.44	809.83
401.63	910.47
401.82	746.63
402.01	751.31
402.21	805.14
402.40	793.44
402.59	844.93
402.78	779.40
402.97	802.80
403.17	814.51
403.36	809.83
403.55	805.14
403.74	891.74
403.93	837.91
404.13	889.40
404.32	814.51
404.51	861.32
404.70	943.24
404.89	884.72
405.09	936.21
405.28	964.30
405.47	1027.50
405.66	987.71
405.85	1018.13
406.05	851.96
406.24	889.40
406.43	1004.09
406.62	997.07
406.81	1074.31
407.00	1041.54
407.20	968.98
407.39	1008.77
407.58	1086.01
407.77	1050.90
407.96	1132.82
408.15	1071.97
408.34	1025.15
408.54	1121.12
408.73	1036.86
408.92	1114.10
409.11	1062.60
409.30	1118.78
409.49	1090.69
409.68	1144.52
409.87	1111.75
410.07	1135.16
410.26	1170.27
410.45	1224.10
410.64	1146.86
410.83	1090.69
411.02	1207.72
411.21	1186.65
411.40	1219.42
411.59	1219.42
411.78	1217.08
411.98	1280.27
412.17	1334.11
412.36	1338.79
412.55	1294.32
412.74	1196.01
412.93	1385.60
413.12	1315.38
413.31	1437.09
413.50	1390.28
413.69	1362.19
413.88	1439.43
414.07	1437.09
414.26	1486.24
414.45	1371.55
414.64	1572.84
414.83	1551.78
415.02	1519.01
415.22	1540.07
415.41	1530.71
415.60	1540.07
415.79	1563.48
415.98	1598.59
416.17	1582.20
416.36	1535.39
416.55	1549.43
416.74	1631.35
416.93	1652.42
417.12	1614.97
417.31	1647.74
417.50	1659.44
417.69	1804.55
417.88	1729.66
418.07	1750.72
418.26	1703.91
418.45	1767.10
418.64	1776.47
418.83	1790.51
419.02	1774.13
419.21	1797.53
419.39	1734.34
419.58	1710.93
419.77	1923.92
419.96	1820.94
420.15	1834.98
420.34	1881.79
420.53	1842.00
420.72	1879.45
420.91	1935.62
421.10	1987.11
421.29	1980.09
421.48	1928.60
421.67	1961.37
421.86	1825.62
422.05	1940.30
422.24	1970.73
422.43	1966.05
422.61	1914.56
422.80	1968.39
422.99	2026.90
423.18	1996.48
423.37	1954.35
423.56	1998.82
423.75	2045.63
423.94	1860.73
424.13	1853.70
424.32	1893.49
424.50	1980.09
424.69	2066.69
424.88	2054.99
425.07	1923.92
425.26	2052.65
425.45	2040.95
425.64	1973.07
425.83	1966.05
426.01	2111.16
426.20	2076.06
426.39	2132.23
426.58	2001.16
426.77	2040.95
426.96	2120.53
427.15	2099.46
427.33	2127.55
427.52	2120.53
427.71	2169.68
427.90	2092.44
428.09	2246.91
428.28	2162.66
428.46	2087.76
428.65	2239.89
428.84	2214.15
429.03	2270.32
429.22	2104.14
429.40	2277.34
429.59	2174.36
429.78	2132.23
429.97	2115.84
430.16	2167.34
430.34	2354.58
430.53	2279.68
430.72	2298.41
430.91	2293.72
431.10	2363.94
431.28	2289.04
431.47	2361.60
431.66	2349.90
431.85	2265.64
432.03	2457.56
432.22	2424.80
432.41	2328.83
432.60	2410.75
432.79	2396.71
432.97	2401.39
433.16	2385.01
433.35	2534.80
433.54	2525.44
433.72	2537.14
433.91	2452.88
434.10	2352.24
434.28	2499.69
434.47	2490.33
434.66	2459.90
434.85	2651.83
435.03	2532.46
435.22	2672.89
435.41	2682.25
435.59	2525.44
435.78	2588.63
435.97	2663.53
436.16	2665.87
436.34	2562.89
436.53	2623.74
436.72	2857.79
436.90	2581.61
437.09	2780.56
437.28	2579.27
437.46	2626.08
437.65	2803.96
437.84	2722.04
438.02	2796.94
438.21	2759.49
438.40	2684.59
438.58	2778.22
438.77	2724.38
438.96	2888.22
439.14	2785.24
439.33	2857.79
439.52	3000.57
439.70	3009.93
439.89	3028.65
440.08	2904.60
440.26	3014.61
440.45	3091.85
440.63	3007.59
440.82	3103.55
441.01	3197.17
441.19	3094.19
441.38	3117.59
441.57	3166.74
441.75	3307.18
441.94	3241.64
442.12	3288.45
442.31	3293.13
442.50	3318.88
442.68	3375.05
442.87	3393.78
443.05	3389.10
443.24	3346.97
443.43	3328.24
443.61	3344.63
443.80	3428.88
443.98	3335.26
444.17	3323.56
444.35	3445.27
444.54	3522.51
444.73	3314.20
444.91	3449.95
445.10	3370.37
445.28	3449.95
445.47	3344.63
445.65	3400.80
445.84	3400.80
446.02	3463.99
446.21	3391.44
446.39	3353.99
446.58	3597.40
446.77	3372.71
446.95	3492.08
447.14	3611.45
447.32	3623.15
447.51	3548.25
447.69	3361.01
447.88	3552.93
448.06	3447.61
448.25	3471.01
448.43	3623.15
448.62	3449.95
448.80	3431.23
448.99	3480.38
449.17	3604.42
449.36	3592.72
449.54	3597.40
449.73	3620.81
449.91	3641.87
450.10	3702.73
450.28	3819.75
450.46	3763.58
450.65	3684.00
450.83	3742.52
451.02	3826.78
451.20	3777.62
451.39	3735.50
451.57	3765.92
451.76	3726.13
451.94	3932.10
452.13	3868.91
452.31	3904.01
452.49	3658.26
452.68	3836.14
452.86	3812.73
453.05	3772.94
453.23	3873.59
453.42	3786.99
453.60	3992.95
453.78	4037.42
453.97	3985.93
454.15	3922.74
454.34	3868.91
454.52	3915.72
454.70	3955.51
454.89	3957.85
455.07	3927.42
455.26	4060.83
455.44	4037.42
455.62	3992.95
455.81	4086.58
455.99	4046.79
456.17	4112.32
456.36	4238.71
456.54	4184.88
456.73	4292.54
456.91	4189.56
457.09	4383.82
457.28	4437.66
457.46	4369.78
457.64	4353.40
457.83	4201.26
458.01	4138.07
458.19	4402.55
458.38	4355.74
458.56	4369.78
458.74	4360.42
458.93	4404.89
459.11	4325.31
459.29	4409.57
459.48	4547.66
459.66	4479.79
459.84	4725.54
460.03	4608.51
460.21	4400.21
460.39	4554.68
460.57	4472.76
460.76	4585.11
460.94	4636.60
461.12	4741.93
461.31	4542.98
461.49	4615.54
461.67	4578.09
461.85	4739.58
462.04	4580.43
462.22	4917.47
462.40	4720.86
462.59	4578.09
462.77	4699.80
462.95	4786.40
463.13	4702.14
463.32	4856.61
463.50	4844.91
463.68	4973.64
463.86	4690.43
464.05	4865.97
464.23	4751.29
464.41	4812.14
464.59	4732.56
464.78	4915.12
464.96	5006.41
465.14	4812.14
465.32	4959.60
465.50	5055.56
465.69	5057.90
465.87	5046.20
466.05	4933.85
466.23	4975.98
466.41	5132.79
466.60	5207.69
466.78	5100.03
466.96	5036.83
467.14	5170.24
467.32	5053.22
467.51	5132.79
467.69	4990.02
467.87	5167.90
468.05	5123.43
468.23	4940.87
468.41	5130.45
468.60	5207.69
468.78	5327.06
468.96	5104.71
469.14	5345.78
469.32	5413.66
469.50	5163.22
469.69	5439.40
469.87	5387.91
470.05	5502.60
470.23	5352.81
470.41	5380.89
470.59	5530.69
470.77	5392.59
470.95	5612.60
471.14	5533.03
471.32	5343.44
471.50	5518.98
471.68	5561.11
471.86	5788.14
472.04	5509.62
472.22	5764.74
472.40	5640.69
472.58	5619.63
472.77	5746.02
472.95	5736.65
473.13	5989.43
473.31	5750.70
473.49	5851.34
473.67	5694.52
473.85	5874.74
474.03	5954.32
474.21	6127.52
474.39	5886.45
474.57	6153.27
474.75	6232.85
474.93	6179.01
475.12	6176.67
475.30	6136.88
475.48	6099.44
475.66	6108.80
475.84	6258.59
476.02	6148.59
476.20	6305.40
476.38	6394.34
476.56	6455.20
476.74	6448.18
476.92	6452.86
477.10	6579.25
477.28	6579.25
477.46	6604.99
477.64	6623.72
477.82	6698.61
478.00	6909.26
478.18	7012.24
478.36	7037.99
478.54	6918.62
478.72	7080.12
478.90	7066.08
479.08	7218.21
479.26	7316.51
479.44	7150.34
479.62	7283.75
479.80	7407.80
479.98	7419.50
480.16	7595.04
480.34	7595.04
480.52	7473.33
480.70	7772.92
480.88	7681.64
481.06	7691.00
481.24	7585.68
481.41	7906.33
481.59	7726.11
481.77	7829.09
481.95	7971.86
482.13	8051.44
482.31	8112.30
482.49	8416.57
482.67	8159.11
482.85	8451.67
483.03	8397.84
483.21	8542.96
483.39	8519.55
483.57	8636.58
483.74	8760.63
483.92	8758.28
484.10	8596.79
484.28	8924.46
484.46	9053.19
484.64	9100.00
484.82	8959.57
485.00	9287.25
485.18	9242.78
485.35	9568.11
485.53	9455.76
485.71	9369.16
485.89	9554.07
486.07	9469.81
486.25	9350.44
486.43	9820.89
486.61	9713.22
486.78	9963.66
486.96	9846.63
487.14	9926.21
487.32	10211.76
487.50	9951.96
487.68	10080.69
487.85	10106.43
488.03	10459.85
488.21	10478.58
488.39	10417.72
488.57	10525.39
488.75	10878.81
488.92	10981.79
489.10	10876.47
489.28	10939.66
489.46	11112.86
489.64	10970.09
489.81	11255.64
489.99	11494.37
490.17	11300.11
490.35	11466.28
490.53	11335.21
490.70	11653.53
490.88	11613.74
491.06	11686.29
491.24	11833.75
491.41	11609.06
491.59	11934.39
491.77	11761.19
491.95	12098.23
492.13	12262.07
492.30	12248.02
492.48	12264.41
492.66	12187.17
492.84	12327.60
493.01	12526.55
493.19	12610.81
493.37	12493.78
493.54	12652.94
493.72	12933.80
493.90	12891.67
494.08	12924.44
494.25	13041.46
494.43	12992.31
494.61	13179.56
494.79	13441.70
494.96	13331.69
495.14	13549.36
495.32	13568.09
495.49	13556.38
495.67	13603.19
495.85	13832.57
496.02	13893.42
496.20	13914.48
496.38	13919.17
496.55	14078.32
496.73	14406.00
496.91	13998.74
497.09	14178.97
497.26	14391.95
497.44	14111.09
497.62	14530.05
497.79	14565.15
497.97	14235.14
498.14	14815.59
498.32	15169.01
498.50	14679.84
498.67	14956.02
498.85	14860.06
499.03	15080.07
499.20	15094.11
499.38	14848.36
499.56	15272.00
499.73	15346.89
499.91	15080.07
500.08	15253.27
500.26	15117.52
500.44	15349.23
500.61	15346.89
500.79	15307.10
500.97	15616.05
501.14	15873.51
501.32	15641.80
501.49	15831.38
501.67	15632.44
501.84	15999.90
502.02	15983.52
502.20	16191.83
502.37	16184.80
502.55	16023.31
502.72	16095.86
502.90	16168.42
503.07	16229.27
503.25	16315.87
503.43	16383.75
503.60	16348.64
503.78	16320.56
503.95	16585.04
504.13	16479.71
504.30	16833.13
504.48	16432.90
504.65	16657.59
504.83	16809.73
505.01	16905.69
505.18	16945.48
505.36	16957.18
505.53	16833.13
505.71	17130.38
505.88	17099.95
506.06	16868.24
506.23	17366.78
506.41	17357.41
506.58	17259.11
506.76	17249.75
506.93	17348.05
507.11	17167.83
507.28	17455.72
507.46	17759.98
507.63	17699.13
507.81	17561.04
507.98	17781.05
508.16	17776.37
508.33	17874.67
508.50	17556.36
508.68	17846.58
508.85	18326.39
509.03	18010.42
509.20	18497.25
509.38	18253.84
509.55	18326.39
509.73	18466.83
509.90	18284.26
510.08	18164.90
510.25	18443.42
510.42	18200.01
510.60	18441.08
510.77	18848.33
510.95	18576.83
511.12	18958.34
511.30	18705.56
511.47	18871.74
511.64	18995.79
511.82	19080.05
511.99	18754.71
512.17	19023.87
512.34	19297.72
512.51	19145.58
512.69	18927.91
512.86	19096.43
513.04	19419.42
513.21	19232.18
513.38	19522.41
513.56	19391.34
513.73	19381.98
513.90	19625.39
514.08	19564.54
514.25	19414.74
514.43	19981.15
514.60	19719.01
514.77	19871.15
514.95	19878.17
515.12	19711.99
515.29	19971.79
515.47	20142.65
515.64	20133.29
515.81	19941.36
515.99	20175.42
516.16	20411.81
516.33	19962.43
516.51	20592.03
516.68	20205.84
516.85	20287.76
517.03	20416.49
517.20	20428.20
517.37	20526.50
517.54	20404.79
517.72	20599.05
517.89	20343.94
518.06	20353.30
518.24	20458.62
518.41	20582.67
518.58	20680.97
518.75	20673.95
518.93	21046.10
519.10	20713.74
519.27	20994.61
519.45	21102.27
519.62	20702.04
519.79	21254.40
519.96	21404.20
520.14	21102.27
520.31	20915.03
520.48	21277.81
520.65	21198.23
520.83	21291.85
521.00	21369.09
521.17	21504.84
521.34	21472.07
521.52	21507.18
521.69	21598.46
521.86	21319.94
522.03	21635.91
522.20	21853.58
522.38	21774.00
522.55	21832.52
522.72	21514.20
522.89	22111.04
523.07	21935.50
523.24	21956.57
523.41	22036.14
523.58	21792.73
523.75	22281.90
523.92	21844.22
524.10	22099.34
524.27	22097.00
524.44	22207.00
524.61	22375.52
524.78	22675.11
524.96	22654.05
525.13	22321.69
525.30	22494.89
525.47	22436.38
525.64	22656.39
525.81	22462.12
525.98	22698.52
526.16	22511.27
526.33	22768.73
526.50	22766.39
526.67	22630.64
526.84	23035.55
527.01	22686.81
527.18	22869.37
527.36	22712.56
527.53	23028.53
527.70	23398.34
527.87	23302.37
528.04	22799.16
528.21	23288.33
528.38	23190.03
528.55	23145.56
528.72	23115.13
528.89	23513.02
529.07	23190.03
529.24	23028.53
529.41	23400.68
529.58	23702.61
529.75	23503.66
529.92	23807.93
530.09	23578.56
530.26	23541.11
530.43	23498.98
530.60	23583.24
530.77	23372.59
530.94	23955.38
531.11	23768.14
531.28	23672.18
531.46	23803.25
531.63	23702.61
531.80	23978.79
531.97	24287.74
532.14	24074.75
532.31	23803.25
532.48	24187.10
532.65	24238.59
532.82	24222.20
532.99	23744.73
533.16	24156.67
533.33	24521.79
533.50	24428.17
533.67	24428.17
533.84	24308.80
534.01	24379.02
534.18	24208.16
534.35	24800.32
534.52	24292.42
534.69	24751.17
534.86	24865.85
535.03	24615.41
535.20	24540.52
535.37	24573.28
535.54	25146.72
535.71	24545.20
535.88	24500.73
536.05	24709.04
536.22	25008.62
536.38	24673.93
536.55	25120.97
536.72	24966.49
536.89	24882.24
537.06	24978.20
537.23	25123.31
537.40	24868.19
537.57	24952.45
537.74	25177.14
537.91	25142.03
538.08	25228.63
538.25	25413.54
538.42	25120.97
538.59	25394.81
538.75	25221.61
538.92	24922.02
539.09	25046.07
539.26	25420.56
539.43	25570.35
539.60	25722.49
539.77	25366.73
539.94	25603.12
540.11	25872.28
540.28	25310.55
540.44	25462.69
540.61	25411.20
540.78	25741.21
540.95	25750.57
541.12	25563.33
541.29	25584.40
541.46	25926.11
541.62	25539.93
541.79	25507.16
541.96	25453.33
542.13	25783.34
542.30	26087.61
542.47	25944.84
542.63	25790.36
542.80	26298.26
542.97	25954.20
543.14	26492.52
543.31	26279.54
543.48	26529.97
543.64	26471.46
543.81	26654.02
543.98	26710.19
544.15	26436.35
544.32	26541.68
544.48	26316.98
544.65	26876.37
544.82	26583.80
544.99	26237.41
545.16	26382.52
545.32	27019.14
545.49	26843.60
545.66	26934.88
545.83	26586.15
546.00	27115.11
546.16	26635.30
546.33	26426.99
546.50	26466.78
546.67	26647.00
546.83	26614.23
547.00	26843.60
547.17	26581.46
547.34	27103.40
547.50	26897.44
547.67	26946.59
547.84	27094.04
548.00	26869.35
548.17	27185.32
548.34	27269.58
548.51	27379.59
548.67	27557.47
548.84	27077.66
549.01	27241.50
549.18	27267.24
549.34	27487.25
549.51	27417.04
549.68	27101.06
549.84	27206.39
550.01	27520.02
550.18	27077.66
550.34	27370.22
550.51	27447.46
550.68	27857.06
550.84	27180.64
551.01	27379.59
551.18	27271.92
551.34	27737.69
551.51	27688.54
551.68	27407.67
551.84	27885.14
552.01	27424.06
552.18	27466.19
552.34	27473.21
552.51	27807.90
552.68	27655.77
552.84	27880.46
553.01	27747.05
553.18	27859.40
553.34	27573.85
553.51	28123.88
553.67	27936.63
553.84	28264.31
554.01	27938.97
554.17	27922.59
554.34	27946.00
554.51	27903.87
554.67	27669.81
554.84	27913.23
555.00	27573.85
555.17	28163.67
555.33	28123.88
555.50	28095.79
555.67	28086.43
555.83	28184.73
556.00	27995.15
556.16	28531.13
556.33	28191.75
556.50	28168.35
556.66	28411.76
556.83	28264.31
556.99	28636.45
557.16	28142.60
557.32	28233.88
557.49	28613.05
557.65	28259.63
557.82	28137.92
557.98	27892.16
558.15	28353.25
558.32	28570.92
558.48	28446.87
558.65	28339.21
558.81	28620.07
558.98	28826.04
559.14	28219.84
559.31	28519.43
559.47	28617.73
559.64	28678.58
559.80	28971.15
559.97	28964.13
560.13	28460.91
560.30	28477.30
560.46	28917.32
560.63	28760.50
560.79	28341.55
560.96	28395.38
561.12	28491.34
561.29	28528.79
561.45	28552.20
561.61	28922.00
561.78	29027.32
561.94	28847.10
562.11	29242.65
562.27	29125.63
562.44	28931.36
562.60	28858.81
562.77	28687.95
562.93	28713.69
563.10	29303.51
563.26	28779.23
563.42	29453.30
563.59	28940.72
563.75	29319.89
563.92	29060.09
564.08	28767.52
564.24	28954.77
564.41	28844.76
564.57	28994.56
564.74	29048.39
564.90	29024.98
565.07	29209.89
565.23	29242.65
565.39	28952.43
565.56	29177.12
565.72	29113.92
565.88	29317.55
566.05	29024.98
566.21	28938.38
566.38	28657.52
566.54	29055.41
566.70	29518.84
566.87	29350.32
567.03	29411.17
567.19	29563.31
567.36	29289.46
567.52	29282.44
567.68	29282.44
567.85	29422.87
568.01	29443.94
568.17	29200.52
568.34	29523.52
568.50	29329.25
568.66	29331.59
568.83	29621.82
568.99	29275.42
569.15	29261.38
569.32	29137.33
569.48	29242.65
569.64	29170.10
569.81	29106.90
569.97	29212.23
570.13	29563.31
570.30	29158.39
570.46	29624.16
570.62	29427.56
570.78	29301.17
570.95	29509.47
571.11	29450.96
571.27	29291.80
571.43	29647.57
571.60	29603.10
571.76	29352.66
571.92	29280.10
572.09	29422.87
572.25	29703.74
572.41	29694.38
572.57	29413.51
572.74	29514.16
572.90	29476.71
573.06	29380.74
573.22	29575.01
573.38	29479.05
573.55	29200.52
573.71	30015.03
573.87	30029.07
574.03	29465.00
574.20	29888.64
574.36	29617.14
574.52	29713.10
574.68	29579.69
574.84	29996.31
575.01	30155.46
575.17	29638.20
575.33	29420.53
575.49	29310.53
575.65	30038.44
575.82	29827.79
575.98	29284.78
576.14	29830.13
576.30	29804.38
576.46	29397.13
576.62	29923.75
576.79	29411.17
576.95	29706.08
577.11	29771.61
577.27	29539.90
577.43	29970.56
577.59	29626.50
577.75	29553.94
577.92	29663.95
578.08	29366.70
578.24	29259.04
578.40	29516.50
578.56	29694.38
578.72	29759.91
578.88	29755.23
579.04	29680.33
579.21	29752.89
579.37	29818.42
579.53	29893.32
579.69	29343.30
579.85	29495.43
580.01	29806.72
580.17	29738.85
580.33	29710.76
580.49	29544.58
580.65	29788.00
580.82	29848.85
580.98	29832.47
581.14	29752.89
581.30	30099.29
581.46	29881.62
581.62	29659.27
581.78	29369.04
581.94	30171.85
582.10	30012.69
582.26	29799.70
582.42	29879.28
582.58	29799.70
582.74	29823.11
582.90	29867.58
583.06	29888.64
583.22	29956.52
583.38	29673.31
583.54	29722.46
583.70	29813.74
583.86	29507.13
584.02	29453.30
584.18	30192.91
584.34	30024.39
584.50	30314.62
584.66	29668.63
584.82	29635.86
584.98	29612.46
585.14	29989.28
585.30	29963.54
585.46	29715.44
585.62	29841.83
585.78	30052.48
585.94	29528.20
586.10	29853.53
586.26	29682.67
586.42	29802.04
586.58	30197.59
586.74	29975.24
586.90	29350.32
587.06	29743.53
587.22	29865.24
587.38	29603.10
587.54	30017.37
587.70	29825.45
587.86	30272.49
588.02	30101.63
588.18	30101.63
588.34	30438.67
588.49	29703.74
588.65	29757.57
588.81	29802.04
588.97	29919.07
589.13	29738.85
589.29	29933.11
589.45	30125.04
589.61	30380.15
589.77	30354.41
589.93	30143.76
590.08	29984.60
590.24	30239.72
590.40	30398.88
590.56	30445.69
590.72	29970.56
590.88	29654.59
591.04	30286.53
591.20	30230.36
591.35	30412.92
591.51	30642.29
591.67	30398.88
591.83	30375.47
591.99	30370.79
