SpectraSuite Data File
++++++++++++++++++++++++++++++++++++
Date: Fri Oct 18 13:58:42 GMT-05:00 2013
User: bianchi
Dark Spectrum Present: No
Reference Spectrum Present: No
Number of Sampled Component Spectra: 1
Spectrometers: USB2+H05261
Integration Time (usec): 50000 (USB2+H05261)
Spectra Averaged: 1 (USB2+H05261)
Boxcar Smoothing: 0 (USB2+H05261)
Correct for Electrical Dark: No (USB2+H05261)
Strobe/Lamp Enabled: No (USB2+H05261)
Correct for Detector Non-linearity: No (USB2+H05261)
Correct for Stray Light: No (USB2+H05261)
Number of Pixels in Processed Spectrum: 2048
>>>>>Begin Processed Spectral Data<<<<<
365.73	0.00
365.92	0.00
366.12	0.00
366.32	0.00
366.52	0.00
366.72	0.00
366.91	0.00
367.11	0.00
367.31	0.00
367.51	0.00
367.70	0.00
367.90	0.00
368.10	0.00
368.30	0.00
368.49	0.00
368.69	0.00
368.89	0.00
369.09	0.00
369.28	0.00
369.48	0.00
369.68	0.00
369.87	0.00
370.07	0.00
370.27	0.00
370.47	42.13
370.66	46.81
370.86	124.05
371.06	98.30
371.25	119.37
371.45	98.30
371.65	177.88
371.84	140.43
372.04	224.69
372.24	210.65
372.44	234.05
372.63	133.41
372.83	163.84
373.03	224.69
373.22	194.26
373.42	149.79
373.62	210.65
373.81	266.82
374.01	236.39
374.21	285.55
374.40	208.31
374.60	231.71
374.79	255.12
374.99	170.86
375.19	227.03
375.38	273.84
375.58	264.48
375.78	297.25
375.97	273.84
376.17	280.86
376.37	259.80
376.56	222.35
376.76	269.16
376.95	271.50
377.15	227.03
377.35	238.73
377.54	241.08
377.74	301.93
377.93	243.42
378.13	278.52
378.33	304.27
378.52	330.02
378.72	330.02
378.91	241.08
379.11	262.14
379.31	299.59
379.50	315.97
379.70	215.33
379.89	322.99
380.09	379.17
380.28	308.95
380.48	301.93
380.68	271.50
380.87	250.44
381.07	320.65
381.26	376.83
381.46	301.93
381.65	362.78
381.85	351.08
382.04	297.25
382.24	353.42
382.43	334.70
382.63	409.59
382.83	386.19
383.02	409.59
383.22	360.44
383.41	344.06
383.61	437.68
383.80	341.72
384.00	306.61
384.19	383.85
384.39	409.59
384.58	332.36
384.78	351.08
384.97	386.19
385.17	353.42
385.36	355.76
385.56	362.78
385.75	367.46
385.95	341.72
386.14	433.00
386.34	348.74
386.53	360.44
386.72	353.42
386.92	444.70
387.11	390.87
387.31	428.32
387.50	400.23
387.70	386.19
387.89	430.66
388.09	383.85
388.28	409.59
388.48	414.27
388.67	397.89
388.86	451.72
389.06	482.15
389.25	458.74
389.45	465.77
389.64	425.98
389.84	475.13
390.03	540.66
390.22	526.62
390.42	404.91
390.61	521.94
390.81	498.53
391.00	470.45
391.19	587.47
391.39	486.83
391.58	447.04
391.78	510.24
391.97	390.87
392.16	528.96
392.36	608.54
392.55	470.45
392.75	554.71
392.94	543.00
393.13	538.32
393.33	521.94
393.52	524.28
393.71	617.90
393.91	613.22
394.10	559.39
394.29	578.11
394.49	540.66
394.68	543.00
394.88	599.18
395.07	585.13
395.26	514.92
395.46	643.65
395.65	641.31
395.84	650.67
396.04	669.39
396.23	653.01
396.42	690.46
396.62	653.01
396.81	620.24
397.00	557.05
397.19	674.07
397.39	587.47
397.58	730.25
397.77	622.58
397.97	685.78
398.16	620.24
398.35	653.01
398.55	678.76
398.74	739.61
398.93	645.99
399.12	706.84
399.32	727.91
399.51	617.90
399.70	737.27
399.90	746.63
400.09	854.30
400.28	706.84
400.47	678.76
400.67	699.82
400.86	798.12
401.05	812.17
401.24	940.90
401.44	856.64
401.63	753.65
401.82	751.31
402.01	737.27
402.21	716.20
402.40	739.61
402.59	809.83
402.78	809.83
402.97	814.51
403.17	795.78
403.36	861.32
403.55	884.72
403.74	943.24
403.93	880.04
404.13	919.83
404.32	798.12
404.51	976.00
404.70	971.32
404.89	1004.09
405.09	933.87
405.28	952.60
405.47	926.85
405.66	898.77
405.85	968.98
406.05	894.08
406.24	933.87
406.43	940.90
406.62	1095.37
406.81	976.00
407.00	940.90
407.20	1055.58
407.39	1008.77
407.58	1015.79
407.77	1107.07
407.96	1086.01
408.15	1118.78
408.34	1076.65
408.54	1048.56
408.73	1050.90
408.92	968.98
409.11	1071.97
409.30	1273.25
409.49	1088.35
409.68	1146.86
409.87	1081.33
410.07	1167.93
410.26	1177.29
410.45	1256.87
410.64	1301.34
410.83	1233.46
411.02	1160.91
411.21	1149.20
411.40	1153.88
411.59	1254.53
411.78	1301.34
411.98	1240.48
412.17	1270.91
412.36	1289.64
412.55	1315.38
412.74	1416.02
412.93	1322.40
413.12	1296.66
413.31	1430.07
413.50	1308.36
413.69	1493.26
413.88	1385.60
414.07	1352.83
414.26	1364.53
414.45	1378.58
414.64	1376.24
414.83	1458.15
415.02	1430.07
415.22	1519.01
415.41	1575.18
415.60	1490.92
415.79	1483.90
415.98	1521.35
416.17	1558.80
416.36	1565.82
416.55	1549.43
416.74	1575.18
416.93	1645.40
417.12	1624.33
417.31	1643.06
417.50	1647.74
417.69	1699.23
417.88	1643.06
418.07	1757.74
418.26	1753.06
418.45	1776.47
418.64	1806.89
418.83	1764.76
419.02	1776.47
419.21	1783.49
419.39	1863.07
419.58	1799.87
419.77	1701.57
419.96	1926.26
420.15	1860.73
420.34	1692.21
420.53	1743.70
420.72	1902.86
420.91	1895.83
421.10	1846.68
421.29	2052.65
421.48	1928.60
421.67	1940.30
421.86	1916.90
422.05	1982.43
422.24	1933.28
422.43	1937.96
422.61	1966.05
422.80	2083.08
422.99	2052.65
423.18	2026.90
423.37	2071.37
423.56	1982.43
423.75	1954.35
423.94	1984.77
424.13	1832.64
424.32	1928.60
424.50	2087.76
424.69	2073.71
424.88	2134.57
425.07	2031.58
425.26	1984.77
425.45	1998.82
425.64	1994.14
425.83	2026.90
426.01	1987.11
426.20	1949.67
426.39	1987.11
426.58	2083.08
426.77	2045.63
426.96	2101.80
427.15	2052.65
427.33	2148.61
427.52	2092.44
427.71	2155.63
427.90	2146.27
428.09	2085.42
428.28	2188.40
428.46	2150.95
428.65	2214.15
428.84	2317.13
429.03	2293.72
429.22	2113.50
429.40	2312.45
429.59	2328.83
429.78	2195.42
429.97	2183.72
430.16	2078.40
430.34	2352.24
430.53	2326.49
430.72	2232.87
430.91	2207.13
431.10	2275.00
431.28	2413.09
431.47	2399.05
431.66	2368.62
431.85	2441.18
432.03	2452.88
432.22	2516.08
432.41	2373.30
432.60	2406.07
432.79	2385.01
432.97	2534.80
433.16	2389.69
433.35	2448.20
433.54	2389.69
433.72	2466.92
433.91	2509.05
434.10	2457.56
434.28	2478.63
434.47	2593.31
434.66	2576.93
434.85	2506.71
435.03	2560.55
435.22	2640.12
435.41	2724.38
435.59	2656.51
435.78	2600.34
435.97	2635.44
436.16	2590.97
436.34	2682.25
436.53	2750.13
436.72	2796.94
436.90	2628.42
437.09	2740.77
437.28	2640.12
437.46	2628.42
437.65	2724.38
437.84	2696.30
438.02	2780.56
438.21	2679.91
438.40	2665.87
438.58	2897.58
438.77	2909.29
438.96	2843.75
439.14	2946.73
439.33	3019.29
439.52	2928.01
439.70	2991.20
439.89	3035.67
440.08	2946.73
440.26	3030.99
440.45	2981.84
440.63	3068.44
440.82	3049.72
441.01	3028.65
441.19	3145.68
441.38	3133.98
441.57	3129.30
441.75	3220.58
441.94	3246.32
442.12	3162.06
442.31	3400.80
442.50	3330.58
442.68	3241.64
442.87	3370.37
443.05	3358.67
443.24	3368.03
443.43	3267.39
443.61	3290.79
443.80	3379.73
443.98	3405.48
444.17	3290.79
444.35	3356.33
444.54	3384.41
444.73	3456.97
444.91	3454.63
445.10	3370.37
445.28	3414.84
445.47	3349.31
445.65	3426.54
445.84	3463.99
446.02	3585.70
446.21	3461.65
446.39	3377.39
446.58	3541.23
446.77	3417.18
446.95	3414.84
447.14	3452.29
447.32	3431.23
447.51	3363.35
447.69	3480.38
447.88	3412.50
448.06	3487.40
448.25	3419.52
448.43	3536.55
448.62	3382.07
448.80	3564.64
448.99	3574.00
449.17	3463.99
449.36	3566.98
449.54	3482.72
449.73	3613.79
449.91	3590.38
450.10	3693.37
450.28	3644.21
450.46	3868.91
450.65	3700.39
450.83	3733.15
451.02	3761.24
451.20	3688.68
451.39	3798.69
451.57	3644.21
451.76	3801.03
451.94	3723.79
452.13	3885.29
452.31	3918.06
452.49	3850.18
452.68	3831.46
452.86	3852.52
453.05	3936.78
453.23	3983.59
453.42	3772.94
453.60	3779.97
453.78	3929.76
453.97	3894.65
454.15	3847.84
454.34	3786.99
454.52	3976.57
454.70	3927.42
454.89	3990.61
455.07	3906.35
455.26	3971.89
455.44	4135.73
455.62	3981.25
455.81	3906.35
455.99	3962.53
456.17	4084.23
456.36	4180.20
456.54	4184.88
456.73	4273.82
456.91	4264.46
457.09	4248.07
457.28	4269.14
457.46	4283.18
457.64	4294.88
457.83	4369.78
458.01	4168.49
458.19	4437.66
458.38	4306.59
458.56	4468.08
458.74	4266.80
458.93	4418.93
459.11	4341.69
459.29	4468.08
459.48	4552.34
459.66	4458.72
459.84	4416.59
460.03	4535.96
460.21	4458.72
460.39	4472.76
460.57	4456.38
460.76	4554.68
460.94	4428.29
461.12	4447.02
461.31	4603.83
461.49	4571.07
461.67	4571.07
461.85	4793.42
462.04	4578.09
462.22	4868.31
462.40	4683.41
462.59	4669.37
462.77	4725.54
462.95	4725.54
463.13	4667.03
463.32	4786.40
463.50	4678.73
463.68	4737.24
463.86	4622.56
464.05	4842.57
464.23	4851.93
464.41	4936.19
464.59	4711.50
464.78	4894.06
464.96	5057.90
465.14	4910.44
465.32	4917.47
465.50	5043.85
465.69	4908.10
465.87	4777.03
466.05	5067.26
466.23	5027.47
466.41	4978.32
466.60	5172.58
466.78	4910.44
466.96	5015.77
467.14	4961.94
467.32	5008.75
467.51	5130.45
467.69	5022.79
467.87	5090.67
468.05	5186.63
468.23	5085.98
468.41	5095.35
468.60	5093.01
468.78	5263.86
468.96	5135.14
469.14	5284.93
469.32	5167.90
469.50	5128.11
469.69	5296.63
469.87	5263.86
470.05	5432.38
470.23	5294.29
470.41	5479.19
470.59	5432.38
470.77	5376.21
470.95	5474.51
471.14	5397.28
471.32	5451.11
471.50	5577.50
471.68	5413.66
471.86	5579.84
472.04	5603.24
472.22	5570.48
472.40	5657.07
472.58	5518.98
472.77	5612.60
472.95	5774.10
473.13	6015.18
473.31	5760.06
473.49	5811.55
473.67	5905.17
473.85	5820.91
474.03	5837.30
474.21	5886.45
474.39	5872.40
474.57	6148.59
474.75	6043.26
474.93	6167.31
475.12	6136.88
475.30	6141.57
475.48	5982.41
475.66	6321.79
475.84	6162.63
476.02	6377.96
476.20	6406.05
476.38	6534.78
476.56	6684.57
476.74	6478.60
476.92	6649.46
477.10	6527.75
477.28	6525.41
477.46	6726.70
477.64	6633.08
477.82	6630.74
478.00	6956.07
478.18	6768.83
478.36	6995.86
478.54	6988.84
478.72	6832.02
478.90	7012.24
479.08	7070.76
479.26	7171.40
479.44	7414.82
479.62	7227.57
479.80	7180.76
479.98	7307.15
480.16	7363.33
480.34	7386.73
480.52	7686.32
480.70	7559.93
480.88	7637.17
481.06	7590.36
481.24	7683.98
481.41	7829.09
481.59	7932.08
481.77	7829.09
481.95	7793.98
482.13	7978.89
482.31	7861.86
482.49	8217.62
482.67	8231.66
482.85	8257.41
483.03	8393.16
483.21	8322.94
483.39	8472.74
483.57	8531.25
483.74	8587.43
483.92	8765.31
484.10	8517.21
484.28	8865.95
484.46	8844.88
484.64	9284.91
484.82	9078.94
485.00	9015.74
485.18	9282.56
485.35	9334.06
485.53	9233.41
485.71	9348.10
485.89	9437.04
486.07	9371.50
486.25	9493.21
486.43	9528.32
486.61	9832.59
486.78	9888.76
486.96	9935.57
487.14	9823.23
487.32	10033.88
487.50	10169.63
487.68	10052.60
487.85	10183.67
488.03	10307.72
488.21	10576.88
488.39	10766.46
488.57	10700.93
488.75	10616.67
488.92	10836.68
489.10	10848.38
489.28	10824.98
489.46	11005.20
489.64	10869.45
489.81	11044.99
489.99	11248.61
490.17	11293.08
490.35	11377.34
490.53	11339.90
490.70	11468.62
490.88	11375.00
491.06	11641.82
491.24	11595.01
491.41	11786.94
491.59	11658.21
491.77	12028.01
491.95	11955.46
492.13	12154.40
492.30	12135.68
492.48	12245.68
492.66	12203.55
492.84	12053.76
493.01	12428.24
493.19	12615.49
493.37	12599.10
493.54	12615.49
493.72	12737.20
493.90	12788.69
494.08	12879.97
494.25	13043.81
494.43	13256.79
494.61	13149.13
494.79	13071.89
494.96	13341.05
495.14	13249.77
495.32	13387.86
495.49	13331.69
495.67	13603.19
495.85	13486.17
496.02	13706.18
496.20	13727.24
496.38	13692.13
496.55	13818.52
496.73	13715.54
496.91	14211.73
497.09	14090.02
497.26	14118.11
497.44	14391.95
497.62	14214.07
497.79	14445.79
497.97	14279.61
498.14	14490.26
498.32	14581.54
498.50	14590.90
498.67	14986.45
498.85	14714.95
499.03	15037.94
499.20	14497.28
499.38	14909.21
499.56	15269.66
499.73	15297.74
499.91	15021.56
500.08	15311.78
500.26	14923.26
500.44	15531.80
500.61	15449.88
500.79	15442.85
500.97	15419.45
501.14	15796.28
501.32	15382.00
501.49	15559.88
501.67	15597.33
501.84	15679.25
502.02	15648.82
502.20	15807.98
502.37	16065.44
502.55	16027.99
502.72	16091.18
502.90	15946.07
503.07	15892.24
503.25	16020.97
503.43	15878.19
503.60	16425.88
503.78	16362.69
503.95	16189.49
504.13	16568.65
504.30	16381.41
504.48	16365.03
504.65	16631.85
504.83	16727.81
505.01	17011.01
505.18	16870.58
505.36	17076.55
505.53	16999.31
505.71	17020.38
505.88	17118.68
506.06	16975.91
506.23	17207.62
506.41	17132.72
506.58	17305.92
506.76	17256.77
506.93	17186.55
507.11	17493.16
507.28	17114.00
507.46	17476.78
507.63	17750.62
507.81	17776.37
507.98	17717.86
508.16	17750.62
508.33	17905.10
508.50	17741.26
508.68	17685.09
508.85	17963.61
509.03	18361.50
509.20	17930.84
509.38	18174.26
509.55	18132.13
509.73	18176.60
509.90	18452.78
510.08	18361.50
510.25	18082.98
510.42	18384.91
510.60	18459.81
510.77	18270.22
510.95	18719.60
511.12	18518.32
511.30	18438.74
511.47	18618.96
511.64	18824.93
511.82	18918.55
511.99	18820.25
512.17	18998.13
512.34	18712.58
512.51	18743.01
512.69	19080.05
512.86	18967.70
513.04	19316.44
513.21	19302.40
513.38	19300.06
513.56	19318.78
513.73	19407.72
513.90	19365.59
514.08	19124.52
514.25	19609.01
514.43	19475.60
514.60	19641.78
514.77	19454.53
514.95	19761.14
515.12	19730.72
515.29	19742.42
515.47	19686.25
515.64	20224.57
515.81	20133.29
515.99	19983.49
516.16	20121.59
516.33	20219.89
516.51	20329.89
516.68	20060.73
516.85	20140.31
517.03	20425.86
517.20	20533.52
517.37	20350.96
517.54	20168.40
517.72	20350.96
517.89	20400.11
518.06	20425.86
518.24	20563.95
518.41	20669.27
518.58	20655.23
518.75	20821.41
518.93	20718.42
519.10	21149.08
519.27	20889.28
519.45	20982.90
519.62	21102.27
519.79	20875.24
519.96	20826.09
520.14	21209.93
520.31	21062.48
520.48	21207.59
520.65	21003.97
520.83	21135.04
521.00	21310.58
521.17	21333.98
521.34	21467.39
521.52	21642.93
521.69	21603.14
521.86	21280.15
522.03	21958.91
522.20	21802.09
522.38	21982.31
522.55	21401.86
522.72	21565.70
522.89	21724.85
523.07	21881.67
523.24	21862.94
523.41	21930.82
523.58	21757.62
523.75	21902.73
523.92	21645.27
524.10	22036.14
524.27	22120.40
524.44	22176.58
524.61	22338.07
524.78	22258.49
524.96	22019.76
525.13	22153.17
525.30	22515.95
525.47	22256.15
525.64	22216.36
525.81	22593.19
525.98	22555.74
526.16	22644.68
526.33	22689.15
526.50	22691.49
526.67	22518.29
526.84	22775.75
527.01	22663.41
527.18	22955.97
527.36	22876.40
527.53	22991.08
527.70	23178.33
527.87	23117.47
528.04	22867.03
528.21	23033.21
528.38	22874.06
528.55	23070.66
528.72	23030.87
528.89	23152.58
529.07	23236.84
529.24	23183.01
529.41	23386.63
529.58	23381.95
529.75	23122.15
529.92	23433.44
530.09	23295.35
530.26	23309.40
530.43	23625.37
530.60	23798.57
530.77	23578.56
530.94	23777.50
531.11	23747.08
531.28	23646.43
531.46	23908.57
531.63	23740.05
531.80	23604.30
531.97	23859.42
532.14	23758.78
532.31	24156.67
532.48	23981.13
532.65	23796.23
532.82	23782.18
532.99	24093.47
533.16	23931.98
533.33	23915.59
533.50	24294.76
533.67	24648.18
533.84	24334.55
534.01	24339.23
534.18	24018.58
534.35	24343.91
534.52	23999.85
534.69	24484.34
534.86	24732.44
535.03	24226.89
535.20	24694.99
535.37	24533.50
535.54	24521.79
535.71	24428.17
535.88	24383.70
536.05	24467.96
536.22	24931.39
536.38	25034.37
536.55	24383.70
536.72	24407.11
536.89	24812.02
537.06	25104.59
537.23	24959.47
537.40	25179.48
537.57	24903.30
537.74	24931.39
537.91	24980.54
538.08	24982.88
538.25	24706.70
538.42	25226.29
538.59	25420.56
538.75	25053.09
538.92	25516.52
539.09	25221.61
539.26	25186.50
539.43	25399.49
539.60	25591.42
539.77	25193.53
539.94	25420.56
540.11	25184.16
540.28	25198.21
540.44	25462.69
540.61	25127.99
540.78	25406.52
540.95	25441.62
541.12	25579.71
541.29	25577.37
541.46	25364.39
541.62	25745.89
541.79	25605.46
541.96	25544.61
542.13	25312.89
542.30	25610.14
542.47	26160.17
542.63	25766.96
542.80	26005.69
542.97	25914.41
543.14	25935.48
543.31	26111.02
543.48	25865.26
543.64	26539.33
543.81	26377.84
543.98	26162.51
544.15	26391.88
544.32	26405.92
544.48	26518.27
544.65	26221.02
544.82	26218.68
544.99	26073.57
545.16	26211.66
545.32	26370.82
545.49	26604.87
545.66	26558.06
545.83	27002.76
546.00	26857.65
546.16	26864.67
546.33	26551.04
546.50	26242.09
546.67	26396.56
546.83	26314.64
547.00	26450.39
547.17	26930.20
547.34	27012.12
547.50	26803.82
547.67	27103.40
547.84	26544.02
548.00	26939.57
548.17	26965.31
548.34	26864.67
548.51	27278.94
548.67	27049.57
548.84	27028.51
549.01	26808.50
549.18	27103.40
549.34	27005.10
549.51	27208.73
549.68	27236.81
549.84	27138.51
550.01	27122.13
550.18	27372.57
550.34	27208.73
550.51	27201.71
550.68	27300.01
550.84	27271.92
551.01	27225.11
551.18	27012.12
551.34	26923.18
551.51	27236.81
551.68	27498.95
551.84	27278.94
552.01	27351.50
552.18	27520.02
552.34	27491.93
552.51	27606.62
552.68	27152.55
552.84	27566.83
553.01	27498.95
553.18	27402.99
553.34	28016.21
553.51	27824.29
553.67	27751.73
553.84	27861.74
554.01	27967.06
554.17	27892.16
554.34	27838.33
554.51	27847.69
554.67	27611.30
554.84	27630.02
555.00	27707.26
555.17	27721.30
555.33	28023.23
555.50	27999.83
555.67	27646.41
555.83	27924.93
556.00	28034.94
556.16	28149.62
556.33	27957.70
556.50	28512.41
556.66	28428.15
556.83	27878.12
556.99	28659.86
557.16	28091.11
557.32	28056.00
557.49	28329.84
557.65	28147.28
557.82	28285.37
557.98	28254.95
558.15	28460.91
558.32	28215.16
558.48	27861.74
558.65	28397.72
558.81	28383.68
558.98	28500.70
559.14	28505.38
559.31	28245.58
559.47	28187.07
559.64	28971.15
559.80	28493.68
559.97	28638.80
560.13	28526.45
560.30	28760.50
560.46	28671.56
560.63	28538.15
560.79	28727.74
560.96	28554.54
561.12	28837.74
561.29	28678.58
561.45	28734.76
561.61	28561.56
561.78	28582.62
561.94	28428.15
562.11	28613.05
562.27	28599.01
562.44	28435.17
562.60	28744.12
562.77	28538.15
562.93	28725.39
563.10	28917.32
563.26	28786.25
563.42	29167.76
563.59	28758.16
563.75	28868.17
563.92	28982.85
564.08	28701.99
564.24	28559.22
564.41	28833.06
564.57	28524.11
564.74	29106.90
564.90	28849.44
565.07	29008.60
565.23	29050.73
565.39	29226.27
565.56	29015.62
565.72	28936.04
565.88	28978.17
566.05	28577.94
566.21	28772.21
566.38	29125.63
566.54	29041.37
566.70	28753.48
566.87	29439.26
567.03	28828.38
567.19	29387.77
567.36	29078.82
567.52	29200.52
567.68	29308.19
567.85	28858.81
568.01	29172.44
568.17	29359.68
568.34	28893.91
568.50	29102.22
568.66	29113.92
568.83	29205.20
568.99	29106.90
569.15	29252.02
569.32	28940.72
569.48	29053.07
569.64	29254.36
569.81	29504.79
569.97	28903.28
570.13	29560.97
570.30	29027.32
570.46	29366.70
570.62	29230.95
570.78	29242.65
570.95	28987.53
571.11	29322.23
571.27	29556.28
571.43	28863.49
571.60	29546.92
571.76	29006.26
571.92	29027.32
572.09	29226.27
572.25	29261.38
572.41	29212.23
572.57	29221.59
572.74	29263.72
572.90	29113.92
573.06	29127.97
573.22	29315.21
573.38	29357.34
573.55	29060.09
573.71	29350.32
573.87	29385.43
574.03	29237.97
574.20	29340.96
574.36	29303.51
574.52	29406.49
574.68	29235.63
574.84	29521.18
575.01	29535.22
575.17	29474.37
575.33	28996.90
575.49	29617.14
575.65	29252.02
575.82	29549.26
575.98	29383.09
576.14	29593.73
576.30	29476.71
576.46	29195.84
576.62	29333.93
576.79	29638.20
576.95	29053.07
577.11	29270.74
577.27	29837.15
577.43	29696.72
577.59	29195.84
577.75	29345.64
577.92	29322.23
578.08	29488.41
578.24	29305.85
578.40	29617.14
578.56	29457.98
578.72	29465.00
578.88	29654.59
579.04	30033.75
579.21	29474.37
579.37	29865.24
579.53	29355.00
579.69	29575.01
579.85	29127.97
580.01	29090.52
580.17	29280.10
580.33	29876.94
580.49	29598.41
580.65	29811.40
580.82	29511.81
580.98	29535.22
581.14	29415.85
581.30	29900.34
581.46	29605.44
581.62	29291.80
581.78	29472.03
581.94	29385.43
582.10	29509.47
582.26	29296.49
582.42	29383.09
582.58	29825.45
582.74	29582.03
582.90	29879.28
583.06	29993.97
583.22	29558.63
583.38	29530.54
583.54	29577.35
583.70	29673.31
583.86	29598.41
584.02	29179.46
584.18	29319.89
584.34	30223.34
584.50	30118.01
584.66	30061.84
584.82	29640.54
584.98	29518.84
585.14	29743.53
585.30	29455.64
585.46	29457.98
585.62	29757.57
585.78	29738.85
585.94	29380.74
586.10	29809.06
586.26	29584.37
586.42	29596.07
586.58	30274.83
586.74	29778.64
586.90	29694.38
587.06	29535.22
587.22	29528.20
587.38	29900.34
587.54	29860.55
587.70	29883.96
587.86	30036.09
588.02	30176.53
588.18	30511.22
588.34	30003.33
588.49	29703.74
588.65	29914.39
588.81	29893.32
588.97	29635.86
589.13	29570.33
589.29	29516.50
589.45	29909.71
589.61	30338.02
589.77	30078.22
589.93	29902.68
590.08	30000.99
590.24	30110.99
590.40	30263.13
590.56	29818.42
590.72	29844.17
590.88	29525.86
591.04	30134.40
591.20	29970.56
591.35	30300.58
591.51	30469.09
591.67	30483.14
591.83	30199.93
591.99	29708.42
