SpectraSuite Data File
++++++++++++++++++++++++++++++++++++
Date: Fri Oct 18 13:58:29 GMT-05:00 2013
User: bianchi
Dark Spectrum Present: No
Reference Spectrum Present: No
Number of Sampled Component Spectra: 1
Spectrometers: USB2+H05261
Integration Time (usec): 50000 (USB2+H05261)
Spectra Averaged: 1 (USB2+H05261)
Boxcar Smoothing: 0 (USB2+H05261)
Correct for Electrical Dark: No (USB2+H05261)
Strobe/Lamp Enabled: No (USB2+H05261)
Correct for Detector Non-linearity: No (USB2+H05261)
Correct for Stray Light: No (USB2+H05261)
Number of Pixels in Processed Spectrum: 2048
>>>>>Begin Processed Spectral Data<<<<<
365.73	37.45
365.92	37.45
366.12	37.45
366.32	0.00
366.52	0.00
366.72	0.00
366.91	0.00
367.11	0.00
367.31	0.00
367.51	0.00
367.70	0.00
367.90	0.00
368.10	0.00
368.30	0.00
368.49	0.00
368.69	0.00
368.89	0.00
369.09	0.00
369.28	0.00
369.48	0.00
369.68	0.00
369.87	0.00
370.07	0.00
370.27	0.00
370.47	0.00
370.66	147.45
370.86	159.16
371.06	100.64
371.25	159.16
371.45	72.56
371.65	91.28
371.84	121.71
372.04	117.03
372.24	187.24
372.44	147.45
372.63	140.43
372.83	205.97
373.03	227.03
373.22	222.35
373.42	262.14
373.62	149.79
373.81	166.18
374.01	149.79
374.21	262.14
374.40	210.65
374.60	184.90
374.79	234.05
374.99	236.39
375.19	306.61
375.38	290.23
375.58	224.69
375.78	201.29
375.97	189.58
376.17	248.10
376.37	290.23
376.56	222.35
376.76	358.10
376.95	257.46
377.15	283.20
377.35	243.42
377.54	266.82
377.74	280.86
377.93	311.29
378.13	290.23
378.33	341.72
378.52	294.91
378.72	238.73
378.91	301.93
379.11	332.36
379.31	250.44
379.50	231.71
379.70	325.33
379.89	273.84
380.09	280.86
380.28	255.12
380.48	299.59
380.68	257.46
380.87	320.65
381.07	250.44
381.26	313.63
381.46	386.19
381.65	332.36
381.85	283.20
382.04	252.78
382.24	278.52
382.43	337.04
382.63	290.23
382.83	379.17
383.02	341.72
383.22	327.68
383.41	313.63
383.61	322.99
383.80	416.62
384.00	369.80
384.19	306.61
384.39	344.06
384.58	322.99
384.78	393.21
384.97	414.27
385.17	388.53
385.36	334.70
385.56	416.62
385.75	360.44
385.95	355.76
386.14	367.46
386.34	379.17
386.53	397.89
386.72	404.91
386.92	355.76
387.11	418.96
387.31	404.91
387.50	365.12
387.70	442.36
387.89	388.53
388.09	512.58
388.28	407.25
388.48	400.23
388.67	360.44
388.86	423.64
389.06	442.36
389.25	451.72
389.45	489.17
389.64	486.83
389.84	505.56
390.03	594.50
390.22	533.64
390.42	484.49
390.61	379.17
390.81	482.15
391.00	573.43
391.19	421.30
391.39	519.60
391.58	500.87
391.78	468.11
391.97	573.43
392.16	454.06
392.36	510.24
392.55	603.86
392.75	540.66
392.94	442.36
393.13	568.75
393.33	498.53
393.52	514.92
393.71	543.00
393.91	571.09
394.10	540.66
394.29	533.64
394.49	552.37
394.68	505.56
394.88	564.07
395.07	596.84
395.26	613.22
395.46	601.52
395.65	606.20
395.84	610.88
396.04	634.29
396.23	545.34
396.42	535.98
396.62	685.78
396.81	664.71
397.00	627.26
397.19	610.88
397.39	732.59
397.58	648.33
397.77	641.31
397.97	685.78
398.16	699.82
398.35	657.69
398.55	690.46
398.74	720.88
398.93	695.14
399.12	699.82
399.32	741.95
399.51	706.84
399.70	774.72
399.90	751.31
400.09	802.80
400.28	805.14
400.47	753.65
400.67	770.04
400.86	809.83
401.05	697.48
401.24	805.14
401.44	830.89
401.63	725.57
401.82	741.95
402.01	819.19
402.21	889.40
402.40	819.19
402.59	770.04
402.78	791.10
402.97	826.21
403.17	800.46
403.36	805.14
403.55	800.46
403.74	854.30
403.93	830.89
404.13	781.74
404.32	950.26
404.51	978.34
404.70	950.26
404.89	896.43
405.09	917.49
405.28	1001.75
405.47	1022.81
405.66	929.19
405.85	957.28
406.05	950.26
406.24	926.85
406.43	938.55
406.62	1029.84
406.81	1036.86
407.00	1027.50
407.20	976.00
407.39	950.26
407.58	1102.39
407.77	1083.67
407.96	1069.62
408.15	1100.05
408.34	1095.37
408.54	1118.78
408.73	1078.99
408.92	1062.60
409.11	1034.52
409.30	1111.75
409.49	1090.69
409.68	1128.14
409.87	1179.63
410.07	1081.33
410.26	1268.57
410.45	1205.38
410.64	1205.38
410.83	1224.10
411.02	1181.97
411.21	1160.91
411.40	1228.78
411.59	1196.01
411.78	1170.27
411.98	1219.42
412.17	1277.93
412.36	1315.38
412.55	1235.80
412.74	1310.70
412.93	1345.81
413.12	1324.74
413.31	1446.45
413.50	1411.34
413.69	1357.51
413.88	1397.30
414.07	1416.02
414.26	1369.21
414.45	1500.28
414.64	1439.43
414.83	1488.58
415.02	1451.13
415.22	1488.58
415.41	1605.61
415.60	1519.01
415.79	1493.26
415.98	1551.78
416.17	1537.73
416.36	1664.12
416.55	1570.50
416.74	1617.31
416.93	1673.48
417.12	1710.93
417.31	1547.09
417.50	1579.86
417.69	1652.42
417.88	1809.23
418.07	1729.66
418.26	1746.04
418.45	1713.27
418.64	1888.81
418.83	1884.13
419.02	1778.81
419.21	1736.68
419.39	1823.28
419.58	1935.62
419.77	1863.07
419.96	1832.64
420.15	1870.09
420.34	1720.29
420.53	1825.62
420.72	1846.68
420.91	1914.56
421.10	1898.17
421.29	1937.96
421.48	1961.37
421.67	1947.33
421.86	2003.50
422.05	1982.43
422.24	2012.86
422.43	1959.03
422.61	1935.62
422.80	2010.52
422.99	1956.69
423.18	2017.54
423.37	2026.90
423.56	2038.61
423.75	1966.05
423.94	1933.28
424.13	1818.60
424.32	1900.52
424.50	2003.50
424.69	2003.50
424.88	2064.35
425.07	2045.63
425.26	1994.14
425.45	1947.33
425.64	1952.01
425.83	2094.78
426.01	2036.27
426.20	2122.87
426.39	2029.24
426.58	1966.05
426.77	1975.41
426.96	1970.73
427.15	2106.48
427.33	2080.74
427.52	2108.82
427.71	2101.80
427.90	2122.87
428.09	2174.36
428.28	2120.53
428.46	2111.16
428.65	2202.44
428.84	2202.44
429.03	2310.11
429.22	2094.78
429.40	2153.29
429.59	2181.38
429.78	2153.29
429.97	2129.89
430.16	2277.34
430.34	2291.38
430.53	2251.60
430.72	2300.75
430.91	2326.49
431.10	2345.22
431.28	2352.24
431.47	2469.27
431.66	2452.88
431.85	2377.98
432.03	2317.13
432.22	2401.39
432.41	2431.82
432.60	2455.22
432.79	2333.51
432.97	2349.90
433.16	2438.84
433.35	2385.01
433.54	2572.25
433.72	2600.34
433.91	2551.18
434.10	2424.80
434.28	2466.92
434.47	2581.61
434.66	2537.14
434.85	2492.67
435.03	2588.63
435.22	2509.05
435.41	2675.23
435.59	2544.16
435.78	2558.21
435.97	2637.78
436.16	2640.12
436.34	2626.08
436.53	2715.02
436.72	2836.73
436.90	2642.46
437.09	2672.89
437.28	2703.32
437.46	2677.57
437.65	2663.53
437.84	2663.53
438.02	2733.75
438.21	2764.17
438.40	2799.28
438.58	2885.88
438.77	2885.88
438.96	2965.46
439.14	2862.48
439.33	3005.25
439.52	2885.88
439.70	2984.18
439.89	3038.02
440.08	2928.01
440.26	3028.65
440.45	3112.91
440.63	3124.62
440.82	2995.89
441.01	3138.66
441.19	3098.87
441.38	3122.27
441.57	3077.80
441.75	3173.77
441.94	3412.50
442.12	3148.02
442.31	3314.20
442.50	3295.47
442.68	3255.69
442.87	3260.37
443.05	3255.69
443.24	3393.78
443.43	3304.84
443.61	3328.24
443.80	3377.39
443.98	3311.86
444.17	3215.90
444.35	3400.80
444.54	3351.65
444.73	3363.35
444.91	3288.45
445.10	3265.05
445.28	3550.59
445.47	3379.73
445.65	3368.03
445.84	3431.23
446.02	3435.91
446.21	3438.25
446.39	3468.67
446.58	3435.91
446.77	3475.70
446.95	3421.86
447.14	3412.50
447.32	3559.95
447.51	3412.50
447.69	3412.50
447.88	3400.80
448.06	3478.04
448.25	3307.18
448.43	3405.48
448.62	3445.27
448.80	3471.01
448.99	3548.25
449.17	3438.25
449.36	3550.59
449.54	3730.81
449.73	3721.45
449.91	3590.38
450.10	3625.49
450.28	3669.96
450.46	3723.79
450.65	3658.26
450.83	3702.73
451.02	3651.24
451.20	3747.20
451.39	3801.03
451.57	3747.20
451.76	3681.66
451.94	3801.03
452.13	3850.18
452.31	3941.46
452.49	3826.78
452.68	3754.22
452.86	3744.86
453.05	3794.01
453.23	3934.44
453.42	3866.56
453.60	3854.86
453.78	3922.74
453.97	3882.95
454.15	3969.55
454.34	3852.52
454.52	3955.51
454.70	3878.27
454.89	3918.06
455.07	3878.27
455.26	4135.73
455.44	4180.20
455.62	4117.00
455.81	4145.09
455.99	4163.81
456.17	4077.21
456.36	4152.11
456.54	4065.51
456.73	4128.70
456.91	4231.69
457.09	4290.20
457.28	4290.20
457.46	4067.85
457.64	4383.82
457.83	4257.43
458.01	4234.03
458.19	4367.44
458.38	4252.75
458.56	4437.66
458.74	4512.55
458.93	4470.42
459.11	4524.26
459.29	4409.57
459.48	4437.66
459.66	4575.75
459.84	4463.40
460.03	4519.57
460.21	4610.86
460.39	4451.70
460.57	4386.16
460.76	4739.58
460.94	4688.09
461.12	4535.96
461.31	4568.73
461.49	4784.06
461.67	4440.00
461.85	4748.95
462.04	4601.49
462.22	4762.99
462.40	4751.29
462.59	4788.74
462.77	4631.92
462.95	4685.75
463.13	4840.23
463.32	4788.74
463.50	4784.06
463.68	4863.63
463.86	4730.22
464.05	4819.16
464.23	4781.71
464.41	4950.23
464.59	4933.85
464.78	4959.60
464.96	4968.96
465.14	4917.47
465.32	4903.42
465.50	5001.72
465.69	4887.04
465.87	4896.40
466.05	5001.72
466.23	4919.81
466.41	4809.80
466.60	5020.45
466.78	5195.99
466.96	5015.77
467.14	5034.49
467.32	5132.79
467.51	5088.32
467.69	4980.66
467.87	5188.97
468.05	5200.67
468.23	5064.92
468.41	5055.56
468.60	5289.61
468.78	5130.45
468.96	5193.65
469.14	5320.04
469.32	5331.74
469.50	5160.88
469.69	5308.34
469.87	5280.25
470.05	5289.61
470.23	5425.36
470.41	5345.78
470.59	5287.27
470.77	5399.62
470.95	5359.83
471.14	5460.47
471.32	5427.70
471.50	5544.73
471.68	5493.24
471.86	5455.79
472.04	5617.29
472.22	5736.65
472.40	5549.41
472.58	5678.14
472.77	5778.78
472.95	5867.72
473.13	5841.98
473.31	5834.96
473.49	5818.57
473.67	5788.14
473.85	5975.39
474.03	5968.37
474.21	5806.87
474.39	6012.84
474.57	5961.34
474.75	5970.71
474.93	6022.20
475.12	6111.14
475.30	6069.01
475.48	6052.63
475.66	6331.15
475.84	6293.70
476.02	6427.11
476.20	6410.73
476.38	6422.43
476.56	6490.31
476.74	6494.99
476.92	6614.35
477.10	6403.71
477.28	6403.71
477.46	6553.50
477.64	6888.20
477.82	6668.19
478.00	6789.89
478.18	6836.70
478.36	6771.17
478.54	6855.43
478.72	7045.01
478.90	6904.58
479.08	7049.69
479.26	7117.57
479.44	7293.11
479.62	7318.86
479.80	7318.86
479.98	7316.51
480.16	7255.66
480.34	7379.71
480.52	7475.67
480.70	7578.65
480.88	7616.10
481.06	7566.95
481.24	7641.85
481.41	7721.43
481.59	7857.18
481.77	8023.36
481.95	7892.29
482.13	7812.71
482.31	8079.53
482.49	8243.37
482.67	8208.26
482.85	8280.82
483.03	8156.77
483.21	8498.49
483.39	8446.99
483.57	8442.31
483.74	8533.59
483.92	8662.32
484.10	8613.17
484.28	8915.10
484.46	8784.03
484.64	9022.77
484.82	8924.46
485.00	9050.85
485.18	9224.05
485.35	9200.65
485.53	9401.93
485.71	9376.19
485.89	9708.54
486.07	9453.42
486.25	9542.36
486.43	9584.49
486.61	9488.53
486.78	9783.44
486.96	9804.50
487.14	9994.09
487.32	9827.91
487.50	10003.45
487.68	10054.94
487.85	10136.86
488.03	10436.45
488.21	10492.62
488.39	10422.41
488.57	10403.68
488.75	10483.26
488.92	10937.32
489.10	10731.36
489.28	10810.93
489.46	10963.07
489.64	10963.07
489.81	11126.91
489.99	11154.99
490.17	11358.62
490.35	11290.74
490.53	11218.19
490.70	11506.07
490.88	11751.83
491.06	11566.93
491.24	11440.54
491.41	11840.77
491.59	11868.86
491.77	11747.15
491.95	12016.31
492.13	11999.93
492.30	12257.39
492.48	12475.06
492.66	12191.85
492.84	12383.77
493.01	12173.13
493.19	12374.41
493.37	12732.51
493.54	12617.83
493.72	12809.75
493.90	12692.73
494.08	12793.37
494.25	13107.00
494.43	13081.25
494.61	13195.94
494.79	13055.51
494.96	12980.61
495.14	13252.11
495.32	13184.24
495.49	13392.55
495.67	13455.74
495.85	13647.66
496.02	13771.71
496.20	13804.48
496.38	13858.31
496.55	13820.86
496.73	14349.82
496.91	13907.46
497.09	14178.97
497.26	14387.27
497.44	14185.99
497.62	14281.95
497.79	14230.46
497.97	14237.48
498.14	14703.25
498.32	14462.17
498.50	14740.69
498.67	14780.48
498.85	14799.21
499.03	14890.49
499.20	14956.02
499.38	14960.70
499.56	15049.64
499.73	15400.72
499.91	15239.23
500.08	15520.09
500.26	14956.02
500.44	15269.66
500.61	15101.14
500.79	15454.56
500.97	15602.01
501.14	15548.18
501.32	15740.10
501.49	15669.89
501.67	15910.96
501.84	15742.44
502.02	15866.49
502.20	15894.58
502.37	16067.78
502.55	15859.47
502.72	16180.12
502.90	16135.65
503.07	16067.78
503.25	16332.26
503.43	16123.95
503.60	16311.19
503.78	16650.57
503.95	16456.31
504.13	16362.69
504.30	16575.67
504.48	16505.46
504.65	16231.62
504.83	17020.38
505.01	17062.51
505.18	16617.80
505.36	16924.41
505.53	16870.58
505.71	17102.29
505.88	16788.66
506.06	16725.47
506.23	17123.36
506.41	17114.00
506.58	17121.02
506.76	17296.56
506.93	17263.79
507.11	17263.79
507.28	17219.32
507.46	17778.71
507.63	17635.94
507.81	17542.32
507.98	17657.00
508.16	17994.04
508.33	17479.12
508.50	17797.43
508.68	17570.40
508.85	17949.57
509.03	17748.28
509.20	17724.88
509.38	18438.74
509.55	18195.32
509.73	18127.45
509.90	18104.04
510.08	18218.73
510.25	17703.81
510.42	18485.55
510.60	18511.30
510.77	18354.48
510.95	18583.85
511.12	18295.97
511.30	18384.91
511.47	18237.45
511.64	18902.17
511.82	18745.35
511.99	18588.53
512.17	19176.01
512.34	18567.47
512.51	19007.49
512.69	19187.71
512.86	18946.64
513.04	19562.20
513.21	19328.14
513.38	19323.46
513.56	19353.89
513.73	19288.35
513.90	19353.89
514.08	19311.76
514.25	19391.34
514.43	19400.70
514.60	19805.61
514.77	19807.95
514.95	19700.29
515.12	19613.69
515.29	19325.80
515.47	19733.06
515.64	19885.19
515.81	19969.45
515.99	19829.02
516.16	20166.06
516.33	19924.98
516.51	20217.55
516.68	20011.58
516.85	20290.10
517.03	20159.03
517.20	20201.16
517.37	20226.91
517.54	20215.21
517.72	20170.74
517.89	20486.71
518.06	20315.85
518.24	20500.75
518.41	20346.28
518.58	20465.64
518.75	20517.14
518.93	20840.13
519.10	20847.15
519.27	20807.36
519.45	20575.65
519.62	20826.09
519.79	20856.51
519.96	20739.49
520.14	20992.26
520.31	20975.88
520.48	21039.08
520.65	21120.99
520.83	21055.46
521.00	21179.51
521.17	21064.82
521.34	21401.86
521.52	21605.49
521.69	21472.07
521.86	21254.40
522.03	21446.33
522.20	21490.80
522.38	21427.60
522.55	21692.08
522.72	21706.13
522.89	21558.67
523.07	22115.72
523.24	21783.37
523.41	21965.93
523.58	21687.40
523.75	21944.86
523.92	21766.98
524.10	22005.72
524.27	21928.48
524.44	22024.44
524.61	22256.15
524.78	22190.62
524.96	22211.68
525.13	22431.69
525.30	22340.41
525.47	22029.12
525.64	22389.56
525.81	22558.08
525.98	22431.69
526.16	22703.20
526.33	22434.03
526.50	22742.99
526.67	22476.16
526.84	22499.57
527.01	22436.38
527.18	22787.46
527.36	22607.23
527.53	22888.10
527.70	23197.05
527.87	23065.98
528.04	22955.97
528.21	22883.42
528.38	22838.95
528.55	23101.09
528.72	23311.74
528.89	23054.28
529.07	22764.05
529.24	23000.44
529.41	22930.23
529.58	23241.52
529.75	22972.36
529.92	23133.86
530.09	23138.54
530.26	23084.70
530.43	23494.30
530.60	23538.77
530.77	23618.35
530.94	23618.35
531.11	23480.25
531.28	23351.52
531.46	23679.20
531.63	23777.50
531.80	23707.29
531.97	23915.59
532.14	23913.25
532.31	23978.79
532.48	23861.76
532.65	23901.55
532.82	23653.45
532.99	23653.45
533.16	23906.23
533.33	24027.94
533.50	24297.10
533.67	24355.61
533.84	24173.05
534.01	24196.46
534.18	24037.30
534.35	24231.57
534.52	24421.15
534.69	24238.59
534.86	24643.50
535.03	23824.31
535.20	24601.37
535.37	24297.10
535.54	24243.27
535.71	24109.86
535.88	24781.59
536.05	24465.62
536.22	24587.33
536.38	24833.08
536.55	24753.51
536.72	24407.11
536.89	24561.58
537.06	24718.40
537.23	24957.13
537.40	24996.92
537.57	25125.65
537.74	24830.74
537.91	24940.75
538.08	25127.99
538.25	25022.67
538.42	25078.84
538.59	25097.56
538.75	24980.54
538.92	24584.99
539.09	24889.26
539.26	25017.99
539.43	25565.67
539.60	25331.62
539.77	25156.08
539.94	25434.60
540.11	25544.61
540.28	24994.58
540.44	25523.54
540.61	25252.04
540.78	25385.45
540.95	25179.48
541.12	25106.93
541.29	25387.79
541.46	25434.60
541.62	25228.63
541.79	25663.97
541.96	25568.01
542.13	25408.86
542.30	25869.94
542.47	25942.50
542.63	25661.63
542.80	26118.04
542.97	26103.99
543.14	26080.59
543.31	25972.92
543.48	25947.18
543.64	26150.81
543.81	26235.06
543.98	26284.22
544.15	26492.52
544.32	26544.02
544.48	26558.06
544.65	26309.96
544.82	26686.79
544.99	26031.44
545.16	26354.43
545.32	26003.35
545.49	26576.78
545.66	26169.53
545.83	26567.42
546.00	26305.28
546.16	26295.92
546.33	26569.76
546.50	26206.98
546.67	26576.78
546.83	26316.98
547.00	26661.04
547.17	26820.20
547.34	26878.71
547.50	26831.90
547.67	26869.35
547.84	26586.15
548.00	26712.53
548.17	26897.44
548.34	26941.91
548.51	26775.73
548.67	26958.29
548.84	27096.38
549.01	26642.32
549.18	26663.38
549.34	27108.08
549.51	27112.77
549.68	26939.57
549.84	26710.19
550.01	27323.41
550.18	26899.78
550.34	27271.92
550.51	27197.02
550.68	27112.77
550.84	26824.88
551.01	27164.26
551.18	27049.57
551.34	26918.50
551.51	26962.97
551.68	27517.68
551.84	27208.73
552.01	27117.45
552.18	27363.20
552.34	27119.79
552.51	27733.01
552.68	27374.91
552.84	27644.07
553.01	27459.16
553.18	27314.05
553.34	27641.73
553.51	27899.19
553.67	28058.34
553.84	27814.93
554.01	27711.94
554.17	27630.02
554.34	27433.42
554.51	27658.11
554.67	27826.63
554.84	27838.33
555.00	27779.82
555.17	27667.47
555.33	27758.75
555.50	27257.88
555.67	27843.01
555.83	27714.28
556.00	27784.50
556.16	27754.07
556.33	27885.14
556.50	27786.84
556.66	28065.36
556.83	27969.40
556.99	28224.52
557.16	28142.60
557.32	28156.64
557.49	28458.57
557.65	27707.26
557.82	27936.63
557.98	28163.67
558.15	28056.00
558.32	28442.19
558.48	27892.16
558.65	28643.48
558.81	28481.98
558.98	28311.12
559.14	28381.34
559.31	28238.56
559.47	28034.94
559.64	28147.28
559.80	28268.99
559.97	28648.16
560.13	28444.53
560.30	28451.55
560.46	28381.34
560.63	28416.44
560.79	28477.30
560.96	28741.78
561.12	27892.16
561.29	28151.96
561.45	28472.62
561.61	28655.18
561.78	28627.09
561.94	28411.76
562.11	28772.21
562.27	28587.30
562.44	28524.11
562.60	28582.62
562.77	28243.24
562.93	28566.24
563.10	28790.93
563.26	28477.30
563.42	28903.28
563.59	28559.22
563.75	28835.40
563.92	28678.58
564.08	28697.31
564.24	28603.69
564.41	28582.62
564.57	28484.32
564.74	28793.27
564.90	28847.10
565.07	28971.15
565.23	29235.63
565.39	28840.08
565.56	28868.17
565.72	28631.77
565.88	28521.77
566.05	28694.97
566.21	28819.02
566.38	28879.87
566.54	28973.49
566.70	29104.56
566.87	28854.12
567.03	28992.22
567.19	29088.18
567.36	29144.35
567.52	28814.34
567.68	29076.48
567.85	28727.74
568.01	28858.81
568.17	28580.28
568.34	29116.26
568.50	28830.72
568.66	28889.23
568.83	28996.90
568.99	29046.05
569.15	28875.19
569.32	28973.49
569.48	28959.45
569.64	29184.14
569.81	28957.11
569.97	29326.91
570.13	29074.13
570.30	28753.48
570.46	29212.23
570.62	29039.03
570.78	28748.80
570.95	28804.97
571.11	29153.71
571.27	28964.13
571.43	28858.81
571.60	29067.11
571.76	29104.56
571.92	29244.99
572.09	29111.58
572.25	29249.67
572.41	29120.95
572.57	29446.28
572.74	29235.63
572.90	28931.36
573.06	29032.00
573.22	28966.47
573.38	29132.65
573.55	29326.91
573.71	29516.50
573.87	29532.88
574.03	28893.91
574.20	29680.33
574.36	29249.67
574.52	29151.37
574.68	29057.75
574.84	29170.10
575.01	29177.12
575.17	29427.56
575.33	29202.86
575.49	29289.46
575.65	29359.68
575.82	29497.77
575.98	29109.24
576.14	29078.82
576.30	29244.99
576.46	29174.78
576.62	29158.39
576.79	29357.34
576.95	28910.30
577.11	29474.37
577.27	29736.51
577.43	29509.47
577.59	29357.34
577.75	29298.83
577.92	29551.60
578.08	29345.64
578.24	29053.07
578.40	29223.93
578.56	29184.14
578.72	29404.15
578.88	29638.20
579.04	29305.85
579.21	29448.62
579.37	29514.16
579.53	29441.60
579.69	29053.07
579.85	29408.83
580.01	29022.64
580.17	28769.86
580.33	29542.24
580.49	29303.51
580.65	29298.83
580.82	29699.06
580.98	29450.96
581.14	29041.37
581.30	29357.34
581.46	29509.47
581.62	29223.93
581.78	29355.00
581.94	29546.92
582.10	29256.70
582.26	29556.28
582.42	29802.04
582.58	29853.53
582.74	29174.78
582.90	29301.17
583.06	29436.92
583.22	29378.40
583.38	29039.03
583.54	29598.41
583.70	29352.66
583.86	29993.97
584.02	29357.34
584.18	29652.25
584.34	29720.12
584.50	29741.19
584.66	29717.78
584.82	29088.18
584.98	29666.29
585.14	29778.64
585.30	29467.34
585.46	29472.03
585.62	29350.32
585.78	29567.99
585.94	29151.37
586.10	29411.17
586.26	29603.10
586.42	29703.74
586.58	29607.78
586.74	29755.23
586.90	29663.95
587.06	29610.12
587.22	29427.56
587.38	29795.02
587.54	29614.80
587.70	29958.86
587.86	29701.40
588.02	29589.05
588.18	29729.48
588.34	29860.55
588.49	29369.04
588.65	29441.60
588.81	29586.71
588.97	29734.17
589.13	29467.34
589.29	29661.61
589.45	29668.63
589.61	29731.83
589.77	29858.21
589.93	29982.26
590.08	29694.38
590.24	29795.02
590.40	29898.00
590.56	30307.60
590.72	29802.04
590.88	29736.51
591.04	29617.14
591.20	30029.07
591.35	30066.52
591.51	29846.51
591.67	30136.74
591.83	30195.25
591.99	29862.90
