SpectraSuite Data File
++++++++++++++++++++++++++++++++++++
Date: Fri Oct 18 13:58:43 GMT-05:00 2013
User: bianchi
Dark Spectrum Present: No
Reference Spectrum Present: No
Number of Sampled Component Spectra: 1
Spectrometers: USB2+H05261
Integration Time (usec): 50000 (USB2+H05261)
Spectra Averaged: 1 (USB2+H05261)
Boxcar Smoothing: 0 (USB2+H05261)
Correct for Electrical Dark: No (USB2+H05261)
Strobe/Lamp Enabled: No (USB2+H05261)
Correct for Detector Non-linearity: No (USB2+H05261)
Correct for Stray Light: No (USB2+H05261)
Number of Pixels in Processed Spectrum: 2048
>>>>>Begin Processed Spectral Data<<<<<
365.73	0.00
365.92	0.00
366.12	0.00
366.32	0.00
366.52	0.00
366.72	0.00
366.91	0.00
367.11	0.00
367.31	0.00
367.51	0.00
367.70	0.00
367.90	0.00
368.10	0.00
368.30	0.00
368.49	0.00
368.69	0.00
368.89	0.00
369.09	0.00
369.28	0.00
369.48	0.00
369.68	0.00
369.87	0.00
370.07	0.00
370.27	0.00
370.47	0.00
370.66	88.94
370.86	142.77
371.06	88.94
371.25	175.54
371.45	131.07
371.65	191.92
371.84	131.07
372.04	98.30
372.24	163.84
372.44	168.52
372.63	210.65
372.83	189.58
373.03	177.88
373.22	196.60
373.42	159.16
373.62	227.03
373.81	231.71
374.01	236.39
374.21	243.42
374.40	191.92
374.60	252.78
374.79	229.37
374.99	220.01
375.19	212.99
375.38	322.99
375.58	177.88
375.78	358.10
375.97	301.93
376.17	337.04
376.37	372.15
376.56	203.63
376.76	292.57
376.95	198.95
377.15	224.69
377.35	250.44
377.54	287.89
377.74	210.65
377.93	290.23
378.13	262.14
378.33	271.50
378.52	257.46
378.72	355.76
378.91	255.12
379.11	318.31
379.31	196.60
379.50	273.84
379.70	304.27
379.89	315.97
380.09	320.65
380.28	252.78
380.48	276.18
380.68	241.08
380.87	348.74
381.07	301.93
381.26	278.52
381.46	334.70
381.65	330.02
381.85	306.61
382.04	283.20
382.24	367.46
382.43	285.55
382.63	332.36
382.83	327.68
383.02	344.06
383.22	358.10
383.41	383.85
383.61	402.57
383.80	430.66
384.00	351.08
384.19	360.44
384.39	327.68
384.58	365.12
384.78	381.51
384.97	402.57
385.17	393.21
385.36	313.63
385.56	374.49
385.75	393.21
385.95	353.42
386.14	383.85
386.34	489.17
386.53	437.68
386.72	454.06
386.92	369.80
387.11	418.96
387.31	362.78
387.50	404.91
387.70	447.04
387.89	390.87
388.09	421.30
388.28	407.25
388.48	449.38
388.67	519.60
388.86	440.02
389.06	531.30
389.25	470.45
389.45	437.68
389.64	428.32
389.84	468.11
390.03	528.96
390.22	514.92
390.42	451.72
390.61	486.83
390.81	484.49
391.00	440.02
391.19	477.47
391.39	531.30
391.58	500.87
391.78	430.66
391.97	517.26
392.16	524.28
392.36	528.96
392.55	486.83
392.75	465.77
392.94	514.92
393.13	550.03
393.33	538.32
393.52	592.16
393.71	587.47
393.91	477.47
394.10	564.07
394.29	550.03
394.49	552.37
394.68	578.11
394.88	599.18
395.07	587.47
395.26	566.41
395.46	557.05
395.65	653.01
395.84	706.84
396.04	648.33
396.23	606.20
396.42	643.65
396.62	629.60
396.81	596.84
397.00	571.09
397.19	631.94
397.39	627.26
397.58	615.56
397.77	695.14
397.97	636.63
398.16	734.93
398.35	653.01
398.55	662.37
398.74	753.65
398.93	674.07
399.12	699.82
399.32	770.04
399.51	641.31
399.70	725.57
399.90	688.12
400.09	772.38
400.28	662.37
400.47	809.83
400.67	671.73
400.86	793.44
401.05	699.82
401.24	755.99
401.44	816.85
401.63	734.93
401.82	795.78
402.01	734.93
402.21	882.38
402.40	760.67
402.59	791.10
402.78	830.89
402.97	851.96
403.17	912.81
403.36	861.32
403.55	866.00
403.74	903.45
403.93	861.32
404.13	896.43
404.32	816.85
404.51	748.97
404.70	915.15
404.89	910.47
405.09	915.15
405.28	882.38
405.47	854.30
405.66	922.17
405.85	870.68
406.05	966.64
406.24	917.49
406.43	983.02
406.62	1013.45
406.81	1053.24
407.00	945.58
407.20	973.66
407.39	990.05
407.58	1022.81
407.77	910.47
407.96	1118.78
408.15	1088.35
408.34	1149.20
408.54	1086.01
408.73	1078.99
408.92	1008.77
409.11	1144.52
409.30	1132.82
409.49	1111.75
409.68	1118.78
409.87	1135.16
410.07	1097.71
410.26	1177.29
410.45	1198.35
410.64	1308.36
410.83	1252.19
411.02	1277.93
411.21	1226.44
411.40	1142.18
411.59	1301.34
411.78	1259.21
411.98	1172.61
412.17	1191.33
412.36	1188.99
412.55	1296.66
412.74	1296.66
412.93	1378.58
413.12	1343.47
413.31	1474.54
413.50	1334.11
413.69	1362.19
413.88	1434.75
414.07	1474.54
414.26	1462.83
414.45	1441.77
414.64	1469.86
414.83	1413.68
415.02	1362.19
415.22	1448.79
415.41	1633.69
415.60	1638.38
415.79	1561.14
415.98	1474.54
416.17	1610.29
416.36	1507.30
416.55	1483.90
416.74	1640.72
416.93	1666.46
417.12	1671.14
417.31	1612.63
417.50	1687.53
417.69	1797.53
417.88	1717.95
418.07	1682.85
418.26	1626.67
418.45	1729.66
418.64	1753.06
418.83	1860.73
419.02	1776.47
419.21	1849.02
419.39	1839.66
419.58	1804.55
419.77	1750.72
419.96	1837.32
420.15	1823.28
420.34	1792.85
420.53	1860.73
420.72	1902.86
420.91	1956.69
421.10	1823.28
421.29	1956.69
421.48	1877.11
421.67	1961.37
421.86	1937.96
422.05	1966.05
422.24	1886.47
422.43	1879.45
422.61	1916.90
422.80	2003.50
422.99	2054.99
423.18	1959.03
423.37	2008.18
423.56	2059.67
423.75	2153.29
423.94	1994.14
424.13	1905.20
424.32	1959.03
424.50	1956.69
424.69	2146.27
424.88	2064.35
425.07	2062.01
425.26	1952.01
425.45	2033.93
425.64	2029.24
425.83	1996.48
426.01	1977.75
426.20	2003.50
426.39	1933.28
426.58	1942.64
426.77	1966.05
426.96	1956.69
427.15	1926.26
427.33	2083.08
427.52	2078.40
427.71	2193.08
427.90	1982.43
428.09	2129.89
428.28	2073.71
428.46	2167.34
428.65	2211.81
428.84	2246.91
429.03	2214.15
429.22	2157.97
429.40	2307.77
429.59	2312.45
429.78	2246.91
429.97	2054.99
430.16	2160.31
430.34	2211.81
430.53	2305.43
430.72	2286.70
430.91	2242.23
431.10	2319.47
431.28	2331.17
431.47	2380.32
431.66	2345.22
431.85	2232.87
432.03	2476.29
432.22	2511.39
432.41	2373.30
432.60	2495.01
432.79	2399.05
432.97	2471.61
433.16	2413.09
433.35	2403.73
433.54	2457.56
433.72	2537.14
433.91	2537.14
434.10	2626.08
434.28	2513.74
434.47	2506.71
434.66	2605.02
434.85	2607.36
435.03	2509.05
435.22	2516.08
435.41	2675.23
435.59	2612.04
435.78	2520.76
435.97	2581.61
436.16	2600.34
436.34	2569.91
436.53	2635.44
436.72	2602.68
436.90	2581.61
437.09	2675.23
437.28	2684.59
437.46	2647.15
437.65	2726.72
437.84	2736.09
438.02	2789.92
438.21	2640.12
438.40	2658.85
438.58	2995.89
438.77	2920.99
438.96	2832.05
439.14	2946.73
439.33	3028.65
439.52	2881.20
439.70	2988.86
439.89	3199.51
440.08	2911.63
440.26	3000.57
440.45	3129.30
440.63	3014.61
440.82	3126.96
441.01	3066.10
441.19	3150.36
441.38	3173.77
441.57	3155.04
441.75	3363.35
441.94	3283.77
442.12	3164.40
442.31	3232.28
442.50	3169.09
442.68	3309.52
442.87	3318.88
443.05	3286.11
443.24	3302.50
443.43	3370.37
443.61	3368.03
443.80	3344.63
443.98	3300.16
444.17	3222.92
444.35	3449.95
444.54	3370.37
444.73	3424.20
444.91	3428.88
445.10	3372.71
445.28	3475.70
445.47	3384.41
445.65	3410.16
445.84	3424.20
446.02	3454.63
446.21	3255.69
446.39	3492.08
446.58	3398.46
446.77	3400.80
446.95	3368.03
447.14	3576.34
447.32	3461.65
447.51	3564.64
447.69	3618.47
447.88	3620.81
448.06	3433.57
448.25	3494.42
448.43	3492.08
448.62	3527.19
448.80	3548.25
448.99	3531.87
449.17	3646.55
449.36	3459.31
449.54	3524.85
449.73	3634.85
449.91	3695.71
450.10	3698.05
450.28	3735.50
450.46	3768.26
450.65	3639.53
450.83	3779.97
451.02	3665.28
451.20	3758.90
451.39	3840.82
451.57	3648.90
451.76	3613.79
451.94	3707.41
452.13	3777.62
452.31	3761.24
452.49	3768.26
452.68	3847.84
452.86	3756.56
453.05	3833.80
453.23	3873.59
453.42	3770.60
453.60	3782.31
453.78	3798.69
453.97	3840.82
454.15	3962.53
454.34	3794.01
454.52	3847.84
454.70	3967.21
454.89	3964.87
455.07	4063.17
455.26	3922.74
455.44	4049.13
455.62	4079.55
455.81	4044.45
455.99	4002.32
456.17	3932.10
456.36	4037.42
456.54	4119.34
456.73	4105.30
456.91	4109.98
457.09	4208.28
457.28	4308.93
457.46	4163.81
457.64	4285.52
457.83	4241.05
458.01	4266.80
458.19	4437.66
458.38	4430.63
458.56	4292.54
458.74	4362.76
458.93	4423.61
459.11	4397.87
459.29	4367.44
459.48	4435.32
459.66	4573.41
459.84	4557.02
460.03	4458.72
460.21	4353.40
460.39	4578.09
460.57	4322.97
460.76	4311.27
460.94	4594.47
461.12	4578.09
461.31	4559.36
461.49	4484.47
461.67	4538.30
461.85	4650.64
462.04	4655.33
462.22	4554.68
462.40	4690.43
462.59	4819.16
462.77	4739.58
462.95	4880.02
463.13	4709.16
463.32	4692.77
463.50	4746.61
463.68	4627.24
463.86	4718.52
464.05	4737.24
464.23	4629.58
464.41	4884.70
464.59	4753.63
464.78	5004.07
464.96	5060.24
465.14	4800.44
465.32	4856.61
465.50	5067.26
465.69	4917.47
465.87	4809.80
466.05	4786.40
466.23	4945.55
466.41	4882.36
466.60	5132.79
466.78	4975.98
466.96	4968.96
467.14	4915.12
467.32	4891.72
467.51	5233.44
467.69	4971.30
467.87	5231.10
468.05	5104.71
468.23	5139.82
468.41	4990.02
468.60	4910.44
468.78	5224.08
468.96	5069.60
469.14	5266.21
469.32	5296.63
469.50	4926.83
469.69	5200.67
469.87	5352.81
470.05	5280.25
470.23	5376.21
470.41	5472.17
470.59	5394.93
470.77	5418.34
470.95	5490.90
471.14	5458.13
471.32	5446.43
471.50	5483.88
471.68	5479.19
471.86	5551.75
472.04	5530.69
472.22	5631.33
472.40	5603.24
472.58	5621.97
472.77	5802.19
472.95	5722.61
473.13	5956.66
473.31	5834.96
473.49	5666.44
473.67	5914.53
473.85	5764.74
474.03	6031.56
474.21	5989.43
474.39	5937.94
474.57	6136.88
474.75	5937.94
474.93	6132.20
475.12	6064.33
475.30	6026.88
475.48	6043.26
475.66	6349.87
475.84	6186.04
476.02	6260.93
476.20	6186.04
476.38	6494.99
476.56	6511.37
476.74	6527.75
476.92	6492.65
477.10	6431.79
477.28	6544.14
477.46	6595.63
477.64	6525.41
477.82	6658.82
478.00	6754.79
478.18	6836.70
478.36	6750.10
478.54	6857.77
478.72	6869.47
478.90	6806.28
479.08	7115.23
479.26	7159.70
479.44	7220.55
479.62	7274.38
479.80	7344.60
479.98	7300.13
480.16	7506.10
480.34	7241.62
480.52	7522.48
480.70	7613.76
480.88	7438.22
481.06	7485.03
481.24	7723.77
481.41	7840.79
481.59	7889.95
481.77	7997.61
481.95	7854.84
482.13	7976.55
482.31	7845.48
482.49	8124.00
482.67	8187.19
482.85	8315.92
483.03	8388.48
483.21	8540.61
483.39	8477.42
483.57	8439.97
483.74	8519.55
483.92	8631.90
484.10	8514.87
484.28	8779.35
484.46	8791.05
484.64	8950.21
484.82	8987.66
485.00	9046.17
485.18	9303.63
485.35	9132.77
485.53	9114.05
485.71	9324.69
485.89	9535.34
486.07	9584.49
486.25	9713.22
486.43	9591.52
486.61	9547.05
486.78	9671.09
486.96	9748.33
487.14	9839.61
487.32	9944.94
487.50	10001.11
487.68	10054.94
487.85	10260.91
488.03	10455.17
488.21	10551.14
488.39	10553.48
488.57	10499.64
488.75	10759.44
488.92	10750.08
489.10	10672.84
489.28	10848.38
489.46	11082.44
489.64	10808.59
489.81	11096.48
489.99	11089.46
490.17	11353.94
490.35	11389.05
490.53	11276.70
490.70	11391.39
490.88	11513.10
491.06	11850.13
491.24	11541.18
491.41	11784.60
491.59	11962.48
491.77	11815.02
491.95	11735.45
492.13	12016.31
492.30	12362.71
492.48	12053.76
492.66	12320.58
492.84	12142.70
493.01	12210.57
493.19	12294.83
493.37	12566.34
493.54	12514.84
493.72	12744.22
493.90	12699.75
494.08	12894.01
494.25	12863.58
494.43	12765.28
494.61	12922.10
494.79	13289.56
494.96	13275.52
495.14	13179.56
495.32	13502.55
495.49	13270.84
495.67	13476.80
495.85	13565.74
496.02	13678.09
496.20	13427.65
496.38	13781.07
496.55	14040.87
496.73	14193.01
496.91	13907.46
497.09	13935.55
497.26	14281.95
497.44	13841.93
497.62	14115.77
497.79	14373.23
497.97	14218.75
498.14	14647.07
498.32	14661.12
498.50	14651.75
498.67	14560.47
498.85	14909.21
499.03	14691.54
499.20	14743.03
499.38	14684.52
499.56	14904.53
499.73	14752.40
499.91	15466.26
500.08	15323.49
500.26	14906.87
500.44	15332.85
500.61	15417.11
500.79	15323.49
500.97	15660.52
501.14	15494.35
501.32	15482.64
501.49	15609.03
501.67	15679.25
501.84	15590.31
502.02	15714.36
502.20	15697.97
502.37	16152.04
502.55	16238.64
502.72	15978.84
502.90	16091.18
503.07	16006.92
503.25	16023.31
503.43	15793.94
503.60	16400.13
503.78	16208.21
503.95	16519.50
504.13	16343.96
504.30	16194.17
504.48	16397.79
504.65	16482.05
504.83	16760.58
505.01	17092.93
505.18	16727.81
505.36	17092.93
505.53	16755.90
505.71	16704.40
505.88	17111.66
506.06	16929.09
506.23	17116.34
506.41	16905.69
506.58	17256.77
506.76	17493.16
506.93	17275.49
507.11	17055.48
507.28	17406.56
507.46	17001.65
507.63	17366.78
507.81	17422.95
507.98	17376.14
508.16	17542.32
508.33	17652.32
508.50	17659.34
508.68	17727.22
508.85	17771.69
509.03	18153.20
509.20	18024.47
509.38	18064.25
509.55	18157.88
509.73	18249.16
509.90	18195.32
510.08	17837.22
510.25	18134.47
510.42	18288.95
510.60	18586.19
510.77	18441.08
510.95	18462.15
511.12	18457.46
511.30	18204.69
511.47	18590.88
511.64	18799.18
511.82	18675.13
511.99	18508.96
512.17	18871.74
512.34	18857.70
512.51	19084.73
512.69	18906.85
512.86	18906.85
513.04	19674.54
513.21	19105.79
513.38	19152.60
513.56	19307.08
513.73	19199.41
513.90	19433.47
514.08	19426.45
514.25	19381.98
514.43	19391.34
514.60	19477.94
514.77	19316.44
514.95	19648.80
515.12	19414.74
515.29	19468.58
515.47	19850.08
515.64	19829.02
515.81	19751.78
515.99	20161.37
516.16	20063.07
516.33	19988.18
516.51	20297.13
516.68	20074.77
516.85	19737.74
517.03	20140.31
517.20	20222.23
517.37	20231.59
517.54	20531.18
517.72	20306.49
517.89	20301.81
518.06	20713.74
518.24	20470.33
518.41	20243.29
518.58	20519.48
518.75	20608.42
518.93	20664.59
519.10	20552.24
519.27	20622.46
519.45	20563.95
519.62	20856.51
519.79	20690.34
519.96	20760.55
520.14	21308.24
520.31	21010.99
520.48	21078.86
520.65	20893.96
520.83	21394.84
521.00	21170.15
521.17	20896.30
521.34	21263.77
521.52	21305.90
521.69	21472.07
521.86	21795.07
522.03	21682.72
522.20	21736.56
522.38	21619.53
522.55	21226.32
522.72	21759.96
522.89	21462.71
523.07	22059.55
523.24	21970.61
523.41	21734.21
523.58	21687.40
523.75	21876.99
523.92	21638.25
524.10	21659.32
524.27	21802.09
524.44	22085.30
524.61	21921.46
524.78	21855.92
524.96	22464.46
525.13	22160.19
525.30	22230.41
525.47	22490.21
525.64	22544.04
525.81	22190.62
525.98	22665.75
526.16	22530.00
526.33	22307.65
526.50	22829.59
526.67	22501.91
526.84	22768.73
527.01	22361.48
527.18	22696.17
527.36	22911.50
527.53	22522.98
527.70	22970.02
527.87	23208.75
528.04	22967.68
528.21	23070.66
528.38	23087.04
528.55	23147.90
528.72	22630.64
528.89	23117.47
529.07	23309.40
529.24	22902.14
529.41	23267.27
529.58	23321.10
529.75	23000.44
529.92	22986.40
530.09	23140.88
530.26	23452.17
530.43	23489.62
530.60	23381.95
530.77	23351.52
530.94	23449.83
531.11	23131.51
531.28	23470.89
531.46	23597.28
531.63	23653.45
531.80	23852.40
531.97	23887.51
532.14	23908.57
532.31	23550.47
532.48	23845.38
532.65	23915.59
532.82	23866.44
532.99	23782.18
533.16	23751.76
533.33	24168.37
533.50	24315.83
533.67	24063.05
533.84	23803.25
534.01	23606.64
534.18	24030.28
534.35	24233.91
534.52	24079.43
534.69	24044.32
534.86	24224.54
535.03	24432.85
535.20	24102.84
535.37	24329.87
535.54	24463.28
535.71	24332.21
535.88	24467.96
536.05	24388.38
536.22	24566.26
536.38	24765.21
536.55	24844.79
536.72	24624.78
536.89	24580.31
537.06	24315.83
537.23	24835.42
537.40	24563.92
537.57	24826.06
537.74	24699.67
537.91	25144.38
538.08	25151.40
538.25	24634.14
538.42	24858.83
538.59	25003.94
538.75	24877.55
538.92	24907.98
539.09	24751.17
539.26	25181.82
539.43	25205.23
539.60	25174.80
539.77	25095.22
539.94	25350.34
540.11	25460.35
540.28	25010.96
540.44	25296.51
540.61	25453.33
540.78	24917.34
540.95	25324.60
541.12	25170.12
541.29	25539.93
541.46	25298.85
541.62	24900.96
541.79	25912.07
541.96	25378.43
542.13	25118.63
542.30	25579.71
542.47	26111.02
542.63	25689.72
542.80	25867.60
542.97	25891.01
543.14	25968.24
543.31	25834.83
543.48	25788.02
543.64	26216.34
543.81	25858.24
543.98	26260.81
544.15	26347.41
544.32	26438.69
544.48	26148.46
544.65	26139.10
544.82	25944.84
544.99	25954.20
545.16	26239.75
545.32	26190.59
545.49	26801.47
545.66	26497.20
545.83	26445.71
546.00	26717.22
546.16	26214.00
546.33	26558.06
546.50	26209.32
546.67	26548.70
546.83	26373.16
547.00	26757.00
547.17	26473.80
547.34	26448.05
547.50	26867.01
547.67	27239.15
547.84	26836.58
548.00	26799.13
548.17	26841.26
548.34	26544.02
548.51	27131.49
548.67	27105.74
548.84	26878.71
549.01	26991.06
549.18	26586.15
549.34	27030.85
549.51	26808.50
549.68	26836.58
549.84	26710.19
550.01	27051.91
550.18	26911.48
550.34	27250.86
550.51	27166.60
550.68	27199.37
550.84	27171.28
551.01	27166.60
551.18	27023.83
551.34	26604.87
551.51	27482.57
551.68	27122.13
551.84	27058.93
552.01	27009.78
552.18	27587.89
552.34	27445.12
552.51	27688.54
552.68	27321.07
552.84	27487.25
553.01	27700.24
553.18	27309.37
553.34	27641.73
553.51	27267.24
553.67	27845.35
553.84	28046.64
554.01	28056.00
554.17	27679.18
554.34	27447.46
554.51	27541.08
554.67	27447.46
554.84	27573.85
555.00	28006.85
555.17	27679.18
555.33	27637.05
555.50	27754.07
555.67	27770.46
555.83	27552.79
556.00	27985.79
556.16	28397.72
556.33	27868.76
556.50	27674.49
556.66	27913.23
556.83	28037.28
556.99	28290.06
557.16	28271.33
557.32	28086.43
557.49	28079.41
557.65	28215.16
557.82	27819.61
557.98	28180.05
558.15	27688.54
558.32	28379.00
558.48	28018.55
558.65	28318.14
558.81	28327.50
558.98	27992.81
559.14	27962.38
559.31	28573.26
559.47	28238.56
559.64	28219.84
559.80	28533.47
559.97	28386.02
560.13	28168.35
560.30	28739.44
560.46	28503.04
560.63	28474.96
560.79	28547.51
560.96	28484.32
561.12	28531.13
561.29	28004.51
561.45	28247.93
561.61	28491.34
561.78	28519.43
561.94	28584.96
562.11	28381.34
562.27	28381.34
562.44	28772.21
562.60	28339.21
562.77	28699.65
562.93	28285.37
563.10	28720.71
563.26	28912.64
563.42	28716.03
563.59	28776.89
563.75	28451.55
563.92	28793.27
564.08	28503.04
564.24	28971.15
564.41	28762.84
564.57	28978.17
564.74	28589.64
564.90	29078.82
565.07	28739.44
565.23	28774.55
565.39	28547.51
565.56	28854.12
565.72	28407.08
565.88	28685.61
566.05	28610.71
566.21	28474.96
566.38	28641.14
566.54	28552.20
566.70	28828.38
566.87	29118.60
567.03	28861.15
567.19	29001.58
567.36	29029.66
567.52	28877.53
567.68	29057.75
567.85	28636.45
568.01	29104.56
568.17	28865.83
568.34	28919.66
568.50	28903.28
568.66	29017.96
568.83	29441.60
568.99	28879.87
569.15	29230.95
569.32	28816.68
569.48	28926.68
569.64	29001.58
569.81	28907.96
569.97	29455.64
570.13	28755.82
570.30	28943.06
570.46	29172.44
570.62	28912.64
570.78	29029.66
570.95	28840.08
571.11	29095.20
571.27	29055.41
571.43	28814.34
571.60	29046.05
571.76	28968.81
571.92	28980.51
572.09	29001.58
572.25	28807.31
572.41	29123.29
572.57	29123.29
572.74	29383.09
572.90	28952.43
573.06	28943.06
573.22	29008.60
573.38	28999.24
573.55	29256.70
573.71	29390.11
573.87	29469.69
574.03	29219.25
574.20	29046.05
574.36	28842.42
574.52	29364.36
574.68	29099.88
574.84	29013.28
575.01	29240.31
575.17	29376.06
575.33	29151.37
575.49	28978.17
575.65	29497.77
575.82	29392.45
575.98	29282.44
576.14	29860.55
576.30	29095.20
576.46	28954.77
576.62	29392.45
576.79	29174.78
576.95	29034.35
577.11	29254.36
577.27	29221.59
577.43	29493.09
577.59	29338.62
577.75	29284.78
577.92	29247.33
578.08	29109.24
578.24	29666.29
578.40	29446.28
578.56	29404.15
578.72	29252.02
578.88	29659.27
579.04	29577.35
579.21	29186.48
579.37	29366.70
579.53	29439.26
579.69	29418.19
579.85	29200.52
580.01	29277.76
580.17	29027.32
580.33	29120.95
580.49	29455.64
580.65	29226.27
580.82	29890.98
580.98	29544.58
581.14	29518.84
581.30	29661.61
581.46	29394.79
581.62	29261.38
581.78	29118.60
581.94	29284.78
582.10	29200.52
582.26	29703.74
582.42	29298.83
582.58	29575.01
582.74	29539.90
582.90	29645.23
583.06	29408.83
583.22	29666.29
583.38	29785.66
583.54	29577.35
583.70	29336.27
583.86	29273.08
584.02	29413.51
584.18	29724.80
584.34	29649.91
584.50	29635.86
584.66	29647.57
584.82	29474.37
584.98	29591.39
585.14	29109.24
585.30	29565.65
585.46	29397.13
585.62	29448.62
585.78	29275.42
585.94	29502.45
586.10	29324.57
586.26	29668.63
586.42	29837.15
586.58	29663.95
586.74	29652.25
586.90	29811.40
587.06	29315.21
587.22	29593.73
587.38	29095.20
587.54	29834.81
587.70	29488.41
587.86	29596.07
588.02	29668.63
588.18	29778.64
588.34	29542.24
588.49	29570.33
588.65	29165.42
588.81	29769.27
588.97	29516.50
589.13	29572.67
589.29	29867.58
589.45	29841.83
589.61	29818.42
589.77	30059.50
589.93	29743.53
590.08	29696.72
590.24	29965.88
590.40	29919.07
590.56	30206.95
590.72	29928.43
590.88	29523.52
591.04	29605.44
591.20	29951.84
591.35	29993.97
591.51	29778.64
591.67	30005.67
591.83	30328.66
591.99	30096.95
