SpectraSuite Data File
++++++++++++++++++++++++++++++++++++
Date: Fri Oct 18 13:57:56 GMT-05:00 2013
User: bianchi
Dark Spectrum Present: No
Reference Spectrum Present: No
Number of Sampled Component Spectra: 1
Spectrometers: USB2+H05261
Integration Time (usec): 50000 (USB2+H05261)
Spectra Averaged: 1 (USB2+H05261)
Boxcar Smoothing: 0 (USB2+H05261)
Correct for Electrical Dark: No (USB2+H05261)
Strobe/Lamp Enabled: No (USB2+H05261)
Correct for Detector Non-linearity: No (USB2+H05261)
Correct for Stray Light: No (USB2+H05261)
Number of Pixels in Processed Spectrum: 2048
>>>>>Begin Processed Spectral Data<<<<<
365.73	0.00
365.92	0.00
366.12	0.00
366.32	0.00
366.52	0.00
366.72	0.00
366.91	0.00
367.11	0.00
367.31	0.00
367.51	0.00
367.70	0.00
367.90	0.00
368.10	0.00
368.30	0.00
368.49	0.00
368.69	0.00
368.89	0.00
369.09	0.00
369.28	0.00
369.48	0.00
369.68	0.00
369.87	0.00
370.07	0.00
370.27	0.00
370.47	0.00
370.66	32.77
370.86	124.05
371.06	142.77
371.25	152.13
371.45	124.05
371.65	173.20
371.84	117.03
372.04	88.94
372.24	212.99
372.44	210.65
372.63	215.33
372.83	196.60
373.03	182.56
373.22	191.92
373.42	210.65
373.62	159.16
373.81	238.73
374.01	273.84
374.21	266.82
374.40	217.67
374.60	287.89
374.79	194.26
374.99	276.18
375.19	182.56
375.38	224.69
375.58	220.01
375.78	278.52
375.97	264.48
376.17	212.99
376.37	353.42
376.56	262.14
376.76	257.46
376.95	269.16
377.15	266.82
377.35	285.55
377.54	243.42
377.74	304.27
377.93	367.46
378.13	311.29
378.33	383.85
378.52	355.76
378.72	273.84
378.91	348.74
379.11	344.06
379.31	280.86
379.50	341.72
379.70	250.44
379.89	294.91
380.09	332.36
380.28	365.12
380.48	344.06
380.68	271.50
380.87	287.89
381.07	283.20
381.26	315.97
381.46	259.80
381.65	374.49
381.85	276.18
382.04	355.76
382.24	348.74
382.43	266.82
382.63	294.91
382.83	390.87
383.02	425.98
383.22	322.99
383.41	358.10
383.61	330.02
383.80	411.93
384.00	393.21
384.19	278.52
384.39	451.72
384.58	386.19
384.78	372.15
384.97	414.27
385.17	337.04
385.36	407.25
385.56	404.91
385.75	393.21
385.95	428.32
386.14	472.79
386.34	416.62
386.53	461.09
386.72	437.68
386.92	372.15
387.11	465.77
387.31	416.62
387.50	482.15
387.70	449.38
387.89	393.21
388.09	369.80
388.28	411.93
388.48	418.96
388.67	416.62
388.86	421.30
389.06	456.40
389.25	475.13
389.45	505.56
389.64	472.79
389.84	512.58
390.03	514.92
390.22	526.62
390.42	500.87
390.61	503.22
390.81	491.51
391.00	545.34
391.19	603.86
391.39	557.05
391.58	540.66
391.78	550.03
391.97	512.58
392.16	603.86
392.36	594.50
392.55	568.75
392.75	554.71
392.94	552.37
393.13	456.40
393.33	566.41
393.52	650.67
393.71	669.39
393.91	643.65
394.10	655.35
394.29	564.07
394.49	575.77
394.68	592.16
394.88	620.24
395.07	629.60
395.26	610.88
395.46	664.71
395.65	589.82
395.84	622.58
396.04	664.71
396.23	613.22
396.42	655.35
396.62	734.93
396.81	662.37
397.00	777.06
397.19	720.88
397.39	704.50
397.58	711.52
397.77	692.80
397.97	692.80
398.16	828.55
398.35	748.97
398.55	627.26
398.74	746.63
398.93	748.97
399.12	711.52
399.32	720.88
399.51	662.37
399.70	760.67
399.90	763.01
400.09	746.63
400.28	851.96
400.47	781.74
400.67	863.66
400.86	781.74
401.05	866.00
401.24	814.51
401.44	880.04
401.63	833.23
401.82	795.78
402.01	851.96
402.21	805.14
402.40	807.48
402.59	931.53
402.78	791.10
402.97	912.81
403.17	894.08
403.36	917.49
403.55	798.12
403.74	938.55
403.93	854.30
404.13	957.28
404.32	837.91
404.51	978.34
404.70	1055.58
404.89	929.19
405.09	915.15
405.28	992.39
405.47	983.02
405.66	1048.56
405.85	933.87
406.05	1069.62
406.24	999.41
406.43	1067.28
406.62	1088.35
406.81	1088.35
407.00	1015.79
407.20	1020.47
407.39	987.71
407.58	1160.91
407.77	1088.35
407.96	1006.43
408.15	1062.60
408.34	1034.52
408.54	1076.65
408.73	1132.82
408.92	1121.12
409.11	1130.48
409.30	1193.67
409.49	1130.48
409.68	1149.20
409.87	1053.24
410.07	1104.73
410.26	1263.89
410.45	1284.95
410.64	1329.42
410.83	1284.95
411.02	1219.42
411.21	1338.79
411.40	1338.79
411.59	1268.57
411.78	1348.15
411.98	1261.55
412.17	1371.55
412.36	1348.15
412.55	1437.09
412.74	1345.81
412.93	1432.41
413.12	1296.66
413.31	1416.02
413.50	1460.49
413.69	1516.67
413.88	1490.92
414.07	1514.33
414.26	1551.78
414.45	1568.16
414.64	1500.28
414.83	1507.30
415.02	1584.54
415.22	1502.62
415.41	1659.44
415.60	1659.44
415.79	1591.56
415.98	1561.14
416.17	1739.02
416.36	1619.65
416.55	1650.08
416.74	1680.50
416.93	1664.12
417.12	1762.42
417.31	1720.29
417.50	1706.25
417.69	1701.57
417.88	1764.76
418.07	1661.78
418.26	1785.83
418.45	1952.01
418.64	1764.76
418.83	1792.85
419.02	1792.85
419.21	1811.57
419.39	1888.81
419.58	1771.79
419.77	1858.39
419.96	1893.49
420.15	1877.11
420.34	1930.94
420.53	1954.35
420.72	1893.49
420.91	1961.37
421.10	1977.75
421.29	2029.24
421.48	1923.92
421.67	2015.20
421.86	2019.88
422.05	1982.43
422.24	1949.67
422.43	2047.97
422.61	2040.95
422.80	2062.01
422.99	2146.27
423.18	2033.93
423.37	2134.57
423.56	2113.50
423.75	2008.18
423.94	2057.33
424.13	1830.30
424.32	1877.11
424.50	2139.25
424.69	2143.93
424.88	2008.18
425.07	2069.03
425.26	2073.71
425.45	2047.97
425.64	2059.67
425.83	2111.16
426.01	2092.44
426.20	2165.00
426.39	2148.61
426.58	2064.35
426.77	2064.35
426.96	2176.70
427.15	2146.27
427.33	2246.91
427.52	2179.04
427.71	2265.64
427.90	2349.90
428.09	2176.70
428.28	2272.66
428.46	2188.40
428.65	2286.70
428.84	2209.47
429.03	2291.38
429.22	2305.43
429.40	2275.00
429.59	2230.53
429.78	2286.70
429.97	2120.53
430.16	2363.94
430.34	2375.64
430.53	2363.94
430.72	2340.54
430.91	2420.11
431.10	2457.56
431.28	2422.45
431.47	2303.09
431.66	2546.50
431.85	2478.63
432.03	2499.69
432.22	2523.10
432.41	2511.39
432.60	2555.86
432.79	2455.22
432.97	2497.35
433.16	2520.76
433.35	2466.92
433.54	2497.35
433.72	2558.21
433.91	2574.59
434.10	2633.10
434.28	2637.78
434.47	2544.16
434.66	2672.89
434.85	2614.38
435.03	2785.24
435.22	2656.51
435.41	2670.55
435.59	2682.25
435.78	2644.81
435.97	2675.23
436.16	2675.23
436.34	2775.88
436.53	2637.78
436.72	2820.35
436.90	2789.92
437.09	2661.19
437.28	2803.96
437.46	2612.04
437.65	2906.95
437.84	2853.11
438.02	2988.86
438.21	2890.56
438.40	2860.13
438.58	2902.26
438.77	3035.67
438.96	2988.86
439.14	2967.80
439.33	3030.99
439.52	3070.78
439.70	3021.63
439.89	3155.04
440.08	3115.25
440.26	3042.70
440.45	3105.89
440.63	3136.32
440.82	3183.13
441.01	3148.02
441.19	3243.98
441.38	3218.24
441.57	3225.26
441.75	3267.39
441.94	3370.37
442.12	3393.78
442.31	3454.63
442.50	3417.18
442.68	3379.73
442.87	3452.29
443.05	3407.82
443.24	3534.21
443.43	3452.29
443.61	3534.21
443.80	3634.85
443.98	3461.65
444.17	3393.78
444.35	3545.91
444.54	3613.79
444.73	3456.97
444.91	3566.98
445.10	3618.47
445.28	3506.12
445.47	3613.79
445.65	3609.11
445.84	3686.34
446.02	3620.81
446.21	3300.16
446.39	3534.21
446.58	3527.19
446.77	3660.60
446.95	3506.12
447.14	3501.44
447.32	3590.38
447.51	3637.19
447.69	3625.49
447.88	3613.79
448.06	3742.52
448.25	3651.24
448.43	3669.96
448.62	3644.21
448.80	3597.40
448.99	3754.22
449.17	3644.21
449.36	3557.61
449.54	3794.01
449.73	3777.62
449.91	3632.51
450.10	3730.81
450.28	3824.44
450.46	3838.48
450.65	3892.31
450.83	3873.59
451.02	3779.97
451.20	3885.29
451.39	3843.16
451.57	3826.78
451.76	3838.48
451.94	3922.74
452.13	3985.93
452.31	3939.12
452.49	3936.78
452.68	3948.48
452.86	4131.05
453.05	4032.74
453.23	4079.55
453.42	3962.53
453.60	4023.38
453.78	4004.66
453.97	3929.76
454.15	3990.61
454.34	3950.82
454.52	4095.94
454.70	4168.49
454.89	4119.34
455.07	4025.72
455.26	4238.71
455.44	4224.67
455.62	4255.09
455.81	4271.48
455.99	4257.43
456.17	4355.74
456.36	4243.39
456.54	4327.65
456.73	4479.79
456.91	4468.08
457.09	4505.53
457.28	4547.66
457.46	4440.00
457.64	4367.44
457.83	4610.86
458.01	4362.76
458.19	4484.47
458.38	4528.94
458.56	4634.26
458.74	4512.55
458.93	4751.29
459.11	4554.68
459.29	4585.11
459.48	4709.16
459.66	4545.32
459.84	4786.40
460.03	4851.93
460.21	4685.75
460.39	4678.73
460.57	4755.97
460.76	4655.33
460.94	4732.56
461.12	4617.88
461.31	4718.52
461.49	4690.43
461.67	4655.33
461.85	4798.10
462.04	4870.65
462.22	5029.81
462.40	4854.27
462.59	4910.44
462.77	4894.06
462.95	4936.19
463.13	4830.87
463.32	4870.65
463.50	5032.15
463.68	5135.14
463.86	4966.62
464.05	4978.32
464.23	4968.96
464.41	5025.13
464.59	4875.34
464.78	5022.79
464.96	4966.62
465.14	5093.01
465.32	5191.31
465.50	5123.43
465.69	5369.19
465.87	5085.98
466.05	5116.41
466.23	5135.14
466.41	5151.52
466.60	5404.30
466.78	5233.44
466.96	5174.92
467.14	5296.63
467.32	5280.25
467.51	5408.98
467.69	5263.86
467.87	5507.28
468.05	5270.89
468.23	5263.86
468.41	5203.01
468.60	5500.26
468.78	5348.12
468.96	5287.27
469.14	5526.00
469.32	5526.00
469.50	5224.08
469.69	5593.88
469.87	5626.65
470.05	5652.39
470.23	5582.18
470.41	5685.16
470.59	5399.62
470.77	5661.76
470.95	5542.39
471.14	5851.34
471.32	5481.53
471.50	5647.71
471.68	5781.12
471.86	5703.89
472.04	5584.52
472.22	5820.91
472.40	5844.32
472.58	5881.77
472.77	5853.68
472.95	5994.11
473.13	6122.84
473.31	5994.11
473.49	6012.84
473.67	5853.68
473.85	6047.94
474.03	6317.11
474.21	6221.14
474.39	6300.72
474.57	6228.17
474.75	6171.99
474.93	6366.26
475.12	6410.73
475.30	6368.60
475.48	6509.03
475.66	6429.45
475.84	6401.37
476.02	6502.01
476.20	6644.78
476.38	6609.67
476.56	6757.13
476.74	6757.13
476.92	6562.86
477.10	6761.81
477.28	6626.06
477.46	6754.79
477.64	6958.41
477.82	7080.12
478.00	7178.42
478.18	7194.81
478.36	7258.00
478.54	7325.88
478.72	7435.88
478.90	7360.98
479.08	7386.73
479.26	7496.74
479.44	7478.01
479.62	7557.59
479.80	7637.17
479.98	7744.83
480.16	7620.78
480.34	7889.95
480.52	7709.72
480.70	7880.58
480.88	7627.81
481.06	8079.53
481.24	7859.52
481.41	8142.72
481.59	8084.21
481.77	8308.90
481.95	8257.41
482.13	8315.92
482.31	8383.80
482.49	8367.42
482.67	8491.46
482.85	8676.37
483.03	8744.24
483.21	8861.27
483.39	8882.33
483.57	8774.67
483.74	8954.89
483.92	9064.89
484.10	8994.68
484.28	9125.75
484.46	9305.97
484.64	9561.09
484.82	9266.18
485.00	9249.80
485.18	9549.39
485.35	9589.17
485.53	9619.60
485.71	9720.24
485.89	9968.34
486.07	9820.89
486.25	9942.60
486.43	9853.66
486.61	10127.50
486.78	10029.20
486.96	10361.55
487.14	10541.77
487.32	10244.52
487.50	10431.77
487.68	10464.54
487.85	10824.98
488.03	10920.94
488.21	10794.55
488.39	10843.70
488.57	10740.72
488.75	11016.90
488.92	11246.27
489.10	11274.36
489.28	11173.72
489.46	11398.41
489.64	11559.91
489.81	11604.38
489.99	11672.25
490.17	11829.07
490.35	11915.67
490.53	11934.39
490.70	12025.67
490.88	12056.10
491.06	12327.60
491.24	12243.34
491.41	12093.55
491.59	12428.24
491.77	12231.64
491.95	12505.48
492.13	12627.19
492.30	12549.95
492.48	12617.83
492.66	12697.41
492.84	12929.12
493.01	12879.97
493.19	13020.40
493.37	13050.83
493.54	13172.54
493.72	13036.78
493.90	13135.09
494.08	13334.03
494.25	13481.49
494.43	13612.56
494.61	13404.25
494.79	13731.92
494.96	13841.93
495.14	13729.58
495.32	13802.14
495.49	13923.85
495.67	14228.12
495.85	14338.12
496.02	14326.42
496.20	14478.55
496.38	14228.12
496.55	14178.97
496.73	14691.54
496.91	14670.48
497.09	14773.46
497.26	14822.61
497.44	14789.85
497.62	14841.34
497.79	14956.02
497.97	14874.10
498.14	15295.40
498.32	15082.41
498.50	15426.47
498.67	15337.53
498.85	15602.01
499.03	15477.96
499.20	15337.53
499.38	15763.51
499.56	15751.81
499.73	15793.94
499.91	15779.89
500.08	15843.09
500.26	15646.48
500.44	15735.42
500.61	15990.54
500.79	16217.57
500.97	16201.19
501.14	16521.84
501.32	16486.73
501.49	16290.13
501.67	16362.69
501.84	16137.99
502.02	16451.63
502.20	16664.61
502.37	16905.69
502.55	16765.26
502.72	16697.38
502.90	16463.33
503.07	17081.23
503.25	16585.04
503.43	16835.47
503.60	17041.44
503.78	17151.45
503.95	17083.57
504.13	17202.94
504.30	17032.08
504.48	17011.01
504.65	17317.62
504.83	17444.01
505.01	17652.32
505.18	17357.41
505.36	17680.41
505.53	17633.60
505.71	17509.55
505.88	17575.08
506.06	17795.09
506.23	17727.22
506.41	17708.49
506.58	18050.21
506.76	18190.64
506.93	18052.55
507.11	17788.07
507.28	18387.25
507.46	18310.01
507.63	18181.28
507.81	18661.09
507.98	18197.67
508.16	18319.37
508.33	18183.62
508.50	18298.31
508.68	18637.69
508.85	18867.06
509.03	18525.34
509.20	18604.92
509.38	18822.59
509.55	18920.89
509.73	19049.62
509.90	18974.72
510.08	18651.73
510.25	19044.94
510.42	19199.41
510.60	19236.86
510.77	19585.60
510.95	19234.52
511.12	19126.86
511.30	19281.33
511.47	19262.61
511.64	19482.62
511.82	19646.46
511.99	19917.96
512.17	19700.29
512.34	19763.48
512.51	19599.65
512.69	19775.19
512.86	19566.88
513.04	20292.44
513.21	20013.92
513.38	20088.82
513.56	19957.75
513.73	20063.07
513.90	20350.96
514.08	20095.84
514.25	20467.98
514.43	19969.45
514.60	20428.20
514.77	20512.46
514.95	20929.07
515.12	20245.63
515.29	20421.17
515.47	20491.39
515.64	20596.71
515.81	20411.81
515.99	21263.77
516.16	21142.06
516.33	21238.02
516.51	21151.42
516.68	21057.80
516.85	20751.19
517.03	20938.43
517.20	21160.78
517.37	21118.65
517.54	21525.91
517.72	21245.04
517.89	21329.30
518.06	21308.24
518.24	21345.69
518.41	21060.14
518.58	21577.40
518.75	21324.62
518.93	21678.04
519.10	21446.33
519.27	21972.95
519.45	21816.13
519.62	22089.98
519.79	21965.93
519.96	21661.66
520.14	21855.92
520.31	21947.20
520.48	22036.14
520.65	22183.60
520.83	22089.98
521.00	22403.61
521.17	22024.44
521.34	22288.92
521.52	22223.39
521.69	22228.07
521.86	22494.89
522.03	22663.41
522.20	22253.81
522.38	22806.18
522.55	22583.83
522.72	22576.81
522.89	22647.02
523.07	23136.20
523.24	22593.19
523.41	22937.25
523.58	22703.20
523.75	22623.62
523.92	22939.59
524.10	22932.57
524.27	23363.23
524.44	23349.18
524.61	23407.70
524.78	23353.87
524.96	23124.49
525.13	23328.12
525.30	23161.94
525.47	23431.10
525.64	23213.43
525.81	23356.21
525.98	23550.47
526.16	23491.96
526.33	23718.99
526.50	23894.53
526.67	23791.55
526.84	23613.66
527.01	24006.87
527.18	23779.84
527.36	24084.11
527.53	24215.18
527.70	24140.29
527.87	24109.86
528.04	24133.26
528.21	23878.15
528.38	24151.99
528.55	24161.35
528.72	23807.93
528.89	24414.13
529.07	24503.07
529.24	24205.82
529.41	24657.54
529.58	24325.19
529.75	24198.80
529.92	24423.49
530.09	24690.31
530.26	24713.72
530.43	24704.35
530.60	24645.84
530.77	24353.27
530.94	24570.94
531.11	24650.52
531.28	24372.00
531.46	24751.17
531.63	25032.03
531.80	24905.64
531.97	25020.33
532.14	25032.03
532.31	24854.15
532.48	24912.66
532.65	25027.35
532.82	25205.23
532.99	25081.18
533.16	24957.13
533.33	25228.63
533.50	25266.08
533.67	25303.53
533.84	24905.64
534.01	24833.08
534.18	25184.16
534.35	25317.57
534.52	25284.81
534.69	25378.43
534.86	25333.96
535.03	25268.42
535.20	25692.06
535.37	25575.03
535.54	25722.49
535.71	25582.06
535.88	25226.29
536.05	25703.76
536.22	26171.87
536.38	25596.10
536.55	25738.87
536.72	25769.30
536.89	25682.70
537.06	25935.48
537.23	26162.51
537.40	25703.76
537.57	25729.51
537.74	26050.16
537.91	26214.00
538.08	26005.69
538.25	26001.01
538.42	26448.05
538.59	26506.57
538.75	25844.20
538.92	26061.87
539.09	26473.80
539.26	26429.33
539.43	26572.10
539.60	26555.72
539.77	26396.56
539.94	26686.79
540.11	26705.51
540.28	26588.49
540.44	26647.00
540.61	26185.91
540.78	26075.91
540.95	26749.98
541.12	26700.83
541.29	26618.91
541.46	26632.96
541.62	26192.94
541.79	26817.86
541.96	26340.39
542.13	26867.01
542.30	26892.76
542.47	27033.19
542.63	26892.76
542.80	26845.94
542.97	27417.04
543.14	27442.78
543.31	27386.61
543.48	26632.96
543.64	27524.70
543.81	27365.54
543.98	27505.98
544.15	27522.36
544.32	27566.83
544.48	27854.72
544.65	27700.24
544.82	27527.04
544.99	27197.02
545.16	27562.15
545.32	27543.42
545.49	27651.09
545.66	27770.46
545.83	27571.51
546.00	28041.96
546.16	28065.36
546.33	27550.45
546.50	27412.35
546.67	27854.72
546.83	27683.86
547.00	28053.66
547.17	28053.66
547.34	28119.20
547.50	28123.88
547.67	28247.93
547.84	28063.02
548.00	28126.22
548.17	28079.41
548.34	28196.43
548.51	28599.01
548.67	28381.34
548.84	28397.72
549.01	28004.51
549.18	28137.92
549.34	28233.88
549.51	28187.07
549.68	28304.10
549.84	28318.14
550.01	28348.57
550.18	28154.30
550.34	28245.58
550.51	28479.64
550.68	28790.93
550.84	28444.53
551.01	28533.47
551.18	28292.40
551.34	28254.95
551.51	28254.95
551.68	28732.42
551.84	28194.09
552.01	28627.09
552.18	28847.10
552.34	28594.32
552.51	29010.94
552.68	29134.99
552.84	29156.05
553.01	28690.29
553.18	28552.20
553.34	28540.49
553.51	28725.39
553.67	28779.23
553.84	29301.17
554.01	29167.76
554.17	29106.90
554.34	28945.41
554.51	29392.45
554.67	29179.46
554.84	28821.36
555.00	28875.19
555.17	29160.73
555.33	29479.05
555.50	29165.42
555.67	29193.50
555.83	28861.15
556.00	29355.00
556.16	29603.10
556.33	29317.55
556.50	29209.89
556.66	29493.09
556.83	29497.77
556.99	29720.12
557.16	29610.12
557.32	29362.02
557.49	29656.93
557.65	29415.85
557.82	29282.44
557.98	29221.59
558.15	29434.58
558.32	29448.62
558.48	29596.07
558.65	29359.68
558.81	29628.84
558.98	29806.72
559.14	29933.11
559.31	29724.80
559.47	29553.94
559.64	29937.79
559.80	29942.47
559.97	30171.85
560.13	30061.84
560.30	30113.33
560.46	30370.79
560.63	29958.86
560.79	29930.77
560.96	29771.61
561.12	29593.73
561.29	30089.93
561.45	29668.63
561.61	30000.99
561.78	29956.52
561.94	29827.79
562.11	29949.50
562.27	30075.88
562.44	29914.39
562.60	29879.28
562.77	30110.99
562.93	30106.31
563.10	30403.56
563.26	30132.06
563.42	30424.62
563.59	30003.33
563.75	30370.79
563.92	30033.75
564.08	29979.92
564.24	30345.05
564.41	30230.36
564.57	30038.44
564.74	30204.61
564.90	30150.78
565.07	30118.01
565.23	30263.13
565.39	30433.99
565.56	30604.84
565.72	30190.57
565.88	30246.74
566.05	30075.88
566.21	30216.32
566.38	29890.98
566.54	30314.62
566.70	30354.41
566.87	30717.19
567.03	30305.26
567.19	30930.18
567.36	30738.26
567.52	30323.98
567.68	30480.80
567.85	30539.31
568.01	30597.82
568.17	30396.54
568.34	30857.62
568.50	30630.59
568.66	30457.39
568.83	30749.96
568.99	30670.38
569.15	31133.81
569.32	30555.69
569.48	30185.89
569.64	30277.17
569.81	30675.06
569.97	30953.58
570.13	30267.81
570.30	30583.78
570.46	30869.33
570.62	30426.96
570.78	30450.37
570.95	30511.22
571.11	30817.83
571.27	30293.55
571.43	30433.99
571.60	30841.24
571.76	30733.57
571.92	30911.46
572.09	30375.47
572.25	30859.96
572.41	30480.80
572.57	30675.06
572.74	30890.39
572.90	30600.16
573.06	30796.77
573.22	30972.31
573.38	30974.65
573.55	31079.97
573.71	31056.57
573.87	31005.08
574.03	31103.38
574.20	30948.90
574.36	30621.23
574.52	30906.77
574.68	30445.69
574.84	30801.45
575.01	31087.00
575.17	30962.95
575.33	30918.48
575.49	31192.32
575.65	31096.36
575.82	31115.08
575.98	31126.78
576.14	30906.77
576.30	31012.10
576.46	30913.80
576.62	30679.74
576.79	30579.10
576.95	30941.88
577.11	31089.34
577.27	30794.43
577.43	31047.21
577.59	30953.58
577.75	30831.88
577.92	31126.78
578.08	30859.96
578.24	30984.01
578.40	31051.89
578.56	30803.79
578.72	31339.77
578.88	30969.97
579.04	31192.32
579.21	30953.58
579.37	31077.63
579.53	31323.39
579.69	30897.41
579.85	30817.83
580.01	31023.80
580.17	30766.34
580.33	31171.25
580.49	30923.16
580.65	31138.49
580.82	31101.04
580.98	31089.34
581.14	31342.11
581.30	30895.07
581.46	31079.97
581.62	31056.57
581.78	30876.35
581.94	31143.17
582.10	30780.39
582.26	30892.73
582.42	30890.39
582.58	31185.30
582.74	31475.52
582.90	31274.24
583.06	31749.37
583.22	30897.41
583.38	30895.07
583.54	31101.04
583.70	31110.40
583.86	31108.06
584.02	30955.93
584.18	30848.26
584.34	31351.48
584.50	31337.43
584.66	31150.19
584.82	31201.68
584.98	31269.56
585.14	30831.88
585.30	31028.48
585.46	31007.42
585.62	31021.46
585.78	31037.84
585.94	30656.34
586.10	31159.55
586.26	31168.91
586.42	31159.55
586.58	31482.55
586.74	31126.78
586.90	30939.54
587.06	30911.46
587.22	31454.46
587.38	31019.12
587.54	31519.99
587.70	31585.53
587.86	31094.02
588.02	31618.30
588.18	31211.04
588.34	31344.45
588.49	31510.63
588.65	31145.51
588.81	31372.54
588.97	31475.52
589.13	31124.44
589.29	31049.55
589.45	31395.95
589.61	31309.35
589.77	31749.37
589.93	31840.65
590.08	31522.34
590.24	31592.55
590.40	31622.98
590.56	31789.16
590.72	31725.96
590.88	31473.18
591.04	31374.88
591.20	31634.68
591.35	31955.33
591.51	32109.81
591.67	31356.16
591.83	31875.76
