SpectraSuite Data File
++++++++++++++++++++++++++++++++++++
Date: Fri Oct 18 13:58:05 GMT-05:00 2013
User: bianchi
Dark Spectrum Present: No
Reference Spectrum Present: No
Number of Sampled Component Spectra: 1
Spectrometers: USB2+H05261
Integration Time (usec): 50000 (USB2+H05261)
Spectra Averaged: 1 (USB2+H05261)
Boxcar Smoothing: 0 (USB2+H05261)
Correct for Electrical Dark: No (USB2+H05261)
Strobe/Lamp Enabled: No (USB2+H05261)
Correct for Detector Non-linearity: No (USB2+H05261)
Correct for Stray Light: No (USB2+H05261)
Number of Pixels in Processed Spectrum: 2048
>>>>>Begin Processed Spectral Data<<<<<
365.73	0.00
365.92	0.00
366.12	0.00
366.32	0.00
366.52	0.00
366.72	0.00
366.91	0.00
367.11	0.00
367.31	0.00
367.51	0.00
367.70	0.00
367.90	0.00
368.10	0.00
368.30	0.00
368.49	0.00
368.69	0.00
368.89	0.00
369.09	0.00
369.28	0.00
369.48	0.00
369.68	0.00
369.87	0.00
370.07	0.00
370.27	0.00
370.47	0.00
370.66	133.41
370.86	112.35
371.06	124.05
371.25	173.20
371.45	149.79
371.65	166.18
371.84	140.43
372.04	156.82
372.24	159.16
372.44	163.84
372.63	220.01
372.83	205.97
373.03	175.54
373.22	212.99
373.42	184.90
373.62	208.31
373.81	168.52
374.01	229.37
374.21	250.44
374.40	231.71
374.60	220.01
374.79	269.16
374.99	299.59
375.19	294.91
375.38	241.08
375.58	234.05
375.78	264.48
375.97	227.03
376.17	318.31
376.37	220.01
376.56	325.33
376.76	250.44
376.95	271.50
377.15	194.26
377.35	217.67
377.54	257.46
377.74	210.65
377.93	287.89
378.13	290.23
378.33	299.59
378.52	243.42
378.72	299.59
378.91	351.08
379.11	283.20
379.31	320.65
379.50	259.80
379.70	332.36
379.89	320.65
380.09	344.06
380.28	304.27
380.48	273.84
380.68	280.86
380.87	362.78
381.07	358.10
381.26	304.27
381.46	372.15
381.65	346.40
381.85	334.70
382.04	325.33
382.24	390.87
382.43	294.91
382.63	351.08
382.83	379.17
383.02	395.55
383.22	337.04
383.41	283.20
383.61	421.30
383.80	337.04
384.00	266.82
384.19	376.83
384.39	390.87
384.58	458.74
384.78	421.30
384.97	362.78
385.17	355.76
385.36	428.32
385.56	351.08
385.75	348.74
385.95	379.17
386.14	465.77
386.34	358.10
386.53	437.68
386.72	430.66
386.92	491.51
387.11	358.10
387.31	376.83
387.50	416.62
387.70	425.98
387.89	475.13
388.09	507.90
388.28	407.25
388.48	393.21
388.67	472.79
388.86	463.43
389.06	470.45
389.25	484.49
389.45	512.58
389.64	402.57
389.84	498.53
390.03	498.53
390.22	531.30
390.42	482.15
390.61	421.30
390.81	535.98
391.00	503.22
391.19	486.83
391.39	470.45
391.58	545.34
391.78	482.15
391.97	543.00
392.16	451.72
392.36	552.37
392.55	484.49
392.75	465.77
392.94	550.03
393.13	561.73
393.33	533.64
393.52	645.99
393.71	543.00
393.91	582.79
394.10	573.43
394.29	571.09
394.49	566.41
394.68	615.56
394.88	667.05
395.07	676.41
395.26	610.88
395.46	636.63
395.65	587.47
395.84	713.86
396.04	688.12
396.23	685.78
396.42	674.07
396.62	676.41
396.81	662.37
397.00	657.69
397.19	734.93
397.39	695.14
397.58	688.12
397.77	676.41
397.97	688.12
398.16	653.01
398.35	802.80
398.55	739.61
398.74	763.01
398.93	896.43
399.12	798.12
399.32	669.39
399.51	807.48
399.70	779.40
399.90	751.31
400.09	753.65
400.28	828.55
400.47	814.51
400.67	774.72
400.86	779.40
401.05	795.78
401.24	873.02
401.44	800.46
401.63	814.51
401.82	835.57
402.01	919.83
402.21	830.89
402.40	840.25
402.59	809.83
402.78	812.17
402.97	849.61
403.17	807.48
403.36	929.19
403.55	889.40
403.74	896.43
403.93	882.38
404.13	926.85
404.32	891.74
404.51	936.21
404.70	947.92
404.89	866.00
405.09	933.87
405.28	964.30
405.47	1043.88
405.66	1097.71
405.85	1001.75
406.05	1083.67
406.24	1104.73
406.43	1004.09
406.62	1088.35
406.81	1025.15
407.00	976.00
407.20	1018.13
407.39	1043.88
407.58	1172.61
407.77	1132.82
407.96	1097.71
408.15	1071.97
408.34	1086.01
408.54	1102.39
408.73	1144.52
408.92	1203.04
409.11	1163.25
409.30	1221.76
409.49	1163.25
409.68	1249.85
409.87	1174.95
410.07	1116.44
410.26	1160.91
410.45	1242.82
410.64	1226.44
410.83	1336.45
411.02	1287.29
411.21	1280.27
411.40	1282.61
411.59	1324.74
411.78	1249.85
411.98	1329.42
412.17	1336.45
412.36	1299.00
412.55	1345.81
412.74	1385.60
412.93	1467.52
413.12	1329.42
413.31	1481.56
413.50	1256.87
413.69	1439.43
413.88	1472.20
414.07	1502.62
414.26	1540.07
414.45	1591.56
414.64	1455.81
414.83	1579.86
415.02	1565.82
415.22	1537.73
415.41	1748.38
415.60	1607.95
415.79	1556.46
415.98	1565.82
416.17	1666.46
416.36	1614.97
416.55	1629.01
416.74	1600.93
416.93	1727.32
417.12	1638.38
417.31	1792.85
417.50	1720.29
417.69	1888.81
417.88	1657.10
418.07	1792.85
418.26	1809.23
418.45	1818.60
418.64	1867.75
418.83	1923.92
419.02	1760.08
419.21	1935.62
419.39	1867.75
419.58	1776.47
419.77	1806.89
419.96	1811.57
420.15	1954.35
420.34	1926.26
420.53	1959.03
420.72	1989.46
420.91	1947.33
421.10	2038.61
421.29	1923.92
421.48	2043.29
421.67	2045.63
421.86	2038.61
422.05	2008.18
422.24	2106.48
422.43	2069.03
422.61	2139.25
422.80	2108.82
422.99	2104.14
423.18	2080.74
423.37	2040.95
423.56	2101.80
423.75	2115.84
423.94	1919.24
424.13	2022.22
424.32	2043.29
424.50	2157.97
424.69	2256.28
424.88	2113.50
425.07	2097.12
425.26	2059.67
425.45	1935.62
425.64	1994.14
425.83	2097.12
426.01	2165.00
426.20	2193.08
426.39	2099.46
426.58	2073.71
426.77	2052.65
426.96	2146.27
427.15	2001.16
427.33	2118.18
427.52	2181.38
427.71	2167.34
427.90	2258.62
428.09	2209.47
428.28	2176.70
428.46	2267.98
428.65	2249.25
428.84	2253.94
429.03	2434.16
429.22	2218.83
429.40	2310.11
429.59	2342.88
429.78	2321.81
429.97	2239.89
430.16	2354.58
430.34	2197.76
430.53	2342.88
430.72	2490.33
430.91	2464.58
431.10	2275.00
431.28	2377.98
431.47	2406.07
431.66	2380.32
431.85	2441.18
432.03	2509.05
432.22	2452.88
432.41	2480.97
432.60	2487.99
432.79	2455.22
432.97	2455.22
433.16	2480.97
433.35	2532.46
433.54	2562.89
433.72	2623.74
433.91	2588.63
434.10	2614.38
434.28	2504.37
434.47	2698.64
434.66	2719.70
434.85	2569.91
435.03	2729.06
435.22	2602.68
435.41	2696.30
435.59	2609.70
435.78	2609.70
435.97	2736.09
436.16	2780.56
436.34	2703.32
436.53	2761.83
436.72	2899.92
436.90	2738.43
437.09	2841.41
437.28	2850.77
437.46	2862.48
437.65	2766.51
437.84	2949.08
438.02	2754.81
438.21	2832.05
438.40	2918.65
438.58	2944.39
438.77	2925.67
438.96	2913.97
439.14	2928.01
439.33	2939.71
439.52	2984.18
439.70	2951.42
439.89	3082.49
440.08	3143.34
440.26	3075.46
440.45	3185.47
440.63	3187.81
440.82	3126.96
441.01	3246.32
441.19	3183.13
441.38	3272.07
441.57	3365.69
441.75	3201.85
441.94	3356.33
442.12	3335.26
442.31	3391.44
442.50	3384.41
442.68	3405.48
442.87	3407.82
443.05	3445.27
443.24	3515.48
443.43	3559.95
443.61	3632.51
443.80	3529.53
443.98	3438.25
444.17	3435.91
444.35	3494.42
444.54	3590.38
444.73	3606.77
444.91	3616.13
445.10	3585.70
445.28	3595.06
445.47	3358.67
445.65	3492.08
445.84	3550.59
446.02	3520.17
446.21	3630.17
446.39	3473.36
446.58	3602.08
446.77	3625.49
446.95	3466.33
447.14	3620.81
447.32	3623.15
447.51	3564.64
447.69	3506.12
447.88	3583.36
448.06	3555.27
448.25	3817.41
448.43	3688.68
448.62	3695.71
448.80	3627.83
448.99	3569.32
449.17	3754.22
449.36	3651.24
449.54	3756.56
449.73	3833.80
449.91	3794.01
450.10	3733.15
450.28	3873.59
450.46	3892.31
450.65	3805.71
450.83	3789.33
451.02	3801.03
451.20	3803.37
451.39	3775.28
451.57	3845.50
451.76	3794.01
451.94	3784.65
452.13	3899.33
452.31	3833.80
452.49	3946.14
452.68	4030.40
452.86	3962.53
453.05	3999.98
453.23	4067.85
453.42	3946.14
453.60	4117.00
453.78	4184.88
453.97	3997.64
454.15	4004.66
454.34	4042.11
454.52	4051.47
454.70	4046.79
454.89	4177.86
455.07	4156.79
455.26	4245.73
455.44	4198.92
455.62	4325.31
455.81	4117.00
455.99	4297.22
456.17	4095.94
456.36	4294.88
456.54	4236.37
456.73	4353.40
456.91	4440.00
457.09	4402.55
457.28	4507.87
457.46	4374.46
457.64	4531.28
457.83	4411.91
458.01	4325.31
458.19	4521.92
458.38	4311.27
458.56	4622.56
458.74	4540.64
458.93	4449.36
459.11	4531.28
459.29	4423.61
459.48	4610.86
459.66	4575.75
459.84	4594.47
460.03	4709.16
460.21	4652.98
460.39	4622.56
460.57	4566.39
460.76	4652.98
460.94	4727.88
461.12	4716.18
461.31	4615.54
461.49	4613.20
461.67	4833.21
461.85	4975.98
462.04	4814.48
462.22	5048.54
462.40	4903.42
462.59	4894.06
462.77	4898.74
462.95	5041.51
463.13	4903.42
463.32	4938.53
463.50	4952.57
463.68	4961.94
463.86	4994.70
464.05	5104.71
464.23	5004.07
464.41	5102.37
464.59	4795.76
464.78	4961.94
464.96	4997.04
465.14	5053.22
465.32	5100.03
465.50	5174.92
465.69	5006.41
465.87	4898.74
466.05	4798.10
466.23	5114.07
466.41	5081.30
466.60	5235.78
466.78	5294.29
466.96	5102.37
467.14	5146.84
467.32	5184.29
467.51	5362.17
467.69	5259.18
467.87	5411.32
468.05	5383.23
468.23	5055.56
468.41	5357.49
468.60	5371.53
468.78	5411.32
468.96	5261.52
469.14	5408.98
469.32	5556.43
469.50	5373.87
469.69	5554.09
469.87	5495.58
470.05	5661.76
470.23	5533.03
470.41	5664.10
470.59	5584.52
470.77	5509.62
470.95	5792.83
471.14	5731.97
471.32	5619.63
471.50	5849.00
471.68	5743.67
471.86	5643.03
472.04	5757.72
472.22	5940.28
472.40	5614.95
472.58	5956.66
472.77	6071.35
472.95	6050.28
473.13	6228.17
473.31	5926.24
473.49	6040.92
473.67	6071.35
473.85	6012.84
474.03	6078.37
474.21	6251.57
474.39	6239.87
474.57	6253.91
474.75	6148.59
474.93	6272.64
475.12	6305.40
475.30	6223.48
475.48	6413.07
475.66	6370.94
475.84	6532.44
476.02	6558.18
476.20	6612.01
476.38	6722.02
476.56	6925.65
476.74	6747.76
476.92	6759.47
477.10	6686.91
477.28	6715.00
477.46	6649.46
477.64	6911.60
477.82	6998.20
478.00	7080.12
478.18	6974.80
478.36	7349.28
478.54	7190.13
478.72	7138.63
478.90	7255.66
479.08	7368.01
479.26	7501.42
479.44	7370.35
479.62	7545.89
479.80	7431.20
479.98	7648.87
480.16	7896.97
480.34	7836.11
480.52	7845.48
480.70	7822.07
480.88	7578.65
481.06	7946.12
481.24	7983.57
481.41	8098.25
481.59	8147.40
481.77	8236.35
481.95	8196.56
482.13	8198.90
482.31	8285.50
482.49	8582.74
482.67	8521.89
482.85	8465.72
483.03	8884.67
483.21	8741.90
483.39	8926.80
483.57	8905.74
483.74	9022.77
483.92	9081.28
484.10	9029.79
484.28	9029.79
484.46	9310.65
484.64	9413.63
484.82	9263.84
485.00	9298.95
485.18	9598.54
485.35	9619.60
485.53	9710.88
485.71	9694.50
485.89	9905.15
486.07	9848.97
486.25	9701.52
486.43	9879.40
486.61	9944.94
486.78	10207.08
486.96	10061.96
487.14	10352.19
487.32	10340.49
487.50	10345.17
487.68	10490.28
487.85	10663.48
488.03	10658.80
488.21	10911.58
488.39	10848.38
488.57	11239.25
488.75	11019.24
488.92	11187.76
489.10	11314.15
489.28	11337.56
489.46	11501.39
489.64	11548.20
489.81	11548.20
489.99	11632.46
490.17	11660.55
490.35	11712.04
490.53	11864.18
490.70	11784.60
490.88	12128.66
491.06	12325.26
491.24	12044.40
491.41	12140.36
491.59	12149.72
491.77	12332.28
491.95	12491.44
492.13	12645.91
492.30	12582.72
492.48	12774.64
492.66	12580.38
492.84	12601.44
493.01	13050.83
493.19	13062.53
493.37	13226.37
493.54	13207.64
493.72	13144.45
493.90	13287.22
494.08	13209.98
494.25	13425.31
494.43	13607.87
494.61	13504.89
494.79	13781.07
494.96	13771.71
495.14	13776.39
495.32	13984.70
495.49	14113.43
495.67	14211.73
495.85	14087.68
496.02	14377.91
496.20	14473.87
496.38	14216.41
496.55	14640.05
496.73	14614.30
496.91	14452.81
497.09	14909.21
497.26	14682.18
497.44	14764.10
497.62	14745.38
497.79	14794.53
497.97	15124.54
498.14	15187.74
498.32	15606.69
498.50	15260.29
498.67	15419.45
498.85	15386.68
499.03	15679.25
499.20	15592.65
499.38	15363.28
499.56	15934.37
499.73	15798.62
499.91	15850.11
500.08	16018.63
500.26	15669.89
500.44	16056.08
500.61	15941.39
500.79	15866.49
500.97	16458.65
501.14	16432.90
501.32	16276.09
501.49	16470.35
501.67	16294.81
501.84	16313.53
502.02	16575.67
502.20	16512.48
502.37	16964.20
502.55	16685.68
502.72	16526.52
502.90	16924.41
503.07	16762.92
503.25	16833.13
503.43	16760.58
503.60	16931.44
503.78	17027.40
503.95	16868.24
504.13	16992.29
504.30	17324.65
504.48	17167.83
504.65	17371.46
504.83	17432.31
505.01	17661.68
505.18	17500.19
505.36	17565.72
505.53	17539.97
505.71	17818.50
505.88	17844.24
506.06	17710.83
506.23	17874.67
506.41	17832.54
506.58	17954.25
506.76	18068.94
506.93	18127.45
507.11	17715.51
507.28	18047.87
507.46	18176.60
507.63	18326.39
507.81	18192.98
507.98	17980.00
508.16	18469.17
508.33	18464.49
508.50	18551.09
508.68	18218.73
508.85	18487.89
509.03	18958.34
509.20	18946.64
509.38	18899.83
509.55	19047.28
509.73	18970.04
509.90	18864.72
510.08	19019.19
510.25	18768.76
510.42	19227.50
510.60	18991.11
510.77	19538.79
510.95	19255.59
511.12	19290.70
511.30	19283.67
511.47	19648.80
511.64	19417.08
511.82	19587.94
511.99	19386.66
512.17	19616.03
512.34	19756.46
512.51	19910.94
512.69	19700.29
512.86	19906.26
513.04	19915.62
513.21	19889.87
513.38	20329.89
513.56	20294.79
513.73	19983.49
513.90	20018.60
514.08	20067.75
514.25	20414.15
514.43	20292.44
514.60	20442.24
514.77	20329.89
514.95	20592.03
515.12	20137.97
515.29	20444.58
515.47	20666.93
515.64	20758.21
515.81	20875.24
515.99	20786.30
516.16	21092.91
516.33	20739.49
516.51	21221.64
516.68	21060.14
516.85	20863.54
517.03	21078.86
517.20	20809.70
517.37	21139.72
517.54	21376.11
517.72	21202.91
517.89	21291.85
518.06	21408.88
518.24	21399.52
518.41	21317.60
518.58	21528.25
518.75	21483.78
518.93	21537.61
519.10	21659.32
519.27	21778.68
519.45	21497.82
519.62	21710.81
519.79	21813.79
519.96	22005.72
520.14	21982.31
520.31	21865.28
520.48	22628.30
520.65	21937.84
520.83	21671.02
521.00	21984.65
521.17	22277.22
521.34	22256.15
521.52	21956.57
521.69	22012.74
521.86	22555.74
522.03	22520.63
522.20	22731.28
522.38	22541.70
522.55	22735.96
522.72	22518.29
522.89	22611.92
523.07	22909.16
523.24	22785.12
523.41	23222.80
523.58	22979.38
523.75	22920.87
523.92	22852.99
524.10	22583.83
524.27	22867.03
524.44	22869.37
524.61	23178.33
524.78	22951.29
524.96	23115.13
525.13	23398.34
525.30	23229.82
525.47	23578.56
525.64	23101.09
525.81	23527.06
525.98	23489.62
526.16	23630.05
526.33	23491.96
526.50	23623.03
526.67	23302.37
526.84	23733.03
527.01	23562.17
527.18	23513.02
527.36	23733.03
527.53	23868.78
527.70	24416.47
527.87	24074.75
528.04	23934.32
528.21	23857.08
528.38	24044.32
528.55	24126.24
528.72	24105.18
528.89	23903.89
529.07	24016.24
529.24	24133.26
529.41	24350.93
529.58	24287.74
529.75	24147.31
529.92	24285.40
530.09	24407.11
530.26	24315.83
530.43	24348.59
530.60	24294.76
530.77	24512.43
530.94	24697.33
531.11	24325.19
531.28	24407.11
531.46	24889.26
531.63	24428.17
531.80	25081.18
531.97	24622.44
532.14	24919.68
532.31	24690.31
532.48	25235.66
532.65	24812.02
532.82	24833.08
532.99	25252.04
533.16	25099.90
533.33	25139.69
533.50	25495.46
533.67	24938.41
533.84	25214.59
534.01	25193.53
534.18	25188.85
534.35	25472.05
534.52	25343.32
534.69	25572.69
534.86	25287.15
535.03	25132.67
535.20	25738.87
535.37	25783.34
535.54	25200.55
535.71	25406.52
535.88	25549.29
536.05	25401.83
536.22	26043.14
536.38	25713.13
536.55	25752.91
536.72	25638.23
536.89	25591.42
537.06	25680.36
537.23	26080.59
537.40	25914.41
537.57	25694.40
537.74	26668.06
537.91	26211.66
538.08	26146.12
538.25	26267.83
538.42	25757.60
538.59	26405.92
538.75	25970.58
538.92	26298.26
539.09	26405.92
539.26	26532.31
539.43	26581.46
539.60	26288.90
539.77	26569.76
539.94	26288.90
540.11	26366.13
540.28	26335.71
540.44	26656.36
540.61	26431.67
540.78	26426.99
540.95	26366.13
541.12	26548.70
541.29	26522.95
541.46	26728.92
541.62	26714.87
541.79	26761.69
541.96	26412.95
542.13	26520.61
542.30	26478.48
542.47	26689.13
542.63	26909.14
542.80	27410.01
542.97	27295.33
543.14	27337.46
543.31	27332.78
543.48	27236.81
543.64	27470.87
543.81	27494.27
543.98	27721.30
544.15	27290.65
544.32	27662.79
544.48	28121.54
544.65	27847.69
544.82	27491.93
544.99	27044.89
545.16	27634.71
545.32	27461.51
545.49	27889.82
545.66	28056.00
545.83	28079.41
546.00	27740.03
546.16	27899.19
546.33	27475.55
546.50	27679.18
546.67	27807.90
546.83	27459.16
547.00	27562.15
547.17	27716.62
547.34	28292.40
547.50	28121.54
547.67	28261.97
547.84	27978.76
548.00	28156.64
548.17	28287.71
548.34	28240.90
548.51	28540.49
548.67	28205.80
548.84	28453.89
549.01	28161.33
549.18	28180.05
549.34	28313.46
549.51	28156.64
549.68	28201.11
549.84	28549.85
550.01	28603.69
550.18	28116.86
550.34	28575.60
550.51	28634.11
550.68	28840.08
550.84	28510.07
551.01	28690.29
551.18	28142.60
551.34	28095.79
551.51	28493.68
551.68	28774.55
551.84	28823.70
552.01	28355.59
552.18	28823.70
552.34	28498.36
552.51	28655.18
552.68	29003.92
552.84	28643.48
553.01	28577.94
553.18	28924.34
553.34	28744.12
553.51	29102.22
553.67	28914.98
553.84	29373.72
554.01	28914.98
554.17	29219.25
554.34	28858.81
554.51	28996.90
554.67	29282.44
554.84	29174.78
555.00	29282.44
555.17	29296.49
555.33	29392.45
555.50	29362.02
555.67	28975.83
555.83	28980.51
556.00	28994.56
556.16	29111.58
556.33	29050.73
556.50	29556.28
556.66	29516.50
556.83	28980.51
556.99	29696.72
557.16	29858.21
557.32	29401.81
557.49	29575.01
557.65	29497.77
557.82	29439.26
557.98	29116.26
558.15	29551.60
558.32	29483.73
558.48	29490.75
558.65	29528.20
558.81	30061.84
558.98	29893.32
559.14	30087.59
559.31	30008.01
559.47	29434.58
559.64	29898.00
559.80	29832.47
559.97	29926.09
560.13	29596.07
560.30	30071.20
560.46	29668.63
560.63	30108.65
560.79	29846.51
560.96	29865.24
561.12	29825.45
561.29	29956.52
561.45	29731.83
561.61	29907.37
561.78	29797.36
561.94	29944.81
562.11	30085.25
562.27	29935.45
562.44	30061.84
562.60	29804.38
562.77	30022.05
562.93	29862.90
563.10	30223.34
563.26	30279.51
563.42	30651.66
563.59	30368.45
563.75	30183.55
563.92	30143.76
564.08	29933.11
564.24	29916.73
564.41	30141.42
564.57	29905.02
564.74	29928.43
564.90	30637.61
565.07	30211.64
565.23	30391.86
565.39	30389.52
565.56	30483.14
565.72	30305.26
565.88	30181.21
566.05	30054.82
566.21	30157.80
566.38	30071.20
566.54	30242.06
566.70	30134.40
566.87	30380.15
567.03	30286.53
567.19	30689.10
567.36	30387.18
567.52	30335.68
567.68	30492.50
567.85	30190.57
568.01	30792.09
568.17	30321.64
568.34	30415.26
568.50	30536.97
568.66	30560.37
568.83	30909.11
568.99	30834.22
569.15	30356.75
569.32	30560.37
569.48	30398.88
569.64	30742.94
569.81	30532.29
569.97	30794.43
570.13	30733.57
570.30	30895.07
570.46	30567.40
570.62	30614.21
570.78	31056.57
570.95	30721.87
571.11	30415.26
571.27	30412.92
571.43	30618.89
571.60	30433.99
571.76	30534.63
571.92	30511.22
572.09	30895.07
572.25	30532.29
572.41	30838.90
572.57	30939.54
572.74	30581.44
572.90	30948.90
573.06	30471.43
573.22	30338.02
573.38	30890.39
573.55	30726.55
573.71	30834.22
573.87	30806.13
574.03	30354.41
574.20	30588.46
574.36	30600.16
574.52	30394.20
574.68	30813.15
574.84	31227.43
575.01	30778.04
575.17	30930.18
575.33	30672.72
575.49	30698.47
575.65	30850.60
575.82	30668.04
575.98	31103.38
576.14	31049.55
576.30	30749.96
576.46	30733.57
576.62	30885.71
576.79	30766.34
576.95	30813.15
577.11	30916.14
577.27	30663.36
577.43	31131.47
577.59	30986.35
577.75	30710.17
577.92	30735.92
578.08	30752.30
578.24	31283.60
578.40	30799.11
578.56	30787.41
578.72	30946.56
578.88	31115.08
579.04	31175.94
579.21	30787.41
579.37	31070.61
579.53	31002.74
579.69	30852.94
579.85	30792.09
580.01	30668.04
580.17	31316.37
580.33	31342.11
580.49	31124.44
580.65	31042.53
580.82	31082.31
580.98	31297.64
581.14	30976.99
581.30	31309.35
581.46	30775.70
581.62	30881.03
581.78	31082.31
581.94	31049.55
582.10	30759.32
582.26	31311.69
582.42	31161.89
582.58	30838.90
582.74	31180.62
582.90	31044.87
583.06	30984.01
583.22	31049.55
583.38	30815.49
583.54	31168.91
583.70	31051.89
583.86	31400.63
584.02	31070.61
584.18	31501.27
584.34	31271.90
584.50	31400.63
584.66	31241.47
584.82	30396.54
584.98	31138.49
585.14	31325.73
585.30	30684.42
585.46	30841.24
585.62	30965.29
585.78	31241.47
585.94	30986.35
586.10	31058.91
586.26	31381.90
586.42	31618.30
586.58	30995.71
586.74	31299.98
586.90	30866.98
587.06	31264.88
587.22	30902.09
587.38	31007.42
587.54	31105.72
587.70	31260.20
587.86	31082.31
588.02	31281.26
588.18	31299.98
588.34	31349.14
588.49	31243.81
588.65	31292.96
588.81	31119.76
588.97	31211.04
589.13	31257.85
589.29	31262.54
589.45	31250.83
589.61	31328.07
589.77	31618.30
589.93	31644.04
590.08	31620.64
590.24	31941.29
590.40	31690.85
590.56	31353.82
590.72	31204.02
590.88	31278.92
591.04	31047.21
591.20	31473.18
591.35	31758.73
591.51	31477.86
591.67	31604.25
591.83	31730.64
