SpectraSuite Data File
++++++++++++++++++++++++++++++++++++
Date: Fri Oct 18 13:58:14 GMT-05:00 2013
User: bianchi
Dark Spectrum Present: No
Reference Spectrum Present: No
Number of Sampled Component Spectra: 1
Spectrometers: USB2+H05261
Integration Time (usec): 50000 (USB2+H05261)
Spectra Averaged: 1 (USB2+H05261)
Boxcar Smoothing: 0 (USB2+H05261)
Correct for Electrical Dark: No (USB2+H05261)
Strobe/Lamp Enabled: No (USB2+H05261)
Correct for Detector Non-linearity: No (USB2+H05261)
Correct for Stray Light: No (USB2+H05261)
Number of Pixels in Processed Spectrum: 2048
>>>>>Begin Processed Spectral Data<<<<<
365.73	0.00
365.92	0.00
366.12	0.00
366.32	0.00
366.52	0.00
366.72	0.00
366.91	0.00
367.11	0.00
367.31	0.00
367.51	0.00
367.70	0.00
367.90	0.00
368.10	0.00
368.30	0.00
368.49	0.00
368.69	0.00
368.89	0.00
369.09	0.00
369.28	0.00
369.48	0.00
369.68	0.00
369.87	0.00
370.07	0.00
370.27	0.00
370.47	4.68
370.66	74.90
370.86	159.16
371.06	189.58
371.25	77.24
371.45	140.43
371.65	175.54
371.84	102.98
372.04	131.07
372.24	149.79
372.44	238.73
372.63	212.99
372.83	243.42
373.03	154.48
373.22	180.22
373.42	231.71
373.62	212.99
373.81	210.65
374.01	194.26
374.21	217.67
374.40	250.44
374.60	280.86
374.79	269.16
374.99	133.41
375.19	304.27
375.38	229.37
375.58	264.48
375.78	234.05
375.97	278.52
376.17	287.89
376.37	215.33
376.56	234.05
376.76	264.48
376.95	168.52
377.15	262.14
377.35	283.20
377.54	322.99
377.74	159.16
377.93	182.56
378.13	285.55
378.33	278.52
378.52	318.31
378.72	322.99
378.91	220.01
379.11	245.76
379.31	215.33
379.50	306.61
379.70	290.23
379.89	257.46
380.09	330.02
380.28	301.93
380.48	390.87
380.68	294.91
380.87	245.76
381.07	325.33
381.26	252.78
381.46	330.02
381.65	341.72
381.85	243.42
382.04	344.06
382.24	430.66
382.43	255.12
382.63	416.62
382.83	330.02
383.02	285.55
383.22	346.40
383.41	390.87
383.61	491.51
383.80	428.32
384.00	414.27
384.19	325.33
384.39	400.23
384.58	365.12
384.78	332.36
384.97	486.83
385.17	376.83
385.36	353.42
385.56	407.25
385.75	416.62
385.95	393.21
386.14	365.12
386.34	505.56
386.53	442.36
386.72	400.23
386.92	479.81
387.11	447.04
387.31	430.66
387.50	400.23
387.70	503.22
387.89	470.45
388.09	468.11
388.28	505.56
388.48	454.06
388.67	498.53
388.86	442.36
389.06	491.51
389.25	465.77
389.45	374.49
389.64	421.30
389.84	505.56
390.03	547.69
390.22	493.85
390.42	578.11
390.61	393.21
390.81	451.72
391.00	547.69
391.19	472.79
391.39	528.96
391.58	477.47
391.78	505.56
391.97	540.66
392.16	535.98
392.36	531.30
392.55	585.13
392.75	514.92
392.94	627.26
393.13	461.09
393.33	543.00
393.52	503.22
393.71	526.62
393.91	528.96
394.10	592.16
394.29	571.09
394.49	699.82
394.68	592.16
394.88	594.50
395.07	615.56
395.26	613.22
395.46	688.12
395.65	599.18
395.84	667.05
396.04	688.12
396.23	601.52
396.42	638.97
396.62	638.97
396.81	657.69
397.00	690.46
397.19	685.78
397.39	587.47
397.58	653.01
397.77	657.69
397.97	826.21
398.16	671.73
398.35	725.57
398.55	664.71
398.74	720.88
398.93	699.82
399.12	765.36
399.32	741.95
399.51	725.57
399.70	802.80
399.90	767.70
400.09	770.04
400.28	788.76
400.47	791.10
400.67	791.10
400.86	767.70
401.05	844.93
401.24	751.31
401.44	910.47
401.63	732.59
401.82	842.59
402.01	805.14
402.21	851.96
402.40	826.21
402.59	791.10
402.78	819.19
402.97	849.61
403.17	884.72
403.36	873.02
403.55	835.57
403.74	877.70
403.93	973.66
404.13	912.81
404.32	950.26
404.51	901.11
404.70	954.94
404.89	968.98
405.09	971.32
405.28	924.51
405.47	999.41
405.66	971.32
405.85	985.37
406.05	912.81
406.24	1050.90
406.43	940.90
406.62	978.34
406.81	1029.84
407.00	1048.56
407.20	1022.81
407.39	1034.52
407.58	1109.41
407.77	1118.78
407.96	1055.58
408.15	1146.86
408.34	1116.44
408.54	1064.94
408.73	1078.99
408.92	1043.88
409.11	1128.14
409.30	1078.99
409.49	1135.16
409.68	1100.05
409.87	1142.18
410.07	1242.82
410.26	1137.50
410.45	1196.01
410.64	1221.76
410.83	1252.19
411.02	1268.57
411.21	1221.76
411.40	1259.21
411.59	1320.06
411.78	1261.55
411.98	1261.55
412.17	1322.40
412.36	1376.24
412.55	1364.53
412.74	1315.38
412.93	1453.47
413.12	1240.48
413.31	1362.19
413.50	1380.92
413.69	1453.47
413.88	1460.49
414.07	1481.56
414.26	1488.58
414.45	1486.24
414.64	1430.07
414.83	1521.35
415.02	1530.71
415.22	1563.48
415.41	1591.56
415.60	1582.20
415.79	1647.74
415.98	1584.54
416.17	1687.53
416.36	1568.16
416.55	1607.95
416.74	1668.80
416.93	1666.46
417.12	1589.22
417.31	1708.59
417.50	1856.04
417.69	1734.34
417.88	1846.68
418.07	1753.06
418.26	1767.10
418.45	1741.36
418.64	1769.44
418.83	1842.00
419.02	1820.94
419.21	1778.81
419.39	1830.30
419.58	1734.34
419.77	1827.96
419.96	1930.94
420.15	1977.75
420.34	1921.58
420.53	1846.68
420.72	1982.43
420.91	1916.90
421.10	1944.99
421.29	2071.37
421.48	1914.56
421.67	1961.37
421.86	2033.93
422.05	2054.99
422.24	1944.99
422.43	1984.77
422.61	1987.11
422.80	1961.37
422.99	2057.33
423.18	2050.31
423.37	2118.18
423.56	1952.01
423.75	1998.82
423.94	1989.46
424.13	1930.94
424.32	1980.09
424.50	2085.42
424.69	2134.57
424.88	2073.71
425.07	2090.10
425.26	2036.27
425.45	1991.80
425.64	1996.48
425.83	2047.97
426.01	2066.69
426.20	2071.37
426.39	2190.74
426.58	2083.08
426.77	2092.44
426.96	2054.99
427.15	2146.27
427.33	2108.82
427.52	2083.08
427.71	2129.89
427.90	2148.61
428.09	2202.44
428.28	2083.08
428.46	2256.28
428.65	2286.70
428.84	2349.90
429.03	2349.90
429.22	2169.68
429.40	2221.17
429.59	2169.68
429.78	2218.83
429.97	2190.74
430.16	2375.64
430.34	2253.94
430.53	2326.49
430.72	2333.51
430.91	2356.92
431.10	2359.26
431.28	2387.35
431.47	2471.61
431.66	2420.11
431.85	2396.71
432.03	2478.63
432.22	2574.59
432.41	2499.69
432.60	2546.50
432.79	2455.22
432.97	2499.69
433.16	2448.20
433.35	2417.77
433.54	2546.50
433.72	2649.49
433.91	2588.63
434.10	2436.50
434.28	2633.10
434.47	2619.06
434.66	2647.15
434.85	2616.72
435.03	2597.99
435.22	2534.80
435.41	2806.30
435.59	2595.65
435.78	2686.94
435.97	2637.78
436.16	2672.89
436.34	2621.40
436.53	2675.23
436.72	2726.72
436.90	2703.32
437.09	2794.60
437.28	2626.08
437.46	2736.09
437.65	2724.38
437.84	2827.37
438.02	2850.77
438.21	2906.95
438.40	2820.35
438.58	2892.90
438.77	2864.82
438.96	2953.76
439.14	2984.18
439.33	2890.56
439.52	2897.58
439.70	3112.91
439.89	2977.16
440.08	3056.74
440.26	3080.14
440.45	3115.25
440.63	3157.38
440.82	3169.09
441.01	3131.64
441.19	3300.16
441.38	3297.81
441.57	3164.40
441.75	3166.74
441.94	3171.43
442.12	3330.58
442.31	3447.61
442.50	3468.67
442.68	3391.44
442.87	3288.45
443.05	3412.50
443.24	3410.16
443.43	3372.71
443.61	3316.54
443.80	3548.25
443.98	3346.97
444.17	3417.18
444.35	3407.82
444.54	3431.23
444.73	3468.67
444.91	3466.33
445.10	3515.48
445.28	3459.31
445.47	3435.91
445.65	3417.18
445.84	3592.72
446.02	3419.52
446.21	3351.65
446.39	3421.86
446.58	3552.93
446.77	3581.02
446.95	3386.76
447.14	3527.19
447.32	3592.72
447.51	3449.95
447.69	3536.55
447.88	3597.40
448.06	3686.34
448.25	3564.64
448.43	3679.32
448.62	3562.30
448.80	3609.11
448.99	3681.66
449.17	3590.38
449.36	3548.25
449.54	3726.13
449.73	3616.13
449.91	3838.48
450.10	3784.65
450.28	3681.66
450.46	3679.32
450.65	3705.07
450.83	3784.65
451.02	3850.18
451.20	3880.61
451.39	3805.71
451.57	3786.99
451.76	3707.41
451.94	3735.50
452.13	3676.98
452.31	3847.84
452.49	3749.54
452.68	3911.04
452.86	3953.16
453.05	4025.72
453.23	4023.38
453.42	3868.91
453.60	3859.54
453.78	3899.33
453.97	3929.76
454.15	3985.93
454.34	3960.19
454.52	4060.83
454.70	4025.72
454.89	4030.40
455.07	4025.72
455.26	4229.35
455.44	4196.58
455.62	4067.85
455.81	4194.24
455.99	4081.89
456.17	4095.94
456.36	4145.09
456.54	4285.52
456.73	4367.44
456.91	4278.50
457.09	4306.59
457.28	4311.27
457.46	4269.14
457.64	4447.02
457.83	4351.06
458.01	4262.12
458.19	4402.55
458.38	4400.21
458.56	4510.21
458.74	4454.04
458.93	4456.38
459.11	4416.59
459.29	4524.26
459.48	4456.38
459.66	4510.21
459.84	4582.77
460.03	4676.39
460.21	4634.26
460.39	4587.45
460.57	4650.64
460.76	4676.39
460.94	4608.51
461.12	4573.41
461.31	4664.69
461.49	4751.29
461.67	4559.36
461.85	4674.05
462.04	4842.57
462.22	4940.87
462.40	4901.08
462.59	4809.80
462.77	4992.36
462.95	4868.31
463.13	4865.97
463.32	4898.74
463.50	4903.42
463.68	4894.06
463.86	4929.17
464.05	4912.78
464.23	4844.91
464.41	5067.26
464.59	4980.66
464.78	5116.41
464.96	4943.21
465.14	4968.96
465.32	5053.22
465.50	4994.70
465.69	5067.26
465.87	5125.77
466.05	5048.54
466.23	5025.13
466.41	5093.01
466.60	5198.33
466.78	5205.35
466.96	5170.24
467.14	5179.61
467.32	5041.51
467.51	5259.18
467.69	5029.81
467.87	5116.41
468.05	5172.58
468.23	5107.05
468.41	5263.86
468.60	5341.10
468.78	5263.86
468.96	5256.84
469.14	5376.21
469.32	5437.06
469.50	5193.65
469.69	5502.60
469.87	5425.36
470.05	5507.28
470.23	5495.58
470.41	5406.64
470.59	5479.19
470.77	5591.54
470.95	5563.45
471.14	5448.77
471.32	5516.64
471.50	5516.64
471.68	5640.69
471.86	5610.26
472.04	5621.97
472.22	5809.21
472.40	5612.60
472.58	5841.98
472.77	5626.65
472.95	5802.19
473.13	6050.28
473.31	5951.98
473.49	5827.93
473.67	5933.26
473.85	5886.45
474.03	6148.59
474.21	6064.33
474.39	6040.92
474.57	6207.10
474.75	6216.46
474.93	6249.23
475.12	6157.95
475.30	6239.87
475.48	6118.16
475.66	6424.77
475.84	6359.24
476.02	6408.39
476.20	6373.28
476.38	6445.84
476.56	6614.35
476.74	6766.49
476.92	6642.44
477.10	6581.59
477.28	6867.13
477.46	6670.53
477.64	6705.63
477.82	6939.69
478.00	6995.86
478.18	6867.13
478.36	6930.33
478.54	7194.81
478.72	7185.44
478.90	7157.36
479.08	7232.26
479.26	7353.96
479.44	7403.11
479.62	7445.24
479.80	7522.48
479.98	7578.65
480.16	7676.96
480.34	7620.78
480.52	7859.52
480.70	7789.30
480.88	7662.91
481.06	7737.81
481.24	7929.74
481.41	7974.21
481.59	7936.76
481.77	8173.15
481.95	8093.57
482.13	8414.23
482.31	8229.32
482.49	8414.23
482.67	8196.56
482.85	8472.74
483.03	8608.49
483.21	8781.69
483.39	8809.78
483.57	8781.69
483.74	8683.39
483.92	8879.99
484.10	8968.93
484.28	9107.02
484.46	9376.19
484.64	9341.08
484.82	9001.70
485.00	9217.03
485.18	9254.48
485.35	9610.24
485.53	9493.21
485.71	9451.08
485.89	9745.99
486.07	9575.13
486.25	9804.50
486.43	9734.29
486.61	9966.00
486.78	9951.96
486.96	10101.75
487.14	10256.23
487.32	10183.67
487.50	10174.31
487.68	10274.95
487.85	10712.63
488.03	10619.01
488.21	10640.08
488.39	10714.97
488.57	10729.02
488.75	10869.45
488.92	11101.16
489.10	10991.16
489.28	11084.78
489.46	11309.47
489.64	11023.92
489.81	11328.19
489.99	11485.01
490.17	11386.71
490.35	11716.72
490.53	11485.01
490.70	11721.40
490.88	11676.93
491.06	11906.31
491.24	11728.42
491.41	11889.92
491.59	12086.53
491.77	12123.98
491.95	12320.58
492.13	12236.32
492.30	12437.61
492.48	12716.13
492.66	12596.76
492.84	12367.39
493.01	12676.34
493.19	12858.90
493.37	12688.04
493.54	12814.43
493.72	13107.00
493.90	13104.66
494.08	12947.84
494.25	13165.51
494.43	13334.03
494.61	13310.63
494.79	13540.00
494.96	13516.59
495.14	13540.00
495.32	13708.52
495.49	13823.20
495.67	13788.10
495.85	13916.83
496.02	13975.34
496.20	13862.99
496.38	14129.81
496.55	14024.49
496.73	14356.85
496.91	14087.68
497.09	14410.68
497.26	14408.34
497.44	14511.32
497.62	14693.88
497.79	14466.85
497.97	14626.01
498.14	14626.01
498.32	15044.96
498.50	15016.88
498.67	15145.61
498.85	15073.05
499.03	15353.91
499.20	15445.20
499.38	15438.17
499.56	15616.05
499.73	15447.54
499.91	15477.96
500.08	15590.31
500.26	15290.72
500.44	15620.74
500.61	15693.29
500.79	15922.66
500.97	15957.77
501.14	16217.57
501.32	16205.87
501.49	16098.20
501.67	15740.10
501.84	16091.18
502.02	16229.27
502.20	16182.46
502.37	16638.87
502.55	16109.91
502.72	16475.03
502.90	16477.37
503.07	16489.07
503.25	16655.25
503.43	16673.98
503.60	16720.79
503.78	16879.94
503.95	16896.33
504.13	16669.30
504.30	17081.23
504.48	16950.16
504.65	17121.02
504.83	17170.17
505.01	17284.86
505.18	17055.48
505.36	17245.07
505.53	17043.78
505.71	17448.69
505.88	17467.42
506.06	16973.56
506.23	17488.48
506.41	17376.14
506.58	17680.41
506.76	17612.53
506.93	17788.07
507.11	17266.13
507.28	17603.17
507.46	17834.88
507.63	17759.98
507.81	17951.91
507.98	17984.68
508.16	17902.76
508.33	18211.71
508.50	18134.47
508.68	17989.36
508.85	18153.20
509.03	18127.45
509.20	18382.57
509.38	18647.05
509.55	18478.53
509.73	18686.84
509.90	18565.13
510.08	18265.54
510.25	18654.07
510.42	18813.23
510.60	18890.46
510.77	18965.36
510.95	19047.28
511.12	18913.87
511.30	18836.63
511.47	19056.64
511.64	19012.17
511.82	19117.50
511.99	19084.73
512.17	19295.38
512.34	19318.78
512.51	19183.03
512.69	19669.86
512.86	19274.31
513.04	19583.26
513.21	19576.24
513.38	19679.22
513.56	19747.10
513.73	19529.43
513.90	19756.46
514.08	19690.93
514.25	19829.02
514.43	20187.12
514.60	20311.17
514.77	20201.16
514.95	20402.45
515.12	20081.80
515.29	20067.75
515.47	20428.20
515.64	20411.81
515.81	20580.33
515.99	20308.83
516.16	20711.40
516.33	20491.39
516.51	20615.44
516.68	20428.20
516.85	20531.18
517.03	20304.15
517.20	20680.97
517.37	20730.12
517.54	20900.98
517.72	20823.75
517.89	21003.97
518.06	20732.47
518.24	20636.50
518.41	20905.66
518.58	21378.45
518.75	21195.89
518.93	21692.08
519.10	21181.85
519.27	21481.44
519.45	20996.95
519.62	21242.70
519.79	21238.02
519.96	21418.24
520.14	21727.19
520.31	21399.52
520.48	21783.37
520.65	21607.83
520.83	21764.64
521.00	21462.71
521.17	21781.03
521.34	21762.30
521.52	21876.99
521.69	21743.58
521.86	22047.85
522.03	22188.28
522.20	22342.75
522.38	22209.34
522.55	21944.86
522.72	22017.42
522.89	22174.24
523.07	22319.35
523.24	22167.21
523.41	22558.08
523.58	22197.64
523.75	22394.25
523.92	22394.25
524.10	22466.80
524.27	22302.96
524.44	22574.47
524.61	22820.22
524.78	22963.00
524.96	22923.21
525.13	22742.99
525.30	22984.06
525.47	22988.74
525.64	22970.02
525.81	22885.76
525.98	23234.50
526.16	23215.77
526.33	22836.61
526.50	23372.59
526.67	23267.27
526.84	23075.34
527.01	23234.50
527.18	23438.12
527.36	23449.83
527.53	23403.02
527.70	23363.23
527.87	23686.22
528.04	23566.85
528.21	23674.52
528.38	23428.76
528.55	23393.65
528.72	23297.69
528.89	23655.79
529.07	23491.96
529.24	23555.15
529.41	23550.47
529.58	23922.62
529.75	23695.58
529.92	23962.40
530.09	23889.85
530.26	24088.79
530.43	23957.72
530.60	24135.60
530.77	23950.70
530.94	24350.93
531.11	23861.76
531.28	23922.62
531.46	24283.06
531.63	23812.61
531.80	24149.65
531.97	24322.85
532.14	24648.18
532.31	24519.45
532.48	24109.86
532.65	24709.04
532.82	24402.43
532.99	24533.50
533.16	24456.26
533.33	24458.60
533.50	24828.40
533.67	25039.05
533.84	24535.84
534.01	24519.45
534.18	24718.40
534.35	24938.41
534.52	24776.91
534.69	24910.32
534.86	25116.29
535.03	24823.72
535.20	25001.60
535.37	24790.95
535.54	25099.90
535.71	24699.67
535.88	25106.93
536.05	24648.18
536.22	25434.60
536.38	25230.98
536.55	25476.73
536.72	25303.53
536.89	25303.53
537.06	25741.21
537.23	25055.43
537.40	25146.72
537.57	25324.60
537.74	25436.94
537.91	25516.52
538.08	25486.09
538.25	25593.76
538.42	25483.75
538.59	25806.75
538.75	25701.42
538.92	25865.26
539.09	25788.02
539.26	25748.23
539.43	25678.02
539.60	25841.85
539.77	25848.88
539.94	26073.57
540.11	25776.32
540.28	25867.60
540.44	26082.93
540.61	25886.32
540.78	26188.25
540.95	26228.04
541.12	26129.74
541.29	25907.39
541.46	26136.76
541.62	25741.21
541.79	26064.21
541.96	25893.35
542.13	26244.43
542.30	26096.97
542.47	26356.77
542.63	26607.21
542.80	26654.02
542.97	26625.93
543.14	26710.19
543.31	26464.44
543.48	26576.78
543.64	27026.17
543.81	26904.46
543.98	26682.11
544.15	26946.59
544.32	26955.95
544.48	27178.30
544.65	27246.18
544.82	26855.31
544.99	26661.04
545.16	26792.11
545.32	26632.96
545.49	27325.75
545.66	27564.49
545.83	27632.36
546.00	27211.07
546.16	27063.61
546.33	27014.46
546.50	26906.80
546.67	27028.51
546.83	26780.41
547.00	27222.77
547.17	27367.88
547.34	27438.10
547.50	27496.61
547.67	27440.44
547.84	27578.53
548.00	27510.66
548.17	27817.27
548.34	27384.27
548.51	27651.09
548.67	27576.19
548.84	27328.10
549.01	27728.33
549.18	27702.58
549.34	27882.80
549.51	27564.49
549.68	27845.35
549.84	27566.83
550.01	28018.55
550.18	27545.76
550.34	27702.58
550.51	27992.81
550.68	28084.09
550.84	27950.68
551.01	27936.63
551.18	27721.30
551.34	27667.47
551.51	27997.49
551.68	28002.17
551.84	28056.00
552.01	27880.46
552.18	28116.86
552.34	28166.01
552.51	28446.87
552.68	28407.08
552.84	28294.74
553.01	28243.24
553.18	28416.44
553.34	28266.65
553.51	28060.68
553.67	28444.53
553.84	28428.15
554.01	28105.15
554.17	28439.85
554.34	28645.82
554.51	28208.14
554.67	28465.60
554.84	28500.70
555.00	28723.05
555.17	28327.50
555.33	28966.47
555.50	28889.23
555.67	28877.53
555.83	28697.31
556.00	28758.16
556.16	28563.90
556.33	28599.01
556.50	28418.78
556.66	28912.64
556.83	28858.81
556.99	29301.17
557.16	29088.18
557.32	28868.17
557.49	28837.74
557.65	28315.80
557.82	28996.90
557.98	28575.60
558.15	28772.21
558.32	29090.52
558.48	28723.05
558.65	29436.92
558.81	29177.12
558.98	29053.07
559.14	28837.74
559.31	28879.87
559.47	29151.37
559.64	29174.78
559.80	29057.75
559.97	29275.42
560.13	29177.12
560.30	29172.44
560.46	29486.07
560.63	29142.01
560.79	29092.86
560.96	29069.45
561.12	29490.75
561.29	29142.01
561.45	29523.52
561.61	29195.84
561.78	29165.42
561.94	29511.81
562.11	29413.51
562.27	29029.66
562.44	29252.02
562.60	29551.60
562.77	29195.84
562.93	29132.65
563.10	29563.31
563.26	29259.04
563.42	30082.91
563.59	29809.06
563.75	29851.19
563.92	29670.97
564.08	29212.23
564.24	29525.86
564.41	29455.64
564.57	29233.29
564.74	29509.47
564.90	29575.01
565.07	29717.78
565.23	29422.87
565.39	30052.48
565.56	29830.13
565.72	29474.37
565.88	29333.93
566.05	29462.66
566.21	29619.48
566.38	29958.86
566.54	29916.73
566.70	29788.00
566.87	29624.16
567.03	30256.11
567.19	29935.45
567.36	29642.88
567.52	29266.06
567.68	29806.72
567.85	29563.31
568.01	30232.70
568.17	29647.57
568.34	29865.24
568.50	29940.13
568.66	29944.81
568.83	29996.31
568.99	29919.07
569.15	29895.66
569.32	29549.26
569.48	30115.67
569.64	30064.18
569.81	29720.12
569.97	29958.86
570.13	29792.68
570.30	29729.48
570.46	29914.39
570.62	30153.12
570.78	30003.33
570.95	29605.44
571.11	29986.94
571.27	29537.56
571.43	29780.98
571.60	29926.09
571.76	30008.01
571.92	29855.87
572.09	30052.48
572.25	30059.50
572.41	30108.65
572.57	29914.39
572.74	29996.31
572.90	29823.11
573.06	29942.47
573.22	30160.14
573.38	30080.56
573.55	29937.79
573.71	30199.93
573.87	30253.76
574.03	30059.50
574.20	30054.82
574.36	30136.74
574.52	29879.28
574.68	30129.72
574.84	29701.40
575.01	30171.85
575.17	30010.35
575.33	30000.99
575.49	30087.59
575.65	30188.23
575.82	30309.94
575.98	30092.27
576.14	30122.69
576.30	29979.92
576.46	30092.27
576.62	30298.23
576.79	30150.78
576.95	29937.79
577.11	30249.08
577.27	29837.15
577.43	30410.58
577.59	30412.92
577.75	30508.88
577.92	30073.54
578.08	30246.74
578.24	30221.00
578.40	29780.98
578.56	30354.41
578.72	30576.76
578.88	30532.29
579.04	30445.69
579.21	30331.00
579.37	30590.80
579.53	30408.24
579.69	30333.34
579.85	30113.33
580.01	30162.48
580.17	29984.60
580.33	30370.79
580.49	30008.01
580.65	30188.23
580.82	30693.79
580.98	30272.49
581.14	30527.61
581.30	30445.69
581.46	30162.48
581.62	30499.52
581.78	30206.95
581.94	30375.47
582.10	29818.42
582.26	30183.55
582.42	30651.66
582.58	30480.80
582.74	30239.72
582.90	30405.90
583.06	30188.23
583.22	30195.25
583.38	30321.64
583.54	30522.93
583.70	30309.94
583.86	30331.00
584.02	30412.92
584.18	30387.18
584.34	30408.24
584.50	30398.88
584.66	30551.01
584.82	30031.41
584.98	30429.30
585.14	30195.25
585.30	30085.25
585.46	30363.77
585.62	29909.71
585.78	30756.98
585.94	30174.19
586.10	30611.87
586.26	30487.82
586.42	30569.74
586.58	30904.43
586.74	30548.67
586.90	30370.79
587.06	30017.37
587.22	30501.86
587.38	30237.38
587.54	30398.88
587.70	30625.91
587.86	30836.56
588.02	30314.62
588.18	30288.87
588.34	30724.21
588.49	30588.46
588.65	30394.20
588.81	30298.23
588.97	30424.62
589.13	30518.25
589.29	30483.14
589.45	30541.65
589.61	30991.03
589.77	31005.08
589.93	30817.83
590.08	31023.80
590.24	30864.64
590.40	30637.61
590.56	30614.21
590.72	30562.72
590.88	30267.81
591.04	30527.61
591.20	31070.61
591.35	31255.51
591.51	31594.89
591.67	30712.51
591.83	31234.45
591.99	31131.47
