SpectraSuite Data File
++++++++++++++++++++++++++++++++++++
Date: Fri Oct 18 13:58:31 GMT-05:00 2013
User: bianchi
Dark Spectrum Present: No
Reference Spectrum Present: No
Number of Sampled Component Spectra: 1
Spectrometers: USB2+H05261
Integration Time (usec): 50000 (USB2+H05261)
Spectra Averaged: 1 (USB2+H05261)
Boxcar Smoothing: 0 (USB2+H05261)
Correct for Electrical Dark: No (USB2+H05261)
Strobe/Lamp Enabled: No (USB2+H05261)
Correct for Detector Non-linearity: No (USB2+H05261)
Correct for Stray Light: No (USB2+H05261)
Number of Pixels in Processed Spectrum: 2048
>>>>>Begin Processed Spectral Data<<<<<
365.73	0.00
365.92	0.00
366.12	0.00
366.32	0.00
366.52	0.00
366.72	0.00
366.91	0.00
367.11	0.00
367.31	0.00
367.51	0.00
367.70	0.00
367.90	0.00
368.10	0.00
368.30	0.00
368.49	0.00
368.69	0.00
368.89	0.00
369.09	0.00
369.28	0.00
369.48	0.00
369.68	0.00
369.87	0.00
370.07	0.00
370.27	0.00
370.47	0.00
370.66	56.17
370.86	100.64
371.06	124.05
371.25	238.73
371.45	149.79
371.65	102.98
371.84	102.98
372.04	110.01
372.24	114.69
372.44	184.90
372.63	229.37
372.83	173.20
373.03	243.42
373.22	191.92
373.42	140.43
373.62	271.50
373.81	229.37
374.01	259.80
374.21	257.46
374.40	229.37
374.60	145.11
374.79	161.50
374.99	271.50
375.19	322.99
375.38	220.01
375.58	212.99
375.78	273.84
375.97	210.65
376.17	318.31
376.37	264.48
376.56	252.78
376.76	217.67
376.95	238.73
377.15	236.39
377.35	191.92
377.54	273.84
377.74	215.33
377.93	264.48
378.13	243.42
378.33	304.27
378.52	271.50
378.72	245.76
378.91	304.27
379.11	311.29
379.31	203.63
379.50	170.86
379.70	271.50
379.89	280.86
380.09	280.86
380.28	325.33
380.48	334.70
380.68	315.97
380.87	245.76
381.07	327.68
381.26	402.57
381.46	320.65
381.65	301.93
381.85	369.80
382.04	315.97
382.24	400.23
382.43	299.59
382.63	299.59
382.83	276.18
383.02	311.29
383.22	348.74
383.41	271.50
383.61	374.49
383.80	341.72
384.00	400.23
384.19	297.25
384.39	346.40
384.58	372.15
384.78	409.59
384.97	381.51
385.17	390.87
385.36	447.04
385.56	435.34
385.75	372.15
385.95	362.78
386.14	386.19
386.34	341.72
386.53	414.27
386.72	411.93
386.92	372.15
387.11	433.00
387.31	496.19
387.50	388.53
387.70	341.72
387.89	409.59
388.09	531.30
388.28	407.25
388.48	379.17
388.67	416.62
388.86	440.02
389.06	463.43
389.25	414.27
389.45	475.13
389.64	486.83
389.84	503.22
390.03	482.15
390.22	500.87
390.42	442.36
390.61	463.43
390.81	503.22
391.00	505.56
391.19	477.47
391.39	400.23
391.58	505.56
391.78	486.83
391.97	496.19
392.16	526.62
392.36	510.24
392.55	580.45
392.75	575.77
392.94	531.30
393.13	592.16
393.33	482.15
393.52	578.11
393.71	528.96
393.91	554.71
394.10	561.73
394.29	587.47
394.49	533.64
394.68	561.73
394.88	531.30
395.07	526.62
395.26	568.75
395.46	589.82
395.65	716.20
395.84	564.07
396.04	629.60
396.23	557.05
396.42	610.88
396.62	692.80
396.81	678.76
397.00	596.84
397.19	554.71
397.39	695.14
397.58	629.60
397.77	718.54
397.97	587.47
398.16	688.12
398.35	667.05
398.55	699.82
398.74	692.80
398.93	688.12
399.12	734.93
399.32	648.33
399.51	723.23
399.70	716.20
399.90	678.76
400.09	774.72
400.28	816.85
400.47	681.10
400.67	734.93
400.86	730.25
401.05	786.42
401.24	767.70
401.44	812.17
401.63	748.97
401.82	814.51
402.01	793.44
402.21	781.74
402.40	844.93
402.59	830.89
402.78	849.61
402.97	840.25
403.17	737.27
403.36	863.66
403.55	933.87
403.74	833.23
403.93	821.53
404.13	842.59
404.32	938.55
404.51	903.45
404.70	875.36
404.89	964.30
405.09	910.47
405.28	919.83
405.47	987.71
405.66	929.19
405.85	908.13
406.05	1018.13
406.24	882.38
406.43	950.26
406.62	931.53
406.81	992.39
407.00	1036.86
407.20	898.77
407.39	1053.24
407.58	968.98
407.77	1074.31
407.96	1100.05
408.15	980.68
408.34	1004.09
408.54	1109.41
408.73	1184.31
408.92	1043.88
409.11	1074.31
409.30	1156.22
409.49	1177.29
409.68	1160.91
409.87	1144.52
410.07	1277.93
410.26	1160.91
410.45	1200.69
410.64	1191.33
410.83	1212.40
411.02	1156.22
411.21	1273.25
411.40	1252.19
411.59	1156.22
411.78	1177.29
411.98	1193.67
412.17	1240.48
412.36	1196.01
412.55	1280.27
412.74	1310.70
412.93	1277.93
413.12	1306.02
413.31	1308.36
413.50	1277.93
413.69	1465.18
413.88	1397.30
414.07	1387.94
414.26	1411.34
414.45	1516.67
414.64	1542.41
414.83	1598.59
415.02	1504.96
415.22	1488.58
415.41	1563.48
415.60	1547.09
415.79	1540.07
415.98	1504.96
416.17	1598.59
416.36	1528.37
416.55	1643.06
416.74	1556.46
416.93	1631.35
417.12	1568.16
417.31	1614.97
417.50	1650.08
417.69	1734.34
417.88	1692.21
418.07	1675.82
418.26	1708.59
418.45	1703.91
418.64	1755.40
418.83	1825.62
419.02	1743.70
419.21	1685.19
419.39	1778.81
419.58	1753.06
419.77	1813.92
419.96	1811.57
420.15	1839.66
420.34	1792.85
420.53	1783.49
420.72	1902.86
420.91	1902.86
421.10	1886.47
421.29	1907.54
421.48	1804.55
421.67	1865.41
421.86	1970.73
422.05	1909.88
422.24	1874.77
422.43	1879.45
422.61	2038.61
422.80	1973.07
422.99	1877.11
423.18	1968.39
423.37	2038.61
423.56	1994.14
423.75	1923.92
423.94	1970.73
424.13	1870.09
424.32	1914.56
424.50	1935.62
424.69	2092.44
424.88	2001.16
425.07	1980.09
425.26	1930.94
425.45	2036.27
425.64	1949.67
425.83	2045.63
426.01	1998.82
426.20	1879.45
426.39	1996.48
426.58	1959.03
426.77	1968.39
426.96	2052.65
427.15	2141.59
427.33	2094.78
427.52	2064.35
427.71	2054.99
427.90	2066.69
428.09	2094.78
428.28	2033.93
428.46	2143.93
428.65	2132.23
428.84	2251.60
429.03	2209.47
429.22	2085.42
429.40	2265.64
429.59	2265.64
429.78	2108.82
429.97	2026.90
430.16	2174.36
430.34	2272.66
430.53	2389.69
430.72	2244.57
430.91	2214.15
431.10	2296.07
431.28	2326.49
431.47	2246.91
431.66	2403.73
431.85	2214.15
432.03	2373.30
432.22	2427.14
432.41	2361.60
432.60	2370.96
432.79	2342.88
432.97	2427.14
433.16	2415.43
433.35	2429.48
433.54	2396.71
433.72	2464.58
433.91	2392.03
434.10	2605.02
434.28	2537.14
434.47	2385.01
434.66	2448.20
434.85	2476.29
435.03	2619.06
435.22	2462.24
435.41	2633.10
435.59	2511.39
435.78	2502.03
435.97	2569.91
436.16	2651.83
436.34	2574.59
436.53	2651.83
436.72	2766.51
436.90	2754.81
437.09	2710.34
437.28	2614.38
437.46	2637.78
437.65	2750.13
437.84	2796.94
438.02	2614.38
438.21	2555.86
438.40	2679.91
438.58	2775.88
438.77	2815.66
438.96	2825.03
439.14	2878.86
439.33	2958.44
439.52	3012.27
439.70	2904.60
439.89	3000.57
440.08	2963.12
440.26	3056.74
440.45	3038.02
440.63	2930.35
440.82	3061.42
441.01	3019.29
441.19	3075.46
441.38	3056.74
441.57	3021.63
441.75	3103.55
441.94	3241.64
442.12	3166.74
442.31	3276.75
442.50	3241.64
442.68	3141.00
442.87	3321.22
443.05	3361.01
443.24	3293.13
443.43	3260.37
443.61	3332.92
443.80	3372.71
443.98	3267.39
444.17	3300.16
444.35	3335.26
444.54	3485.06
444.73	3419.52
444.91	3295.47
445.10	3346.97
445.28	3435.91
445.47	3297.81
445.65	3485.06
445.84	3344.63
446.02	3489.74
446.21	3382.07
446.39	3337.60
446.58	3569.32
446.77	3524.85
446.95	3370.37
447.14	3466.33
447.32	3510.80
447.51	3466.33
447.69	3555.27
447.88	3440.59
448.06	3513.14
448.25	3524.85
448.43	3382.07
448.62	3501.44
448.80	3461.65
448.99	3463.99
449.17	3501.44
449.36	3578.68
449.54	3550.59
449.73	3550.59
449.91	3730.81
450.10	3613.79
450.28	3576.34
450.46	3562.30
450.65	3684.00
450.83	3616.13
451.02	3616.13
451.20	3693.37
451.39	3686.34
451.57	3637.19
451.76	3674.64
451.94	3810.39
452.13	3695.71
452.31	3747.20
452.49	3740.18
452.68	3852.52
452.86	3772.94
453.05	3911.04
453.23	3833.80
453.42	3779.97
453.60	3819.75
453.78	3880.61
453.97	3765.92
454.15	3906.35
454.34	3840.82
454.52	3904.01
454.70	3920.40
454.89	4105.30
455.07	4007.00
455.26	4088.92
455.44	4011.68
455.62	4060.83
455.81	3943.80
455.99	4084.23
456.17	4114.66
456.36	4142.75
456.54	4112.32
456.73	4086.58
456.91	4234.03
457.09	4105.30
457.28	4353.40
457.46	4161.47
457.64	4283.18
457.83	4243.39
458.01	4266.80
458.19	4269.14
458.38	4369.78
458.56	4290.20
458.74	4168.49
458.93	4248.07
459.11	4465.74
459.29	4294.88
459.48	4449.36
459.66	4325.31
459.84	4437.66
460.03	4519.57
460.21	4404.89
460.39	4634.26
460.57	4528.94
460.76	4437.66
460.94	4559.36
461.12	4498.51
461.31	4571.07
461.49	4596.81
461.67	4425.95
461.85	4615.54
462.04	4585.11
462.22	4711.50
462.40	4725.54
462.59	4610.86
462.77	4505.53
462.95	4753.63
463.13	4709.16
463.32	4842.57
463.50	4816.82
463.68	4767.67
463.86	4777.03
464.05	4741.93
464.23	4770.01
464.41	4734.90
464.59	4734.90
464.78	4926.83
464.96	4713.84
465.14	4755.97
465.32	4959.60
465.50	4770.01
465.69	4931.51
465.87	4943.21
466.05	4882.36
466.23	4905.76
466.41	4835.55
466.60	5011.09
466.78	4844.91
466.96	4898.74
467.14	4800.44
467.32	4896.40
467.51	4999.38
467.69	4903.42
467.87	4910.44
468.05	5085.98
468.23	4978.32
468.41	5057.90
468.60	5116.41
468.78	5097.69
468.96	4990.02
469.14	5111.73
469.32	5263.86
469.50	4999.38
469.69	5287.27
469.87	5228.76
470.05	5373.87
470.23	5308.34
470.41	5317.70
470.59	5441.75
470.77	5097.69
470.95	5401.96
471.14	5547.07
471.32	5266.21
471.50	5589.20
471.68	5479.19
471.86	5451.11
472.04	5448.77
472.22	5678.14
472.40	5526.00
472.58	5596.22
472.77	5619.63
472.95	5722.61
473.13	5820.91
473.31	5778.78
473.49	5563.45
473.67	5834.96
473.85	5680.48
474.03	5914.53
474.21	5849.00
474.39	5884.11
474.57	5977.73
474.75	5996.45
474.93	5998.79
475.12	5905.17
475.30	6108.80
475.48	6106.46
475.66	6085.39
475.84	6176.67
476.02	6312.42
476.20	6307.74
476.38	6293.70
476.56	6384.98
476.74	6363.92
476.92	6420.09
477.10	6438.81
477.28	6490.31
477.46	6382.64
477.64	6555.84
477.82	6822.66
478.00	6981.82
478.18	6707.98
478.36	6927.99
478.54	6841.39
478.72	7028.63
478.90	6827.34
479.08	6974.80
479.26	7103.53
479.44	7112.89
479.62	7194.81
479.80	7363.33
479.98	7176.08
480.16	7330.56
480.34	7417.16
480.52	7428.86
480.70	7349.28
480.88	7433.54
481.06	7578.65
481.24	7375.03
481.41	7653.55
481.59	7854.84
481.77	7831.43
481.95	7796.32
482.13	7957.82
482.31	7983.57
482.49	7995.27
482.67	7976.55
482.85	8273.79
483.03	8313.58
483.21	8404.86
483.39	8395.50
483.57	8142.72
483.74	8482.10
483.92	8681.05
484.10	8655.30
484.28	8861.27
484.46	8828.50
484.64	9114.05
484.82	8578.06
485.00	8844.88
485.18	9074.26
485.35	8997.02
485.53	8992.34
485.71	9270.86
485.89	9401.93
486.07	9256.82
486.25	9334.06
486.43	9717.90
486.61	9542.36
486.78	9607.90
486.96	9537.68
487.14	10026.86
487.32	10052.60
487.50	9818.55
487.68	10097.07
487.85	10277.29
488.03	9991.75
488.21	10391.98
488.39	10253.89
488.57	10471.56
488.75	10520.71
488.92	10614.33
489.10	10480.92
489.28	10930.30
489.46	10677.52
489.64	10731.36
489.81	11014.56
489.99	11276.70
490.17	11138.61
490.35	11023.92
490.53	11286.06
490.70	11529.48
490.88	11412.45
491.06	11290.74
491.24	11583.31
491.41	11421.81
491.59	11929.71
491.77	11882.90
491.95	12049.08
492.13	11925.03
492.30	11873.54
492.48	11719.06
492.66	12091.21
492.84	12156.74
493.01	12163.76
493.19	12397.82
493.37	12507.82
493.54	12524.21
493.72	12678.68
493.90	12444.63
494.08	12674.00
494.25	12711.45
494.43	12901.03
494.61	12905.71
494.79	13025.08
494.96	12823.80
495.14	13060.19
495.32	13139.77
495.49	13226.37
495.67	13504.89
495.85	13401.91
496.02	13659.37
496.20	13741.29
496.38	13734.26
496.55	13668.73
496.73	13958.96
496.91	13774.05
497.09	14005.77
497.26	14038.53
497.44	14040.87
497.62	14092.37
497.79	14321.74
497.97	14066.62
498.14	14391.95
498.32	14242.16
498.50	14548.77
498.67	14740.69
498.85	14487.92
499.03	14537.07
499.20	14677.50
499.38	14918.57
499.56	15096.46
499.73	14960.70
499.91	15089.43
500.08	15119.86
500.26	14829.63
500.44	14953.68
500.61	15094.11
500.79	15304.76
500.97	15246.25
501.14	15393.70
501.32	15335.19
501.49	15407.75
501.67	15503.71
501.84	15850.11
502.02	15648.82
502.20	15690.95
502.37	15777.55
502.55	15838.41
502.72	15847.77
502.90	15906.28
503.07	15765.85
503.25	15878.19
503.43	16159.06
503.60	16170.76
503.78	16229.27
503.95	16175.44
504.13	16224.59
504.30	16346.30
504.48	16432.90
504.65	16336.94
504.83	16486.73
505.01	16875.26
505.18	16936.12
505.36	16720.79
505.53	16589.72
505.71	16704.40
505.88	16671.64
506.06	16788.66
506.23	16858.88
506.41	16812.07
506.58	16823.77
506.76	17011.01
506.93	17076.55
507.11	17013.35
507.28	17022.72
507.46	17071.87
507.63	17259.11
507.81	17357.41
507.98	17338.69
508.16	17432.31
508.33	17415.93
508.50	17542.32
508.68	17654.66
508.85	17743.60
509.03	17841.90
509.20	17935.53
509.38	18052.55
509.55	17888.71
509.73	18106.38
509.90	17858.29
510.08	17982.34
510.25	17989.36
510.42	18043.19
510.60	18455.12
510.77	18293.63
510.95	18574.49
511.12	18340.44
511.30	18160.22
511.47	18405.97
511.64	18721.95
511.82	18508.96
511.99	18782.80
512.17	18511.30
512.34	18951.32
512.51	19000.47
512.69	18913.87
512.86	18731.31
513.04	19229.84
513.21	19047.28
513.38	18979.40
513.56	18698.54
513.73	19084.73
513.90	19218.14
514.08	18892.80
514.25	19293.04
514.43	19042.60
514.60	19417.08
514.77	19777.53
514.95	19543.47
515.12	19372.61
515.29	19403.04
515.47	19314.10
515.64	19623.05
515.81	19683.91
515.99	19934.34
516.16	19742.42
516.33	20121.59
516.51	20140.31
516.68	19990.52
516.85	19967.11
517.03	19655.82
517.20	20032.65
517.37	19969.45
517.54	20004.56
517.72	20016.26
517.89	19915.62
518.06	20065.41
518.24	20322.87
518.41	20343.94
518.58	20182.44
518.75	20467.98
518.93	20463.30
519.10	20355.64
519.27	20617.78
519.45	20362.66
519.62	20409.47
519.79	20725.44
519.96	20519.48
520.14	20559.27
520.31	20568.63
520.48	21296.53
520.65	20893.96
520.83	20882.26
521.00	20915.03
521.17	20830.77
521.34	20760.55
521.52	20989.92
521.69	21357.39
521.86	21214.62
522.03	21509.52
522.20	21198.23
522.38	21434.63
522.55	21231.00
522.72	21472.07
522.89	21341.00
523.07	21589.10
523.24	21638.25
523.41	21774.00
523.58	21483.78
523.75	21898.05
523.92	21654.64
524.10	21722.51
524.27	21818.47
524.44	21884.01
524.61	21830.18
524.78	22218.71
524.96	21963.59
525.13	21656.98
525.30	22181.26
525.47	22228.07
525.64	22277.22
525.81	21912.10
525.98	22366.16
526.16	22085.30
526.33	22434.03
526.50	22295.94
526.67	22237.43
526.84	22078.27
527.01	22419.99
527.18	22471.48
527.36	22298.28
527.53	22539.36
527.70	22993.42
527.87	22843.63
528.04	22810.86
528.21	22792.14
528.38	22579.15
528.55	22939.59
528.72	22448.08
528.89	22934.91
529.07	22735.96
529.24	22745.33
529.41	22986.40
529.58	22984.06
529.75	23016.83
529.92	23119.81
530.09	22710.22
530.26	23248.54
530.43	23143.22
530.60	23133.86
530.77	23246.20
530.94	23248.54
531.11	23211.09
531.28	23218.11
531.46	23274.29
531.63	23697.92
531.80	23672.18
531.97	23407.70
532.14	23758.78
532.31	23482.59
532.48	23845.38
532.65	23323.44
532.82	23370.25
532.99	23859.42
533.16	23384.29
533.33	23466.21
533.50	23836.02
533.67	24002.19
533.84	23634.73
534.01	23653.45
534.18	24074.75
534.35	24271.36
534.52	23791.55
534.69	24236.25
534.86	24339.23
535.03	24093.47
535.20	24437.53
535.37	23999.85
535.54	24159.01
535.71	24053.69
535.88	24425.83
536.05	24058.37
536.22	24149.65
536.38	24470.30
536.55	24589.67
536.72	24622.44
536.89	24116.88
537.06	24456.26
537.23	24315.83
537.40	24020.92
537.57	24254.97
537.74	24435.19
537.91	24891.60
538.08	24723.08
538.25	24762.87
538.42	24753.51
538.59	24947.77
538.75	24393.06
538.92	24875.21
539.09	25025.01
539.26	24950.11
539.43	24666.91
539.60	25017.99
539.77	24533.50
539.94	24797.98
540.11	24966.49
540.28	25193.53
540.44	25057.78
540.61	24762.87
540.78	24737.12
540.95	25184.16
541.12	24926.71
541.29	25568.01
541.46	25282.47
541.62	25340.98
541.79	24964.15
541.96	25074.16
542.13	25338.64
542.30	25263.74
542.47	25420.56
542.63	25551.63
542.80	25591.42
542.97	25591.42
543.14	25516.52
543.31	25853.56
543.48	25591.42
543.64	25820.79
543.81	26155.49
543.98	26174.21
544.15	25785.68
544.32	26272.51
544.48	26277.19
544.65	26052.50
544.82	26146.12
544.99	25736.53
545.16	25991.65
545.32	25916.75
545.49	26349.75
545.66	26279.54
545.83	26235.06
546.00	26272.51
546.16	25865.26
546.33	26331.03
546.50	25731.85
546.67	25998.67
546.83	25984.63
547.00	26277.19
547.17	26274.85
547.34	26363.79
547.50	26590.83
547.67	26443.37
547.84	26677.43
548.00	26574.44
548.17	26511.25
548.34	26405.92
548.51	27021.48
548.67	26642.32
548.84	26639.98
549.01	26508.91
549.18	26389.54
549.34	26785.09
549.51	26441.03
549.68	26836.58
549.84	26331.03
550.01	26644.66
550.18	26504.23
550.34	26967.65
550.51	27185.32
550.68	26941.91
550.84	26923.18
551.01	26843.60
551.18	26792.11
551.34	26272.51
551.51	26728.92
551.68	27318.73
551.84	27124.47
552.01	27000.42
552.18	27129.15
552.34	27021.48
552.51	27232.13
552.68	27098.72
552.84	27126.81
553.01	27452.14
553.18	27218.09
553.34	27491.93
553.51	27356.18
553.67	27166.60
553.84	27503.64
554.01	27398.31
554.17	27119.79
554.34	27468.53
554.51	27236.81
554.67	27461.51
554.84	27606.62
555.00	27328.10
555.17	27257.88
555.33	27768.12
555.50	27400.65
555.67	27197.02
555.83	27531.72
556.00	27445.12
556.16	27737.69
556.33	27555.13
556.50	27552.79
556.66	27721.30
556.83	27571.51
556.99	27784.50
557.16	27828.97
557.32	27969.40
557.49	27950.68
557.65	27578.53
557.82	27615.98
557.98	27772.80
558.15	27466.19
558.32	28023.23
558.48	27964.72
558.65	27814.93
558.81	27983.44
558.98	27861.74
559.14	27906.21
559.31	27821.95
559.47	27924.93
559.64	27733.01
559.80	28205.80
559.97	28027.92
560.13	28002.17
560.30	28390.70
560.46	28212.82
560.63	27812.59
560.79	28149.62
560.96	27995.15
561.12	27854.72
561.29	27765.78
561.45	28058.34
561.61	28144.94
561.78	28446.87
561.94	28357.93
562.11	27941.32
562.27	28140.26
562.44	28411.76
562.60	28198.77
562.77	27974.08
562.93	27929.61
563.10	28290.06
563.26	28510.07
563.42	28512.41
563.59	28287.71
563.75	28811.99
563.92	28477.30
564.08	28582.62
564.24	28224.52
564.41	28114.52
564.57	28367.29
564.74	28573.26
564.90	28622.41
565.07	28479.64
565.23	28582.62
565.39	28444.53
565.56	28589.64
565.72	28713.69
565.88	28369.63
566.05	28350.91
566.21	28128.56
566.38	28603.69
566.54	28751.14
566.70	28870.51
566.87	28510.07
567.03	28744.12
567.19	29118.60
567.36	28788.59
567.52	28669.22
567.68	28615.39
567.85	28453.89
568.01	28563.90
568.17	28268.99
568.34	28673.90
568.50	28591.98
568.66	28889.23
568.83	28652.84
568.99	28898.59
569.15	28659.86
569.32	28364.95
569.48	28222.18
569.64	28781.57
569.81	28800.29
569.97	28517.09
570.13	28776.89
570.30	28669.22
570.46	28678.58
570.62	28556.88
570.78	28559.22
570.95	28458.57
571.11	29081.16
571.27	28444.53
571.43	28489.00
571.60	28765.18
571.76	28414.10
571.92	28755.82
572.09	29022.64
572.25	28978.17
572.41	28931.36
572.57	28875.19
572.74	28912.64
572.90	28250.27
573.06	29064.77
573.22	29020.30
573.38	28950.09
573.55	28835.40
573.71	28861.15
573.87	28823.70
574.03	28701.99
574.20	28936.04
574.36	28603.69
574.52	29050.73
574.68	28914.98
574.84	28936.04
575.01	29102.22
575.17	29006.26
575.33	28856.46
575.49	28938.38
575.65	29127.97
575.82	29069.45
575.98	28744.12
576.14	29261.38
576.30	28973.49
576.46	29099.88
576.62	28823.70
576.79	29036.69
576.95	29207.55
577.11	28898.59
577.27	29369.04
577.43	28994.56
577.59	28914.98
577.75	29270.74
577.92	28903.28
578.08	28980.51
578.24	29069.45
578.40	29301.17
578.56	29259.04
578.72	29017.96
578.88	28896.25
579.04	29284.78
579.21	29188.82
579.37	28886.89
579.53	29228.61
579.69	28870.51
579.85	29177.12
580.01	28889.23
580.17	28816.68
580.33	28907.96
580.49	29043.71
580.65	29228.61
580.82	29364.36
580.98	29287.12
581.14	29165.42
581.30	29486.07
581.46	28985.19
581.62	29076.48
581.78	28709.01
581.94	29371.38
582.10	28947.75
582.26	29254.36
582.42	29380.74
582.58	28781.57
582.74	29399.47
582.90	29254.36
583.06	29209.89
583.22	28872.85
583.38	29298.83
583.54	28856.46
583.70	29282.44
583.86	29209.89
584.02	29223.93
584.18	29097.54
584.34	29563.31
584.50	29352.66
584.66	29053.07
584.82	28697.31
584.98	29317.55
585.14	29333.93
585.30	29240.31
585.46	29041.37
585.62	28893.91
585.78	29198.18
585.94	29092.86
586.10	29589.05
586.26	29420.53
586.42	29516.50
586.58	29193.50
586.74	29242.65
586.90	29024.98
587.06	29067.11
587.22	29125.63
587.38	29172.44
587.54	29331.59
587.70	29399.47
587.86	29085.84
588.02	29720.12
588.18	29532.88
588.34	29390.11
588.49	29216.91
588.65	29228.61
588.81	29455.64
588.97	29329.25
589.13	28912.64
589.29	29261.38
589.45	29397.13
589.61	29399.47
589.77	29563.31
589.93	29570.33
590.08	29326.91
590.24	29514.16
590.40	29509.47
590.56	29233.29
590.72	29345.64
590.88	29425.22
591.04	29546.92
591.20	29654.59
591.35	29851.19
591.51	29834.81
591.67	30075.88
591.83	29673.31
591.99	29902.68
