SpectraSuite Data File
++++++++++++++++++++++++++++++++++++
Date: Fri Oct 18 13:58:12 GMT-05:00 2013
User: bianchi
Dark Spectrum Present: No
Reference Spectrum Present: No
Number of Sampled Component Spectra: 1
Spectrometers: USB2+H05261
Integration Time (usec): 50000 (USB2+H05261)
Spectra Averaged: 1 (USB2+H05261)
Boxcar Smoothing: 0 (USB2+H05261)
Correct for Electrical Dark: No (USB2+H05261)
Strobe/Lamp Enabled: No (USB2+H05261)
Correct for Detector Non-linearity: No (USB2+H05261)
Correct for Stray Light: No (USB2+H05261)
Number of Pixels in Processed Spectrum: 2048
>>>>>Begin Processed Spectral Data<<<<<
365.73	0.00
365.92	0.00
366.12	0.00
366.32	0.00
366.52	0.00
366.72	0.00
366.91	0.00
367.11	0.00
367.31	0.00
367.51	0.00
367.70	0.00
367.90	0.00
368.10	0.00
368.30	0.00
368.49	0.00
368.69	0.00
368.89	0.00
369.09	0.00
369.28	0.00
369.48	0.00
369.68	0.00
369.87	0.00
370.07	0.00
370.27	0.00
370.47	0.00
370.66	86.60
370.86	117.03
371.06	147.45
371.25	234.05
371.45	107.66
371.65	173.20
371.84	88.94
372.04	121.71
372.24	107.66
372.44	163.84
372.63	191.92
372.83	140.43
373.03	154.48
373.22	184.90
373.42	208.31
373.62	285.55
373.81	250.44
374.01	285.55
374.21	217.67
374.40	220.01
374.60	224.69
374.79	250.44
374.99	205.97
375.19	257.46
375.38	184.90
375.58	245.76
375.78	320.65
375.97	245.76
376.17	257.46
376.37	250.44
376.56	259.80
376.76	287.89
376.95	292.57
377.15	271.50
377.35	245.76
377.54	229.37
377.74	299.59
377.93	337.04
378.13	250.44
378.33	318.31
378.52	259.80
378.72	337.04
378.91	313.63
379.11	313.63
379.31	346.40
379.50	252.78
379.70	308.95
379.89	278.52
380.09	241.08
380.28	250.44
380.48	360.44
380.68	292.57
380.87	245.76
381.07	276.18
381.26	348.74
381.46	334.70
381.65	332.36
381.85	358.10
382.04	245.76
382.24	400.23
382.43	304.27
382.63	369.80
382.83	311.29
383.02	311.29
383.22	360.44
383.41	313.63
383.61	386.19
383.80	390.87
384.00	365.12
384.19	430.66
384.39	341.72
384.58	390.87
384.78	383.85
384.97	451.72
385.17	390.87
385.36	355.76
385.56	341.72
385.75	334.70
385.95	367.46
386.14	397.89
386.34	376.83
386.53	311.29
386.72	374.49
386.92	458.74
387.11	421.30
387.31	468.11
387.50	479.81
387.70	416.62
387.89	491.51
388.09	374.49
388.28	393.21
388.48	411.93
388.67	489.17
388.86	444.70
389.06	512.58
389.25	486.83
389.45	416.62
389.64	435.34
389.84	535.98
390.03	493.85
390.22	505.56
390.42	409.59
390.61	454.06
390.81	449.38
391.00	505.56
391.19	594.50
391.39	545.34
391.58	510.24
391.78	617.90
391.97	550.03
392.16	514.92
392.36	510.24
392.55	575.77
392.75	587.47
392.94	524.28
393.13	599.18
393.33	449.38
393.52	493.85
393.71	645.99
393.91	582.79
394.10	578.11
394.29	568.75
394.49	613.22
394.68	648.33
394.88	582.79
395.07	575.77
395.26	669.39
395.46	624.92
395.65	697.48
395.84	655.35
396.04	697.48
396.23	657.69
396.42	657.69
396.62	690.46
396.81	690.46
397.00	641.31
397.19	627.26
397.39	706.84
397.58	713.86
397.77	674.07
397.97	678.76
398.16	692.80
398.35	784.08
398.55	716.20
398.74	697.48
398.93	692.80
399.12	765.36
399.32	730.25
399.51	702.16
399.70	758.33
399.90	753.65
400.09	809.83
400.28	781.74
400.47	748.97
400.67	732.59
400.86	842.59
401.05	866.00
401.24	847.27
401.44	894.08
401.63	816.85
401.82	709.18
402.01	781.74
402.21	863.66
402.40	837.91
402.59	828.55
402.78	739.61
402.97	851.96
403.17	830.89
403.36	863.66
403.55	910.47
403.74	917.49
403.93	898.77
404.13	926.85
404.32	901.11
404.51	968.98
404.70	1022.81
404.89	992.39
405.09	990.05
405.28	940.90
405.47	961.96
405.66	964.30
405.85	997.07
406.05	992.39
406.24	983.02
406.43	1034.52
406.62	1142.18
406.81	1125.80
407.00	1004.09
407.20	997.07
407.39	1022.81
407.58	1057.92
407.77	1107.07
407.96	1128.14
408.15	1118.78
408.34	1116.44
408.54	1212.40
408.73	1006.43
408.92	999.41
409.11	1125.80
409.30	1137.50
409.49	1160.91
409.68	1130.48
409.87	1277.93
410.07	1256.87
410.26	1217.08
410.45	1245.16
410.64	1296.66
410.83	1231.12
411.02	1179.63
411.21	1217.08
411.40	1296.66
411.59	1317.72
411.78	1289.64
411.98	1280.27
412.17	1242.82
412.36	1249.85
412.55	1299.00
412.74	1322.40
412.93	1364.53
413.12	1287.29
413.31	1385.60
413.50	1394.96
413.69	1425.39
413.88	1376.24
414.07	1462.83
414.26	1488.58
414.45	1453.47
414.64	1509.65
414.83	1472.20
415.02	1516.67
415.22	1579.86
415.41	1516.67
415.60	1493.26
415.79	1474.54
415.98	1652.42
416.17	1556.46
416.36	1605.61
416.55	1650.08
416.74	1624.33
416.93	1739.02
417.12	1767.10
417.31	1678.16
417.50	1675.82
417.69	1717.95
417.88	1703.91
418.07	1778.81
418.26	1706.25
418.45	1708.59
418.64	1921.58
418.83	1844.34
419.02	1729.66
419.21	1970.73
419.39	1902.86
419.58	1898.17
419.77	1834.98
419.96	1940.30
420.15	1949.67
420.34	1874.77
420.53	1858.39
420.72	1891.15
420.91	1886.47
421.10	1975.41
421.29	1996.48
421.48	2031.58
421.67	2017.54
421.86	1989.46
422.05	2012.86
422.24	1954.35
422.43	1963.71
422.61	1949.67
422.80	1959.03
422.99	2104.14
423.18	2132.23
423.37	2008.18
423.56	1942.64
423.75	1961.37
423.94	2069.03
424.13	1867.75
424.32	2015.20
424.50	2071.37
424.69	2146.27
424.88	2064.35
425.07	1907.54
425.26	1994.14
425.45	2118.18
425.64	2087.76
425.83	2076.06
426.01	2134.57
426.20	2099.46
426.39	1949.67
426.58	2090.10
426.77	2083.08
426.96	2204.78
427.15	2057.33
427.33	2118.18
427.52	2092.44
427.71	2155.63
427.90	2064.35
428.09	2293.72
428.28	2361.60
428.46	2277.34
428.65	2216.49
428.84	2221.17
429.03	2200.10
429.22	2214.15
429.40	2237.55
429.59	2307.77
429.78	2244.57
429.97	2195.42
430.16	2225.85
430.34	2370.96
430.53	2319.47
430.72	2303.09
430.91	2314.79
431.10	2401.39
431.28	2347.56
431.47	2471.61
431.66	2354.58
431.85	2319.47
432.03	2487.99
432.22	2502.03
432.41	2363.94
432.60	2544.16
432.79	2499.69
432.97	2560.55
433.16	2476.29
433.35	2408.41
433.54	2502.03
433.72	2551.18
433.91	2490.33
434.10	2511.39
434.28	2452.88
434.47	2537.14
434.66	2672.89
434.85	2612.04
435.03	2605.02
435.22	2544.16
435.41	2731.41
435.59	2619.06
435.78	2677.57
435.97	2651.83
436.16	2747.79
436.34	2656.51
436.53	2729.06
436.72	2796.94
436.90	2679.91
437.09	2761.83
437.28	2626.08
437.46	2600.34
437.65	2764.17
437.84	2841.41
438.02	2722.04
438.21	2764.17
438.40	2782.90
438.58	2883.54
438.77	2960.78
438.96	3009.93
439.14	2839.07
439.33	2979.50
439.52	3033.33
439.70	2923.33
439.89	2953.76
440.08	3145.68
440.26	3157.38
440.45	3103.55
440.63	3000.57
440.82	3124.62
441.01	3117.59
441.19	3213.56
441.38	3229.94
441.57	3220.58
441.75	3272.07
441.94	3351.65
442.12	3323.56
442.31	3372.71
442.50	3456.97
442.68	3452.29
442.87	3314.20
443.05	3274.41
443.24	3358.67
443.43	3325.90
443.61	3510.80
443.80	3562.30
443.98	3412.50
444.17	3197.17
444.35	3473.36
444.54	3557.61
444.73	3590.38
444.91	3552.93
445.10	3555.27
445.28	3393.78
445.47	3644.21
445.65	3454.63
445.84	3543.57
446.02	3545.91
446.21	3449.95
446.39	3559.95
446.58	3548.25
446.77	3524.85
446.95	3438.25
447.14	3513.14
447.32	3489.74
447.51	3564.64
447.69	3459.31
447.88	3686.34
448.06	3382.07
448.25	3494.42
448.43	3691.02
448.62	3529.53
448.80	3585.70
448.99	3641.87
449.17	3676.98
449.36	3761.24
449.54	3728.47
449.73	3747.20
449.91	3786.99
450.10	3681.66
450.28	3740.18
450.46	3754.22
450.65	3756.56
450.83	3950.82
451.02	3749.54
451.20	3868.91
451.39	3976.57
451.57	3833.80
451.76	3871.25
451.94	3929.76
452.13	3927.42
452.31	3918.06
452.49	3782.31
452.68	3875.93
452.86	3941.46
453.05	3815.07
453.23	4065.51
453.42	4002.32
453.60	3878.27
453.78	3936.78
453.97	4105.30
454.15	3967.21
454.34	4039.76
454.52	4107.64
454.70	3967.21
454.89	4004.66
455.07	4152.11
455.26	4189.56
455.44	4138.07
455.62	4035.08
455.81	4227.01
455.99	4187.22
456.17	4131.05
456.36	4067.85
456.54	4266.80
456.73	4170.83
456.91	4219.99
457.09	4400.21
457.28	4400.21
457.46	4400.21
457.64	4440.00
457.83	4411.91
458.01	4383.82
458.19	4571.07
458.38	4580.43
458.56	4568.73
458.74	4631.92
458.93	4428.29
459.11	4454.04
459.29	4524.26
459.48	4472.76
459.66	4669.37
459.84	4622.56
460.03	4739.58
460.21	4587.45
460.39	4411.91
460.57	4550.00
460.76	4575.75
460.94	4599.15
461.12	4748.95
461.31	4795.76
461.49	4603.83
461.67	4542.98
461.85	4702.14
462.04	4851.93
462.22	5083.64
462.40	4933.85
462.59	4809.80
462.77	4720.86
462.95	4894.06
463.13	4760.65
463.32	4959.60
463.50	4765.33
463.68	4851.93
463.86	5027.47
464.05	4952.57
464.23	5015.77
464.41	5093.01
464.59	4809.80
464.78	4961.94
464.96	4896.40
465.14	4837.89
465.32	5060.24
465.50	5013.43
465.69	5146.84
465.87	5022.79
466.05	5048.54
466.23	5090.67
466.41	5074.28
466.60	5144.50
466.78	4997.04
466.96	5132.79
467.14	5249.82
467.32	5174.92
467.51	5296.63
467.69	4973.64
467.87	5224.08
468.05	5331.74
468.23	5188.97
468.41	5160.88
468.60	5263.86
468.78	5238.12
468.96	5359.83
469.14	5392.59
469.32	5324.72
469.50	5376.21
469.69	5441.75
469.87	5533.03
470.05	5472.17
470.23	5455.79
470.41	5549.41
470.59	5586.86
470.77	5610.26
470.95	5680.48
471.14	5687.50
471.32	5481.53
471.50	5628.99
471.68	5575.16
471.86	5600.90
472.04	5708.57
472.22	5781.12
472.40	5687.50
472.58	5706.23
472.77	5841.98
472.95	5743.67
473.13	6200.08
473.31	5959.00
473.49	5856.02
473.67	5928.58
473.85	6024.54
474.03	5982.41
474.21	6253.91
474.39	6286.68
474.57	6122.84
474.75	6286.68
474.93	6160.29
475.12	6104.12
475.30	6338.17
475.48	6296.04
475.66	6331.15
475.84	6382.64
476.02	6338.17
476.20	6415.41
476.38	6546.48
476.56	6691.59
476.74	6633.08
476.92	6736.06
477.10	6562.86
477.28	6841.39
477.46	6874.15
477.64	6932.67
477.82	6913.94
478.00	6862.45
478.18	6930.33
478.36	7152.68
478.54	7190.13
478.72	7339.92
478.90	7199.49
479.08	7311.83
479.26	7283.75
479.44	7330.56
479.62	7653.55
479.80	7569.29
479.98	7475.67
480.16	7793.98
480.34	7700.36
480.52	7758.88
480.70	7719.09
480.88	7503.76
481.06	7765.90
481.24	7808.03
481.41	8002.29
481.59	8044.42
481.77	8159.11
481.95	8152.09
482.13	8278.47
482.31	8161.45
482.49	8442.31
482.67	8346.35
482.85	8383.80
483.03	8692.75
483.21	8538.27
483.39	8826.16
483.57	8699.77
483.74	8915.10
483.92	8779.35
484.10	8805.10
484.28	9200.65
484.46	8982.98
484.64	9343.42
484.82	9123.41
485.00	9320.01
485.18	9359.80
485.35	9483.85
485.53	9558.75
485.71	9415.98
485.89	9914.51
486.07	9654.71
486.25	9657.05
486.43	9701.52
486.61	9863.02
486.78	9940.26
486.96	10106.43
487.14	10328.78
487.32	10061.96
487.50	10307.72
487.68	10258.57
487.85	10509.01
488.03	10703.27
488.21	10829.66
488.39	10588.58
488.57	10773.49
488.75	10897.53
488.92	11019.24
489.10	11105.84
489.28	11059.03
489.46	11351.60
489.64	11176.06
489.81	11487.35
489.99	11475.65
490.17	11510.75
490.35	11808.00
490.53	11723.74
490.70	11669.91
490.88	11761.19
491.06	12166.10
491.24	11529.48
491.41	12058.44
491.59	11974.18
491.77	12081.85
491.95	12336.96
492.13	12273.77
492.30	12329.94
492.48	12383.77
492.66	12683.36
492.84	12418.88
493.01	12753.58
493.19	12758.26
493.37	12931.46
493.54	12854.22
493.72	13118.70
493.90	12842.52
494.08	13312.97
494.25	13261.48
494.43	13362.12
494.61	13631.28
494.79	13624.26
494.96	13710.86
495.14	13727.24
495.32	13724.90
495.49	13806.82
495.67	13891.08
495.85	14026.83
496.02	14078.32
496.20	14143.86
496.38	14188.33
496.55	14031.51
496.73	14560.47
496.91	14310.04
497.09	14347.48
497.26	14635.37
497.44	14387.27
497.62	14317.06
497.79	14787.50
497.97	14738.35
498.14	15098.80
498.32	15030.92
498.50	15463.92
498.67	15445.20
498.85	15108.16
499.03	15541.16
499.20	15213.48
499.38	15183.06
499.56	15405.41
499.73	15520.09
499.91	15735.42
500.08	15632.44
500.26	15630.10
500.44	15936.71
500.61	15660.52
500.79	15744.78
500.97	16042.03
501.14	16128.63
501.32	16182.46
501.49	16379.07
501.67	15967.13
501.84	16145.02
502.02	16210.55
502.20	16163.74
502.37	16493.76
502.55	16336.94
502.72	16606.10
502.90	16362.69
503.07	16166.08
503.25	16491.41
503.43	16727.81
503.60	16898.67
503.78	16938.46
503.95	16606.10
504.13	16877.60
504.30	16872.92
504.48	16620.14
504.65	16910.37
504.83	17277.83
505.01	17326.99
505.18	17305.92
505.36	17479.12
505.53	17364.43
505.71	17579.76
505.88	17451.03
506.06	17392.52
506.23	17720.20
506.41	17568.06
506.58	17729.56
506.76	17444.01
506.93	17642.96
507.11	17537.63
507.28	17837.22
507.46	17902.76
507.63	17937.87
507.81	18349.80
507.98	17921.48
508.16	18064.25
508.33	18256.18
508.50	18530.02
508.68	18043.19
508.85	18420.02
509.03	18319.37
509.20	18625.98
509.38	18534.70
509.55	18448.10
509.73	18838.97
509.90	18534.70
510.08	18574.49
510.25	18602.58
510.42	18675.13
510.60	19157.28
510.77	18925.57
510.95	18923.23
511.12	18916.21
511.30	19016.85
511.47	19173.67
511.64	19220.48
511.82	19229.84
511.99	19159.63
512.17	19157.28
512.34	19157.28
512.51	19421.77
512.69	19264.95
512.86	19527.09
513.04	19506.02
513.21	19634.75
513.38	19887.53
513.56	19814.98
513.73	19562.20
513.90	19829.02
514.08	19803.27
514.25	19763.48
514.43	20311.17
514.60	19999.88
514.77	20194.14
514.95	20121.59
515.12	20168.40
515.29	20297.13
515.47	20297.13
515.64	20325.21
515.81	20269.04
515.99	20421.17
516.16	20847.15
516.33	20840.13
516.51	20659.91
516.68	20479.69
516.85	20704.38
517.03	20821.41
517.20	20769.91
517.37	20882.26
517.54	20849.49
517.72	20957.16
517.89	20959.50
518.06	21406.54
518.24	20617.78
518.41	20961.84
518.58	21284.83
518.75	21156.10
518.93	21357.39
519.10	21010.99
519.27	21329.30
519.45	21032.05
519.62	21301.22
519.79	21228.66
519.96	21472.07
520.14	21593.78
520.31	21523.57
520.48	21731.87
520.65	21532.93
520.83	21706.13
521.00	21745.92
521.17	21776.34
521.34	21879.33
521.52	22171.89
521.69	22087.64
521.86	22305.31
522.03	22183.60
522.20	22132.11
522.38	22040.82
522.55	22047.85
522.72	21958.91
522.89	22026.78
523.07	22696.17
523.24	22522.98
523.41	22541.70
523.58	22403.61
523.75	22918.53
523.92	22522.98
524.10	22640.00
524.27	22733.62
524.44	22911.50
524.61	22946.61
524.78	22796.82
524.96	22934.91
525.13	22899.80
525.30	22993.42
525.47	23150.24
525.64	22991.08
525.81	23419.40
525.98	23351.52
526.16	23077.68
526.33	23161.94
526.50	23269.61
526.67	23339.82
526.84	23136.20
527.01	23204.07
527.18	23491.96
527.36	23325.78
527.53	23447.49
527.70	23800.91
527.87	23307.05
528.04	23501.32
528.21	23723.67
528.38	23620.69
528.55	24039.64
528.72	23803.25
528.89	23775.16
529.07	23714.31
529.24	23758.78
529.41	23812.61
529.58	23957.72
529.75	23995.17
529.92	23943.68
530.09	23704.95
530.26	23864.10
530.43	24313.48
530.60	23620.69
530.77	24130.92
530.94	24364.98
531.11	24121.56
531.28	24215.18
531.46	24252.63
531.63	24247.95
531.80	24446.90
531.97	24531.15
532.14	24566.26
532.31	24592.01
532.48	24341.57
532.65	24606.05
532.82	24414.13
532.99	24727.76
533.16	24702.01
533.33	24678.61
533.50	24769.89
533.67	24664.57
533.84	24561.58
534.01	24800.32
534.18	24917.34
534.35	25034.37
534.52	24992.24
534.69	25013.31
534.86	24900.96
535.03	25069.48
535.20	25254.38
535.37	24924.36
535.54	25216.93
535.71	24959.47
535.88	25223.95
536.05	25490.77
536.22	25392.47
536.38	25280.13
536.55	25584.40
536.72	25256.72
536.89	25275.45
537.06	25612.48
537.23	25553.97
537.40	25207.57
537.57	25406.52
537.74	25551.63
537.91	25748.23
538.08	26010.37
538.25	25825.47
538.42	25443.96
538.59	25825.47
538.75	25797.38
538.92	25696.74
539.09	25937.82
539.26	25956.54
539.43	26029.10
539.60	26092.29
539.77	26405.92
539.94	26295.92
540.11	25947.18
540.28	26111.02
540.44	26141.44
540.61	26279.54
540.78	26008.03
540.95	26466.78
541.12	26235.06
541.29	26415.29
541.46	26536.99
541.62	26338.05
541.79	26183.57
541.96	25979.95
542.13	26143.78
542.30	26644.66
542.47	26829.56
542.63	26682.11
542.80	26497.20
542.97	27103.40
543.14	26909.14
543.31	26663.38
543.48	26951.27
543.64	26944.25
543.81	26927.86
543.98	26955.95
544.15	27314.05
544.32	26897.44
544.48	26984.04
544.65	27063.61
544.82	26892.76
544.99	26581.46
545.16	27087.02
545.32	26962.97
545.49	27487.25
545.66	27292.99
545.83	27552.79
546.00	27498.95
546.16	27058.93
546.33	27185.32
546.50	27047.23
546.67	27388.95
546.83	27150.21
547.00	27199.37
547.17	27545.76
547.34	27452.14
547.50	27538.74
547.67	27627.68
547.84	27791.52
548.00	27700.24
548.17	27798.54
548.34	27484.91
548.51	27782.16
548.67	27821.95
548.84	27871.10
549.01	27597.26
549.18	27721.30
549.34	27887.48
549.51	27599.60
549.68	27889.82
549.84	27737.69
550.01	27793.86
550.18	27513.00
550.34	27964.72
550.51	28163.67
550.68	28521.77
550.84	27908.55
551.01	28121.54
551.18	28102.81
551.34	27814.93
551.51	27740.03
551.68	28158.99
551.84	28142.60
552.01	28048.98
552.18	28320.48
552.34	28226.86
552.51	28336.87
552.68	28072.39
552.84	27913.23
553.01	28500.70
553.18	28084.09
553.34	28474.96
553.51	28252.61
553.67	28851.78
553.84	28772.21
554.01	28893.91
554.17	28364.95
554.34	28254.95
554.51	28531.13
554.67	28409.42
554.84	28643.48
555.00	28601.35
555.17	29046.05
555.33	28870.51
555.50	28573.26
555.67	28877.53
555.83	28996.90
556.00	28711.35
556.16	28907.96
556.33	29064.77
556.50	28849.44
556.66	29020.30
556.83	28811.99
556.99	29034.35
557.16	28694.97
557.32	29144.35
557.49	29186.48
557.65	28924.34
557.82	28952.43
557.98	28751.14
558.15	29151.37
558.32	29488.41
558.48	28840.08
558.65	29343.30
558.81	29106.90
558.98	29788.00
559.14	28959.45
559.31	28893.91
559.47	29535.22
559.64	29116.26
559.80	29298.83
559.97	29326.91
560.13	29181.80
560.30	29310.53
560.46	29205.20
560.63	29507.13
560.79	29401.81
560.96	29275.42
561.12	29336.27
561.29	29020.30
561.45	29413.51
561.61	29530.54
561.78	29790.34
561.94	29350.32
562.11	29479.05
562.27	29352.66
562.44	29223.93
562.60	29663.95
562.77	29734.17
562.93	29785.66
563.10	29390.11
563.26	29256.70
563.42	30064.18
563.59	29422.87
563.75	29766.93
563.92	30108.65
564.08	29610.12
564.24	29507.13
564.41	29408.83
564.57	29434.58
564.74	29729.48
564.90	29525.86
565.07	29823.11
565.23	29759.91
565.39	29837.15
565.56	29972.90
565.72	29509.47
565.88	29804.38
566.05	29596.07
566.21	29750.55
566.38	29926.09
566.54	29773.95
566.70	30141.42
566.87	29907.37
567.03	30520.59
567.19	30213.98
567.36	30073.54
567.52	29944.81
567.68	29872.26
567.85	30118.01
568.01	30071.20
568.17	30066.52
568.34	30265.47
568.50	30204.61
568.66	30284.19
568.83	29898.00
568.99	30036.09
569.15	29972.90
569.32	29883.96
569.48	29661.61
569.64	29979.92
569.81	29984.60
569.97	29900.34
570.13	30511.22
570.30	29764.59
570.46	30225.68
570.62	29874.60
570.78	29865.24
570.95	30141.42
571.11	29905.02
571.27	29720.12
571.43	30000.99
571.60	30052.48
571.76	30143.76
571.92	30050.14
572.09	30375.47
572.25	30335.68
572.41	30197.59
572.57	30345.05
572.74	30384.83
572.90	29713.10
573.06	30122.69
573.22	30199.93
573.38	30101.63
573.55	30335.68
573.71	30213.98
573.87	30401.22
574.03	30333.34
574.20	30202.27
574.36	29921.41
574.52	30469.09
574.68	29900.34
574.84	30319.30
575.01	30134.40
575.17	30361.43
575.33	30031.41
575.49	30366.11
575.65	30246.74
575.82	30199.93
575.98	30260.79
576.14	30581.44
576.30	30221.00
576.46	30471.43
576.62	30258.45
576.79	30483.14
576.95	30387.18
577.11	30476.12
577.27	30515.90
577.43	31021.46
577.59	30419.94
577.75	30398.88
577.92	30387.18
578.08	30476.12
578.24	30279.51
578.40	30340.36
578.56	30103.97
578.72	30438.67
578.88	30668.04
579.04	30827.20
579.21	30373.13
579.37	30384.83
579.53	30403.56
579.69	30295.89
579.85	30075.88
580.01	30717.19
580.17	29832.47
580.33	30260.79
580.49	30361.43
580.65	30302.92
580.82	30745.28
580.98	30675.06
581.14	30113.33
581.30	30766.34
581.46	30431.65
581.62	30665.70
581.78	30436.33
581.94	29984.60
582.10	30476.12
582.26	31084.65
582.42	30473.78
582.58	30478.46
582.74	30682.08
582.90	30335.68
583.06	30595.48
583.22	30422.28
583.38	30326.32
583.54	30361.43
583.70	30504.20
583.86	30515.90
584.02	30387.18
584.18	30752.30
584.34	30639.95
584.50	31023.80
584.66	30532.29
584.82	30363.77
584.98	30986.35
585.14	30438.67
585.30	30213.98
585.46	30665.70
585.62	30682.08
585.78	31000.40
585.94	30480.80
586.10	30661.02
586.26	30974.65
586.42	30756.98
586.58	30548.67
586.74	30899.75
586.90	30150.78
587.06	30689.10
587.22	30859.96
587.38	30817.83
587.54	30710.17
587.70	30569.74
587.86	30761.66
588.02	30796.77
588.18	30859.96
588.34	30670.38
588.49	30904.43
588.65	30838.90
588.81	30904.43
588.97	30874.01
589.13	30235.04
589.29	30405.90
589.45	31246.15
589.61	31185.30
589.77	31101.04
589.93	31049.55
590.08	30782.73
590.24	30756.98
590.40	30953.58
590.56	30897.41
590.72	31143.17
590.88	30717.19
591.04	30742.94
591.20	30951.24
591.35	30974.65
591.51	30834.22
591.67	31442.76
591.83	31412.33
591.99	31239.13
