SpectraSuite Data File
++++++++++++++++++++++++++++++++++++
Date: Fri Oct 18 13:58:22 GMT-05:00 2013
User: bianchi
Dark Spectrum Present: No
Reference Spectrum Present: No
Number of Sampled Component Spectra: 1
Spectrometers: USB2+H05261
Integration Time (usec): 50000 (USB2+H05261)
Spectra Averaged: 1 (USB2+H05261)
Boxcar Smoothing: 0 (USB2+H05261)
Correct for Electrical Dark: No (USB2+H05261)
Strobe/Lamp Enabled: No (USB2+H05261)
Correct for Detector Non-linearity: No (USB2+H05261)
Correct for Stray Light: No (USB2+H05261)
Number of Pixels in Processed Spectrum: 2048
>>>>>Begin Processed Spectral Data<<<<<
365.73	0.00
365.92	0.00
366.12	0.00
366.32	0.00
366.52	0.00
366.72	0.00
366.91	0.00
367.11	0.00
367.31	0.00
367.51	0.00
367.70	0.00
367.90	0.00
368.10	0.00
368.30	0.00
368.49	0.00
368.69	0.00
368.89	0.00
369.09	0.00
369.28	0.00
369.48	0.00
369.68	0.00
369.87	0.00
370.07	0.00
370.27	0.00
370.47	0.00
370.66	154.48
370.86	77.24
371.06	91.28
371.25	201.29
371.45	128.73
371.65	140.43
371.84	117.03
372.04	168.52
372.24	159.16
372.44	177.88
372.63	259.80
372.83	215.33
373.03	124.05
373.22	180.22
373.42	163.84
373.62	198.95
373.81	241.08
374.01	245.76
374.21	362.78
374.40	301.93
374.60	210.65
374.79	252.78
374.99	212.99
375.19	205.97
375.38	208.31
375.58	266.82
375.78	229.37
375.97	236.39
376.17	266.82
376.37	243.42
376.56	238.73
376.76	250.44
376.95	224.69
377.15	280.86
377.35	301.93
377.54	245.76
377.74	255.12
377.93	177.88
378.13	304.27
378.33	351.08
378.52	301.93
378.72	273.84
378.91	283.20
379.11	231.71
379.31	297.25
379.50	315.97
379.70	290.23
379.89	255.12
380.09	320.65
380.28	334.70
380.48	369.80
380.68	252.78
380.87	315.97
381.07	322.99
381.26	332.36
381.46	381.51
381.65	337.04
381.85	348.74
382.04	276.18
382.24	374.49
382.43	304.27
382.63	404.91
382.83	369.80
383.02	341.72
383.22	409.59
383.41	418.96
383.61	367.46
383.80	311.29
384.00	390.87
384.19	440.02
384.39	313.63
384.58	358.10
384.78	362.78
384.97	421.30
385.17	423.64
385.36	362.78
385.56	409.59
385.75	395.55
385.95	444.70
386.14	344.06
386.34	362.78
386.53	444.70
386.72	491.51
386.92	400.23
387.11	482.15
387.31	388.53
387.50	454.06
387.70	465.77
387.89	388.53
388.09	435.34
388.28	397.89
388.48	411.93
388.67	341.72
388.86	418.96
389.06	557.05
389.25	489.17
389.45	430.66
389.64	418.96
389.84	479.81
390.03	437.68
390.22	454.06
390.42	500.87
390.61	433.00
390.81	435.34
391.00	564.07
391.19	498.53
391.39	477.47
391.58	578.11
391.78	524.28
391.97	531.30
392.16	547.69
392.36	498.53
392.55	510.24
392.75	564.07
392.94	475.13
393.13	510.24
393.33	531.30
393.52	561.73
393.71	606.20
393.91	500.87
394.10	550.03
394.29	561.73
394.49	573.43
394.68	606.20
394.88	613.22
395.07	535.98
395.26	578.11
395.46	648.33
395.65	603.86
395.84	657.69
396.04	638.97
396.23	648.33
396.42	657.69
396.62	685.78
396.81	650.67
397.00	662.37
397.19	678.76
397.39	711.52
397.58	631.94
397.77	624.92
397.97	697.48
398.16	702.16
398.35	699.82
398.55	662.37
398.74	653.01
398.93	648.33
399.12	695.14
399.32	753.65
399.51	657.69
399.70	709.18
399.90	739.61
400.09	692.80
400.28	837.91
400.47	800.46
400.67	840.25
400.86	791.10
401.05	697.48
401.24	746.63
401.44	800.46
401.63	753.65
401.82	765.36
402.01	744.29
402.21	739.61
402.40	861.32
402.59	784.08
402.78	821.53
402.97	809.83
403.17	863.66
403.36	837.91
403.55	915.15
403.74	833.23
403.93	844.93
404.13	910.47
404.32	952.60
404.51	866.00
404.70	933.87
404.89	910.47
405.09	856.64
405.28	919.83
405.47	1062.60
405.66	912.81
405.85	964.30
406.05	994.73
406.24	971.32
406.43	987.71
406.62	997.07
406.81	1022.81
407.00	1020.47
407.20	1029.84
407.39	1069.62
407.58	1111.75
407.77	1100.05
407.96	1083.67
408.15	1090.69
408.34	1018.13
408.54	1032.18
408.73	1062.60
408.92	1088.35
409.11	1130.48
409.30	1170.27
409.49	1123.46
409.68	1095.37
409.87	1142.18
410.07	1240.48
410.26	1144.52
410.45	1083.67
410.64	1224.10
410.83	1254.53
411.02	1172.61
411.21	1160.91
411.40	1221.76
411.59	1203.04
411.78	1231.12
411.98	1156.22
412.17	1242.82
412.36	1254.53
412.55	1259.21
412.74	1245.16
412.93	1380.92
413.12	1327.08
413.31	1345.81
413.50	1425.39
413.69	1387.94
413.88	1434.75
414.07	1352.83
414.26	1507.30
414.45	1502.62
414.64	1521.35
414.83	1561.14
415.02	1404.32
415.22	1495.60
415.41	1603.27
415.60	1472.20
415.79	1582.20
415.98	1633.69
416.17	1582.20
416.36	1542.41
416.55	1556.46
416.74	1547.09
416.93	1736.68
417.12	1607.95
417.31	1579.86
417.50	1584.54
417.69	1783.49
417.88	1586.88
418.07	1610.29
418.26	1781.15
418.45	1790.51
418.64	1874.77
418.83	1788.17
419.02	1832.64
419.21	1816.26
419.39	1820.94
419.58	1865.41
419.77	1788.17
419.96	1865.41
420.15	1914.56
420.34	1671.14
420.53	1823.28
420.72	1891.15
420.91	1930.94
421.10	1916.90
421.29	2010.52
421.48	1891.15
421.67	1961.37
421.86	1991.80
422.05	2022.22
422.24	1888.81
422.43	1916.90
422.61	1935.62
422.80	1961.37
422.99	1977.75
423.18	1907.54
423.37	1928.60
423.56	2080.74
423.75	1991.80
423.94	1797.53
424.13	1764.76
424.32	1900.52
424.50	1956.69
424.69	2157.97
424.88	2104.14
425.07	2066.69
425.26	1937.96
425.45	1933.28
425.64	2024.56
425.83	1928.60
426.01	2050.31
426.20	1902.86
426.39	2024.56
426.58	2040.95
426.77	2043.29
426.96	2038.61
427.15	2090.10
427.33	2155.63
427.52	2050.31
427.71	2101.80
427.90	2221.17
428.09	2181.38
428.28	2146.27
428.46	2186.06
428.65	2195.42
428.84	2134.57
429.03	2228.19
429.22	2073.71
429.40	2207.13
429.59	2277.34
429.78	2099.46
429.97	2188.40
430.16	2253.94
430.34	2132.23
430.53	2382.67
430.72	2370.96
430.91	2183.72
431.10	2176.70
431.28	2286.70
431.47	2340.54
431.66	2399.05
431.85	2279.68
432.03	2420.11
432.22	2445.86
432.41	2459.90
432.60	2443.52
432.79	2333.51
432.97	2546.50
433.16	2518.42
433.35	2445.86
433.54	2506.71
433.72	2399.05
433.91	2560.55
434.10	2382.67
434.28	2572.25
434.47	2518.42
434.66	2480.97
434.85	2380.32
435.03	2605.02
435.22	2534.80
435.41	2640.12
435.59	2626.08
435.78	2649.49
435.97	2696.30
436.16	2572.25
436.34	2637.78
436.53	2733.75
436.72	2733.75
436.90	2722.04
437.09	2768.85
437.28	2682.25
437.46	2775.88
437.65	2686.94
437.84	2731.41
438.02	2658.85
438.21	2820.35
438.40	2700.98
438.58	2878.86
438.77	2883.54
438.96	2916.31
439.14	2871.84
439.33	2967.80
439.52	3014.61
439.70	2895.24
439.89	2944.39
440.08	3091.85
440.26	3045.04
440.45	3068.44
440.63	3122.27
440.82	3187.81
441.01	3045.04
441.19	3000.57
441.38	3131.64
441.57	3243.98
441.75	3143.34
441.94	3227.60
442.12	3243.98
442.31	3274.41
442.50	3260.37
442.68	3260.37
442.87	3337.60
443.05	3260.37
443.24	3419.52
443.43	3405.48
443.61	3384.41
443.80	3541.23
443.98	3382.07
444.17	3152.70
444.35	3281.43
444.54	3412.50
444.73	3417.18
444.91	3396.12
445.10	3351.65
445.28	3405.48
445.47	3389.10
445.65	3435.91
445.84	3358.67
446.02	3332.92
446.21	3400.80
446.39	3503.78
446.58	3501.44
446.77	3705.07
446.95	3419.52
447.14	3538.89
447.32	3571.66
447.51	3410.16
447.69	3548.25
447.88	3510.80
448.06	3520.17
448.25	3557.61
448.43	3447.61
448.62	3456.97
448.80	3592.72
448.99	3482.72
449.17	3513.14
449.36	3527.19
449.54	3742.52
449.73	3630.17
449.91	3536.55
450.10	3674.64
450.28	3578.68
450.46	3712.09
450.65	3735.50
450.83	3660.60
451.02	3641.87
451.20	3742.52
451.39	3775.28
451.57	3786.99
451.76	3613.79
451.94	3808.05
452.13	3840.82
452.31	3770.60
452.49	3775.28
452.68	3815.07
452.86	3887.63
453.05	3927.42
453.23	4042.11
453.42	3822.09
453.60	3875.93
453.78	3927.42
453.97	3892.31
454.15	3967.21
454.34	3929.76
454.52	3971.89
454.70	3943.80
454.89	3887.63
455.07	4126.36
455.26	4014.02
455.44	4081.89
455.62	4021.04
455.81	3997.64
455.99	4081.89
456.17	4098.28
456.36	4018.70
456.54	4128.70
456.73	4100.62
456.91	4301.90
457.09	4276.16
457.28	4390.84
457.46	4252.75
457.64	4280.84
457.83	4243.39
458.01	4234.03
458.19	4248.07
458.38	4241.05
458.56	4449.36
458.74	4325.31
458.93	4325.31
459.11	4447.02
459.29	4477.44
459.48	4519.57
459.66	4486.81
459.84	4444.68
460.03	4573.41
460.21	4538.30
460.39	4514.89
460.57	4468.08
460.76	4552.34
460.94	4559.36
461.12	4542.98
461.31	4667.03
461.49	4468.08
461.67	4540.64
461.85	4718.52
462.04	4559.36
462.22	4692.77
462.40	4599.15
462.59	4807.46
462.77	4709.16
462.95	4596.81
463.13	4711.50
463.32	4713.84
463.50	4774.69
463.68	4791.08
463.86	4894.06
464.05	4758.31
464.23	4734.90
464.41	4812.14
464.59	4858.95
464.78	4929.17
464.96	4840.23
465.14	4758.31
465.32	4873.00
465.50	4975.98
465.69	5011.09
465.87	4870.65
466.05	4828.53
466.23	4898.74
466.41	5095.35
466.60	5071.94
466.78	5046.20
466.96	4926.83
467.14	5034.49
467.32	5139.82
467.51	5071.94
467.69	5146.84
467.87	5163.22
468.05	5107.05
468.23	5069.60
468.41	5081.30
468.60	5067.26
468.78	5238.12
468.96	5064.92
469.14	5132.79
469.32	5298.97
469.50	5167.90
469.69	5219.39
469.87	5376.21
470.05	5554.09
470.23	5270.89
470.41	5352.81
470.59	5448.77
470.77	5486.22
470.95	5420.68
471.14	5324.72
471.32	5373.87
471.50	5612.60
471.68	5593.88
471.86	5549.41
472.04	5514.30
472.22	5813.89
472.40	5621.97
472.58	5624.31
472.77	5748.36
472.95	5713.25
473.13	5839.64
473.31	5799.85
473.49	5696.86
473.67	5816.23
473.85	5675.80
474.03	6122.84
474.21	5902.83
474.39	6064.33
474.57	6080.71
474.75	6085.39
474.93	6085.39
475.12	6214.12
475.30	6272.64
475.48	6080.71
475.66	6211.78
475.84	6127.52
476.02	6282.00
476.20	6251.57
476.38	6389.66
476.56	6619.04
476.74	6490.31
476.92	6373.28
477.10	6452.86
477.28	6693.93
477.46	6623.72
477.64	6633.08
477.82	6668.19
478.00	6764.15
478.18	6853.09
478.36	6892.88
478.54	7089.48
478.72	6979.48
478.90	7021.61
479.08	7169.06
479.26	7269.70
479.44	7056.72
479.62	7344.60
479.80	7391.41
479.98	7311.83
480.16	7370.35
480.34	7339.92
480.52	7515.46
480.70	7770.58
480.88	7494.40
481.06	7719.09
481.24	7463.97
481.41	7651.21
481.59	7864.20
481.77	7889.95
481.95	7988.25
482.13	8088.89
482.31	8028.04
482.49	7999.95
482.67	8308.90
482.85	8070.17
483.03	8404.86
483.21	8538.27
483.39	8702.11
483.57	8526.57
483.74	8559.34
483.92	8643.60
484.10	8638.92
484.28	8711.47
484.46	8819.14
484.64	8994.68
484.82	8856.59
485.00	8971.27
485.18	9284.91
485.35	9266.18
485.53	9369.16
485.71	9504.92
485.89	9406.61
486.07	9497.89
486.25	9378.53
486.43	9392.57
486.61	9664.07
486.78	9825.57
486.96	10076.01
487.14	9956.64
487.32	9851.31
487.50	9996.43
487.68	10286.65
487.85	10429.43
488.03	10326.44
488.21	10424.75
488.39	10565.18
488.57	10626.03
488.75	10792.21
488.92	10792.21
489.10	10752.42
489.28	10684.55
489.46	10965.41
489.64	10899.87
489.81	11094.14
489.99	11206.48
490.17	11276.70
490.35	11480.33
490.53	11337.56
490.70	11410.11
490.88	11227.55
491.06	11592.67
491.24	11747.15
491.41	11625.44
491.59	11892.26
491.77	11772.89
491.95	12016.31
492.13	12053.76
492.30	12198.87
492.48	12149.72
492.66	12257.39
492.84	11997.59
493.01	12468.03
493.19	12379.09
493.37	12587.40
493.54	12872.95
493.72	12807.41
493.90	12695.07
494.08	12912.74
494.25	13228.71
494.43	13170.19
494.61	13102.32
494.79	13128.06
494.96	13247.43
495.14	13434.68
495.32	13500.21
495.49	13301.26
495.67	13420.63
495.85	13724.90
496.02	13830.23
496.20	13682.77
496.38	14008.11
496.55	13830.23
496.73	14071.30
496.91	13877.04
497.09	14150.88
497.26	14487.92
497.44	14153.22
497.62	14490.26
497.79	14469.19
497.97	14480.89
498.14	14565.15
498.32	14668.14
498.50	14785.16
498.67	14750.06
498.85	14855.38
499.03	14965.39
499.20	14923.26
499.38	14986.45
499.56	15047.30
499.73	15197.10
499.91	15180.71
500.08	15250.93
500.26	15192.42
500.44	15318.81
500.61	15330.51
500.79	15332.85
500.97	15489.67
501.14	15583.29
501.32	16018.63
501.49	15641.80
501.67	15389.02
501.84	15644.14
502.02	15648.82
502.20	15878.19
502.37	16105.23
502.55	16212.89
502.72	16039.69
502.90	16016.29
503.07	16072.46
503.25	16145.02
503.43	16152.04
503.60	16425.88
503.78	16346.30
503.95	16255.02
504.13	16210.55
504.30	16657.59
504.48	16271.40
504.65	16816.75
504.83	16943.14
505.01	16826.11
505.18	16709.08
505.36	16737.17
505.53	16910.37
505.71	16992.29
505.88	17092.93
506.06	16912.71
506.23	17142.08
506.41	17177.19
506.58	17275.49
506.76	17371.46
506.93	17235.70
507.11	17240.39
507.28	17497.84
507.46	17436.99
507.63	17757.64
507.81	17642.96
507.98	17532.95
508.16	17795.09
508.33	17619.55
508.50	17792.75
508.68	17682.75
508.85	17834.88
509.03	17944.89
509.20	18080.64
509.38	18370.86
509.55	18230.43
509.73	18405.97
509.90	18270.22
510.08	18097.02
510.25	18424.70
510.42	18272.56
510.60	18541.72
510.77	18546.40
510.95	18511.30
511.12	18609.60
511.30	18520.66
511.47	18888.12
511.64	18743.01
511.82	18745.35
511.99	18782.80
512.17	19044.94
512.34	19023.87
512.51	18789.82
512.69	18820.25
512.86	19145.58
513.04	19220.48
513.21	19117.50
513.38	19449.85
513.56	19178.35
513.73	19176.01
513.90	19274.31
514.08	19381.98
514.25	19452.19
514.43	19845.40
514.60	19412.40
514.77	19861.79
514.95	19779.87
515.12	19447.51
515.29	19449.85
515.47	19749.44
515.64	19676.88
515.81	20163.72
515.99	20088.82
516.16	20339.26
516.33	20166.06
516.51	20084.14
516.68	20210.53
516.85	19800.93
517.03	20240.95
517.20	20503.09
517.37	20149.67
517.54	20287.76
517.72	20414.15
517.89	20397.77
518.06	20542.88
518.24	20435.22
518.41	20126.27
518.58	20666.93
518.75	20360.32
518.93	20879.92
519.10	20886.94
519.27	20879.92
519.45	20624.80
519.62	20840.13
519.79	20549.90
519.96	21022.69
520.14	20980.56
520.31	20999.29
520.48	21216.96
520.65	20915.03
520.83	21308.24
521.00	21455.69
521.17	21177.17
521.34	21151.42
521.52	21563.36
521.69	21479.10
521.86	21799.75
522.03	21876.99
522.20	21673.36
522.38	21671.02
522.55	21490.80
522.72	21453.35
522.89	21593.78
523.07	21748.26
523.24	21708.47
523.41	22029.12
523.58	21584.42
523.75	21546.97
523.92	21860.60
524.10	22080.61
524.27	21982.31
524.44	21909.75
524.61	22452.76
524.78	22448.08
524.96	22139.13
525.13	22169.55
525.30	22462.12
525.47	22572.13
525.64	22497.23
525.81	22733.62
525.98	22490.21
526.16	22520.63
526.33	22796.82
526.50	22731.28
526.67	22455.10
526.84	22852.99
527.01	22375.52
527.18	23037.89
527.36	22752.35
527.53	23000.44
527.70	23438.12
527.87	23091.73
528.04	22874.06
528.21	23152.58
528.38	22799.16
528.55	22920.87
528.72	23239.18
528.89	23112.79
529.07	23035.55
529.24	23372.59
529.41	23461.53
529.58	23419.40
529.75	22998.10
529.92	23171.30
530.09	23297.69
530.26	23723.67
530.43	23379.61
530.60	23527.06
530.77	23587.92
530.94	23541.11
531.11	23667.50
531.28	23417.06
531.46	23723.67
531.63	23686.22
531.80	24081.77
531.97	23887.51
532.14	23997.51
532.31	23803.25
532.48	23742.39
532.65	24009.22
532.82	23779.84
532.99	23988.15
533.16	23920.28
533.33	23922.62
533.50	23976.45
533.67	24016.24
533.84	24348.59
534.01	24177.73
534.18	23866.44
534.35	24360.30
534.52	24102.84
534.69	24709.04
534.86	24339.23
535.03	24329.87
535.20	24393.06
535.37	24510.09
535.54	24737.12
535.71	24402.43
535.88	24442.21
536.05	24484.34
536.22	24704.35
536.38	24793.29
536.55	25020.33
536.72	24896.28
536.89	24732.44
537.06	24566.26
537.23	24826.06
537.40	24936.07
537.57	25083.52
537.74	25123.31
537.91	25450.99
538.08	25057.78
538.25	25083.52
538.42	24968.84
538.59	25593.76
538.75	24697.33
538.92	25282.47
539.09	25364.39
539.26	25226.29
539.43	25570.35
539.60	25193.53
539.77	25453.33
539.94	25710.78
540.11	25383.11
540.28	25465.03
540.44	25476.73
540.61	25266.08
540.78	25249.70
540.95	25720.15
541.12	25352.68
541.29	25535.24
541.46	25755.26
541.62	25373.75
541.79	25523.54
541.96	25633.55
542.13	25745.89
542.30	25422.90
542.47	25844.20
542.63	25682.70
542.80	25823.13
542.97	26045.48
543.14	26251.45
543.31	26188.25
543.48	25738.87
543.64	25860.58
543.81	26239.75
543.98	25989.31
544.15	26305.28
544.32	26258.47
544.48	26281.88
544.65	26518.27
544.82	26300.60
544.99	26190.59
545.16	26429.33
545.32	26321.66
545.49	26831.90
545.66	26864.67
545.83	26455.08
546.00	26754.66
546.16	26249.11
546.33	26370.82
546.50	26431.67
546.67	26529.97
546.83	26192.94
547.00	26361.45
547.17	26611.89
547.34	26663.38
547.50	26801.47
547.67	26717.22
547.84	26911.48
548.00	27101.06
548.17	27133.83
548.34	26867.01
548.51	27204.05
548.67	26869.35
548.84	26932.54
549.01	26642.32
549.18	27007.44
549.34	26813.18
549.51	26951.27
549.68	26855.31
549.84	27103.40
550.01	27068.30
550.18	26946.59
550.34	27087.02
550.51	27494.27
550.68	27388.95
550.84	26738.28
551.01	27300.01
551.18	27154.90
551.34	27159.58
551.51	27332.78
551.68	27325.75
551.84	27117.45
552.01	27517.68
552.18	27049.57
552.34	27379.59
552.51	27484.91
552.68	27421.72
552.84	27775.14
553.01	27491.93
553.18	27480.23
553.34	27737.69
553.51	27543.42
553.67	27690.88
553.84	28182.39
554.01	28041.96
554.17	27646.41
554.34	27910.89
554.51	27583.21
554.67	27737.69
554.84	27742.37
555.00	27850.03
555.17	27847.69
555.33	27924.93
555.50	27859.40
555.67	28027.92
555.83	27985.79
556.00	28196.43
556.16	27971.74
556.33	28158.99
556.50	27859.40
556.66	28386.02
556.83	28163.67
556.99	28219.84
557.16	28594.32
557.32	27971.74
557.49	28313.46
557.65	28009.19
557.82	27784.50
557.98	28098.13
558.15	27938.97
558.32	28261.97
558.48	28088.77
558.65	28163.67
558.81	28020.89
558.98	27969.40
559.14	28563.90
559.31	28395.38
559.47	28353.25
559.64	27985.79
559.80	28563.90
559.97	28521.77
560.13	28460.91
560.30	28404.74
560.46	28498.36
560.63	28154.30
560.79	28692.63
560.96	28439.85
561.12	28746.46
561.29	28341.55
561.45	28339.21
561.61	28804.97
561.78	28648.16
561.94	28589.64
562.11	28364.95
562.27	28620.07
562.44	28266.65
562.60	28510.07
562.77	28538.15
562.93	28596.67
563.10	28570.92
563.26	28540.49
563.42	28879.87
563.59	29027.32
563.75	28833.06
563.92	29113.92
564.08	28601.35
564.24	28889.23
564.41	28760.50
564.57	28737.10
564.74	28861.15
564.90	28793.27
565.07	29109.24
565.23	29069.45
565.39	28556.88
565.56	29212.23
565.72	28842.42
565.88	29240.31
566.05	28973.49
566.21	28847.10
566.38	28854.12
566.54	28996.90
566.70	28800.29
566.87	29170.10
567.03	29345.64
567.19	29181.80
567.36	29036.69
567.52	28959.45
567.68	28940.72
567.85	29074.13
568.01	29132.65
568.17	28952.43
568.34	28903.28
568.50	28889.23
568.66	29369.04
568.83	29127.97
568.99	29362.02
569.15	29097.54
569.32	28992.22
569.48	29134.99
569.64	29050.73
569.81	29111.58
569.97	29118.60
570.13	29149.03
570.30	29050.73
570.46	28945.41
570.62	29249.67
570.78	29219.25
570.95	29050.73
571.11	29294.14
571.27	28968.81
571.43	28936.04
571.60	29226.27
571.76	28795.61
571.92	29280.10
572.09	29537.56
572.25	29160.73
572.41	29544.58
572.57	29476.71
572.74	29027.32
572.90	28912.64
573.06	29219.25
573.22	29198.18
573.38	29298.83
573.55	29261.38
573.71	29549.26
573.87	29319.89
574.03	29544.58
574.20	29549.26
574.36	28919.66
574.52	29404.15
574.68	28819.02
574.84	29195.84
575.01	29476.71
575.17	29366.70
575.33	29516.50
575.49	29158.39
575.65	29247.33
575.82	29640.54
575.98	29261.38
576.14	29411.17
576.30	29647.57
576.46	29397.13
576.62	29329.25
576.79	29584.37
576.95	29298.83
577.11	29507.13
577.27	29713.10
577.43	29291.80
577.59	29261.38
577.75	29219.25
577.92	29387.77
578.08	29560.97
578.24	29193.50
578.40	29518.84
578.56	29565.65
578.72	29685.01
578.88	29626.50
579.04	29591.39
579.21	29708.42
579.37	29825.45
579.53	29497.77
579.69	29689.70
579.85	29418.19
580.01	29460.32
580.17	29380.74
580.33	29256.70
580.49	29373.72
580.65	29663.95
580.82	29874.60
580.98	29582.03
581.14	29750.55
581.30	29476.71
581.46	29553.94
581.62	29347.98
581.78	29401.81
581.94	29399.47
582.10	29385.43
582.26	29205.20
582.42	29345.64
582.58	29380.74
582.74	29474.37
582.90	29415.85
583.06	29888.64
583.22	29919.07
583.38	29663.95
583.54	29525.86
583.70	29490.75
583.86	29483.73
584.02	29263.72
584.18	29788.00
584.34	29757.57
584.50	29855.87
584.66	29905.02
584.82	29366.70
584.98	29397.13
585.14	29600.76
585.30	29514.16
585.46	29778.64
585.62	29450.96
585.78	29514.16
585.94	29677.99
586.10	30038.44
586.26	30071.20
586.42	29846.51
586.58	29750.55
586.74	29500.11
586.90	29589.05
587.06	29443.94
587.22	29846.51
587.38	29404.15
587.54	29972.90
587.70	30103.97
587.86	29832.47
588.02	29909.71
588.18	29827.79
588.34	30017.37
588.49	29603.10
588.65	29710.76
588.81	29689.70
588.97	29731.83
589.13	29713.10
589.29	29659.27
589.45	29909.71
589.61	30113.33
589.77	30331.00
589.93	30017.37
590.08	29986.94
590.24	29790.34
590.40	29919.07
590.56	30150.78
590.72	29895.66
590.88	30015.03
591.04	29855.87
591.20	30071.20
591.35	29977.58
591.51	30686.76
591.67	30096.95
591.83	30108.65
591.99	29876.94
