SpectraSuite Data File
++++++++++++++++++++++++++++++++++++
Date: Fri Oct 18 13:57:54 GMT-05:00 2013
User: bianchi
Dark Spectrum Present: No
Reference Spectrum Present: No
Number of Sampled Component Spectra: 1
Spectrometers: USB2+H05261
Integration Time (usec): 50000 (USB2+H05261)
Spectra Averaged: 1 (USB2+H05261)
Boxcar Smoothing: 0 (USB2+H05261)
Correct for Electrical Dark: No (USB2+H05261)
Strobe/Lamp Enabled: No (USB2+H05261)
Correct for Detector Non-linearity: No (USB2+H05261)
Correct for Stray Light: No (USB2+H05261)
Number of Pixels in Processed Spectrum: 2048
>>>>>Begin Processed Spectral Data<<<<<
365.73	0.00
365.92	0.00
366.12	0.00
366.32	0.00
366.52	0.00
366.72	0.00
366.91	0.00
367.11	0.00
367.31	0.00
367.51	0.00
367.70	0.00
367.90	0.00
368.10	0.00
368.30	0.00
368.49	0.00
368.69	0.00
368.89	0.00
369.09	0.00
369.28	0.00
369.48	0.00
369.68	0.00
369.87	0.00
370.07	0.00
370.27	0.00
370.47	0.00
370.66	49.15
370.86	131.07
371.06	117.03
371.25	107.66
371.45	102.98
371.65	145.11
371.84	161.50
372.04	210.65
372.24	102.98
372.44	131.07
372.63	133.41
372.83	196.60
373.03	264.48
373.22	248.10
373.42	191.92
373.62	208.31
373.81	217.67
374.01	248.10
374.21	308.95
374.40	229.37
374.60	208.31
374.79	280.86
374.99	229.37
375.19	229.37
375.38	285.55
375.58	248.10
375.78	236.39
375.97	227.03
376.17	222.35
376.37	234.05
376.56	245.76
376.76	238.73
376.95	292.57
377.15	257.46
377.35	292.57
377.54	248.10
377.74	259.80
377.93	341.72
378.13	327.68
378.33	205.97
378.52	283.20
378.72	269.16
378.91	315.97
379.11	241.08
379.31	271.50
379.50	322.99
379.70	250.44
379.89	355.76
380.09	372.15
380.28	304.27
380.48	292.57
380.68	341.72
380.87	313.63
381.07	416.62
381.26	285.55
381.46	308.95
381.65	358.10
381.85	318.31
382.04	409.59
382.24	337.04
382.43	383.85
382.63	292.57
382.83	376.83
383.02	404.91
383.22	409.59
383.41	393.21
383.61	346.40
383.80	367.46
384.00	341.72
384.19	341.72
384.39	379.17
384.58	381.51
384.78	430.66
384.97	395.55
385.17	330.02
385.36	477.47
385.56	390.87
385.75	383.85
385.95	442.36
386.14	379.17
386.34	376.83
386.53	376.83
386.72	348.74
386.92	365.12
387.11	386.19
387.31	521.94
387.50	425.98
387.70	414.27
387.89	440.02
388.09	407.25
388.28	458.74
388.48	433.00
388.67	521.94
388.86	519.60
389.06	440.02
389.25	440.02
389.45	465.77
389.64	477.47
389.84	510.24
390.03	484.49
390.22	451.72
390.42	498.53
390.61	456.40
390.81	440.02
391.00	500.87
391.19	486.83
391.39	545.34
391.58	479.81
391.78	519.60
391.97	519.60
392.16	524.28
392.36	554.71
392.55	526.62
392.75	465.77
392.94	557.05
393.13	573.43
393.33	589.82
393.52	596.84
393.71	550.03
393.91	638.97
394.10	596.84
394.29	699.82
394.49	627.26
394.68	608.54
394.88	603.86
395.07	631.94
395.26	608.54
395.46	608.54
395.65	636.63
395.84	606.20
396.04	671.73
396.23	653.01
396.42	667.05
396.62	620.24
396.81	660.03
397.00	697.48
397.19	732.59
397.39	716.20
397.58	713.86
397.77	692.80
397.97	737.27
398.16	697.48
398.35	746.63
398.55	727.91
398.74	763.01
398.93	727.91
399.12	667.05
399.32	692.80
399.51	695.14
399.70	725.57
399.90	744.29
400.09	758.33
400.28	788.76
400.47	772.38
400.67	793.44
400.86	732.59
401.05	809.83
401.24	798.12
401.44	924.51
401.63	826.21
401.82	847.27
402.01	844.93
402.21	854.30
402.40	833.23
402.59	873.02
402.78	774.72
402.97	858.98
403.17	880.04
403.36	912.81
403.55	786.42
403.74	978.34
403.93	905.79
404.13	875.36
404.32	875.36
404.51	798.12
404.70	1015.79
404.89	847.27
405.09	985.37
405.28	912.81
405.47	1069.62
405.66	1020.47
405.85	976.00
406.05	861.32
406.24	985.37
406.43	1020.47
406.62	1008.77
406.81	1086.01
407.00	1029.84
407.20	1057.92
407.39	992.39
407.58	1011.11
407.77	1043.88
407.96	1158.57
408.15	1172.61
408.34	1090.69
408.54	1137.50
408.73	1172.61
408.92	1160.91
409.11	1163.25
409.30	1235.80
409.49	1076.65
409.68	1132.82
409.87	1210.06
410.07	1174.95
410.26	1268.57
410.45	1219.42
410.64	1247.51
410.83	1275.59
411.02	1219.42
411.21	1217.08
411.40	1273.25
411.59	1289.64
411.78	1303.68
411.98	1256.87
412.17	1336.45
412.36	1268.57
412.55	1378.58
412.74	1324.74
412.93	1439.43
413.12	1444.11
413.31	1448.79
413.50	1476.88
413.69	1373.89
413.88	1458.15
414.07	1380.92
414.26	1493.26
414.45	1469.86
414.64	1476.88
414.83	1507.30
415.02	1535.39
415.22	1584.54
415.41	1610.29
415.60	1476.88
415.79	1598.59
415.98	1556.46
416.17	1689.87
416.36	1657.10
416.55	1650.08
416.74	1666.46
416.93	1640.72
417.12	1598.59
417.31	1729.66
417.50	1727.32
417.69	1762.42
417.88	1856.04
418.07	1823.28
418.26	1771.79
418.45	1820.94
418.64	1863.07
418.83	1750.72
419.02	1865.41
419.21	1790.51
419.39	1900.52
419.58	1867.75
419.77	1863.07
419.96	1942.64
420.15	1872.43
420.34	1912.22
420.53	1884.13
420.72	1994.14
420.91	1980.09
421.10	1987.11
421.29	2012.86
421.48	2031.58
421.67	2026.90
421.86	2033.93
422.05	1961.37
422.24	2052.65
422.43	2038.61
422.61	1968.39
422.80	2197.76
422.99	2115.84
423.18	2029.24
423.37	2064.35
423.56	1977.75
423.75	2019.88
423.94	2080.74
424.13	1909.88
424.32	2022.22
424.50	2148.61
424.69	2125.21
424.88	2188.40
425.07	2029.24
425.26	2129.89
425.45	2003.50
425.64	2101.80
425.83	2078.40
426.01	2108.82
426.20	2094.78
426.39	2223.51
426.58	1987.11
426.77	2214.15
426.96	2083.08
427.15	2069.03
427.33	2129.89
427.52	2127.55
427.71	2172.02
427.90	2132.23
428.09	2094.78
428.28	2221.17
428.46	2286.70
428.65	2335.85
428.84	2305.43
429.03	2328.83
429.22	2270.32
429.40	2216.49
429.59	2270.32
429.78	2186.06
429.97	2282.02
430.16	2218.83
430.34	2392.03
430.53	2335.85
430.72	2310.11
430.91	2354.58
431.10	2471.61
431.28	2392.03
431.47	2420.11
431.66	2469.27
431.85	2518.42
432.03	2502.03
432.22	2586.29
432.41	2452.88
432.60	2502.03
432.79	2331.17
432.97	2541.82
433.16	2476.29
433.35	2483.31
433.54	2696.30
433.72	2539.48
433.91	2647.15
434.10	2574.59
434.28	2506.71
434.47	2724.38
434.66	2621.40
434.85	2698.64
435.03	2654.17
435.22	2572.25
435.41	2806.30
435.59	2712.68
435.78	2738.43
435.97	2689.28
436.16	2785.24
436.34	2722.04
436.53	2780.56
436.72	2829.71
436.90	2773.53
437.09	2855.45
437.28	2630.76
437.46	2782.90
437.65	2864.82
437.84	2871.84
438.02	2860.13
438.21	2888.22
438.40	2792.26
438.58	3009.93
438.77	2878.86
438.96	2951.42
439.14	3012.27
439.33	2963.12
439.52	2977.16
439.70	3014.61
439.89	3056.74
440.08	3075.46
440.26	3049.72
440.45	3258.03
440.63	3194.83
440.82	3267.39
441.01	3190.15
441.19	3084.83
441.38	3220.58
441.57	3201.85
441.75	3353.99
441.94	3351.65
442.12	3344.63
442.31	3398.46
442.50	3449.95
442.68	3351.65
442.87	3435.91
443.05	3426.54
443.24	3424.20
443.43	3489.74
443.61	3487.40
443.80	3499.10
443.98	3405.48
444.17	3337.60
444.35	3449.95
444.54	3590.38
444.73	3473.36
444.91	3536.55
445.10	3585.70
445.28	3463.99
445.47	3442.93
445.65	3492.08
445.84	3585.70
446.02	3602.08
446.21	3510.80
446.39	3414.84
446.58	3466.33
446.77	3686.34
446.95	3613.79
447.14	3492.08
447.32	3616.13
447.51	3641.87
447.69	3686.34
447.88	3662.94
448.06	3581.02
448.25	3606.77
448.43	3566.98
448.62	3548.25
448.80	3599.74
448.99	3559.95
449.17	3679.32
449.36	3569.32
449.54	3763.58
449.73	3775.28
449.91	3763.58
450.10	3880.61
450.28	3824.44
450.46	3786.99
450.65	3878.27
450.83	3885.29
451.02	3662.94
451.20	3904.01
451.39	3794.01
451.57	3857.20
451.76	3859.54
451.94	4035.08
452.13	4035.08
452.31	3882.95
452.49	3915.72
452.68	3920.40
452.86	3939.12
453.05	3920.40
453.23	4119.34
453.42	3955.51
453.60	4023.38
453.78	3943.80
453.97	3971.89
454.15	4025.72
454.34	4053.81
454.52	4098.28
454.70	4227.01
454.89	4180.20
455.07	4025.72
455.26	3957.85
455.44	4194.24
455.62	4039.76
455.81	4248.07
455.99	4278.50
456.17	4166.15
456.36	4175.52
456.54	4325.31
456.73	4308.93
456.91	4496.17
457.09	4430.63
457.28	4423.61
457.46	4423.61
457.64	4615.54
457.83	4353.40
458.01	4458.72
458.19	4393.19
458.38	4538.30
458.56	4620.22
458.74	4503.19
458.93	4660.01
459.11	4566.39
459.29	4660.01
459.48	4587.45
459.66	4505.53
459.84	4798.10
460.03	4671.71
460.21	4601.49
460.39	4727.88
460.57	4713.84
460.76	4645.96
460.94	4830.87
461.12	4697.46
461.31	4704.48
461.49	4770.01
461.67	4617.88
461.85	4770.01
462.04	4734.90
462.22	5039.17
462.40	4765.33
462.59	4877.68
462.77	4957.25
462.95	4753.63
463.13	4819.16
463.32	4943.21
463.50	4957.25
463.68	4865.97
463.86	5006.41
464.05	4887.04
464.23	4784.06
464.41	4980.66
464.59	4877.68
464.78	5118.75
464.96	5027.47
465.14	5085.98
465.32	5032.15
465.50	5214.71
465.69	5062.58
465.87	5228.76
466.05	5069.60
466.23	5078.96
466.41	5263.86
466.60	5308.34
466.78	5025.13
466.96	5144.50
467.14	5179.61
467.32	5331.74
467.51	5380.89
467.69	5041.51
467.87	5301.31
468.05	5198.33
468.23	5186.63
468.41	5170.24
468.60	5338.76
468.78	5401.96
468.96	5298.97
469.14	5427.70
469.32	5509.62
469.50	5413.66
469.69	5528.35
469.87	5535.37
470.05	5678.14
470.23	5687.50
470.41	5600.90
470.59	5528.35
470.77	5551.75
470.95	5879.43
471.14	5586.86
471.32	5535.37
471.50	5626.65
471.68	5696.86
471.86	5743.67
472.04	5841.98
472.22	5788.14
472.40	5703.89
472.58	5870.06
472.77	5823.25
472.95	5856.02
473.13	6057.31
473.31	5870.06
473.49	6193.06
473.67	6073.69
473.85	6132.20
474.03	6179.01
474.21	6052.63
474.39	6246.89
474.57	6307.74
474.75	6235.19
474.93	6471.58
475.12	6293.70
475.30	6462.22
475.48	6375.62
475.66	6345.19
475.84	6354.55
476.02	6558.18
476.20	6612.01
476.38	6609.67
476.56	6626.06
476.74	6665.85
476.92	6693.93
477.10	6586.27
477.28	6740.74
477.46	6920.96
477.64	6949.05
477.82	6932.67
478.00	7206.51
478.18	7126.93
478.36	7054.37
478.54	7021.61
478.72	7295.45
478.90	7286.09
479.08	7349.28
479.26	7536.52
479.44	7707.38
479.62	7620.78
479.80	7705.04
479.98	7527.16
480.16	7744.83
480.34	7707.38
480.52	7887.61
480.70	7815.05
480.88	7751.85
481.06	7969.52
481.24	7751.85
481.41	8147.40
481.59	8229.32
481.77	8189.53
481.95	8266.77
482.13	8271.45
482.31	8210.60
482.49	8456.36
482.67	8493.80
482.85	8564.02
483.03	8669.34
483.21	8767.65
483.39	8894.04
483.57	8887.01
483.74	9004.04
483.92	8910.42
484.10	8947.87
484.28	9217.03
484.46	9275.54
484.64	9500.23
484.82	9172.56
485.00	9341.08
485.18	9528.32
485.35	9628.96
485.53	9633.64
485.71	9874.72
485.89	9769.40
486.07	9783.44
486.25	9762.37
486.43	9848.97
486.61	9968.34
486.78	10078.35
486.96	10263.25
487.14	10181.33
487.32	10146.22
487.50	10375.59
487.68	10469.22
487.85	10497.30
488.03	10647.10
488.21	10782.85
488.39	10808.59
488.57	10752.42
488.75	10979.45
488.92	11154.99
489.10	11131.59
489.28	11274.36
489.46	11543.52
489.64	11428.84
489.81	11625.44
489.99	11791.62
490.17	11496.71
490.35	11889.92
490.53	11590.33
490.70	11990.56
490.88	11929.71
491.06	12105.25
491.24	11974.18
491.41	12175.47
491.59	12271.43
491.77	12231.64
491.95	12507.82
492.13	12552.29
492.30	12606.13
492.48	12461.01
492.66	12751.24
492.84	12751.24
493.01	12877.63
493.19	13170.19
493.37	13219.35
493.54	13132.75
493.72	13151.47
493.90	13453.40
494.08	13095.30
494.25	13289.56
494.43	13474.46
494.61	13668.73
494.79	13474.46
494.96	13722.56
495.14	13727.24
495.32	14153.22
495.49	13914.48
495.67	14022.15
495.85	14061.94
496.02	14363.87
496.20	14633.03
496.38	14286.63
496.55	14443.45
496.73	14752.40
496.91	14534.73
497.09	14443.45
497.26	14698.56
497.44	14698.56
497.62	14909.21
497.79	14963.04
497.97	15019.22
498.14	15218.16
498.32	15243.91
498.50	15180.71
498.67	15386.68
498.85	15407.75
499.03	15580.95
499.20	15524.77
499.38	15639.46
499.56	15639.46
499.73	15784.57
499.91	15742.44
500.08	16145.02
500.26	15742.44
500.44	15676.91
500.61	16049.05
500.79	15913.30
500.97	15901.60
501.14	16341.62
501.32	16716.11
501.49	16266.72
501.67	16325.24
501.84	16376.73
502.02	16273.74
502.20	16688.02
502.37	16589.72
502.55	16397.79
502.72	16538.23
502.90	16947.82
503.07	16833.13
503.25	16762.92
503.43	16781.64
503.60	17146.76
503.78	17055.48
503.95	16854.20
504.13	17214.64
504.30	17275.49
504.48	17181.87
504.65	17184.21
504.83	17357.41
505.01	17444.01
505.18	17568.06
505.36	17635.94
505.53	17563.38
505.71	17411.25
505.88	17591.47
506.06	17451.03
506.23	17961.27
506.41	18001.06
506.58	17841.90
506.76	18101.70
506.93	18321.71
507.11	17862.97
507.28	17954.25
507.46	17914.46
507.63	18305.33
507.81	18703.22
507.98	18162.56
508.16	18272.56
508.33	18403.63
508.50	18412.99
508.68	18644.71
508.85	18600.24
509.03	18499.59
509.20	18705.56
509.38	18984.09
509.55	18651.73
509.73	18986.43
509.90	19028.56
510.08	19014.51
510.25	18853.02
510.42	19019.19
510.60	19028.56
510.77	19161.97
510.95	19164.31
511.12	19194.73
511.30	19215.80
511.47	19302.40
511.64	19477.94
511.82	19557.52
511.99	19288.35
512.17	19655.82
512.34	19686.25
512.51	19599.65
512.69	19627.73
512.86	20006.90
513.04	20128.61
513.21	20400.11
513.38	19742.42
513.56	20184.78
513.73	19941.36
513.90	20194.14
514.08	19932.00
514.25	20245.63
514.43	20154.35
514.60	20369.68
514.77	20350.96
514.95	20128.61
515.12	20428.20
515.29	20411.81
515.47	20723.10
515.64	20456.28
515.81	20453.94
515.99	20809.70
516.16	20954.82
516.33	20776.94
516.51	20975.88
516.68	20755.87
516.85	21090.57
517.03	21219.30
517.20	21252.06
517.37	21462.71
517.54	21111.63
517.72	21216.96
517.89	21062.48
518.06	21380.79
518.24	21142.06
518.41	21397.18
518.58	21207.59
518.75	21465.05
518.93	21584.42
519.10	21603.14
519.27	21771.66
519.45	21799.75
519.62	21479.10
519.79	21869.97
519.96	21823.16
520.14	22143.81
520.31	21874.65
520.48	22326.37
520.65	21891.03
520.83	22022.10
521.00	22139.13
521.17	22075.93
521.34	22195.30
521.52	22286.58
521.69	22466.80
521.86	22464.46
522.03	22443.40
522.20	22457.44
522.38	22497.23
522.55	22625.96
522.72	22647.02
522.89	22473.82
523.07	22850.65
523.24	22661.07
523.41	22656.39
523.58	22541.70
523.75	22445.74
523.92	22682.13
524.10	22799.16
524.27	22740.64
524.44	23019.17
524.61	23199.39
524.78	23250.88
524.96	22958.31
525.13	23211.09
525.30	23070.66
525.47	23236.84
525.64	23110.45
525.81	23400.68
525.98	23634.73
526.16	23491.96
526.33	23583.24
526.50	23470.89
526.67	23356.21
526.84	23531.75
527.01	23274.29
527.18	23770.48
527.36	23845.38
527.53	23477.91
527.70	23941.34
527.87	24245.61
528.04	23901.55
528.21	23906.23
528.38	24053.69
528.55	24156.67
528.72	24070.07
528.89	24107.52
529.07	24173.05
529.24	24320.51
529.41	24208.16
529.58	24086.45
529.75	23943.68
529.92	24301.78
530.09	24140.29
530.26	24411.79
530.43	24549.88
530.60	24428.17
530.77	24372.00
530.94	24465.62
531.11	24528.81
531.28	24329.87
531.46	24367.32
531.63	24411.79
531.80	24596.69
531.97	24638.82
532.14	24886.92
532.31	24772.23
532.48	24865.85
532.65	24854.15
532.82	24664.57
532.99	25223.95
533.16	24879.89
533.33	25221.61
533.50	25383.11
533.67	25060.12
533.84	25252.04
534.01	25383.11
534.18	25282.47
534.35	25071.82
534.52	25266.08
534.69	25404.17
534.86	25692.06
535.03	25324.60
535.20	25432.26
535.37	25429.92
535.54	25795.04
535.71	25359.70
535.88	25404.17
536.05	25429.92
536.22	25759.94
536.38	25362.04
536.55	25907.39
536.72	25949.52
536.89	25579.71
537.06	26038.46
537.23	26324.01
537.40	25914.41
537.57	25853.56
537.74	25804.41
537.91	26045.48
538.08	26012.71
538.25	25792.70
538.42	25984.63
538.59	26483.16
538.75	26101.65
538.92	25757.60
539.09	26326.35
539.26	26429.33
539.43	26333.37
539.60	26129.74
539.77	26155.49
539.94	26249.11
540.11	26560.40
540.28	26686.79
540.44	26239.75
540.61	26661.04
540.78	26403.58
540.95	26536.99
541.12	26490.18
541.29	26553.38
541.46	26684.45
541.62	26635.30
541.79	26714.87
541.96	26377.84
542.13	26529.97
542.30	26752.32
542.47	26925.52
542.63	27021.48
542.80	26859.99
542.97	27285.97
543.14	27328.10
543.31	26927.86
543.48	27009.78
543.64	27419.38
543.81	27625.34
543.98	27456.82
544.15	27522.36
544.32	27398.31
544.48	27733.01
544.65	27065.96
544.82	27314.05
544.99	27288.31
545.16	27597.26
545.32	27225.11
545.49	27789.18
545.66	27700.24
545.83	27665.13
546.00	27871.10
546.16	28060.68
546.33	27498.95
546.50	27101.06
546.67	27592.58
546.83	27660.45
547.00	27651.09
547.17	27714.28
547.34	27946.00
547.50	28231.54
547.67	27765.78
547.84	27786.84
548.00	27950.68
548.17	27941.32
548.34	28175.37
548.51	28149.62
548.67	28418.78
548.84	28561.56
549.01	28184.73
549.18	28135.58
549.34	28435.17
549.51	28140.26
549.68	28402.40
549.84	28175.37
550.01	28184.73
550.18	28128.56
550.34	27889.82
550.51	28451.55
550.68	28493.68
550.84	28112.17
551.01	28353.25
551.18	28599.01
551.34	28411.76
551.51	28362.61
551.68	28404.74
551.84	28671.56
552.01	28367.29
552.18	28891.57
552.34	28624.75
552.51	28819.02
552.68	28638.80
552.84	28613.05
553.01	28542.83
553.18	28687.95
553.34	28961.79
553.51	28940.72
553.67	28779.23
553.84	29008.60
554.01	29104.56
554.17	28889.23
554.34	28922.00
554.51	28819.02
554.67	29172.44
554.84	29305.85
555.00	29219.25
555.17	28830.72
555.33	28936.04
555.50	29408.83
555.67	29289.46
555.83	28992.22
556.00	29104.56
556.16	29516.50
556.33	28900.94
556.50	29530.54
556.66	29399.47
556.83	29158.39
556.99	29607.78
557.16	29769.27
557.32	29364.36
557.49	29294.14
557.65	29132.65
557.82	29493.09
557.98	29483.73
558.15	29441.60
558.32	29053.07
558.48	29624.16
558.65	29598.41
558.81	29605.44
558.98	29577.35
559.14	29799.70
559.31	29642.88
559.47	29670.97
559.64	29762.25
559.80	29895.66
559.97	30078.22
560.13	29652.25
560.30	30059.50
560.46	30143.76
560.63	29631.18
560.79	29841.83
560.96	29876.94
561.12	29832.47
561.29	29476.71
561.45	29832.47
561.61	30108.65
561.78	29883.96
561.94	29680.33
562.11	29846.51
562.27	29942.47
562.44	30108.65
562.60	29727.14
562.77	30017.37
562.93	30162.48
563.10	30546.33
563.26	29869.92
563.42	30085.25
563.59	30279.51
563.75	29982.26
563.92	30125.04
564.08	30242.06
564.24	29881.62
564.41	30155.46
564.57	29926.09
564.74	29986.94
564.90	30450.37
565.07	30321.64
565.23	30316.96
565.39	30445.69
565.56	30464.41
565.72	30183.55
565.88	30300.58
566.05	30464.41
566.21	30139.08
566.38	30146.10
566.54	30298.23
566.70	30441.01
566.87	30522.93
567.03	30480.80
567.19	30408.24
567.36	30618.89
567.52	30169.51
567.68	30366.11
567.85	30174.19
568.01	30368.45
568.17	29942.47
568.34	30646.97
568.50	30354.41
568.66	30717.19
568.83	30955.93
568.99	30607.19
569.15	30668.04
569.32	30494.84
569.48	29977.58
569.64	30651.66
569.81	30265.47
569.97	30368.45
570.13	30876.35
570.30	30347.39
570.46	30689.10
570.62	30562.72
570.78	30476.12
570.95	30143.76
571.11	30803.79
571.27	30122.69
571.43	30108.65
571.60	30389.52
571.76	30857.62
571.92	30295.89
572.09	30630.59
572.25	30658.68
572.41	30749.96
572.57	30518.25
572.74	30824.86
572.90	30366.11
573.06	30937.20
573.22	30359.09
573.38	30724.21
573.55	30384.83
573.71	30801.45
573.87	30754.64
574.03	30738.26
574.20	30866.98
574.36	30338.02
574.52	30756.98
574.68	30859.96
574.84	30661.02
575.01	30773.36
575.17	30684.42
575.33	30623.57
575.49	30450.37
575.65	30831.88
575.82	31014.44
575.98	30965.29
576.14	31274.24
576.30	30562.72
576.46	30511.22
576.62	30850.60
576.79	31126.78
576.95	30508.88
577.11	30754.64
577.27	30766.34
577.43	30925.50
577.59	31187.64
577.75	30984.01
577.92	30614.21
578.08	30719.53
578.24	30522.93
578.40	30742.94
578.56	31234.45
578.72	30878.69
578.88	30904.43
579.04	31330.41
579.21	30829.54
579.37	30984.01
579.53	31302.32
579.69	30948.90
579.85	31051.89
580.01	30967.63
580.17	30476.12
580.33	31047.21
580.49	30810.81
580.65	30902.09
580.82	31087.00
580.98	31133.81
581.14	30431.65
581.30	31246.15
581.46	30946.56
581.62	30892.73
581.78	30616.55
581.94	31126.78
582.10	30726.55
582.26	31154.87
582.42	31054.23
582.58	31016.78
582.74	31622.98
582.90	31229.77
583.06	30904.43
583.22	30719.53
583.38	31051.89
583.54	31220.41
583.70	30972.31
583.86	30595.48
584.02	30731.23
584.18	31133.81
584.34	31143.17
584.50	31058.91
584.66	31005.08
584.82	31005.08
584.98	31016.78
585.14	30881.03
585.30	30661.02
585.46	30731.23
585.62	31002.74
585.78	31330.41
585.94	30569.74
586.10	30934.86
586.26	31016.78
586.42	31433.39
586.58	31487.23
586.74	30965.29
586.90	30595.48
587.06	31281.26
587.22	31040.18
587.38	30829.54
587.54	30822.51
587.70	31421.69
587.86	31241.47
588.02	31007.42
588.18	31557.44
588.34	31468.50
588.49	31211.04
588.65	31187.64
588.81	30813.15
588.97	31079.97
589.13	31178.28
589.29	30958.27
589.45	30981.67
589.61	31253.17
589.77	31494.25
589.93	31438.08
590.08	31363.18
590.24	31494.25
590.40	31468.50
590.56	31527.02
590.72	31079.97
590.88	31159.55
591.04	31529.36
591.20	31211.04
591.35	31489.57
591.51	31772.77
591.67	31519.99
591.83	31564.46
