SpectraSuite Data File
++++++++++++++++++++++++++++++++++++
Date: Fri Oct 18 13:57:55 GMT-05:00 2013
User: bianchi
Dark Spectrum Present: No
Reference Spectrum Present: No
Number of Sampled Component Spectra: 1
Spectrometers: USB2+H05261
Integration Time (usec): 50000 (USB2+H05261)
Spectra Averaged: 1 (USB2+H05261)
Boxcar Smoothing: 0 (USB2+H05261)
Correct for Electrical Dark: No (USB2+H05261)
Strobe/Lamp Enabled: No (USB2+H05261)
Correct for Detector Non-linearity: No (USB2+H05261)
Correct for Stray Light: No (USB2+H05261)
Number of Pixels in Processed Spectrum: 2048
>>>>>Begin Processed Spectral Data<<<<<
365.73	0.00
365.92	0.00
366.12	0.00
366.32	0.00
366.52	0.00
366.72	0.00
366.91	0.00
367.11	0.00
367.31	0.00
367.51	0.00
367.70	0.00
367.90	0.00
368.10	0.00
368.30	0.00
368.49	0.00
368.69	0.00
368.89	0.00
369.09	0.00
369.28	0.00
369.48	0.00
369.68	0.00
369.87	0.00
370.07	0.00
370.27	0.00
370.47	0.00
370.66	88.94
370.86	86.60
371.06	161.50
371.25	105.32
371.45	121.71
371.65	234.05
371.84	276.18
372.04	187.24
372.24	184.90
372.44	161.50
372.63	173.20
372.83	236.39
373.03	283.20
373.22	191.92
373.42	163.84
373.62	196.60
373.81	236.39
374.01	234.05
374.21	287.89
374.40	255.12
374.60	322.99
374.79	175.54
374.99	203.63
375.19	224.69
375.38	250.44
375.58	297.25
375.78	266.82
375.97	276.18
376.17	297.25
376.37	243.42
376.56	238.73
376.76	259.80
376.95	252.78
377.15	212.99
377.35	257.46
377.54	313.63
377.74	234.05
377.93	322.99
378.13	297.25
378.33	322.99
378.52	290.23
378.72	376.83
378.91	238.73
379.11	308.95
379.31	299.59
379.50	318.31
379.70	365.12
379.89	325.33
380.09	278.52
380.28	227.03
380.48	320.65
380.68	227.03
380.87	250.44
381.07	327.68
381.26	287.89
381.46	360.44
381.65	355.76
381.85	334.70
382.04	304.27
382.24	334.70
382.43	395.55
382.63	383.85
382.83	348.74
383.02	322.99
383.22	386.19
383.41	421.30
383.61	362.78
383.80	386.19
384.00	388.53
384.19	383.85
384.39	433.00
384.58	379.17
384.78	444.70
384.97	381.51
385.17	318.31
385.36	334.70
385.56	339.38
385.75	390.87
385.95	346.40
386.14	425.98
386.34	421.30
386.53	407.25
386.72	428.32
386.92	395.55
387.11	409.59
387.31	404.91
387.50	428.32
387.70	491.51
387.89	463.43
388.09	425.98
388.28	440.02
388.48	493.85
388.67	517.26
388.86	538.32
389.06	425.98
389.25	470.45
389.45	493.85
389.64	486.83
389.84	437.68
390.03	507.90
390.22	505.56
390.42	486.83
390.61	423.64
390.81	440.02
391.00	470.45
391.19	517.26
391.39	484.49
391.58	568.75
391.78	526.62
391.97	545.34
392.16	599.18
392.36	603.86
392.55	566.41
392.75	627.26
392.94	603.86
393.13	512.58
393.33	573.43
393.52	585.13
393.71	622.58
393.91	557.05
394.10	559.39
394.29	580.45
394.49	620.24
394.68	636.63
394.88	610.88
395.07	624.92
395.26	592.16
395.46	631.94
395.65	662.37
395.84	629.60
396.04	657.69
396.23	711.52
396.42	737.27
396.62	748.97
396.81	688.12
397.00	671.73
397.19	690.46
397.39	723.23
397.58	610.88
397.77	692.80
397.97	697.48
398.16	660.03
398.35	653.01
398.55	643.65
398.74	660.03
398.93	830.89
399.12	746.63
399.32	788.76
399.51	709.18
399.70	788.76
399.90	877.70
400.09	812.17
400.28	786.42
400.47	791.10
400.67	730.25
400.86	812.17
401.05	774.72
401.24	767.70
401.44	828.55
401.63	844.93
401.82	840.25
402.01	777.06
402.21	903.45
402.40	828.55
402.59	898.77
402.78	863.66
402.97	938.55
403.17	826.21
403.36	875.36
403.55	873.02
403.74	926.85
403.93	919.83
404.13	896.43
404.32	863.66
404.51	966.64
404.70	905.79
404.89	912.81
405.09	1013.45
405.28	954.94
405.47	973.66
405.66	1029.84
405.85	1015.79
406.05	968.98
406.24	985.37
406.43	1020.47
406.62	1048.56
406.81	1057.92
407.00	1013.45
407.20	1081.33
407.39	961.96
407.58	1130.48
407.77	1196.01
407.96	985.37
408.15	1109.41
408.34	1142.18
408.54	1097.71
408.73	1170.27
408.92	1181.97
409.11	1116.44
409.30	1174.95
409.49	1210.06
409.68	1196.01
409.87	1188.99
410.07	1205.38
410.26	1149.20
410.45	1221.76
410.64	1165.59
410.83	1294.32
411.02	1324.74
411.21	1320.06
411.40	1294.32
411.59	1181.97
411.78	1277.93
411.98	1313.04
412.17	1226.44
412.36	1306.02
412.55	1446.45
412.74	1376.24
412.93	1373.89
413.12	1439.43
413.31	1432.41
413.50	1394.96
413.69	1303.68
413.88	1533.05
414.07	1502.62
414.26	1462.83
414.45	1458.15
414.64	1479.22
414.83	1586.88
415.02	1631.35
415.22	1547.09
415.41	1682.85
415.60	1624.33
415.79	1631.35
415.98	1617.31
416.17	1739.02
416.36	1549.43
416.55	1612.63
416.74	1680.50
416.93	1645.40
417.12	1696.89
417.31	1743.70
417.50	1750.72
417.69	1771.79
417.88	1760.08
418.07	1661.78
418.26	1792.85
418.45	1755.40
418.64	1856.04
418.83	1893.49
419.02	1837.32
419.21	1898.17
419.39	1816.26
419.58	1877.11
419.77	1944.99
419.96	1858.39
420.15	1912.22
420.34	1856.04
420.53	1853.70
420.72	1973.07
420.91	1870.09
421.10	1935.62
421.29	1982.43
421.48	1977.75
421.67	1980.09
421.86	2026.90
422.05	2150.95
422.24	2127.55
422.43	1963.71
422.61	2094.78
422.80	2005.84
422.99	2104.14
423.18	2113.50
423.37	2118.18
423.56	2111.16
423.75	2050.31
423.94	2085.42
424.13	1956.69
424.32	2026.90
424.50	1984.77
424.69	2232.87
424.88	2157.97
425.07	2155.63
425.26	2083.08
425.45	2101.80
425.64	2125.21
425.83	2106.48
426.01	2181.38
426.20	2125.21
426.39	2172.02
426.58	2101.80
426.77	2127.55
426.96	2078.40
427.15	2176.70
427.33	2239.89
427.52	2157.97
427.71	2258.62
427.90	2186.06
428.09	2214.15
428.28	2139.25
428.46	2223.51
428.65	2216.49
428.84	2244.57
429.03	2279.68
429.22	2307.77
429.40	2373.30
429.59	2335.85
429.78	2195.42
429.97	2214.15
430.16	2202.44
430.34	2338.20
430.53	2427.14
430.72	2347.56
430.91	2366.28
431.10	2312.45
431.28	2279.68
431.47	2401.39
431.66	2399.05
431.85	2333.51
432.03	2534.80
432.22	2469.27
432.41	2487.99
432.60	2417.77
432.79	2420.11
432.97	2583.95
433.16	2436.50
433.35	2513.74
433.54	2492.67
433.72	2614.38
433.91	2600.34
434.10	2656.51
434.28	2544.16
434.47	2679.91
434.66	2593.31
434.85	2722.04
435.03	2630.76
435.22	2663.53
435.41	2738.43
435.59	2588.63
435.78	2766.51
435.97	2663.53
436.16	2722.04
436.34	2754.81
436.53	2766.51
436.72	2729.06
436.90	2761.83
437.09	2871.84
437.28	2708.00
437.46	2832.05
437.65	2761.83
437.84	2794.60
438.02	2928.01
438.21	2815.66
438.40	2775.88
438.58	2977.16
438.77	2923.33
438.96	2925.67
439.14	2998.23
439.33	3033.33
439.52	3035.67
439.70	3108.23
439.89	3042.70
440.08	3152.70
440.26	3262.71
440.45	3066.10
440.63	3178.45
440.82	3131.64
441.01	3171.43
441.19	3159.72
441.38	3246.32
441.57	3288.45
441.75	3265.05
441.94	3386.76
442.12	3204.19
442.31	3400.80
442.50	3353.99
442.68	3276.75
442.87	3363.35
443.05	3473.36
443.24	3466.33
443.43	3456.97
443.61	3473.36
443.80	3578.68
443.98	3358.67
444.17	3342.28
444.35	3405.48
444.54	3487.40
444.73	3400.80
444.91	3585.70
445.10	3702.73
445.28	3527.19
445.47	3445.27
445.65	3616.13
445.84	3616.13
446.02	3595.06
446.21	3552.93
446.39	3517.83
446.58	3611.45
446.77	3676.98
446.95	3613.79
447.14	3351.65
447.32	3831.46
447.51	3599.74
447.69	3543.57
447.88	3576.34
448.06	3550.59
448.25	3632.51
448.43	3777.62
448.62	3562.30
448.80	3597.40
448.99	3681.66
449.17	3585.70
449.36	3688.68
449.54	3747.20
449.73	3826.78
449.91	3861.88
450.10	3847.84
450.28	3761.24
450.46	3812.73
450.65	3864.22
450.83	3794.01
451.02	3838.48
451.20	3859.54
451.39	3978.91
451.57	4009.34
451.76	3817.41
451.94	3873.59
452.13	4140.41
452.31	3915.72
452.49	3873.59
452.68	3918.06
452.86	3908.69
453.05	4007.00
453.23	3995.29
453.42	3978.91
453.60	3936.78
453.78	4007.00
453.97	3967.21
454.15	3859.54
454.34	3978.91
454.52	4173.18
454.70	4065.51
454.89	4124.02
455.07	4175.52
455.26	4205.94
455.44	4346.37
455.62	4325.31
455.81	4182.54
455.99	4184.88
456.17	4140.41
456.36	4325.31
456.54	4269.14
456.73	4404.89
456.91	4561.70
457.09	4442.34
457.28	4440.00
457.46	4367.44
457.64	4379.14
457.83	4456.38
458.01	4362.76
458.19	4507.87
458.38	4372.12
458.56	4533.62
458.74	4599.15
458.93	4461.06
459.11	4589.79
459.29	4538.30
459.48	4592.13
459.66	4690.43
459.84	4716.18
460.03	4887.04
460.21	4718.52
460.39	4507.87
460.57	4559.36
460.76	4762.99
460.94	4891.72
461.12	4788.74
461.31	4758.31
461.49	4589.79
461.67	4821.50
461.85	4924.49
462.04	4755.97
462.22	5275.57
462.40	4910.44
462.59	4788.74
462.77	4828.53
462.95	4931.51
463.13	4917.47
463.32	4929.17
463.50	4968.96
463.68	5043.85
463.86	5097.69
464.05	4938.53
464.23	5020.45
464.41	5172.58
464.59	4945.55
464.78	5158.54
464.96	5144.50
465.14	4999.38
465.32	5191.31
465.50	5174.92
465.69	5114.07
465.87	5088.32
466.05	5172.58
466.23	5153.86
466.41	5165.56
466.60	5359.83
466.78	5245.14
466.96	5245.14
467.14	5256.84
467.32	5252.16
467.51	5392.59
467.69	5125.77
467.87	5308.34
468.05	5401.96
468.23	5385.57
468.41	5301.31
468.60	5263.86
468.78	5291.95
468.96	5345.78
469.14	5523.66
469.32	5643.03
469.50	5355.15
469.69	5563.45
469.87	5671.12
470.05	5549.41
470.23	5481.53
470.41	5729.63
470.59	5734.31
470.77	5544.73
470.95	5713.25
471.14	5722.61
471.32	5640.69
471.50	5694.52
471.68	5933.26
471.86	5947.30
472.04	5781.12
472.22	5968.37
472.40	5888.79
472.58	5865.38
472.77	5853.68
472.95	5895.81
473.13	6122.84
473.31	5980.07
473.49	5991.77
473.67	6071.35
473.85	6101.78
474.03	6321.79
474.21	6057.31
474.39	6307.74
474.57	6361.58
474.75	6464.56
474.93	6291.36
475.12	6104.12
475.30	6490.31
475.48	6368.60
475.66	6347.53
475.84	6392.00
476.02	6586.27
476.20	6623.72
476.38	6654.14
476.56	6782.87
476.74	6747.76
476.92	6712.66
477.10	6906.92
477.28	6766.49
477.46	6942.03
477.64	6843.73
477.82	7176.08
478.00	7030.97
478.18	7096.50
478.36	7314.17
478.54	7272.04
478.72	7358.64
478.90	7215.87
479.08	7506.10
479.26	7384.39
479.44	7407.80
479.62	7534.18
479.80	7683.98
479.98	7719.09
480.16	7775.26
480.34	7819.73
480.52	8009.31
480.70	8011.65
480.88	7793.98
481.06	7840.79
481.24	7950.80
481.41	8039.74
481.59	8367.42
481.77	8116.98
481.95	8463.38
482.13	8409.54
482.31	8304.22
482.49	8571.04
482.67	8479.76
482.85	8608.49
483.03	8812.12
483.21	8730.20
483.39	8938.51
483.57	8702.11
483.74	8868.29
483.92	8982.98
484.10	8987.66
484.28	9327.03
484.46	9305.97
484.64	9408.95
484.82	9280.22
485.00	9331.72
485.18	9586.83
485.35	9614.92
485.53	9624.28
485.71	9795.14
485.89	10122.82
486.07	10019.83
486.25	9958.98
486.43	9895.78
486.61	9944.94
486.78	10214.10
486.96	10359.21
487.14	10546.45
487.32	10340.49
487.50	10408.36
487.68	10644.76
487.85	10633.05
488.03	10836.68
488.21	10766.46
488.39	10876.47
488.57	10995.84
488.75	11037.97
488.92	11302.45
489.10	11262.66
489.28	11419.47
489.46	11499.05
489.64	11609.06
489.81	11669.91
489.99	11793.96
490.17	11747.15
490.35	11793.96
490.53	11843.11
490.70	11871.20
490.88	12168.45
491.06	12051.42
491.24	12123.98
491.41	12250.36
491.59	12400.16
491.77	12484.42
491.95	12606.13
492.13	12629.53
492.30	12636.55
492.48	12702.09
492.66	12877.63
492.84	12842.52
493.01	12879.97
493.19	12982.95
493.37	13322.33
493.54	13219.35
493.72	13369.14
493.90	13392.55
494.08	13298.92
494.25	13474.46
494.43	13467.44
494.61	13703.84
494.79	13785.76
494.96	13820.86
495.14	13827.88
495.32	13905.12
495.49	14061.94
495.67	14291.31
495.85	14251.52
496.02	14204.71
496.20	14375.57
496.38	14303.01
496.55	14471.53
496.73	14544.09
496.91	14644.73
497.09	14410.68
497.26	15007.52
497.44	14621.33
497.62	14918.57
497.79	15180.71
497.97	14817.93
498.14	15199.44
498.32	15197.10
498.50	15243.91
498.67	15449.88
498.85	15363.28
499.03	15812.66
499.20	15583.29
499.38	15468.60
499.56	15847.77
499.73	15730.74
499.91	16011.60
500.08	16039.69
500.26	15712.02
500.44	15861.81
500.61	15925.00
500.79	16107.57
500.97	16297.15
501.14	16484.39
501.32	16353.32
501.49	16182.46
501.67	16243.32
501.84	16617.80
502.02	16290.13
502.20	16727.81
502.37	16791.00
502.55	16741.85
502.72	16891.65
502.90	16685.68
503.07	16788.66
503.25	16781.64
503.43	16776.96
503.60	17273.15
503.78	17083.57
503.95	16929.09
504.13	17432.31
504.30	17057.82
504.48	16971.22
504.65	17387.84
504.83	17535.29
505.01	17837.22
505.18	17771.69
505.36	17785.73
505.53	17617.21
505.71	17748.28
505.88	17572.74
506.06	17671.04
506.23	17874.67
506.41	17703.81
506.58	18050.21
506.76	18132.13
506.93	17947.23
507.11	18087.66
507.28	18431.72
507.46	18518.32
507.63	18396.61
507.81	18546.40
507.98	18689.18
508.16	18354.48
508.33	18513.64
508.50	18359.16
508.68	18679.82
508.85	18785.14
509.03	18719.60
509.20	18941.96
509.38	19056.64
509.55	19047.28
509.73	19101.11
509.90	18960.68
510.08	19129.20
510.25	18923.23
510.42	19164.31
510.60	19489.64
510.77	19613.69
510.95	19381.98
511.12	19391.34
511.30	19379.64
511.47	19396.02
511.64	19297.72
511.82	19672.20
511.99	19417.08
512.17	19665.18
512.34	19833.70
512.51	19613.69
512.69	19850.08
512.86	19831.36
513.04	19932.00
513.21	20245.63
513.38	20116.90
513.56	20243.29
513.73	20058.39
513.90	20280.74
514.08	20037.33
514.25	20484.37
514.43	20615.44
514.60	20549.90
514.77	20783.96
514.95	20652.89
515.12	20706.72
515.29	20428.20
515.47	20795.66
515.64	20678.63
515.81	21191.21
515.99	20669.27
516.16	20917.37
516.33	20978.22
516.51	21207.59
516.68	20844.81
516.85	21228.66
517.03	21259.09
517.20	21331.64
517.37	21392.50
517.54	21235.68
517.72	21172.49
517.89	21465.05
518.06	21041.42
518.24	21294.19
518.41	21338.66
518.58	21612.51
518.75	21600.80
518.93	21731.87
519.10	21575.06
519.27	21881.67
519.45	21818.47
519.62	21816.13
519.79	21916.78
519.96	22272.54
520.14	22068.91
520.31	22054.87
520.48	22286.58
520.65	21710.81
520.83	22111.04
521.00	22061.89
521.17	22352.12
521.34	22232.75
521.52	22405.95
521.69	22295.94
521.86	22487.87
522.03	22347.44
522.20	22558.08
522.38	22590.85
522.55	22771.07
522.72	22817.88
522.89	22595.53
523.07	22981.72
523.24	23145.56
523.41	22775.75
523.58	22742.99
523.75	22836.61
523.92	22932.57
524.10	23068.32
524.27	23183.01
524.44	23133.86
524.61	23108.11
524.78	23307.05
524.96	23524.72
525.13	23623.03
525.30	23351.52
525.47	23480.25
525.64	23360.89
525.81	23391.31
525.98	23688.56
526.16	23555.15
526.33	23927.30
526.50	24004.53
526.67	23681.54
526.84	23754.10
527.01	23775.16
527.18	23782.18
527.36	24318.17
527.53	24189.44
527.70	24030.28
527.87	24180.07
528.04	24327.53
528.21	24053.69
528.38	23875.80
528.55	24074.75
528.72	24140.29
528.89	24219.86
529.07	24566.26
529.24	24348.59
529.41	24264.33
529.58	24128.58
529.75	24336.89
529.92	24240.93
530.09	24175.39
530.26	24589.67
530.43	24465.62
530.60	24484.34
530.77	24142.63
530.94	24847.13
531.11	24706.70
531.28	24472.64
531.46	24744.14
531.63	24797.98
531.80	24840.11
531.97	24870.53
532.14	25474.39
532.31	24929.05
532.48	24959.47
532.65	25146.72
532.82	24907.98
532.99	25434.60
533.16	25116.29
533.33	25500.14
533.50	25546.95
533.67	25312.89
533.84	25020.33
534.01	25319.92
534.18	25294.17
534.35	25443.96
534.52	25280.13
534.69	25504.82
534.86	25940.16
535.03	25706.10
535.20	25607.80
535.37	25504.82
535.54	25572.69
535.71	25212.25
535.88	25469.71
536.05	25624.18
536.22	25818.45
536.38	25991.65
536.55	26190.59
536.72	25610.14
536.89	25495.46
537.06	25891.01
537.23	25839.51
537.40	26176.55
537.57	25970.58
537.74	26197.62
537.91	26499.55
538.08	26459.76
538.25	26001.01
538.42	26398.90
538.59	26637.64
538.75	25933.14
538.92	26239.75
539.09	26031.44
539.26	26724.24
539.43	26277.19
539.60	26291.24
539.77	26377.84
539.94	26602.53
540.11	26120.38
540.28	26710.19
540.44	26597.85
540.61	26609.55
540.78	26548.70
540.95	26799.13
541.12	26766.37
541.29	26778.07
541.46	27044.89
541.62	26761.69
541.79	26747.64
541.96	26132.08
542.13	27007.44
542.30	26979.36
542.47	27047.23
542.63	27014.46
542.80	27292.99
542.97	27360.86
543.14	27157.24
543.31	27496.61
543.48	27091.70
543.64	27768.12
543.81	27810.25
543.98	27934.29
544.15	27557.47
544.32	27386.61
544.48	27683.86
544.65	27440.44
544.82	27620.66
544.99	27468.53
545.16	27482.57
545.32	27459.16
545.49	27831.31
545.66	28151.96
545.83	27814.93
546.00	27524.70
546.16	27789.18
546.33	27728.33
546.50	27779.82
546.67	27875.78
546.83	27599.60
547.00	28381.34
547.17	28030.26
547.34	27920.25
547.50	28140.26
547.67	28346.23
547.84	27857.06
548.00	28250.27
548.17	28484.32
548.34	28212.82
548.51	28493.68
548.67	28135.58
548.84	28411.76
549.01	28456.23
549.18	28093.45
549.34	28194.09
549.51	28395.38
549.68	28362.61
549.84	28414.10
550.01	28329.84
550.18	28259.63
550.34	28507.72
550.51	28999.24
550.68	28615.39
550.84	28484.32
551.01	28641.14
551.18	28584.96
551.34	28299.42
551.51	28217.50
551.68	28327.50
551.84	28739.44
552.01	28727.74
552.18	29214.57
552.34	28690.29
552.51	29242.65
552.68	28610.71
552.84	28924.34
553.01	28936.04
553.18	29003.92
553.34	29146.69
553.51	28837.74
553.67	29315.21
553.84	29099.88
554.01	29163.08
554.17	29163.08
554.34	29106.90
554.51	29106.90
554.67	29390.11
554.84	29132.65
555.00	28886.89
555.17	29062.43
555.33	29081.16
555.50	29357.34
555.67	29008.60
555.83	29233.29
556.00	29010.94
556.16	29493.09
556.33	29181.80
556.50	29223.93
556.66	29518.84
556.83	29301.17
556.99	29734.17
557.16	29640.54
557.32	29930.77
557.49	29631.18
557.65	29319.89
557.82	29364.36
557.98	29610.12
558.15	29551.60
558.32	30059.50
558.48	29610.12
558.65	29832.47
558.81	29970.56
558.98	29797.36
559.14	29682.67
559.31	29654.59
559.47	29802.04
559.64	29474.37
559.80	30012.69
559.97	30181.21
560.13	29886.30
560.30	29722.46
560.46	30045.46
560.63	29727.14
560.79	29937.79
560.96	30249.08
561.12	30096.95
561.29	29551.60
561.45	29663.95
561.61	30394.20
561.78	30438.67
561.94	29848.85
562.11	30345.05
562.27	30033.75
562.44	30045.46
562.60	29652.25
562.77	30136.74
562.93	29825.45
563.10	30286.53
563.26	30246.74
563.42	30487.82
563.59	29909.71
563.75	30120.35
563.92	30162.48
564.08	29848.85
564.24	30054.82
564.41	29869.92
564.57	29961.20
564.74	30401.22
564.90	30356.75
565.07	30604.84
565.23	30771.02
565.39	29970.56
565.56	30520.59
565.72	30352.07
565.88	30590.80
566.05	30492.50
566.21	30539.31
566.38	30478.46
566.54	30438.67
566.70	30822.51
566.87	30766.34
567.03	30579.10
567.19	30967.63
567.36	30541.65
567.52	30040.78
567.68	30764.00
567.85	30651.66
568.01	30536.97
568.17	30008.01
568.34	30361.43
568.50	30459.73
568.66	31133.81
568.83	30829.54
568.99	30504.20
569.15	30581.44
569.32	30614.21
569.48	30312.28
569.64	30712.51
569.81	30560.37
569.97	30719.53
570.13	31063.59
570.30	30857.62
570.46	30902.09
570.62	30862.30
570.78	30663.36
570.95	30623.57
571.11	30740.60
571.27	30445.69
571.43	30387.18
571.60	31122.10
571.76	31182.96
571.92	30752.30
572.09	30618.89
572.25	30806.13
572.41	30747.62
572.57	31112.74
572.74	30829.54
572.90	30721.87
573.06	30548.67
573.22	30740.60
573.38	30993.37
573.55	31094.02
573.71	31517.65
573.87	31178.28
574.03	31061.25
574.20	30866.98
574.36	30682.08
574.52	30953.58
574.68	30803.79
574.84	30927.84
575.01	31421.69
575.17	31023.80
575.33	31084.65
575.49	31122.10
575.65	30869.33
575.82	31330.41
575.98	30951.24
576.14	30986.35
576.30	31049.55
576.46	30838.90
576.62	31129.12
576.79	30658.68
576.95	30888.05
577.11	30984.01
577.27	31079.97
577.43	31370.20
577.59	31211.04
577.75	31098.70
577.92	30838.90
578.08	30759.32
578.24	31171.25
578.40	31243.81
578.56	31021.46
578.72	31016.78
578.88	31269.56
579.04	31627.66
579.21	31112.74
579.37	31344.45
579.53	31314.03
579.69	31084.65
579.85	31047.21
580.01	31122.10
580.17	30960.61
580.33	31201.68
580.49	30902.09
580.65	31096.36
580.82	31599.57
580.98	31718.94
581.14	31463.82
581.30	31189.98
581.46	31115.08
581.62	30923.16
581.78	31101.04
581.94	30796.77
582.10	31000.40
582.26	31208.70
582.42	30881.03
582.58	31297.64
582.74	30918.48
582.90	31140.83
583.06	31519.99
583.22	31388.92
583.38	31498.93
583.54	30972.31
583.70	30864.64
583.86	31229.77
584.02	30810.81
584.18	31442.76
584.34	31197.00
584.50	31393.61
584.66	31772.77
584.82	31225.09
584.98	31250.83
585.14	31208.70
585.30	31747.03
585.46	31372.54
585.62	30822.51
585.78	31157.21
585.94	31215.72
586.10	31763.41
586.26	31208.70
586.42	31377.22
586.58	31639.36
586.74	31330.41
586.90	31239.13
587.06	31250.83
587.22	31393.61
587.38	30958.27
587.54	31447.44
587.70	31536.38
587.86	31197.00
588.02	31269.56
588.18	31950.65
588.34	31620.64
588.49	31136.15
588.65	31468.50
588.81	31227.43
588.97	31484.89
589.13	31150.19
589.29	31470.84
589.45	31644.04
589.61	31611.28
589.77	31538.72
589.93	31669.79
590.08	31929.59
590.24	31971.72
590.40	31964.70
590.56	31800.86
590.72	31751.71
590.88	32004.49
591.04	31522.34
591.20	31981.08
591.35	31915.54
591.51	32184.71
591.67	32070.02
591.83	32336.84
