SpectraSuite Data File
++++++++++++++++++++++++++++++++++++
Date: Fri Oct 18 13:58:05 GMT-05:00 2013
User: bianchi
Dark Spectrum Present: No
Reference Spectrum Present: No
Number of Sampled Component Spectra: 1
Spectrometers: USB2+H05261
Integration Time (usec): 50000 (USB2+H05261)
Spectra Averaged: 1 (USB2+H05261)
Boxcar Smoothing: 0 (USB2+H05261)
Correct for Electrical Dark: No (USB2+H05261)
Strobe/Lamp Enabled: No (USB2+H05261)
Correct for Detector Non-linearity: No (USB2+H05261)
Correct for Stray Light: No (USB2+H05261)
Number of Pixels in Processed Spectrum: 2048
>>>>>Begin Processed Spectral Data<<<<<
365.73	0.00
365.92	0.00
366.12	0.00
366.32	0.00
366.52	0.00
366.72	0.00
366.91	0.00
367.11	0.00
367.31	0.00
367.51	0.00
367.70	0.00
367.90	0.00
368.10	0.00
368.30	0.00
368.49	0.00
368.69	0.00
368.89	0.00
369.09	0.00
369.28	0.00
369.48	0.00
369.68	0.00
369.87	0.00
370.07	0.00
370.27	0.00
370.47	0.00
370.66	117.03
370.86	114.69
371.06	128.73
371.25	107.66
371.45	145.11
371.65	161.50
371.84	142.77
372.04	149.79
372.24	128.73
372.44	184.90
372.63	280.86
372.83	180.22
373.03	184.90
373.22	163.84
373.42	269.16
373.62	234.05
373.81	191.92
374.01	278.52
374.21	250.44
374.40	184.90
374.60	273.84
374.79	203.63
374.99	271.50
375.19	325.33
375.38	280.86
375.58	280.86
375.78	276.18
375.97	273.84
376.17	297.25
376.37	290.23
376.56	294.91
376.76	306.61
376.95	243.42
377.15	245.76
377.35	280.86
377.54	315.97
377.74	215.33
377.93	215.33
378.13	313.63
378.33	273.84
378.52	294.91
378.72	259.80
378.91	278.52
379.11	379.17
379.31	276.18
379.50	252.78
379.70	334.70
379.89	269.16
380.09	259.80
380.28	175.54
380.48	320.65
380.68	287.89
380.87	425.98
381.07	313.63
381.26	383.85
381.46	306.61
381.65	304.27
381.85	344.06
382.04	287.89
382.24	332.36
382.43	367.46
382.63	397.89
382.83	285.55
383.02	306.61
383.22	360.44
383.41	358.10
383.61	355.76
383.80	416.62
384.00	304.27
384.19	383.85
384.39	388.53
384.58	407.25
384.78	400.23
384.97	461.09
385.17	376.83
385.36	418.96
385.56	433.00
385.75	468.11
385.95	433.00
386.14	348.74
386.34	433.00
386.53	500.87
386.72	374.49
386.92	414.27
387.11	374.49
387.31	390.87
387.50	456.40
387.70	468.11
387.89	482.15
388.09	411.93
388.28	388.53
388.48	512.58
388.67	458.74
388.86	557.05
389.06	491.51
389.25	552.37
389.45	395.55
389.64	535.98
389.84	566.41
390.03	479.81
390.22	475.13
390.42	493.85
390.61	437.68
390.81	458.74
391.00	512.58
391.19	498.53
391.39	428.32
391.58	465.77
391.78	521.94
391.97	526.62
392.16	543.00
392.36	538.32
392.55	477.47
392.75	580.45
392.94	582.79
393.13	543.00
393.33	575.77
393.52	557.05
393.71	617.90
393.91	627.26
394.10	550.03
394.29	538.32
394.49	575.77
394.68	606.20
394.88	610.88
395.07	641.31
395.26	589.82
395.46	681.10
395.65	608.54
395.84	657.69
396.04	671.73
396.23	653.01
396.42	645.99
396.62	615.56
396.81	592.16
397.00	648.33
397.19	737.27
397.39	744.29
397.58	741.95
397.77	699.82
397.97	720.88
398.16	683.44
398.35	751.31
398.55	660.03
398.74	674.07
398.93	779.40
399.12	737.27
399.32	671.73
399.51	713.86
399.70	781.74
399.90	723.23
400.09	807.48
400.28	800.46
400.47	737.27
400.67	858.98
400.86	851.96
401.05	835.57
401.24	791.10
401.44	763.01
401.63	833.23
401.82	856.64
402.01	793.44
402.21	725.57
402.40	844.93
402.59	908.13
402.78	826.21
402.97	880.04
403.17	875.36
403.36	912.81
403.55	903.45
403.74	854.30
403.93	894.08
404.13	973.66
404.32	919.83
404.51	933.87
404.70	1050.90
404.89	936.21
405.09	997.07
405.28	968.98
405.47	936.21
405.66	985.37
405.85	976.00
406.05	959.62
406.24	1034.52
406.43	1001.75
406.62	1116.44
406.81	971.32
407.00	1111.75
407.20	1062.60
407.39	1036.86
407.58	1097.71
407.77	1128.14
407.96	1097.71
408.15	1130.48
408.34	973.66
408.54	1048.56
408.73	1109.41
408.92	1170.27
409.11	1135.16
409.30	1121.12
409.49	1165.59
409.68	1104.73
409.87	1193.67
410.07	1174.95
410.26	1214.74
410.45	1224.10
410.64	1177.29
410.83	1259.21
411.02	1163.25
411.21	1315.38
411.40	1277.93
411.59	1359.85
411.78	1409.00
411.98	1289.64
412.17	1259.21
412.36	1282.61
412.55	1383.26
412.74	1427.73
412.93	1343.47
413.12	1481.56
413.31	1448.79
413.50	1369.21
413.69	1423.05
413.88	1446.45
414.07	1535.39
414.26	1547.09
414.45	1411.34
414.64	1554.12
414.83	1483.90
415.02	1467.52
415.22	1591.56
415.41	1500.28
415.60	1636.03
415.79	1533.05
415.98	1687.53
416.17	1680.50
416.36	1678.16
416.55	1666.46
416.74	1785.83
416.93	1619.65
417.12	1727.32
417.31	1614.97
417.50	1760.08
417.69	1846.68
417.88	1820.94
418.07	1776.47
418.26	1701.57
418.45	1790.51
418.64	1937.96
418.83	1846.68
419.02	1891.15
419.21	1851.36
419.39	1888.81
419.58	1853.70
419.77	1888.81
419.96	1816.26
420.15	1937.96
420.34	1774.13
420.53	1888.81
420.72	1832.64
420.91	1907.54
421.10	1879.45
421.29	1980.09
421.48	1928.60
421.67	2026.90
421.86	1982.43
422.05	2038.61
422.24	2010.52
422.43	2015.20
422.61	2078.40
422.80	1879.45
422.99	2092.44
423.18	1994.14
423.37	2019.88
423.56	2062.01
423.75	2113.50
423.94	2001.16
424.13	1944.99
424.32	2003.50
424.50	2122.87
424.69	2162.66
424.88	2066.69
425.07	2083.08
425.26	2113.50
425.45	2162.66
425.64	2080.74
425.83	2087.76
426.01	2176.70
426.20	2146.27
426.39	2083.08
426.58	2216.49
426.77	2125.21
426.96	2223.51
427.15	2202.44
427.33	2099.46
427.52	2076.06
427.71	2239.89
427.90	2277.34
428.09	2305.43
428.28	2143.93
428.46	2289.04
428.65	2267.98
428.84	2342.88
429.03	2286.70
429.22	2284.36
429.40	2237.55
429.59	2370.96
429.78	2263.30
429.97	2218.83
430.16	2218.83
430.34	2326.49
430.53	2263.30
430.72	2324.15
430.91	2331.17
431.10	2406.07
431.28	2429.48
431.47	2476.29
431.66	2490.33
431.85	2452.88
432.03	2286.70
432.22	2518.42
432.41	2455.22
432.60	2616.72
432.79	2466.92
432.97	2539.48
433.16	2530.12
433.35	2553.52
433.54	2616.72
433.72	2548.84
433.91	2485.65
434.10	2581.61
434.28	2565.23
434.47	2532.46
434.66	2649.49
434.85	2675.23
435.03	2612.04
435.22	2729.06
435.41	2626.08
435.59	2764.17
435.78	2733.75
435.97	2729.06
436.16	2808.64
436.34	2712.68
436.53	2738.43
436.72	2843.75
436.90	2825.03
437.09	2789.92
437.28	2633.10
437.46	2766.51
437.65	2726.72
437.84	2867.16
438.02	2736.09
438.21	2818.00
438.40	2827.37
438.58	2878.86
438.77	3035.67
438.96	2916.31
439.14	3117.59
439.33	3073.12
439.52	2993.55
439.70	2977.16
439.89	3038.02
440.08	3075.46
440.26	3009.93
440.45	2988.86
440.63	3056.74
440.82	3222.92
441.01	3206.53
441.19	3211.22
441.38	3293.13
441.57	3234.62
441.75	3281.43
441.94	3431.23
442.12	3405.48
442.31	3375.05
442.50	3410.16
442.68	3403.14
442.87	3433.57
443.05	3419.52
443.24	3599.74
443.43	3456.97
443.61	3496.76
443.80	3588.04
443.98	3480.38
444.17	3382.07
444.35	3431.23
444.54	3613.79
444.73	3581.02
444.91	3452.29
445.10	3557.61
445.28	3543.57
445.47	3590.38
445.65	3499.10
445.84	3492.08
446.02	3557.61
446.21	3595.06
446.39	3517.83
446.58	3499.10
446.77	3632.51
446.95	3435.91
447.14	3524.85
447.32	3522.51
447.51	3602.08
447.69	3627.83
447.88	3669.96
448.06	3698.05
448.25	3662.94
448.43	3641.87
448.62	3585.70
448.80	3684.00
448.99	3658.26
449.17	3761.24
449.36	3686.34
449.54	3777.62
449.73	3852.52
449.91	3822.09
450.10	3723.79
450.28	4018.70
450.46	3794.01
450.65	3756.56
450.83	3740.18
451.02	3805.71
451.20	3836.14
451.39	3864.22
451.57	3859.54
451.76	3840.82
451.94	3875.93
452.13	3854.86
452.31	4009.34
452.49	3882.95
452.68	4088.92
452.86	4011.68
453.05	3957.85
453.23	3995.29
453.42	3946.14
453.60	3922.74
453.78	4007.00
453.97	3911.04
454.15	3957.85
454.34	3953.16
454.52	4107.64
454.70	4042.11
454.89	4290.20
455.07	4098.28
455.26	4030.40
455.44	4198.92
455.62	4138.07
455.81	4173.18
455.99	4290.20
456.17	4229.35
456.36	4252.75
456.54	4280.84
456.73	4290.20
456.91	4374.46
457.09	4414.25
457.28	4493.83
457.46	4414.25
457.64	4526.60
457.83	4535.96
458.01	4402.55
458.19	4437.66
458.38	4393.19
458.56	4582.77
458.74	4561.70
458.93	4573.41
459.11	4685.75
459.29	4662.35
459.48	4575.75
459.66	4540.64
459.84	4554.68
460.03	4685.75
460.21	4681.07
460.39	4601.49
460.57	4615.54
460.76	4624.90
460.94	4795.76
461.12	4821.50
461.31	4788.74
461.49	4816.82
461.67	4772.35
461.85	4830.87
462.04	4793.42
462.22	5102.37
462.40	4809.80
462.59	4844.91
462.77	4915.12
462.95	4851.93
463.13	4889.38
463.32	4947.89
463.50	4952.57
463.68	4915.12
463.86	4894.06
464.05	5078.96
464.23	4926.83
464.41	5111.73
464.59	5078.96
464.78	5107.05
464.96	4959.60
465.14	5078.96
465.32	5008.75
465.50	5139.82
465.69	5057.90
465.87	4999.38
466.05	5100.03
466.23	5048.54
466.41	5074.28
466.60	5217.05
466.78	5177.26
466.96	5205.35
467.14	5107.05
467.32	5123.43
467.51	5270.89
467.69	5214.71
467.87	5259.18
468.05	5167.90
468.23	5226.42
468.41	5287.27
468.60	5282.59
468.78	5331.74
468.96	5385.57
469.14	5446.43
469.32	5310.68
469.50	5207.69
469.69	5633.67
469.87	5465.15
470.05	5530.69
470.23	5497.92
470.41	5561.11
470.59	5598.56
470.77	5647.71
470.95	5462.81
471.14	5582.18
471.32	5619.63
471.50	5856.02
471.68	5731.97
471.86	5685.16
472.04	5961.34
472.22	5893.47
472.40	5760.06
472.58	5762.40
472.77	5874.74
472.95	5891.13
473.13	6188.38
473.31	6099.44
473.49	5963.68
473.67	5989.43
473.85	5996.45
474.03	6120.50
474.21	6211.78
474.39	6043.26
474.57	6342.85
474.75	6382.64
474.93	6368.60
475.12	6270.30
475.30	6413.07
475.48	6368.60
475.66	6586.27
475.84	6464.56
476.02	6670.53
476.20	6509.03
476.38	6640.10
476.56	7009.90
476.74	6853.09
476.92	6761.81
477.10	6693.93
477.28	6815.64
477.46	6682.23
477.64	6850.75
477.82	7087.14
478.00	7030.97
478.18	7234.60
478.36	7185.44
478.54	7108.21
478.72	7431.20
478.90	7253.32
479.08	7396.09
479.26	7461.63
479.44	7641.85
479.62	7588.02
479.80	7623.12
479.98	7632.49
480.16	7908.67
480.34	7667.60
480.52	7714.41
480.70	7805.69
480.88	7859.52
481.06	7918.03
481.24	7957.82
481.41	8388.48
481.59	7967.18
481.77	8098.25
481.95	8219.96
482.13	8287.84
482.31	8622.53
482.49	8610.83
482.67	8461.04
482.85	8411.89
483.03	8667.00
483.21	8739.56
483.39	8870.63
483.57	8861.27
483.74	8802.75
483.92	8896.38
484.10	8912.76
484.28	9149.15
484.46	9305.97
484.64	9497.89
484.82	9057.87
485.00	9373.85
485.18	9626.62
485.35	9514.28
485.53	9717.90
485.71	9731.95
485.89	9858.34
486.07	9968.34
486.25	10073.67
486.43	10115.80
486.61	9989.41
486.78	10415.38
486.96	10230.48
487.14	10349.85
487.32	10415.38
487.50	10361.55
487.68	10293.68
487.85	10572.20
488.03	10590.92
488.21	10995.84
488.39	10850.72
488.57	11075.42
488.75	11197.12
488.92	11307.13
489.10	11133.93
489.28	11396.07
489.46	11307.13
489.64	11365.64
489.81	11637.14
489.99	11543.52
490.17	11625.44
490.35	12063.12
490.53	11896.94
490.70	11939.07
490.88	11988.22
491.06	12063.12
491.24	11943.75
491.41	12233.98
491.59	12149.72
491.77	12329.94
491.95	12381.43
492.13	12301.86
492.30	12643.57
492.48	12301.86
492.66	12758.26
492.84	12753.58
493.01	12903.37
493.19	12870.61
493.37	12835.50
493.54	13310.63
493.72	13099.98
493.90	13544.68
494.08	13479.15
494.25	13394.89
494.43	13619.58
494.61	13797.46
494.79	13862.99
494.96	13860.65
495.14	13652.34
495.32	13884.06
495.49	13956.61
495.67	14120.45
495.85	14284.29
496.02	14286.63
496.20	14469.19
496.38	14214.07
496.55	14246.84
496.73	14565.15
496.91	14637.71
497.09	14670.48
497.26	14698.56
497.44	14867.08
497.62	14757.08
497.79	15056.67
497.97	15152.63
498.14	14993.47
498.32	15318.81
498.50	15044.96
498.67	15337.53
498.85	15442.85
499.03	15634.78
499.20	15353.91
499.38	15283.70
499.56	15374.98
499.73	15520.09
499.91	15611.37
500.08	15772.87
500.26	15770.53
500.44	15892.24
500.61	15910.96
500.79	15922.66
500.97	15985.86
501.14	16301.83
501.32	16306.51
501.49	16030.33
501.67	16046.71
501.84	16432.90
502.02	16266.72
502.20	16709.08
502.37	16753.55
502.55	16648.23
502.72	16695.04
502.90	16774.62
503.07	16793.34
503.25	16889.31
503.43	16727.81
503.60	16786.32
503.78	17343.37
503.95	17057.82
504.13	17158.47
504.30	17003.99
504.48	17326.99
504.65	17207.62
504.83	17411.25
505.01	17752.96
505.18	17687.43
505.36	17628.92
505.53	17507.21
505.71	17369.12
505.88	17479.12
506.06	17635.94
506.23	17935.53
506.41	17727.22
506.58	17769.35
506.76	18026.81
506.93	18321.71
507.11	18024.47
507.28	17865.31
507.46	18183.62
507.63	18515.98
507.81	18361.50
507.98	18200.01
508.16	18335.76
508.33	18394.27
508.50	18480.87
508.68	18621.30
508.85	18658.75
509.03	18724.29
509.20	19213.46
509.38	18803.86
509.55	19234.52
509.73	18909.19
509.90	19005.15
510.08	18899.83
510.25	18775.78
510.42	19206.44
510.60	19374.95
510.77	19229.84
510.95	19431.13
511.12	19414.74
511.30	19351.55
511.47	19583.26
511.64	19623.05
511.82	19590.28
511.99	19669.86
512.17	19707.31
512.34	19573.90
512.51	20006.90
512.69	19735.40
512.86	19810.29
513.04	19927.32
513.21	19838.38
513.38	20002.22
513.56	19955.41
513.73	19861.79
513.90	20196.48
514.08	20067.75
514.25	20159.03
514.43	20365.00
514.60	20790.98
514.77	20439.90
514.95	20606.08
515.12	20540.54
515.29	20496.07
515.47	20664.59
515.64	20400.11
515.81	20673.95
515.99	20863.54
516.16	21043.76
516.33	20863.54
516.51	21149.08
516.68	20821.41
516.85	20952.48
517.03	21231.00
517.20	20905.66
517.37	21312.92
517.54	21214.62
517.72	21172.49
517.89	21336.32
518.06	21544.63
518.24	21341.00
518.41	21490.80
518.58	21359.73
518.75	21528.25
518.93	21624.21
519.10	21586.76
519.27	21638.25
519.45	22022.10
519.62	21249.72
519.79	21612.51
519.96	21738.90
520.14	21654.64
520.31	21830.18
520.48	22012.74
520.65	22134.45
520.83	22387.22
521.00	22113.38
521.17	21802.09
521.34	21933.16
521.52	22192.96
521.69	22211.68
521.86	22309.99
522.03	22576.81
522.20	22424.67
522.38	22534.68
522.55	22317.01
522.72	22501.91
522.89	22670.43
523.07	23070.66
523.24	22778.09
523.41	22986.40
523.58	22672.77
523.75	23033.21
523.92	22848.31
524.10	22609.58
524.27	23264.92
524.44	23220.45
524.61	23119.81
524.78	23119.81
524.96	23339.82
525.13	23332.80
525.30	22963.00
525.47	23307.05
525.64	23269.61
525.81	23688.56
525.98	23604.30
526.16	23868.78
526.33	23576.22
526.50	23580.90
526.67	23363.23
526.84	23520.04
527.01	23559.83
527.18	23733.03
527.36	23983.47
527.53	23740.05
527.70	24159.01
527.87	24156.67
528.04	23899.21
528.21	24144.97
528.38	23880.49
528.55	24079.43
528.72	24114.54
528.89	24285.40
529.07	23936.66
529.24	24304.12
529.41	24369.66
529.58	24601.37
529.75	24063.05
529.92	24156.67
530.09	24285.40
530.26	24292.42
530.43	24797.98
530.60	24121.56
530.77	24470.30
530.94	24699.67
531.11	24292.42
531.28	24446.90
531.46	24849.47
531.63	25062.46
531.80	24643.50
531.97	24922.02
532.14	24821.38
532.31	24968.84
532.48	24987.56
532.65	24840.11
532.82	25062.46
532.99	24683.29
533.16	24964.15
533.33	25238.00
533.50	25493.12
533.67	24994.58
533.84	25109.27
534.01	24982.88
534.18	24856.49
534.35	25345.66
534.52	25216.93
534.69	25722.49
534.86	25472.05
535.03	25125.65
535.20	25455.67
535.37	25497.80
535.54	25722.49
535.71	25429.92
535.88	25443.96
536.05	25401.83
536.22	25715.47
536.38	25834.83
536.55	25832.49
536.72	25993.99
536.89	25340.98
537.06	25876.96
537.23	26148.46
537.40	26331.03
537.57	26003.35
537.74	26087.61
537.91	26373.16
538.08	26218.68
538.25	26401.24
538.42	25834.83
538.59	26382.52
538.75	26052.50
538.92	26115.70
539.09	26569.76
539.26	26522.95
539.43	26274.85
539.60	26483.16
539.77	26359.11
539.94	26260.81
540.11	26071.23
540.28	26576.78
540.44	26539.33
540.61	26515.93
540.78	26396.56
540.95	26359.11
541.12	26712.53
541.29	26611.89
541.46	26632.96
541.62	26609.55
541.79	26710.19
541.96	26221.02
542.13	26665.72
542.30	26618.91
542.47	26984.04
542.63	26998.08
542.80	27353.84
542.97	27236.81
543.14	27339.80
543.31	27480.23
543.48	26843.60
543.64	26993.40
543.81	27454.48
543.98	27583.21
544.15	27534.06
544.32	27508.32
544.48	27821.95
544.65	27447.46
544.82	27541.08
544.99	27019.14
545.16	27541.08
545.32	27552.79
545.49	27571.51
545.66	27793.86
545.83	27983.44
546.00	27976.42
546.16	27824.29
546.33	27562.15
546.50	27182.98
546.67	27484.91
546.83	27861.74
547.00	27667.47
547.17	27948.34
547.34	27555.13
547.50	28175.37
547.67	28376.66
547.84	27922.59
548.00	27824.29
548.17	28063.02
548.34	28044.30
548.51	28357.93
548.67	28278.35
548.84	28472.62
549.01	28109.83
549.18	28084.09
549.34	28128.56
549.51	28570.92
549.68	28175.37
549.84	28086.43
550.01	27871.10
550.18	28020.89
550.34	28577.94
550.51	28730.08
550.68	28613.05
550.84	27950.68
551.01	28706.67
551.18	28142.60
551.34	28203.46
551.51	28371.97
551.68	28699.65
551.84	28854.12
552.01	28463.25
552.18	28875.19
552.34	28545.17
552.51	28828.38
552.68	29074.13
552.84	28542.83
553.01	28608.37
553.18	28821.36
553.34	28905.62
553.51	29067.11
553.67	29413.51
553.84	29273.08
554.01	29212.23
554.17	28648.16
554.34	28924.34
554.51	28734.76
554.67	29151.37
554.84	28926.68
555.00	28861.15
555.17	29282.44
555.33	29308.19
555.50	28922.00
555.67	29036.69
555.83	29244.99
556.00	29172.44
556.16	29359.68
556.33	29109.24
556.50	29256.70
556.66	29277.76
556.83	29427.56
556.99	29792.68
557.16	29694.38
557.32	29273.08
557.49	29394.79
557.65	29429.90
557.82	29333.93
557.98	29546.92
558.15	29696.72
558.32	29406.49
558.48	29301.17
558.65	29553.94
558.81	29675.65
558.98	29680.33
559.14	29872.26
559.31	29647.57
559.47	29523.52
559.64	29654.59
559.80	29928.43
559.97	29799.70
560.13	29605.44
560.30	29912.05
560.46	29928.43
560.63	29549.26
560.79	30082.91
560.96	29788.00
561.12	29535.22
561.29	29607.78
561.45	29893.32
561.61	30036.09
561.78	29986.94
561.94	29968.22
562.11	30057.16
562.27	30223.34
562.44	29832.47
562.60	29940.13
562.77	30057.16
562.93	29673.31
563.10	29755.23
563.26	30202.27
563.42	30331.00
563.59	30127.38
563.75	30101.63
563.92	30232.70
564.08	30237.38
564.24	29979.92
564.41	29916.73
564.57	29993.97
564.74	30073.54
564.90	30096.95
565.07	30436.33
565.23	30361.43
565.39	30438.67
565.56	30258.45
565.72	30155.46
565.88	29940.13
566.05	29949.50
566.21	29996.31
566.38	30284.19
566.54	30384.83
566.70	30471.43
566.87	30319.30
567.03	30431.65
567.19	30789.75
567.36	30939.54
567.52	30096.95
567.68	30572.08
567.85	30099.29
568.01	30368.45
568.17	30476.12
568.34	30401.22
568.50	30628.25
568.66	30696.13
568.83	30831.88
568.99	30412.92
569.15	30366.11
569.32	30391.86
569.48	29776.30
569.64	30644.63
569.81	30321.64
569.97	30583.78
570.13	30682.08
570.30	30267.81
570.46	30625.91
570.62	30405.90
570.78	30464.41
570.95	30459.73
571.11	30710.17
571.27	29977.58
571.43	30321.64
571.60	30693.79
571.76	30628.25
571.92	30984.01
572.09	30822.51
572.25	30749.96
572.41	31110.40
572.57	30958.27
572.74	30520.59
572.90	30501.86
573.06	30593.14
573.22	30953.58
573.38	30780.39
573.55	30632.93
573.71	31213.38
573.87	31112.74
574.03	30700.81
574.20	30855.28
574.36	30705.49
574.52	30675.06
574.68	30600.16
574.84	30675.06
575.01	30955.93
575.17	31262.54
575.33	30785.07
575.49	30646.97
575.65	31058.91
575.82	31058.91
575.98	30775.70
576.14	31082.31
576.30	30480.80
576.46	30948.90
576.62	30834.22
576.79	30663.36
576.95	31201.68
577.11	31051.89
577.27	31007.42
577.43	30759.32
577.59	30705.49
577.75	31136.15
577.92	30892.73
578.08	30548.67
578.24	30969.97
578.40	31234.45
578.56	31152.53
578.72	31065.93
578.88	30925.50
579.04	30773.36
579.21	30668.04
579.37	30972.31
579.53	31419.35
579.69	30979.33
579.85	30920.82
580.01	30754.64
580.17	30567.40
580.33	30705.49
580.49	30918.48
580.65	31101.04
580.82	30953.58
580.98	31150.19
581.14	30703.15
581.30	31489.57
581.46	30782.73
581.62	31180.62
581.78	30785.07
581.94	31253.17
582.10	31009.76
582.26	31250.83
582.42	31117.42
582.58	31129.12
582.74	31098.70
582.90	30630.59
583.06	31152.53
583.22	30904.43
583.38	30958.27
583.54	31009.76
583.70	30719.53
583.86	30831.88
584.02	30717.19
584.18	31028.48
584.34	31569.15
584.50	31271.90
584.66	30998.06
584.82	31016.78
584.98	31068.27
585.14	31264.88
585.30	30345.05
585.46	31229.77
585.62	31159.55
585.78	31456.80
585.94	30602.50
586.10	31180.62
586.26	31136.15
586.42	31325.73
586.58	31393.61
586.74	31292.96
586.90	31000.40
587.06	30682.08
587.22	30759.32
587.38	30735.92
587.54	31012.10
587.70	31599.57
587.86	31356.16
588.02	31161.89
588.18	31819.58
588.34	31548.08
588.49	31262.54
588.65	30909.11
588.81	30827.20
588.97	31304.67
589.13	31182.96
589.29	31147.85
589.45	31278.92
589.61	31491.91
589.77	31243.81
589.93	31510.63
590.08	31515.31
590.24	31505.95
590.40	31433.39
590.56	31700.22
590.72	31466.16
590.88	31379.56
591.04	31246.15
591.20	31555.10
591.35	31702.56
591.51	32027.89
591.67	31676.81
591.83	31536.38
