SpectraSuite Data File
++++++++++++++++++++++++++++++++++++
Date: Fri Oct 18 13:58:15 GMT-05:00 2013
User: bianchi
Dark Spectrum Present: No
Reference Spectrum Present: No
Number of Sampled Component Spectra: 1
Spectrometers: USB2+H05261
Integration Time (usec): 50000 (USB2+H05261)
Spectra Averaged: 1 (USB2+H05261)
Boxcar Smoothing: 0 (USB2+H05261)
Correct for Electrical Dark: No (USB2+H05261)
Strobe/Lamp Enabled: No (USB2+H05261)
Correct for Detector Non-linearity: No (USB2+H05261)
Correct for Stray Light: No (USB2+H05261)
Number of Pixels in Processed Spectrum: 2048
>>>>>Begin Processed Spectral Data<<<<<
365.73	0.00
365.92	0.00
366.12	0.00
366.32	0.00
366.52	0.00
366.72	0.00
366.91	0.00
367.11	0.00
367.31	0.00
367.51	0.00
367.70	0.00
367.90	0.00
368.10	0.00
368.30	0.00
368.49	0.00
368.69	0.00
368.89	0.00
369.09	0.00
369.28	0.00
369.48	0.00
369.68	0.00
369.87	0.00
370.07	0.00
370.27	0.00
370.47	0.00
370.66	77.24
370.86	110.01
371.06	117.03
371.25	114.69
371.45	117.03
371.65	114.69
371.84	126.39
372.04	142.77
372.24	180.22
372.44	168.52
372.63	168.52
372.83	236.39
373.03	250.44
373.22	264.48
373.42	124.05
373.62	161.50
373.81	196.60
374.01	238.73
374.21	201.29
374.40	220.01
374.60	182.56
374.79	301.93
374.99	152.13
375.19	262.14
375.38	271.50
375.58	212.99
375.78	255.12
375.97	290.23
376.17	203.63
376.37	177.88
376.56	315.97
376.76	201.29
376.95	191.92
377.15	222.35
377.35	243.42
377.54	250.44
377.74	280.86
377.93	262.14
378.13	332.36
378.33	294.91
378.52	245.76
378.72	236.39
378.91	297.25
379.11	290.23
379.31	318.31
379.50	290.23
379.70	379.17
379.89	313.63
380.09	262.14
380.28	306.61
380.48	344.06
380.68	259.80
380.87	287.89
381.07	280.86
381.26	313.63
381.46	243.42
381.65	297.25
381.85	283.20
382.04	362.78
382.24	358.10
382.43	297.25
382.63	292.57
382.83	337.04
383.02	325.33
383.22	433.00
383.41	381.51
383.61	311.29
383.80	353.42
384.00	332.36
384.19	315.97
384.39	292.57
384.58	322.99
384.78	388.53
384.97	414.27
385.17	367.46
385.36	414.27
385.56	418.96
385.75	344.06
385.95	362.78
386.14	367.46
386.34	397.89
386.53	358.10
386.72	425.98
386.92	444.70
387.11	437.68
387.31	409.59
387.50	428.32
387.70	442.36
387.89	393.21
388.09	449.38
388.28	411.93
388.48	440.02
388.67	440.02
388.86	421.30
389.06	421.30
389.25	491.51
389.45	540.66
389.64	421.30
389.84	433.00
390.03	433.00
390.22	421.30
390.42	496.19
390.61	447.04
390.81	491.51
391.00	477.47
391.19	543.00
391.39	493.85
391.58	507.90
391.78	564.07
391.97	491.51
392.16	500.87
392.36	552.37
392.55	526.62
392.75	620.24
392.94	538.32
393.13	470.45
393.33	550.03
393.52	559.39
393.71	561.73
393.91	587.47
394.10	552.37
394.29	580.45
394.49	564.07
394.68	589.82
394.88	578.11
395.07	596.84
395.26	528.96
395.46	638.97
395.65	615.56
395.84	587.47
396.04	699.82
396.23	627.26
396.42	699.82
396.62	634.29
396.81	704.50
397.00	669.39
397.19	587.47
397.39	671.73
397.58	706.84
397.77	709.18
397.97	610.88
398.16	610.88
398.35	753.65
398.55	727.91
398.74	739.61
398.93	695.14
399.12	674.07
399.32	627.26
399.51	660.03
399.70	699.82
399.90	793.44
400.09	702.16
400.28	755.99
400.47	678.76
400.67	833.23
400.86	795.78
401.05	826.21
401.24	774.72
401.44	788.76
401.63	765.36
401.82	760.67
402.01	800.46
402.21	807.48
402.40	894.08
402.59	877.70
402.78	842.59
402.97	807.48
403.17	842.59
403.36	931.53
403.55	807.48
403.74	837.91
403.93	870.68
404.13	938.55
404.32	931.53
404.51	954.94
404.70	908.13
404.89	868.34
405.09	1090.69
405.28	908.13
405.47	1029.84
405.66	936.21
405.85	980.68
406.05	978.34
406.24	1006.43
406.43	1050.90
406.62	999.41
406.81	1071.97
407.00	954.94
407.20	990.05
407.39	961.96
407.58	1032.18
407.77	992.39
407.96	1008.77
408.15	1062.60
408.34	1067.28
408.54	1078.99
408.73	1025.15
408.92	1076.65
409.11	1193.67
409.30	1142.18
409.49	1116.44
409.68	1203.04
409.87	1228.78
410.07	1132.82
410.26	1186.65
410.45	1158.57
410.64	1090.69
410.83	1282.61
411.02	1221.76
411.21	1217.08
411.40	1350.49
411.59	1217.08
411.78	1228.78
411.98	1231.12
412.17	1362.19
412.36	1315.38
412.55	1409.00
412.74	1373.89
412.93	1378.58
413.12	1322.40
413.31	1420.71
413.50	1329.42
413.69	1355.17
413.88	1355.17
414.07	1437.09
414.26	1469.86
414.45	1430.07
414.64	1556.46
414.83	1469.86
415.02	1409.00
415.22	1460.49
415.41	1537.73
415.60	1521.35
415.79	1554.12
415.98	1593.90
416.17	1502.62
416.36	1703.91
416.55	1636.03
416.74	1614.97
416.93	1624.33
417.12	1657.10
417.31	1645.40
417.50	1610.29
417.69	1706.25
417.88	1736.68
418.07	1769.44
418.26	1717.95
418.45	1673.48
418.64	1827.96
418.83	1806.89
419.02	1877.11
419.21	1834.98
419.39	1764.76
419.58	1760.08
419.77	1867.75
419.96	1846.68
420.15	1858.39
420.34	1827.96
420.53	1877.11
420.72	1802.21
420.91	1893.49
421.10	1900.52
421.29	2040.95
421.48	1912.22
421.67	1851.36
421.86	1909.88
422.05	1975.41
422.24	1926.26
422.43	1952.01
422.61	1942.64
422.80	1952.01
422.99	1980.09
423.18	1973.07
423.37	1994.14
423.56	2008.18
423.75	1963.71
423.94	1895.83
424.13	1886.47
424.32	1881.79
424.50	2148.61
424.69	2015.20
424.88	2069.03
425.07	2047.97
425.26	2036.27
425.45	2015.20
425.64	1919.24
425.83	2031.58
426.01	2127.55
426.20	2059.67
426.39	2146.27
426.58	1980.09
426.77	1933.28
426.96	2062.01
427.15	2045.63
427.33	2087.76
427.52	2101.80
427.71	2083.08
427.90	2228.19
428.09	2289.04
428.28	2197.76
428.46	2225.85
428.65	2052.65
428.84	2237.55
429.03	2209.47
429.22	2090.10
429.40	2270.32
429.59	2284.36
429.78	2209.47
429.97	2174.36
430.16	2122.87
430.34	2300.75
430.53	2277.34
430.72	2242.23
430.91	2207.13
431.10	2251.60
431.28	2314.79
431.47	2394.37
431.66	2448.20
431.85	2406.07
432.03	2483.31
432.22	2506.71
432.41	2499.69
432.60	2452.88
432.79	2317.13
432.97	2396.71
433.16	2408.41
433.35	2443.52
433.54	2513.74
433.72	2499.69
433.91	2349.90
434.10	2537.14
434.28	2443.52
434.47	2567.57
434.66	2471.61
434.85	2609.70
435.03	2590.97
435.22	2558.21
435.41	2651.83
435.59	2637.78
435.78	2637.78
435.97	2612.04
436.16	2609.70
436.34	2588.63
436.53	2663.53
436.72	2754.81
436.90	2715.02
437.09	2801.62
437.28	2696.30
437.46	2686.94
437.65	2731.41
437.84	2750.13
438.02	2820.35
438.21	2822.69
438.40	2895.24
438.58	2892.90
438.77	2818.00
438.96	2918.65
439.14	2782.90
439.33	2815.66
439.52	3059.08
439.70	2897.58
439.89	2995.89
440.08	2967.80
440.26	3098.87
440.45	3119.93
440.63	2979.50
440.82	2965.46
441.01	3108.23
441.19	3077.80
441.38	3009.93
441.57	3215.90
441.75	3192.49
441.94	3248.66
442.12	3269.73
442.31	3258.03
442.50	3447.61
442.68	3197.17
442.87	3213.56
443.05	3372.71
443.24	3311.86
443.43	3330.58
443.61	3428.88
443.80	3414.84
443.98	3311.86
444.17	3321.22
444.35	3454.63
444.54	3288.45
444.73	3377.39
444.91	3363.35
445.10	3365.69
445.28	3286.11
445.47	3440.59
445.65	3384.41
445.84	3461.65
446.02	3503.78
446.21	3421.86
446.39	3391.44
446.58	3559.95
446.77	3424.20
446.95	3398.46
447.14	3463.99
447.32	3435.91
447.51	3513.14
447.69	3382.07
447.88	3438.25
448.06	3534.21
448.25	3382.07
448.43	3459.31
448.62	3377.39
448.80	3393.78
448.99	3651.24
449.17	3520.17
449.36	3578.68
449.54	3693.37
449.73	3679.32
449.91	3705.07
450.10	3791.67
450.28	3772.94
450.46	3644.21
450.65	3737.84
450.83	3817.41
451.02	3737.84
451.20	3971.89
451.39	3684.00
451.57	3796.35
451.76	3667.62
451.94	3726.13
452.13	3896.99
452.31	3854.86
452.49	3721.45
452.68	3871.25
452.86	3749.54
453.05	3894.65
453.23	3882.95
453.42	3925.08
453.60	3943.80
453.78	3976.57
453.97	3784.65
454.15	3845.50
454.34	3857.20
454.52	3925.08
454.70	4004.66
454.89	4051.47
455.07	4032.74
455.26	3957.85
455.44	4086.58
455.62	4208.28
455.81	4091.26
455.99	4018.70
456.17	4051.47
456.36	4250.41
456.54	4112.32
456.73	4184.88
456.91	4329.99
457.09	4301.90
457.28	4414.25
457.46	4301.90
457.64	4383.82
457.83	4393.19
458.01	4297.22
458.19	4329.99
458.38	4437.66
458.56	4423.61
458.74	4463.40
458.93	4386.16
459.11	4479.79
459.29	4430.63
459.48	4585.11
459.66	4390.84
459.84	4592.13
460.03	4514.89
460.21	4432.97
460.39	4599.15
460.57	4482.13
460.76	4594.47
460.94	4697.46
461.12	4554.68
461.31	4683.41
461.49	4472.76
461.67	4601.49
461.85	4718.52
462.04	4573.41
462.22	4952.57
462.40	4748.95
462.59	4774.69
462.77	4720.86
462.95	4706.82
463.13	4809.80
463.32	4940.87
463.50	4795.76
463.68	4858.95
463.86	4903.42
464.05	4823.84
464.23	4837.89
464.41	4990.02
464.59	4786.40
464.78	4889.38
464.96	5057.90
465.14	4929.17
465.32	4945.55
465.50	4985.34
465.69	4924.49
465.87	4940.87
466.05	5027.47
466.23	5036.83
466.41	5057.90
466.60	5095.35
466.78	5069.60
466.96	4950.23
467.14	5004.07
467.32	5088.32
467.51	5301.31
467.69	5039.17
467.87	5165.56
468.05	4999.38
468.23	5111.73
468.41	5137.48
468.60	5231.10
468.78	5193.65
468.96	5210.03
469.14	5177.26
469.32	5277.91
469.50	5081.30
469.69	5334.08
469.87	5247.48
470.05	5526.00
470.23	5493.24
470.41	5366.85
470.59	5495.58
470.77	5467.49
470.95	5284.93
471.14	5582.18
471.32	5364.51
471.50	5558.77
471.68	5504.94
471.86	5558.77
472.04	5589.20
472.22	5715.59
472.40	5591.54
472.58	5748.36
472.77	5715.59
472.95	5680.48
473.13	5788.14
473.31	5521.32
473.49	5839.64
473.67	5713.25
473.85	5895.81
474.03	5872.40
474.21	5898.15
474.39	6071.35
474.57	6078.37
474.75	6153.27
474.93	5994.11
475.12	6019.86
475.30	6038.58
475.48	6296.04
475.66	6443.49
475.84	6356.90
476.02	6204.76
476.20	6274.98
476.38	6513.71
476.56	6483.28
476.74	6586.27
476.92	6476.26
477.10	6609.67
477.28	6623.72
477.46	6520.73
477.64	6637.76
477.82	6752.45
478.00	6988.84
478.18	6904.58
478.36	6846.07
478.54	7056.72
478.72	6937.35
478.90	7070.76
479.08	7068.42
479.26	7265.02
479.44	7206.51
479.62	7417.16
479.80	7405.46
479.98	7279.07
480.16	7559.93
480.34	7754.19
480.52	7508.44
480.70	7595.04
480.88	7852.50
481.06	7747.17
481.24	7672.28
481.41	7768.24
481.59	8074.85
481.77	7943.78
481.95	8056.12
482.13	8219.96
482.31	8145.06
482.49	8182.51
482.67	8189.53
482.85	8292.52
483.03	8514.87
483.21	8554.66
483.39	8442.31
483.57	8521.89
483.74	8580.40
483.92	8765.31
484.10	8791.05
484.28	8767.65
484.46	9137.45
484.64	8992.34
484.82	9202.99
485.00	9018.08
485.18	9198.31
485.35	9200.65
485.53	9460.45
485.71	9324.69
485.89	9544.70
486.07	9554.07
486.25	9577.47
486.43	9652.37
486.61	9568.11
486.78	9661.73
486.96	9937.91
487.14	10200.05
487.32	9937.91
487.50	10251.55
487.68	10237.50
487.85	10340.49
488.03	10431.77
488.21	10422.41
488.39	10445.81
488.57	10661.14
488.75	10576.88
488.92	10820.30
489.10	10820.30
489.28	10892.85
489.46	11171.38
489.64	10979.45
489.81	11187.76
489.99	11286.06
490.17	11499.05
490.35	11496.71
490.53	11573.95
490.70	11583.31
490.88	11590.33
491.06	11815.02
491.24	11637.14
491.41	11772.89
491.59	11922.69
491.77	12042.06
491.95	12039.72
492.13	12006.95
492.30	12224.62
492.48	12423.56
492.66	12313.56
492.84	12313.56
493.01	12386.12
493.19	12517.18
493.37	12781.67
493.54	12748.90
493.72	12945.50
493.90	12657.62
494.08	13018.06
494.25	12950.18
494.43	13034.44
494.61	13135.09
494.79	13193.60
494.96	13151.47
495.14	13507.23
495.32	13490.85
495.49	13811.50
495.67	13640.64
495.85	13682.77
496.02	13645.32
496.20	13888.74
496.38	13701.50
496.55	13940.23
496.73	14359.19
496.91	13898.10
497.09	14176.62
497.26	14347.48
497.44	14202.37
497.62	14237.48
497.79	14504.30
497.97	14394.29
498.14	14656.43
498.32	14696.22
498.50	14661.12
498.67	15014.54
498.85	15068.37
499.03	14888.15
499.20	15051.99
499.38	15136.24
499.56	15192.42
499.73	15169.01
499.91	15321.15
500.08	15297.74
500.26	15297.74
500.44	15410.09
500.61	15456.90
500.79	15707.34
500.97	15747.12
501.14	15796.28
501.32	15719.04
501.49	15529.45
501.67	15768.19
501.84	15934.37
502.02	16013.95
502.20	16123.95
502.37	16140.33
502.55	15896.92
502.72	16210.55
502.90	16470.35
503.07	15726.06
503.25	16037.35
503.43	16320.56
503.60	16133.31
503.78	16751.21
503.95	16388.43
504.13	16468.01
504.30	16542.91
504.48	16524.18
504.65	16709.08
504.83	16870.58
505.01	17167.83
505.18	17177.19
505.36	17198.26
505.53	16849.52
505.71	17011.01
505.88	17352.73
506.06	16964.20
506.23	17275.49
506.41	17179.53
506.58	17270.81
506.76	17486.14
506.93	17315.28
507.11	17212.30
507.28	17338.69
507.46	17530.61
507.63	17731.90
507.81	17701.47
507.98	17673.39
508.16	17776.37
508.33	17500.19
508.50	17963.61
508.68	18122.77
508.85	18167.24
509.03	18408.31
509.20	17841.90
509.38	18551.09
509.55	18324.05
509.73	18427.04
509.90	18485.55
510.08	18401.29
510.25	18417.68
510.42	18698.54
510.60	18747.69
510.77	18721.95
510.95	18691.52
511.12	18829.61
511.30	18661.09
511.47	18831.95
511.64	18707.90
511.82	18923.23
511.99	18895.14
512.17	19035.58
512.34	19150.26
512.51	19180.69
512.69	18993.45
512.86	19026.21
513.04	18984.09
513.21	19267.29
513.38	19445.17
513.56	19662.84
513.73	19379.64
513.90	19337.51
514.08	19456.87
514.25	19552.84
514.43	19749.44
514.60	19559.86
514.77	19779.87
514.95	19826.68
515.12	19726.04
515.29	19461.55
515.47	19983.49
515.64	20091.16
515.81	20086.48
515.99	20491.39
516.16	20229.25
516.33	20278.40
516.51	20196.48
516.68	19957.75
516.85	19903.92
517.03	20226.91
517.20	20250.32
517.37	20580.33
517.54	20638.84
517.72	20802.68
517.89	20432.88
518.06	20369.68
518.24	20566.29
518.41	20542.88
518.58	20549.90
518.75	20741.83
518.93	21076.52
519.10	20418.83
519.27	20695.02
519.45	20549.90
519.62	20891.62
519.79	21060.14
519.96	21085.89
520.14	21240.36
520.31	21097.59
520.48	21102.27
520.65	21046.10
520.83	21184.19
521.00	21633.57
521.17	21135.04
521.34	21270.79
521.52	21305.90
521.69	21661.66
521.86	21586.76
522.03	21750.60
522.20	21762.30
522.38	21731.87
522.55	21778.68
522.72	21827.84
522.89	21942.52
523.07	22232.75
523.24	22010.40
523.41	21858.26
523.58	21898.05
523.75	22302.96
523.92	22127.42
524.10	21930.82
524.27	22192.96
524.44	22363.82
524.61	22377.86
524.78	22448.08
524.96	22541.70
525.13	22555.74
525.30	22338.07
525.47	22295.94
525.64	22504.25
525.81	22885.76
525.98	22696.17
526.16	22647.02
526.33	22525.32
526.50	22799.16
526.67	22822.56
526.84	22845.97
527.01	22834.27
527.18	22806.18
527.36	22930.23
527.53	23117.47
527.70	23269.61
527.87	23082.36
528.04	22852.99
528.21	23330.46
528.38	23157.26
528.55	23042.57
528.72	23115.13
528.89	23620.69
529.07	23208.75
529.24	23374.93
529.41	23414.72
529.58	23508.34
529.75	23208.75
529.92	23475.57
530.09	23379.61
530.26	23403.02
530.43	23578.56
530.60	23433.44
530.77	23929.64
530.94	23594.94
531.11	23833.68
531.28	23613.66
531.46	23716.65
531.63	23892.19
531.80	24114.54
531.97	24074.75
532.14	23765.80
532.31	23941.34
532.48	24065.39
532.65	24219.86
532.82	24191.78
532.99	24112.20
533.16	23828.99
533.33	24154.33
533.50	24341.57
533.67	24582.65
533.84	24252.63
534.01	24060.71
534.18	24290.08
534.35	24526.47
534.52	24243.27
534.69	24957.13
534.86	24624.78
535.03	24196.46
535.20	24723.08
535.37	24456.26
535.54	24622.44
535.71	24435.19
535.88	24999.26
536.05	24898.62
536.22	24788.61
536.38	24802.66
536.55	25006.28
536.72	24837.76
536.89	24767.55
537.06	24917.34
537.23	24828.40
537.40	24903.30
537.57	24957.13
537.74	25151.40
537.91	25205.23
538.08	25261.40
538.25	25001.60
538.42	25020.33
538.59	25118.63
538.75	25172.46
538.92	25163.10
539.09	25397.15
539.26	25207.57
539.43	25233.32
539.60	25369.07
539.77	25383.11
539.94	25495.46
540.11	24947.77
540.28	25668.66
540.44	25420.56
540.61	25207.57
540.78	25745.89
540.95	25530.56
541.12	25261.40
541.29	25685.04
541.46	25773.98
541.62	25748.23
541.79	25511.84
541.96	25371.41
542.13	25661.63
542.30	25773.98
542.47	25860.58
542.63	25891.01
542.80	26008.03
542.97	26134.42
543.14	25996.33
543.31	26293.58
543.48	26312.30
543.64	26389.54
543.81	26122.72
543.98	26544.02
544.15	26415.29
544.32	26551.04
544.48	26618.91
544.65	26185.91
544.82	26228.04
544.99	26239.75
545.16	26403.58
545.32	26672.74
545.49	26806.16
545.66	26632.96
545.83	26602.53
546.00	26806.16
546.16	26464.44
546.33	26328.69
546.50	26590.83
546.67	26719.56
546.83	26405.92
547.00	26759.34
547.17	26735.94
547.34	26785.09
547.50	27187.66
547.67	26810.84
547.84	26906.80
548.00	26946.59
548.17	27311.71
548.34	26752.32
548.51	27498.95
548.67	27222.77
548.84	27180.64
549.01	27328.10
549.18	27239.15
549.34	27440.44
549.51	27068.30
549.68	27297.67
549.84	27098.72
550.01	27335.12
550.18	27250.86
550.34	27388.95
550.51	27627.68
550.68	27480.23
550.84	27182.98
551.01	27667.47
551.18	27606.62
551.34	27131.49
551.51	27349.16
551.68	27749.39
551.84	27655.77
552.01	27515.34
552.18	27651.09
552.34	27817.27
552.51	27716.62
552.68	27498.95
552.84	27807.90
553.01	27948.34
553.18	27854.72
553.34	27674.49
553.51	27400.65
553.67	27974.08
553.84	28290.06
554.01	28245.58
554.17	28086.43
554.34	27859.40
554.51	28070.04
554.67	27796.20
554.84	28137.92
555.00	27793.86
555.17	28173.03
555.33	28086.43
555.50	28070.04
555.67	28549.85
555.83	28137.92
556.00	28231.54
556.16	28320.48
556.33	28453.89
556.50	28212.82
556.66	28540.49
556.83	27866.42
556.99	28418.78
557.16	28208.14
557.32	28631.77
557.49	28709.01
557.65	28203.46
557.82	28245.58
557.98	28402.40
558.15	28252.61
558.32	28383.68
558.48	28416.44
558.65	28606.03
558.81	28266.65
558.98	28402.40
559.14	28371.97
559.31	28339.21
559.47	28481.98
559.64	28484.32
559.80	28407.08
559.97	28484.32
560.13	28456.23
560.30	29027.32
560.46	28802.63
560.63	28334.53
560.79	28823.70
560.96	29064.77
561.12	28746.46
561.29	28243.24
561.45	28400.06
561.61	29118.60
561.78	28783.91
561.94	28755.82
562.11	29024.98
562.27	28687.95
562.44	29085.84
562.60	28423.47
562.77	28753.48
562.93	28701.99
563.10	28877.53
563.26	28704.33
563.42	28662.20
563.59	28863.49
563.75	29001.58
563.92	29415.85
564.08	28849.44
564.24	28912.64
564.41	28954.77
564.57	29418.19
564.74	28802.63
564.90	29369.04
565.07	29230.95
565.23	29530.54
565.39	29104.56
565.56	28947.75
565.72	29179.46
565.88	28685.61
566.05	28458.57
566.21	29273.08
566.38	28992.22
566.54	28865.83
566.70	29282.44
566.87	29120.95
567.03	29315.21
567.19	29366.70
567.36	28863.49
567.52	29411.17
567.68	29333.93
567.85	29233.29
568.01	29142.01
568.17	29034.35
568.34	29420.53
568.50	29010.94
568.66	29181.80
568.83	29610.12
568.99	29230.95
569.15	29266.06
569.32	29010.94
569.48	29263.72
569.64	29308.19
569.81	29544.58
569.97	28945.41
570.13	29219.25
570.30	29322.23
570.46	29544.58
570.62	29270.74
570.78	29411.17
570.95	29355.00
571.11	29359.68
571.27	29287.12
571.43	29434.58
571.60	29385.43
571.76	29209.89
571.92	29610.12
572.09	29549.26
572.25	29502.45
572.41	29418.19
572.57	29483.73
572.74	29816.08
572.90	29579.69
573.06	28924.34
573.22	29514.16
573.38	29249.67
573.55	29174.78
573.71	29738.85
573.87	29968.22
574.03	29530.54
574.20	29708.42
574.36	29619.48
574.52	29455.64
574.68	29338.62
574.84	29507.13
575.01	29937.79
575.17	29649.91
575.33	29668.63
575.49	29830.13
575.65	29799.70
575.82	29556.28
575.98	29762.25
576.14	29579.69
576.30	29752.89
576.46	29497.77
576.62	29490.75
576.79	29549.26
576.95	29802.04
577.11	29944.81
577.27	29869.92
577.43	29916.73
577.59	29795.02
577.75	29759.91
577.92	29310.53
578.08	29869.92
578.24	29317.55
578.40	29919.07
578.56	29731.83
578.72	29624.16
578.88	29905.02
579.04	30122.69
579.21	29656.93
579.37	29572.67
579.53	29575.01
579.69	29418.19
579.85	29467.34
580.01	30015.03
580.17	29301.17
580.33	29663.95
580.49	29869.92
580.65	29570.33
580.82	29516.50
580.98	29579.69
581.14	29596.07
581.30	29799.70
581.46	29462.66
581.62	29603.10
581.78	29563.31
581.94	30029.07
582.10	29738.85
582.26	29685.01
582.42	30139.08
582.58	29837.15
582.74	30005.67
582.90	30284.19
583.06	29975.24
583.22	29724.80
583.38	29769.27
583.54	29881.62
583.70	29383.09
583.86	29420.53
584.02	29582.03
584.18	29851.19
584.34	30017.37
584.50	30197.59
584.66	30031.41
584.82	29879.28
584.98	29773.95
585.14	29572.67
585.30	29289.46
585.46	29481.39
585.62	29696.72
585.78	29867.58
585.94	29612.46
586.10	29713.10
586.26	30389.52
586.42	29912.05
586.58	30162.48
586.74	29783.32
586.90	29736.51
587.06	29560.97
587.22	29830.13
587.38	30110.99
587.54	29989.28
587.70	30260.79
587.86	29933.11
588.02	30314.62
588.18	30249.08
588.34	29893.32
588.49	30012.69
588.65	29837.15
588.81	30000.99
588.97	30312.28
589.13	29755.23
589.29	30108.65
589.45	30129.72
589.61	29743.53
589.77	30305.26
589.93	30331.00
590.08	30066.52
590.24	30363.77
590.40	30508.88
590.56	30221.00
590.72	30312.28
590.88	29926.09
591.04	30464.41
591.20	29989.28
591.35	30457.39
591.51	30583.78
591.67	30244.40
591.83	30382.49
591.99	30405.90
