SpectraSuite Data File
++++++++++++++++++++++++++++++++++++
Date: Fri Oct 18 13:57:55 GMT-05:00 2013
User: bianchi
Dark Spectrum Present: No
Reference Spectrum Present: No
Number of Sampled Component Spectra: 1
Spectrometers: USB2+H05261
Integration Time (usec): 50000 (USB2+H05261)
Spectra Averaged: 1 (USB2+H05261)
Boxcar Smoothing: 0 (USB2+H05261)
Correct for Electrical Dark: No (USB2+H05261)
Strobe/Lamp Enabled: No (USB2+H05261)
Correct for Detector Non-linearity: No (USB2+H05261)
Correct for Stray Light: No (USB2+H05261)
Number of Pixels in Processed Spectrum: 2048
>>>>>Begin Processed Spectral Data<<<<<
365.73	0.00
365.92	0.00
366.12	0.00
366.32	0.00
366.52	0.00
366.72	0.00
366.91	0.00
367.11	0.00
367.31	0.00
367.51	0.00
367.70	0.00
367.90	0.00
368.10	0.00
368.30	0.00
368.49	0.00
368.69	0.00
368.89	0.00
369.09	0.00
369.28	0.00
369.48	0.00
369.68	0.00
369.87	0.00
370.07	0.00
370.27	0.00
370.47	0.00
370.66	79.58
370.86	60.85
371.06	102.98
371.25	72.56
371.45	88.94
371.65	133.41
371.84	93.62
372.04	79.58
372.24	170.86
372.44	191.92
372.63	131.07
372.83	238.73
373.03	205.97
373.22	198.95
373.42	196.60
373.62	304.27
373.81	313.63
374.01	196.60
374.21	245.76
374.40	187.24
374.60	182.56
374.79	229.37
374.99	234.05
375.19	196.60
375.38	241.08
375.58	250.44
375.78	280.86
375.97	234.05
376.17	283.20
376.37	248.10
376.56	191.92
376.76	243.42
376.95	238.73
377.15	334.70
377.35	376.83
377.54	255.12
377.74	278.52
377.93	262.14
378.13	262.14
378.33	318.31
378.52	215.33
378.72	294.91
378.91	308.95
379.11	304.27
379.31	348.74
379.50	320.65
379.70	374.49
379.89	390.87
380.09	311.29
380.28	229.37
380.48	372.15
380.68	365.12
380.87	325.33
381.07	327.68
381.26	362.78
381.46	318.31
381.65	344.06
381.85	266.82
382.04	346.40
382.24	313.63
382.43	334.70
382.63	332.36
382.83	458.74
383.02	320.65
383.22	411.93
383.41	325.33
383.61	374.49
383.80	395.55
384.00	397.89
384.19	344.06
384.39	351.08
384.58	388.53
384.78	351.08
384.97	414.27
385.17	456.40
385.36	433.00
385.56	360.44
385.75	332.36
385.95	393.21
386.14	411.93
386.34	379.17
386.53	451.72
386.72	374.49
386.92	414.27
387.11	447.04
387.31	500.87
387.50	479.81
387.70	465.77
387.89	397.89
388.09	486.83
388.28	475.13
388.48	440.02
388.67	442.36
388.86	470.45
389.06	477.47
389.25	507.90
389.45	496.19
389.64	486.83
389.84	454.06
390.03	475.13
390.22	568.75
390.42	463.43
390.61	540.66
390.81	423.64
391.00	500.87
391.19	535.98
391.39	528.96
391.58	526.62
391.78	538.32
391.97	561.73
392.16	568.75
392.36	475.13
392.55	589.82
392.75	543.00
392.94	543.00
393.13	554.71
393.33	507.90
393.52	566.41
393.71	566.41
393.91	582.79
394.10	554.71
394.29	545.34
394.49	552.37
394.68	674.07
394.88	631.94
395.07	631.94
395.26	554.71
395.46	674.07
395.65	664.71
395.84	688.12
396.04	746.63
396.23	650.67
396.42	634.29
396.62	681.10
396.81	711.52
397.00	641.31
397.19	601.52
397.39	669.39
397.58	613.22
397.77	624.92
397.97	765.36
398.16	763.01
398.35	777.06
398.55	636.63
398.74	737.27
398.93	770.04
399.12	758.33
399.32	716.20
399.51	692.80
399.70	704.50
399.90	781.74
400.09	809.83
400.28	844.93
400.47	758.33
400.67	842.59
400.86	861.32
401.05	828.55
401.24	821.53
401.44	802.80
401.63	898.77
401.82	854.30
402.01	882.38
402.21	772.38
402.40	866.00
402.59	887.06
402.78	805.14
402.97	812.17
403.17	908.13
403.36	809.83
403.55	844.93
403.74	950.26
403.93	961.96
404.13	952.60
404.32	959.62
404.51	931.53
404.70	961.96
404.89	1069.62
405.09	994.73
405.28	1041.54
405.47	912.81
405.66	1004.09
405.85	1015.79
406.05	952.60
406.24	1034.52
406.43	985.37
406.62	990.05
406.81	987.71
407.00	957.28
407.20	1029.84
407.39	994.73
407.58	1055.58
407.77	1076.65
407.96	1125.80
408.15	1128.14
408.34	1118.78
408.54	1200.69
408.73	1062.60
408.92	1093.03
409.11	1053.24
409.30	1102.39
409.49	1256.87
409.68	1151.54
409.87	1076.65
410.07	1217.08
410.26	1198.35
410.45	1252.19
410.64	1226.44
410.83	1184.31
411.02	1273.25
411.21	1228.78
411.40	1294.32
411.59	1401.98
411.78	1287.29
411.98	1207.72
412.17	1306.02
412.36	1446.45
412.55	1451.13
412.74	1453.47
412.93	1472.20
413.12	1373.89
413.31	1472.20
413.50	1387.94
413.69	1376.24
413.88	1483.90
414.07	1458.15
414.26	1427.73
414.45	1467.52
414.64	1439.43
414.83	1476.88
415.02	1542.41
415.22	1544.75
415.41	1636.03
415.60	1666.46
415.79	1624.33
415.98	1586.88
416.17	1600.93
416.36	1636.03
416.55	1685.19
416.74	1657.10
416.93	1633.69
417.12	1610.29
417.31	1600.93
417.50	1760.08
417.69	1785.83
417.88	1844.34
418.07	1865.41
418.26	1802.21
418.45	1858.39
418.64	1914.56
418.83	1846.68
419.02	1746.04
419.21	1856.04
419.39	1858.39
419.58	1842.00
419.77	1802.21
419.96	1902.86
420.15	1837.32
420.34	1935.62
420.53	1902.86
420.72	2017.54
420.91	1980.09
421.10	2101.80
421.29	1980.09
421.48	1975.41
421.67	2010.52
421.86	1996.48
422.05	2017.54
422.24	2036.27
422.43	2033.93
422.61	1980.09
422.80	2031.58
422.99	2045.63
423.18	2101.80
423.37	2069.03
423.56	2045.63
423.75	2003.50
423.94	2080.74
424.13	1970.73
424.32	2026.90
424.50	2134.57
424.69	2150.95
424.88	2120.53
425.07	2085.42
425.26	2132.23
425.45	2047.97
425.64	2150.95
425.83	2050.31
426.01	2134.57
426.20	2085.42
426.39	2195.42
426.58	2071.37
426.77	2132.23
426.96	2122.87
427.15	2284.36
427.33	2218.83
427.52	2148.61
427.71	2289.04
427.90	2239.89
428.09	2331.17
428.28	2284.36
428.46	2242.23
428.65	2195.42
428.84	2218.83
429.03	2333.51
429.22	2258.62
429.40	2361.60
429.59	2352.24
429.78	2230.53
429.97	2356.92
430.16	2352.24
430.34	2403.73
430.53	2335.85
430.72	2352.24
430.91	2321.81
431.10	2312.45
431.28	2438.84
431.47	2462.24
431.66	2509.05
431.85	2403.73
432.03	2527.78
432.22	2370.96
432.41	2459.90
432.60	2619.06
432.79	2497.35
432.97	2586.29
433.16	2602.68
433.35	2590.97
433.54	2569.91
433.72	2605.02
433.91	2605.02
434.10	2635.44
434.28	2600.34
434.47	2600.34
434.66	2684.59
434.85	2623.74
435.03	2616.72
435.22	2691.62
435.41	2717.36
435.59	2682.25
435.78	2717.36
435.97	2750.13
436.16	2712.68
436.34	2698.64
436.53	2733.75
436.72	2855.45
436.90	2747.79
437.09	2867.16
437.28	2745.45
437.46	2743.11
437.65	2897.58
437.84	2846.09
438.02	2810.98
438.21	2942.05
438.40	2792.26
438.58	2977.16
438.77	2918.65
438.96	2920.99
439.14	3096.53
439.33	3023.97
439.52	2942.05
439.70	3061.42
439.89	3108.23
440.08	3054.40
440.26	3166.74
440.45	3173.77
440.63	3183.13
440.82	3105.89
441.01	3201.85
441.19	3300.16
441.38	3318.88
441.57	3372.71
441.75	3314.20
441.94	3370.37
442.12	3293.13
442.31	3440.59
442.50	3410.16
442.68	3286.11
442.87	3520.17
443.05	3463.99
443.24	3412.50
443.43	3417.18
443.61	3410.16
443.80	3609.11
443.98	3461.65
444.17	3267.39
444.35	3478.04
444.54	3496.76
444.73	3597.40
444.91	3494.42
445.10	3538.89
445.28	3571.66
445.47	3524.85
445.65	3599.74
445.84	3548.25
446.02	3566.98
446.21	3459.31
446.39	3503.78
446.58	3627.83
446.77	3681.66
446.95	3562.30
447.14	3552.93
447.32	3674.64
447.51	3641.87
447.69	3461.65
447.88	3660.60
448.06	3515.48
448.25	3585.70
448.43	3641.87
448.62	3527.19
448.80	3644.21
448.99	3655.92
449.17	3777.62
449.36	3672.30
449.54	3672.30
449.73	3801.03
449.91	3824.44
450.10	3831.46
450.28	3854.86
450.46	3997.64
450.65	3868.91
450.83	3840.82
451.02	3948.48
451.20	4009.34
451.39	3866.56
451.57	3747.20
451.76	3847.84
451.94	3798.69
452.13	4063.17
452.31	3831.46
452.49	3932.10
452.68	3887.63
452.86	3915.72
453.05	4145.09
453.23	4217.65
453.42	3988.27
453.60	4032.74
453.78	4016.36
453.97	3950.82
454.15	4131.05
454.34	4053.81
454.52	4196.58
454.70	4163.81
454.89	4210.62
455.07	4187.22
455.26	4067.85
455.44	4273.82
455.62	4259.78
455.81	4126.36
455.99	4280.84
456.17	4285.52
456.36	4252.75
456.54	4203.60
456.73	4346.37
456.91	4444.68
457.09	4430.63
457.28	4580.43
457.46	4416.59
457.64	4393.19
457.83	4367.44
458.01	4306.59
458.19	4589.79
458.38	4442.34
458.56	4599.15
458.74	4578.09
458.93	4554.68
459.11	4440.00
459.29	4550.00
459.48	4601.49
459.66	4479.79
459.84	4636.60
460.03	4634.26
460.21	4585.11
460.39	4636.60
460.57	4641.28
460.76	4720.86
460.94	4702.14
461.12	4842.57
461.31	4624.90
461.49	4631.92
461.67	4809.80
461.85	4779.37
462.04	4793.42
462.22	5060.24
462.40	4943.21
462.59	4844.91
462.77	4847.25
462.95	5076.62
463.13	4947.89
463.32	4947.89
463.50	4802.78
463.68	5062.58
463.86	5057.90
464.05	4905.76
464.23	5006.41
464.41	4957.25
464.59	4945.55
464.78	5081.30
464.96	4964.28
465.14	4791.08
465.32	5008.75
465.50	5149.18
465.69	5235.78
465.87	5050.88
466.05	5125.77
466.23	5167.90
466.41	5203.01
466.60	5315.36
466.78	5111.73
466.96	5160.88
467.14	5177.26
467.32	5270.89
467.51	5366.85
467.69	5048.54
467.87	5165.56
468.05	5289.61
468.23	5338.76
468.41	5224.08
468.60	5165.56
468.78	5174.92
468.96	5252.16
469.14	5423.02
469.32	5387.91
469.50	5416.00
469.69	5535.37
469.87	5444.09
470.05	5554.09
470.23	5408.98
470.41	5451.11
470.59	5624.31
470.77	5582.18
470.95	5631.33
471.14	5694.52
471.32	5514.30
471.50	5671.12
471.68	5783.46
471.86	5769.42
472.04	5703.89
472.22	5973.05
472.40	5713.25
472.58	5813.89
472.77	5863.04
472.95	5849.00
473.13	6132.20
473.31	5991.77
473.49	5980.07
473.67	6033.90
473.85	5982.41
474.03	6106.46
474.21	6047.94
474.39	6368.60
474.57	6274.98
474.75	6188.38
474.93	6366.26
475.12	6274.98
475.30	6523.07
475.48	6326.47
475.66	6487.96
475.84	6366.26
476.02	6544.14
476.20	6443.49
476.38	6684.57
476.56	6642.44
476.74	6923.30
476.92	6693.93
477.10	6628.40
477.28	6925.65
477.46	6707.98
477.64	7122.25
477.82	7103.53
478.00	7206.51
478.18	7133.95
478.36	7162.04
478.54	7208.85
478.72	7267.36
478.90	7215.87
479.08	7424.18
479.26	7531.84
479.44	7548.23
479.62	7349.28
479.80	7676.96
479.98	7627.81
480.16	7756.54
480.34	7552.91
480.52	7887.61
480.70	7822.07
480.88	7793.98
481.06	7873.56
481.24	7779.94
481.41	8039.74
481.59	8131.02
481.77	8376.78
481.95	8262.09
482.13	8430.61
482.31	8292.52
482.49	8421.25
482.67	8545.30
482.85	8662.32
483.03	8798.07
483.21	8734.88
483.39	8802.75
483.57	8863.61
483.74	8884.67
483.92	9186.60
484.10	9050.85
484.28	9039.15
484.46	9291.93
484.64	9415.98
484.82	9219.37
485.00	9490.87
485.18	9633.64
485.35	9731.95
485.53	9607.90
485.71	9652.37
485.89	9982.38
486.07	9837.27
486.25	9659.39
486.43	9916.85
486.61	10061.96
486.78	9987.07
486.96	10136.86
487.14	10328.78
487.32	10270.27
487.50	10293.68
487.68	10567.52
487.85	10576.88
488.03	10656.46
488.21	10759.44
488.39	10768.80
488.57	10878.81
488.75	10906.90
488.92	11070.73
489.10	11220.53
489.28	11197.12
489.46	11300.11
489.64	11438.20
489.81	11674.59
489.99	11421.81
490.17	11492.03
490.35	11838.43
490.53	11637.14
490.70	12013.97
490.88	11793.96
491.06	11800.98
491.24	12114.61
491.41	12231.64
491.59	12262.07
491.77	12329.94
491.95	12397.82
492.13	12556.97
492.30	12432.93
492.48	12610.81
492.66	12636.55
492.84	12608.47
493.01	12989.97
493.19	13001.68
493.37	13226.37
493.54	12982.95
493.72	13458.08
493.90	13165.51
494.08	13490.85
494.25	13118.70
494.43	13755.33
494.61	13537.66
494.79	13919.17
494.96	13628.94
495.14	13710.86
495.32	13965.98
495.49	13832.57
495.67	14258.54
495.85	14246.84
496.02	14546.43
496.20	14237.48
496.38	14359.19
496.55	14354.51
496.73	14771.12
496.91	14682.18
497.09	14480.89
497.26	14649.41
497.44	14883.47
497.62	14923.26
497.79	14878.79
497.97	15000.49
498.14	15286.04
498.32	15365.62
498.50	15129.22
498.67	15257.95
498.85	15286.04
499.03	15618.39
499.20	15349.23
499.38	15379.66
499.56	15765.85
499.73	15779.89
499.91	15929.69
500.08	15908.62
500.26	15932.03
500.44	15723.72
500.61	15873.51
500.79	15988.20
500.97	16245.66
501.14	16339.28
501.32	16709.08
501.49	16191.83
501.67	16381.41
501.84	16430.56
502.02	16519.50
502.20	16908.03
502.37	16788.66
502.55	16861.22
502.72	16585.04
502.90	16861.22
503.07	16751.21
503.25	16865.90
503.43	16791.00
503.60	16992.29
503.78	17160.81
503.95	17135.06
504.13	17125.70
504.30	17231.02
504.48	17214.64
504.65	17432.31
504.83	17097.61
505.01	17584.44
505.18	17331.67
505.36	17933.18
505.53	17572.74
505.71	17626.57
505.88	17972.97
506.06	17460.40
506.23	17916.80
506.41	17399.54
506.58	17720.20
506.76	17937.87
506.93	17874.67
507.11	17860.63
507.28	18176.60
507.46	18242.14
507.63	18237.45
507.81	18382.57
507.98	18209.37
508.16	18246.82
508.33	18452.78
508.50	18677.48
508.68	18523.00
508.85	18607.26
509.03	18466.83
509.20	18740.67
509.38	18836.63
509.55	18972.38
509.73	18754.71
509.90	18939.62
510.08	18803.86
510.25	18841.31
510.42	19115.16
510.60	19108.13
510.77	19171.33
510.95	19349.21
511.12	19124.52
511.30	19323.46
511.47	19318.78
511.64	19414.74
511.82	19742.42
511.99	19510.71
512.17	19744.76
512.34	19784.55
512.51	19770.51
512.69	19929.66
512.86	19578.58
513.04	19969.45
513.21	19791.57
513.38	20051.37
513.56	20175.42
513.73	20058.39
513.90	20341.60
514.08	20226.91
514.25	20182.44
514.43	20395.43
514.60	20327.55
514.77	20376.70
514.95	20563.95
515.12	20512.46
515.29	20432.88
515.47	20449.26
515.64	20828.43
515.81	20512.46
515.99	20636.50
516.16	20879.92
516.33	20760.55
516.51	21071.84
516.68	20664.59
516.85	20805.02
517.03	20891.62
517.20	21167.80
517.37	21008.65
517.54	21214.62
517.72	21245.04
517.89	21003.97
518.06	21205.25
518.24	21357.39
518.41	21378.45
518.58	21483.78
518.75	21568.04
518.93	21427.60
519.10	21425.26
519.27	21895.71
519.45	21584.42
519.62	21743.58
519.79	22061.89
519.96	21717.83
520.14	21848.90
520.31	21986.99
520.48	22059.55
520.65	22010.40
520.83	22211.68
521.00	22015.08
521.17	22078.27
521.34	22038.48
521.52	22204.66
521.69	21975.29
521.86	22412.97
522.03	22314.67
522.20	22380.20
522.38	22499.57
522.55	22394.25
522.72	22309.99
522.89	22574.47
523.07	22438.72
523.24	22621.28
523.41	22750.01
523.58	22487.87
523.75	22728.94
523.92	22640.00
524.10	22850.65
524.27	22862.35
524.44	23035.55
524.61	23122.15
524.78	23119.81
524.96	23166.62
525.13	23058.96
525.30	23241.52
525.47	23372.59
525.64	23461.53
525.81	23627.71
525.98	23580.90
526.16	23550.47
526.33	23290.67
526.50	23831.33
526.67	23131.51
526.84	23552.81
527.01	23321.10
527.18	23407.70
527.36	23892.19
527.53	23871.12
527.70	24196.46
527.87	24271.36
528.04	24250.29
528.21	23957.72
528.38	24194.12
528.55	24201.14
528.72	24046.66
528.89	24266.67
529.07	24039.64
529.24	24519.45
529.41	24240.93
529.58	24341.57
529.75	24264.33
529.92	24287.74
530.09	23974.11
530.26	24463.28
530.43	24465.62
530.60	24369.66
530.77	24217.52
530.94	24491.37
531.11	24301.78
531.28	24634.14
531.46	24554.56
531.63	24465.62
531.80	24973.52
531.97	25263.74
532.14	24807.34
532.31	25149.06
532.48	24807.34
532.65	24744.14
532.82	24893.94
532.99	24617.75
533.16	24943.09
533.33	24809.68
533.50	25266.08
533.67	25476.73
533.84	25245.02
534.01	25174.80
534.18	25177.14
534.35	25132.67
534.52	24877.55
534.69	25415.88
534.86	25287.15
535.03	25010.96
535.20	25462.69
535.37	25649.93
535.54	25848.88
535.71	25481.41
535.88	25436.94
536.05	25680.36
536.22	25867.60
536.38	25846.54
536.55	25703.76
536.72	25661.63
536.89	25846.54
537.06	25818.45
537.23	25453.33
537.40	26134.42
537.57	25841.85
537.74	25902.71
537.91	26347.41
538.08	26068.89
538.25	25951.86
538.42	26244.43
538.59	26085.27
538.75	26132.08
538.92	26424.65
539.09	26335.71
539.26	26232.72
539.43	26050.16
539.60	26424.65
539.77	26302.94
539.94	26628.27
540.11	26288.90
540.28	26405.92
540.44	26565.08
540.61	25986.97
540.78	26335.71
540.95	26946.59
541.12	26478.48
541.29	26841.26
541.46	26466.78
541.62	26829.56
541.79	26740.62
541.96	26356.77
542.13	26771.05
542.30	26632.96
542.47	26979.36
542.63	26817.86
542.80	26852.97
542.97	27143.19
543.14	27246.18
543.31	27042.55
543.48	27049.57
543.64	27140.85
543.81	27747.05
543.98	27367.88
544.15	27250.86
544.32	27346.82
544.48	27833.65
544.65	27466.19
544.82	27424.06
544.99	27784.50
545.16	27810.25
545.32	27489.59
545.49	27735.35
545.66	27835.99
545.83	28081.75
546.00	27623.00
546.16	27676.83
546.33	27292.99
546.50	27484.91
546.67	27969.40
546.83	27426.40
547.00	27845.35
547.17	27772.80
547.34	27730.67
547.50	27906.21
547.67	28133.24
547.84	28081.75
548.00	28041.96
548.17	28292.40
548.34	28224.52
548.51	28091.11
548.67	28039.62
548.84	28208.14
549.01	28105.15
549.18	28020.89
549.34	27976.42
549.51	27995.15
549.68	28327.50
549.84	28177.71
550.01	28304.10
550.18	28353.25
550.34	28259.63
550.51	28589.64
550.68	28694.97
550.84	28240.90
551.01	28563.90
551.18	28538.15
551.34	27971.74
551.51	28458.57
551.68	28582.62
551.84	28924.34
552.01	28680.92
552.18	28790.93
552.34	28346.23
552.51	28912.64
552.68	28458.57
552.84	28844.76
553.01	28709.01
553.18	28547.51
553.34	28648.16
553.51	29202.86
553.67	28535.81
553.84	29106.90
554.01	29177.12
554.17	28734.76
554.34	29027.32
554.51	28690.29
554.67	29207.55
554.84	28758.16
555.00	29142.01
555.17	28943.06
555.33	29146.69
555.50	29102.22
555.67	29029.66
555.83	28858.81
556.00	29097.54
556.16	29413.51
556.33	29193.50
556.50	29181.80
556.66	29558.63
556.83	29371.38
556.99	29097.54
557.16	29537.56
557.32	29605.44
557.49	29572.67
557.65	29516.50
557.82	29237.97
557.98	29408.83
558.15	29390.11
558.32	29207.55
558.48	29788.00
558.65	29881.62
558.81	29888.64
558.98	29734.17
559.14	29450.96
559.31	29593.73
559.47	29738.85
559.64	29645.23
559.80	29500.11
559.97	29528.20
560.13	29631.18
560.30	29745.87
560.46	29780.98
560.63	29809.06
560.79	29603.10
560.96	29858.21
561.12	29577.35
561.29	29837.15
561.45	29546.92
561.61	29912.05
561.78	29827.79
561.94	29453.30
562.11	29703.74
562.27	29872.26
562.44	29935.45
562.60	29972.90
562.77	29902.68
562.93	29582.03
563.10	30216.32
563.26	29790.34
563.42	30281.85
563.59	30197.59
563.75	29888.64
563.92	30143.76
564.08	29862.90
564.24	29954.18
564.41	29912.05
564.57	29991.62
564.74	30167.16
564.90	30181.21
565.07	30319.30
565.23	30340.36
565.39	30480.80
565.56	30529.95
565.72	29900.34
565.88	30188.23
566.05	30181.21
566.21	30174.19
566.38	30349.73
566.54	30586.12
566.70	30499.52
566.87	30492.50
567.03	30464.41
567.19	30218.66
567.36	30984.01
567.52	30281.85
567.68	30356.75
567.85	29633.52
568.01	30445.69
568.17	30398.88
568.34	30691.44
568.50	30288.87
568.66	30787.41
568.83	30609.53
568.99	30707.83
569.15	30106.31
569.32	30328.66
569.48	30160.14
569.64	30480.80
569.81	30560.37
569.97	30412.92
570.13	30497.18
570.30	30422.28
570.46	30913.80
570.62	30476.12
570.78	30469.09
570.95	30497.18
571.11	30536.97
571.27	30417.60
571.43	30618.89
571.60	31014.44
571.76	30691.44
571.92	30801.45
572.09	30295.89
572.25	30756.98
572.41	30487.82
572.57	30499.52
572.74	30525.27
572.90	30766.34
573.06	30061.84
573.22	30639.95
573.38	30419.94
573.55	30579.10
573.71	30675.06
573.87	30749.96
574.03	30684.42
574.20	30635.27
574.36	30553.35
574.52	30768.68
574.68	30319.30
574.84	30838.90
575.01	30595.48
575.17	30909.11
575.33	30576.76
575.49	30668.04
575.65	30843.58
575.82	31077.63
575.98	30796.77
576.14	30646.97
576.30	30621.23
576.46	30590.80
576.62	30684.42
576.79	30593.14
576.95	30740.60
577.11	31047.21
577.27	30686.76
577.43	30726.55
577.59	30792.09
577.75	30976.99
577.92	30787.41
578.08	30946.56
578.24	30642.29
578.40	30665.70
578.56	30883.37
578.72	30962.95
578.88	31192.32
579.04	31159.55
579.21	30768.68
579.37	31054.23
579.53	30752.30
579.69	30588.46
579.85	30792.09
580.01	30628.25
580.17	30553.35
580.33	30689.10
580.49	30796.77
580.65	30974.65
580.82	31147.85
580.98	30965.29
581.14	31098.70
581.30	31229.77
581.46	30986.35
581.62	30995.71
581.78	30419.94
581.94	31267.22
582.10	30714.85
582.26	30836.56
582.42	31225.09
582.58	31161.89
582.74	30995.71
582.90	31115.08
583.06	31005.08
583.22	31054.23
583.38	31007.42
583.54	31075.29
583.70	30899.75
583.86	31026.14
584.02	30707.83
584.18	31267.22
584.34	31119.76
584.50	31316.37
584.66	30946.56
584.82	30965.29
584.98	31082.31
585.14	30661.02
585.30	30944.22
585.46	31019.12
585.62	30995.71
585.78	31147.85
585.94	30431.65
586.10	31101.04
586.26	31009.76
586.42	31166.57
586.58	31262.54
586.74	31016.78
586.90	30897.41
587.06	31110.40
587.22	30993.37
587.38	31002.74
587.54	30724.21
587.70	31173.60
587.86	31213.38
588.02	31147.85
588.18	31182.96
588.34	31072.95
588.49	31208.70
588.65	31435.74
588.81	31178.28
588.97	31105.72
589.13	31131.47
589.29	30930.18
589.45	31548.08
589.61	31417.01
589.77	31484.89
589.93	31580.85
590.08	31342.11
590.24	31365.52
590.40	31737.66
590.56	31487.23
590.72	31260.20
590.88	31424.03
591.04	31484.89
591.20	31683.83
591.35	31606.59
591.51	31604.25
591.67	31456.80
591.83	32030.23
591.99	31489.57
