SpectraSuite Data File
++++++++++++++++++++++++++++++++++++
Date: Fri Oct 18 13:58:38 GMT-05:00 2013
User: bianchi
Dark Spectrum Present: No
Reference Spectrum Present: No
Number of Sampled Component Spectra: 1
Spectrometers: USB2+H05261
Integration Time (usec): 50000 (USB2+H05261)
Spectra Averaged: 1 (USB2+H05261)
Boxcar Smoothing: 0 (USB2+H05261)
Correct for Electrical Dark: No (USB2+H05261)
Strobe/Lamp Enabled: No (USB2+H05261)
Correct for Detector Non-linearity: No (USB2+H05261)
Correct for Stray Light: No (USB2+H05261)
Number of Pixels in Processed Spectrum: 2048
>>>>>Begin Processed Spectral Data<<<<<
365.73	0.00
365.92	0.00
366.12	0.00
366.32	0.00
366.52	0.00
366.72	0.00
366.91	0.00
367.11	0.00
367.31	0.00
367.51	0.00
367.70	0.00
367.90	0.00
368.10	0.00
368.30	0.00
368.49	0.00
368.69	0.00
368.89	0.00
369.09	0.00
369.28	0.00
369.48	0.00
369.68	0.00
369.87	0.00
370.07	0.00
370.27	0.00
370.47	0.00
370.66	131.07
370.86	79.58
371.06	163.84
371.25	128.73
371.45	196.60
371.65	173.20
371.84	117.03
372.04	140.43
372.24	131.07
372.44	220.01
372.63	231.71
372.83	194.26
373.03	170.86
373.22	159.16
373.42	187.24
373.62	180.22
373.81	243.42
374.01	285.55
374.21	238.73
374.40	215.33
374.60	208.31
374.79	236.39
374.99	367.46
375.19	330.02
375.38	299.59
375.58	224.69
375.78	285.55
375.97	189.58
376.17	294.91
376.37	273.84
376.56	320.65
376.76	252.78
376.95	245.76
377.15	334.70
377.35	245.76
377.54	269.16
377.74	257.46
377.93	175.54
378.13	311.29
378.33	285.55
378.52	301.93
378.72	304.27
378.91	276.18
379.11	252.78
379.31	250.44
379.50	290.23
379.70	358.10
379.89	358.10
380.09	318.31
380.28	308.95
380.48	264.48
380.68	283.20
380.87	414.27
381.07	320.65
381.26	353.42
381.46	337.04
381.65	348.74
381.85	365.12
382.04	327.68
382.24	322.99
382.43	318.31
382.63	297.25
382.83	358.10
383.02	341.72
383.22	313.63
383.41	397.89
383.61	358.10
383.80	355.76
384.00	376.83
384.19	330.02
384.39	362.78
384.58	372.15
384.78	362.78
384.97	311.29
385.17	381.51
385.36	381.51
385.56	388.53
385.75	332.36
385.95	505.56
386.14	416.62
386.34	362.78
386.53	379.17
386.72	390.87
386.92	421.30
387.11	320.65
387.31	409.59
387.50	388.53
387.70	397.89
387.89	351.08
388.09	351.08
388.28	451.72
388.48	468.11
388.67	381.51
388.86	503.22
389.06	397.89
389.25	449.38
389.45	477.47
389.64	437.68
389.84	411.93
390.03	550.03
390.22	437.68
390.42	435.34
390.61	465.77
390.81	444.70
391.00	498.53
391.19	479.81
391.39	491.51
391.58	533.64
391.78	486.83
391.97	627.26
392.16	498.53
392.36	514.92
392.55	566.41
392.75	475.13
392.94	594.50
393.13	528.96
393.33	498.53
393.52	496.19
393.71	545.34
393.91	599.18
394.10	526.62
394.29	568.75
394.49	585.13
394.68	512.58
394.88	561.73
395.07	540.66
395.26	535.98
395.46	587.47
395.65	643.65
395.84	638.97
396.04	690.46
396.23	655.35
396.42	662.37
396.62	695.14
396.81	662.37
397.00	674.07
397.19	671.73
397.39	744.29
397.58	669.39
397.77	676.41
397.97	617.90
398.16	676.41
398.35	671.73
398.55	631.94
398.74	662.37
398.93	786.42
399.12	730.25
399.32	592.16
399.51	697.48
399.70	634.29
399.90	685.78
400.09	702.16
400.28	718.54
400.47	823.87
400.67	830.89
400.86	802.80
401.05	861.32
401.24	837.91
401.44	741.95
401.63	833.23
401.82	786.42
402.01	840.25
402.21	805.14
402.40	847.27
402.59	821.53
402.78	873.02
402.97	812.17
403.17	873.02
403.36	898.77
403.55	819.19
403.74	898.77
403.93	877.70
404.13	905.79
404.32	926.85
404.51	868.34
404.70	884.72
404.89	903.45
405.09	952.60
405.28	976.00
405.47	901.11
405.66	1060.26
405.85	973.66
406.05	950.26
406.24	1029.84
406.43	964.30
406.62	1043.88
406.81	1163.25
407.00	976.00
407.20	938.55
407.39	1022.81
407.58	1029.84
407.77	1027.50
407.96	1083.67
408.15	1100.05
408.34	1095.37
408.54	1076.65
408.73	1104.73
408.92	994.73
409.11	1205.38
409.30	1090.69
409.49	1071.97
409.68	1158.57
409.87	1069.62
410.07	1198.35
410.26	1135.16
410.45	1078.99
410.64	1137.50
410.83	1165.59
411.02	1158.57
411.21	1212.40
411.40	1181.97
411.59	1247.51
411.78	1348.15
411.98	1289.64
412.17	1259.21
412.36	1273.25
412.55	1385.60
412.74	1320.06
412.93	1259.21
413.12	1249.85
413.31	1486.24
413.50	1334.11
413.69	1373.89
413.88	1364.53
414.07	1390.28
414.26	1392.62
414.45	1439.43
414.64	1434.75
414.83	1521.35
415.02	1549.43
415.22	1479.22
415.41	1533.05
415.60	1568.16
415.79	1537.73
415.98	1614.97
416.17	1682.85
416.36	1556.46
416.55	1572.84
416.74	1710.93
416.93	1680.50
417.12	1636.03
417.31	1668.80
417.50	1717.95
417.69	1785.83
417.88	1675.82
418.07	1739.02
418.26	1675.82
418.45	1753.06
418.64	1811.57
418.83	1781.15
419.02	1776.47
419.21	1827.96
419.39	1750.72
419.58	1767.10
419.77	1708.59
419.96	1846.68
420.15	1888.81
420.34	1886.47
420.53	1884.13
420.72	1926.26
420.91	1933.28
421.10	1900.52
421.29	1926.26
421.48	1893.49
421.67	1905.20
421.86	1961.37
422.05	1961.37
422.24	1863.07
422.43	1959.03
422.61	2092.44
422.80	1858.39
422.99	1987.11
423.18	1975.41
423.37	2008.18
423.56	2033.93
423.75	2043.29
423.94	1944.99
424.13	1926.26
424.32	1895.83
424.50	2005.84
424.69	2080.74
424.88	2005.84
425.07	2010.52
425.26	1877.11
425.45	2001.16
425.64	1860.73
425.83	2033.93
426.01	2120.53
426.20	2165.00
426.39	2017.54
426.58	2036.27
426.77	2169.68
426.96	2111.16
427.15	2087.76
427.33	2069.03
427.52	2157.97
427.71	2136.91
427.90	2115.84
428.09	2211.81
428.28	2157.97
428.46	2148.61
428.65	2113.50
428.84	2162.66
429.03	2230.53
429.22	2300.75
429.40	2291.38
429.59	2176.70
429.78	2104.14
429.97	2129.89
430.16	2155.63
430.34	2284.36
430.53	2450.54
430.72	2326.49
430.91	2260.96
431.10	2181.38
431.28	2345.22
431.47	2291.38
431.66	2368.62
431.85	2314.79
432.03	2375.64
432.22	2429.48
432.41	2413.09
432.60	2354.58
432.79	2326.49
432.97	2385.01
433.16	2530.12
433.35	2326.49
433.54	2485.65
433.72	2403.73
433.91	2572.25
434.10	2530.12
434.28	2422.45
434.47	2499.69
434.66	2525.44
434.85	2630.76
435.03	2588.63
435.22	2513.74
435.41	2686.94
435.59	2511.39
435.78	2626.08
435.97	2518.42
436.16	2644.81
436.34	2700.98
436.53	2602.68
436.72	2782.90
436.90	2745.45
437.09	2780.56
437.28	2572.25
437.46	2628.42
437.65	2686.94
437.84	2698.64
438.02	2757.15
438.21	2679.91
438.40	2740.77
438.58	2829.71
438.77	2918.65
438.96	2897.58
439.14	2827.37
439.33	2846.09
439.52	2953.76
439.70	2913.97
439.89	2935.03
440.08	3049.72
440.26	2913.97
440.45	3035.67
440.63	3124.62
440.82	3028.65
441.01	3066.10
441.19	3056.74
441.38	3124.62
441.57	3136.32
441.75	3211.22
441.94	3204.19
442.12	3253.34
442.31	3297.81
442.50	3323.56
442.68	3286.11
442.87	3365.69
443.05	3269.73
443.24	3190.15
443.43	3229.94
443.61	3246.32
443.80	3557.61
443.98	3431.23
444.17	3201.85
444.35	3410.16
444.54	3407.82
444.73	3269.73
444.91	3337.60
445.10	3389.10
445.28	3480.38
445.47	3398.46
445.65	3405.48
445.84	3480.38
446.02	3370.37
446.21	3386.76
446.39	3431.23
446.58	3485.06
446.77	3400.80
446.95	3438.25
447.14	3372.71
447.32	3445.27
447.51	3466.33
447.69	3471.01
447.88	3424.20
448.06	3475.70
448.25	3361.01
448.43	3461.65
448.62	3386.76
448.80	3433.57
448.99	3503.78
449.17	3648.90
449.36	3456.97
449.54	3513.14
449.73	3653.58
449.91	3735.50
450.10	3569.32
450.28	3754.22
450.46	3698.05
450.65	3758.90
450.83	3714.43
451.02	3714.43
451.20	3770.60
451.39	3786.99
451.57	3707.41
451.76	3672.30
451.94	3669.96
452.13	3728.47
452.31	3728.47
452.49	3721.45
452.68	3784.65
452.86	3779.97
453.05	3768.26
453.23	3976.57
453.42	3737.84
453.60	3796.35
453.78	3885.29
453.97	3763.58
454.15	3864.22
454.34	3896.99
454.52	3960.19
454.70	4042.11
454.89	3969.55
455.07	3974.23
455.26	3873.59
455.44	3985.93
455.62	4044.45
455.81	4060.83
455.99	3981.25
456.17	4252.75
456.36	4095.94
456.54	4135.73
456.73	4114.66
456.91	4231.69
457.09	4325.31
457.28	4266.80
457.46	4196.58
457.64	4208.28
457.83	4308.93
458.01	4355.74
458.19	4374.46
458.38	4212.96
458.56	4418.93
458.74	4252.75
458.93	4351.06
459.11	4273.82
459.29	4400.21
459.48	4395.53
459.66	4475.10
459.84	4329.99
460.03	4533.62
460.21	4500.85
460.39	4575.75
460.57	4465.74
460.76	4442.34
460.94	4507.87
461.12	4482.13
461.31	4641.28
461.49	4589.79
461.67	4613.20
461.85	4594.47
462.04	4837.89
462.22	4737.24
462.40	4880.02
462.59	4695.11
462.77	4690.43
462.95	4828.53
463.13	4676.39
463.32	4807.46
463.50	4786.40
463.68	4861.29
463.86	4807.46
464.05	4788.74
464.23	4880.02
464.41	4809.80
464.59	4727.88
464.78	4880.02
464.96	5025.13
465.14	4784.06
465.32	4919.81
465.50	4868.31
465.69	4887.04
465.87	4861.29
466.05	4973.64
466.23	4931.51
466.41	4954.91
466.60	5174.92
466.78	4938.53
466.96	5095.35
467.14	5064.92
467.32	5095.35
467.51	5191.31
467.69	5008.75
467.87	5198.33
468.05	5228.76
468.23	5048.54
468.41	5130.45
468.60	5174.92
468.78	5247.48
468.96	5111.73
469.14	5259.18
469.32	5366.85
469.50	5015.77
469.69	5343.44
469.87	5423.02
470.05	5502.60
470.23	5266.21
470.41	5284.93
470.59	5357.49
470.77	5572.82
470.95	5411.32
471.14	5551.75
471.32	5383.23
471.50	5526.00
471.68	5486.22
471.86	5430.04
472.04	5607.92
472.22	5680.48
472.40	5551.75
472.58	5643.03
472.77	5521.32
472.95	5715.59
473.13	5998.79
473.31	5729.63
473.49	5841.98
473.67	5741.33
473.85	5778.78
474.03	5949.64
474.21	6017.52
474.39	6043.26
474.57	6003.47
474.75	6106.46
474.93	6164.97
475.12	6057.31
475.30	6143.91
475.48	6193.06
475.66	6221.14
475.84	6244.55
476.02	6342.85
476.20	6277.32
476.38	6504.35
476.56	6394.34
476.74	6466.90
476.92	6342.85
477.10	6476.26
477.28	6658.82
477.46	6635.42
477.64	6724.36
477.82	6817.98
478.00	6890.54
478.18	6768.83
478.36	6927.99
478.54	7012.24
478.72	6979.48
478.90	6920.96
479.08	7197.15
479.26	7283.75
479.44	7112.89
479.62	7356.30
479.80	7243.96
479.98	7377.37
480.16	7428.86
480.34	7419.50
480.52	7531.84
480.70	7566.95
480.88	7583.34
481.06	7627.81
481.24	7721.43
481.41	7894.63
481.59	7864.20
481.77	8084.21
481.95	7971.86
482.13	8203.58
482.31	8149.75
482.49	8297.20
482.67	7978.89
482.85	8304.22
483.03	8521.89
483.21	8472.74
483.39	8365.07
483.57	8416.57
483.74	8748.92
483.92	8484.44
484.10	8882.33
484.28	8978.30
484.46	8964.25
484.64	9060.21
484.82	8732.54
485.00	8982.98
485.18	9095.32
485.35	9451.08
485.53	9205.33
485.71	9259.16
485.89	9467.47
486.07	9511.94
486.25	9448.74
486.43	9490.87
486.61	9745.99
486.78	9851.31
486.96	9710.88
487.14	9870.04
487.32	9853.66
487.50	9961.32
487.68	9956.64
487.85	10239.84
488.03	10225.80
488.21	10530.07
488.39	10394.32
488.57	10604.97
488.75	10539.43
488.92	10658.80
489.10	10885.83
489.28	10611.99
489.46	10883.49
489.64	10951.37
489.81	11084.78
489.99	11169.04
490.17	11241.59
490.35	11389.05
490.53	11253.30
490.70	11646.51
490.88	11349.26
491.06	11826.73
491.24	11721.40
491.41	11623.10
491.59	11950.78
491.77	11822.05
491.95	11988.22
492.13	11967.16
492.30	12264.41
492.48	12063.12
492.66	12198.87
492.84	12304.20
493.01	12383.77
493.19	12470.37
493.37	12615.49
493.54	12643.57
493.72	12760.60
493.90	12564.00
494.08	12774.64
494.25	12931.46
494.43	13032.10
494.61	13371.48
494.79	13078.91
494.96	13193.60
495.14	13277.86
495.32	13467.44
495.49	13404.25
495.67	13488.51
495.85	13687.45
496.02	13664.05
496.20	13813.84
496.38	13846.61
496.55	13778.73
496.73	14169.60
496.91	13919.17
497.09	14478.55
497.26	14059.60
497.44	14277.27
497.62	14223.44
497.79	14417.70
497.97	14202.37
498.14	14541.75
498.32	14572.18
498.50	14885.81
498.67	14827.29
498.85	14590.90
499.03	14810.91
499.20	14846.02
499.38	14902.19
499.56	15117.52
499.73	14998.15
499.91	15243.91
500.08	15187.74
500.26	15094.11
500.44	15283.70
500.61	15218.16
500.79	15339.87
500.97	15456.90
501.14	15805.64
501.32	15922.66
501.49	15648.82
501.67	15459.24
501.84	15906.28
502.02	15985.86
502.20	15955.43
502.37	16173.10
502.55	15878.19
502.72	16203.53
502.90	16271.40
503.07	16079.48
503.25	16184.80
503.43	16231.62
503.60	16191.83
503.78	16500.78
503.95	16365.03
504.13	16170.76
504.30	16744.19
504.48	16507.80
504.65	16893.99
504.83	16798.02
505.01	16837.81
505.18	16910.37
505.36	17081.23
505.53	16870.58
505.71	16893.99
505.88	17116.34
506.06	16964.20
506.23	17057.82
506.41	16996.97
506.58	17104.64
506.76	17085.91
506.93	17422.95
507.11	17549.34
507.28	17378.48
507.46	17317.62
507.63	17584.44
507.81	17605.51
507.98	17467.42
508.16	17628.92
508.33	17895.74
508.50	17577.42
508.68	17647.64
508.85	18097.02
509.03	17680.41
509.20	18033.83
509.38	18321.71
509.55	17972.97
509.73	18162.56
509.90	18317.03
510.08	18373.21
510.25	18148.51
510.42	18349.80
510.60	18656.41
510.77	18501.93
510.95	18518.32
511.12	18324.05
511.30	18586.19
511.47	18712.58
511.64	18766.42
511.82	18785.14
511.99	18738.33
512.17	18939.62
512.34	18794.50
512.51	18972.38
512.69	19061.32
512.86	18761.73
513.04	19140.90
513.21	18951.32
513.38	19482.62
513.56	19220.48
513.73	19325.80
513.90	19302.40
514.08	19183.03
514.25	19475.60
514.43	19831.36
514.60	19803.27
514.77	19239.20
514.95	19531.77
515.12	19585.60
515.29	19370.27
515.47	19772.85
515.64	20013.92
515.81	19824.34
515.99	19941.36
516.16	20133.29
516.33	19924.98
516.51	20058.39
516.68	20046.69
516.85	20112.22
517.03	20212.87
517.20	20257.34
517.37	20470.33
517.54	20374.36
517.72	20444.58
517.89	20304.15
518.06	20372.02
518.24	20414.15
518.41	20575.65
518.58	20666.93
518.75	20425.86
518.93	20751.19
519.10	20313.51
519.27	20727.78
519.45	20608.42
519.62	20673.95
519.79	20854.17
519.96	20673.95
520.14	21186.53
520.31	21022.69
520.48	21039.08
520.65	21055.46
520.83	20938.43
521.00	21223.98
521.17	21343.35
521.34	21315.26
521.52	21228.66
521.69	21214.62
521.86	21806.77
522.03	21907.41
522.20	21710.81
522.38	21654.64
522.55	21825.50
522.72	21624.21
522.89	21488.46
523.07	22288.92
523.24	21664.00
523.41	22015.08
523.58	21977.63
523.75	22192.96
523.92	21949.54
524.10	22075.93
524.27	21916.78
524.44	21970.61
524.61	22373.18
524.78	22431.69
524.96	22445.74
525.13	22317.01
525.30	22565.10
525.47	22237.43
525.64	22419.99
525.81	22878.74
525.98	22530.00
526.16	22670.43
526.33	22714.90
526.50	22953.63
526.67	22684.47
526.84	22740.64
527.01	22209.34
527.18	22838.95
527.36	22792.14
527.53	22829.59
527.70	23384.29
527.87	23372.59
528.04	22963.00
528.21	23325.78
528.38	23035.55
528.55	23213.43
528.72	23171.30
528.89	23473.23
529.07	23356.21
529.24	23105.77
529.41	23157.26
529.58	23206.41
529.75	23080.02
529.92	23267.27
530.09	23204.07
530.26	23421.74
530.43	23367.91
530.60	23293.01
530.77	23494.30
530.94	23641.75
531.11	23536.43
531.28	23597.28
531.46	23709.63
531.63	23747.08
531.80	23660.48
531.97	23592.60
532.14	23667.50
532.31	24194.12
532.48	23875.80
532.65	23782.18
532.82	23941.34
532.99	23950.70
533.16	23997.51
533.33	24147.31
533.50	24559.24
533.67	24159.01
533.84	24114.54
534.01	24137.94
534.18	24058.37
534.35	24276.04
534.52	23988.15
534.69	24643.50
534.86	24390.72
535.03	24716.06
535.20	24437.53
535.37	24327.53
535.54	24580.31
535.71	24308.80
535.88	24577.97
536.05	24245.61
536.22	24596.69
536.38	24772.23
536.55	24467.96
536.72	24404.77
536.89	24678.61
537.06	24786.27
537.23	24762.87
537.40	24437.53
537.57	24856.49
537.74	24720.74
537.91	25167.78
538.08	24861.17
538.25	24957.13
538.42	24973.52
538.59	25025.01
538.75	25010.96
538.92	25315.23
539.09	25188.85
539.26	24912.66
539.43	25200.55
539.60	25333.96
539.77	25340.98
539.94	25373.75
540.11	25626.53
540.28	25312.89
540.44	25221.61
540.61	24879.89
540.78	25296.51
540.95	25600.78
541.12	25565.67
541.29	25340.98
541.46	25373.75
541.62	25661.63
541.79	25376.09
541.96	25181.82
542.13	25558.65
542.30	25624.18
542.47	25942.50
542.63	25888.67
542.80	25954.20
542.97	25982.29
543.14	26066.55
543.31	25935.48
543.48	26043.14
543.64	26237.41
543.81	26403.58
543.98	26445.71
544.15	26195.28
544.32	26607.21
544.48	26352.09
544.65	26309.96
544.82	26087.61
544.99	25958.88
545.16	26583.80
545.32	26155.49
545.49	26668.06
545.66	26621.25
545.83	26129.74
546.00	26761.69
546.16	26749.98
546.33	26033.78
546.50	26139.10
546.67	26785.09
546.83	26356.77
547.00	26412.95
547.17	26642.32
547.34	26747.64
547.50	26864.67
547.67	26841.26
547.84	26639.98
548.00	26820.20
548.17	26904.46
548.34	26759.34
548.51	27040.21
548.67	27080.00
548.84	27023.83
549.01	27154.90
549.18	26904.46
549.34	27295.33
549.51	26962.97
549.68	26972.33
549.84	27040.21
550.01	27126.81
550.18	27157.24
550.34	27342.14
550.51	26953.61
550.68	27316.39
550.84	27449.80
551.01	27206.39
551.18	27267.24
551.34	26951.27
551.51	27358.52
551.68	27419.38
551.84	27515.34
552.01	27552.79
552.18	27388.95
552.34	27206.39
552.51	27765.78
552.68	27290.65
552.84	27412.35
553.01	27658.11
553.18	27566.83
553.34	27435.76
553.51	27557.47
553.67	27950.68
553.84	28067.70
554.01	27651.09
554.17	27365.54
554.34	27646.41
554.51	27922.59
554.67	27770.46
554.84	27737.69
555.00	27725.99
555.17	28247.93
555.33	27988.13
555.50	27857.06
555.67	27910.89
555.83	27934.29
556.00	28030.26
556.16	28016.21
556.33	27882.80
556.50	27805.56
556.66	28187.07
556.83	27943.66
556.99	28151.96
557.16	28205.80
557.32	28105.15
557.49	28493.68
557.65	28411.76
557.82	28072.39
557.98	28086.43
558.15	28074.73
558.32	28245.58
558.48	28011.53
558.65	28584.96
558.81	28687.95
558.98	28102.81
559.14	28217.50
559.31	28318.14
559.47	28198.77
559.64	28336.87
559.80	28521.77
559.97	28622.41
560.13	28341.55
560.30	28238.56
560.46	28376.66
560.63	28514.75
560.79	28517.09
560.96	28669.22
561.12	28727.74
561.29	28322.82
561.45	28685.61
561.61	28694.97
561.78	28449.21
561.94	28542.83
562.11	28903.28
562.27	28734.76
562.44	28709.01
562.60	28489.00
562.77	28423.47
562.93	28311.12
563.10	28730.08
563.26	28390.70
563.42	28512.41
563.59	28884.55
563.75	28900.94
563.92	28584.96
564.08	28978.17
564.24	28662.20
564.41	28872.85
564.57	28582.62
564.74	28931.36
564.90	28481.98
565.07	28929.02
565.23	28411.76
565.39	28994.56
565.56	28933.70
565.72	28844.76
565.88	28884.55
566.05	28833.06
566.21	29120.95
566.38	28692.63
566.54	28849.44
566.70	29212.23
566.87	29408.83
567.03	29048.39
567.19	29399.47
567.36	29057.75
567.52	28865.83
567.68	29097.54
567.85	29226.27
568.01	28959.45
568.17	28765.18
568.34	28655.18
568.50	29008.60
568.66	28973.49
568.83	29406.49
568.99	29191.16
569.15	28886.89
569.32	28929.02
569.48	28746.46
569.64	29233.29
569.81	29149.03
569.97	29050.73
570.13	29179.46
570.30	28996.90
570.46	29366.70
570.62	29479.05
570.78	29523.52
570.95	28954.77
571.11	29277.76
571.27	28830.72
571.43	28933.70
571.60	28936.04
571.76	29259.04
571.92	29516.50
572.09	28957.11
572.25	29160.73
572.41	29490.75
572.57	29376.06
572.74	29319.89
572.90	29102.22
573.06	29310.53
573.22	28943.06
573.38	29352.66
573.55	29015.62
573.71	29565.65
573.87	29598.41
574.03	29549.26
574.20	29254.36
574.36	29549.26
574.52	29383.09
574.68	28987.53
574.84	29132.65
575.01	29535.22
575.17	29036.69
575.33	29174.78
575.49	29184.14
575.65	29249.67
575.82	29252.02
575.98	29158.39
576.14	29422.87
576.30	29635.86
576.46	29160.73
576.62	29270.74
576.79	29310.53
576.95	29296.49
577.11	29357.34
577.27	29422.87
577.43	29490.75
577.59	29469.69
577.75	29584.37
577.92	29198.18
578.08	29165.42
578.24	29422.87
578.40	29457.98
578.56	29687.36
578.72	29736.51
578.88	29783.32
579.04	30015.03
579.21	29563.31
579.37	29820.77
579.53	29511.81
579.69	29460.32
579.85	29188.82
580.01	29584.37
580.17	29024.98
580.33	29645.23
580.49	29495.43
580.65	29352.66
580.82	29514.16
580.98	29830.13
581.14	29579.69
581.30	29553.94
581.46	29465.00
581.62	29563.31
581.78	29593.73
581.94	29558.63
582.10	29165.42
582.26	29626.50
582.42	29567.99
582.58	29572.67
582.74	29535.22
582.90	29912.05
583.06	29724.80
583.22	29579.69
583.38	29347.98
583.54	30078.22
583.70	29713.10
583.86	29523.52
584.02	29542.24
584.18	29734.17
584.34	29883.96
584.50	29736.51
584.66	29722.46
584.82	29811.40
584.98	29406.49
585.14	29603.10
585.30	29521.18
585.46	29570.33
585.62	29804.38
585.78	29617.14
585.94	29593.73
586.10	29685.01
586.26	29846.51
586.42	29734.17
586.58	29961.20
586.74	29429.90
586.90	29362.02
587.06	29399.47
587.22	29556.28
587.38	29446.28
587.54	29841.83
587.70	29659.27
587.86	29773.95
588.02	29696.72
588.18	29898.00
588.34	29860.55
588.49	29977.58
588.65	29420.53
588.81	29951.84
588.97	30043.12
589.13	29694.38
589.29	30103.97
589.45	29813.74
589.61	29909.71
589.77	30373.13
589.93	30223.34
590.08	29900.34
590.24	30228.02
590.40	29757.57
590.56	29972.90
590.72	29982.26
590.88	29436.92
591.04	29474.37
591.20	30199.93
591.35	30270.15
591.51	30422.28
591.67	30061.84
591.83	30096.95
591.99	29649.91
