SpectraSuite Data File
++++++++++++++++++++++++++++++++++++
Date: Fri Oct 18 13:58:19 GMT-05:00 2013
User: bianchi
Dark Spectrum Present: No
Reference Spectrum Present: No
Number of Sampled Component Spectra: 1
Spectrometers: USB2+H05261
Integration Time (usec): 50000 (USB2+H05261)
Spectra Averaged: 1 (USB2+H05261)
Boxcar Smoothing: 0 (USB2+H05261)
Correct for Electrical Dark: No (USB2+H05261)
Strobe/Lamp Enabled: No (USB2+H05261)
Correct for Detector Non-linearity: No (USB2+H05261)
Correct for Stray Light: No (USB2+H05261)
Number of Pixels in Processed Spectrum: 2048
>>>>>Begin Processed Spectral Data<<<<<
365.73	0.00
365.92	0.00
366.12	0.00
366.32	0.00
366.52	0.00
366.72	0.00
366.91	0.00
367.11	0.00
367.31	0.00
367.51	0.00
367.70	0.00
367.90	0.00
368.10	0.00
368.30	0.00
368.49	0.00
368.69	0.00
368.89	0.00
369.09	0.00
369.28	0.00
369.48	0.00
369.68	0.00
369.87	0.00
370.07	0.00
370.27	0.00
370.47	0.00
370.66	110.01
370.86	84.26
371.06	58.51
371.25	128.73
371.45	126.39
371.65	168.52
371.84	65.54
372.04	159.16
372.24	114.69
372.44	170.86
372.63	227.03
372.83	177.88
373.03	198.95
373.22	100.64
373.42	135.75
373.62	255.12
373.81	287.89
374.01	191.92
374.21	264.48
374.40	271.50
374.60	266.82
374.79	182.56
374.99	152.13
375.19	208.31
375.38	241.08
375.58	229.37
375.78	287.89
375.97	280.86
376.17	215.33
376.37	266.82
376.56	320.65
376.76	262.14
376.95	215.33
377.15	264.48
377.35	262.14
377.54	257.46
377.74	243.42
377.93	210.65
378.13	299.59
378.33	318.31
378.52	337.04
378.72	238.73
378.91	262.14
379.11	264.48
379.31	290.23
379.50	297.25
379.70	313.63
379.89	283.20
380.09	318.31
380.28	311.29
380.48	294.91
380.68	271.50
380.87	290.23
381.07	341.72
381.26	308.95
381.46	292.57
381.65	273.84
381.85	393.21
382.04	299.59
382.24	313.63
382.43	353.42
382.63	395.55
382.83	362.78
383.02	358.10
383.22	358.10
383.41	315.97
383.61	383.85
383.80	339.38
384.00	341.72
384.19	421.30
384.39	351.08
384.58	278.52
384.78	418.96
384.97	444.70
385.17	327.68
385.36	332.36
385.56	402.57
385.75	341.72
385.95	437.68
386.14	454.06
386.34	416.62
386.53	437.68
386.72	449.38
386.92	416.62
387.11	388.53
387.31	437.68
387.50	454.06
387.70	433.00
387.89	414.27
388.09	491.51
388.28	430.66
388.48	402.57
388.67	449.38
388.86	479.81
389.06	400.23
389.25	404.91
389.45	400.23
389.64	421.30
389.84	430.66
390.03	482.15
390.22	451.72
390.42	435.34
390.61	449.38
390.81	433.00
391.00	540.66
391.19	470.45
391.39	514.92
391.58	564.07
391.78	547.69
391.97	554.71
392.16	500.87
392.36	524.28
392.55	512.58
392.75	571.09
392.94	559.39
393.13	610.88
393.33	491.51
393.52	554.71
393.71	601.52
393.91	552.37
394.10	517.26
394.29	582.79
394.49	547.69
394.68	650.67
394.88	566.41
395.07	613.22
395.26	571.09
395.46	636.63
395.65	732.59
395.84	608.54
396.04	601.52
396.23	594.50
396.42	573.43
396.62	676.41
396.81	667.05
397.00	601.52
397.19	634.29
397.39	622.58
397.58	664.71
397.77	734.93
397.97	620.24
398.16	667.05
398.35	667.05
398.55	650.67
398.74	648.33
398.93	739.61
399.12	617.90
399.32	657.69
399.51	638.97
399.70	730.25
399.90	755.99
400.09	730.25
400.28	758.33
400.47	800.46
400.67	793.44
400.86	737.27
401.05	823.87
401.24	786.42
401.44	732.59
401.63	828.55
401.82	809.83
402.01	753.65
402.21	894.08
402.40	858.98
402.59	798.12
402.78	866.00
402.97	880.04
403.17	887.06
403.36	774.72
403.55	964.30
403.74	851.96
403.93	826.21
404.13	861.32
404.32	966.64
404.51	947.92
404.70	919.83
404.89	882.38
405.09	924.51
405.28	973.66
405.47	940.90
405.66	1032.18
405.85	961.96
406.05	945.58
406.24	898.77
406.43	1034.52
406.62	929.19
406.81	1086.01
407.00	1076.65
407.20	947.92
407.39	1004.09
407.58	1025.15
407.77	1160.91
407.96	1060.26
408.15	1034.52
408.34	983.02
408.54	1043.88
408.73	1022.81
408.92	1074.31
409.11	1090.69
409.30	1116.44
409.49	1205.38
409.68	1083.67
409.87	1165.59
410.07	1132.82
410.26	1104.73
410.45	1139.84
410.64	1177.29
410.83	1174.95
411.02	1254.53
411.21	1233.46
411.40	1254.53
411.59	1226.44
411.78	1284.95
411.98	1277.93
412.17	1268.57
412.36	1256.87
412.55	1362.19
412.74	1406.66
412.93	1352.83
413.12	1254.53
413.31	1437.09
413.50	1390.28
413.69	1497.94
413.88	1497.94
414.07	1357.51
414.26	1383.26
414.45	1418.36
414.64	1516.67
414.83	1563.48
415.02	1596.25
415.22	1488.58
415.41	1500.28
415.60	1614.97
415.79	1570.50
415.98	1582.20
416.17	1659.44
416.36	1540.07
416.55	1497.94
416.74	1549.43
416.93	1549.43
417.12	1713.27
417.31	1633.69
417.50	1591.56
417.69	1607.95
417.88	1717.95
418.07	1764.76
418.26	1741.36
418.45	1851.36
418.64	1834.98
418.83	1746.04
419.02	1792.85
419.21	1722.63
419.39	1678.16
419.58	1785.83
419.77	1942.64
419.96	1884.13
420.15	1806.89
420.34	1919.24
420.53	1797.53
420.72	1914.56
420.91	1846.68
421.10	1905.20
421.29	1975.41
421.48	1898.17
421.67	2003.50
421.86	1942.64
422.05	1912.22
422.24	2033.93
422.43	1966.05
422.61	1863.07
422.80	1998.82
422.99	1994.14
423.18	1954.35
423.37	2010.52
423.56	2052.65
423.75	2118.18
423.94	1973.07
424.13	1914.56
424.32	1820.94
424.50	2118.18
424.69	1942.64
424.88	2036.27
425.07	2036.27
425.26	2024.56
425.45	2003.50
425.64	2062.01
425.83	1980.09
426.01	2141.59
426.20	2078.40
426.39	2047.97
426.58	2015.20
426.77	2043.29
426.96	2118.18
427.15	2104.14
427.33	2190.74
427.52	2256.28
427.71	2127.55
427.90	2064.35
428.09	2179.04
428.28	2230.53
428.46	2333.51
428.65	2190.74
428.84	2298.41
429.03	2363.94
429.22	2186.06
429.40	2111.16
429.59	2230.53
429.78	2113.50
429.97	2143.93
430.16	2148.61
430.34	2200.10
430.53	2399.05
430.72	2382.67
430.91	2317.13
431.10	2356.92
431.28	2392.03
431.47	2455.22
431.66	2359.26
431.85	2319.47
432.03	2476.29
432.22	2518.42
432.41	2382.67
432.60	2469.27
432.79	2424.80
432.97	2464.58
433.16	2569.91
433.35	2523.10
433.54	2490.33
433.72	2581.61
433.91	2551.18
434.10	2480.97
434.28	2588.63
434.47	2651.83
434.66	2534.80
434.85	2583.95
435.03	2708.00
435.22	2623.74
435.41	2656.51
435.59	2633.10
435.78	2602.68
435.97	2675.23
436.16	2651.83
436.34	2576.93
436.53	2647.15
436.72	2801.62
436.90	2780.56
437.09	2850.77
437.28	2808.64
437.46	2614.38
437.65	2761.83
437.84	2820.35
438.02	2874.18
438.21	2759.49
438.40	2675.23
438.58	2829.71
438.77	2878.86
438.96	2874.18
439.14	2932.69
439.33	3068.44
439.52	2918.65
439.70	3033.33
439.89	3035.67
440.08	3033.33
440.26	3066.10
440.45	3068.44
440.63	3066.10
440.82	2988.86
441.01	3211.22
441.19	3206.53
441.38	3286.11
441.57	3155.04
441.75	3185.47
441.94	3286.11
442.12	3290.79
442.31	3370.37
442.50	3328.24
442.68	3253.34
442.87	3358.67
443.05	3316.54
443.24	3309.52
443.43	3438.25
443.61	3501.44
443.80	3417.18
443.98	3281.43
444.17	3201.85
444.35	3494.42
444.54	3445.27
444.73	3283.77
444.91	3290.79
445.10	3454.63
445.28	3438.25
445.47	3342.28
445.65	3426.54
445.84	3522.51
446.02	3590.38
446.21	3342.28
446.39	3534.21
446.58	3405.48
446.77	3562.30
446.95	3391.44
447.14	3541.23
447.32	3548.25
447.51	3574.00
447.69	3583.36
447.88	3459.31
448.06	3501.44
448.25	3520.17
448.43	3520.17
448.62	3478.04
448.80	3506.12
448.99	3513.14
449.17	3574.00
449.36	3478.04
449.54	3695.71
449.73	3655.92
449.91	3644.21
450.10	3707.41
450.28	3899.33
450.46	3772.94
450.65	3763.58
450.83	3754.22
451.02	3763.58
451.20	3892.31
451.39	3728.47
451.57	3763.58
451.76	3742.52
451.94	3700.39
452.13	3934.44
452.31	3810.39
452.49	3754.22
452.68	3791.67
452.86	3712.09
453.05	3908.69
453.23	3936.78
453.42	3955.51
453.60	3906.35
453.78	3836.14
453.97	3819.75
454.15	3948.48
454.34	3978.91
454.52	4081.89
454.70	4025.72
454.89	4063.17
455.07	3899.33
455.26	3999.98
455.44	4236.37
455.62	4067.85
455.81	4095.94
455.99	4147.43
456.17	4255.09
456.36	4147.43
456.54	4187.22
456.73	4212.96
456.91	4421.27
457.09	4306.59
457.28	4358.08
457.46	4341.69
457.64	4393.19
457.83	4346.37
458.01	4425.95
458.19	4365.10
458.38	4437.66
458.56	4496.17
458.74	4500.85
458.93	4444.68
459.11	4498.51
459.29	4503.19
459.48	4465.74
459.66	4571.07
459.84	4521.92
460.03	4538.30
460.21	4566.39
460.39	4461.06
460.57	4505.53
460.76	4730.22
460.94	4667.03
461.12	4383.82
461.31	4674.05
461.49	4697.46
461.67	4550.00
461.85	4589.79
462.04	4610.86
462.22	4992.36
462.40	4793.42
462.59	4690.43
462.77	4774.69
462.95	4807.46
463.13	4816.82
463.32	4873.00
463.50	4896.40
463.68	4798.10
463.86	4847.25
464.05	4798.10
464.23	4870.65
464.41	4931.51
464.59	4851.93
464.78	5074.28
464.96	4884.70
465.14	4842.57
465.32	5071.94
465.50	5076.62
465.69	4992.36
465.87	4873.00
466.05	4931.51
466.23	4973.64
466.41	5076.62
466.60	5130.45
466.78	5104.71
466.96	5034.49
467.14	4961.94
467.32	5050.88
467.51	5198.33
467.69	4990.02
467.87	5102.37
468.05	5167.90
468.23	5109.39
468.41	5102.37
468.60	5153.86
468.78	5167.90
468.96	4992.36
469.14	5210.03
469.32	5547.07
469.50	5177.26
469.69	5317.70
469.87	5483.88
470.05	5385.57
470.23	5385.57
470.41	5511.96
470.59	5359.83
470.77	5572.82
470.95	5434.72
471.14	5493.24
471.32	5322.38
471.50	5703.89
471.68	5685.16
471.86	5549.41
472.04	5481.53
472.22	5879.43
472.40	5549.41
472.58	5731.97
472.77	5870.06
472.95	5790.49
473.13	5975.39
473.31	5710.91
473.49	5804.53
473.67	5839.64
473.85	5923.90
474.03	6043.26
474.21	6008.16
474.39	5987.09
474.57	6036.24
474.75	6207.10
474.93	6146.25
475.12	6106.46
475.30	6225.82
475.48	6265.61
475.66	6136.88
475.84	6300.72
476.02	6431.79
476.20	6342.85
476.38	6499.67
476.56	6558.18
476.74	6548.82
476.92	6679.89
477.10	6534.78
477.28	6661.16
477.46	6707.98
477.64	6848.41
477.82	6738.40
478.00	6956.07
478.18	6939.69
478.36	7126.93
478.54	7052.03
478.72	7162.04
478.90	7166.72
479.08	7129.27
479.26	7145.66
479.44	7372.69
479.62	7349.28
479.80	7445.24
479.98	7501.42
480.16	7754.19
480.34	7599.72
480.52	7691.00
480.70	7613.76
480.88	7566.95
481.06	7772.92
481.24	7676.96
481.41	7611.42
481.59	7882.92
481.77	8135.70
481.95	8100.59
482.13	8053.78
482.31	8142.72
482.49	8353.37
482.67	8313.58
482.85	8425.93
483.03	8386.14
483.21	8587.43
483.39	8650.62
483.57	8416.57
483.74	8564.02
483.92	8727.86
484.10	8746.58
484.28	8784.03
484.46	8912.76
484.64	9238.09
484.82	8924.46
485.00	9135.11
485.18	9226.39
485.35	9570.45
485.53	9423.00
485.71	9493.21
485.89	9612.58
486.07	9493.21
486.25	9621.94
486.43	9488.53
486.61	9624.28
486.78	9846.63
486.96	9881.74
487.14	10017.49
487.32	10064.30
487.50	10083.03
487.68	10106.43
487.85	10242.18
488.03	10562.84
488.21	10619.01
488.39	10619.01
488.57	10820.30
488.75	10686.89
488.92	10705.61
489.10	10916.26
489.28	11117.54
489.46	11002.86
489.64	11066.05
489.81	11288.40
489.99	11147.97
490.17	11260.32
490.35	11419.47
490.53	11637.14
490.70	11740.13
490.88	11683.95
491.06	11712.04
491.24	11974.18
491.41	11831.41
491.59	11716.72
491.77	12025.67
491.95	12093.55
492.13	12299.52
492.30	12416.54
492.48	12393.14
492.66	12498.46
492.84	12168.45
493.01	12695.07
493.19	12720.81
493.37	12807.41
493.54	12547.61
493.72	12648.26
493.90	12826.14
494.08	12788.69
494.25	12971.25
494.43	13209.98
494.61	13219.35
494.79	13413.61
494.96	13378.50
495.14	13327.01
495.32	13570.43
495.49	13404.25
495.67	13813.84
495.85	13631.28
496.02	13973.00
496.20	14029.17
496.38	13872.36
496.55	13930.87
496.73	14211.73
496.91	14202.37
497.09	14249.18
497.26	14497.28
497.44	14387.27
497.62	14583.88
497.79	14436.42
497.97	14504.30
498.14	14916.23
498.32	14700.90
498.50	14698.56
498.67	15019.22
498.85	15012.20
499.03	15026.24
499.20	14904.53
499.38	15087.09
499.56	15243.91
499.73	15349.23
499.91	15449.88
500.08	15393.70
500.26	15138.58
500.44	15686.27
500.61	15344.55
500.79	15609.03
500.97	15719.04
501.14	16070.12
501.32	15777.55
501.49	15763.51
501.67	15728.40
501.84	15796.28
502.02	15777.55
502.20	16074.80
502.37	16250.34
502.55	16346.30
502.72	16081.82
502.90	16070.12
503.07	16233.96
503.25	16638.87
503.43	16468.01
503.60	16475.03
503.78	16580.36
503.95	16355.66
504.13	16470.35
504.30	16779.30
504.48	16718.45
504.65	16753.55
504.83	16826.11
505.01	16896.33
505.18	16791.00
505.36	17247.41
505.53	17170.17
505.71	16964.20
505.88	16943.14
506.06	17242.73
506.23	17383.16
506.41	17408.90
506.58	17521.25
506.76	17472.10
506.93	17525.93
507.11	17338.69
507.28	17561.04
507.46	17689.77
507.63	17589.13
507.81	17755.30
507.98	17671.04
508.16	17605.51
508.33	17841.90
508.50	17891.06
508.68	17706.15
508.85	18232.77
509.03	18031.49
509.20	18291.29
509.38	18480.87
509.55	18340.44
509.73	18071.28
509.90	18719.60
510.08	18427.04
510.25	18214.05
510.42	18530.02
510.60	18757.05
510.77	18904.51
510.95	18530.02
511.12	18726.63
511.30	18623.64
511.47	18698.54
511.64	18780.46
511.82	19084.73
511.99	18785.14
512.17	19229.84
512.34	19295.38
512.51	19021.53
512.69	19332.82
512.86	19276.65
513.04	19309.42
513.21	19632.41
513.38	19538.79
513.56	19534.11
513.73	19372.61
513.90	19924.98
514.08	19548.15
514.25	19480.28
514.43	19946.05
514.60	19807.95
514.77	19896.89
514.95	20067.75
515.12	19676.88
515.29	19831.36
515.47	19812.63
515.64	20233.93
515.81	20009.24
515.99	19962.43
516.16	20273.72
516.33	20458.62
516.51	20325.21
516.68	20255.00
516.85	20147.33
517.03	20517.14
517.20	20484.37
517.37	20767.57
517.54	20496.07
517.72	20596.71
517.89	20409.47
518.06	20528.84
518.24	20760.55
518.41	20575.65
518.58	20781.62
518.75	20900.98
518.93	21078.86
519.10	21151.42
519.27	21511.86
519.45	20826.09
519.62	20765.23
519.79	21329.30
519.96	21247.38
520.14	21394.84
520.31	21212.28
520.48	21425.26
520.65	21383.13
520.83	21465.05
521.00	21453.35
521.17	21537.61
521.34	21181.85
521.52	21378.45
521.69	21762.30
521.86	22003.38
522.03	21689.74
522.20	21675.70
522.38	22038.48
522.55	21727.19
522.72	22052.53
522.89	22061.89
523.07	22120.40
523.24	22230.41
523.41	22253.81
523.58	22068.91
523.75	22092.32
523.92	22157.85
524.10	21853.58
524.27	22317.01
524.44	22618.94
524.61	22735.96
524.78	22307.65
524.96	22309.99
525.13	22532.34
525.30	22750.01
525.47	22745.33
525.64	22789.80
525.81	22544.04
525.98	23049.60
526.16	22672.77
526.33	22675.11
526.50	23140.88
526.67	22904.48
526.84	22689.15
527.01	22862.35
527.18	22892.78
527.36	23288.33
527.53	23154.92
527.70	23442.81
527.87	23498.98
528.04	23545.79
528.21	23447.49
528.38	23084.70
528.55	23274.29
528.72	23335.14
528.89	23536.43
529.07	23463.87
529.24	23316.42
529.41	23323.44
529.58	23349.18
529.75	23714.31
529.92	23625.37
530.09	23751.76
530.26	23749.42
530.43	23981.13
530.60	23709.63
530.77	23735.37
530.94	23915.59
531.11	23601.96
531.28	23789.20
531.46	23990.49
531.63	23714.31
531.80	23978.79
531.97	24030.28
532.14	24233.91
532.31	24039.64
532.48	23995.17
532.65	24381.36
532.82	24049.00
532.99	24386.04
533.16	24135.60
533.33	24322.85
533.50	24343.91
533.67	24568.60
533.84	24350.93
534.01	23922.62
534.18	24402.43
534.35	24624.78
534.52	24655.20
534.69	24517.11
534.86	24498.39
535.03	24669.25
535.20	24912.66
535.37	24655.20
535.54	24807.34
535.71	24599.03
535.88	24589.67
536.05	24702.01
536.22	24910.32
536.38	24905.64
536.55	24973.52
536.72	25273.10
536.89	24985.22
537.06	24922.02
537.23	25198.21
537.40	24945.43
537.57	24844.79
537.74	25205.23
537.91	25596.10
538.08	25116.29
538.25	25458.01
538.42	25549.29
538.59	25422.90
538.75	25399.49
538.92	25291.83
539.09	25743.55
539.26	25607.80
539.43	25441.62
539.60	25528.22
539.77	25467.37
539.94	25944.84
540.11	25935.48
540.28	25614.82
540.44	25757.60
540.61	25502.48
540.78	25666.31
540.95	25568.01
541.12	25617.16
541.29	26141.44
541.46	25687.38
541.62	25773.98
541.79	26050.16
541.96	25626.53
542.13	25539.93
542.30	25912.07
542.47	25991.65
542.63	26305.28
542.80	26181.23
542.97	26253.79
543.14	26307.62
543.31	26305.28
543.48	26309.96
543.64	26579.12
543.81	26698.49
543.98	26639.98
544.15	26195.28
544.32	26724.24
544.48	26581.46
544.65	26707.85
544.82	26513.59
544.99	26305.28
545.16	26614.23
545.32	26771.05
545.49	27101.06
545.66	26506.57
545.83	26960.63
546.00	27051.91
546.16	26373.16
546.33	26691.47
546.50	26785.09
546.67	26829.56
546.83	26625.93
547.00	26941.91
547.17	26841.26
547.34	26981.70
547.50	27154.90
547.67	27089.36
547.84	26597.85
548.00	26836.58
548.17	27115.11
548.34	27136.17
548.51	27548.11
548.67	27388.95
548.84	27339.80
549.01	27278.94
549.18	27063.61
549.34	27576.19
549.51	27487.25
549.68	26822.54
549.84	27260.22
550.01	27585.55
550.18	27585.55
550.34	27428.74
550.51	27828.97
550.68	27623.00
550.84	27316.39
551.01	27812.59
551.18	27576.19
551.34	27194.68
551.51	27669.81
551.68	27728.33
551.84	27625.34
552.01	27955.36
552.18	27758.75
552.34	27686.20
552.51	27999.83
552.68	27761.09
552.84	27819.61
553.01	27936.63
553.18	28086.43
553.34	27875.78
553.51	28243.24
553.67	28339.21
553.84	28180.05
554.01	27946.00
554.17	28144.94
554.34	28144.94
554.51	28128.56
554.67	27821.95
554.84	28280.69
555.00	28060.68
555.17	28491.34
555.33	28411.76
555.50	28037.28
555.67	28140.26
555.83	27873.44
556.00	28009.19
556.16	28196.43
556.33	28336.87
556.50	28381.34
556.66	28474.96
556.83	28203.46
556.99	28416.44
557.16	28659.86
557.32	28769.86
557.49	28437.51
557.65	27938.97
557.82	28786.25
557.98	28711.35
558.15	28439.85
558.32	28627.09
558.48	28582.62
558.65	28821.36
558.81	28947.75
558.98	28589.64
559.14	28716.03
559.31	28854.12
559.47	28662.20
559.64	28355.59
559.80	28744.12
559.97	28865.83
560.13	28603.69
560.30	28615.39
560.46	28910.30
560.63	28788.59
560.79	29041.37
560.96	29193.50
561.12	28744.12
561.29	28992.22
561.45	28950.09
561.61	28961.79
561.78	29069.45
561.94	29034.35
562.11	29160.73
562.27	29069.45
562.44	29085.84
562.60	28645.82
562.77	29024.98
562.93	28966.47
563.10	29420.53
563.26	28772.21
563.42	29582.03
563.59	28875.19
563.75	28945.41
563.92	29015.62
564.08	29212.23
564.24	29172.44
564.41	29322.23
564.57	29186.48
564.74	29123.29
564.90	29233.29
565.07	29331.59
565.23	29252.02
565.39	28952.43
565.56	29621.82
565.72	29221.59
565.88	29102.22
566.05	29373.72
566.21	29151.37
566.38	29586.71
566.54	29497.77
566.70	29490.75
566.87	29142.01
567.03	29453.30
567.19	30029.07
567.36	29673.31
567.52	29118.60
567.68	29532.88
567.85	29432.24
568.01	29528.20
568.17	29500.11
568.34	29329.25
568.50	29476.71
568.66	29294.14
568.83	29605.44
568.99	29689.70
569.15	29362.02
569.32	29137.33
569.48	29455.64
569.64	29600.76
569.81	29855.87
569.97	29453.30
570.13	29591.39
570.30	29504.79
570.46	29544.58
570.62	29497.77
570.78	29518.84
570.95	29563.31
571.11	29490.75
571.27	29088.18
571.43	29455.64
571.60	29631.18
571.76	29411.17
571.92	29652.25
572.09	29631.18
572.25	29355.00
572.41	29724.80
572.57	29738.85
572.74	29530.54
572.90	29640.54
573.06	29670.97
573.22	29879.28
573.38	29469.69
573.55	29766.93
573.71	29642.88
573.87	29996.31
574.03	29584.37
574.20	29731.83
574.36	29846.51
574.52	29879.28
574.68	29659.27
574.84	29724.80
575.01	29521.18
575.17	29830.13
575.33	29582.03
575.49	29392.45
575.65	29689.70
575.82	30054.82
575.98	29785.66
576.14	29661.61
576.30	29626.50
576.46	29790.34
576.62	29479.05
576.79	30017.37
576.95	29788.00
577.11	29656.93
577.27	29837.15
577.43	29677.99
577.59	29832.47
577.75	30000.99
577.92	29979.92
578.08	29717.78
578.24	29364.36
578.40	29706.08
578.56	30024.39
578.72	29928.43
578.88	29823.11
579.04	30038.44
579.21	29788.00
579.37	29919.07
579.53	30120.35
579.69	29659.27
579.85	29661.61
580.01	29820.77
580.17	29825.45
580.33	29802.04
580.49	29682.67
580.65	29944.81
580.82	30019.71
580.98	29930.77
581.14	29734.17
581.30	29783.32
581.46	29549.26
581.62	29773.95
581.78	29795.02
581.94	29982.26
582.10	29670.97
582.26	29926.09
582.42	29853.53
582.58	29907.37
582.74	30012.69
582.90	29907.37
583.06	29972.90
583.22	29579.69
583.38	29762.25
583.54	29809.06
583.70	29909.71
583.86	30043.12
584.02	29902.68
584.18	30110.99
584.34	30216.32
584.50	30010.35
584.66	30012.69
584.82	29827.79
584.98	29820.77
585.14	29902.68
585.30	29727.14
585.46	29752.89
585.62	29837.15
585.78	29788.00
585.94	29600.76
586.10	30089.93
586.26	30223.34
586.42	29919.07
586.58	30274.83
586.74	29921.41
586.90	29949.50
587.06	29839.49
587.22	29827.79
587.38	30115.67
587.54	30457.39
587.70	30253.76
587.86	30171.85
588.02	30366.11
588.18	30642.29
588.34	30110.99
588.49	29930.77
588.65	30087.59
588.81	30050.14
588.97	30099.29
589.13	30501.86
589.29	30080.56
589.45	30319.30
589.61	30164.82
589.77	30331.00
589.93	30457.39
590.08	30536.97
590.24	30223.34
590.40	30515.90
590.56	29883.96
590.72	30139.08
590.88	30382.49
591.04	30279.51
591.20	30478.46
591.35	30438.67
591.51	30405.90
591.67	30178.87
591.83	30497.18
591.99	30476.12
