SpectraSuite Data File
++++++++++++++++++++++++++++++++++++
Date: Fri Oct 18 13:58:19 GMT-05:00 2013
User: bianchi
Dark Spectrum Present: No
Reference Spectrum Present: No
Number of Sampled Component Spectra: 1
Spectrometers: USB2+H05261
Integration Time (usec): 50000 (USB2+H05261)
Spectra Averaged: 1 (USB2+H05261)
Boxcar Smoothing: 0 (USB2+H05261)
Correct for Electrical Dark: No (USB2+H05261)
Strobe/Lamp Enabled: No (USB2+H05261)
Correct for Detector Non-linearity: No (USB2+H05261)
Correct for Stray Light: No (USB2+H05261)
Number of Pixels in Processed Spectrum: 2048
>>>>>Begin Processed Spectral Data<<<<<
365.73	0.00
365.92	0.00
366.12	0.00
366.32	0.00
366.52	0.00
366.72	0.00
366.91	0.00
367.11	0.00
367.31	0.00
367.51	0.00
367.70	0.00
367.90	0.00
368.10	0.00
368.30	0.00
368.49	0.00
368.69	0.00
368.89	0.00
369.09	0.00
369.28	0.00
369.48	0.00
369.68	0.00
369.87	0.00
370.07	0.00
370.27	0.00
370.47	0.00
370.66	37.45
370.86	102.98
371.06	110.01
371.25	156.82
371.45	119.37
371.65	107.66
371.84	138.09
372.04	140.43
372.24	191.92
372.44	156.82
372.63	138.09
372.83	180.22
373.03	215.33
373.22	269.16
373.42	184.90
373.62	208.31
373.81	238.73
374.01	173.20
374.21	194.26
374.40	250.44
374.60	236.39
374.79	234.05
374.99	252.78
375.19	283.20
375.38	285.55
375.58	255.12
375.78	245.76
375.97	245.76
376.17	257.46
376.37	311.29
376.56	224.69
376.76	259.80
376.95	304.27
377.15	283.20
377.35	224.69
377.54	266.82
377.74	201.29
377.93	250.44
378.13	285.55
378.33	259.80
378.52	205.97
378.72	287.89
378.91	369.80
379.11	337.04
379.31	341.72
379.50	269.16
379.70	348.74
379.89	297.25
380.09	327.68
380.28	339.38
380.48	334.70
380.68	320.65
380.87	292.57
381.07	290.23
381.26	362.78
381.46	306.61
381.65	255.12
381.85	353.42
382.04	304.27
382.24	292.57
382.43	327.68
382.63	278.52
382.83	351.08
383.02	320.65
383.22	379.17
383.41	395.55
383.61	383.85
383.80	423.64
384.00	339.38
384.19	294.91
384.39	358.10
384.58	372.15
384.78	395.55
384.97	411.93
385.17	381.51
385.36	425.98
385.56	498.53
385.75	444.70
385.95	325.33
386.14	379.17
386.34	468.11
386.53	470.45
386.72	344.06
386.92	390.87
387.11	367.46
387.31	393.21
387.50	477.47
387.70	428.32
387.89	498.53
388.09	475.13
388.28	437.68
388.48	479.81
388.67	477.47
388.86	477.47
389.06	500.87
389.25	428.32
389.45	468.11
389.64	411.93
389.84	543.00
390.03	470.45
390.22	472.79
390.42	470.45
390.61	461.09
390.81	463.43
391.00	479.81
391.19	547.69
391.39	543.00
391.58	517.26
391.78	491.51
391.97	500.87
392.16	461.09
392.36	587.47
392.55	528.96
392.75	543.00
392.94	557.05
393.13	547.69
393.33	561.73
393.52	634.29
393.71	638.97
393.91	585.13
394.10	510.24
394.29	545.34
394.49	620.24
394.68	552.37
394.88	683.44
395.07	568.75
395.26	610.88
395.46	657.69
395.65	655.35
395.84	580.45
396.04	599.18
396.23	688.12
396.42	690.46
396.62	718.54
396.81	664.71
397.00	617.90
397.19	681.10
397.39	643.65
397.58	718.54
397.77	645.99
397.97	709.18
398.16	727.91
398.35	695.14
398.55	685.78
398.74	711.52
398.93	802.80
399.12	681.10
399.32	730.25
399.51	793.44
399.70	739.61
399.90	681.10
400.09	641.31
400.28	795.78
400.47	772.38
400.67	833.23
400.86	697.48
401.05	739.61
401.24	795.78
401.44	805.14
401.63	816.85
401.82	812.17
402.01	891.74
402.21	779.40
402.40	800.46
402.59	741.95
402.78	758.33
402.97	823.87
403.17	861.32
403.36	898.77
403.55	912.81
403.74	1001.75
403.93	959.62
404.13	936.21
404.32	854.30
404.51	849.61
404.70	1011.11
404.89	894.08
405.09	992.39
405.28	945.58
405.47	985.37
405.66	1011.11
405.85	999.41
406.05	985.37
406.24	985.37
406.43	1041.54
406.62	968.98
406.81	1081.33
407.00	959.62
407.20	994.73
407.39	978.34
407.58	964.30
407.77	1121.12
407.96	1015.79
408.15	1156.22
408.34	1114.10
408.54	1130.48
408.73	1191.33
408.92	1074.31
409.11	1048.56
409.30	1076.65
409.49	1151.54
409.68	1165.59
409.87	1144.52
410.07	1170.27
410.26	1186.65
410.45	1221.76
410.64	1146.86
410.83	1224.10
411.02	1191.33
411.21	1231.12
411.40	1256.87
411.59	1327.08
411.78	1207.72
411.98	1217.08
412.17	1256.87
412.36	1242.82
412.55	1371.55
412.74	1399.64
412.93	1401.98
413.12	1383.26
413.31	1387.94
413.50	1420.71
413.69	1448.79
413.88	1486.24
414.07	1420.71
414.26	1462.83
414.45	1488.58
414.64	1416.02
414.83	1593.90
415.02	1469.86
415.22	1476.88
415.41	1572.84
415.60	1699.23
415.79	1530.71
415.98	1537.73
416.17	1640.72
416.36	1528.37
416.55	1584.54
416.74	1556.46
416.93	1584.54
417.12	1687.53
417.31	1720.29
417.50	1664.12
417.69	1701.57
417.88	1767.10
418.07	1680.50
418.26	1823.28
418.45	1785.83
418.64	1790.51
418.83	1781.15
419.02	1750.72
419.21	1818.60
419.39	1827.96
419.58	1778.81
419.77	1764.76
419.96	1830.30
420.15	2003.50
420.34	1933.28
420.53	1874.77
420.72	1956.69
420.91	1949.67
421.10	1949.67
421.29	2019.88
421.48	1900.52
421.67	1940.30
421.86	1905.20
422.05	2019.88
422.24	1944.99
422.43	1863.07
422.61	1987.11
422.80	1977.75
422.99	1963.71
423.18	1959.03
423.37	1914.56
423.56	2015.20
423.75	1942.64
423.94	2057.33
424.13	1984.77
424.32	2129.89
424.50	2104.14
424.69	2092.44
424.88	2066.69
425.07	2022.22
425.26	2033.93
425.45	1961.37
425.64	2129.89
425.83	2033.93
426.01	2165.00
426.20	2010.52
426.39	2090.10
426.58	1968.39
426.77	2031.58
426.96	2125.21
427.15	2012.86
427.33	2120.53
427.52	2106.48
427.71	2125.21
427.90	2038.61
428.09	2150.95
428.28	2162.66
428.46	2214.15
428.65	2190.74
428.84	2188.40
429.03	2298.41
429.22	2150.95
429.40	2249.25
429.59	2335.85
429.78	2195.42
429.97	2125.21
430.16	2293.72
430.34	2366.28
430.53	2256.28
430.72	2377.98
430.91	2506.71
431.10	2326.49
431.28	2326.49
431.47	2230.53
431.66	2282.02
431.85	2354.58
432.03	2431.82
432.22	2499.69
432.41	2396.71
432.60	2476.29
432.79	2438.84
432.97	2644.81
433.16	2478.63
433.35	2401.39
433.54	2434.16
433.72	2499.69
433.91	2544.16
434.10	2420.11
434.28	2644.81
434.47	2593.31
434.66	2614.38
434.85	2612.04
435.03	2551.18
435.22	2647.15
435.41	2743.11
435.59	2576.93
435.78	2663.53
435.97	2675.23
436.16	2719.70
436.34	2523.10
436.53	2530.12
436.72	2665.87
436.90	2644.81
437.09	2766.51
437.28	2663.53
437.46	2712.68
437.65	2768.85
437.84	2712.68
438.02	2733.75
438.21	2850.77
438.40	2747.79
438.58	2937.37
438.77	2752.47
438.96	2888.22
439.14	2930.35
439.33	2836.73
439.52	2895.24
439.70	2942.05
439.89	3033.33
440.08	3096.53
440.26	3007.59
440.45	3239.30
440.63	2993.55
440.82	3105.89
441.01	3129.30
441.19	3133.98
441.38	3157.38
441.57	3166.74
441.75	3197.17
441.94	3290.79
442.12	3208.87
442.31	3412.50
442.50	3346.97
442.68	3368.03
442.87	3300.16
443.05	3358.67
443.24	3421.86
443.43	3414.84
443.61	3492.08
443.80	3499.10
443.98	3295.47
444.17	3386.76
444.35	3475.70
444.54	3515.48
444.73	3536.55
444.91	3459.31
445.10	3494.42
445.28	3344.63
445.47	3353.99
445.65	3478.04
445.84	3632.51
446.02	3468.67
446.21	3431.23
446.39	3363.35
446.58	3517.83
446.77	3531.87
446.95	3456.97
447.14	3602.08
447.32	3520.17
447.51	3550.59
447.69	3475.70
447.88	3480.38
448.06	3585.70
448.25	3452.29
448.43	3578.68
448.62	3698.05
448.80	3578.68
448.99	3552.93
449.17	3702.73
449.36	3522.51
449.54	3726.13
449.73	3660.60
449.91	3676.98
450.10	3616.13
450.28	3786.99
450.46	3770.60
450.65	3669.96
450.83	3866.56
451.02	3761.24
451.20	3829.12
451.39	3665.28
451.57	3798.69
451.76	3777.62
451.94	3719.11
452.13	3873.59
452.31	3691.02
452.49	3824.44
452.68	3784.65
452.86	3925.08
453.05	3885.29
453.23	4011.68
453.42	4009.34
453.60	3786.99
453.78	3866.56
453.97	3934.44
454.15	4032.74
454.34	3927.42
454.52	4009.34
454.70	4004.66
454.89	4058.49
455.07	4016.36
455.26	4126.36
455.44	4156.79
455.62	4147.43
455.81	4147.43
455.99	4105.30
456.17	4194.24
456.36	4079.55
456.54	4245.73
456.73	4231.69
456.91	4287.86
457.09	4362.76
457.28	4367.44
457.46	4320.63
457.64	4269.14
457.83	4339.35
458.01	4297.22
458.19	4547.66
458.38	4454.04
458.56	4528.94
458.74	4397.87
458.93	4493.83
459.11	4547.66
459.29	4416.59
459.48	4503.19
459.66	4470.42
459.84	4526.60
460.03	4566.39
460.21	4538.30
460.39	4571.07
460.57	4599.15
460.76	4608.51
460.94	4718.52
461.12	4678.73
461.31	4664.69
461.49	4690.43
461.67	4550.00
461.85	4877.68
462.04	4800.44
462.22	4894.06
462.40	4798.10
462.59	4847.25
462.77	4744.27
462.95	4896.40
463.13	4896.40
463.32	4805.12
463.50	4746.61
463.68	4840.23
463.86	4753.63
464.05	4821.50
464.23	4933.85
464.41	5039.17
464.59	4636.60
464.78	5097.69
464.96	4971.30
465.14	4901.08
465.32	5025.13
465.50	5074.28
465.69	5200.67
465.87	5067.26
466.05	5011.09
466.23	4973.64
466.41	5048.54
466.60	5317.70
466.78	5081.30
466.96	4975.98
467.14	4968.96
467.32	5163.22
467.51	5224.08
467.69	5088.32
467.87	5188.97
468.05	5268.55
468.23	5188.97
468.41	5100.03
468.60	5135.14
468.78	5240.46
468.96	5303.65
469.14	5200.67
469.32	5364.51
469.50	5277.91
469.69	5245.14
469.87	5437.06
470.05	5434.72
470.23	5479.19
470.41	5511.96
470.59	5502.60
470.77	5495.58
470.95	5673.46
471.14	5465.15
471.32	5509.62
471.50	5591.54
471.68	5530.69
471.86	5558.77
472.04	5797.51
472.22	5809.21
472.40	5570.48
472.58	5760.06
472.77	5795.17
472.95	5884.11
473.13	5984.75
473.31	5865.38
473.49	5884.11
473.67	5769.42
473.85	5947.30
474.03	6115.82
474.21	5970.71
474.39	6076.03
474.57	6200.08
474.75	6143.91
474.93	6235.19
475.12	6258.59
475.30	6207.10
475.48	6272.64
475.66	6345.19
475.84	6476.26
476.02	6403.71
476.20	6473.92
476.38	6619.04
476.56	6731.38
476.74	6490.31
476.92	6651.80
477.10	6513.71
477.28	6719.68
477.46	6670.53
477.64	6817.98
477.82	7052.03
478.00	7028.63
478.18	7000.54
478.36	7129.27
478.54	7236.94
478.72	7119.91
478.90	7321.20
479.08	7286.09
479.26	7293.11
479.44	7325.88
479.62	7222.89
479.80	7588.02
479.98	7379.71
480.16	7573.97
480.34	7529.50
480.52	7417.16
480.70	7911.01
480.88	7747.17
481.06	7756.54
481.24	7789.30
481.41	7712.07
481.59	8025.70
481.77	8002.29
481.95	7941.44
482.13	8095.91
482.31	8168.47
482.49	8208.26
482.67	8409.54
482.85	8458.70
483.03	8580.40
483.21	8552.32
483.39	8692.75
483.57	8519.55
483.74	8744.24
483.92	8751.26
484.10	8716.16
484.28	9034.47
484.46	9125.75
484.64	9317.67
484.82	9128.09
485.00	9284.91
485.18	9287.25
485.35	9226.39
485.53	9549.39
485.71	9383.21
485.89	9837.27
486.07	9500.23
486.25	9537.68
486.43	9715.56
486.61	9813.87
486.78	9900.47
486.96	10061.96
487.14	10188.35
487.32	10141.54
487.50	10057.28
487.68	10349.85
487.85	10375.59
488.03	10333.47
488.21	10611.99
488.39	10703.27
488.57	10483.26
488.75	10981.79
488.92	11042.65
489.10	10670.50
489.28	11096.48
489.46	11227.55
489.64	11140.95
489.81	11433.52
489.99	11515.44
490.17	11269.68
490.35	11583.31
490.53	11508.41
490.70	11618.42
490.88	11480.33
491.06	11754.17
491.24	11831.41
491.41	11871.20
491.59	11714.38
491.77	12009.29
491.95	12002.27
492.13	12435.27
492.30	12367.39
492.48	12304.20
492.66	12411.86
492.84	12664.64
493.01	12734.85
493.19	12681.02
493.37	12919.76
493.54	12734.85
493.72	12898.69
493.90	12760.60
494.08	13060.19
494.25	13249.77
494.43	13324.67
494.61	13338.71
494.79	13369.14
494.96	13312.97
495.14	13591.49
495.32	13603.19
495.49	13689.79
495.67	13827.88
495.85	14005.77
496.02	13935.55
496.20	13661.71
496.38	14106.41
496.55	13846.61
496.73	14078.32
496.91	14188.33
497.09	14452.81
497.26	14345.14
497.44	14345.14
497.62	14361.53
497.79	14731.33
497.97	14710.27
498.14	15009.86
498.32	14731.33
498.50	14888.15
498.67	15349.23
498.85	14963.04
499.03	14977.09
499.20	15122.20
499.38	15009.86
499.56	15307.10
499.73	15400.72
499.91	15302.42
500.08	15522.43
500.26	15580.95
500.44	15382.00
500.61	15463.92
500.79	15213.48
500.97	15616.05
501.14	15988.20
501.32	15948.41
501.49	15754.15
501.67	15843.09
501.84	15716.70
502.02	16037.35
502.20	16212.89
502.37	16437.58
502.55	16219.91
502.72	16404.81
502.90	16259.70
503.07	16358.00
503.25	16222.25
503.43	16315.87
503.60	16423.54
503.78	16725.47
503.95	16622.48
504.13	16793.34
504.30	16856.54
504.48	16837.81
504.65	16915.05
504.83	17149.11
505.01	17053.14
505.18	16868.24
505.36	17118.68
505.53	17167.83
505.71	17202.94
505.88	17165.49
506.06	17195.92
506.23	17542.32
506.41	17345.71
506.58	17661.68
506.76	17699.13
506.93	17406.56
507.11	17373.80
507.28	17582.10
507.46	17703.81
507.63	18033.83
507.81	17963.61
507.98	17958.93
508.16	17694.45
508.33	18160.22
508.50	17947.23
508.68	18188.30
508.85	18249.16
509.03	18195.32
509.20	18125.11
509.38	18338.10
509.55	18415.34
509.73	18319.37
509.90	18572.15
510.08	18298.31
510.25	18464.49
510.42	18483.21
510.60	18600.24
510.77	18703.22
510.95	18644.71
511.12	18534.70
511.30	18890.46
511.47	18766.42
511.64	19056.64
511.82	19063.66
511.99	19197.07
512.17	19756.46
512.34	19381.98
512.51	19344.53
512.69	19309.42
512.86	19391.34
513.04	19447.51
513.21	19527.09
513.38	19709.65
513.56	19754.12
513.73	19552.84
513.90	19520.07
514.08	19819.66
514.25	19641.78
514.43	19859.45
514.60	19800.93
514.77	19960.09
514.95	20262.02
515.12	20074.77
515.29	19969.45
515.47	20252.66
515.64	20437.56
515.81	19969.45
515.99	20353.30
516.16	20343.94
516.33	20355.64
516.51	20730.12
516.68	20194.14
516.85	20580.33
517.03	20561.61
517.20	20559.27
517.37	20678.63
517.54	20807.36
517.72	20933.75
517.89	20547.56
518.06	20706.72
518.24	20947.79
518.41	20994.61
518.58	20886.94
518.75	20641.18
518.93	21312.92
519.10	21036.74
519.27	20954.82
519.45	20917.37
519.62	21153.76
519.79	21008.65
519.96	21415.90
520.14	21514.20
520.31	21413.56
520.48	21891.03
520.65	21621.87
520.83	21638.25
521.00	21708.47
521.17	21521.23
521.34	21462.71
521.52	21626.55
521.69	21610.17
521.86	21848.90
522.03	21710.81
522.20	21881.67
522.38	21736.56
522.55	21963.59
522.72	21921.46
522.89	22207.00
523.07	22097.00
523.24	22176.58
523.41	22391.91
523.58	21874.65
523.75	22071.25
523.92	22457.44
524.10	22272.54
524.27	22504.25
524.44	22572.13
524.61	22794.48
524.78	22684.47
524.96	22689.15
525.13	22693.83
525.30	22522.98
525.47	22586.17
525.64	22778.09
525.81	22979.38
525.98	22923.21
526.16	23173.64
526.33	23077.68
526.50	23323.44
526.67	22923.21
526.84	22888.10
527.01	22883.42
527.18	23096.41
527.36	23014.49
527.53	23316.42
527.70	23365.57
527.87	23445.15
528.04	22923.21
528.21	23433.44
528.38	23442.81
528.55	23620.69
528.72	23517.70
528.89	23852.40
529.07	23800.91
529.24	23452.17
529.41	23316.42
529.58	23646.43
529.75	23585.58
529.92	23550.47
530.09	23690.90
530.26	23866.44
530.43	24315.83
530.60	23520.04
530.77	23782.18
530.94	23711.97
531.11	23562.17
531.28	23754.10
531.46	24060.71
531.63	24423.49
531.80	24149.65
531.97	24364.98
532.14	24240.93
532.31	24294.76
532.48	24091.13
532.65	23967.09
532.82	24222.20
532.99	24386.04
533.16	24617.75
533.33	24521.79
533.50	24875.21
533.67	24840.11
533.84	24168.37
534.01	24580.31
534.18	24329.87
534.35	24812.02
534.52	24456.26
534.69	24751.17
534.86	24772.23
535.03	24484.34
535.20	24891.60
535.37	24900.96
535.54	24964.15
535.71	24762.87
535.88	25003.94
536.05	25008.62
536.22	25039.05
536.38	25319.92
536.55	25280.13
536.72	25399.49
536.89	24842.45
537.06	25221.61
537.23	25228.63
537.40	25006.28
537.57	25324.60
537.74	24966.49
537.91	25603.12
538.08	25481.41
538.25	25572.69
538.42	25446.30
538.59	25560.99
538.75	25404.17
538.92	25486.09
539.09	25851.22
539.26	25621.84
539.43	25504.82
539.60	25778.66
539.77	25401.83
539.94	25930.80
540.11	25883.98
540.28	25865.26
540.44	25942.50
540.61	25851.22
540.78	25504.82
540.95	25968.24
541.12	25439.28
541.29	25900.37
541.46	25895.69
541.62	25472.05
541.79	25954.20
541.96	25912.07
542.13	25961.22
542.30	26045.48
542.47	26017.40
542.63	26148.46
542.80	26246.77
542.97	26595.51
543.14	26426.99
543.31	26801.47
543.48	26143.78
543.64	26684.45
543.81	26747.64
543.98	26927.86
544.15	26614.23
544.32	26632.96
544.48	26836.58
544.65	26843.60
544.82	26874.03
544.99	26532.31
545.16	26698.49
545.32	26623.59
545.49	26834.24
545.66	26864.67
545.83	27136.17
546.00	26984.04
546.16	27124.47
546.33	26621.25
546.50	26492.52
546.67	26735.94
546.83	26892.76
547.00	26948.93
547.17	26705.51
547.34	26981.70
547.50	27164.26
547.67	27601.94
547.84	27143.19
548.00	27197.02
548.17	27590.24
548.34	27363.20
548.51	27653.43
548.67	27576.19
548.84	27363.20
549.01	27606.62
549.18	27229.79
549.34	27426.40
549.51	27576.19
549.68	27400.65
549.84	27281.28
550.01	27585.55
550.18	27309.37
550.34	27985.79
550.51	27812.59
550.68	27835.99
550.84	27491.93
551.01	28046.64
551.18	27562.15
551.34	27405.33
551.51	27807.90
551.68	27812.59
551.84	28294.74
552.01	27679.18
552.18	27618.32
552.34	27716.62
552.51	27725.99
552.68	27971.74
552.84	27903.87
553.01	27845.35
553.18	28130.90
553.34	28280.69
553.51	28208.14
553.67	27674.49
553.84	28690.29
554.01	27772.80
554.17	28313.46
554.34	28058.34
554.51	28016.21
554.67	28154.30
554.84	27903.87
555.00	28123.88
555.17	28182.39
555.33	28517.09
555.50	28261.97
555.67	28339.21
555.83	28231.54
556.00	28589.64
556.16	28802.63
556.33	28346.23
556.50	28369.63
556.66	28376.66
556.83	28531.13
556.99	28606.03
557.16	29015.62
557.32	28783.91
557.49	28669.22
557.65	28584.96
557.82	28318.14
557.98	28666.88
558.15	28631.77
558.32	29074.13
558.48	28758.16
558.65	28692.63
558.81	28800.29
558.98	29095.20
559.14	28919.66
559.31	28821.36
559.47	28664.54
559.64	29275.42
559.80	29034.35
559.97	28657.52
560.13	28858.81
560.30	28893.91
560.46	28950.09
560.63	28884.55
560.79	29184.14
560.96	29219.25
561.12	29008.60
561.29	28938.38
561.45	28842.42
561.61	28774.55
561.78	29120.95
561.94	29116.26
562.11	29214.57
562.27	28797.95
562.44	29249.67
562.60	29294.14
562.77	29298.83
562.93	29146.69
563.10	29308.19
563.26	29221.59
563.42	29759.91
563.59	28950.09
563.75	28957.11
563.92	29158.39
564.08	29326.91
564.24	29294.14
564.41	29329.25
564.57	29305.85
564.74	29223.93
564.90	29385.43
565.07	29214.57
565.23	29160.73
565.39	29289.46
565.56	29383.09
565.72	29146.69
565.88	29406.49
566.05	29565.65
566.21	29214.57
566.38	29607.78
566.54	29163.08
566.70	29450.96
566.87	29769.27
567.03	29734.17
567.19	30096.95
567.36	29617.14
567.52	29582.03
567.68	29855.87
567.85	29589.05
568.01	29696.72
568.17	29092.86
568.34	29797.36
568.50	29937.79
568.66	29668.63
568.83	29979.92
568.99	29504.79
569.15	29750.55
569.32	29530.54
569.48	29472.03
569.64	29614.80
569.81	29717.78
569.97	29476.71
570.13	29504.79
570.30	29509.47
570.46	29741.19
570.62	29731.83
570.78	29352.66
570.95	29586.71
571.11	29771.61
571.27	29647.57
571.43	29544.58
571.60	29523.52
571.76	29619.48
571.92	29816.08
572.09	29748.21
572.25	29846.51
572.41	29862.90
572.57	30066.52
572.74	30047.80
572.90	29734.17
573.06	29858.21
573.22	29387.77
573.38	29593.73
573.55	29677.99
573.71	29916.73
573.87	29795.02
574.03	29717.78
574.20	29958.86
574.36	29984.60
574.52	29844.17
574.68	29851.19
574.84	29729.48
575.01	29919.07
575.17	29867.58
575.33	29577.35
575.49	29460.32
575.65	29656.93
575.82	30118.01
575.98	29809.06
576.14	29888.64
576.30	29441.60
576.46	29844.17
576.62	29848.85
576.79	30167.16
576.95	30026.73
577.11	30000.99
577.27	29986.94
577.43	30099.29
577.59	29970.56
577.75	29865.24
577.92	29930.77
578.08	29869.92
578.24	29453.30
578.40	29788.00
578.56	30043.12
578.72	30178.87
578.88	29720.12
579.04	30017.37
579.21	29572.67
579.37	29752.89
579.53	30235.04
579.69	29848.85
579.85	29631.18
580.01	30066.52
580.17	29876.94
580.33	30008.01
580.49	30361.43
580.65	30185.89
580.82	29954.18
580.98	30553.35
581.14	30485.48
581.30	30246.74
581.46	29685.01
581.62	29734.17
581.78	30122.69
581.94	30267.81
582.10	29802.04
582.26	30419.94
582.42	29771.61
582.58	30190.57
582.74	30370.79
582.90	30003.33
583.06	30197.59
583.22	29874.60
583.38	29516.50
583.54	30129.72
583.70	30251.42
583.86	30436.33
584.02	29685.01
584.18	30125.04
584.34	30335.68
584.50	30230.36
584.66	30164.82
584.82	29888.64
584.98	30183.55
585.14	30291.21
585.30	29741.19
585.46	30288.87
585.62	30150.78
585.78	30405.90
585.94	29961.20
586.10	30462.07
586.26	30022.05
586.42	30618.89
586.58	30419.94
586.74	30213.98
586.90	29610.12
587.06	30101.63
587.22	30408.24
587.38	30066.52
587.54	30223.34
587.70	30581.44
587.86	30267.81
588.02	30295.89
588.18	30415.26
588.34	30005.67
588.49	30384.83
588.65	30050.14
588.81	29858.21
588.97	30277.17
589.13	30272.49
589.29	30398.88
589.45	30235.04
589.61	30508.88
589.77	30639.95
589.93	30419.94
590.08	30464.41
590.24	30443.35
590.40	30560.37
590.56	30504.20
590.72	30218.66
590.88	30188.23
591.04	30476.12
591.20	30628.25
591.35	30560.37
591.51	30780.39
591.67	30726.55
591.83	30815.49
591.99	30412.92
