SpectraSuite Data File
++++++++++++++++++++++++++++++++++++
Date: Fri Oct 18 13:58:26 GMT-05:00 2013
User: bianchi
Dark Spectrum Present: No
Reference Spectrum Present: No
Number of Sampled Component Spectra: 1
Spectrometers: USB2+H05261
Integration Time (usec): 50000 (USB2+H05261)
Spectra Averaged: 1 (USB2+H05261)
Boxcar Smoothing: 0 (USB2+H05261)
Correct for Electrical Dark: No (USB2+H05261)
Strobe/Lamp Enabled: No (USB2+H05261)
Correct for Detector Non-linearity: No (USB2+H05261)
Correct for Stray Light: No (USB2+H05261)
Number of Pixels in Processed Spectrum: 2048
>>>>>Begin Processed Spectral Data<<<<<
365.73	0.00
365.92	0.00
366.12	0.00
366.32	0.00
366.52	0.00
366.72	0.00
366.91	0.00
367.11	0.00
367.31	0.00
367.51	0.00
367.70	0.00
367.90	0.00
368.10	0.00
368.30	0.00
368.49	0.00
368.69	0.00
368.89	0.00
369.09	0.00
369.28	0.00
369.48	0.00
369.68	0.00
369.87	0.00
370.07	0.00
370.27	0.00
370.47	0.00
370.66	0.00
370.86	166.18
371.06	196.60
371.25	105.32
371.45	93.62
371.65	102.98
371.84	121.71
372.04	133.41
372.24	133.41
372.44	112.35
372.63	175.54
372.83	241.08
373.03	224.69
373.22	220.01
373.42	154.48
373.62	191.92
373.81	175.54
374.01	205.97
374.21	252.78
374.40	210.65
374.60	285.55
374.79	231.71
374.99	255.12
375.19	245.76
375.38	259.80
375.58	248.10
375.78	217.67
375.97	313.63
376.17	330.02
376.37	229.37
376.56	194.26
376.76	222.35
376.95	255.12
377.15	252.78
377.35	285.55
377.54	241.08
377.74	191.92
377.93	325.33
378.13	241.08
378.33	285.55
378.52	262.14
378.72	311.29
378.91	386.19
379.11	245.76
379.31	374.49
379.50	252.78
379.70	294.91
379.89	346.40
380.09	301.93
380.28	318.31
380.48	292.57
380.68	280.86
380.87	297.25
381.07	353.42
381.26	273.84
381.46	294.91
381.65	355.76
381.85	315.97
382.04	330.02
382.24	397.89
382.43	346.40
382.63	250.44
382.83	304.27
383.02	444.70
383.22	374.49
383.41	365.12
383.61	306.61
383.80	425.98
384.00	365.12
384.19	308.95
384.39	400.23
384.58	365.12
384.78	358.10
384.97	330.02
385.17	374.49
385.36	332.36
385.56	358.10
385.75	379.17
385.95	393.21
386.14	386.19
386.34	416.62
386.53	397.89
386.72	355.76
386.92	402.57
387.11	416.62
387.31	489.17
387.50	454.06
387.70	292.57
387.89	390.87
388.09	411.93
388.28	503.22
388.48	500.87
388.67	404.91
388.86	479.81
389.06	390.87
389.25	430.66
389.45	472.79
389.64	498.53
389.84	461.09
390.03	479.81
390.22	526.62
390.42	505.56
390.61	451.72
390.81	423.64
391.00	510.24
391.19	465.77
391.39	486.83
391.58	472.79
391.78	559.39
391.97	519.60
392.16	451.72
392.36	521.94
392.55	528.96
392.75	559.39
392.94	507.90
393.13	512.58
393.33	568.75
393.52	552.37
393.71	589.82
393.91	573.43
394.10	603.86
394.29	498.53
394.49	573.43
394.68	615.56
394.88	554.71
395.07	641.31
395.26	580.45
395.46	566.41
395.65	636.63
395.84	571.09
396.04	550.03
396.23	669.39
396.42	580.45
396.62	676.41
396.81	587.47
397.00	592.16
397.19	690.46
397.39	765.36
397.58	669.39
397.77	744.29
397.97	730.25
398.16	667.05
398.35	690.46
398.55	664.71
398.74	732.59
398.93	744.29
399.12	772.38
399.32	685.78
399.51	660.03
399.70	802.80
399.90	704.50
400.09	702.16
400.28	702.16
400.47	748.97
400.67	746.63
400.86	791.10
401.05	763.01
401.24	720.88
401.44	828.55
401.63	784.08
401.82	814.51
402.01	732.59
402.21	849.61
402.40	849.61
402.59	840.25
402.78	809.83
402.97	727.91
403.17	795.78
403.36	884.72
403.55	847.27
403.74	866.00
403.93	980.68
404.13	903.45
404.32	863.66
404.51	919.83
404.70	959.62
404.89	983.02
405.09	908.13
405.28	933.87
405.47	1053.24
405.66	976.00
405.85	1090.69
406.05	999.41
406.24	950.26
406.43	933.87
406.62	1015.79
406.81	1034.52
407.00	1046.22
407.20	1027.50
407.39	1074.31
407.58	1029.84
407.77	1036.86
407.96	1118.78
408.15	1043.88
408.34	966.64
408.54	987.71
408.73	1041.54
408.92	1076.65
409.11	1083.67
409.30	1165.59
409.49	1137.50
409.68	1191.33
409.87	1114.10
410.07	1170.27
410.26	1128.14
410.45	1205.38
410.64	1142.18
410.83	1259.21
411.02	1151.54
411.21	1217.08
411.40	1256.87
411.59	1261.55
411.78	1181.97
411.98	1399.64
412.17	1280.27
412.36	1301.34
412.55	1299.00
412.74	1383.26
412.93	1399.64
413.12	1427.73
413.31	1387.94
413.50	1371.55
413.69	1437.09
413.88	1364.53
414.07	1467.52
414.26	1418.36
414.45	1423.05
414.64	1462.83
414.83	1502.62
415.02	1416.02
415.22	1516.67
415.41	1526.03
415.60	1516.67
415.79	1629.01
415.98	1572.84
416.17	1591.56
416.36	1572.84
416.55	1645.40
416.74	1554.12
416.93	1575.18
417.12	1572.84
417.31	1729.66
417.50	1715.61
417.69	1865.41
417.88	1706.25
418.07	1774.13
418.26	1685.19
418.45	1804.55
418.64	1813.92
418.83	1710.93
419.02	1717.95
419.21	1732.00
419.39	1788.17
419.58	1863.07
419.77	1764.76
419.96	1888.81
420.15	1902.86
420.34	1809.23
420.53	1762.42
420.72	1877.11
420.91	1966.05
421.10	1881.79
421.29	1919.24
421.48	1930.94
421.67	1912.22
421.86	1968.39
422.05	1975.41
422.24	1956.69
422.43	1919.24
422.61	2038.61
422.80	1874.77
422.99	1977.75
423.18	1935.62
423.37	1961.37
423.56	2054.99
423.75	1959.03
423.94	1977.75
424.13	1771.79
424.32	2008.18
424.50	2001.16
424.69	2073.71
424.88	2022.22
425.07	1998.82
425.26	1982.43
425.45	2019.88
425.64	2054.99
425.83	2047.97
426.01	1989.46
426.20	2078.40
426.39	2003.50
426.58	1954.35
426.77	2047.97
426.96	2057.33
427.15	2033.93
427.33	2167.34
427.52	2090.10
427.71	2090.10
427.90	2179.04
428.09	2197.76
428.28	2265.64
428.46	2225.85
428.65	2193.08
428.84	2237.55
429.03	2373.30
429.22	2160.31
429.40	2279.68
429.59	2324.15
429.78	2129.89
429.97	2113.50
430.16	2031.58
430.34	2228.19
430.53	2415.43
430.72	2242.23
430.91	2251.60
431.10	2363.94
431.28	2265.64
431.47	2197.76
431.66	2459.90
431.85	2476.29
432.03	2495.01
432.22	2457.56
432.41	2441.18
432.60	2459.90
432.79	2347.56
432.97	2443.52
433.16	2476.29
433.35	2544.16
433.54	2471.61
433.72	2565.23
433.91	2429.48
434.10	2434.16
434.28	2644.81
434.47	2642.46
434.66	2605.02
434.85	2497.35
435.03	2597.99
435.22	2551.18
435.41	2729.06
435.59	2590.97
435.78	2583.95
435.97	2740.77
436.16	2647.15
436.34	2546.50
436.53	2630.76
436.72	2663.53
436.90	2635.44
437.09	2633.10
437.28	2647.15
437.46	2754.81
437.65	2715.02
437.84	2782.90
438.02	2754.81
438.21	2846.09
438.40	2759.49
438.58	2757.15
438.77	2979.50
438.96	2792.26
439.14	2998.23
439.33	3000.57
439.52	3023.97
439.70	2939.71
439.89	2923.33
440.08	2967.80
440.26	3000.57
440.45	3009.93
440.63	3033.33
440.82	3171.43
441.01	2993.55
441.19	3192.49
441.38	3098.87
441.57	3220.58
441.75	3080.14
441.94	3260.37
442.12	3295.47
442.31	3267.39
442.50	3386.76
442.68	3234.62
442.87	3435.91
443.05	3349.31
443.24	3442.93
443.43	3424.20
443.61	3410.16
443.80	3417.18
443.98	3265.05
444.17	3197.17
444.35	3421.86
444.54	3449.95
444.73	3335.26
444.91	3463.99
445.10	3307.18
445.28	3318.88
445.47	3349.31
445.65	3405.48
445.84	3332.92
446.02	3492.08
446.21	3428.88
446.39	3487.40
446.58	3356.33
446.77	3508.46
446.95	3454.63
447.14	3389.10
447.32	3620.81
447.51	3403.14
447.69	3459.31
447.88	3480.38
448.06	3522.51
448.25	3515.48
448.43	3480.38
448.62	3438.25
448.80	3447.61
448.99	3440.59
449.17	3574.00
449.36	3541.23
449.54	3674.64
449.73	3660.60
449.91	3712.09
450.10	3646.55
450.28	3627.83
450.46	3669.96
450.65	3728.47
450.83	3625.49
451.02	3833.80
451.20	3801.03
451.39	3911.04
451.57	3686.34
451.76	3765.92
451.94	3625.49
452.13	3871.25
452.31	3976.57
452.49	3698.05
452.68	3730.81
452.86	3840.82
453.05	3829.12
453.23	3889.97
453.42	3880.61
453.60	3960.19
453.78	3915.72
453.97	3882.95
454.15	3953.16
454.34	3815.07
454.52	3941.46
454.70	3941.46
454.89	4007.00
455.07	3950.82
455.26	3990.61
455.44	4077.21
455.62	4039.76
455.81	4051.47
455.99	3997.64
456.17	4194.24
456.36	3988.27
456.54	4084.23
456.73	4344.03
456.91	4299.56
457.09	4337.01
457.28	4311.27
457.46	4266.80
457.64	4489.15
457.83	4327.65
458.01	4173.18
458.19	4280.84
458.38	4320.63
458.56	4362.76
458.74	4402.55
458.93	4344.03
459.11	4428.29
459.29	4568.73
459.48	4451.70
459.66	4402.55
459.84	4404.89
460.03	4538.30
460.21	4514.89
460.39	4318.29
460.57	4519.57
460.76	4498.51
460.94	4538.30
461.12	4561.70
461.31	4681.07
461.49	4444.68
461.67	4470.42
461.85	4774.69
462.04	4535.96
462.22	4748.95
462.40	4608.51
462.59	4678.73
462.77	4634.26
462.95	4905.76
463.13	4788.74
463.32	4676.39
463.50	4709.16
463.68	4894.06
463.86	4905.76
464.05	4786.40
464.23	4828.53
464.41	4798.10
464.59	4718.52
464.78	4844.91
464.96	4837.89
465.14	4943.21
465.32	4851.93
465.50	4940.87
465.69	4837.89
465.87	4945.55
466.05	5076.62
466.23	4798.10
466.41	4983.00
466.60	5188.97
466.78	4975.98
466.96	5043.85
467.14	5149.18
467.32	5046.20
467.51	5191.31
467.69	4887.04
467.87	5041.51
468.05	5118.75
468.23	4919.81
468.41	4994.70
468.60	5174.92
468.78	5245.14
468.96	5074.28
469.14	5191.31
469.32	5289.61
469.50	5163.22
469.69	5294.29
469.87	5327.06
470.05	5378.55
470.23	5362.17
470.41	5273.23
470.59	5329.40
470.77	5345.78
470.95	5516.64
471.14	5638.35
471.32	5336.42
471.50	5628.99
471.68	5668.78
471.86	5621.97
472.04	5577.50
472.22	5722.61
472.40	5518.98
472.58	5593.88
472.77	5661.76
472.95	5830.27
473.13	5923.90
473.31	5715.59
473.49	5790.49
473.67	5884.11
473.85	5778.78
474.03	5841.98
474.21	6003.47
474.39	5888.79
474.57	5998.79
474.75	6097.10
474.93	6244.55
475.12	6214.12
475.30	6202.42
475.48	6186.04
475.66	6286.68
475.84	6097.10
476.02	6296.04
476.20	6190.72
476.38	6527.75
476.56	6506.69
476.74	6406.05
476.92	6539.46
477.10	6649.46
477.28	6789.89
477.46	6595.63
477.64	6736.06
477.82	6759.47
478.00	6988.84
478.18	6956.07
478.36	6953.73
478.54	6883.52
478.72	6876.49
478.90	6967.77
479.08	7190.13
479.26	7126.93
479.44	7215.87
479.62	7185.44
479.80	7176.08
479.98	7124.59
480.16	7370.35
480.34	7461.63
480.52	7337.58
480.70	7583.34
480.88	7475.67
481.06	7798.66
481.24	7550.57
481.41	7566.95
481.59	7878.24
481.77	7948.46
481.95	7829.09
482.13	8053.78
482.31	7939.10
482.49	7981.23
482.67	7871.22
482.85	8182.51
483.03	8280.82
483.21	8454.02
483.39	8442.31
483.57	8409.54
483.74	8706.79
483.92	8667.00
484.10	8416.57
484.28	8809.78
484.46	8938.51
484.64	8816.80
484.82	9071.92
485.00	8814.46
485.18	9289.59
485.35	9275.54
485.53	9277.88
485.71	9479.17
485.89	9678.12
486.07	9577.47
486.25	9575.13
486.43	9633.64
486.61	9858.34
486.78	9593.86
486.96	9713.22
487.14	9902.81
487.32	9958.98
487.50	10097.07
487.68	10099.41
487.85	10307.72
488.03	10429.43
488.21	10721.99
488.39	10391.98
488.57	10473.90
488.75	10579.22
488.92	10815.62
489.10	10796.89
489.28	10787.53
489.46	11133.93
489.64	10761.78
489.81	11014.56
489.99	11290.74
490.17	11133.93
490.35	11562.25
490.53	11466.28
490.70	11449.90
490.88	11211.17
491.06	11639.48
491.24	11426.50
491.41	11847.79
491.59	11819.71
491.77	12156.74
491.95	12009.29
492.13	11976.52
492.30	12105.25
492.48	12138.02
492.66	12095.89
492.84	12194.19
493.01	12404.84
493.19	12622.51
493.37	12669.32
493.54	12727.83
493.72	12615.49
493.90	12725.49
494.08	12872.95
494.25	12910.40
494.43	13029.76
494.61	13181.90
494.79	13200.62
494.96	13114.02
495.14	13188.92
495.32	13551.70
495.49	13493.19
495.67	13486.17
495.85	13378.50
496.02	13486.17
496.20	13823.20
496.38	13823.20
496.55	13848.95
496.73	14071.30
496.91	13944.91
497.09	13982.36
497.26	14377.91
497.44	14054.92
497.62	14183.65
497.79	14389.61
497.97	14438.76
498.14	14525.36
498.32	15005.17
498.50	14738.35
498.67	14806.23
498.85	14754.74
499.03	14806.23
499.20	15026.24
499.38	14970.07
499.56	15131.56
499.73	15372.64
499.91	15190.08
500.08	15438.17
500.26	14899.85
500.44	15396.04
500.61	15447.54
500.79	15431.15
500.97	15592.65
501.14	15473.28
501.32	15681.59
501.49	15719.04
501.67	15573.92
501.84	15908.62
502.02	15875.85
502.20	16137.99
502.37	16086.50
502.55	15798.62
502.72	15992.88
502.90	16182.46
503.07	15719.04
503.25	16336.94
503.43	16170.76
503.60	16470.35
503.78	16458.65
503.95	16336.94
504.13	16350.98
504.30	16751.21
504.48	16545.25
504.65	16779.30
504.83	16610.78
505.01	17011.01
505.18	16858.88
505.36	16971.22
505.53	16980.59
505.71	16814.41
505.88	16889.31
506.06	17020.38
506.23	17135.06
506.41	17151.45
506.58	17191.23
506.76	17057.82
506.93	17476.78
507.11	17104.64
507.28	17326.99
507.46	17387.84
507.63	17511.89
507.81	17621.89
507.98	17621.89
508.16	17523.59
508.33	17729.56
508.50	17738.92
508.68	17802.11
508.85	17933.18
509.03	17823.18
509.20	17774.03
509.38	18106.38
509.55	18192.98
509.73	18265.54
509.90	18471.51
510.08	18108.72
510.25	18466.83
510.42	18398.95
510.60	18623.64
510.77	18443.42
510.95	18523.00
511.12	18471.51
511.30	18740.67
511.47	18604.92
511.64	18572.15
511.82	18878.76
511.99	18721.95
512.17	18930.25
512.34	18991.11
512.51	18998.13
512.69	18794.50
512.86	19084.73
513.04	19529.43
513.21	19250.91
513.38	19136.22
513.56	19536.45
513.73	19248.57
513.90	19468.58
514.08	19557.52
514.25	19494.32
514.43	20004.56
514.60	19456.87
514.77	19550.49
514.95	19960.09
515.12	19838.38
515.29	19445.17
515.47	19693.27
515.64	19889.87
515.81	19744.76
515.99	19836.04
516.16	20166.06
516.33	20006.90
516.51	20386.07
516.68	19962.43
516.85	20273.72
517.03	20510.11
517.20	20137.97
517.37	20379.04
517.54	20521.82
517.72	20430.54
517.89	20416.49
518.06	20678.63
518.24	20519.48
518.41	20655.23
518.58	20601.40
518.75	20828.43
518.93	20891.62
519.10	20851.83
519.27	20809.70
519.45	20599.05
519.62	20594.37
519.79	20910.35
519.96	20812.04
520.14	20781.62
520.31	20732.47
520.48	21336.32
520.65	20978.22
520.83	21151.42
521.00	21397.18
521.17	21022.69
521.34	21399.52
521.52	21170.15
521.69	21696.77
521.86	21631.23
522.03	21827.84
522.20	21682.72
522.38	21460.37
522.55	21455.69
522.72	21694.43
522.89	21778.68
523.07	21886.35
523.24	21916.78
523.41	21940.18
523.58	21900.39
523.75	21811.45
523.92	21699.11
524.10	21907.41
524.27	22164.87
524.44	22127.42
524.61	22300.62
524.78	22380.20
524.96	22192.96
525.13	22211.68
525.30	22211.68
525.47	22298.28
525.64	22520.63
525.81	22719.58
525.98	22698.52
526.16	22309.99
526.33	22787.46
526.50	22892.78
526.67	22368.50
526.84	22595.53
527.01	22719.58
527.18	22614.26
527.36	22724.26
527.53	23065.98
527.70	23056.62
527.87	23227.48
528.04	22696.17
528.21	22810.86
528.38	22850.65
528.55	23021.51
528.72	23328.12
528.89	23133.86
529.07	23257.90
529.24	23213.43
529.41	23171.30
529.58	23379.61
529.75	23344.50
529.92	22993.42
530.09	22878.74
530.26	23604.30
530.43	23700.26
530.60	23421.74
530.77	23484.94
530.94	23828.99
531.11	23494.30
531.28	23573.88
531.46	23414.72
531.63	23555.15
531.80	23807.93
531.97	23742.39
532.14	23747.08
532.31	23974.11
532.48	23828.99
532.65	23875.80
532.82	24191.78
532.99	24119.22
533.16	24067.73
533.33	24159.01
533.50	24435.19
533.67	24177.73
533.84	24049.00
534.01	24252.63
534.18	23983.47
534.35	24119.22
534.52	24332.21
534.69	24624.78
534.86	24180.07
535.03	24142.63
535.20	24280.72
535.37	24322.85
535.54	24753.51
535.71	24458.60
535.88	24592.01
536.05	24517.11
536.22	24741.80
536.38	24737.12
536.55	24737.12
536.72	24514.77
536.89	24613.07
537.06	24407.11
537.23	24652.86
537.40	24772.23
537.57	24945.43
537.74	24900.96
537.91	25268.42
538.08	25104.59
538.25	25020.33
538.42	25046.07
538.59	25078.84
538.75	25179.48
538.92	25120.97
539.09	24978.20
539.26	25284.81
539.43	25202.89
539.60	25348.00
539.77	25048.41
539.94	25202.89
540.11	25261.40
540.28	25249.70
540.44	25268.42
540.61	25249.70
540.78	25296.51
540.95	25493.12
541.12	25661.63
541.29	25252.04
541.46	25429.92
541.62	25500.14
541.79	25652.27
541.96	25256.72
542.13	25617.16
542.30	25837.17
542.47	25539.93
542.63	25671.00
542.80	26089.95
542.97	25883.98
543.14	26291.24
543.31	26174.21
543.48	25689.72
543.64	26558.06
543.81	26324.01
543.98	26305.28
544.15	26335.71
544.32	26497.20
544.48	26768.71
544.65	26263.15
544.82	25937.82
544.99	26036.12
545.16	26319.32
545.32	26260.81
545.49	26501.89
545.66	26576.78
545.83	26829.56
546.00	26817.86
546.16	26286.56
546.33	26003.35
546.50	26553.38
546.67	26560.40
546.83	26408.26
547.00	26443.37
547.17	26684.45
547.34	26625.93
547.50	26827.22
547.67	26991.06
547.84	27129.15
548.00	26967.65
548.17	26888.07
548.34	26838.92
548.51	27005.10
548.67	26986.38
548.84	26906.80
549.01	27056.59
549.18	27030.85
549.34	26930.20
549.51	27117.45
549.68	26972.33
549.84	27147.87
550.01	27154.90
550.18	26906.80
550.34	27395.97
550.51	27543.42
550.68	27541.08
550.84	26995.74
551.01	27569.17
551.18	27192.34
551.34	26813.18
551.51	27417.04
551.68	27641.73
551.84	27669.81
552.01	27541.08
552.18	27498.95
552.34	27447.46
552.51	27255.54
552.68	27632.36
552.84	27365.54
553.01	27665.13
553.18	27697.90
553.34	27435.76
553.51	27936.63
553.67	27274.26
553.84	28191.75
554.01	27597.26
554.17	27714.28
554.34	27473.21
554.51	27721.30
554.67	27835.99
554.84	28493.68
555.00	28013.87
555.17	27613.64
555.33	28081.75
555.50	27938.97
555.67	27887.48
555.83	27960.04
556.00	27985.79
556.16	27873.44
556.33	27969.40
556.50	28046.64
556.66	27967.06
556.83	28030.26
556.99	28519.43
557.16	28294.74
557.32	28311.12
557.49	28215.16
557.65	28011.53
557.82	27765.78
557.98	28355.59
558.15	27924.93
558.32	28095.79
558.48	28308.78
558.65	28048.98
558.81	28624.75
558.98	28404.74
559.14	28517.09
559.31	28339.21
559.47	28102.81
559.64	28444.53
559.80	28531.13
559.97	28884.55
560.13	28341.55
560.30	28556.88
560.46	28645.82
560.63	28549.85
560.79	28683.27
560.96	28587.30
561.12	28243.24
561.29	28381.34
561.45	28584.96
561.61	28779.23
561.78	28484.32
561.94	28559.22
562.11	28414.10
562.27	28802.63
562.44	28762.84
562.60	28507.72
562.77	28500.70
562.93	28620.07
563.10	28842.42
563.26	28563.90
563.42	28699.65
563.59	28877.53
563.75	28748.80
563.92	28580.28
564.08	28891.57
564.24	28599.01
564.41	28575.60
564.57	28854.12
564.74	28673.90
564.90	29149.03
565.07	28936.04
565.23	29284.78
565.39	28879.87
565.56	29006.26
565.72	28893.91
565.88	28919.66
566.05	28589.64
566.21	28837.74
566.38	28856.46
566.54	28751.14
566.70	29357.34
566.87	29184.14
567.03	29032.00
567.19	29397.13
567.36	29074.13
567.52	29053.07
567.68	29160.73
567.85	28699.65
568.01	29420.53
568.17	28774.55
568.34	28627.09
568.50	29076.48
568.66	29387.77
568.83	29338.62
568.99	29308.19
569.15	28982.85
569.32	29193.50
569.48	28910.30
569.64	29355.00
569.81	29207.55
569.97	29006.26
570.13	29399.47
570.30	29008.60
570.46	29404.15
570.62	29165.42
570.78	29226.27
570.95	29010.94
571.11	29034.35
571.27	29097.54
571.43	29120.95
571.60	29249.67
571.76	28954.77
571.92	29053.07
572.09	29088.18
572.25	29172.44
572.41	29509.47
572.57	29235.63
572.74	29720.12
572.90	28863.49
573.06	29439.26
573.22	29504.79
573.38	29357.34
573.55	29488.41
573.71	29731.83
573.87	29633.52
574.03	29579.69
574.20	29294.14
574.36	28973.49
574.52	29413.51
574.68	29324.57
574.84	29390.11
575.01	29207.55
575.17	29677.99
575.33	29235.63
575.49	29144.35
575.65	29153.71
575.82	29333.93
575.98	29310.53
576.14	29488.41
576.30	29336.27
576.46	29111.58
576.62	29420.53
576.79	29493.09
576.95	29420.53
577.11	29244.99
577.27	29525.86
577.43	29537.56
577.59	29399.47
577.75	29280.10
577.92	29221.59
578.08	29111.58
578.24	29385.43
578.40	29284.78
578.56	29404.15
578.72	29542.24
578.88	29867.58
579.04	29879.28
579.21	29455.64
579.37	29411.17
579.53	29537.56
579.69	29406.49
579.85	29392.45
580.01	29308.19
580.17	29287.12
580.33	29640.54
580.49	29301.17
580.65	29680.33
580.82	29542.24
580.98	29633.52
581.14	29502.45
581.30	29443.94
581.46	29439.26
581.62	29399.47
581.78	29666.29
581.94	29174.78
582.10	29575.01
582.26	29663.95
582.42	29645.23
582.58	29776.30
582.74	29724.80
582.90	29780.98
583.06	29874.60
583.22	29734.17
583.38	29418.19
583.54	29446.28
583.70	29352.66
583.86	29457.98
584.02	29654.59
584.18	30120.35
584.34	29647.57
584.50	29785.66
584.66	29607.78
584.82	29469.69
584.98	29766.93
585.14	29434.58
585.30	29373.72
585.46	29731.83
585.62	29490.75
585.78	30024.39
585.94	29443.94
586.10	29600.76
586.26	29764.59
586.42	29731.83
586.58	29724.80
586.74	29912.05
586.90	29408.83
587.06	29692.04
587.22	29399.47
587.38	29539.90
587.54	29979.92
587.70	29907.37
587.86	29895.66
588.02	29649.91
588.18	29965.88
588.34	30061.84
588.49	29752.89
588.65	29706.08
588.81	29900.34
588.97	29830.13
589.13	29806.72
589.29	29738.85
589.45	29809.06
589.61	29956.52
589.77	30031.41
589.93	30295.89
590.08	30176.53
590.24	30029.07
590.40	30216.32
590.56	30008.01
590.72	29832.47
590.88	29802.04
591.04	29986.94
591.20	30127.38
591.35	29902.68
591.51	30244.40
591.67	30445.69
591.83	30148.44
591.99	29818.42
