SpectraSuite Data File
++++++++++++++++++++++++++++++++++++
Date: Fri Oct 18 13:58:22 GMT-05:00 2013
User: bianchi
Dark Spectrum Present: No
Reference Spectrum Present: No
Number of Sampled Component Spectra: 1
Spectrometers: USB2+H05261
Integration Time (usec): 50000 (USB2+H05261)
Spectra Averaged: 1 (USB2+H05261)
Boxcar Smoothing: 0 (USB2+H05261)
Correct for Electrical Dark: No (USB2+H05261)
Strobe/Lamp Enabled: No (USB2+H05261)
Correct for Detector Non-linearity: No (USB2+H05261)
Correct for Stray Light: No (USB2+H05261)
Number of Pixels in Processed Spectrum: 2048
>>>>>Begin Processed Spectral Data<<<<<
365.73	0.00
365.92	0.00
366.12	0.00
366.32	0.00
366.52	0.00
366.72	0.00
366.91	0.00
367.11	0.00
367.31	0.00
367.51	0.00
367.70	0.00
367.90	0.00
368.10	0.00
368.30	0.00
368.49	0.00
368.69	0.00
368.89	0.00
369.09	0.00
369.28	0.00
369.48	0.00
369.68	0.00
369.87	0.00
370.07	0.00
370.27	0.00
370.47	0.00
370.66	84.26
370.86	147.45
371.06	102.98
371.25	220.01
371.45	72.56
371.65	198.95
371.84	187.24
372.04	128.73
372.24	86.60
372.44	161.50
372.63	234.05
372.83	243.42
373.03	191.92
373.22	212.99
373.42	149.79
373.62	278.52
373.81	222.35
374.01	194.26
374.21	238.73
374.40	262.14
374.60	243.42
374.79	262.14
374.99	215.33
375.19	227.03
375.38	243.42
375.58	243.42
375.78	301.93
375.97	243.42
376.17	320.65
376.37	175.54
376.56	271.50
376.76	248.10
376.95	243.42
377.15	283.20
377.35	379.17
377.54	278.52
377.74	297.25
377.93	224.69
378.13	290.23
378.33	313.63
378.52	351.08
378.72	294.91
378.91	271.50
379.11	339.38
379.31	315.97
379.50	290.23
379.70	306.61
379.89	306.61
380.09	236.39
380.28	334.70
380.48	332.36
380.68	259.80
380.87	212.99
381.07	320.65
381.26	362.78
381.46	348.74
381.65	344.06
381.85	395.55
382.04	353.42
382.24	379.17
382.43	271.50
382.63	283.20
382.83	365.12
383.02	372.15
383.22	283.20
383.41	351.08
383.61	311.29
383.80	440.02
384.00	433.00
384.19	369.80
384.39	421.30
384.58	344.06
384.78	262.14
384.97	320.65
385.17	360.44
385.36	430.66
385.56	341.72
385.75	393.21
385.95	322.99
386.14	334.70
386.34	379.17
386.53	386.19
386.72	442.36
386.92	360.44
387.11	442.36
387.31	442.36
387.50	332.36
387.70	390.87
387.89	411.93
388.09	418.96
388.28	454.06
388.48	440.02
388.67	395.55
388.86	489.17
389.06	456.40
389.25	423.64
389.45	463.43
389.64	379.17
389.84	449.38
390.03	531.30
390.22	512.58
390.42	435.34
390.61	526.62
390.81	482.15
391.00	540.66
391.19	524.28
391.39	491.51
391.58	498.53
391.78	479.81
391.97	500.87
392.16	566.41
392.36	514.92
392.55	505.56
392.75	514.92
392.94	407.25
393.13	493.85
393.33	622.58
393.52	568.75
393.71	500.87
393.91	575.77
394.10	561.73
394.29	594.50
394.49	500.87
394.68	566.41
394.88	524.28
395.07	613.22
395.26	613.22
395.46	533.64
395.65	627.26
395.84	641.31
396.04	650.67
396.23	634.29
396.42	557.05
396.62	603.86
396.81	610.88
397.00	636.63
397.19	737.27
397.39	641.31
397.58	641.31
397.77	643.65
397.97	676.41
398.16	688.12
398.35	692.80
398.55	800.46
398.74	748.97
398.93	697.48
399.12	709.18
399.32	683.44
399.51	727.91
399.70	681.10
399.90	685.78
400.09	683.44
400.28	788.76
400.47	793.44
400.67	739.61
400.86	739.61
401.05	795.78
401.24	765.36
401.44	833.23
401.63	812.17
401.82	786.42
402.01	812.17
402.21	826.21
402.40	774.72
402.59	800.46
402.78	819.19
402.97	908.13
403.17	887.06
403.36	884.72
403.55	856.64
403.74	814.51
403.93	880.04
404.13	866.00
404.32	922.17
404.51	884.72
404.70	901.11
404.89	877.70
405.09	952.60
405.28	861.32
405.47	957.28
405.66	976.00
405.85	910.47
406.05	1027.50
406.24	957.28
406.43	922.17
406.62	987.71
406.81	971.32
407.00	985.37
407.20	990.05
407.39	1057.92
407.58	987.71
407.77	1093.03
407.96	1086.01
408.15	1076.65
408.34	1025.15
408.54	1116.44
408.73	971.32
408.92	1109.41
409.11	1078.99
409.30	1130.48
409.49	1011.11
409.68	1203.04
409.87	1078.99
410.07	1174.95
410.26	1153.88
410.45	1121.12
410.64	1214.74
410.83	1224.10
411.02	1188.99
411.21	1139.84
411.40	1245.16
411.59	1179.63
411.78	1247.51
411.98	1263.89
412.17	1320.06
412.36	1289.64
412.55	1291.98
412.74	1320.06
412.93	1336.45
413.12	1149.20
413.31	1296.66
413.50	1376.24
413.69	1476.88
413.88	1502.62
414.07	1411.34
414.26	1486.24
414.45	1376.24
414.64	1472.20
414.83	1378.58
415.02	1533.05
415.22	1551.78
415.41	1514.33
415.60	1521.35
415.79	1561.14
415.98	1607.95
416.17	1584.54
416.36	1528.37
416.55	1540.07
416.74	1535.39
416.93	1612.63
417.12	1582.20
417.31	1668.80
417.50	1643.06
417.69	1797.53
417.88	1675.82
418.07	1715.61
418.26	1671.14
418.45	1818.60
418.64	1774.13
418.83	1710.93
419.02	1729.66
419.21	1774.13
419.39	1858.39
419.58	1872.43
419.77	1914.56
419.96	1893.49
420.15	1919.24
420.34	1863.07
420.53	1865.41
420.72	1877.11
420.91	1980.09
421.10	1984.77
421.29	2008.18
421.48	1839.66
421.67	1923.92
421.86	1926.26
422.05	1963.71
422.24	1935.62
422.43	1975.41
422.61	2036.27
422.80	1952.01
422.99	1984.77
423.18	1949.67
423.37	1980.09
423.56	2127.55
423.75	1942.64
423.94	2050.31
424.13	1937.96
424.32	1846.68
424.50	2033.93
424.69	2019.88
424.88	2155.63
425.07	1940.30
425.26	2017.54
425.45	1975.41
425.64	1884.13
425.83	1973.07
426.01	1933.28
426.20	2001.16
426.39	2094.78
426.58	2087.76
426.77	2008.18
426.96	1900.52
427.15	2008.18
427.33	2176.70
427.52	2043.29
427.71	2134.57
427.90	2087.76
428.09	2064.35
428.28	2090.10
428.46	2132.23
428.65	2228.19
428.84	2202.44
429.03	2181.38
429.22	2160.31
429.40	2069.03
429.59	2179.04
429.78	2172.02
429.97	2179.04
430.16	2113.50
430.34	2338.20
430.53	2293.72
430.72	2223.51
430.91	2394.37
431.10	2354.58
431.28	2345.22
431.47	2310.11
431.66	2401.39
431.85	2352.24
432.03	2450.54
432.22	2487.99
432.41	2387.35
432.60	2565.23
432.79	2291.38
432.97	2480.97
433.16	2443.52
433.35	2392.03
433.54	2511.39
433.72	2511.39
433.91	2516.08
434.10	2527.78
434.28	2389.69
434.47	2417.77
434.66	2499.69
434.85	2560.55
435.03	2602.68
435.22	2562.89
435.41	2731.41
435.59	2691.62
435.78	2607.36
435.97	2670.55
436.16	2698.64
436.34	2483.31
436.53	2668.21
436.72	2698.64
436.90	2590.97
437.09	2703.32
437.28	2649.49
437.46	2686.94
437.65	2719.70
437.84	2738.43
438.02	2801.62
438.21	2743.11
438.40	2619.06
438.58	2829.71
438.77	2867.16
438.96	2864.82
439.14	2871.84
439.33	3028.65
439.52	2918.65
439.70	2949.08
439.89	3028.65
440.08	2986.52
440.26	3040.36
440.45	2853.11
440.63	3089.51
440.82	3070.78
441.01	3157.38
441.19	3143.34
441.38	3229.94
441.57	3241.64
441.75	3183.13
441.94	3166.74
442.12	3220.58
442.31	3314.20
442.50	3215.90
442.68	3288.45
442.87	3332.92
443.05	3239.30
443.24	3389.10
443.43	3234.62
443.61	3358.67
443.80	3583.36
443.98	3379.73
444.17	3302.50
444.35	3356.33
444.54	3400.80
444.73	3438.25
444.91	3353.99
445.10	3449.95
445.28	3309.52
445.47	3335.26
445.65	3398.46
445.84	3396.12
446.02	3501.44
446.21	3358.67
446.39	3487.40
446.58	3520.17
446.77	3536.55
446.95	3442.93
447.14	3316.54
447.32	3412.50
447.51	3522.51
447.69	3405.48
447.88	3471.01
448.06	3506.12
448.25	3471.01
448.43	3461.65
448.62	3447.61
448.80	3503.78
448.99	3590.38
449.17	3501.44
449.36	3740.18
449.54	3550.59
449.73	3695.71
449.91	3733.15
450.10	3637.19
450.28	3775.28
450.46	3557.61
450.65	3733.15
450.83	3868.91
451.02	3763.58
451.20	3660.60
451.39	3779.97
451.57	3784.65
451.76	3707.41
451.94	3927.42
452.13	3789.33
452.31	3934.44
452.49	3758.90
452.68	3808.05
452.86	3889.97
453.05	3794.01
453.23	3920.40
453.42	3840.82
453.60	3810.39
453.78	3969.55
453.97	3719.11
454.15	3794.01
454.34	3946.14
454.52	3899.33
454.70	3936.78
454.89	3985.93
455.07	3934.44
455.26	4142.75
455.44	4109.98
455.62	3943.80
455.81	4093.60
455.99	4088.92
456.17	4159.13
456.36	4072.53
456.54	4236.37
456.73	4100.62
456.91	4252.75
457.09	4273.82
457.28	4194.24
457.46	4173.18
457.64	4397.87
457.83	4273.82
458.01	4173.18
458.19	4332.33
458.38	4154.45
458.56	4381.48
458.74	4388.50
458.93	4287.86
459.11	4447.02
459.29	4327.65
459.48	4432.97
459.66	4524.26
459.84	4421.27
460.03	4510.21
460.21	4418.93
460.39	4580.43
460.57	4599.15
460.76	4582.77
460.94	4477.44
461.12	4667.03
461.31	4550.00
461.49	4533.62
461.67	4664.69
461.85	4692.77
462.04	4739.58
462.22	4592.13
462.40	4655.33
462.59	4744.27
462.77	4744.27
462.95	4793.42
463.13	4746.61
463.32	4648.30
463.50	4589.79
463.68	4933.85
463.86	4641.28
464.05	4648.30
464.23	4739.58
464.41	4847.25
464.59	4828.53
464.78	4940.87
464.96	4858.95
465.14	4828.53
465.32	4968.96
465.50	4856.61
465.69	4954.91
465.87	5006.41
466.05	4884.70
466.23	4936.19
466.41	5004.07
466.60	5036.83
466.78	4936.19
466.96	4994.70
467.14	5008.75
467.32	4999.38
467.51	5020.45
467.69	4922.15
467.87	4912.78
468.05	5102.37
468.23	5142.16
468.41	5039.17
468.60	5128.11
468.78	5308.34
468.96	5111.73
469.14	5174.92
469.32	5287.27
469.50	5151.52
469.69	5280.25
469.87	5392.59
470.05	5235.78
470.23	5287.27
470.41	5308.34
470.59	5481.53
470.77	5343.44
470.95	5453.45
471.14	5535.37
471.32	5582.18
471.50	5619.63
471.68	5547.07
471.86	5706.23
472.04	5607.92
472.22	5685.16
472.40	5717.93
472.58	5678.14
472.77	5722.61
472.95	5926.24
473.13	6036.24
473.31	5647.71
473.49	5729.63
473.67	5769.42
473.85	5827.93
474.03	6061.99
474.21	5870.06
474.39	5947.30
474.57	6059.65
474.75	5980.07
474.93	6223.48
475.12	6015.18
475.30	6293.70
475.48	6064.33
475.66	6188.38
475.84	6221.14
476.02	6450.52
476.20	6230.51
476.38	6396.68
476.56	6497.33
476.74	6441.15
476.92	6602.65
477.10	6588.61
477.28	6558.18
477.46	6717.34
477.64	6609.67
477.82	6785.21
478.00	6927.99
478.18	6913.94
478.36	7000.54
478.54	7103.53
478.72	6932.67
478.90	7047.35
479.08	7103.53
479.26	6991.18
479.44	7126.93
479.62	7288.43
479.80	7316.51
479.98	7325.88
480.16	7616.10
480.34	7475.67
480.52	7573.97
480.70	7672.28
480.88	7559.93
481.06	7850.16
481.24	7702.70
481.41	7845.48
481.59	7960.16
481.77	7903.99
481.95	7957.82
482.13	8091.23
482.31	8210.60
482.49	8107.62
482.67	8346.35
482.85	8304.22
483.03	8423.59
483.21	8531.25
483.39	8521.89
483.57	8477.42
483.74	8435.29
483.92	8610.83
484.10	8599.13
484.28	8634.24
484.46	8858.93
484.64	9128.09
484.82	8748.92
485.00	9001.70
485.18	9139.79
485.35	9104.68
485.53	9310.65
485.71	9352.78
485.89	9692.16
486.07	9570.45
486.25	9621.94
486.43	9729.61
486.61	9774.08
486.78	9942.60
486.96	9774.08
487.14	10026.86
487.32	10003.45
487.50	9998.77
487.68	10068.98
487.85	10274.95
488.03	10345.17
488.21	10569.86
488.39	10611.99
488.57	10635.39
488.75	10686.89
488.92	10803.91
489.10	10878.81
489.28	10977.11
489.46	11059.03
489.64	10888.17
489.81	11178.40
489.99	11248.61
490.17	11199.46
490.35	11375.00
490.53	11449.90
490.70	11529.48
490.88	11468.62
491.06	11702.68
491.24	11676.93
491.41	11690.98
491.59	11822.05
491.77	12142.70
491.95	12042.06
492.13	12149.72
492.30	12044.40
492.48	12114.61
492.66	12217.60
492.84	12053.76
493.01	12297.17
493.19	12409.52
493.37	12748.90
493.54	12652.94
493.72	13027.42
493.90	12959.55
494.08	12758.26
494.25	12786.35
494.43	12947.84
494.61	13172.54
494.79	13289.56
494.96	13202.96
495.14	13308.29
495.32	13441.70
495.49	13078.91
495.67	13392.55
495.85	13390.20
496.02	13706.18
496.20	13827.88
496.38	13844.27
496.55	13893.42
496.73	14167.26
496.91	14045.55
497.09	13905.12
497.26	14373.23
497.44	14010.45
497.62	14434.08
497.79	14434.08
497.97	14291.31
498.14	14583.88
498.32	14693.88
498.50	14618.99
498.67	14949.00
498.85	14813.25
499.03	14801.55
499.20	15054.33
499.38	15012.20
499.56	14953.68
499.73	15180.71
499.91	15197.10
500.08	15435.83
500.26	15187.74
500.44	15302.42
500.61	15143.27
500.79	15475.62
500.97	15702.65
501.14	15833.72
501.32	15688.61
501.49	15824.36
501.67	15517.75
501.84	15506.05
502.02	15793.94
502.20	15995.22
502.37	15868.83
502.55	15712.02
502.72	15735.42
502.90	16051.39
503.07	15892.24
503.25	16025.65
503.43	16142.67
503.60	16489.07
503.78	16512.48
503.95	16266.72
504.13	16290.13
504.30	16496.10
504.48	16486.73
504.65	16346.30
504.83	16575.67
505.01	16968.88
505.18	16341.62
505.36	17092.93
505.53	17076.55
505.71	16915.05
505.88	16746.53
506.06	16851.86
506.23	17013.35
506.41	17219.32
506.58	17114.00
506.76	17184.21
506.93	17399.54
507.11	17245.07
507.28	17380.82
507.46	17422.95
507.63	17401.88
507.81	17949.57
507.98	17324.65
508.16	17441.67
508.33	17762.33
508.50	17680.41
508.68	17596.15
508.85	18066.60
509.03	17664.02
509.20	17991.70
509.38	18104.04
509.55	18424.70
509.73	17980.00
509.90	18497.25
510.08	18143.83
510.25	18054.89
510.42	18574.49
510.60	18707.90
510.77	18537.04
510.95	18609.60
511.12	18497.25
511.30	18574.49
511.47	18384.91
511.64	18640.03
511.82	18745.35
511.99	18899.83
512.17	18843.65
512.34	18789.82
512.51	18899.83
512.69	19204.10
512.86	19185.37
513.04	19154.94
513.21	19136.22
513.38	19271.97
513.56	19215.80
513.73	19536.45
513.90	19194.73
514.08	19131.54
514.25	19445.17
514.43	19761.14
514.60	19590.28
514.77	19606.67
514.95	19721.35
515.12	19374.95
515.29	19623.05
515.47	19814.98
515.64	19894.55
515.81	19491.98
515.99	20051.37
516.16	20180.10
516.33	19995.20
516.51	20137.97
516.68	20044.35
516.85	20123.93
517.03	20416.49
517.20	20182.44
517.37	20357.98
517.54	20416.49
517.72	20568.63
517.89	20266.70
518.06	20596.71
518.24	20624.80
518.41	20437.56
518.58	20524.16
518.75	20606.08
518.93	20666.93
519.10	20762.89
519.27	20954.82
519.45	20849.49
519.62	20706.72
519.79	20915.03
519.96	20613.10
520.14	21231.00
520.31	20893.96
520.48	21041.42
520.65	20865.88
520.83	20985.24
521.00	21254.40
521.17	21338.66
521.34	21106.95
521.52	21532.93
521.69	21568.04
521.86	21703.79
522.03	21713.15
522.20	21628.89
522.38	21671.02
522.55	21443.99
522.72	21359.73
522.89	21621.87
523.07	21942.52
523.24	21888.69
523.41	21888.69
523.58	21692.08
523.75	21834.86
523.92	21743.58
524.10	22052.53
524.27	22164.87
524.44	22354.46
524.61	22410.63
524.78	22181.26
524.96	22260.84
525.13	21898.05
525.30	22005.72
525.47	22520.63
525.64	22359.14
525.81	22249.13
525.98	22588.51
526.16	22874.06
526.33	22522.98
526.50	22855.33
526.67	22478.50
526.84	22382.54
527.01	22663.41
527.18	22801.50
527.36	22799.16
527.53	22960.66
527.70	22972.36
527.87	22761.71
528.04	22930.23
528.21	22923.21
528.38	23136.20
528.55	22817.88
528.72	22855.33
528.89	23063.64
529.07	23346.84
529.24	23129.17
529.41	23398.34
529.58	23260.24
529.75	23351.52
529.92	23248.54
530.09	23096.41
530.26	23531.75
530.43	23377.27
530.60	23520.04
530.77	23536.43
530.94	23690.90
531.11	23576.22
531.28	23428.76
531.46	23716.65
531.63	23414.72
531.80	23807.93
531.97	24166.03
532.14	23882.83
532.31	23889.85
532.48	23920.28
532.65	24016.24
532.82	23814.95
532.99	23669.84
533.16	23976.45
533.33	24121.56
533.50	24257.31
533.67	23999.85
533.84	24222.20
534.01	24465.62
534.18	24261.99
534.35	24446.90
534.52	24271.36
534.69	24470.30
534.86	24151.99
535.03	24318.17
535.20	23882.83
535.37	24673.93
535.54	24559.24
535.71	24301.78
535.88	24346.25
536.05	24350.93
536.22	24826.06
536.38	24837.76
536.55	24779.25
536.72	24961.81
536.89	24730.10
537.06	24547.54
537.23	24802.66
537.40	24692.65
537.57	25046.07
537.74	25071.82
537.91	25345.66
538.08	25029.69
538.25	24910.32
538.42	25242.68
538.59	25034.37
538.75	24868.19
538.92	25188.85
539.09	25216.93
539.26	25214.59
539.43	25333.96
539.60	25137.35
539.77	25111.61
539.94	25120.97
540.11	25062.46
540.28	25181.82
540.44	25486.09
540.61	25336.30
540.78	25074.16
540.95	25369.07
541.12	25322.26
541.29	25127.99
541.46	25500.14
541.62	25317.57
541.79	25532.90
541.96	25488.43
542.13	25727.17
542.30	25937.82
542.47	26316.98
542.63	25972.92
542.80	26473.80
542.97	26316.98
543.14	26426.99
543.31	26099.31
543.48	26127.40
543.64	26239.75
543.81	26232.72
543.98	26286.56
544.15	25881.64
544.32	26115.70
544.48	26436.35
544.65	26218.68
544.82	26169.53
544.99	25874.62
545.16	26405.92
545.32	26567.42
545.49	26375.50
545.66	26504.23
545.83	26560.40
546.00	26948.93
546.16	26740.62
546.33	26164.85
546.50	26174.21
546.67	26801.47
546.83	26307.62
547.00	26691.47
547.17	26455.08
547.34	26675.09
547.50	26768.71
547.67	27061.27
547.84	26801.47
548.00	26813.18
548.17	26998.08
548.34	26885.73
548.51	27049.57
548.67	27028.51
548.84	27094.04
549.01	26902.12
549.18	26827.22
549.34	27009.78
549.51	26754.66
549.68	26771.05
549.84	27072.98
550.01	27101.06
550.18	26958.29
550.34	27292.99
550.51	27030.85
550.68	27161.92
550.84	26782.75
551.01	27292.99
551.18	26948.93
551.34	27068.30
551.51	27414.69
551.68	27342.14
551.84	27384.27
552.01	27108.08
552.18	27428.74
552.34	27391.29
552.51	27477.89
552.68	27335.12
552.84	27548.11
553.01	27295.33
553.18	27307.03
553.34	28198.77
553.51	27454.48
553.67	28086.43
553.84	27768.12
554.01	27782.16
554.17	27714.28
554.34	28109.83
554.51	27353.84
554.67	27805.56
554.84	27536.40
555.00	27613.64
555.17	27583.21
555.33	28018.55
555.50	27646.41
555.67	27667.47
555.83	27779.82
556.00	27997.49
556.16	28210.48
556.33	28465.60
556.50	27913.23
556.66	28463.25
556.83	27754.07
556.99	28451.55
557.16	28168.35
557.32	27854.72
557.49	28210.48
557.65	27931.95
557.82	28196.43
557.98	27688.54
558.15	28215.16
558.32	28489.00
558.48	28421.13
558.65	28606.03
558.81	28290.06
558.98	28261.97
559.14	27983.44
559.31	28395.38
559.47	28336.87
559.64	28266.65
559.80	28390.70
559.97	28673.90
560.13	28266.65
560.30	28364.95
560.46	28556.88
560.63	28517.09
560.79	28704.33
560.96	28421.13
561.12	28545.17
561.29	28371.97
561.45	28599.01
561.61	28884.55
561.78	28474.96
561.94	28690.29
562.11	28531.13
562.27	28655.18
562.44	28311.12
562.60	27936.63
562.77	28510.07
562.93	28828.38
563.10	29029.66
563.26	28470.28
563.42	28926.68
563.59	28638.80
563.75	29102.22
563.92	29149.03
564.08	28940.72
564.24	28800.29
564.41	28767.52
564.57	29104.56
564.74	28683.27
564.90	28931.36
565.07	28821.36
565.23	28980.51
565.39	28449.21
565.56	28994.56
565.72	28945.41
565.88	28877.53
566.05	28704.33
566.21	28224.52
566.38	29015.62
566.54	28872.85
566.70	28992.22
566.87	29191.16
567.03	29118.60
567.19	28936.04
567.36	28929.02
567.52	29036.69
567.68	29184.14
567.85	28865.83
568.01	29099.88
568.17	29109.24
568.34	29233.29
568.50	29226.27
568.66	28964.13
568.83	29223.93
568.99	28938.38
569.15	28865.83
569.32	29338.62
569.48	29116.26
569.64	29221.59
569.81	29064.77
569.97	29113.92
570.13	29460.32
570.30	29163.08
570.46	29076.48
570.62	29284.78
570.78	29207.55
570.95	28945.41
571.11	29401.81
571.27	29039.03
571.43	29223.93
571.60	29244.99
571.76	29249.67
571.92	29404.15
572.09	29151.37
572.25	29488.41
572.41	29294.14
572.57	29261.38
572.74	29563.31
572.90	29156.05
573.06	29359.68
573.22	29041.37
573.38	29273.08
573.55	28933.70
573.71	29670.97
573.87	29586.71
574.03	29347.98
574.20	29472.03
574.36	29333.93
574.52	29394.79
574.68	29125.63
574.84	29436.92
575.01	29509.47
575.17	29343.30
575.33	29355.00
575.49	29259.04
575.65	29233.29
575.82	29759.91
575.98	29479.05
576.14	29467.34
576.30	29631.18
576.46	29425.22
576.62	29284.78
576.79	29223.93
576.95	29439.26
577.11	29397.13
577.27	29390.11
577.43	29347.98
577.59	29544.58
577.75	29256.70
577.92	29228.61
578.08	29355.00
578.24	29589.05
578.40	29294.14
578.56	29439.26
578.72	29642.88
578.88	29493.09
579.04	29635.86
579.21	29876.94
579.37	29448.62
579.53	29481.39
579.69	29099.88
579.85	29441.60
580.01	29610.12
580.17	29450.96
580.33	29355.00
580.49	29539.90
580.65	29879.28
580.82	29434.58
580.98	29736.51
581.14	29652.25
581.30	29649.91
581.46	29556.28
581.62	29305.85
581.78	29460.32
581.94	29427.56
582.10	29626.50
582.26	29670.97
582.42	29591.39
582.58	29170.10
582.74	29837.15
582.90	29743.53
583.06	29474.37
583.22	29603.10
583.38	29551.60
583.54	29483.73
583.70	29511.81
583.86	29530.54
584.02	29448.62
584.18	30099.29
584.34	29813.74
584.50	29872.26
584.66	29387.77
584.82	29525.86
584.98	29619.48
585.14	29448.62
585.30	29415.85
585.46	29247.33
585.62	29282.44
585.78	29474.37
585.94	29366.70
586.10	29958.86
586.26	29703.74
586.42	29626.50
586.58	29919.07
586.74	29530.54
586.90	29237.97
587.06	29495.43
587.22	29654.59
587.38	29809.06
587.54	29509.47
587.70	29792.68
587.86	29797.36
588.02	30094.61
588.18	30040.78
588.34	30073.54
588.49	30089.93
588.65	29855.87
588.81	29748.21
588.97	29591.39
589.13	29855.87
589.29	29532.88
589.45	29577.35
589.61	29806.72
589.77	29727.14
589.93	30326.32
590.08	29907.37
590.24	29991.62
590.40	29528.20
590.56	30691.44
590.72	29535.22
590.88	29465.00
591.04	29972.90
591.20	30225.68
591.35	29881.62
591.51	30143.76
591.67	30199.93
591.83	30211.64
591.99	30361.43
