SpectraSuite Data File
++++++++++++++++++++++++++++++++++++
Date: Fri Oct 18 13:58:19 GMT-05:00 2013
User: bianchi
Dark Spectrum Present: No
Reference Spectrum Present: No
Number of Sampled Component Spectra: 1
Spectrometers: USB2+H05261
Integration Time (usec): 50000 (USB2+H05261)
Spectra Averaged: 1 (USB2+H05261)
Boxcar Smoothing: 0 (USB2+H05261)
Correct for Electrical Dark: No (USB2+H05261)
Strobe/Lamp Enabled: No (USB2+H05261)
Correct for Detector Non-linearity: No (USB2+H05261)
Correct for Stray Light: No (USB2+H05261)
Number of Pixels in Processed Spectrum: 2048
>>>>>Begin Processed Spectral Data<<<<<
365.73	0.00
365.92	0.00
366.12	0.00
366.32	0.00
366.52	0.00
366.72	0.00
366.91	0.00
367.11	0.00
367.31	0.00
367.51	0.00
367.70	0.00
367.90	0.00
368.10	0.00
368.30	0.00
368.49	0.00
368.69	0.00
368.89	0.00
369.09	0.00
369.28	0.00
369.48	0.00
369.68	0.00
369.87	0.00
370.07	0.00
370.27	0.00
370.47	0.00
370.66	98.30
370.86	121.71
371.06	124.05
371.25	205.97
371.45	102.98
371.65	170.86
371.84	149.79
372.04	107.66
372.24	163.84
372.44	133.41
372.63	159.16
372.83	227.03
373.03	140.43
373.22	154.48
373.42	187.24
373.62	255.12
373.81	187.24
374.01	203.63
374.21	280.86
374.40	177.88
374.60	217.67
374.79	210.65
374.99	184.90
375.19	259.80
375.38	271.50
375.58	308.95
375.78	269.16
375.97	330.02
376.17	287.89
376.37	257.46
376.56	271.50
376.76	280.86
376.95	245.76
377.15	271.50
377.35	271.50
377.54	276.18
377.74	320.65
377.93	257.46
378.13	201.29
378.33	301.93
378.52	248.10
378.72	208.31
378.91	308.95
379.11	238.73
379.31	257.46
379.50	243.42
379.70	278.52
379.89	301.93
380.09	306.61
380.28	262.14
380.48	273.84
380.68	271.50
380.87	290.23
381.07	327.68
381.26	299.59
381.46	348.74
381.65	318.31
381.85	315.97
382.04	304.27
382.24	280.86
382.43	245.76
382.63	344.06
382.83	355.76
383.02	358.10
383.22	341.72
383.41	301.93
383.61	280.86
383.80	386.19
384.00	330.02
384.19	341.72
384.39	353.42
384.58	388.53
384.78	362.78
384.97	344.06
385.17	376.83
385.36	411.93
385.56	393.21
385.75	337.04
385.95	346.40
386.14	388.53
386.34	414.27
386.53	416.62
386.72	374.49
386.92	437.68
387.11	402.57
387.31	449.38
387.50	400.23
387.70	393.21
387.89	463.43
388.09	407.25
388.28	435.34
388.48	421.30
388.67	393.21
388.86	428.32
389.06	423.64
389.25	505.56
389.45	526.62
389.64	395.55
389.84	395.55
390.03	456.40
390.22	463.43
390.42	475.13
390.61	493.85
390.81	423.64
391.00	540.66
391.19	484.49
391.39	528.96
391.58	550.03
391.78	521.94
391.97	514.92
392.16	505.56
392.36	498.53
392.55	557.05
392.75	545.34
392.94	503.22
393.13	559.39
393.33	517.26
393.52	489.17
393.71	561.73
393.91	552.37
394.10	500.87
394.29	557.05
394.49	613.22
394.68	517.26
394.88	596.84
395.07	613.22
395.26	592.16
395.46	624.92
395.65	638.97
395.84	594.50
396.04	648.33
396.23	690.46
396.42	730.25
396.62	657.69
396.81	641.31
397.00	643.65
397.19	664.71
397.39	533.64
397.58	662.37
397.77	671.73
397.97	653.01
398.16	650.67
398.35	716.20
398.55	695.14
398.74	758.33
398.93	690.46
399.12	770.04
399.32	772.38
399.51	741.95
399.70	746.63
399.90	657.69
400.09	741.95
400.28	723.23
400.47	713.86
400.67	758.33
400.86	807.48
401.05	821.53
401.24	851.96
401.44	814.51
401.63	812.17
401.82	847.27
402.01	800.46
402.21	793.44
402.40	765.36
402.59	819.19
402.78	772.38
402.97	809.83
403.17	880.04
403.36	823.87
403.55	891.74
403.74	877.70
403.93	814.51
404.13	868.34
404.32	987.71
404.51	957.28
404.70	903.45
404.89	875.36
405.09	1027.50
405.28	891.74
405.47	952.60
405.66	915.15
405.85	1029.84
406.05	971.32
406.24	891.74
406.43	919.83
406.62	971.32
406.81	1055.58
407.00	973.66
407.20	990.05
407.39	929.19
407.58	1053.24
407.77	1032.18
407.96	1109.41
408.15	1060.26
408.34	1095.37
408.54	1022.81
408.73	1130.48
408.92	1165.59
409.11	1109.41
409.30	1116.44
409.49	1104.73
409.68	1205.38
409.87	1149.20
410.07	1158.57
410.26	1247.51
410.45	1210.06
410.64	1177.29
410.83	1259.21
411.02	1193.67
411.21	1313.04
411.40	1188.99
411.59	1284.95
411.78	1151.54
411.98	1156.22
412.17	1261.55
412.36	1329.42
412.55	1313.04
412.74	1327.08
412.93	1338.79
413.12	1357.51
413.31	1444.11
413.50	1411.34
413.69	1420.71
413.88	1348.15
414.07	1317.72
414.26	1420.71
414.45	1481.56
414.64	1467.52
414.83	1451.13
415.02	1455.81
415.22	1547.09
415.41	1519.01
415.60	1544.75
415.79	1563.48
415.98	1521.35
416.17	1699.23
416.36	1657.10
416.55	1626.67
416.74	1701.57
416.93	1671.14
417.12	1699.23
417.31	1636.03
417.50	1652.42
417.69	1863.07
417.88	1755.40
418.07	1692.21
418.26	1753.06
418.45	1722.63
418.64	1830.30
418.83	1774.13
419.02	1870.09
419.21	1961.37
419.39	1788.17
419.58	1694.55
419.77	1804.55
419.96	1757.74
420.15	1884.13
420.34	1858.39
420.53	1914.56
420.72	1832.64
420.91	1921.58
421.10	1863.07
421.29	1963.71
421.48	1977.75
421.67	1970.73
421.86	1956.69
422.05	2047.97
422.24	1905.20
422.43	2078.40
422.61	2092.44
422.80	2069.03
422.99	1998.82
423.18	1926.26
423.37	2005.84
423.56	2132.23
423.75	2031.58
423.94	1905.20
424.13	1851.36
424.32	1928.60
424.50	1996.48
424.69	2078.40
424.88	2052.65
425.07	2024.56
425.26	2019.88
425.45	2019.88
425.64	2005.84
425.83	2001.16
426.01	2062.01
426.20	2036.27
426.39	1994.14
426.58	2148.61
426.77	1991.80
426.96	2125.21
427.15	2129.89
427.33	2099.46
427.52	2174.36
427.71	2167.34
427.90	2062.01
428.09	2202.44
428.28	2125.21
428.46	2202.44
428.65	2167.34
428.84	2242.23
429.03	2242.23
429.22	2127.55
429.40	2190.74
429.59	2347.56
429.78	2169.68
429.97	2204.78
430.16	2221.17
430.34	2335.85
430.53	2377.98
430.72	2319.47
430.91	2279.68
431.10	2305.43
431.28	2314.79
431.47	2342.88
431.66	2436.50
431.85	2408.41
432.03	2363.94
432.22	2480.97
432.41	2317.13
432.60	2504.37
432.79	2410.75
432.97	2473.95
433.16	2502.03
433.35	2476.29
433.54	2562.89
433.72	2495.01
433.91	2443.52
434.10	2495.01
434.28	2530.12
434.47	2586.29
434.66	2586.29
434.85	2609.70
435.03	2600.34
435.22	2581.61
435.41	2647.15
435.59	2605.02
435.78	2731.41
435.97	2661.19
436.16	2607.36
436.34	2586.29
436.53	2614.38
436.72	2686.94
436.90	2691.62
437.09	2757.15
437.28	2649.49
437.46	2733.75
437.65	2691.62
437.84	2736.09
438.02	2747.79
438.21	2743.11
438.40	2708.00
438.58	2832.05
438.77	2874.18
438.96	2726.72
439.14	2960.78
439.33	3000.57
439.52	2916.31
439.70	3007.59
439.89	2981.84
440.08	3063.76
440.26	3077.80
440.45	3033.33
440.63	2995.89
440.82	3178.45
441.01	3087.17
441.19	3152.70
441.38	3400.80
441.57	3141.00
441.75	3194.83
441.94	3211.22
442.12	3248.66
442.31	3323.56
442.50	3229.94
442.68	3267.39
442.87	3435.91
443.05	3307.18
443.24	3379.73
443.43	3328.24
443.61	3199.51
443.80	3463.99
443.98	3403.14
444.17	3260.37
444.35	3293.13
444.54	3365.69
444.73	3475.70
444.91	3426.54
445.10	3419.52
445.28	3382.07
445.47	3236.96
445.65	3321.22
445.84	3417.18
446.02	3487.40
446.21	3463.99
446.39	3517.83
446.58	3538.89
446.77	3517.83
446.95	3501.44
447.14	3538.89
447.32	3545.91
447.51	3466.33
447.69	3574.00
447.88	3630.17
448.06	3508.46
448.25	3428.88
448.43	3517.83
448.62	3499.10
448.80	3562.30
448.99	3712.09
449.17	3461.65
449.36	3555.27
449.54	3676.98
449.73	3728.47
449.91	3742.52
450.10	3667.62
450.28	3794.01
450.46	3866.56
450.65	3705.07
450.83	3812.73
451.02	3620.81
451.20	3761.24
451.39	3836.14
451.57	3705.07
451.76	3768.26
451.94	3808.05
452.13	3854.86
452.31	3950.82
452.49	3791.67
452.68	3971.89
452.86	3875.93
453.05	3955.51
453.23	4124.02
453.42	3768.26
453.60	3946.14
453.78	3950.82
453.97	3770.60
454.15	3962.53
454.34	3943.80
454.52	3882.95
454.70	3988.27
454.89	3995.29
455.07	3971.89
455.26	3971.89
455.44	4173.18
455.62	3906.35
455.81	4063.17
455.99	4138.07
456.17	4105.30
456.36	4098.28
456.54	4182.54
456.73	4236.37
456.91	4348.72
457.09	4283.18
457.28	4383.82
457.46	4135.73
457.64	4496.17
457.83	4381.48
458.01	4329.99
458.19	4603.83
458.38	4421.27
458.56	4421.27
458.74	4538.30
458.93	4430.63
459.11	4442.34
459.29	4519.57
459.48	4524.26
459.66	4517.23
459.84	4517.23
460.03	4566.39
460.21	4554.68
460.39	4610.86
460.57	4585.11
460.76	4514.89
460.94	4620.22
461.12	4634.26
461.31	4587.45
461.49	4517.23
461.67	4461.06
461.85	4615.54
462.04	4629.58
462.22	4877.68
462.40	4746.61
462.59	4709.16
462.77	4795.76
462.95	4779.37
463.13	4727.88
463.32	4828.53
463.50	4774.69
463.68	4734.90
463.86	4851.93
464.05	4844.91
464.23	4802.78
464.41	4933.85
464.59	4767.67
464.78	4957.25
464.96	4882.36
465.14	4772.35
465.32	5074.28
465.50	5039.17
465.69	5064.92
465.87	5032.15
466.05	5062.58
466.23	4861.29
466.41	5039.17
466.60	5188.97
466.78	4999.38
466.96	4964.28
467.14	5050.88
467.32	5060.24
467.51	4917.47
467.69	4908.10
467.87	5043.85
468.05	5298.97
468.23	5109.39
468.41	5233.44
468.60	5121.09
468.78	5345.78
468.96	5308.34
469.14	5350.46
469.32	5324.72
469.50	5172.58
469.69	5390.25
469.87	5392.59
470.05	5448.77
470.23	5523.66
470.41	5500.26
470.59	5563.45
470.77	5294.29
470.95	5479.19
471.14	5696.86
471.32	5516.64
471.50	5612.60
471.68	5596.22
471.86	5643.03
472.04	5863.04
472.22	5750.70
472.40	5654.73
472.58	5628.99
472.77	5703.89
472.95	5687.50
473.13	6054.97
473.31	5816.23
473.49	5741.33
473.67	5909.85
473.85	6003.47
474.03	5975.39
474.21	6162.63
474.39	6036.24
474.57	6134.54
474.75	6010.50
474.93	6108.80
475.12	6078.37
475.30	6272.64
475.48	6136.88
475.66	6094.76
475.84	6197.74
476.02	6342.85
476.20	6506.69
476.38	6539.46
476.56	6487.96
476.74	6450.52
476.92	6466.90
477.10	6597.97
477.28	6696.27
477.46	6773.51
477.64	6553.50
477.82	6661.16
478.00	6904.58
478.18	6820.32
478.36	6949.05
478.54	7112.89
478.72	6899.90
478.90	7094.16
479.08	7194.81
479.26	7290.77
479.44	7206.51
479.62	7332.90
479.80	7375.03
479.98	7307.15
480.16	7407.80
480.34	7623.12
480.52	7613.76
480.70	7644.19
480.88	7634.83
481.06	7735.47
481.24	7517.80
481.41	7810.37
481.59	8006.97
481.77	7995.27
481.95	8032.72
482.13	8346.35
482.31	8269.11
482.49	8100.59
482.67	8243.37
482.85	8252.73
483.03	8505.51
483.21	8514.87
483.39	8463.38
483.57	8554.66
483.74	8629.56
483.92	8594.45
484.10	8606.15
484.28	8978.30
484.46	9074.26
484.64	9413.63
484.82	8919.78
485.00	9172.56
485.18	9324.69
485.35	9502.58
485.53	9324.69
485.71	9362.14
485.89	9593.86
486.07	9523.64
486.25	9486.19
486.43	9893.44
486.61	9687.48
486.78	9762.37
486.96	9778.76
487.14	10045.58
487.32	10029.20
487.50	10153.24
487.68	10038.56
487.85	10394.32
488.03	10424.75
488.21	10583.90
488.39	10431.77
488.57	10689.23
488.75	10710.29
488.92	10780.51
489.10	10832.00
489.28	10827.32
489.46	11220.53
489.64	11007.54
489.81	11297.77
489.99	11218.19
490.17	11346.92
490.35	11571.61
490.53	11351.60
490.70	11658.21
490.88	11602.04
491.06	11667.57
491.24	11712.04
491.41	11674.59
491.59	11648.85
491.77	11906.31
491.95	11985.88
492.13	12238.66
492.30	12355.69
492.48	12351.01
492.66	12465.69
492.84	12372.07
493.01	12739.54
493.19	12552.29
493.37	12564.00
493.54	12821.45
493.72	12727.83
493.90	12767.62
494.08	13008.70
494.25	13111.68
494.43	13008.70
494.61	13296.58
494.79	13392.55
494.96	13460.42
495.14	13418.29
495.32	13596.17
495.49	13523.62
495.67	13713.20
495.85	13886.40
496.02	13731.92
496.20	14061.94
496.38	13523.62
496.55	13998.74
496.73	14200.03
496.91	14345.14
497.09	14291.31
497.26	14370.89
497.44	14303.01
497.62	14429.40
497.79	14328.76
497.97	14581.54
498.14	14775.80
498.32	14679.84
498.50	14747.72
498.67	14731.33
498.85	14740.69
499.03	15190.08
499.20	15009.86
499.38	15173.69
499.56	15302.42
499.73	15384.34
499.91	15300.08
500.08	15442.85
500.26	15613.71
500.44	15557.54
500.61	15578.61
500.79	15749.46
500.97	15742.44
501.14	15920.32
501.32	15939.05
501.49	15651.16
501.67	15880.53
501.84	15974.16
502.02	15934.37
502.20	15913.30
502.37	16149.70
502.55	16205.87
502.72	16294.81
502.90	16098.20
503.07	16152.04
503.25	16264.38
503.43	16353.32
503.60	16140.33
503.78	16589.72
503.95	16524.18
504.13	16315.87
504.30	16720.79
504.48	16484.39
504.65	16650.57
504.83	16945.48
505.01	17109.32
505.18	17055.48
505.36	16802.71
505.53	16908.03
505.71	16898.67
505.88	16835.47
506.06	17139.74
506.23	17558.70
506.41	17310.60
506.58	17212.30
506.76	17516.57
506.93	17549.34
507.11	17245.07
507.28	17848.93
507.46	17518.91
507.63	17619.55
507.81	17907.44
507.98	17537.63
508.16	17490.82
508.33	17792.75
508.50	18029.15
508.68	18167.24
508.85	18249.16
509.03	17984.68
509.20	18155.54
509.38	18225.75
509.55	18576.83
509.73	17940.21
509.90	18401.29
510.08	18317.03
510.25	18555.77
510.42	18532.36
510.60	18890.46
510.77	18497.25
510.95	18845.99
511.12	18501.93
511.30	18614.28
511.47	18696.20
511.64	18803.86
511.82	18995.79
511.99	18913.87
512.17	19030.90
512.34	19037.92
512.51	19023.87
512.69	19199.41
512.86	19206.44
513.04	19396.02
513.21	19496.66
513.38	19557.52
513.56	19349.21
513.73	19286.01
513.90	19379.64
514.08	19360.91
514.25	19772.85
514.43	19688.59
514.60	19658.16
514.77	19587.94
514.95	19882.85
515.12	19798.59
515.29	19847.74
515.47	19758.80
515.64	20095.84
515.81	20121.59
515.99	20243.29
516.16	20451.60
516.33	20259.68
516.51	20437.56
516.68	20180.10
516.85	20079.46
517.03	20407.13
517.20	20570.97
517.37	20568.63
517.54	20723.10
517.72	20482.03
517.89	20568.63
518.06	20758.21
518.24	20634.16
518.41	20772.25
518.58	20961.84
518.75	20851.83
518.93	20685.65
519.10	21177.17
519.27	21179.51
519.45	20727.78
519.62	21053.12
519.79	20940.77
519.96	20781.62
520.14	21240.36
520.31	21088.23
520.48	21238.02
520.65	21380.79
520.83	21231.00
521.00	21202.91
521.17	21226.32
521.34	21404.20
521.52	21525.91
521.69	21483.78
521.86	21731.87
522.03	21757.62
522.20	21769.32
522.38	22043.17
522.55	21963.59
522.72	21891.03
522.89	21743.58
523.07	22260.84
523.24	21724.85
523.41	21977.63
523.58	21729.53
523.75	22214.02
523.92	21757.62
524.10	22010.40
524.27	22497.23
524.44	22314.67
524.61	22562.76
524.78	22497.23
524.96	22349.78
525.13	22450.42
525.30	22478.50
525.47	22272.54
525.64	22520.63
525.81	22518.29
525.98	22609.58
526.16	22955.97
526.33	22876.40
526.50	22817.88
526.67	22672.77
526.84	22752.35
527.01	22679.79
527.18	22906.82
527.36	22831.93
527.53	23075.34
527.70	23110.45
527.87	23506.00
528.04	23222.80
528.21	23250.88
528.38	23115.13
528.55	23477.91
528.72	23239.18
528.89	23360.89
529.07	23630.05
529.24	23281.31
529.41	23765.80
529.58	23421.74
529.75	23534.09
529.92	23704.95
530.09	23339.82
530.26	23548.13
530.43	23857.08
530.60	23765.80
530.77	23726.01
530.94	24058.37
531.11	23454.51
531.28	23740.05
531.46	23770.48
531.63	23943.68
531.80	23901.55
531.97	24077.09
532.14	23983.47
532.31	24278.38
532.48	23915.59
532.65	24257.31
532.82	23845.38
532.99	24016.24
533.16	24362.64
533.33	24180.07
533.50	24790.95
533.67	24140.29
533.84	24128.58
534.01	23990.49
534.18	24095.82
534.35	24512.43
534.52	24280.72
534.69	24882.24
534.86	24535.84
535.03	24812.02
535.20	24968.84
535.37	24498.39
535.54	25102.25
535.71	24397.74
535.88	24662.22
536.05	24669.25
536.22	25069.48
536.38	24975.86
536.55	24889.26
536.72	25064.80
536.89	25067.14
537.06	24954.79
537.23	25123.31
537.40	25025.01
537.57	24844.79
537.74	25179.48
537.91	25624.18
538.08	25366.73
538.25	25247.36
538.42	25156.08
538.59	25507.16
538.75	24844.79
538.92	25259.06
539.09	25530.56
539.26	25493.12
539.43	25458.01
539.60	25268.42
539.77	25628.87
539.94	25631.21
540.11	25427.58
540.28	25275.45
540.44	25516.52
540.61	25832.49
540.78	25607.80
540.95	26026.76
541.12	25422.90
541.29	25846.54
541.46	25902.71
541.62	25652.27
541.79	25804.41
541.96	25507.16
542.13	25834.83
542.30	25827.81
542.47	26279.54
542.63	26019.74
542.80	26092.29
542.97	26614.23
543.14	26300.60
543.31	26150.81
543.48	26209.32
543.64	27063.61
543.81	26672.74
543.98	26733.60
544.15	26534.65
544.32	26574.44
544.48	26742.96
544.65	26235.06
544.82	26501.89
544.99	26366.13
545.16	26544.02
545.32	26635.30
545.49	26934.88
545.66	27136.17
545.83	26625.93
546.00	27098.72
546.16	26934.88
546.33	26546.36
546.50	26813.18
546.67	26712.53
546.83	26810.84
547.00	26862.33
547.17	26890.41
547.34	27370.22
547.50	26845.94
547.67	27080.00
547.84	26988.72
548.00	27339.80
548.17	27651.09
548.34	27110.43
548.51	27030.85
548.67	27641.73
548.84	27583.21
549.01	26794.45
549.18	27199.37
549.34	27356.18
549.51	27108.08
549.68	27402.99
549.84	27543.42
550.01	27538.74
550.18	27292.99
550.34	27821.95
550.51	27835.99
550.68	27676.83
550.84	27264.90
551.01	27164.26
551.18	27262.56
551.34	27159.58
551.51	27414.69
551.68	27393.63
551.84	27800.88
552.01	27522.36
552.18	27875.78
552.34	27725.99
552.51	27718.96
552.68	27974.08
552.84	27744.71
553.01	27929.61
553.18	27974.08
553.34	27625.34
553.51	27978.76
553.67	28041.96
553.84	28423.47
554.01	28261.97
554.17	27915.57
554.34	27953.02
554.51	28140.26
554.67	28170.69
554.84	28084.09
555.00	28360.27
555.17	28247.93
555.33	28084.09
555.50	27960.04
555.67	27976.42
555.83	28292.40
556.00	28226.86
556.16	28137.92
556.33	28287.71
556.50	27978.76
556.66	28161.33
556.83	28718.37
556.99	28753.48
557.16	28517.09
557.32	28400.06
557.49	28765.18
557.65	28278.35
557.82	28170.69
557.98	28093.45
558.15	28446.87
558.32	28627.09
558.48	28311.12
558.65	28606.03
558.81	28542.83
558.98	28774.55
559.14	28617.73
559.31	29027.32
559.47	28608.37
559.64	28739.44
559.80	28589.64
559.97	28863.49
560.13	28554.54
560.30	28245.58
560.46	28931.36
560.63	28563.90
560.79	28804.97
560.96	28776.89
561.12	28781.57
561.29	28751.14
561.45	28716.03
561.61	29046.05
561.78	29111.58
561.94	29027.32
562.11	28954.77
562.27	28994.56
562.44	29165.42
562.60	28811.99
562.77	29151.37
562.93	28730.08
563.10	29289.46
563.26	28905.62
563.42	29156.05
563.59	29577.35
563.75	29130.31
563.92	29003.92
564.08	28896.25
564.24	29076.48
564.41	28531.13
564.57	28994.56
564.74	29050.73
564.90	29125.63
565.07	29118.60
565.23	29092.86
565.39	29172.44
565.56	29240.31
565.72	29305.85
565.88	28910.30
566.05	29151.37
566.21	29303.51
566.38	29493.09
566.54	29046.05
566.70	29570.33
566.87	29378.40
567.03	29418.19
567.19	29593.73
567.36	29439.26
567.52	29439.26
567.68	29315.21
567.85	29474.37
568.01	29357.34
568.17	29474.37
568.34	29502.45
568.50	29429.90
568.66	28973.49
568.83	29486.07
568.99	29567.99
569.15	29268.40
569.32	29343.30
569.48	28884.55
569.64	29457.98
569.81	29614.80
569.97	29268.40
570.13	29567.99
570.30	29355.00
570.46	29670.97
570.62	29504.79
570.78	29600.76
570.95	29357.34
571.11	29837.15
571.27	29219.25
571.43	29376.06
571.60	29677.99
571.76	29481.39
571.92	29132.65
572.09	29076.48
572.25	29371.38
572.41	29937.79
572.57	29539.90
572.74	29827.79
572.90	29439.26
573.06	29860.55
573.22	29614.80
573.38	29551.60
573.55	29474.37
573.71	30066.52
573.87	29488.41
574.03	29692.04
574.20	29685.01
574.36	29350.32
574.52	29905.02
574.68	29715.44
574.84	29415.85
575.01	29699.06
575.17	29607.78
575.33	29675.65
575.49	29558.63
575.65	29710.76
575.82	30106.31
575.98	29790.34
576.14	29993.97
576.30	29951.84
576.46	29755.23
576.62	29773.95
576.79	29675.65
576.95	29680.33
577.11	29818.42
577.27	29832.47
577.43	29879.28
577.59	29989.28
577.75	30068.86
577.92	29692.04
578.08	29277.76
578.24	29645.23
578.40	30017.37
578.56	29584.37
578.72	29923.75
578.88	30003.33
579.04	30239.72
579.21	29867.58
579.37	29706.08
579.53	29598.41
579.69	29397.13
579.85	29862.90
580.01	29755.23
580.17	29792.68
580.33	29549.26
580.49	29823.11
580.65	29589.05
580.82	29914.39
580.98	30087.59
581.14	29488.41
581.30	29710.76
581.46	29633.52
581.62	29766.93
581.78	29619.48
581.94	29659.27
582.10	30003.33
582.26	29762.25
582.42	29898.00
582.58	29947.15
582.74	29951.84
582.90	30087.59
583.06	30099.29
583.22	29783.32
583.38	30206.95
583.54	29694.38
583.70	29818.42
583.86	29624.16
584.02	30054.82
584.18	30015.03
584.34	30008.01
584.50	29998.65
584.66	29558.63
584.82	29979.92
584.98	29778.64
585.14	30012.69
585.30	29642.88
585.46	29788.00
585.62	29713.10
585.78	30101.63
585.94	30064.18
586.10	30134.40
586.26	29954.18
586.42	30263.13
586.58	30167.16
586.74	30216.32
586.90	29996.31
587.06	29670.97
587.22	29476.71
587.38	29666.29
587.54	30094.61
587.70	30412.92
587.86	29883.96
588.02	29771.61
588.18	30548.67
588.34	29986.94
588.49	30221.00
588.65	29764.59
588.81	30242.06
588.97	29951.84
589.13	30459.73
589.29	29806.72
589.45	29928.43
589.61	29958.86
589.77	30546.33
589.93	30431.65
590.08	30319.30
590.24	30298.23
590.40	30436.33
590.56	30078.22
590.72	30237.38
590.88	29605.44
591.04	30125.04
591.20	30354.41
591.35	30342.70
591.51	30969.97
591.67	30764.00
591.83	30405.90
591.99	30466.75
