SpectraSuite Data File
++++++++++++++++++++++++++++++++++++
Date: Fri Oct 18 13:58:17 GMT-05:00 2013
User: bianchi
Dark Spectrum Present: No
Reference Spectrum Present: No
Number of Sampled Component Spectra: 1
Spectrometers: USB2+H05261
Integration Time (usec): 50000 (USB2+H05261)
Spectra Averaged: 1 (USB2+H05261)
Boxcar Smoothing: 0 (USB2+H05261)
Correct for Electrical Dark: No (USB2+H05261)
Strobe/Lamp Enabled: No (USB2+H05261)
Correct for Detector Non-linearity: No (USB2+H05261)
Correct for Stray Light: No (USB2+H05261)
Number of Pixels in Processed Spectrum: 2048
>>>>>Begin Processed Spectral Data<<<<<
365.73	0.00
365.92	0.00
366.12	0.00
366.32	0.00
366.52	0.00
366.72	0.00
366.91	0.00
367.11	0.00
367.31	0.00
367.51	0.00
367.70	0.00
367.90	0.00
368.10	0.00
368.30	0.00
368.49	0.00
368.69	0.00
368.89	0.00
369.09	0.00
369.28	0.00
369.48	0.00
369.68	0.00
369.87	0.00
370.07	0.00
370.27	0.00
370.47	0.00
370.66	112.35
370.86	126.39
371.06	93.62
371.25	128.73
371.45	77.24
371.65	184.90
371.84	107.66
372.04	203.63
372.24	161.50
372.44	133.41
372.63	205.97
372.83	224.69
373.03	238.73
373.22	142.77
373.42	229.37
373.62	168.52
373.81	243.42
374.01	259.80
374.21	236.39
374.40	243.42
374.60	224.69
374.79	220.01
374.99	227.03
375.19	229.37
375.38	205.97
375.58	290.23
375.78	367.46
375.97	250.44
376.17	301.93
376.37	264.48
376.56	255.12
376.76	217.67
376.95	252.78
377.15	217.67
377.35	273.84
377.54	266.82
377.74	201.29
377.93	255.12
378.13	301.93
378.33	315.97
378.52	227.03
378.72	351.08
378.91	227.03
379.11	294.91
379.31	287.89
379.50	287.89
379.70	273.84
379.89	278.52
380.09	327.68
380.28	337.04
380.48	358.10
380.68	358.10
380.87	271.50
381.07	278.52
381.26	388.53
381.46	259.80
381.65	334.70
381.85	313.63
382.04	351.08
382.24	428.32
382.43	306.61
382.63	262.14
382.83	271.50
383.02	339.38
383.22	346.40
383.41	257.46
383.61	318.31
383.80	299.59
384.00	376.83
384.19	332.36
384.39	337.04
384.58	402.57
384.78	365.12
384.97	435.34
385.17	416.62
385.36	423.64
385.56	365.12
385.75	381.51
385.95	308.95
386.14	390.87
386.34	374.49
386.53	421.30
386.72	369.80
386.92	463.43
387.11	421.30
387.31	358.10
387.50	362.78
387.70	423.64
387.89	390.87
388.09	395.55
388.28	477.47
388.48	414.27
388.67	409.59
388.86	463.43
389.06	421.30
389.25	421.30
389.45	463.43
389.64	458.74
389.84	486.83
390.03	606.20
390.22	451.72
390.42	458.74
390.61	428.32
390.81	463.43
391.00	500.87
391.19	592.16
391.39	503.22
391.58	479.81
391.78	507.90
391.97	528.96
392.16	470.45
392.36	507.90
392.55	608.54
392.75	528.96
392.94	573.43
393.13	580.45
393.33	500.87
393.52	634.29
393.71	594.50
393.91	545.34
394.10	561.73
394.29	559.39
394.49	615.56
394.68	571.09
394.88	610.88
395.07	615.56
395.26	620.24
395.46	594.50
395.65	629.60
395.84	685.78
396.04	657.69
396.23	678.76
396.42	697.48
396.62	706.84
396.81	688.12
397.00	624.92
397.19	711.52
397.39	613.22
397.58	706.84
397.77	667.05
397.97	688.12
398.16	725.57
398.35	725.57
398.55	748.97
398.74	657.69
398.93	699.82
399.12	744.29
399.32	660.03
399.51	695.14
399.70	657.69
399.90	720.88
400.09	732.59
400.28	826.21
400.47	751.31
400.67	795.78
400.86	758.33
401.05	828.55
401.24	802.80
401.44	784.08
401.63	805.14
401.82	826.21
402.01	814.51
402.21	760.67
402.40	795.78
402.59	784.08
402.78	1015.79
402.97	835.57
403.17	844.93
403.36	908.13
403.55	863.66
403.74	851.96
403.93	847.27
404.13	924.51
404.32	915.15
404.51	889.40
404.70	863.66
404.89	875.36
405.09	929.19
405.28	884.72
405.47	1025.15
405.66	903.45
405.85	947.92
406.05	999.41
406.24	999.41
406.43	931.53
406.62	1027.50
406.81	1100.05
407.00	1025.15
407.20	1083.67
407.39	997.07
407.58	1036.86
407.77	1018.13
407.96	1074.31
408.15	994.73
408.34	1053.24
408.54	1116.44
408.73	1043.88
408.92	1163.25
409.11	1123.46
409.30	1128.14
409.49	1102.39
409.68	1158.57
409.87	1144.52
410.07	1198.35
410.26	1207.72
410.45	1139.84
410.64	1203.04
410.83	1177.29
411.02	1170.27
411.21	1256.87
411.40	1224.10
411.59	1331.76
411.78	1291.98
411.98	1280.27
412.17	1301.34
412.36	1247.51
412.55	1383.26
412.74	1306.02
412.93	1317.72
413.12	1355.17
413.31	1406.66
413.50	1320.06
413.69	1399.64
413.88	1458.15
414.07	1282.61
414.26	1406.66
414.45	1533.05
414.64	1486.24
414.83	1488.58
415.02	1575.18
415.22	1629.01
415.41	1509.65
415.60	1678.16
415.79	1558.80
415.98	1549.43
416.17	1668.80
416.36	1645.40
416.55	1511.99
416.74	1657.10
416.93	1624.33
417.12	1687.53
417.31	1682.85
417.50	1652.42
417.69	1863.07
417.88	1654.76
418.07	1699.23
418.26	1689.87
418.45	1783.49
418.64	1802.21
418.83	1790.51
419.02	1755.40
419.21	1839.66
419.39	1851.36
419.58	1732.00
419.77	1813.92
419.96	1877.11
420.15	1886.47
420.34	1858.39
420.53	1823.28
420.72	1944.99
420.91	1900.52
421.10	1825.62
421.29	1919.24
421.48	1980.09
421.67	1923.92
421.86	1893.49
422.05	2019.88
422.24	1874.77
422.43	1844.34
422.61	2038.61
422.80	1926.26
422.99	1956.69
423.18	2087.76
423.37	2040.95
423.56	2015.20
423.75	2062.01
423.94	1987.11
424.13	1872.43
424.32	1905.20
424.50	2078.40
424.69	1980.09
424.88	2017.54
425.07	1933.28
425.26	2036.27
425.45	2012.86
425.64	2066.69
425.83	2008.18
426.01	2024.56
426.20	2017.54
426.39	2066.69
426.58	2017.54
426.77	2087.76
426.96	1832.64
427.15	2019.88
427.33	2069.03
427.52	2057.33
427.71	2157.97
427.90	2181.38
428.09	2031.58
428.28	2155.63
428.46	2127.55
428.65	2209.47
428.84	2153.29
429.03	2155.63
429.22	2253.94
429.40	2286.70
429.59	2277.34
429.78	2179.04
429.97	2153.29
430.16	2190.74
430.34	2340.54
430.53	2277.34
430.72	2321.81
430.91	2204.78
431.10	2305.43
431.28	2424.80
431.47	2300.75
431.66	2275.00
431.85	2385.01
432.03	2347.56
432.22	2265.64
432.41	2422.45
432.60	2473.95
432.79	2429.48
432.97	2518.42
433.16	2471.61
433.35	2569.91
433.54	2422.45
433.72	2511.39
433.91	2513.74
434.10	2499.69
434.28	2502.03
434.47	2560.55
434.66	2623.74
434.85	2588.63
435.03	2541.82
435.22	2602.68
435.41	2691.62
435.59	2703.32
435.78	2607.36
435.97	2668.21
436.16	2626.08
436.34	2607.36
436.53	2663.53
436.72	2822.69
436.90	2656.51
437.09	2766.51
437.28	2677.57
437.46	2857.79
437.65	2738.43
437.84	2651.83
438.02	2740.77
438.21	2743.11
438.40	2686.94
438.58	2867.16
438.77	2918.65
438.96	2815.66
439.14	2913.97
439.33	2939.71
439.52	2925.67
439.70	2979.50
439.89	2935.03
440.08	2981.84
440.26	3030.99
440.45	2920.99
440.63	3063.76
440.82	3108.23
441.01	3155.04
441.19	3204.19
441.38	3192.49
441.57	3234.62
441.75	3199.51
441.94	3246.32
442.12	3171.43
442.31	3349.31
442.50	3288.45
442.68	3225.26
442.87	3267.39
443.05	3307.18
443.24	3480.38
443.43	3325.90
443.61	3300.16
443.80	3466.33
443.98	3370.37
444.17	3377.39
444.35	3431.23
444.54	3405.48
444.73	3372.71
444.91	3435.91
445.10	3426.54
445.28	3389.10
445.47	3302.50
445.65	3370.37
445.84	3494.42
446.02	3361.01
446.21	3342.28
446.39	3480.38
446.58	3517.83
446.77	3562.30
446.95	3279.09
447.14	3522.51
447.32	3592.72
447.51	3384.41
447.69	3487.40
447.88	3449.95
448.06	3517.83
448.25	3508.46
448.43	3522.51
448.62	3543.57
448.80	3569.32
448.99	3592.72
449.17	3522.51
449.36	3506.12
449.54	3627.83
449.73	3721.45
449.91	3651.24
450.10	3824.44
450.28	3749.54
450.46	3789.33
450.65	3772.94
450.83	3763.58
451.02	3688.68
451.20	3693.37
451.39	3775.28
451.57	3719.11
451.76	3693.37
451.94	3859.54
452.13	3896.99
452.31	3861.88
452.49	3639.53
452.68	3794.01
452.86	3892.31
453.05	3957.85
453.23	3964.87
453.42	3852.52
453.60	3777.62
453.78	3904.01
453.97	3798.69
454.15	3927.42
454.34	3866.56
454.52	4086.58
454.70	4056.15
454.89	4021.04
455.07	4044.45
455.26	4051.47
455.44	3995.29
455.62	3950.82
455.81	4030.40
455.99	4091.26
456.17	4257.43
456.36	4070.19
456.54	4098.28
456.73	4191.90
456.91	4196.58
457.09	4194.24
457.28	4337.01
457.46	4365.10
457.64	4374.46
457.83	4341.69
458.01	4210.62
458.19	4346.37
458.38	4304.25
458.56	4400.21
458.74	4273.82
458.93	4278.50
459.11	4334.67
459.29	4472.76
459.48	4489.15
459.66	4458.72
459.84	4470.42
460.03	4507.87
460.21	4610.86
460.39	4489.15
460.57	4547.66
460.76	4650.64
460.94	4718.52
461.12	4507.87
461.31	4540.64
461.49	4463.40
461.67	4629.58
461.85	4669.37
462.04	4667.03
462.22	4987.68
462.40	4643.62
462.59	4634.26
462.77	4713.84
462.95	4690.43
463.13	4779.37
463.32	4798.10
463.50	4772.35
463.68	4784.06
463.86	4685.75
464.05	4692.77
464.23	4828.53
464.41	4657.67
464.59	4826.18
464.78	5008.75
464.96	4936.19
465.14	4887.04
465.32	4896.40
465.50	4856.61
465.69	5043.85
465.87	5032.15
466.05	5004.07
466.23	4823.84
466.41	4964.28
466.60	5289.61
466.78	4943.21
466.96	5085.98
467.14	5011.09
467.32	5107.05
467.51	5174.92
467.69	4987.68
467.87	5263.86
468.05	5123.43
468.23	5277.91
468.41	5174.92
468.60	5085.98
468.78	5313.02
468.96	5188.97
469.14	5200.67
469.32	5242.80
469.50	5322.38
469.69	5329.40
469.87	5399.62
470.05	5228.76
470.23	5467.49
470.41	5425.36
470.59	5401.96
470.77	5289.61
470.95	5458.13
471.14	5673.46
471.32	5425.36
471.50	5584.52
471.68	5680.48
471.86	5575.16
472.04	5481.53
472.22	5706.23
472.40	5607.92
472.58	5785.80
472.77	5664.10
472.95	5888.79
473.13	5926.24
473.31	5685.16
473.49	5877.09
473.67	5687.50
473.85	5867.72
474.03	6001.13
474.21	6024.54
474.39	6012.84
474.57	6141.57
474.75	6146.25
474.93	6015.18
475.12	6069.01
475.30	6183.70
475.48	6057.31
475.66	6363.92
475.84	6289.02
476.02	6553.50
476.20	6256.25
476.38	6375.62
476.56	6413.07
476.74	6438.81
476.92	6455.20
477.10	6490.31
477.28	6595.63
477.46	6649.46
477.64	6675.21
477.82	6579.25
478.00	6993.52
478.18	6827.34
478.36	7026.29
478.54	7061.40
478.72	7061.40
478.90	7164.38
479.08	7119.91
479.26	7185.44
479.44	7173.74
479.62	7346.94
479.80	7344.60
479.98	7501.42
480.16	7391.41
480.34	7456.95
480.52	7487.37
480.70	7590.36
480.88	7583.34
481.06	7639.51
481.24	7920.37
481.41	7836.11
481.59	8016.33
481.77	8023.36
481.95	7850.16
482.13	8201.24
482.31	7882.92
482.49	8210.60
482.67	8444.65
482.85	8369.76
483.03	8435.29
483.21	8542.96
483.39	8437.63
483.57	8659.98
483.74	8601.47
483.92	8727.86
484.10	8608.49
484.28	8681.05
484.46	9013.40
484.64	9184.26
484.82	8933.82
485.00	8992.34
485.18	9315.33
485.35	9320.01
485.53	9315.33
485.71	9305.97
485.89	9584.49
486.07	9355.12
486.25	9579.81
486.43	9451.08
486.61	9797.48
486.78	9736.63
486.96	9947.28
487.14	9982.38
487.32	10043.24
487.50	10214.10
487.68	10202.40
487.85	10143.88
488.03	10370.91
488.21	10686.89
488.39	10394.32
488.57	10609.65
488.75	10745.40
488.92	10782.85
489.10	10925.62
489.28	10885.83
489.46	11094.14
489.64	10979.45
489.81	11236.91
489.99	11056.69
490.17	11229.89
490.35	11393.73
490.53	11616.08
490.70	11573.95
490.88	11770.55
491.06	11707.36
491.24	11761.19
491.41	11730.76
491.59	11847.79
491.77	12013.97
491.95	12060.78
492.13	12250.36
492.30	12224.62
492.48	12086.53
492.66	12348.67
492.84	12116.95
493.01	12540.59
493.19	12650.60
493.37	12805.07
493.54	12755.92
493.72	12535.91
493.90	12821.45
494.08	13055.51
494.25	13025.08
494.43	13118.70
494.61	13193.60
494.79	13277.86
494.96	13275.52
495.14	13341.05
495.32	13561.06
495.49	13661.71
495.67	13701.50
495.85	13888.74
496.02	13736.60
496.20	13888.74
496.38	13980.02
496.55	13774.05
496.73	14410.68
496.91	14314.72
497.09	14143.86
497.26	14590.90
497.44	14108.75
497.62	14293.65
497.79	14445.79
497.97	14466.85
498.14	14614.30
498.32	14920.92
498.50	14949.00
498.67	14977.09
498.85	14693.88
499.03	15075.39
499.20	14799.21
499.38	14944.32
499.56	14979.43
499.73	15300.08
499.91	15314.13
500.08	15363.28
500.26	15164.33
500.44	15513.07
500.61	15433.49
500.79	15281.36
500.97	15613.71
501.14	15758.83
501.32	15901.60
501.49	15634.78
501.67	15903.94
501.84	15892.24
502.02	15655.84
502.20	16013.95
502.37	16095.86
502.55	16095.86
502.72	16112.25
502.90	16095.86
503.07	16372.05
503.25	16243.32
503.43	16301.83
503.60	16542.91
503.78	16379.07
503.95	16559.29
504.13	16699.72
504.30	16393.11
504.48	16634.19
504.65	16659.93
504.83	16943.14
505.01	17074.21
505.18	16802.71
505.36	17043.78
505.53	16791.00
505.71	17057.82
505.88	16940.80
506.06	16968.88
506.23	17130.38
506.41	17212.30
506.58	17181.87
506.76	17111.66
506.93	17561.04
507.11	17334.01
507.28	17273.15
507.46	17364.43
507.63	17523.59
507.81	18080.64
507.98	17451.03
508.16	17654.66
508.33	17783.39
508.50	17759.98
508.68	17994.04
508.85	17963.61
509.03	18094.68
509.20	18171.92
509.38	18090.00
509.55	18160.22
509.73	18139.15
509.90	17949.57
510.08	18225.75
510.25	18092.34
510.42	18611.94
510.60	18764.07
510.77	18881.10
510.95	18860.04
511.12	18574.49
511.30	18644.71
511.47	18698.54
511.64	18532.36
511.82	18789.82
511.99	19084.73
512.17	18841.31
512.34	18916.21
512.51	18986.43
512.69	19152.60
512.86	19431.13
513.04	19419.42
513.21	19194.73
513.38	19309.42
513.56	19414.74
513.73	19454.53
513.90	19531.77
514.08	19262.61
514.25	19646.46
514.43	19578.58
514.60	19630.07
514.77	19756.46
514.95	20203.50
515.12	19711.99
515.29	19814.98
515.47	19948.39
515.64	19941.36
515.81	20067.75
515.99	20191.80
516.16	20664.59
516.33	20259.68
516.51	20365.00
516.68	20091.16
516.85	20308.83
517.03	20175.42
517.20	20343.94
517.37	20372.02
517.54	20177.76
517.72	20702.04
517.89	20390.75
518.06	20615.44
518.24	20456.28
518.41	20552.24
518.58	20915.03
518.75	20552.24
518.93	20655.23
519.10	20936.09
519.27	20987.58
519.45	20865.88
519.62	20875.24
519.79	20893.96
519.96	21261.43
520.14	20905.66
520.31	21149.08
520.48	21172.49
520.65	21326.96
520.83	21429.94
521.00	21544.63
521.17	21626.55
521.34	21383.13
521.52	21284.83
521.69	21472.07
521.86	21341.00
522.03	21628.89
522.20	21795.07
522.38	21736.56
522.55	21783.37
522.72	21759.96
522.89	21867.63
523.07	22235.09
523.24	22012.74
523.41	22075.93
523.58	22101.68
523.75	22218.71
523.92	21891.03
524.10	22300.62
524.27	22120.40
524.44	22082.95
524.61	22553.40
524.78	22408.29
524.96	22324.03
525.13	22251.47
525.30	22499.57
525.47	22408.29
525.64	22436.38
525.81	22637.66
525.98	22670.43
526.16	22993.42
526.33	22588.51
526.50	22726.60
526.67	22438.72
526.84	22499.57
527.01	22658.73
527.18	22574.47
527.36	22960.66
527.53	22955.97
527.70	23297.69
527.87	23143.22
528.04	23173.64
528.21	23124.49
528.38	22789.80
528.55	23222.80
528.72	23321.10
528.89	23075.34
529.07	23393.65
529.24	23407.70
529.41	23646.43
529.58	23543.45
529.75	23475.57
529.92	23403.02
530.09	23185.35
530.26	23573.88
530.43	23964.75
530.60	23480.25
530.77	23534.09
530.94	23559.83
531.11	23461.53
531.28	23805.59
531.46	23927.30
531.63	23929.64
531.80	24030.28
531.97	24074.75
532.14	23658.14
532.31	23723.67
532.48	23943.68
532.65	23782.18
532.82	24016.24
532.99	24477.32
533.16	24034.96
533.33	24704.35
533.50	24549.88
533.67	24184.76
533.84	24257.31
534.01	24039.64
534.18	24245.61
534.35	24470.30
534.52	24189.44
534.69	24685.63
534.86	24503.07
535.03	24446.90
535.20	24627.12
535.37	24496.05
535.54	24706.70
535.71	24329.87
535.88	24648.18
536.05	24950.11
536.22	24809.68
536.38	24957.13
536.55	24877.55
536.72	24872.87
536.89	24830.74
537.06	24493.71
537.23	24924.36
537.40	24500.73
537.57	24954.79
537.74	25380.77
537.91	25582.06
538.08	25376.09
538.25	25266.08
538.42	25427.58
538.59	25298.85
538.75	25046.07
538.92	25390.13
539.09	25252.04
539.26	25207.57
539.43	25495.46
539.60	25741.21
539.77	25343.32
539.94	25235.66
540.11	25301.19
540.28	25317.57
540.44	25528.22
540.61	25348.00
540.78	25296.51
540.95	25729.51
541.12	25586.74
541.29	25671.00
541.46	25993.99
541.62	25785.68
541.79	26223.36
541.96	25338.64
542.13	25692.06
542.30	25621.84
542.47	25984.63
542.63	26260.81
542.80	25926.11
542.97	26178.89
543.14	26085.27
543.31	25998.67
543.48	25762.28
543.64	26656.36
543.81	26157.83
543.98	26345.07
544.15	26405.92
544.32	26527.63
544.48	26569.76
544.65	26501.89
544.82	26419.97
544.99	26143.78
545.16	26494.86
545.32	26476.14
545.49	26759.34
545.66	26874.03
545.83	26560.40
546.00	26555.72
546.16	26651.68
546.33	26642.32
546.50	26396.56
546.67	26576.78
546.83	26387.20
547.00	26740.62
547.17	26944.25
547.34	26960.63
547.50	26796.79
547.67	26906.80
547.84	27222.77
548.00	26958.29
548.17	27278.94
548.34	26916.16
548.51	27325.75
548.67	27384.27
548.84	26885.73
549.01	27075.32
549.18	26841.26
549.34	27283.62
549.51	27192.34
549.68	27175.96
549.84	27192.34
550.01	27236.81
550.18	27115.11
550.34	27639.39
550.51	27211.07
550.68	27545.76
550.84	27531.72
551.01	27407.67
551.18	27105.74
551.34	27124.47
551.51	27449.80
551.68	27463.85
551.84	27583.21
552.01	27311.71
552.18	27632.36
552.34	27796.20
552.51	27597.26
552.68	28074.73
552.84	27824.29
553.01	27608.96
553.18	27524.70
553.34	27981.10
553.51	27534.06
553.67	27955.36
553.84	27852.38
554.01	27857.06
554.17	27737.69
554.34	28037.28
554.51	27690.88
554.67	28287.71
554.84	27957.70
555.00	27990.47
555.17	27782.16
555.33	28105.15
555.50	28046.64
555.67	28016.21
555.83	27835.99
556.00	27793.86
556.16	28039.62
556.33	28056.00
556.50	28081.75
556.66	28379.00
556.83	28231.54
556.99	28898.59
557.16	28367.29
557.32	28264.31
557.49	28680.92
557.65	27981.10
557.82	28116.86
557.98	28416.44
558.15	28430.49
558.32	28268.99
558.48	28130.90
558.65	28472.62
558.81	28725.39
558.98	28606.03
559.14	28320.48
559.31	28404.74
559.47	28816.68
559.64	28493.68
559.80	28924.34
559.97	28959.45
560.13	28369.63
560.30	28772.21
560.46	28540.49
560.63	28245.58
560.79	28648.16
560.96	28802.63
561.12	28772.21
561.29	28709.01
561.45	28666.88
561.61	28599.01
561.78	29102.22
561.94	29209.89
562.11	28428.15
562.27	28758.16
562.44	28947.75
562.60	28568.58
562.77	28833.06
562.93	28790.93
563.10	29017.96
563.26	29043.71
563.42	29111.58
563.59	28922.00
563.75	29139.67
563.92	29088.18
564.08	28725.39
564.24	29165.42
564.41	28929.02
564.57	28718.37
564.74	28868.17
564.90	29195.84
565.07	29280.10
565.23	29163.08
565.39	29612.46
565.56	29132.65
565.72	29039.03
565.88	29043.71
566.05	28978.17
566.21	29326.91
566.38	29429.90
566.54	29326.91
566.70	29134.99
566.87	29680.33
567.03	29228.61
567.19	29483.73
567.36	29532.88
567.52	28987.53
567.68	29355.00
567.85	29273.08
568.01	29200.52
568.17	29095.20
568.34	28924.34
568.50	29170.10
568.66	29479.05
568.83	29607.78
568.99	29460.32
569.15	29507.13
569.32	29392.45
569.48	29142.01
569.64	29780.98
569.81	29153.71
569.97	29591.39
570.13	29607.78
570.30	29369.04
570.46	29469.69
570.62	29486.07
570.78	29338.62
570.95	28882.21
571.11	29640.54
571.27	28933.70
571.43	28994.56
571.60	29340.96
571.76	29502.45
571.92	29322.23
572.09	29373.72
572.25	29748.21
572.41	29369.04
572.57	29567.99
572.74	29837.15
572.90	29399.47
573.06	29331.59
573.22	29745.87
573.38	29198.18
573.55	29390.11
573.71	29638.20
573.87	29436.92
574.03	29710.76
574.20	29390.11
574.36	29301.17
574.52	29921.41
574.68	29556.28
574.84	29558.63
575.01	29586.71
575.17	29752.89
575.33	29645.23
575.49	29230.95
575.65	29898.00
575.82	29820.77
575.98	29371.38
576.14	29575.01
576.30	29493.09
576.46	29642.88
576.62	29710.76
576.79	29472.03
576.95	29811.40
577.11	29762.25
577.27	29802.04
577.43	29202.86
577.59	29233.29
577.75	29687.36
577.92	29312.87
578.08	29572.67
578.24	29659.27
578.40	29577.35
578.56	29362.02
578.72	29830.13
578.88	30209.29
579.04	29476.71
579.21	29303.51
579.37	29811.40
579.53	29886.30
579.69	29359.68
579.85	29694.38
580.01	29450.96
580.17	29598.41
580.33	29675.65
580.49	29935.45
580.65	30169.51
580.82	29834.81
580.98	29984.60
581.14	29635.86
581.30	30113.33
581.46	29598.41
581.62	29741.19
581.78	29612.46
581.94	29565.65
582.10	29523.52
582.26	29434.58
582.42	29483.73
582.58	29872.26
582.74	29701.40
582.90	29930.77
583.06	29949.50
583.22	30134.40
583.38	30127.38
583.54	29680.33
583.70	29757.57
583.86	29479.05
584.02	29453.30
584.18	30174.19
584.34	29855.87
584.50	29703.74
584.66	30120.35
584.82	29495.43
584.98	29701.40
585.14	30094.61
585.30	29521.18
585.46	29429.90
585.62	30089.93
585.78	30183.55
585.94	29560.97
586.10	30005.67
586.26	29617.14
586.42	30125.04
586.58	30209.29
586.74	30288.87
586.90	30033.75
587.06	29476.71
587.22	29799.70
587.38	30043.12
587.54	30293.55
587.70	30448.03
587.86	29972.90
588.02	29900.34
588.18	30199.93
588.34	30178.87
588.49	30008.01
588.65	29818.42
588.81	29834.81
588.97	30436.33
589.13	29809.06
589.29	30052.48
589.45	30539.31
589.61	30342.70
589.77	30450.37
589.93	30103.97
590.08	30508.88
590.24	30089.93
590.40	30588.46
590.56	30314.62
590.72	30099.29
590.88	30005.67
591.04	29979.92
591.20	30611.87
591.35	30162.48
591.51	30073.54
591.67	30211.64
591.83	30323.98
591.99	30183.55
