SpectraSuite Data File
++++++++++++++++++++++++++++++++++++
Date: Fri Oct 18 13:58:07 GMT-05:00 2013
User: bianchi
Dark Spectrum Present: No
Reference Spectrum Present: No
Number of Sampled Component Spectra: 1
Spectrometers: USB2+H05261
Integration Time (usec): 50000 (USB2+H05261)
Spectra Averaged: 1 (USB2+H05261)
Boxcar Smoothing: 0 (USB2+H05261)
Correct for Electrical Dark: No (USB2+H05261)
Strobe/Lamp Enabled: No (USB2+H05261)
Correct for Detector Non-linearity: No (USB2+H05261)
Correct for Stray Light: No (USB2+H05261)
Number of Pixels in Processed Spectrum: 2048
>>>>>Begin Processed Spectral Data<<<<<
365.73	0.00
365.92	0.00
366.12	0.00
366.32	0.00
366.52	0.00
366.72	0.00
366.91	0.00
367.11	0.00
367.31	0.00
367.51	0.00
367.70	0.00
367.90	0.00
368.10	0.00
368.30	0.00
368.49	0.00
368.69	0.00
368.89	0.00
369.09	0.00
369.28	0.00
369.48	0.00
369.68	0.00
369.87	0.00
370.07	0.00
370.27	0.00
370.47	4.68
370.66	81.92
370.86	110.01
371.06	138.09
371.25	107.66
371.45	145.11
371.65	142.77
371.84	145.11
372.04	220.01
372.24	173.20
372.44	231.71
372.63	175.54
372.83	306.61
373.03	208.31
373.22	236.39
373.42	191.92
373.62	194.26
373.81	299.59
374.01	184.90
374.21	220.01
374.40	177.88
374.60	259.80
374.79	259.80
374.99	273.84
375.19	245.76
375.38	234.05
375.58	194.26
375.78	299.59
375.97	236.39
376.17	243.42
376.37	287.89
376.56	308.95
376.76	294.91
376.95	212.99
377.15	252.78
377.35	243.42
377.54	283.20
377.74	290.23
377.93	231.71
378.13	351.08
378.33	322.99
378.52	299.59
378.72	285.55
378.91	271.50
379.11	259.80
379.31	191.92
379.50	280.86
379.70	306.61
379.89	278.52
380.09	294.91
380.28	353.42
380.48	301.93
380.68	327.68
380.87	318.31
381.07	315.97
381.26	283.20
381.46	325.33
381.65	369.80
381.85	306.61
382.04	379.17
382.24	322.99
382.43	234.05
382.63	362.78
382.83	362.78
383.02	491.51
383.22	290.23
383.41	313.63
383.61	351.08
383.80	423.64
384.00	353.42
384.19	306.61
384.39	388.53
384.58	379.17
384.78	320.65
384.97	421.30
385.17	379.17
385.36	468.11
385.56	353.42
385.75	344.06
385.95	482.15
386.14	369.80
386.34	463.43
386.53	369.80
386.72	414.27
386.92	386.19
387.11	444.70
387.31	461.09
387.50	425.98
387.70	365.12
387.89	465.77
388.09	454.06
388.28	416.62
388.48	454.06
388.67	468.11
388.86	479.81
389.06	505.56
389.25	409.59
389.45	451.72
389.64	521.94
389.84	376.83
390.03	482.15
390.22	465.77
390.42	416.62
390.61	519.60
390.81	430.66
391.00	428.32
391.19	463.43
391.39	414.27
391.58	550.03
391.78	538.32
391.97	510.24
392.16	557.05
392.36	643.65
392.55	585.13
392.75	528.96
392.94	524.28
393.13	554.71
393.33	507.90
393.52	601.52
393.71	608.54
393.91	564.07
394.10	613.22
394.29	547.69
394.49	479.81
394.68	610.88
394.88	540.66
395.07	638.97
395.26	587.47
395.46	678.76
395.65	657.69
395.84	643.65
396.04	697.48
396.23	587.47
396.42	596.84
396.62	627.26
396.81	657.69
397.00	655.35
397.19	702.16
397.39	571.09
397.58	695.14
397.77	727.91
397.97	725.57
398.16	674.07
398.35	734.93
398.55	709.18
398.74	662.37
398.93	793.44
399.12	727.91
399.32	784.08
399.51	648.33
399.70	709.18
399.90	767.70
400.09	737.27
400.28	765.36
400.47	706.84
400.67	795.78
400.86	744.29
401.05	833.23
401.24	802.80
401.44	795.78
401.63	854.30
401.82	912.81
402.01	849.61
402.21	889.40
402.40	814.51
402.59	866.00
402.78	819.19
402.97	840.25
403.17	873.02
403.36	877.70
403.55	870.68
403.74	910.47
403.93	933.87
404.13	961.96
404.32	814.51
404.51	926.85
404.70	990.05
404.89	847.27
405.09	990.05
405.28	884.72
405.47	922.17
405.66	980.68
405.85	959.62
406.05	1090.69
406.24	1032.18
406.43	1107.07
406.62	1011.11
406.81	1109.41
407.00	1039.20
407.20	947.92
407.39	1076.65
407.58	1018.13
407.77	1036.86
407.96	1181.97
408.15	950.26
408.34	1139.84
408.54	1146.86
408.73	1153.88
408.92	1165.59
409.11	1200.69
409.30	1160.91
409.49	1081.33
409.68	1181.97
409.87	1086.01
410.07	1198.35
410.26	1149.20
410.45	1282.61
410.64	1226.44
410.83	1240.48
411.02	1254.53
411.21	1348.15
411.40	1181.97
411.59	1352.83
411.78	1329.42
411.98	1228.78
412.17	1299.00
412.36	1322.40
412.55	1303.68
412.74	1446.45
412.93	1301.34
413.12	1404.32
413.31	1418.36
413.50	1355.17
413.69	1441.77
413.88	1430.07
414.07	1458.15
414.26	1486.24
414.45	1444.11
414.64	1519.01
414.83	1551.78
415.02	1563.48
415.22	1519.01
415.41	1629.01
415.60	1598.59
415.79	1593.90
415.98	1629.01
416.17	1556.46
416.36	1593.90
416.55	1666.46
416.74	1617.31
416.93	1696.89
417.12	1696.89
417.31	1666.46
417.50	1703.91
417.69	1689.87
417.88	1732.00
418.07	1736.68
418.26	1717.95
418.45	1736.68
418.64	1764.76
418.83	1809.23
419.02	1834.98
419.21	1825.62
419.39	1849.02
419.58	1837.32
419.77	1781.15
419.96	1954.35
420.15	1907.54
420.34	1853.70
420.53	1935.62
420.72	1930.94
420.91	1947.33
421.10	1937.96
421.29	2031.58
421.48	1856.04
421.67	1961.37
421.86	1937.96
422.05	2010.52
422.24	1930.94
422.43	1895.83
422.61	2066.69
422.80	1973.07
422.99	1968.39
423.18	2022.22
423.37	2143.93
423.56	2017.54
423.75	1968.39
423.94	1905.20
424.13	1839.66
424.32	1926.26
424.50	2157.97
424.69	2134.57
424.88	2083.08
425.07	2050.31
425.26	2076.06
425.45	2040.95
425.64	2108.82
425.83	2113.50
426.01	2090.10
426.20	2090.10
426.39	2017.54
426.58	1998.82
426.77	2141.59
426.96	2169.68
427.15	2106.48
427.33	2059.67
427.52	2115.84
427.71	2066.69
427.90	2221.17
428.09	2242.23
428.28	2157.97
428.46	2186.06
428.65	2179.04
428.84	2146.27
429.03	2218.83
429.22	2186.06
429.40	2216.49
429.59	2333.51
429.78	2195.42
429.97	2167.34
430.16	2263.30
430.34	2317.13
430.53	2303.09
430.72	2347.56
430.91	2270.32
431.10	2253.94
431.28	2289.04
431.47	2289.04
431.66	2480.97
431.85	2445.86
432.03	2469.27
432.22	2506.71
432.41	2368.62
432.60	2455.22
432.79	2420.11
432.97	2490.33
433.16	2562.89
433.35	2537.14
433.54	2469.27
433.72	2621.40
433.91	2462.24
434.10	2684.59
434.28	2588.63
434.47	2548.84
434.66	2560.55
434.85	2642.46
435.03	2586.29
435.22	2691.62
435.41	2684.59
435.59	2626.08
435.78	2677.57
435.97	2642.46
436.16	2630.76
436.34	2712.68
436.53	2647.15
436.72	2759.49
436.90	2736.09
437.09	2815.66
437.28	2703.32
437.46	2820.35
437.65	2825.03
437.84	2679.91
438.02	2717.36
438.21	2843.75
438.40	2703.32
438.58	2932.69
438.77	3028.65
438.96	2775.88
439.14	2906.95
439.33	2995.89
439.52	2967.80
439.70	2942.05
439.89	3110.57
440.08	3089.51
440.26	3016.95
440.45	2949.08
440.63	2986.52
440.82	3162.06
441.01	3206.53
441.19	3136.32
441.38	3171.43
441.57	3295.47
441.75	3267.39
441.94	3351.65
442.12	3236.96
442.31	3314.20
442.50	3241.64
442.68	3339.94
442.87	3456.97
443.05	3414.84
443.24	3417.18
443.43	3428.88
443.61	3400.80
443.80	3487.40
443.98	3358.67
444.17	3251.00
444.35	3361.01
444.54	3527.19
444.73	3527.19
444.91	3475.70
445.10	3468.67
445.28	3562.30
445.47	3361.01
445.65	3463.99
445.84	3499.10
446.02	3571.66
446.21	3517.83
446.39	3456.97
446.58	3529.53
446.77	3447.61
446.95	3473.36
447.14	3396.12
447.32	3515.48
447.51	3480.38
447.69	3517.83
447.88	3550.59
448.06	3595.06
448.25	3606.77
448.43	3557.61
448.62	3590.38
448.80	3623.15
448.99	3592.72
449.17	3702.73
449.36	3644.21
449.54	3665.28
449.73	3665.28
449.91	3772.94
450.10	3686.34
450.28	3911.04
450.46	3796.35
450.65	3810.39
450.83	3786.99
451.02	3749.54
451.20	3826.78
451.39	3852.52
451.57	3737.84
451.76	3847.84
451.94	3885.29
452.13	3918.06
452.31	3726.13
452.49	3819.75
452.68	3782.31
452.86	3775.28
453.05	3728.47
453.23	3911.04
453.42	3838.48
453.60	3922.74
453.78	3857.20
453.97	3836.14
454.15	3929.76
454.34	3960.19
454.52	4067.85
454.70	3932.10
454.89	3950.82
455.07	4018.70
455.26	4063.17
455.44	4173.18
455.62	4140.41
455.81	4053.81
455.99	4337.01
456.17	4142.75
456.36	4030.40
456.54	4156.79
456.73	4292.54
456.91	4369.78
457.09	4411.91
457.28	4322.97
457.46	4175.52
457.64	4353.40
457.83	4365.10
458.01	4287.86
458.19	4505.53
458.38	4423.61
458.56	4393.19
458.74	4491.49
458.93	4547.66
459.11	4514.89
459.29	4528.94
459.48	4585.11
459.66	4503.19
459.84	4767.67
460.03	4580.43
460.21	4582.77
460.39	4669.37
460.57	4643.62
460.76	4503.19
460.94	4830.87
461.12	4681.07
461.31	4744.27
461.49	4762.99
461.67	4770.01
461.85	4798.10
462.04	4695.11
462.22	5034.49
462.40	4784.06
462.59	4809.80
462.77	4894.06
462.95	4915.12
463.13	4603.83
463.32	4971.30
463.50	4933.85
463.68	4795.76
463.86	4997.04
464.05	4898.74
464.23	4882.36
464.41	4837.89
464.59	4816.82
464.78	5060.24
464.96	5050.88
465.14	4973.64
465.32	5078.96
465.50	5053.22
465.69	5123.43
465.87	4840.23
466.05	5020.45
466.23	5050.88
466.41	5069.60
466.60	5158.54
466.78	4933.85
466.96	5011.09
467.14	4994.70
467.32	5071.94
467.51	5144.50
467.69	5160.88
467.87	5153.86
468.05	5261.52
468.23	5242.80
468.41	5224.08
468.60	5280.25
468.78	5359.83
468.96	5228.76
469.14	5348.12
469.32	5528.35
469.50	5289.61
469.69	5385.57
469.87	5507.28
470.05	5554.09
470.23	5462.81
470.41	5607.92
470.59	5605.58
470.77	5577.50
470.95	5540.05
471.14	5643.03
471.32	5469.83
471.50	5617.29
471.68	5617.29
471.86	5708.57
472.04	5767.08
472.22	5767.08
472.40	5610.26
472.58	5783.46
472.77	5767.08
472.95	5762.40
473.13	5851.34
473.31	5809.21
473.49	5849.00
473.67	5813.89
473.85	6040.92
474.03	6115.82
474.21	6218.80
474.39	6092.41
474.57	6127.52
474.75	6139.23
474.93	6296.04
475.12	5966.03
475.30	6291.36
475.48	6310.08
475.66	6373.28
475.84	6384.98
476.02	6487.96
476.20	6499.67
476.38	6506.69
476.56	6733.72
476.74	6604.99
476.92	6565.20
477.10	6675.21
477.28	6956.07
477.46	6696.27
477.64	6817.98
477.82	6874.15
478.00	7068.42
478.18	7035.65
478.36	6970.12
478.54	7138.63
478.72	7112.89
478.90	7229.91
479.08	7314.17
479.26	7346.94
479.44	7365.67
479.62	7346.94
479.80	7510.78
479.98	7590.36
480.16	7686.32
480.34	7599.72
480.52	7740.15
480.70	7864.20
480.88	7779.94
481.06	7887.61
481.24	7964.84
481.41	7962.50
481.59	8081.87
481.77	8044.42
481.95	8191.88
482.13	8063.15
482.31	8236.35
482.49	8379.12
482.67	8449.33
482.85	8400.18
483.03	8657.64
483.21	8540.61
483.39	8538.27
483.57	8692.75
483.74	8636.58
483.92	8842.54
484.10	8753.60
484.28	9060.21
484.46	9025.11
484.64	9437.04
484.82	9142.13
485.00	9144.47
485.18	9284.91
485.35	9654.71
485.53	9472.15
485.71	9490.87
485.89	9701.52
486.07	9675.77
486.25	9750.67
486.43	9907.49
486.61	9949.62
486.78	10108.77
486.96	9947.28
487.14	10181.33
487.32	10256.23
487.50	10143.88
487.68	10256.23
487.85	10448.15
488.03	10445.81
488.21	10794.55
488.39	10672.84
488.57	10904.56
488.75	11044.99
488.92	10949.03
489.10	11159.67
489.28	11059.03
489.46	11204.14
489.64	11173.72
489.81	11274.36
489.99	11417.13
490.17	11513.10
490.35	11756.51
490.53	11779.92
490.70	11700.34
490.88	11679.27
491.06	11864.18
491.24	11885.24
491.41	11852.47
491.59	12147.38
491.77	11878.22
491.95	12217.60
492.13	12535.91
492.30	12503.14
492.48	12575.70
492.66	12519.53
492.84	12681.02
493.01	12966.57
493.19	12664.64
493.37	12894.01
493.54	12849.54
493.72	12982.95
493.90	13118.70
494.08	12971.25
494.25	13277.86
494.43	13249.77
494.61	13509.57
494.79	13558.72
494.96	13530.64
495.14	13558.72
495.32	13504.89
495.49	13743.63
495.67	13867.67
495.85	13825.54
496.02	14099.39
496.20	14211.73
496.38	14115.77
496.55	13912.14
496.73	14384.93
496.91	14237.48
497.09	14534.73
497.26	14501.96
497.44	14300.67
497.62	14459.83
497.79	14640.05
497.97	14934.96
498.14	15166.67
498.32	15143.27
498.50	14911.55
498.67	15185.40
498.85	15227.53
499.03	15152.63
499.20	15335.19
499.38	15454.56
499.56	15662.86
499.73	15721.38
499.91	15700.31
500.08	15618.39
500.26	15405.41
500.44	15983.52
500.61	15697.97
500.79	15669.89
500.97	15969.48
501.14	16231.62
501.32	16023.31
501.49	16091.18
501.67	16042.03
501.84	16245.66
502.02	15896.92
502.20	16652.91
502.37	16376.73
502.55	16100.55
502.72	16414.18
502.90	16451.63
503.07	16290.13
503.25	16554.61
503.43	16702.06
503.60	16659.93
503.78	17018.04
503.95	16690.36
504.13	16901.01
504.30	16762.92
504.48	16882.28
504.65	17104.64
504.83	17401.88
505.01	17261.45
505.18	17275.49
505.36	17312.94
505.53	17193.58
505.71	17369.12
505.88	17427.63
506.06	17207.62
506.23	17476.78
506.41	17380.82
506.58	17556.36
506.76	17675.73
506.93	17921.48
507.11	17586.79
507.28	17734.24
507.46	17610.19
507.63	17790.41
507.81	18272.56
507.98	17912.12
508.16	17837.22
508.33	17841.90
508.50	18104.04
508.68	18185.96
508.85	18396.61
509.03	18597.90
509.20	18469.17
509.38	18572.15
509.55	18387.25
509.73	18628.32
509.90	18190.64
510.08	18705.56
510.25	18537.04
510.42	18658.75
510.60	19007.49
510.77	18745.35
510.95	18860.04
511.12	19073.03
511.30	18661.09
511.47	19058.98
511.64	19033.24
511.82	19131.54
511.99	19066.00
512.17	19452.19
512.34	19403.04
512.51	19545.81
512.69	19735.40
512.86	19550.49
513.04	19826.68
513.21	19534.11
513.38	19499.00
513.56	19473.26
513.73	19503.68
513.90	19927.32
514.08	19662.84
514.25	20039.67
514.43	20037.33
514.60	20053.71
514.77	20065.41
514.95	20191.80
515.12	20182.44
515.29	20130.95
515.47	20290.10
515.64	20416.49
515.81	20467.98
515.99	20538.20
516.16	20648.21
516.33	20629.48
516.51	20503.09
516.68	20734.81
516.85	20397.77
517.03	20599.05
517.20	20879.92
517.37	20800.34
517.54	20807.36
517.72	20903.32
517.89	20922.05
518.06	20807.36
518.24	20947.79
518.41	20875.24
518.58	21280.15
518.75	21177.17
518.93	21305.90
519.10	20961.84
519.27	21139.72
519.45	21448.67
519.62	21418.24
519.79	21111.63
519.96	21561.02
520.14	21642.93
520.31	21385.47
520.48	21811.45
520.65	21467.39
520.83	21462.71
521.00	21703.79
521.17	21532.93
521.34	21769.32
521.52	21722.51
521.69	21553.99
521.86	21802.09
522.03	22181.26
522.20	22183.60
522.38	22047.85
522.55	21923.80
522.72	22246.79
522.89	22015.08
523.07	22148.49
523.24	22384.88
523.41	22431.69
523.58	22349.78
523.75	22525.32
523.92	22410.63
524.10	22412.97
524.27	22719.58
524.44	22684.47
524.61	22721.92
524.78	22822.56
524.96	22906.82
525.13	23019.17
525.30	22878.74
525.47	22672.77
525.64	22719.58
525.81	23293.01
525.98	23009.81
526.16	23098.75
526.33	23030.87
526.50	23491.96
526.67	22993.42
526.84	23161.94
527.01	23056.62
527.18	23073.00
527.36	23372.59
527.53	23531.75
527.70	23857.08
527.87	23597.28
528.04	23482.59
528.21	23836.02
528.38	23468.55
528.55	23723.67
528.72	23625.37
528.89	23749.42
529.07	23740.05
529.24	23758.78
529.41	23819.63
529.58	23707.29
529.75	23763.46
529.92	24084.11
530.09	23831.33
530.26	23988.15
530.43	24023.26
530.60	24252.63
530.77	24046.66
530.94	24130.92
531.11	23789.20
531.28	24175.39
531.46	24364.98
531.63	24400.08
531.80	24329.87
531.97	24215.18
532.14	24510.09
532.31	24100.50
532.48	24339.23
532.65	24737.12
532.82	24360.30
532.99	24924.36
533.16	24474.98
533.33	24620.10
533.50	24936.07
533.67	24996.92
533.84	24741.80
534.01	24669.25
534.18	24442.21
534.35	24842.45
534.52	25132.67
534.69	25099.90
534.86	25010.96
535.03	24755.85
535.20	25076.50
535.37	24980.54
535.54	24629.46
535.71	25195.87
535.88	25532.90
536.05	25200.55
536.22	25235.66
536.38	25319.92
536.55	25198.21
536.72	25067.14
536.89	25530.56
537.06	25280.13
537.23	25518.86
537.40	25439.28
537.57	25802.07
537.74	25598.44
537.91	25659.29
538.08	25841.85
538.25	25280.13
538.42	25495.46
538.59	25881.64
538.75	25678.02
538.92	25240.34
539.09	25654.61
539.26	25811.43
539.43	25521.20
539.60	25855.90
539.77	25949.52
539.94	25975.27
540.11	25778.66
540.28	25909.73
540.44	25647.59
540.61	25883.98
540.78	25876.96
540.95	26501.89
541.12	25942.50
541.29	26155.49
541.46	26040.80
541.62	26253.79
541.79	26061.87
541.96	25928.45
542.13	25881.64
542.30	26316.98
542.47	26174.21
542.63	26649.34
542.80	26513.59
542.97	26508.91
543.14	26661.04
543.31	26813.18
543.48	27007.44
543.64	26855.31
543.81	26981.70
543.98	27115.11
544.15	27424.06
544.32	27381.93
544.48	27218.09
544.65	27007.44
544.82	26726.58
544.99	26897.44
545.16	26941.91
545.32	27028.51
545.49	27459.16
545.66	27281.28
545.83	27070.64
546.00	27395.97
546.16	27145.53
546.33	26911.48
546.50	26820.20
546.67	27239.15
546.83	26951.27
547.00	27236.81
547.17	27501.29
547.34	27201.71
547.50	27676.83
547.67	27473.21
547.84	27267.24
548.00	27187.66
548.17	27740.03
548.34	27559.81
548.51	27714.28
548.67	27639.39
548.84	27676.83
549.01	27557.47
549.18	27763.43
549.34	27550.45
549.51	27658.11
549.68	27651.09
549.84	27527.04
550.01	27910.89
550.18	27730.67
550.34	27646.41
550.51	27873.44
550.68	27990.47
550.84	27784.50
551.01	28121.54
551.18	27789.18
551.34	27770.46
551.51	28013.87
551.68	27899.19
551.84	28184.73
552.01	27971.74
552.18	28456.23
552.34	27938.97
552.51	28032.60
552.68	27861.74
552.84	28091.11
553.01	28210.48
553.18	28180.05
553.34	27936.63
553.51	28020.89
553.67	28243.24
553.84	28247.93
554.01	28318.14
554.17	28786.25
554.34	28182.39
554.51	28589.64
554.67	28542.83
554.84	28573.26
555.00	28161.33
555.17	28196.43
555.33	28446.87
555.50	28257.29
555.67	28863.49
555.83	28844.76
556.00	28535.81
556.16	28800.29
556.33	28683.27
556.50	28414.10
556.66	28994.56
556.83	28470.28
556.99	28922.00
557.16	29013.28
557.32	29181.80
557.49	28989.88
557.65	28875.19
557.82	28882.21
557.98	29081.16
558.15	28627.09
558.32	29280.10
558.48	29057.75
558.65	29015.62
558.81	29298.83
558.98	29015.62
559.14	29209.89
559.31	29104.56
559.47	29165.42
559.64	29261.38
559.80	29322.23
559.97	29247.33
560.13	28985.19
560.30	29277.76
560.46	29319.89
560.63	29113.92
560.79	28903.28
560.96	29247.33
561.12	29074.13
561.29	28779.23
561.45	29085.84
561.61	29556.28
561.78	29268.40
561.94	29252.02
562.11	29097.54
562.27	29200.52
562.44	29621.82
562.60	29336.27
562.77	28914.98
562.93	29181.80
563.10	29837.15
563.26	29528.20
563.42	29549.26
563.59	29355.00
563.75	29556.28
563.92	29841.83
564.08	29495.43
564.24	29228.61
564.41	29720.12
564.57	29181.80
564.74	29490.75
564.90	29380.74
565.07	29628.84
565.23	29825.45
565.39	29455.64
565.56	29603.10
565.72	29399.47
565.88	29837.15
566.05	29158.39
566.21	29832.47
566.38	29352.66
566.54	29968.22
566.70	29977.58
566.87	29675.65
567.03	29607.78
567.19	29858.21
567.36	30221.00
567.52	29582.03
567.68	30087.59
567.85	29479.05
568.01	29584.37
568.17	29577.35
568.34	30029.07
568.50	30040.78
568.66	30445.69
568.83	30078.22
568.99	29951.84
569.15	29701.40
569.32	29734.17
569.48	29816.08
569.64	30071.20
569.81	30075.88
569.97	30052.48
570.13	30195.25
570.30	29560.97
570.46	30029.07
570.62	30092.27
570.78	30099.29
570.95	29745.87
571.11	30335.68
571.27	29930.77
571.43	29874.60
571.60	30082.91
571.76	29638.20
571.92	29582.03
572.09	30162.48
572.25	29940.13
572.41	30225.68
572.57	30012.69
572.74	29736.51
572.90	30298.23
573.06	29696.72
573.22	29869.92
573.38	30335.68
573.55	29797.36
573.71	30185.89
573.87	30586.12
574.03	30237.38
574.20	30279.51
574.36	29874.60
574.52	30281.85
574.68	30096.95
574.84	30518.25
575.01	30651.66
575.17	30513.56
575.33	30015.03
575.49	29909.71
575.65	30380.15
575.82	30345.05
575.98	30426.96
576.14	30281.85
576.30	30071.20
576.46	29968.22
576.62	29979.92
576.79	30326.32
576.95	30012.69
577.11	29912.05
577.27	30410.58
577.43	30216.32
577.59	30008.01
577.75	30361.43
577.92	29762.25
578.08	30068.86
578.24	30232.70
578.40	30366.11
578.56	30766.34
578.72	30375.47
578.88	30342.70
579.04	30309.94
579.21	30462.07
579.37	30277.17
579.53	30682.08
579.69	30110.99
579.85	30148.44
580.01	29993.97
580.17	30068.86
580.33	30265.47
580.49	30068.86
580.65	30429.30
580.82	30471.43
580.98	30071.20
581.14	30401.22
581.30	30338.02
581.46	30403.56
581.62	30654.00
581.78	30249.08
581.94	30167.16
582.10	30302.92
582.26	30146.10
582.42	30288.87
582.58	30375.47
582.74	30237.38
582.90	30724.21
583.06	30749.96
583.22	30291.21
583.38	30572.08
583.54	30452.71
583.70	30064.18
583.86	30506.54
584.02	30513.56
584.18	30567.40
584.34	30834.22
584.50	30700.81
584.66	30492.50
584.82	30497.18
584.98	30501.86
585.14	30223.34
585.30	30312.28
585.46	30459.73
585.62	30415.26
585.78	30623.57
585.94	30499.52
586.10	30527.61
586.26	30651.66
586.42	30429.30
586.58	30698.47
586.74	30700.81
586.90	30436.33
587.06	30384.83
587.22	30342.70
587.38	30394.20
587.54	30984.01
587.70	30726.55
587.86	30637.61
588.02	30988.69
588.18	31307.01
588.34	30756.98
588.49	30714.85
588.65	30714.85
588.81	30494.84
588.97	30721.87
589.13	30658.68
589.29	30424.62
589.45	30850.60
589.61	30817.83
589.77	30909.11
589.93	31117.42
590.08	30642.29
590.24	31150.19
590.40	30864.64
590.56	31051.89
590.72	30815.49
590.88	30560.37
591.04	30639.95
591.20	31309.35
591.35	30967.63
591.51	31431.05
591.67	30888.05
591.83	31337.43
591.99	31040.18
