SpectraSuite Data File
++++++++++++++++++++++++++++++++++++
Date: Fri Oct 18 13:58:23 GMT-05:00 2013
User: bianchi
Dark Spectrum Present: No
Reference Spectrum Present: No
Number of Sampled Component Spectra: 1
Spectrometers: USB2+H05261
Integration Time (usec): 50000 (USB2+H05261)
Spectra Averaged: 1 (USB2+H05261)
Boxcar Smoothing: 0 (USB2+H05261)
Correct for Electrical Dark: No (USB2+H05261)
Strobe/Lamp Enabled: No (USB2+H05261)
Correct for Detector Non-linearity: No (USB2+H05261)
Correct for Stray Light: No (USB2+H05261)
Number of Pixels in Processed Spectrum: 2048
>>>>>Begin Processed Spectral Data<<<<<
365.73	0.00
365.92	0.00
366.12	0.00
366.32	0.00
366.52	0.00
366.72	0.00
366.91	0.00
367.11	0.00
367.31	0.00
367.51	0.00
367.70	0.00
367.90	0.00
368.10	0.00
368.30	0.00
368.49	0.00
368.69	0.00
368.89	0.00
369.09	0.00
369.28	0.00
369.48	0.00
369.68	0.00
369.87	0.00
370.07	0.00
370.27	0.00
370.47	0.00
370.66	74.90
370.86	67.88
371.06	100.64
371.25	93.62
371.45	152.13
371.65	196.60
371.84	131.07
372.04	147.45
372.24	203.63
372.44	252.78
372.63	259.80
372.83	248.10
373.03	234.05
373.22	175.54
373.42	287.89
373.62	212.99
373.81	238.73
374.01	262.14
374.21	220.01
374.40	248.10
374.60	257.46
374.79	234.05
374.99	255.12
375.19	273.84
375.38	205.97
375.58	238.73
375.78	201.29
375.97	308.95
376.17	360.44
376.37	198.95
376.56	362.78
376.76	276.18
376.95	271.50
377.15	292.57
377.35	280.86
377.54	353.42
377.74	215.33
377.93	330.02
378.13	322.99
378.33	255.12
378.52	299.59
378.72	306.61
378.91	292.57
379.11	369.80
379.31	243.42
379.50	243.42
379.70	341.72
379.89	257.46
380.09	301.93
380.28	276.18
380.48	407.25
380.68	297.25
380.87	236.39
381.07	276.18
381.26	299.59
381.46	376.83
381.65	299.59
381.85	421.30
382.04	250.44
382.24	386.19
382.43	304.27
382.63	397.89
382.83	379.17
383.02	374.49
383.22	407.25
383.41	381.51
383.61	330.02
383.80	285.55
384.00	344.06
384.19	369.80
384.39	414.27
384.58	395.55
384.78	451.72
384.97	379.17
385.17	379.17
385.36	395.55
385.56	348.74
385.75	339.38
385.95	402.57
386.14	372.15
386.34	437.68
386.53	425.98
386.72	503.22
386.92	442.36
387.11	430.66
387.31	390.87
387.50	351.08
387.70	421.30
387.89	379.17
388.09	470.45
388.28	482.15
388.48	540.66
388.67	451.72
388.86	507.90
389.06	360.44
389.25	437.68
389.45	444.70
389.64	444.70
389.84	503.22
390.03	496.19
390.22	500.87
390.42	470.45
390.61	461.09
390.81	472.79
391.00	482.15
391.19	489.17
391.39	451.72
391.58	468.11
391.78	540.66
391.97	500.87
392.16	500.87
392.36	617.90
392.55	592.16
392.75	545.34
392.94	472.79
393.13	484.49
393.33	440.02
393.52	540.66
393.71	573.43
393.91	571.09
394.10	615.56
394.29	610.88
394.49	543.00
394.68	592.16
394.88	578.11
395.07	704.50
395.26	606.20
395.46	660.03
395.65	636.63
395.84	617.90
396.04	622.58
396.23	636.63
396.42	674.07
396.62	667.05
396.81	643.65
397.00	685.78
397.19	704.50
397.39	648.33
397.58	657.69
397.77	713.86
397.97	685.78
398.16	620.24
398.35	748.97
398.55	599.18
398.74	727.91
398.93	699.82
399.12	657.69
399.32	678.76
399.51	678.76
399.70	753.65
399.90	798.12
400.09	727.91
400.28	851.96
400.47	847.27
400.67	809.83
400.86	791.10
401.05	809.83
401.24	737.27
401.44	854.30
401.63	786.42
401.82	842.59
402.01	751.31
402.21	844.93
402.40	777.06
402.59	807.48
402.78	837.91
402.97	842.59
403.17	866.00
403.36	896.43
403.55	856.64
403.74	933.87
403.93	943.24
404.13	936.21
404.32	901.11
404.51	924.51
404.70	929.19
404.89	908.13
405.09	980.68
405.28	971.32
405.47	968.98
405.66	1004.09
405.85	1006.43
406.05	947.92
406.24	985.37
406.43	1025.15
406.62	1062.60
406.81	1053.24
407.00	980.68
407.20	1039.20
407.39	1034.52
407.58	1034.52
407.77	959.62
407.96	1170.27
408.15	1163.25
408.34	1025.15
408.54	1160.91
408.73	1109.41
408.92	1123.46
409.11	1118.78
409.30	1142.18
409.49	1046.22
409.68	1151.54
409.87	1132.82
410.07	1107.07
410.26	1277.93
410.45	1172.61
410.64	1111.75
410.83	1177.29
411.02	1233.46
411.21	1289.64
411.40	1254.53
411.59	1310.70
411.78	1263.89
411.98	1287.29
412.17	1233.46
412.36	1294.32
412.55	1313.04
412.74	1268.57
412.93	1411.34
413.12	1357.51
413.31	1394.96
413.50	1427.73
413.69	1432.41
413.88	1504.96
414.07	1460.49
414.26	1430.07
414.45	1523.69
414.64	1535.39
414.83	1556.46
415.02	1486.24
415.22	1533.05
415.41	1561.14
415.60	1488.58
415.79	1540.07
415.98	1666.46
416.17	1596.25
416.36	1554.12
416.55	1591.56
416.74	1748.38
416.93	1652.42
417.12	1659.44
417.31	1614.97
417.50	1666.46
417.69	1713.27
417.88	1753.06
418.07	1776.47
418.26	1797.53
418.45	1703.91
418.64	1881.79
418.83	1849.02
419.02	1823.28
419.21	1909.88
419.39	1872.43
419.58	1743.70
419.77	1792.85
419.96	1872.43
420.15	1858.39
420.34	1973.07
420.53	1870.09
420.72	1954.35
420.91	1949.67
421.10	1923.92
421.29	1935.62
421.48	1942.64
421.67	2031.58
421.86	1914.56
422.05	1923.92
422.24	1891.15
422.43	1977.75
422.61	1942.64
422.80	2078.40
422.99	1975.41
423.18	2008.18
423.37	1994.14
423.56	1996.48
423.75	2047.97
423.94	1926.26
424.13	1823.28
424.32	2008.18
424.50	1989.46
424.69	2111.16
424.88	2090.10
425.07	2155.63
425.26	2113.50
425.45	2022.22
425.64	2064.35
425.83	2057.33
426.01	2071.37
426.20	2099.46
426.39	2050.31
426.58	2031.58
426.77	2047.97
426.96	2125.21
427.15	2232.87
427.33	2181.38
427.52	2087.76
427.71	2071.37
427.90	2225.85
428.09	2228.19
428.28	2181.38
428.46	2204.78
428.65	2246.91
428.84	2293.72
429.03	2202.44
429.22	2289.04
429.40	2284.36
429.59	2324.15
429.78	2246.91
429.97	2162.66
430.16	2122.87
430.34	2387.35
430.53	2314.79
430.72	2321.81
430.91	2403.73
431.10	2239.89
431.28	2392.03
431.47	2499.69
431.66	2471.61
431.85	2373.30
432.03	2509.05
432.22	2459.90
432.41	2356.92
432.60	2459.90
432.79	2424.80
432.97	2443.52
433.16	2443.52
433.35	2422.45
433.54	2478.63
433.72	2572.25
433.91	2555.86
434.10	2520.76
434.28	2565.23
434.47	2583.95
434.66	2525.44
434.85	2658.85
435.03	2675.23
435.22	2619.06
435.41	2757.15
435.59	2644.81
435.78	2637.78
435.97	2771.19
436.16	2654.17
436.34	2745.45
436.53	2698.64
436.72	2766.51
436.90	2616.72
437.09	2780.56
437.28	2722.04
437.46	2612.04
437.65	2787.58
437.84	2871.84
438.02	2654.17
438.21	2668.21
438.40	2935.03
438.58	2923.33
438.77	2995.89
438.96	2892.90
439.14	3021.63
439.33	2930.35
439.52	3077.80
439.70	3002.91
439.89	3049.72
440.08	2972.48
440.26	3063.76
440.45	3112.91
440.63	3126.96
440.82	3035.67
441.01	3119.93
441.19	3286.11
441.38	3227.60
441.57	3197.17
441.75	3253.34
441.94	3414.84
442.12	3304.84
442.31	3323.56
442.50	3304.84
442.68	3318.88
442.87	3377.39
443.05	3295.47
443.24	3377.39
443.43	3487.40
443.61	3494.42
443.80	3431.23
443.98	3391.44
444.17	3267.39
444.35	3513.14
444.54	3419.52
444.73	3353.99
444.91	3487.40
445.10	3449.95
445.28	3398.46
445.47	3346.97
445.65	3466.33
445.84	3501.44
446.02	3501.44
446.21	3531.87
446.39	3541.23
446.58	3559.95
446.77	3545.91
446.95	3449.95
447.14	3466.33
447.32	3524.85
447.51	3412.50
447.69	3552.93
447.88	3503.78
448.06	3473.36
448.25	3606.77
448.43	3604.42
448.62	3583.36
448.80	3585.70
448.99	3684.00
449.17	3749.54
449.36	3632.51
449.54	3592.72
449.73	3791.67
449.91	3887.63
450.10	3688.68
450.28	3737.84
450.46	3763.58
450.65	3775.28
450.83	3789.33
451.02	3695.71
451.20	3957.85
451.39	3772.94
451.57	3765.92
451.76	3789.33
451.94	3875.93
452.13	3960.19
452.31	3985.93
452.49	3817.41
452.68	3892.31
452.86	3936.78
453.05	4044.45
453.23	3833.80
453.42	3765.92
453.60	3880.61
453.78	3866.56
453.97	3882.95
454.15	3992.95
454.34	3936.78
454.52	4109.98
454.70	3946.14
454.89	4095.94
455.07	4063.17
455.26	4140.41
455.44	4117.00
455.62	4032.74
455.81	4159.13
455.99	4070.19
456.17	4285.52
456.36	4133.39
456.54	4196.58
456.73	4271.48
456.91	4386.16
457.09	4369.78
457.28	4234.03
457.46	4245.73
457.64	4496.17
457.83	4313.61
458.01	4365.10
458.19	4404.89
458.38	4510.21
458.56	4493.83
458.74	4533.62
458.93	4500.85
459.11	4376.80
459.29	4411.91
459.48	4465.74
459.66	4444.68
459.84	4493.83
460.03	4683.41
460.21	4587.45
460.39	4648.30
460.57	4514.89
460.76	4528.94
460.94	4671.71
461.12	4601.49
461.31	4755.97
461.49	4681.07
461.67	4704.48
461.85	4809.80
462.04	4751.29
462.22	4830.87
462.40	4891.72
462.59	4884.70
462.77	4809.80
462.95	4720.86
463.13	4873.00
463.32	4898.74
463.50	4868.31
463.68	4861.29
463.86	4844.91
464.05	4842.57
464.23	4826.18
464.41	5076.62
464.59	4891.72
464.78	4926.83
464.96	5048.54
465.14	4877.68
465.32	4978.32
465.50	5095.35
465.69	5025.13
465.87	5067.26
466.05	5170.24
466.23	5132.79
466.41	5064.92
466.60	5224.08
466.78	5142.16
466.96	5088.32
467.14	5146.84
467.32	5022.79
467.51	5200.67
467.69	5029.81
467.87	5167.90
468.05	5128.11
468.23	5254.50
468.41	5100.03
468.60	5224.08
468.78	5242.80
468.96	5212.37
469.14	5270.89
469.32	5404.30
469.50	5425.36
469.69	5291.95
469.87	5406.64
470.05	5343.44
470.23	5460.47
470.41	5547.07
470.59	5383.23
470.77	5596.22
470.95	5547.07
471.14	5607.92
471.32	5537.71
471.50	5717.93
471.68	5568.13
471.86	5661.76
472.04	5535.37
472.22	5706.23
472.40	5643.03
472.58	5694.52
472.77	5757.72
472.95	5977.73
473.13	5886.45
473.31	5809.21
473.49	5900.49
473.67	5797.51
473.85	5891.13
474.03	5961.34
474.21	5860.70
474.39	6155.61
474.57	6181.35
474.75	6059.65
474.93	6258.59
475.12	6136.88
475.30	6258.59
475.48	6225.82
475.66	6272.64
475.84	6253.91
476.02	6303.06
476.20	6534.78
476.38	6490.31
476.56	6623.72
476.74	6724.36
476.92	6511.37
477.10	6527.75
477.28	6651.80
477.46	6679.89
477.64	6834.36
477.82	6944.37
478.00	6965.43
478.18	6939.69
478.36	6981.82
478.54	7129.27
478.72	7187.79
478.90	7185.44
479.08	7166.72
479.26	7435.88
479.44	7368.01
479.62	7445.24
479.80	7435.88
479.98	7414.82
480.16	7719.09
480.34	7470.99
480.52	7810.37
480.70	7723.77
480.88	7662.91
481.06	7742.49
481.24	7648.87
481.41	7913.35
481.59	8039.74
481.77	8119.32
481.95	8208.26
482.13	8156.77
482.31	8189.53
482.49	8276.13
482.67	8245.71
482.85	8369.76
483.03	8386.14
483.21	8571.04
483.39	8643.60
483.57	8678.71
483.74	8554.66
483.92	8863.61
484.10	8755.94
484.28	8926.80
484.46	8990.00
484.64	9226.39
484.82	8821.48
485.00	9242.78
485.18	9343.42
485.35	9540.02
485.53	9273.20
485.71	9518.96
485.89	9650.03
486.07	9533.00
486.25	9589.17
486.43	9736.63
486.61	10024.51
486.78	10059.62
486.96	10242.18
487.14	10181.33
487.32	10080.69
487.50	10256.23
487.68	10389.64
487.85	10186.01
488.03	10501.98
488.21	10698.59
488.39	10537.09
488.57	10787.53
488.75	10876.47
488.92	10853.06
489.10	10944.34
489.28	11108.18
489.46	11131.59
489.64	11246.27
489.81	11339.90
489.99	11304.79
490.17	11501.39
490.35	11419.47
490.53	11580.97
490.70	11939.07
490.88	11815.02
491.06	11981.20
491.24	11845.45
491.41	11913.33
491.59	12051.42
491.77	11969.50
491.95	12292.49
492.13	12327.60
492.30	12334.62
492.48	12365.05
492.66	12489.10
492.84	12479.74
493.01	12692.73
493.19	12723.15
493.37	12931.46
493.54	12901.03
493.72	12833.16
493.90	13029.76
494.08	13109.34
494.25	13142.11
494.43	13284.88
494.61	13432.33
494.79	13570.43
494.96	13420.63
495.14	13373.82
495.32	13547.02
495.49	13446.38
495.67	13949.59
495.85	13968.32
496.02	13949.59
496.20	14059.60
496.38	14200.03
496.55	14265.57
496.73	14342.80
496.91	14260.88
497.09	14448.13
497.26	14415.36
497.44	14665.80
497.62	14590.90
497.79	14775.80
497.97	14689.20
498.14	14679.84
498.32	14927.94
498.50	15119.86
498.67	15033.26
498.85	14909.21
499.03	15281.36
499.20	15143.27
499.38	15229.87
499.56	15318.81
499.73	15323.49
499.91	15403.07
500.08	15693.29
500.26	15384.34
500.44	15653.50
500.61	15747.12
500.79	15646.48
500.97	15929.69
501.14	16088.84
501.32	16152.04
501.49	16184.80
501.67	16063.10
501.84	15857.13
502.02	16058.42
502.20	16049.05
502.37	15936.71
502.55	16409.50
502.72	16269.06
502.90	16517.16
503.07	16233.96
503.25	16489.07
503.43	16386.09
503.60	16517.16
503.78	16596.74
503.95	16631.85
504.13	16723.13
504.30	16858.88
504.48	16559.29
504.65	16931.44
504.83	17057.82
505.01	17074.21
505.18	17118.68
505.36	17291.88
505.53	17151.45
505.71	17062.51
505.88	17132.72
506.06	17179.53
506.23	17638.28
506.41	17170.17
506.58	17488.48
506.76	17713.17
506.93	17680.41
507.11	17507.21
507.28	17706.15
507.46	17671.04
507.63	17830.20
507.81	17919.14
507.98	17666.36
508.16	17951.91
508.33	17909.78
508.50	18150.85
508.68	18237.45
508.85	18312.35
509.03	18295.97
509.20	18513.64
509.38	18422.36
509.55	18586.19
509.73	18064.25
509.90	18588.53
510.08	18623.64
510.25	18979.40
510.42	18532.36
510.60	18611.94
510.77	18831.95
510.95	18930.25
511.12	18527.68
511.30	18881.10
511.47	18897.49
511.64	19201.76
511.82	19325.80
511.99	19028.56
512.17	19023.87
512.34	19496.66
512.51	19218.14
512.69	19435.81
512.86	19499.00
513.04	19707.31
513.21	19477.94
513.38	19950.73
513.56	19726.04
513.73	19775.19
513.90	19674.54
514.08	19314.10
514.25	19971.79
514.43	20095.84
514.60	19992.86
514.77	19749.44
514.95	20198.82
515.12	20060.73
515.29	19805.61
515.47	20018.60
515.64	20334.57
515.81	20247.97
515.99	20280.74
516.16	20526.50
516.33	20226.91
516.51	20606.08
516.68	20128.61
516.85	20346.28
517.03	20556.93
517.20	20783.96
517.37	20627.14
517.54	20800.34
517.72	20929.07
517.89	20802.68
518.06	20847.15
518.24	20669.27
518.41	21020.35
518.58	20945.45
518.75	20964.18
518.93	20987.58
519.10	21111.63
519.27	21270.79
519.45	21132.70
519.62	21331.64
519.79	21333.98
519.96	21261.43
520.14	21371.43
520.31	21516.54
520.48	21755.28
520.65	21336.32
520.83	21425.26
521.00	21701.45
521.17	21298.88
521.34	21455.69
521.52	21474.42
521.69	21788.05
521.86	21757.62
522.03	21937.84
522.20	21975.29
522.38	21968.27
522.55	22508.93
522.72	21862.94
522.89	22015.08
523.07	22267.86
523.24	21998.70
523.41	22363.82
523.58	22373.18
523.75	22469.14
523.92	22410.63
524.10	22581.49
524.27	22621.28
524.44	22698.52
524.61	22799.16
524.78	22869.37
524.96	22878.74
525.13	22361.48
525.30	22668.09
525.47	22740.64
525.64	22693.83
525.81	23073.00
525.98	23040.23
526.16	23304.71
526.33	22693.83
526.50	23157.26
526.67	22998.10
526.84	22963.00
527.01	22998.10
527.18	23145.56
527.36	23318.76
527.53	23665.16
527.70	23426.42
527.87	23407.70
528.04	23424.08
528.21	23365.57
528.38	23459.19
528.55	23571.54
528.72	23665.16
528.89	23782.18
529.07	23812.61
529.24	23508.34
529.41	23658.14
529.58	23564.51
529.75	23679.20
529.92	23470.89
530.09	23613.66
530.26	23983.47
530.43	24018.58
530.60	23735.37
530.77	23845.38
530.94	24109.86
531.11	23988.15
531.28	23803.25
531.46	23756.44
531.63	24243.27
531.80	24407.11
531.97	24407.11
532.14	24444.56
532.31	24240.93
532.48	24610.73
532.65	24629.46
532.82	24102.84
532.99	24049.00
533.16	24367.32
533.33	24594.35
533.50	24641.16
533.67	24720.74
533.84	24353.27
534.01	24638.82
534.18	24470.30
534.35	24788.61
534.52	24615.41
534.69	24844.79
534.86	24982.88
535.03	24676.27
535.20	24709.04
535.37	25071.82
535.54	24858.83
535.71	24680.95
535.88	25195.87
536.05	24826.06
536.22	25305.87
536.38	25181.82
536.55	25301.19
536.72	25401.83
536.89	25149.06
537.06	25013.31
537.23	25333.96
537.40	25144.38
537.57	25369.07
537.74	25448.64
537.91	25795.04
538.08	25383.11
538.25	25387.79
538.42	25408.86
538.59	25476.73
538.75	25399.49
538.92	25397.15
539.09	25460.35
539.26	25701.42
539.43	25525.88
539.60	25762.28
539.77	25844.20
539.94	25944.84
540.11	25853.56
540.28	25715.47
540.44	25568.01
540.61	25888.67
540.78	25872.28
540.95	25745.89
541.12	25963.56
541.29	26637.64
541.46	25839.51
541.62	25556.31
541.79	25963.56
541.96	26017.40
542.13	25820.79
542.30	25839.51
542.47	26518.27
542.63	26127.40
542.80	26218.68
542.97	26529.97
543.14	26607.21
543.31	26408.26
543.48	26253.79
543.64	26927.86
543.81	26434.01
543.98	26857.65
544.15	26705.51
544.32	26869.35
544.48	26813.18
544.65	26508.91
544.82	26675.09
544.99	26738.28
545.16	26595.51
545.32	26944.25
545.49	26993.40
545.66	26993.40
545.83	26906.80
546.00	27641.73
546.16	26855.31
546.33	26974.67
546.50	26679.77
546.67	27063.61
546.83	26686.79
547.00	27026.17
547.17	26965.31
547.34	27367.88
547.50	27452.14
547.67	27234.47
547.84	27150.21
548.00	27239.15
548.17	27543.42
548.34	27634.71
548.51	27459.16
548.67	27314.05
548.84	27536.40
549.01	27267.24
549.18	27548.11
549.34	27658.11
549.51	27281.28
549.68	27557.47
549.84	27384.27
550.01	27276.60
550.18	27592.58
550.34	27578.53
550.51	28086.43
550.68	27924.93
550.84	27395.97
551.01	27580.87
551.18	27880.46
551.34	27545.76
551.51	27578.53
551.68	27843.01
551.84	28058.34
552.01	28268.99
552.18	28254.95
552.34	27913.23
552.51	28290.06
552.68	27814.93
552.84	27934.29
553.01	27859.40
553.18	28290.06
553.34	28402.40
553.51	28147.28
553.67	28400.06
553.84	28531.13
554.01	28498.36
554.17	28514.75
554.34	28002.17
554.51	28114.52
554.67	28276.01
554.84	28414.10
555.00	28374.31
555.17	28601.35
555.33	28322.82
555.50	28170.69
555.67	28292.40
555.83	28652.84
556.00	28081.75
556.16	28992.22
556.33	28472.62
556.50	28481.98
556.66	28505.38
556.83	28465.60
556.99	29017.96
557.16	28753.48
557.32	28903.28
557.49	28910.30
557.65	28489.00
557.82	28648.16
557.98	28858.81
558.15	28402.40
558.32	28765.18
558.48	28814.34
558.65	29212.23
558.81	28552.20
558.98	28847.10
559.14	29060.09
559.31	28959.45
559.47	28545.17
559.64	28542.83
559.80	29057.75
559.97	28854.12
560.13	28599.01
560.30	28926.68
560.46	28945.41
560.63	28634.11
560.79	29060.09
560.96	28999.24
561.12	29043.71
561.29	28797.95
561.45	28753.48
561.61	29207.55
561.78	28903.28
561.94	29439.26
562.11	29317.55
562.27	28762.84
562.44	29001.58
562.60	29120.95
562.77	28957.11
562.93	29034.35
563.10	29853.53
563.26	28947.75
563.42	29687.36
563.59	29390.11
563.75	29455.64
563.92	29769.27
564.08	29397.13
564.24	28989.88
564.41	29191.16
564.57	29163.08
564.74	29209.89
564.90	29582.03
565.07	29563.31
565.23	29193.50
565.39	29649.91
565.56	29743.53
565.72	29163.08
565.88	29291.80
566.05	29560.97
566.21	29200.52
566.38	29387.77
566.54	29205.20
566.70	29575.01
566.87	30108.65
567.03	29834.81
567.19	29303.51
567.36	29392.45
567.52	29355.00
567.68	29600.76
567.85	29656.93
568.01	29652.25
568.17	29598.41
568.34	29769.27
568.50	29670.97
568.66	29645.23
568.83	30218.66
568.99	29282.44
569.15	29551.60
569.32	29509.47
569.48	29315.21
569.64	29834.81
569.81	29502.45
569.97	29715.44
570.13	30113.33
570.30	29560.97
570.46	30433.99
570.62	29654.59
570.78	29392.45
570.95	29563.31
571.11	30036.09
571.27	29151.37
571.43	29191.16
571.60	29635.86
571.76	29633.52
571.92	29734.17
572.09	29858.21
572.25	29820.77
572.41	29839.49
572.57	29930.77
572.74	29598.41
572.90	29553.94
573.06	29944.81
573.22	29947.15
573.38	30040.78
573.55	29673.31
573.71	30206.95
573.87	29933.11
574.03	30183.55
574.20	30026.73
574.36	29624.16
574.52	30169.51
574.68	29853.53
574.84	29717.78
575.01	29919.07
575.17	30237.38
575.33	30223.34
575.49	29979.92
575.65	30099.29
575.82	30099.29
575.98	30094.61
576.14	30120.35
576.30	29635.86
576.46	29603.10
576.62	29778.64
576.79	29701.40
576.95	29930.77
577.11	30085.25
577.27	30061.84
577.43	30190.57
577.59	30167.16
577.75	29919.07
577.92	29914.39
578.08	29724.80
578.24	29851.19
578.40	29832.47
578.56	30033.75
578.72	29947.15
578.88	30249.08
579.04	30185.89
579.21	30225.68
579.37	30279.51
579.53	30206.95
579.69	29876.94
579.85	30122.69
580.01	29755.23
580.17	29956.52
580.33	29919.07
580.49	29879.28
580.65	30038.44
580.82	30424.62
580.98	30199.93
581.14	30277.17
581.30	30300.58
581.46	30129.72
581.62	29788.00
581.78	30096.95
581.94	30490.16
582.10	30129.72
582.26	30122.69
582.42	29965.88
582.58	30436.33
582.74	30370.79
582.90	30309.94
583.06	30487.82
583.22	30396.54
583.38	30019.71
583.54	30153.12
583.70	30096.95
583.86	30267.81
584.02	29895.66
584.18	30408.24
584.34	30511.22
584.50	30366.11
584.66	30321.64
584.82	30291.21
584.98	30398.88
585.14	30558.03
585.30	30286.53
585.46	30073.54
585.62	30089.93
585.78	29975.24
585.94	29898.00
586.10	30132.06
586.26	30211.64
586.42	30466.75
586.58	30415.26
586.74	30059.50
586.90	30230.36
587.06	30340.36
587.22	30331.00
587.38	29806.72
587.54	30579.10
587.70	30403.56
587.86	30457.39
588.02	30520.59
588.18	30548.67
588.34	30630.59
588.49	29876.94
588.65	30150.78
588.81	30190.57
588.97	30518.25
589.13	29825.45
589.29	29949.50
589.45	30403.56
589.61	30515.90
589.77	30658.68
589.93	30768.68
590.08	30686.76
590.24	30857.62
590.40	30480.80
590.56	30663.36
590.72	30415.26
590.88	30405.90
591.04	30527.61
591.20	30513.56
591.35	30813.15
591.51	30579.10
591.67	30600.16
591.83	31309.35
591.99	30787.41
