SpectraSuite Data File
++++++++++++++++++++++++++++++++++++
Date: Fri Oct 18 13:58:10 GMT-05:00 2013
User: bianchi
Dark Spectrum Present: No
Reference Spectrum Present: No
Number of Sampled Component Spectra: 1
Spectrometers: USB2+H05261
Integration Time (usec): 50000 (USB2+H05261)
Spectra Averaged: 1 (USB2+H05261)
Boxcar Smoothing: 0 (USB2+H05261)
Correct for Electrical Dark: No (USB2+H05261)
Strobe/Lamp Enabled: No (USB2+H05261)
Correct for Detector Non-linearity: No (USB2+H05261)
Correct for Stray Light: No (USB2+H05261)
Number of Pixels in Processed Spectrum: 2048
>>>>>Begin Processed Spectral Data<<<<<
365.73	0.00
365.92	0.00
366.12	0.00
366.32	0.00
366.52	0.00
366.72	0.00
366.91	0.00
367.11	0.00
367.31	0.00
367.51	0.00
367.70	0.00
367.90	0.00
368.10	0.00
368.30	0.00
368.49	0.00
368.69	0.00
368.89	0.00
369.09	0.00
369.28	0.00
369.48	0.00
369.68	0.00
369.87	0.00
370.07	0.00
370.27	0.00
370.47	0.00
370.66	35.11
370.86	95.96
371.06	86.60
371.25	124.05
371.45	161.50
371.65	138.09
371.84	145.11
372.04	140.43
372.24	191.92
372.44	189.58
372.63	224.69
372.83	234.05
373.03	201.29
373.22	182.56
373.42	217.67
373.62	168.52
373.81	168.52
374.01	257.46
374.21	259.80
374.40	220.01
374.60	285.55
374.79	198.95
374.99	182.56
375.19	266.82
375.38	297.25
375.58	285.55
375.78	348.74
375.97	191.92
376.17	266.82
376.37	262.14
376.56	264.48
376.76	220.01
376.95	191.92
377.15	222.35
377.35	259.80
377.54	327.68
377.74	262.14
377.93	238.73
378.13	276.18
378.33	266.82
378.52	201.29
378.72	273.84
378.91	374.49
379.11	243.42
379.31	276.18
379.50	205.97
379.70	243.42
379.89	276.18
380.09	245.76
380.28	348.74
380.48	358.10
380.68	276.18
380.87	374.49
381.07	348.74
381.26	337.04
381.46	376.83
381.65	416.62
381.85	320.65
382.04	241.08
382.24	320.65
382.43	320.65
382.63	374.49
382.83	402.57
383.02	355.76
383.22	383.85
383.41	290.23
383.61	327.68
383.80	393.21
384.00	395.55
384.19	369.80
384.39	339.38
384.58	381.51
384.78	290.23
384.97	360.44
385.17	421.30
385.36	353.42
385.56	383.85
385.75	362.78
385.95	297.25
386.14	346.40
386.34	402.57
386.53	393.21
386.72	351.08
386.92	458.74
387.11	383.85
387.31	393.21
387.50	386.19
387.70	353.42
387.89	470.45
388.09	454.06
388.28	465.77
388.48	447.04
388.67	503.22
388.86	451.72
389.06	500.87
389.25	440.02
389.45	374.49
389.64	486.83
389.84	388.53
390.03	444.70
390.22	528.96
390.42	512.58
390.61	440.02
390.81	463.43
391.00	615.56
391.19	554.71
391.39	498.53
391.58	564.07
391.78	566.41
391.97	531.30
392.16	564.07
392.36	578.11
392.55	613.22
392.75	477.47
392.94	500.87
393.13	561.73
393.33	578.11
393.52	636.63
393.71	566.41
393.91	519.60
394.10	580.45
394.29	643.65
394.49	622.58
394.68	543.00
394.88	638.97
395.07	575.77
395.26	601.52
395.46	631.94
395.65	594.50
395.84	751.31
396.04	650.67
396.23	606.20
396.42	617.90
396.62	601.52
396.81	641.31
397.00	697.48
397.19	674.07
397.39	711.52
397.58	650.67
397.77	688.12
397.97	692.80
398.16	641.31
398.35	648.33
398.55	730.25
398.74	676.41
398.93	793.44
399.12	767.70
399.32	763.01
399.51	760.67
399.70	819.19
399.90	690.46
400.09	744.29
400.28	830.89
400.47	772.38
400.67	725.57
400.86	751.31
401.05	777.06
401.24	739.61
401.44	751.31
401.63	889.40
401.82	741.95
402.01	748.97
402.21	800.46
402.40	828.55
402.59	821.53
402.78	833.23
402.97	835.57
403.17	828.55
403.36	784.08
403.55	894.08
403.74	971.32
403.93	933.87
404.13	954.94
404.32	840.25
404.51	994.73
404.70	1043.88
404.89	915.15
405.09	985.37
405.28	964.30
405.47	940.90
405.66	1032.18
405.85	1015.79
406.05	931.53
406.24	1029.84
406.43	954.94
406.62	880.04
406.81	1055.58
407.00	1036.86
407.20	1020.47
407.39	1050.90
407.58	1128.14
407.77	1034.52
407.96	1083.67
408.15	1170.27
408.34	1076.65
408.54	1064.94
408.73	1174.95
408.92	1050.90
409.11	1125.80
409.30	1118.78
409.49	1102.39
409.68	1153.88
409.87	1093.03
410.07	1132.82
410.26	1149.20
410.45	1170.27
410.64	1200.69
410.83	1256.87
411.02	1240.48
411.21	1343.47
411.40	1366.87
411.59	1284.95
411.78	1322.40
411.98	1387.94
412.17	1284.95
412.36	1301.34
412.55	1254.53
412.74	1380.92
412.93	1315.38
413.12	1385.60
413.31	1373.89
413.50	1294.32
413.69	1418.36
413.88	1474.54
414.07	1423.05
414.26	1476.88
414.45	1420.71
414.64	1411.34
414.83	1451.13
415.02	1528.37
415.22	1462.83
415.41	1598.59
415.60	1511.99
415.79	1650.08
415.98	1614.97
416.17	1565.82
416.36	1692.21
416.55	1701.57
416.74	1621.99
416.93	1600.93
417.12	1570.50
417.31	1748.38
417.50	1743.70
417.69	1687.53
417.88	1746.04
418.07	1668.80
418.26	1724.97
418.45	1781.15
418.64	1856.04
418.83	1762.42
419.02	1870.09
419.21	1774.13
419.39	1909.88
419.58	1813.92
419.77	1732.00
419.96	1856.04
420.15	1834.98
420.34	1886.47
420.53	1912.22
420.72	1966.05
420.91	1905.20
421.10	2017.54
421.29	1923.92
421.48	1907.54
421.67	2059.67
421.86	1977.75
422.05	1928.60
422.24	1944.99
422.43	2022.22
422.61	2024.56
422.80	2047.97
422.99	2071.37
423.18	1952.01
423.37	2059.67
423.56	2099.46
423.75	2148.61
423.94	1975.41
424.13	1926.26
424.32	1823.28
424.50	2125.21
424.69	2040.95
424.88	1998.82
425.07	1987.11
425.26	1949.67
425.45	2038.61
425.64	2136.91
425.83	2162.66
426.01	2083.08
426.20	1968.39
426.39	2111.16
426.58	2080.74
426.77	2181.38
426.96	2104.14
427.15	2050.31
427.33	2179.04
427.52	2197.76
427.71	2160.31
427.90	2111.16
428.09	2167.34
428.28	2232.87
428.46	2300.75
428.65	2221.17
428.84	2363.94
429.03	2363.94
429.22	2256.28
429.40	2258.62
429.59	2204.78
429.78	2162.66
429.97	2190.74
430.16	2235.21
430.34	2258.62
430.53	2223.51
430.72	2396.71
430.91	2155.63
431.10	2345.22
431.28	2305.43
431.47	2476.29
431.66	2366.28
431.85	2420.11
432.03	2429.48
432.22	2457.56
432.41	2464.58
432.60	2562.89
432.79	2424.80
432.97	2579.27
433.16	2544.16
433.35	2546.50
433.54	2441.18
433.72	2551.18
433.91	2527.78
434.10	2544.16
434.28	2562.89
434.47	2600.34
434.66	2569.91
434.85	2506.71
435.03	2497.35
435.22	2630.76
435.41	2640.12
435.59	2651.83
435.78	2684.59
435.97	2605.02
436.16	2654.17
436.34	2644.81
436.53	2703.32
436.72	2719.70
436.90	2684.59
437.09	2675.23
437.28	2761.83
437.46	2757.15
437.65	2705.66
437.84	2731.41
438.02	2738.43
438.21	2768.85
438.40	2740.77
438.58	3021.63
438.77	3021.63
438.96	2970.14
439.14	2963.12
439.33	3098.87
439.52	3007.59
439.70	2956.10
439.89	3169.09
440.08	3164.40
440.26	3075.46
440.45	3105.89
440.63	3141.00
440.82	3267.39
441.01	3169.09
441.19	3176.11
441.38	3204.19
441.57	3150.36
441.75	3206.53
441.94	3452.29
442.12	3276.75
442.31	3339.94
442.50	3433.57
442.68	3358.67
442.87	3330.58
443.05	3375.05
443.24	3550.59
443.43	3421.86
443.61	3428.88
443.80	3473.36
443.98	3351.65
444.17	3363.35
444.35	3449.95
444.54	3499.10
444.73	3480.38
444.91	3471.01
445.10	3442.93
445.28	3489.74
445.47	3433.57
445.65	3520.17
445.84	3417.18
446.02	3604.42
446.21	3503.78
446.39	3478.04
446.58	3543.57
446.77	3489.74
446.95	3508.46
447.14	3581.02
447.32	3550.59
447.51	3515.48
447.69	3676.98
447.88	3627.83
448.06	3424.20
448.25	3585.70
448.43	3592.72
448.62	3506.12
448.80	3492.08
448.99	3623.15
449.17	3684.00
449.36	3681.66
449.54	3763.58
449.73	3707.41
449.91	3695.71
450.10	3740.18
450.28	3775.28
450.46	3880.61
450.65	3815.07
450.83	3763.58
451.02	3786.99
451.20	3911.04
451.39	3927.42
451.57	3733.15
451.76	3791.67
451.94	3969.55
452.13	3995.29
452.31	3918.06
452.49	3852.52
452.68	3974.23
452.86	3843.16
453.05	3925.08
453.23	4044.45
453.42	3901.67
453.60	3896.99
453.78	3978.91
453.97	3887.63
454.15	3899.33
454.34	4004.66
454.52	4025.72
454.70	4067.85
454.89	4159.13
455.07	4032.74
455.26	4086.58
455.44	4264.46
455.62	4231.69
455.81	4112.32
455.99	4362.76
456.17	4173.18
456.36	4198.92
456.54	4215.30
456.73	4259.78
456.91	4351.06
457.09	4243.39
457.28	4337.01
457.46	4337.01
457.64	4374.46
457.83	4395.53
458.01	4320.63
458.19	4550.00
458.38	4376.80
458.56	4617.88
458.74	4500.85
458.93	4393.19
459.11	4475.10
459.29	4601.49
459.48	4575.75
459.66	4566.39
459.84	4561.70
460.03	4741.93
460.21	4589.79
460.39	4535.96
460.57	4704.48
460.76	4662.35
460.94	4676.39
461.12	4816.82
461.31	4758.31
461.49	4683.41
461.67	4655.33
461.85	4805.12
462.04	4858.95
462.22	5135.14
462.40	4786.40
462.59	4819.16
462.77	4938.53
462.95	4868.31
463.13	4950.23
463.32	4959.60
463.50	4816.82
463.68	4943.21
463.86	4880.02
464.05	4814.48
464.23	5043.85
464.41	4950.23
464.59	4835.55
464.78	5076.62
464.96	4901.08
465.14	4884.70
465.32	5043.85
465.50	5074.28
465.69	5107.05
465.87	5067.26
466.05	5128.11
466.23	5142.16
466.41	5217.05
466.60	5167.90
466.78	5102.37
466.96	5240.46
467.14	5153.86
467.32	5331.74
467.51	5144.50
467.69	5001.72
467.87	5249.82
468.05	5151.52
468.23	5266.21
468.41	5093.01
468.60	5411.32
468.78	5404.30
468.96	5399.62
469.14	5310.68
469.32	5242.80
469.50	5132.79
469.69	5348.12
469.87	5526.00
470.05	5448.77
470.23	5495.58
470.41	5530.69
470.59	5430.04
470.77	5308.34
470.95	5781.12
471.14	5673.46
471.32	5558.77
471.50	5788.14
471.68	5675.80
471.86	5631.33
472.04	5760.06
472.22	5809.21
472.40	5884.11
472.58	5720.27
472.77	5795.17
472.95	5937.94
473.13	6106.46
473.31	5851.34
473.49	5884.11
473.67	6076.03
473.85	5902.83
474.03	5968.37
474.21	6087.73
474.39	6111.14
474.57	6085.39
474.75	6317.11
474.93	6413.07
475.12	6272.64
475.30	6258.59
475.48	6326.47
475.66	6207.10
475.84	6413.07
476.02	6590.95
476.20	6340.51
476.38	6654.14
476.56	6595.63
476.74	6691.59
476.92	6614.35
477.10	6569.88
477.28	6778.19
477.46	6654.14
477.64	6832.02
477.82	6944.37
478.00	7080.12
478.18	7075.44
478.36	7066.08
478.54	7148.00
478.72	7255.66
478.90	7199.49
479.08	7325.88
479.26	7403.11
479.44	7456.95
479.62	7431.20
479.80	7569.29
479.98	7581.00
480.16	7679.30
480.34	7506.10
480.52	7712.07
480.70	7857.18
480.88	7683.98
481.06	7786.96
481.24	7700.36
481.41	7894.63
481.59	8072.51
481.77	8184.85
481.95	8133.36
482.13	8397.84
482.31	8250.39
482.49	8554.66
482.67	8435.29
482.85	8540.61
483.03	8578.06
483.21	8580.40
483.39	8723.18
483.57	8554.66
483.74	8870.63
483.92	8931.48
484.10	8898.72
484.28	9212.35
484.46	9315.33
484.64	9455.76
484.82	8975.95
485.00	9130.43
485.18	9518.96
485.35	9603.22
485.53	9624.28
485.71	9458.10
485.89	9982.38
486.07	9863.02
486.25	9654.71
486.43	9785.78
486.61	9944.94
486.78	10181.33
486.96	10310.06
487.14	10265.59
487.32	10235.16
487.50	10494.96
487.68	10532.41
487.85	10415.38
488.03	10672.84
488.21	10621.35
488.39	10890.51
488.57	10916.26
488.75	10815.62
488.92	11056.69
489.10	11204.14
489.28	11318.83
489.46	11346.92
489.64	11447.56
489.81	11496.71
489.99	11531.82
490.17	11494.37
490.35	11932.05
490.53	11613.74
490.70	11859.49
490.88	11850.13
491.06	12049.08
491.24	11889.92
491.41	11950.78
491.59	12042.06
491.77	12318.24
491.95	12327.60
492.13	12521.87
492.30	12732.51
492.48	12479.74
492.66	12622.51
492.84	12741.88
493.01	12812.09
493.19	12954.87
493.37	13027.42
493.54	13228.71
493.72	13242.75
493.90	12982.95
494.08	13043.81
494.25	13263.82
494.43	13380.84
494.61	13525.96
494.79	13521.27
494.96	13661.71
495.14	13930.87
495.32	13687.45
495.49	14029.17
495.67	14047.90
495.85	14019.81
496.02	13867.67
496.20	14019.81
496.38	14075.98
496.55	14305.35
496.73	14487.92
496.91	14546.43
497.09	14574.52
497.26	14813.25
497.44	14731.33
497.62	14923.26
497.79	14824.95
497.97	14726.65
498.14	15220.50
498.32	15260.29
498.50	15183.06
498.67	15218.16
498.85	15157.31
499.03	15426.47
499.20	15363.28
499.38	15599.67
499.56	15669.89
499.73	15566.90
499.91	15704.99
500.08	15695.63
500.26	15819.68
500.44	15700.31
500.61	15934.37
500.79	15800.96
500.97	16205.87
501.14	16334.60
501.32	16009.26
501.49	16208.21
501.67	16233.96
501.84	16198.85
502.02	16210.55
502.20	16334.60
502.37	16315.87
502.55	16294.81
502.72	16563.97
502.90	16713.77
503.07	16622.48
503.25	16587.38
503.43	16542.91
503.60	16725.47
503.78	16945.48
503.95	16901.01
504.13	16966.54
504.30	16905.69
504.48	17076.55
504.65	16973.56
504.83	17458.06
505.01	17554.02
505.18	17060.16
505.36	17565.72
505.53	17523.59
505.71	17305.92
505.88	17584.44
506.06	17385.50
506.23	17783.39
506.41	17582.10
506.58	17689.77
506.76	17832.54
506.93	17940.21
507.11	17715.51
507.28	18153.20
507.46	17722.54
507.63	18305.33
507.81	18274.90
507.98	18246.82
508.16	18080.64
508.33	18120.43
508.50	18214.05
508.68	18288.95
508.85	18459.81
509.03	18455.12
509.20	18391.93
509.38	18382.57
509.55	18850.67
509.73	18534.70
509.90	18899.83
510.08	18710.24
510.25	18607.26
510.42	18817.91
510.60	18965.36
510.77	19037.92
510.95	19307.08
511.12	18724.29
511.30	18956.00
511.47	18956.00
511.64	19286.01
511.82	19283.67
511.99	19424.11
512.17	19356.23
512.34	19613.69
512.51	19405.38
512.69	19648.80
512.86	19440.49
513.04	19690.93
513.21	19969.45
513.38	19885.19
513.56	19878.17
513.73	19728.38
513.90	19669.86
514.08	20318.19
514.25	20486.71
514.43	20240.95
514.60	20730.12
514.77	20477.35
514.95	20374.36
515.12	20311.17
515.29	20219.89
515.47	20531.18
515.64	20444.58
515.81	20538.20
515.99	20683.31
516.16	20828.43
516.33	20622.46
516.51	20959.50
516.68	20783.96
516.85	20697.36
517.03	20692.68
517.20	21060.14
517.37	20762.89
517.54	21212.28
517.72	20999.29
517.89	20952.48
518.06	21584.42
518.24	21144.40
518.41	20938.43
518.58	21366.75
518.75	21310.58
518.93	21341.00
519.10	21383.13
519.27	21385.47
519.45	21310.58
519.62	21369.09
519.79	21579.74
519.96	21371.43
520.14	21596.12
520.31	21715.49
520.48	21717.83
520.65	21507.18
520.83	21921.46
521.00	22073.59
521.17	21965.93
521.34	22321.69
521.52	21921.46
521.69	22024.44
521.86	22061.89
522.03	22239.77
522.20	22415.31
522.38	22335.73
522.55	22092.32
522.72	22225.73
522.89	22445.74
523.07	22782.77
523.24	22506.59
523.41	22855.33
523.58	21998.70
523.75	22712.56
523.92	22878.74
524.10	22614.26
524.27	22471.48
524.44	22979.38
524.61	23122.15
524.78	23164.28
524.96	23058.96
525.13	22869.37
525.30	23267.27
525.47	23220.45
525.64	23147.90
525.81	23229.82
525.98	23276.63
526.16	23470.89
526.33	23541.11
526.50	23503.66
526.67	23012.15
526.84	23594.94
527.01	23473.23
527.18	23714.31
527.36	23374.93
527.53	23690.90
527.70	23997.51
527.87	23807.93
528.04	23718.99
528.21	23508.34
528.38	23538.77
528.55	23662.82
528.72	23723.67
528.89	24191.78
529.07	24175.39
529.24	23962.40
529.41	24180.07
529.58	23922.62
529.75	23892.19
529.92	24168.37
530.09	24219.86
530.26	24006.87
530.43	24278.38
530.60	23836.02
530.77	24119.22
530.94	24861.17
531.11	24393.06
531.28	24175.39
531.46	24671.59
531.63	24528.81
531.80	24870.53
531.97	24641.16
532.14	24900.96
532.31	24526.47
532.48	24692.65
532.65	24744.14
532.82	24627.12
532.99	24575.62
533.16	24781.59
533.33	24741.80
533.50	25312.89
533.67	25013.31
533.84	24795.64
534.01	24882.24
534.18	24704.35
534.35	25352.68
534.52	24917.34
534.69	25238.00
534.86	25465.03
535.03	24882.24
535.20	25130.33
535.37	25186.50
535.54	25312.89
535.71	25118.63
535.88	25460.35
536.05	25081.18
536.22	25961.22
536.38	25324.60
536.55	25771.64
536.72	25565.67
536.89	25404.17
537.06	25696.74
537.23	25572.69
537.40	25876.96
537.57	25626.53
537.74	25348.00
537.91	25696.74
538.08	26024.42
538.25	25825.47
538.42	25795.04
538.59	26019.74
538.75	25607.80
538.92	25921.43
539.09	25958.88
539.26	25832.49
539.43	25975.27
539.60	26092.29
539.77	26029.10
539.94	26129.74
540.11	26307.62
540.28	26338.05
540.44	25970.58
540.61	26153.15
540.78	26455.08
540.95	26443.37
541.12	26260.81
541.29	26340.39
541.46	26609.55
541.62	26602.53
541.79	26111.02
541.96	26176.55
542.13	26129.74
542.30	26593.17
542.47	26778.07
542.63	26710.19
542.80	26600.19
542.97	26742.96
543.14	26909.14
543.31	27021.48
543.48	26941.91
543.64	26892.76
543.81	27094.04
543.98	27222.77
544.15	27065.96
544.32	27000.42
544.48	27400.65
544.65	27103.40
544.82	27225.11
544.99	26948.93
545.16	27192.34
545.32	27154.90
545.49	27587.89
545.66	27601.94
545.83	27417.04
546.00	27515.34
546.16	27639.39
546.33	27508.32
546.50	27161.92
546.67	27683.86
546.83	26623.59
547.00	27292.99
547.17	27543.42
547.34	27316.39
547.50	28037.28
547.67	27683.86
547.84	27557.47
548.00	27906.21
548.17	27831.31
548.34	27442.78
548.51	27854.72
548.67	27857.06
548.84	27672.15
549.01	27749.39
549.18	27690.88
549.34	28009.19
549.51	27943.66
549.68	28425.81
549.84	28027.92
550.01	27758.75
550.18	27826.63
550.34	28201.11
550.51	28041.96
550.68	28573.26
550.84	27917.91
551.01	28474.96
551.18	28123.88
551.34	28067.70
551.51	28254.95
551.68	28409.42
551.84	28304.10
552.01	28168.35
552.18	28545.17
552.34	28664.54
552.51	28554.54
552.68	28491.34
552.84	28657.52
553.01	28449.21
553.18	28416.44
553.34	28783.91
553.51	28882.21
553.67	28809.65
553.84	28774.55
554.01	28929.02
554.17	28685.61
554.34	28542.83
554.51	28170.69
554.67	28811.99
554.84	28720.71
555.00	28339.21
555.17	28629.43
555.33	29167.76
555.50	28706.67
555.67	28877.53
555.83	28861.15
556.00	29076.48
556.16	29024.98
556.33	28989.88
556.50	28746.46
556.66	29046.05
556.83	29139.67
556.99	28896.25
557.16	29490.75
557.32	29179.46
557.49	28964.13
557.65	29024.98
557.82	28957.11
557.98	29088.18
558.15	29022.64
558.32	29450.96
558.48	29359.68
558.65	29518.84
558.81	29343.30
558.98	29420.53
559.14	29467.34
559.31	29228.61
559.47	28919.66
559.64	29174.78
559.80	29663.95
559.97	29474.37
560.13	29378.40
560.30	29315.21
560.46	29645.23
560.63	29310.53
560.79	29689.70
560.96	29785.66
561.12	29434.58
561.29	29617.14
561.45	29493.09
561.61	29036.69
561.78	29879.28
561.94	29256.70
562.11	29584.37
562.27	29553.94
562.44	29439.26
562.60	29858.21
562.77	29024.98
562.93	29310.53
563.10	29589.05
563.26	29216.91
563.42	29785.66
563.59	29710.76
563.75	29626.50
563.92	29593.73
564.08	29509.47
564.24	29694.38
564.41	29556.28
564.57	29083.50
564.74	29809.06
564.90	30272.49
565.07	29577.35
565.23	30054.82
565.39	29963.54
565.56	30110.99
565.72	29575.01
565.88	29823.11
566.05	29935.45
566.21	29905.02
566.38	29420.53
566.54	29453.30
566.70	30305.26
566.87	29991.62
567.03	29804.38
567.19	30335.68
567.36	30155.46
567.52	30127.38
567.68	30274.83
567.85	29626.50
568.01	30197.59
568.17	30087.59
568.34	30012.69
568.50	30263.13
568.66	30284.19
568.83	30272.49
568.99	29937.79
569.15	30064.18
569.32	30342.70
569.48	29846.51
569.64	30335.68
569.81	30412.92
569.97	30225.68
570.13	30677.40
570.30	30101.63
570.46	30480.80
570.62	30239.72
570.78	30125.04
570.95	30080.56
571.11	30611.87
571.27	29958.86
571.43	29951.84
571.60	30146.10
571.76	30045.46
571.92	30520.59
572.09	30441.01
572.25	30679.74
572.41	30281.85
572.57	30258.45
572.74	30398.88
572.90	30150.78
573.06	30005.67
573.22	29991.62
573.38	30476.12
573.55	30415.26
573.71	30541.65
573.87	30740.60
574.03	30108.65
574.20	30520.59
574.36	30464.41
574.52	30101.63
574.68	30487.82
574.84	30621.23
575.01	30384.83
575.17	30366.11
575.33	30328.66
575.49	30113.33
575.65	30232.70
575.82	30969.97
575.98	30478.46
576.14	30768.68
576.30	30536.97
576.46	30146.10
576.62	30710.17
576.79	30632.93
576.95	30338.02
577.11	30426.96
577.27	30476.12
577.43	30740.60
577.59	30691.44
577.75	30646.97
577.92	30499.52
578.08	30169.51
578.24	30412.92
578.40	30431.65
578.56	30272.49
578.72	30756.98
578.88	30675.06
579.04	30663.36
579.21	30595.48
579.37	30742.94
579.53	30623.57
579.69	30342.70
579.85	30630.59
580.01	30094.61
580.17	30618.89
580.33	30668.04
580.49	30408.24
580.65	30845.92
580.82	30719.53
580.98	30649.32
581.14	30609.53
581.30	30881.03
581.46	30742.94
581.62	30745.28
581.78	30628.25
581.94	30375.47
582.10	30539.31
582.26	30857.62
582.42	30349.73
582.58	30885.71
582.74	30876.35
582.90	30932.52
583.06	30967.63
583.22	30665.70
583.38	30686.76
583.54	30504.20
583.70	30455.05
583.86	30536.97
584.02	30712.51
584.18	30796.77
584.34	31197.00
584.50	30815.49
584.66	30532.29
584.82	30595.48
584.98	30401.22
585.14	30792.09
585.30	30323.98
585.46	30251.42
585.62	30616.55
585.78	31124.44
585.94	30441.01
586.10	30822.51
586.26	30909.11
586.42	30602.50
586.58	31005.08
586.74	30759.32
586.90	30415.26
587.06	29947.15
587.22	30773.36
587.38	30735.92
587.54	30824.86
587.70	31101.04
587.86	30848.26
588.02	30759.32
588.18	31119.76
588.34	30803.79
588.49	31042.53
588.65	30881.03
588.81	30883.37
588.97	30934.86
589.13	30639.95
589.29	30609.53
589.45	30951.24
589.61	30998.06
589.77	31054.23
589.93	30827.20
590.08	31285.94
590.24	31517.65
590.40	30817.83
590.56	31019.12
590.72	31077.63
590.88	30897.41
591.04	30810.81
591.20	31030.82
591.35	31360.84
591.51	31063.59
591.67	31304.67
591.83	31522.34
591.99	31049.55
