SpectraSuite Data File
++++++++++++++++++++++++++++++++++++
Date: Fri Oct 18 13:58:25 GMT-05:00 2013
User: bianchi
Dark Spectrum Present: No
Reference Spectrum Present: No
Number of Sampled Component Spectra: 1
Spectrometers: USB2+H05261
Integration Time (usec): 50000 (USB2+H05261)
Spectra Averaged: 1 (USB2+H05261)
Boxcar Smoothing: 0 (USB2+H05261)
Correct for Electrical Dark: No (USB2+H05261)
Strobe/Lamp Enabled: No (USB2+H05261)
Correct for Detector Non-linearity: No (USB2+H05261)
Correct for Stray Light: No (USB2+H05261)
Number of Pixels in Processed Spectrum: 2048
>>>>>Begin Processed Spectral Data<<<<<
365.73	0.00
365.92	0.00
366.12	0.00
366.32	0.00
366.52	0.00
366.72	0.00
366.91	0.00
367.11	0.00
367.31	0.00
367.51	0.00
367.70	0.00
367.90	0.00
368.10	0.00
368.30	0.00
368.49	0.00
368.69	0.00
368.89	0.00
369.09	0.00
369.28	0.00
369.48	0.00
369.68	0.00
369.87	0.00
370.07	0.00
370.27	0.00
370.47	0.00
370.66	37.45
370.86	105.32
371.06	149.79
371.25	142.77
371.45	163.84
371.65	133.41
371.84	177.88
372.04	229.37
372.24	210.65
372.44	212.99
372.63	161.50
372.83	222.35
373.03	140.43
373.22	156.82
373.42	168.52
373.62	198.95
373.81	231.71
374.01	166.18
374.21	205.97
374.40	271.50
374.60	220.01
374.79	264.48
374.99	311.29
375.19	222.35
375.38	220.01
375.58	290.23
375.78	337.04
375.97	269.16
376.17	222.35
376.37	189.58
376.56	280.86
376.76	245.76
376.95	266.82
377.15	325.33
377.35	220.01
377.54	245.76
377.74	292.57
377.93	264.48
378.13	278.52
378.33	287.89
378.52	292.57
378.72	283.20
378.91	327.68
379.11	203.63
379.31	215.33
379.50	322.99
379.70	315.97
379.89	327.68
380.09	369.80
380.28	304.27
380.48	257.46
380.68	337.04
380.87	259.80
381.07	355.76
381.26	351.08
381.46	393.21
381.65	301.93
381.85	320.65
382.04	440.02
382.24	358.10
382.43	341.72
382.63	341.72
382.83	353.42
383.02	381.51
383.22	362.78
383.41	322.99
383.61	320.65
383.80	304.27
384.00	301.93
384.19	390.87
384.39	386.19
384.58	337.04
384.78	362.78
384.97	407.25
385.17	414.27
385.36	367.46
385.56	379.17
385.75	461.09
385.95	393.21
386.14	411.93
386.34	353.42
386.53	454.06
386.72	344.06
386.92	423.64
387.11	461.09
387.31	435.34
387.50	369.80
387.70	458.74
387.89	390.87
388.09	402.57
388.28	416.62
388.48	475.13
388.67	486.83
388.86	428.32
389.06	449.38
389.25	428.32
389.45	519.60
389.64	465.77
389.84	402.57
390.03	489.17
390.22	500.87
390.42	484.49
390.61	449.38
390.81	458.74
391.00	507.90
391.19	472.79
391.39	416.62
391.58	451.72
391.78	435.34
391.97	538.32
392.16	484.49
392.36	554.71
392.55	543.00
392.75	559.39
392.94	550.03
393.13	662.37
393.33	524.28
393.52	503.22
393.71	615.56
393.91	547.69
394.10	582.79
394.29	521.94
394.49	535.98
394.68	571.09
394.88	627.26
395.07	596.84
395.26	599.18
395.46	643.65
395.65	601.52
395.84	657.69
396.04	634.29
396.23	697.48
396.42	524.28
396.62	648.33
396.81	592.16
397.00	711.52
397.19	566.41
397.39	624.92
397.58	671.73
397.77	681.10
397.97	636.63
398.16	662.37
398.35	732.59
398.55	617.90
398.74	699.82
398.93	711.52
399.12	774.72
399.32	678.76
399.51	681.10
399.70	847.27
399.90	704.50
400.09	706.84
400.28	716.20
400.47	765.36
400.67	744.29
400.86	821.53
401.05	795.78
401.24	809.83
401.44	828.55
401.63	807.48
401.82	842.59
402.01	821.53
402.21	755.99
402.40	819.19
402.59	784.08
402.78	760.67
402.97	858.98
403.17	887.06
403.36	814.51
403.55	856.64
403.74	880.04
403.93	873.02
404.13	917.49
404.32	968.98
404.51	929.19
404.70	917.49
404.89	903.45
405.09	992.39
405.28	971.32
405.47	884.72
405.66	987.71
405.85	971.32
406.05	952.60
406.24	1043.88
406.43	936.21
406.62	1039.20
406.81	980.68
407.00	990.05
407.20	1006.43
407.39	1107.07
407.58	1095.37
407.77	1053.24
407.96	1041.54
408.15	994.73
408.34	990.05
408.54	938.55
408.73	954.94
408.92	1029.84
409.11	1107.07
409.30	1121.12
409.49	1144.52
409.68	1188.99
409.87	1191.33
410.07	1172.61
410.26	1184.31
410.45	1210.06
410.64	1233.46
410.83	1163.25
411.02	1231.12
411.21	1310.70
411.40	1193.67
411.59	1259.21
411.78	1327.08
411.98	1191.33
412.17	1301.34
412.36	1254.53
412.55	1320.06
412.74	1315.38
412.93	1369.21
413.12	1249.85
413.31	1418.36
413.50	1380.92
413.69	1355.17
413.88	1392.62
414.07	1488.58
414.26	1327.08
414.45	1366.87
414.64	1434.75
414.83	1437.09
415.02	1504.96
415.22	1528.37
415.41	1593.90
415.60	1591.56
415.79	1504.96
415.98	1607.95
416.17	1624.33
416.36	1481.56
416.55	1586.88
416.74	1654.76
416.93	1666.46
417.12	1706.25
417.31	1621.99
417.50	1650.08
417.69	1741.36
417.88	1692.21
418.07	1685.19
418.26	1710.93
418.45	1741.36
418.64	1729.66
418.83	1802.21
419.02	1678.16
419.21	1830.30
419.39	1842.00
419.58	1762.42
419.77	1732.00
419.96	1771.79
420.15	1750.72
420.34	1820.94
420.53	1893.49
420.72	1867.75
420.91	1816.26
421.10	1802.21
421.29	1966.05
421.48	1928.60
421.67	1980.09
421.86	1937.96
422.05	2001.16
422.24	1973.07
422.43	1923.92
422.61	2008.18
422.80	2026.90
422.99	1970.73
423.18	2003.50
423.37	2036.27
423.56	2052.65
423.75	2010.52
423.94	1980.09
424.13	1870.09
424.32	1952.01
424.50	2080.74
424.69	2047.97
424.88	2197.76
425.07	1973.07
425.26	1902.86
425.45	2026.90
425.64	2040.95
425.83	2047.97
426.01	2087.76
426.20	1989.46
426.39	1984.77
426.58	2017.54
426.77	2085.42
426.96	2022.22
427.15	2040.95
427.33	2139.25
427.52	2101.80
427.71	2106.48
427.90	2076.06
428.09	2078.40
428.28	2150.95
428.46	2186.06
428.65	2141.59
428.84	2111.16
429.03	2277.34
429.22	2118.18
429.40	2193.08
429.59	2307.77
429.78	2195.42
429.97	2162.66
430.16	2172.02
430.34	2232.87
430.53	2298.41
430.72	2258.62
430.91	2211.81
431.10	2216.49
431.28	2431.82
431.47	2319.47
431.66	2427.14
431.85	2403.73
432.03	2394.37
432.22	2499.69
432.41	2464.58
432.60	2499.69
432.79	2408.41
432.97	2509.05
433.16	2401.39
433.35	2382.67
433.54	2420.11
433.72	2431.82
433.91	2497.35
434.10	2434.16
434.28	2441.18
434.47	2565.23
434.66	2502.03
434.85	2609.70
435.03	2520.76
435.22	2424.80
435.41	2663.53
435.59	2654.17
435.78	2572.25
435.97	2794.60
436.16	2691.62
436.34	2637.78
436.53	2710.34
436.72	2839.07
436.90	2691.62
437.09	2815.66
437.28	2633.10
437.46	2621.40
437.65	2658.85
437.84	2775.88
438.02	2717.36
438.21	2902.26
438.40	2780.56
438.58	2853.11
438.77	2916.31
438.96	2860.13
439.14	2885.88
439.33	2846.09
439.52	2949.08
439.70	2972.48
439.89	3047.38
440.08	2998.23
440.26	3026.31
440.45	3012.27
440.63	3108.23
440.82	3042.70
441.01	3075.46
441.19	3227.60
441.38	3187.81
441.57	3180.79
441.75	3171.43
441.94	3236.96
442.12	3211.22
442.31	3197.17
442.50	3281.43
442.68	3370.37
442.87	3262.71
443.05	3293.13
443.24	3171.43
443.43	3255.69
443.61	3309.52
443.80	3419.52
443.98	3349.31
444.17	3361.01
444.35	3426.54
444.54	3337.60
444.73	3419.52
444.91	3288.45
445.10	3375.05
445.28	3344.63
445.47	3314.20
445.65	3400.80
445.84	3513.14
446.02	3562.30
446.21	3527.19
446.39	3538.89
446.58	3536.55
446.77	3424.20
446.95	3400.80
447.14	3339.94
447.32	3578.68
447.51	3424.20
447.69	3323.56
447.88	3421.86
448.06	3508.46
448.25	3534.21
448.43	3356.33
448.62	3574.00
448.80	3545.91
448.99	3555.27
449.17	3684.00
449.36	3623.15
449.54	3644.21
449.73	3449.95
449.91	3426.54
450.10	3606.77
450.28	3655.92
450.46	3662.94
450.65	3744.86
450.83	3641.87
451.02	3700.39
451.20	3918.06
451.39	3742.52
451.57	3761.24
451.76	3756.56
451.94	3822.09
452.13	3974.23
452.31	3829.12
452.49	3730.81
452.68	3777.62
452.86	3822.09
453.05	3735.50
453.23	3948.48
453.42	3859.54
453.60	3922.74
453.78	3777.62
453.97	3843.16
454.15	3908.69
454.34	3918.06
454.52	3995.29
454.70	3967.21
454.89	3850.18
455.07	3845.50
455.26	4002.32
455.44	4149.77
455.62	4152.11
455.81	3992.95
455.99	4067.85
456.17	4105.30
456.36	4117.00
456.54	4147.43
456.73	4222.33
456.91	4297.22
457.09	4264.46
457.28	4285.52
457.46	4264.46
457.64	4271.48
457.83	4362.76
458.01	4161.47
458.19	4229.35
458.38	4257.43
458.56	4475.10
458.74	4360.42
458.93	4285.52
459.11	4351.06
459.29	4463.40
459.48	4463.40
459.66	4482.13
459.84	4407.23
460.03	4489.15
460.21	4617.88
460.39	4589.79
460.57	4409.57
460.76	4547.66
460.94	4767.67
461.12	4557.02
461.31	4575.75
461.49	4503.19
461.67	4610.86
461.85	4692.77
462.04	4662.35
462.22	4730.22
462.40	4739.58
462.59	4697.46
462.77	4704.48
462.95	4765.33
463.13	4875.34
463.32	4793.42
463.50	4851.93
463.68	4898.74
463.86	4699.80
464.05	4767.67
464.23	4676.39
464.41	4826.18
464.59	4657.67
464.78	4844.91
464.96	4786.40
465.14	4819.16
465.32	4903.42
465.50	5076.62
465.69	4795.76
465.87	5212.37
466.05	4919.81
466.23	4987.68
466.41	5022.79
466.60	5210.03
466.78	4833.21
466.96	5006.41
467.14	5144.50
467.32	5011.09
467.51	5233.44
467.69	4919.81
467.87	5181.95
468.05	5252.16
468.23	5036.83
468.41	5226.42
468.60	5179.61
468.78	5315.36
468.96	5188.97
469.14	5181.95
469.32	5130.45
469.50	5259.18
469.69	5387.91
469.87	5406.64
470.05	5359.83
470.23	5394.93
470.41	5327.06
470.59	5348.12
470.77	5401.96
470.95	5460.47
471.14	5626.65
471.32	5343.44
471.50	5521.32
471.68	5528.35
471.86	5448.77
472.04	5600.90
472.22	5703.89
472.40	5785.80
472.58	5809.21
472.77	5706.23
472.95	5844.32
473.13	5818.57
473.31	5783.46
473.49	5717.93
473.67	5916.87
473.85	5980.07
474.03	5961.34
474.21	5902.83
474.39	6045.60
474.57	6054.97
474.75	6153.27
474.93	6064.33
475.12	6029.22
475.30	5994.11
475.48	6106.46
475.66	6235.19
475.84	6359.24
476.02	6349.87
476.20	6277.32
476.38	6265.61
476.56	6546.48
476.74	6642.44
476.92	6562.86
477.10	6377.96
477.28	6579.25
477.46	6773.51
477.64	6703.29
477.82	6771.17
478.00	6981.82
478.18	6836.70
478.36	6925.65
478.54	6897.56
478.72	7145.66
478.90	6977.14
479.08	7180.76
479.26	7037.99
479.44	7255.66
479.62	7396.09
479.80	7482.69
479.98	7358.64
480.16	7485.03
480.34	7398.43
480.52	7707.38
480.70	7499.08
480.88	7494.40
481.06	7543.55
481.24	7719.09
481.41	7648.87
481.59	7934.42
481.77	8023.36
481.95	8147.40
482.13	8013.99
482.31	7997.61
482.49	8222.30
482.67	8131.02
482.85	8273.79
483.03	8461.04
483.21	8428.27
483.39	8463.38
483.57	8683.39
483.74	8610.83
483.92	8744.24
484.10	8699.77
484.28	8769.99
484.46	9142.13
484.64	9085.96
484.82	8945.53
485.00	8929.14
485.18	8943.19
485.35	9366.82
485.53	9238.09
485.71	9425.34
485.89	9247.46
486.07	9437.04
486.25	9380.87
486.43	9624.28
486.61	9701.52
486.78	9767.06
486.96	9886.42
487.14	10099.41
487.32	10012.81
487.50	10113.45
487.68	10043.24
487.85	10277.29
488.03	10544.11
488.21	10583.90
488.39	10366.23
488.57	10504.32
488.75	10754.76
488.92	10834.34
489.10	10902.22
489.28	10867.11
489.46	10991.16
489.64	11091.80
489.81	11173.72
489.99	11246.27
490.17	11115.20
490.35	11489.69
490.53	11456.92
490.70	11651.19
490.88	11372.66
491.06	11672.25
491.24	11508.41
491.41	11667.57
491.59	11798.64
491.77	11925.03
491.95	11763.53
492.13	12049.08
492.30	12175.47
492.48	11967.16
492.66	12203.55
492.84	12065.46
493.01	12629.53
493.19	12486.76
493.37	12676.34
493.54	12760.60
493.72	12655.28
493.90	12723.15
494.08	12737.20
494.25	13198.28
494.43	12945.50
494.61	13179.56
494.79	13167.85
494.96	13188.92
495.14	13181.90
495.32	13317.65
495.49	13621.92
495.67	13422.97
495.85	13694.47
496.02	13776.39
496.20	13678.09
496.38	13621.92
496.55	13874.70
496.73	14015.13
496.91	14019.81
497.09	14061.94
497.26	14246.84
497.44	14097.05
497.62	14377.91
497.79	14499.62
497.97	14403.66
498.14	14340.46
498.32	14902.19
498.50	14471.53
498.67	14956.02
498.85	14750.06
499.03	15136.24
499.20	14827.29
499.38	15007.52
499.56	14960.70
499.73	15208.80
499.91	15220.50
500.08	15131.56
500.26	15159.65
500.44	15475.62
500.61	15051.99
500.79	15339.87
500.97	15503.71
501.14	15660.52
501.32	15807.98
501.49	15782.23
501.67	15562.22
501.84	15932.03
502.02	15866.49
502.20	15967.13
502.37	16154.38
502.55	16046.71
502.72	16020.97
502.90	16142.67
503.07	16175.44
503.25	16182.46
503.43	16088.84
503.60	16430.56
503.78	16510.14
503.95	16386.09
504.13	16196.51
504.30	16629.51
504.48	16512.48
504.65	16393.11
504.83	16676.32
505.01	16758.24
505.18	16648.23
505.36	16926.75
505.53	16837.81
505.71	17015.69
505.88	16952.50
506.06	16886.97
506.23	16966.54
506.41	17198.26
506.58	17249.75
506.76	17104.64
506.93	17188.89
507.11	17252.09
507.28	17060.16
507.46	17436.99
507.63	17326.99
507.81	17715.51
507.98	17521.25
508.16	17649.98
508.33	17556.36
508.50	17621.89
508.68	17715.51
508.85	17968.29
509.03	17975.31
509.20	18038.51
509.38	18307.67
509.55	18326.39
509.73	18225.75
509.90	18293.63
510.08	18230.43
510.25	18108.72
510.42	18265.54
510.60	18373.21
510.77	18665.77
510.95	18789.82
511.12	18476.19
511.30	18415.34
511.47	18487.89
511.64	18967.70
511.82	18768.76
511.99	18878.76
512.17	19309.42
512.34	18623.64
512.51	18719.60
512.69	19136.22
512.86	19005.15
513.04	19262.61
513.21	19201.76
513.38	19304.74
513.56	19374.95
513.73	19215.80
513.90	19131.54
514.08	19491.98
514.25	19487.30
514.43	19489.64
514.60	19557.52
514.77	19894.55
514.95	19653.48
515.12	19552.84
515.29	19803.27
515.47	19625.39
515.64	19922.64
515.81	19782.21
515.99	20367.34
516.16	20203.50
516.33	20278.40
516.51	20100.52
516.68	19864.13
516.85	20175.42
517.03	20077.12
517.20	20409.47
517.37	20322.87
517.54	20563.95
517.72	20219.89
517.89	20210.53
518.06	20147.33
518.24	20676.29
518.41	20486.71
518.58	20629.48
518.75	20610.76
518.93	21088.23
519.10	20549.90
519.27	21015.67
519.45	20947.79
519.62	20783.96
519.79	20833.11
519.96	20900.98
520.14	20954.82
520.31	21130.36
520.48	21336.32
520.65	21151.42
520.83	20910.35
521.00	21207.59
521.17	21319.94
521.34	21455.69
521.52	21135.04
521.69	21350.37
521.86	21504.84
522.03	21682.72
522.20	21720.17
522.38	21717.83
522.55	21713.15
522.72	21642.93
522.89	21788.05
523.07	21851.24
523.24	22022.10
523.41	22022.10
523.58	21785.71
523.75	22101.68
523.92	21898.05
524.10	21940.18
524.27	21834.86
524.44	22057.21
524.61	22424.67
524.78	22307.65
524.96	22424.67
525.13	22338.07
525.30	22087.64
525.47	22359.14
525.64	22398.93
525.81	22466.80
525.98	22403.61
526.16	22651.70
526.33	22560.42
526.50	22302.96
526.67	22731.28
526.84	22885.76
527.01	22375.52
527.18	23030.87
527.36	22960.66
527.53	22911.50
527.70	23330.46
527.87	23026.19
528.04	23131.51
528.21	23077.68
528.38	23213.43
528.55	23433.44
528.72	22991.08
528.89	23112.79
529.07	23344.50
529.24	23131.51
529.41	23145.56
529.58	23234.50
529.75	23293.01
529.92	23091.73
530.09	23442.81
530.26	23456.85
530.43	23517.70
530.60	23098.75
530.77	23866.44
530.94	23412.38
531.11	23290.67
531.28	23225.14
531.46	23489.62
531.63	23714.31
531.80	23573.88
531.97	23880.49
532.14	23962.40
532.31	23693.24
532.48	23843.04
532.65	24016.24
532.82	23803.25
532.99	24233.91
533.16	23976.45
533.33	23948.36
533.50	24390.72
533.67	24177.73
533.84	23892.19
534.01	24023.26
534.18	23946.02
534.35	24273.70
534.52	24453.92
534.69	24833.08
534.86	24463.28
535.03	24453.92
535.20	24086.45
535.37	24676.27
535.54	24589.67
535.71	24397.74
535.88	24528.81
536.05	24510.09
536.22	24458.60
536.38	24987.56
536.55	25043.73
536.72	24776.91
536.89	24758.19
537.06	24610.73
537.23	24975.86
537.40	24826.06
537.57	24690.31
537.74	24435.19
537.91	25179.48
538.08	25144.38
538.25	24821.38
538.42	25039.05
538.59	25132.67
538.75	24978.20
538.92	25350.34
539.09	25289.49
539.26	25317.57
539.43	25317.57
539.60	25242.68
539.77	25343.32
539.94	25373.75
540.11	25551.63
540.28	25467.37
540.44	25287.15
540.61	25088.20
540.78	25275.45
540.95	25448.64
541.12	25488.43
541.29	25483.75
541.46	25359.70
541.62	25174.80
541.79	25680.36
541.96	25249.70
542.13	25745.89
542.30	25282.47
542.47	25895.69
542.63	25671.00
542.80	26092.29
542.97	26316.98
543.14	26361.45
543.31	26237.41
543.48	26288.90
543.64	26593.17
543.81	26211.66
543.98	26338.05
544.15	26424.65
544.32	26412.95
544.48	26607.21
544.65	26118.04
544.82	26211.66
544.99	25944.84
545.16	26513.59
545.32	26548.70
545.49	26766.37
545.66	26583.80
545.83	26951.27
546.00	26874.03
546.16	26658.70
546.33	26415.29
546.50	26153.15
546.67	26347.41
546.83	26422.31
547.00	26843.60
547.17	26574.44
547.34	26731.26
547.50	26930.20
547.67	26735.94
547.84	26965.31
548.00	27063.61
548.17	27072.98
548.34	26895.10
548.51	27005.10
548.67	27274.26
548.84	26595.51
549.01	27145.53
549.18	26895.10
549.34	27005.10
549.51	27080.00
549.68	26721.90
549.84	27019.14
550.01	27199.37
550.18	27239.15
550.34	27515.34
550.51	26883.39
550.68	27370.22
550.84	27204.05
551.01	27269.58
551.18	27204.05
551.34	27283.62
551.51	27482.57
551.68	27250.86
551.84	27332.78
552.01	27260.22
552.18	27850.03
552.34	27414.69
552.51	27545.76
552.68	27276.60
552.84	27524.70
553.01	27693.22
553.18	27711.94
553.34	27831.31
553.51	27779.82
553.67	27971.74
553.84	28140.26
554.01	27716.62
554.17	27513.00
554.34	27674.49
554.51	27559.81
554.67	27793.86
554.84	27899.19
555.00	27920.25
555.17	27826.63
555.33	27892.16
555.50	27763.43
555.67	27611.30
555.83	27901.53
556.00	27283.62
556.16	28011.53
556.33	28261.97
556.50	27887.48
556.66	28245.58
556.83	27742.37
556.99	28519.43
557.16	28371.97
557.32	28027.92
557.49	28215.16
557.65	27943.66
557.82	28201.11
557.98	27814.93
558.15	28027.92
558.32	28016.21
558.48	28540.49
558.65	28629.43
558.81	28442.19
558.98	28327.50
559.14	28416.44
559.31	28191.75
559.47	27917.91
559.64	28474.96
559.80	28582.62
559.97	28404.74
560.13	28456.23
560.30	28388.36
560.46	28584.96
560.63	28582.62
560.79	28416.44
560.96	28271.33
561.12	28879.87
561.29	28465.60
561.45	28481.98
561.61	28402.40
561.78	28620.07
561.94	28519.43
562.11	28671.56
562.27	28559.22
562.44	28540.49
562.60	28573.26
562.77	28521.77
562.93	28891.57
563.10	28823.70
563.26	28294.74
563.42	28961.79
563.59	28584.96
563.75	29055.41
563.92	29104.56
564.08	28804.97
564.24	28376.66
564.41	28524.11
564.57	28783.91
564.74	28982.85
564.90	28872.85
565.07	28907.96
565.23	29020.30
565.39	29048.39
565.56	28547.51
565.72	29039.03
565.88	28800.29
566.05	28968.81
566.21	28797.95
566.38	28957.11
566.54	29317.55
566.70	29188.82
566.87	29139.67
567.03	29060.09
567.19	29240.31
567.36	28886.89
567.52	29252.02
567.68	29137.33
567.85	28959.45
568.01	29179.46
568.17	29109.24
568.34	29256.70
568.50	29528.20
568.66	28961.79
568.83	29687.36
568.99	29008.60
569.15	29205.20
569.32	28783.91
569.48	28945.41
569.64	29139.67
569.81	29118.60
569.97	29083.50
570.13	29338.62
570.30	28982.85
570.46	29174.78
570.62	29301.17
570.78	29174.78
570.95	28753.48
571.11	29111.58
571.27	28994.56
571.43	29202.86
571.60	29078.82
571.76	29219.25
571.92	29301.17
572.09	29289.46
572.25	29525.86
572.41	29394.79
572.57	29359.68
572.74	29560.97
572.90	29032.00
573.06	29177.12
573.22	29207.55
573.38	29476.71
573.55	29411.17
573.71	29376.06
573.87	29394.79
574.03	29158.39
574.20	29692.04
574.36	29516.50
574.52	29411.17
574.68	29020.30
574.84	29575.01
575.01	29443.94
575.17	29338.62
575.33	29518.84
575.49	29329.25
575.65	29635.86
575.82	29057.75
575.98	29392.45
576.14	29413.51
576.30	29071.79
576.46	29465.00
576.62	29027.32
576.79	29003.92
576.95	28809.65
577.11	29724.80
577.27	29696.72
577.43	29811.40
577.59	29455.64
577.75	29193.50
577.92	29237.97
578.08	29713.10
578.24	29476.71
578.40	29411.17
578.56	29610.12
578.72	29132.65
578.88	29706.08
579.04	30110.99
579.21	29483.73
579.37	29619.48
579.53	29074.13
579.69	29146.69
579.85	29450.96
580.01	29331.59
580.17	29322.23
580.33	29509.47
580.49	29457.98
580.65	29528.20
580.82	29537.56
580.98	29598.41
581.14	29371.38
581.30	29673.31
581.46	29544.58
581.62	29539.90
581.78	29116.26
581.94	29626.50
582.10	29331.59
582.26	29631.18
582.42	29844.17
582.58	29752.89
582.74	29984.60
582.90	29680.33
583.06	29713.10
583.22	29605.44
583.38	29773.95
583.54	29532.88
583.70	29167.76
583.86	29319.89
584.02	29170.10
584.18	29797.36
584.34	29909.71
584.50	29802.04
584.66	29663.95
584.82	29546.92
584.98	29493.09
585.14	29509.47
585.30	29610.12
585.46	29724.80
585.62	29804.38
585.78	29355.00
585.94	29357.34
586.10	29928.43
586.26	29668.63
586.42	30197.59
586.58	29724.80
586.74	29926.09
586.90	29439.26
587.06	29546.92
587.22	29591.39
587.38	29511.81
587.54	30000.99
587.70	30064.18
587.86	29614.80
588.02	29619.48
588.18	30059.50
588.34	30375.47
588.49	29869.92
588.65	29542.24
588.81	29434.58
588.97	29965.88
589.13	30192.91
589.29	29567.99
589.45	29855.87
589.61	29579.69
589.77	29858.21
589.93	29958.86
590.08	30181.21
590.24	29979.92
590.40	30295.89
590.56	29811.40
590.72	29642.88
590.88	29682.67
591.04	29509.47
591.20	30071.20
591.35	30108.65
591.51	30621.23
591.67	30101.63
591.83	30019.71
591.99	30394.20
