SpectraSuite Data File
++++++++++++++++++++++++++++++++++++
Date: Fri Oct 18 13:58:14 GMT-05:00 2013
User: bianchi
Dark Spectrum Present: No
Reference Spectrum Present: No
Number of Sampled Component Spectra: 1
Spectrometers: USB2+H05261
Integration Time (usec): 50000 (USB2+H05261)
Spectra Averaged: 1 (USB2+H05261)
Boxcar Smoothing: 0 (USB2+H05261)
Correct for Electrical Dark: No (USB2+H05261)
Strobe/Lamp Enabled: No (USB2+H05261)
Correct for Detector Non-linearity: No (USB2+H05261)
Correct for Stray Light: No (USB2+H05261)
Number of Pixels in Processed Spectrum: 2048
>>>>>Begin Processed Spectral Data<<<<<
365.73	0.00
365.92	0.00
366.12	0.00
366.32	0.00
366.52	0.00
366.72	0.00
366.91	0.00
367.11	0.00
367.31	0.00
367.51	0.00
367.70	0.00
367.90	0.00
368.10	0.00
368.30	0.00
368.49	0.00
368.69	0.00
368.89	0.00
369.09	0.00
369.28	0.00
369.48	0.00
369.68	0.00
369.87	0.00
370.07	0.00
370.27	0.00
370.47	0.00
370.66	72.56
370.86	110.01
371.06	156.82
371.25	114.69
371.45	222.35
371.65	145.11
371.84	156.82
372.04	126.39
372.24	131.07
372.44	79.58
372.63	210.65
372.83	278.52
373.03	203.63
373.22	124.05
373.42	215.33
373.62	187.24
373.81	262.14
374.01	301.93
374.21	156.82
374.40	227.03
374.60	222.35
374.79	322.99
374.99	243.42
375.19	283.20
375.38	215.33
375.58	208.31
375.78	248.10
375.97	243.42
376.17	161.50
376.37	278.52
376.56	248.10
376.76	257.46
376.95	266.82
377.15	276.18
377.35	198.95
377.54	250.44
377.74	299.59
377.93	241.08
378.13	224.69
378.33	252.78
378.52	266.82
378.72	290.23
378.91	276.18
379.11	285.55
379.31	304.27
379.50	283.20
379.70	397.89
379.89	273.84
380.09	203.63
380.28	339.38
380.48	262.14
380.68	257.46
380.87	217.67
381.07	311.29
381.26	334.70
381.46	313.63
381.65	287.89
381.85	313.63
382.04	229.37
382.24	269.16
382.43	379.17
382.63	353.42
382.83	353.42
383.02	353.42
383.22	278.52
383.41	322.99
383.61	318.31
383.80	339.38
384.00	304.27
384.19	353.42
384.39	418.96
384.58	390.87
384.78	330.02
384.97	430.66
385.17	353.42
385.36	477.47
385.56	365.12
385.75	297.25
385.95	550.03
386.14	454.06
386.34	489.17
386.53	369.80
386.72	360.44
386.92	362.78
387.11	388.53
387.31	454.06
387.50	346.40
387.70	416.62
387.89	416.62
388.09	421.30
388.28	524.28
388.48	456.40
388.67	442.36
388.86	468.11
389.06	383.85
389.25	458.74
389.45	468.11
389.64	440.02
389.84	470.45
390.03	451.72
390.22	477.47
390.42	505.56
390.61	475.13
390.81	498.53
391.00	402.57
391.19	493.85
391.39	519.60
391.58	552.37
391.78	538.32
391.97	601.52
392.16	500.87
392.36	596.84
392.55	489.17
392.75	561.73
392.94	573.43
393.13	540.66
393.33	526.62
393.52	533.64
393.71	573.43
393.91	528.96
394.10	582.79
394.29	653.01
394.49	575.77
394.68	554.71
394.88	622.58
395.07	648.33
395.26	587.47
395.46	615.56
395.65	711.52
395.84	617.90
396.04	627.26
396.23	697.48
396.42	608.54
396.62	627.26
396.81	711.52
397.00	655.35
397.19	692.80
397.39	636.63
397.58	713.86
397.77	751.31
397.97	627.26
398.16	638.97
398.35	552.37
398.55	690.46
398.74	723.23
398.93	772.38
399.12	678.76
399.32	718.54
399.51	727.91
399.70	737.27
399.90	755.99
400.09	739.61
400.28	760.67
400.47	821.53
400.67	737.27
400.86	697.48
401.05	763.01
401.24	695.14
401.44	816.85
401.63	816.85
401.82	795.78
402.01	765.36
402.21	774.72
402.40	830.89
402.59	814.51
402.78	791.10
402.97	814.51
403.17	772.38
403.36	793.44
403.55	903.45
403.74	858.98
403.93	915.15
404.13	880.04
404.32	882.38
404.51	868.34
404.70	952.60
404.89	990.05
405.09	945.58
405.28	847.27
405.47	978.34
405.66	994.73
405.85	1053.24
406.05	1076.65
406.24	1013.45
406.43	983.02
406.62	1032.18
406.81	1050.90
407.00	964.30
407.20	1004.09
407.39	1008.77
407.58	1086.01
407.77	1078.99
407.96	1076.65
408.15	1022.81
408.34	1034.52
408.54	1144.52
408.73	1004.09
408.92	994.73
409.11	1142.18
409.30	1027.50
409.49	1076.65
409.68	1142.18
409.87	1128.14
410.07	1200.69
410.26	1188.99
410.45	1057.92
410.64	1151.54
410.83	1064.94
411.02	1146.86
411.21	1242.82
411.40	1163.25
411.59	1275.59
411.78	1242.82
411.98	1254.53
412.17	1299.00
412.36	1273.25
412.55	1280.27
412.74	1252.19
412.93	1336.45
413.12	1334.11
413.31	1423.05
413.50	1329.42
413.69	1373.89
413.88	1483.90
414.07	1392.62
414.26	1369.21
414.45	1444.11
414.64	1437.09
414.83	1638.38
415.02	1563.48
415.22	1469.86
415.41	1579.86
415.60	1626.67
415.79	1530.71
415.98	1540.07
416.17	1654.76
416.36	1537.73
416.55	1643.06
416.74	1565.82
416.93	1610.29
417.12	1685.19
417.31	1666.46
417.50	1724.97
417.69	1699.23
417.88	1710.93
418.07	1736.68
418.26	1781.15
418.45	1680.50
418.64	1928.60
418.83	1818.60
419.02	1776.47
419.21	1783.49
419.39	1809.23
419.58	1785.83
419.77	1783.49
419.96	1860.73
420.15	1813.92
420.34	1799.87
420.53	1935.62
420.72	1870.09
420.91	1849.02
421.10	1963.71
421.29	1989.46
421.48	1872.43
421.67	1975.41
421.86	1891.15
422.05	1823.28
422.24	2015.20
422.43	1898.17
422.61	1937.96
422.80	1991.80
422.99	2064.35
423.18	2026.90
423.37	1973.07
423.56	2057.33
423.75	2059.67
423.94	2012.86
424.13	1748.38
424.32	1909.88
424.50	2024.56
424.69	2104.14
424.88	2010.52
425.07	1944.99
425.26	2017.54
425.45	1940.30
425.64	2045.63
425.83	2038.61
426.01	1984.77
426.20	2047.97
426.39	2097.12
426.58	2012.86
426.77	2040.95
426.96	2069.03
427.15	2113.50
427.33	2099.46
427.52	2040.95
427.71	2169.68
427.90	2127.55
428.09	2143.93
428.28	2160.31
428.46	2188.40
428.65	2066.69
428.84	2216.49
429.03	2237.55
429.22	2174.36
429.40	2263.30
429.59	2331.17
429.78	2139.25
429.97	2141.59
430.16	2204.78
430.34	2263.30
430.53	2258.62
430.72	2387.35
430.91	2218.83
431.10	2221.17
431.28	2396.71
431.47	2324.15
431.66	2307.77
431.85	2335.85
432.03	2366.28
432.22	2363.94
432.41	2361.60
432.60	2417.77
432.79	2509.05
432.97	2516.08
433.16	2476.29
433.35	2455.22
433.54	2485.65
433.72	2605.02
433.91	2483.31
434.10	2523.10
434.28	2473.95
434.47	2619.06
434.66	2677.57
434.85	2616.72
435.03	2693.96
435.22	2609.70
435.41	2663.53
435.59	2670.55
435.78	2712.68
435.97	2630.76
436.16	2689.28
436.34	2628.42
436.53	2710.34
436.72	2815.66
436.90	2583.95
437.09	2738.43
437.28	2675.23
437.46	2700.98
437.65	2612.04
437.84	2691.62
438.02	2750.13
438.21	2656.51
438.40	2832.05
438.58	2916.31
438.77	2923.33
438.96	2916.31
439.14	2949.08
439.33	2951.42
439.52	3021.63
439.70	2902.26
439.89	3012.27
440.08	3059.08
440.26	3096.53
440.45	2979.50
440.63	3091.85
440.82	3141.00
441.01	3056.74
441.19	3110.57
441.38	3173.77
441.57	3157.38
441.75	3211.22
441.94	3318.88
442.12	3398.46
442.31	3328.24
442.50	3155.04
442.68	3337.60
442.87	3283.77
443.05	3363.35
443.24	3400.80
443.43	3262.71
443.61	3442.93
443.80	3489.74
443.98	3225.26
444.17	3243.98
444.35	3361.01
444.54	3445.27
444.73	3527.19
444.91	3478.04
445.10	3377.39
445.28	3365.69
445.47	3396.12
445.65	3435.91
445.84	3468.67
446.02	3492.08
446.21	3351.65
446.39	3438.25
446.58	3433.57
446.77	3522.51
446.95	3391.44
447.14	3527.19
447.32	3538.89
447.51	3377.39
447.69	3438.25
447.88	3679.32
448.06	3524.85
448.25	3466.33
448.43	3599.74
448.62	3698.05
448.80	3606.77
448.99	3520.17
449.17	3705.07
449.36	3618.47
449.54	3604.42
449.73	3676.98
449.91	3648.90
450.10	3705.07
450.28	3702.73
450.46	3611.45
450.65	3751.88
450.83	3630.17
451.02	3637.19
451.20	3803.37
451.39	3768.26
451.57	3709.75
451.76	3758.90
451.94	3775.28
452.13	3992.95
452.31	3789.33
452.49	3775.28
452.68	3836.14
452.86	3833.80
453.05	3946.14
453.23	3777.62
453.42	3927.42
453.60	3854.86
453.78	3978.91
453.97	3765.92
454.15	3887.63
454.34	3693.37
454.52	3990.61
454.70	3852.52
454.89	3906.35
455.07	3967.21
455.26	4131.05
455.44	4145.09
455.62	3985.93
455.81	4086.58
455.99	4166.15
456.17	4030.40
456.36	3995.29
456.54	4231.69
456.73	4337.01
456.91	4320.63
457.09	4215.30
457.28	4301.90
457.46	4358.08
457.64	4486.81
457.83	4390.84
458.01	4313.61
458.19	4372.12
458.38	4327.65
458.56	4290.20
458.74	4519.57
458.93	4372.12
459.11	4423.61
459.29	4402.55
459.48	4482.13
459.66	4262.12
459.84	4472.76
460.03	4723.20
460.21	4498.51
460.39	4498.51
460.57	4531.28
460.76	4580.43
460.94	4690.43
461.12	4561.70
461.31	4564.04
461.49	4617.88
461.67	4685.75
461.85	4674.05
462.04	4746.61
462.22	4994.70
462.40	4706.82
462.59	4737.24
462.77	4575.75
462.95	4685.75
463.13	4788.74
463.32	4896.40
463.50	4842.57
463.68	4692.77
463.86	4826.18
464.05	4784.06
464.23	4821.50
464.41	5043.85
464.59	4816.82
464.78	5067.26
464.96	4917.47
465.14	4880.02
465.32	4987.68
465.50	4891.72
465.69	5004.07
465.87	4943.21
466.05	4917.47
466.23	4978.32
466.41	5111.73
466.60	5160.88
466.78	4896.40
466.96	5210.03
467.14	5050.88
467.32	5050.88
467.51	5177.26
467.69	5020.45
467.87	5205.35
468.05	5097.69
468.23	5013.43
468.41	4983.00
468.60	5062.58
468.78	5331.74
468.96	5149.18
469.14	5242.80
469.32	5329.40
469.50	5055.56
469.69	5174.92
469.87	5476.85
470.05	5448.77
470.23	5366.85
470.41	5411.32
470.59	5369.19
470.77	5364.51
470.95	5430.04
471.14	5495.58
471.32	5497.92
471.50	5685.16
471.68	5509.62
471.86	5563.45
472.04	5624.31
472.22	5717.93
472.40	5533.03
472.58	5767.08
472.77	5764.74
472.95	5806.87
473.13	5914.53
473.31	5888.79
473.49	5792.83
473.67	6054.97
473.85	5867.72
474.03	6129.86
474.21	5834.96
474.39	6129.86
474.57	6059.65
474.75	6181.35
474.93	6111.14
475.12	6106.46
475.30	6150.93
475.48	5935.60
475.66	6277.32
475.84	6218.80
476.02	6335.83
476.20	6361.58
476.38	6340.51
476.56	6511.37
476.74	6373.28
476.92	6326.47
477.10	6401.37
477.28	6527.75
477.46	6726.70
477.64	6656.48
477.82	6537.12
478.00	6993.52
478.18	6817.98
478.36	7070.76
478.54	7059.06
478.72	6984.16
478.90	6951.39
479.08	7281.41
479.26	7332.90
479.44	7166.72
479.62	7309.49
479.80	7403.11
479.98	7442.90
480.16	7538.87
480.34	7597.38
480.52	7566.95
480.70	7733.13
480.88	7548.23
481.06	7613.76
481.24	7660.57
481.41	7700.36
481.59	8023.36
481.77	8058.46
481.95	8049.10
482.13	8046.76
482.31	8105.28
482.49	8152.09
482.67	8280.82
482.85	8257.41
483.03	8444.65
483.21	8503.17
483.39	8952.55
483.57	8601.47
483.74	8671.68
483.92	8777.01
484.10	8599.13
484.28	8683.39
484.46	8945.53
484.64	9142.13
484.82	8826.16
485.00	9240.44
485.18	9378.53
485.35	9252.14
485.53	9324.69
485.71	9423.00
485.89	9769.40
486.07	9612.58
486.25	9682.80
486.43	9600.88
486.61	9717.90
486.78	9884.08
486.96	9895.78
487.14	10249.21
487.32	10150.90
487.50	10256.23
487.68	10136.86
487.85	10452.83
488.03	10441.13
488.21	10537.09
488.39	10635.39
488.57	10633.05
488.75	10712.63
488.92	10932.64
489.10	10759.44
489.28	10967.75
489.46	11023.92
489.64	11269.68
489.81	11325.85
489.99	11414.79
490.17	11417.13
490.35	11419.47
490.53	11400.75
490.70	11740.13
490.88	11503.73
491.06	11705.02
491.24	11620.76
491.41	11824.39
491.59	12133.34
491.77	12182.49
491.95	12175.47
492.13	12145.04
492.30	12121.63
492.48	12121.63
492.66	12372.07
492.84	12367.39
493.01	12372.07
493.19	12339.30
493.37	12690.38
493.54	12585.06
493.72	12875.29
493.90	12669.32
494.08	12699.75
494.25	13118.70
494.43	13085.94
494.61	13198.28
494.79	13263.82
494.96	13018.06
495.14	13507.23
495.32	13394.89
495.49	13635.96
495.67	13497.87
495.85	13764.69
496.02	13874.70
496.20	13694.47
496.38	14008.11
496.55	13685.11
496.73	14178.97
496.91	14230.46
497.09	14190.67
497.26	14586.22
497.44	14398.98
497.62	14286.63
497.79	14232.80
497.97	14441.11
498.14	14710.27
498.32	14640.05
498.50	14925.60
498.67	14853.04
498.85	15026.24
499.03	14927.94
499.20	15115.18
499.38	14918.57
499.56	15066.03
499.73	15171.35
499.91	15307.10
500.08	15374.98
500.26	15171.35
500.44	15431.15
500.61	15386.68
500.79	15454.56
500.97	15503.71
501.14	15779.89
501.32	15735.42
501.49	15934.37
501.67	15716.70
501.84	15562.22
502.02	15831.38
502.20	16128.63
502.37	16133.31
502.55	16095.86
502.72	16442.26
502.90	16112.25
503.07	16163.74
503.25	16201.19
503.43	15960.11
503.60	16500.78
503.78	16301.83
503.95	16606.10
504.13	16353.32
504.30	16800.37
504.48	16187.14
504.65	16613.12
504.83	16940.80
505.01	17277.83
505.18	16865.90
505.36	16830.79
505.53	16826.11
505.71	17027.40
505.88	16835.47
506.06	16985.27
506.23	17373.80
506.41	17235.70
506.58	17579.76
506.76	17249.75
506.93	17216.98
507.11	17352.73
507.28	17612.53
507.46	17401.88
507.63	17600.83
507.81	17970.63
507.98	17706.15
508.16	17687.43
508.33	17848.93
508.50	17886.37
508.68	17909.78
508.85	18232.77
509.03	18005.74
509.20	18302.99
509.38	18319.37
509.55	18476.19
509.73	18244.48
509.90	18398.95
510.08	18714.92
510.25	18335.76
510.42	18342.78
510.60	18405.97
510.77	18883.44
510.95	18633.00
511.12	18956.00
511.30	18796.84
511.47	18586.19
511.64	18899.83
511.82	18988.77
511.99	18735.99
512.17	19061.32
512.34	19019.19
512.51	19131.54
512.69	19274.31
512.86	18953.66
513.04	19494.32
513.21	19433.47
513.38	19583.26
513.56	19318.78
513.73	19314.10
513.90	19501.34
514.08	19559.86
514.25	19597.31
514.43	19859.45
514.60	19793.91
514.77	19660.50
514.95	19943.70
515.12	19616.03
515.29	19868.81
515.47	19690.93
515.64	19836.04
515.81	19960.09
515.99	19974.13
516.16	19950.73
516.33	19978.81
516.51	20109.88
516.68	19723.69
516.85	20360.32
517.03	20381.38
517.20	20671.61
517.37	20695.02
517.54	20444.58
517.72	20521.82
517.89	20226.91
518.06	20795.66
518.24	20470.33
518.41	20606.08
518.58	20713.74
518.75	20599.05
518.93	20786.30
519.10	20903.32
519.27	20893.96
519.45	21130.36
519.62	20884.60
519.79	20959.50
519.96	21214.62
520.14	20982.90
520.31	21055.46
520.48	21521.23
520.65	21385.47
520.83	21422.92
521.00	21305.90
521.17	21401.86
521.34	21270.79
521.52	21645.27
521.69	21493.14
521.86	21750.60
522.03	21888.69
522.20	21902.73
522.38	21781.03
522.55	21699.11
522.72	21949.54
522.89	21553.99
523.07	22127.42
523.24	22246.79
523.41	22225.73
523.58	21893.37
523.75	22211.68
523.92	22333.39
524.10	22108.70
524.27	22338.07
524.44	22232.75
524.61	22696.17
524.78	22331.05
524.96	22253.81
525.13	22251.47
525.30	22742.99
525.47	22354.46
525.64	22333.39
525.81	22768.73
525.98	22579.15
526.16	22780.43
526.33	22677.45
526.50	22836.61
526.67	22661.07
526.84	22782.77
527.01	22642.34
527.18	22782.77
527.36	23026.19
527.53	23236.84
527.70	23314.08
527.87	23232.16
528.04	23239.18
528.21	23452.17
528.38	23405.36
528.55	23014.49
528.72	23033.21
528.89	23597.28
529.07	23194.71
529.24	22998.10
529.41	23351.52
529.58	23410.04
529.75	23201.73
529.92	23356.21
530.09	23585.58
530.26	23555.15
530.43	23812.61
530.60	23468.55
530.77	23260.24
530.94	23620.69
531.11	23529.41
531.28	23946.02
531.46	23885.17
531.63	23976.45
531.80	23847.72
531.97	24217.52
532.14	24060.71
532.31	23885.17
532.48	24173.05
532.65	24226.89
532.82	23693.24
532.99	23976.45
533.16	23924.96
533.33	24027.94
533.50	24465.62
533.67	24545.20
533.84	24159.01
534.01	23967.09
534.18	24254.97
534.35	24559.24
534.52	24313.48
534.69	24643.50
534.86	24671.59
535.03	24381.36
535.20	24716.06
535.37	24599.03
535.54	24587.33
535.71	24666.91
535.88	24861.17
536.05	24538.18
536.22	24790.95
536.38	25111.61
536.55	24797.98
536.72	24961.81
536.89	24910.32
537.06	24816.70
537.23	25055.43
537.40	24748.82
537.57	24783.93
537.74	25097.56
537.91	24982.88
538.08	25008.62
538.25	25144.38
538.42	24924.36
538.59	25364.39
538.75	25209.91
538.92	25025.01
539.09	25144.38
539.26	25607.80
539.43	25291.83
539.60	25525.88
539.77	25429.92
539.94	25514.18
540.11	25355.02
540.28	25647.59
540.44	25481.41
540.61	25252.04
540.78	25329.28
540.95	25486.09
541.12	25752.91
541.29	25610.14
541.46	25921.43
541.62	25867.60
541.79	25621.84
541.96	25645.25
542.13	25663.97
542.30	25921.43
542.47	26061.87
542.63	25986.97
542.80	26129.74
542.97	26520.61
543.14	26366.13
543.31	26052.50
543.48	26221.02
543.64	26349.75
543.81	26607.21
543.98	26225.70
544.15	26356.77
544.32	26969.99
544.48	26583.80
544.65	26607.21
544.82	26099.31
544.99	26171.87
545.16	26534.65
545.32	26682.11
545.49	26813.18
545.66	26609.55
545.83	26937.23
546.00	27012.12
546.16	26602.53
546.33	26452.73
546.50	26466.78
546.67	26445.71
546.83	26211.66
547.00	26902.12
547.17	27075.32
547.34	26637.64
547.50	26995.74
547.67	27089.36
547.84	26995.74
548.00	26852.97
548.17	27094.04
548.34	26944.25
548.51	27070.64
548.67	27007.44
548.84	27065.96
549.01	27529.38
549.18	27433.42
549.34	27040.21
549.51	27318.73
549.68	27351.50
549.84	27051.91
550.01	27227.45
550.18	27218.09
550.34	27529.38
550.51	27548.11
550.68	27445.12
550.84	27164.26
551.01	27402.99
551.18	27288.31
551.34	27255.54
551.51	27623.00
551.68	27087.02
551.84	27782.16
552.01	27459.16
552.18	27339.80
552.34	27585.55
552.51	27545.76
552.68	27395.97
552.84	27779.82
553.01	27833.65
553.18	27915.57
553.34	27513.00
553.51	27749.39
553.67	28224.52
553.84	28177.71
554.01	28032.60
554.17	27845.35
554.34	27906.21
554.51	27992.81
554.67	27934.29
554.84	27838.33
555.00	28364.95
555.17	27840.67
555.33	28535.81
555.50	28037.28
555.67	28168.35
555.83	27983.44
556.00	28156.64
556.16	28622.41
556.33	28362.61
556.50	28535.81
556.66	28615.39
556.83	28339.21
556.99	28292.40
557.16	28318.14
557.32	28474.96
557.49	28556.88
557.65	27983.44
557.82	28456.23
557.98	28226.86
558.15	28477.30
558.32	28547.51
558.48	28638.80
558.65	28786.25
558.81	27969.40
558.98	28879.87
559.14	28292.40
559.31	28556.88
559.47	28357.93
559.64	28596.67
559.80	28451.55
559.97	28744.12
560.13	28697.31
560.30	28893.91
560.46	28746.46
560.63	28322.82
560.79	28582.62
560.96	29034.35
561.12	28599.01
561.29	28673.90
561.45	28694.97
561.61	28673.90
561.78	28903.28
561.94	29081.16
562.11	28589.64
562.27	28690.29
562.44	28706.67
562.60	29090.52
562.77	28657.52
562.93	28304.10
563.10	29385.43
563.26	28985.19
563.42	29268.40
563.59	28678.58
563.75	28940.72
563.92	28896.25
564.08	28788.59
564.24	29013.28
564.41	28788.59
564.57	28989.88
564.74	29041.37
564.90	29319.89
565.07	28975.83
565.23	29275.42
565.39	29436.92
565.56	29397.13
565.72	29010.94
565.88	29104.56
566.05	29170.10
566.21	29261.38
566.38	29219.25
566.54	29008.60
566.70	29509.47
566.87	29394.79
567.03	29266.06
567.19	29514.16
567.36	29055.41
567.52	29134.99
567.68	29200.52
567.85	29090.52
568.01	29586.71
568.17	28723.05
568.34	29439.26
568.50	29102.22
568.66	29486.07
568.83	29652.25
568.99	29198.18
569.15	29207.55
569.32	29813.74
569.48	29074.13
569.64	29193.50
569.81	29806.72
569.97	29118.60
570.13	29465.00
570.30	29642.88
570.46	29741.19
570.62	29570.33
570.78	29216.91
570.95	29149.03
571.11	29443.94
571.27	29055.41
571.43	29268.40
571.60	29048.39
571.76	29523.52
571.92	29551.60
572.09	29589.05
572.25	29565.65
572.41	29298.83
572.57	29443.94
572.74	29752.89
572.90	29820.77
573.06	29425.22
573.22	29420.53
573.38	29638.20
573.55	29113.92
573.71	30054.82
573.87	29228.61
574.03	29876.94
574.20	29755.23
574.36	29549.26
574.52	29834.81
574.68	29214.57
574.84	29685.01
575.01	29144.35
575.17	29516.50
575.33	29759.91
575.49	29591.39
575.65	29703.74
575.82	29586.71
575.98	29757.57
576.14	29556.28
576.30	29879.28
576.46	29572.67
576.62	29483.73
576.79	29584.37
576.95	29626.50
577.11	29156.05
577.27	29486.07
577.43	29930.77
577.59	29525.86
577.75	29528.20
577.92	29551.60
578.08	29495.43
578.24	29347.98
578.40	29813.74
578.56	29727.14
578.72	29649.91
578.88	29804.38
579.04	29951.84
579.21	29565.65
579.37	29818.42
579.53	29783.32
579.69	29294.14
579.85	29610.12
580.01	29776.30
580.17	29460.32
580.33	29326.91
580.49	29862.90
580.65	30008.01
580.82	29869.92
580.98	30012.69
581.14	29806.72
581.30	29879.28
581.46	29614.80
581.62	29778.64
581.78	29443.94
581.94	29766.93
582.10	29434.58
582.26	29916.73
582.42	29713.10
582.58	30043.12
582.74	29708.42
582.90	30101.63
583.06	29876.94
583.22	29507.13
583.38	29757.57
583.54	29560.97
583.70	30019.71
583.86	30015.03
584.02	29790.34
584.18	30106.31
584.34	30000.99
584.50	29989.28
584.66	30068.86
584.82	29268.40
584.98	30066.52
585.14	29748.21
585.30	29509.47
585.46	29656.93
585.62	29806.72
585.78	29830.13
585.94	29589.05
586.10	29825.45
586.26	29607.78
586.42	29795.02
586.58	29853.53
586.74	30036.09
586.90	29750.55
587.06	29612.46
587.22	30288.87
587.38	30181.21
587.54	29860.55
587.70	30218.66
587.86	29865.24
588.02	30377.81
588.18	30534.63
588.34	29956.52
588.49	29991.62
588.65	29834.81
588.81	29706.08
588.97	29682.67
589.13	29722.46
589.29	29853.53
589.45	30286.53
589.61	30260.79
589.77	30249.08
589.93	30422.28
590.08	30309.94
590.24	30302.92
590.40	30029.07
590.56	30462.07
590.72	30103.97
590.88	30195.25
591.04	30010.35
591.20	30408.24
591.35	30270.15
591.51	30431.65
591.67	30078.22
591.83	30614.21
591.99	30223.34
