SpectraSuite Data File
++++++++++++++++++++++++++++++++++++
Date: Fri Oct 18 13:58:43 GMT-05:00 2013
User: bianchi
Dark Spectrum Present: No
Reference Spectrum Present: No
Number of Sampled Component Spectra: 1
Spectrometers: USB2+H05261
Integration Time (usec): 50000 (USB2+H05261)
Spectra Averaged: 1 (USB2+H05261)
Boxcar Smoothing: 0 (USB2+H05261)
Correct for Electrical Dark: No (USB2+H05261)
Strobe/Lamp Enabled: No (USB2+H05261)
Correct for Detector Non-linearity: No (USB2+H05261)
Correct for Stray Light: No (USB2+H05261)
Number of Pixels in Processed Spectrum: 2048
>>>>>Begin Processed Spectral Data<<<<<
365.73	0.00
365.92	0.00
366.12	0.00
366.32	0.00
366.52	0.00
366.72	0.00
366.91	0.00
367.11	0.00
367.31	0.00
367.51	0.00
367.70	0.00
367.90	0.00
368.10	0.00
368.30	0.00
368.49	0.00
368.69	0.00
368.89	0.00
369.09	0.00
369.28	0.00
369.48	0.00
369.68	0.00
369.87	0.00
370.07	0.00
370.27	0.00
370.47	0.00
370.66	63.19
370.86	126.39
371.06	145.11
371.25	63.19
371.45	138.09
371.65	145.11
371.84	128.73
372.04	184.90
372.24	191.92
372.44	168.52
372.63	140.43
372.83	163.84
373.03	224.69
373.22	252.78
373.42	222.35
373.62	208.31
373.81	212.99
374.01	142.77
374.21	278.52
374.40	248.10
374.60	227.03
374.79	269.16
374.99	248.10
375.19	294.91
375.38	250.44
375.58	264.48
375.78	315.97
375.97	255.12
376.17	327.68
376.37	278.52
376.56	313.63
376.76	187.24
376.95	280.86
377.15	217.67
377.35	248.10
377.54	320.65
377.74	264.48
377.93	290.23
378.13	355.76
378.33	280.86
378.52	259.80
378.72	290.23
378.91	276.18
379.11	273.84
379.31	217.67
379.50	264.48
379.70	353.42
379.89	337.04
380.09	308.95
380.28	397.89
380.48	344.06
380.68	341.72
380.87	238.73
381.07	266.82
381.26	294.91
381.46	397.89
381.65	269.16
381.85	367.46
382.04	332.36
382.24	320.65
382.43	374.49
382.63	374.49
382.83	294.91
383.02	344.06
383.22	355.76
383.41	278.52
383.61	372.15
383.80	353.42
384.00	355.76
384.19	409.59
384.39	332.36
384.58	383.85
384.78	395.55
384.97	418.96
385.17	465.77
385.36	449.38
385.56	421.30
385.75	430.66
385.95	360.44
386.14	404.91
386.34	351.08
386.53	381.51
386.72	416.62
386.92	414.27
387.11	418.96
387.31	449.38
387.50	400.23
387.70	400.23
387.89	425.98
388.09	447.04
388.28	477.47
388.48	491.51
388.67	416.62
388.86	493.85
389.06	430.66
389.25	482.15
389.45	472.79
389.64	505.56
389.84	425.98
390.03	528.96
390.22	447.04
390.42	496.19
390.61	484.49
390.81	538.32
391.00	482.15
391.19	449.38
391.39	444.70
391.58	463.43
391.78	566.41
391.97	514.92
392.16	498.53
392.36	484.49
392.55	505.56
392.75	634.29
392.94	543.00
393.13	510.24
393.33	503.22
393.52	561.73
393.71	521.94
393.91	444.70
394.10	496.19
394.29	540.66
394.49	491.51
394.68	624.92
394.88	676.41
395.07	638.97
395.26	554.71
395.46	615.56
395.65	493.85
395.84	648.33
396.04	662.37
396.23	615.56
396.42	718.54
396.62	748.97
396.81	510.24
397.00	685.78
397.19	615.56
397.39	617.90
397.58	744.29
397.77	690.46
397.97	643.65
398.16	730.25
398.35	678.76
398.55	704.50
398.74	814.51
398.93	800.46
399.12	716.20
399.32	758.33
399.51	688.12
399.70	716.20
399.90	777.06
400.09	786.42
400.28	725.57
400.47	800.46
400.67	758.33
400.86	833.23
401.05	777.06
401.24	823.87
401.44	795.78
401.63	802.80
401.82	814.51
402.01	823.87
402.21	835.57
402.40	741.95
402.59	779.40
402.78	868.34
402.97	884.72
403.17	922.17
403.36	856.64
403.55	868.34
403.74	903.45
403.93	851.96
404.13	903.45
404.32	945.58
404.51	805.14
404.70	1034.52
404.89	917.49
405.09	945.58
405.28	964.30
405.47	1027.50
405.66	908.13
405.85	973.66
406.05	957.28
406.24	1048.56
406.43	964.30
406.62	950.26
406.81	1060.26
407.00	992.39
407.20	994.73
407.39	973.66
407.58	1039.20
407.77	971.32
407.96	992.39
408.15	1062.60
408.34	1109.41
408.54	1158.57
408.73	1137.50
408.92	1132.82
409.11	1128.14
409.30	1146.86
409.49	1172.61
409.68	1128.14
409.87	1118.78
410.07	1170.27
410.26	1167.93
410.45	1114.10
410.64	1090.69
410.83	1076.65
411.02	1336.45
411.21	1165.59
411.40	1261.55
411.59	1254.53
411.78	1252.19
411.98	1259.21
412.17	1338.79
412.36	1287.29
412.55	1245.16
412.74	1291.98
412.93	1315.38
413.12	1378.58
413.31	1467.52
413.50	1430.07
413.69	1284.95
413.88	1404.32
414.07	1394.96
414.26	1399.64
414.45	1495.60
414.64	1376.24
414.83	1600.93
415.02	1472.20
415.22	1397.30
415.41	1621.99
415.60	1514.33
415.79	1568.16
415.98	1568.16
416.17	1575.18
416.36	1472.20
416.55	1556.46
416.74	1666.46
416.93	1664.12
417.12	1636.03
417.31	1650.08
417.50	1668.80
417.69	1820.94
417.88	1757.74
418.07	1746.04
418.26	1689.87
418.45	1757.74
418.64	1872.43
418.83	1788.17
419.02	1799.87
419.21	1809.23
419.39	1832.64
419.58	1825.62
419.77	1816.26
419.96	1811.57
420.15	1771.79
420.34	1825.62
420.53	1755.40
420.72	1783.49
420.91	1930.94
421.10	1851.36
421.29	1877.11
421.48	1935.62
421.67	1907.54
421.86	1970.73
422.05	2015.20
422.24	1998.82
422.43	1916.90
422.61	1909.88
422.80	2148.61
422.99	2080.74
423.18	2087.76
423.37	1989.46
423.56	1874.77
423.75	1952.01
423.94	1944.99
424.13	1851.36
424.32	1926.26
424.50	2038.61
424.69	2076.06
424.88	2122.87
425.07	1991.80
425.26	2083.08
425.45	1996.48
425.64	1952.01
425.83	2066.69
426.01	2064.35
426.20	2024.56
426.39	1968.39
426.58	1998.82
426.77	1968.39
426.96	2118.18
427.15	2064.35
427.33	2176.70
427.52	2076.06
427.71	2169.68
427.90	2066.69
428.09	2204.78
428.28	2090.10
428.46	2153.29
428.65	2272.66
428.84	2356.92
429.03	2127.55
429.22	2118.18
429.40	2289.04
429.59	2200.10
429.78	2071.37
429.97	2099.46
430.16	2275.00
430.34	2335.85
430.53	2352.24
430.72	2303.09
430.91	2244.57
431.10	2246.91
431.28	2415.43
431.47	2221.17
431.66	2249.25
431.85	2321.81
432.03	2331.17
432.22	2420.11
432.41	2441.18
432.60	2410.75
432.79	2436.50
432.97	2347.56
433.16	2438.84
433.35	2448.20
433.54	2516.08
433.72	2602.68
433.91	2518.42
434.10	2520.76
434.28	2471.61
434.47	2626.08
434.66	2661.19
434.85	2651.83
435.03	2483.31
435.22	2473.95
435.41	2733.75
435.59	2684.59
435.78	2607.36
435.97	2635.44
436.16	2597.99
436.34	2600.34
436.53	2693.96
436.72	2672.89
436.90	2649.49
437.09	2679.91
437.28	2679.91
437.46	2675.23
437.65	2717.36
437.84	2726.72
438.02	2792.26
438.21	2710.34
438.40	2724.38
438.58	2864.82
438.77	2803.96
438.96	2803.96
439.14	2836.73
439.33	2949.08
439.52	2895.24
439.70	2939.71
439.89	2942.05
440.08	3042.70
440.26	2909.29
440.45	2925.67
440.63	3030.99
440.82	3157.38
441.01	3091.85
441.19	3061.42
441.38	3155.04
441.57	3063.76
441.75	3129.30
441.94	3213.56
442.12	3290.79
442.31	3382.07
442.50	3307.18
442.68	3199.51
442.87	3297.81
443.05	3311.86
443.24	3307.18
443.43	3316.54
443.61	3358.67
443.80	3501.44
443.98	3279.09
444.17	3171.43
444.35	3321.22
444.54	3599.74
444.73	3353.99
444.91	3361.01
445.10	3265.05
445.28	3267.39
445.47	3290.79
445.65	3417.18
445.84	3389.10
446.02	3529.53
446.21	3344.63
446.39	3323.56
446.58	3438.25
446.77	3379.73
446.95	3517.83
447.14	3461.65
447.32	3562.30
447.51	3454.63
447.69	3510.80
447.88	3545.91
448.06	3655.92
448.25	3566.98
448.43	3398.46
448.62	3499.10
448.80	3489.74
448.99	3557.61
449.17	3552.93
449.36	3595.06
449.54	3613.79
449.73	3747.20
449.91	3665.28
450.10	3684.00
450.28	3574.00
450.46	3719.11
450.65	3688.68
450.83	3747.20
451.02	3801.03
451.20	3817.41
451.39	3894.65
451.57	3705.07
451.76	3712.09
451.94	3817.41
452.13	3819.75
452.31	3859.54
452.49	3761.24
452.68	3730.81
452.86	3868.91
453.05	3810.39
453.23	3894.65
453.42	3707.41
453.60	3899.33
453.78	3826.78
453.97	3885.29
454.15	3992.95
454.34	3889.97
454.52	4037.42
454.70	3941.46
454.89	3999.98
455.07	3983.59
455.26	3946.14
455.44	4070.19
455.62	4042.11
455.81	4086.58
455.99	4105.30
456.17	4077.21
456.36	4067.85
456.54	4175.52
456.73	4243.39
456.91	4271.48
457.09	4163.81
457.28	4334.67
457.46	4219.99
457.64	4304.25
457.83	4257.43
458.01	4217.65
458.19	4297.22
458.38	4390.84
458.56	4550.00
458.74	4374.46
458.93	4264.46
459.11	4503.19
459.29	4409.57
459.48	4358.08
459.66	4435.32
459.84	4479.79
460.03	4657.67
460.21	4521.92
460.39	4491.49
460.57	4582.77
460.76	4617.88
460.94	4582.77
461.12	4557.02
461.31	4669.37
461.49	4641.28
461.67	4585.11
461.85	4727.88
462.04	4526.60
462.22	4652.98
462.40	4652.98
462.59	4702.14
462.77	4711.50
462.95	4798.10
463.13	4753.63
463.32	4753.63
463.50	4882.36
463.68	4807.46
463.86	4849.59
464.05	4800.44
464.23	4812.14
464.41	4760.65
464.59	4786.40
464.78	4973.64
464.96	4781.71
465.14	4959.60
465.32	5064.92
465.50	5008.75
465.69	4980.66
465.87	4926.83
466.05	4983.00
466.23	5069.60
466.41	5146.84
466.60	5137.48
466.78	4880.02
466.96	4875.34
467.14	5013.43
467.32	4985.34
467.51	5088.32
467.69	4919.81
467.87	5125.77
468.05	5097.69
468.23	5116.41
468.41	5055.56
468.60	5298.97
468.78	5191.31
468.96	5158.54
469.14	5153.86
469.32	5322.38
469.50	5100.03
469.69	5472.17
469.87	5275.57
470.05	5479.19
470.23	5427.70
470.41	5500.26
470.59	5474.51
470.77	5401.96
470.95	5380.89
471.14	5713.25
471.32	5472.17
471.50	5502.60
471.68	5490.90
471.86	5565.79
472.04	5722.61
472.22	5856.02
472.40	5441.75
472.58	5717.93
472.77	5849.00
472.95	5771.76
473.13	6087.73
473.31	5650.05
473.49	5839.64
473.67	5816.23
473.85	5858.36
474.03	6108.80
474.21	5895.81
474.39	6125.18
474.57	6078.37
474.75	6150.93
474.93	6214.12
475.12	6148.59
475.30	6157.95
475.48	6134.54
475.66	6211.78
475.84	6139.23
476.02	6286.68
476.20	6291.36
476.38	6473.92
476.56	6569.88
476.74	6487.96
476.92	6366.26
477.10	6569.88
477.28	6640.10
477.46	6434.13
477.64	6614.35
477.82	6743.08
478.00	6846.07
478.18	6829.68
478.36	6937.35
478.54	7080.12
478.72	6972.46
478.90	7052.03
479.08	7087.14
479.26	7105.87
479.44	7169.06
479.62	7248.64
479.80	7314.17
479.98	7428.86
480.16	7592.70
480.34	7344.60
480.52	7620.78
480.70	7655.89
480.88	7541.21
481.06	7609.08
481.24	7700.36
481.41	7658.23
481.59	7878.24
481.77	7922.71
481.95	7850.16
482.13	8067.83
482.31	7999.95
482.49	8203.58
482.67	8245.71
482.85	8276.13
483.03	8283.16
483.21	8505.51
483.39	8500.83
483.57	8451.67
483.74	8596.79
483.92	8725.52
484.10	8521.89
484.28	8879.99
484.46	8950.21
484.64	9088.30
484.82	9006.38
485.00	8847.22
485.18	9259.16
485.35	9259.16
485.53	9224.05
485.71	9420.66
485.89	9446.40
486.07	9476.83
486.25	9488.53
486.43	9504.92
486.61	9628.96
486.78	9806.84
486.96	9923.87
487.14	9980.04
487.32	9830.25
487.50	10256.23
487.68	10052.60
487.85	10286.65
488.03	10396.66
488.21	10462.19
488.39	10562.84
488.57	10548.79
488.75	10614.33
488.92	10951.37
489.10	10857.75
489.28	10773.49
489.46	10974.77
489.64	11101.16
489.81	11194.78
489.99	11260.32
490.17	11311.81
490.35	11393.73
490.53	11459.26
490.70	11555.22
490.88	11417.13
491.06	11616.08
491.24	11492.03
491.41	11705.02
491.59	11887.58
491.77	11866.52
491.95	11688.64
492.13	11941.41
492.30	12255.04
492.48	12259.73
492.66	12142.70
492.84	12343.99
493.01	12336.96
493.19	12723.15
493.37	12709.11
493.54	12842.52
493.72	12788.69
493.90	12753.58
494.08	13095.30
494.25	12798.05
494.43	13118.70
494.61	13301.26
494.79	13289.56
494.96	13266.16
495.14	13334.03
495.32	13371.48
495.49	13521.27
495.67	13259.13
495.85	13530.64
496.02	13628.94
496.20	13914.48
496.38	13891.08
496.55	14003.43
496.73	14026.83
496.91	14024.49
497.09	14075.98
497.26	14111.09
497.44	14452.81
497.62	14396.64
497.79	14480.89
497.97	14090.02
498.14	14782.82
498.32	14796.87
498.50	14490.26
498.67	15089.43
498.85	14850.70
499.03	14899.85
499.20	14960.70
499.38	15187.74
499.56	15059.01
499.73	15091.77
499.91	15318.81
500.08	15438.17
500.26	15040.28
500.44	15625.42
500.61	15204.12
500.79	15304.76
500.97	15651.16
501.14	15777.55
501.32	15548.18
501.49	15726.06
501.67	15688.61
501.84	15939.05
502.02	15810.32
502.20	16109.91
502.37	15878.19
502.55	15903.94
502.72	16095.86
502.90	15946.07
503.07	16063.10
503.25	15999.90
503.43	16475.03
503.60	16446.94
503.78	16236.30
503.95	16709.08
504.13	16695.04
504.30	16266.72
504.48	16372.05
504.65	16599.08
504.83	16699.72
505.01	16980.59
505.18	16980.59
505.36	16982.93
505.53	16779.30
505.71	16765.26
505.88	17198.26
506.06	16994.63
506.23	17373.80
506.41	17231.02
506.58	17334.01
506.76	17373.80
506.93	17439.33
507.11	17303.58
507.28	17518.91
507.46	17467.42
507.63	17568.06
507.81	17748.28
507.98	17465.08
508.16	17659.34
508.33	17661.68
508.50	17666.36
508.68	18017.44
508.85	18176.60
509.03	17774.03
509.20	17921.48
509.38	18338.10
509.55	18080.64
509.73	18459.81
509.90	18448.10
510.08	18164.90
510.25	17891.06
510.42	18291.29
510.60	18546.40
510.77	18520.66
510.95	18483.21
511.12	18679.82
511.30	18548.75
511.47	18492.57
511.64	18651.73
511.82	18911.53
511.99	18937.27
512.17	18813.23
512.34	18995.79
512.51	18815.57
512.69	19389.00
512.86	18995.79
513.04	19021.53
513.21	19344.53
513.38	19386.66
513.56	19515.39
513.73	19014.51
513.90	19253.25
514.08	19150.26
514.25	19754.12
514.43	19604.33
514.60	19960.09
514.77	19454.53
514.95	19843.06
515.12	19711.99
515.29	19653.48
515.47	19620.71
515.64	19831.36
515.81	20051.37
515.99	20032.65
516.16	20170.74
516.33	19894.55
516.51	20582.67
516.68	20198.82
516.85	20039.67
517.03	20465.64
517.20	20393.09
517.37	20212.87
517.54	20400.11
517.72	20549.90
517.89	20652.89
518.06	20409.47
518.24	20311.17
518.41	20594.37
518.58	20748.85
518.75	20549.90
518.93	20861.19
519.10	20542.88
519.27	20865.88
519.45	20924.39
519.62	20683.31
519.79	20788.64
519.96	20987.58
520.14	20725.44
520.31	21081.21
520.48	21153.76
520.65	21252.06
520.83	21322.28
521.00	21055.46
521.17	21521.23
521.34	21432.29
521.52	21359.73
521.69	21563.36
521.86	21563.36
522.03	21668.68
522.20	21818.47
522.38	21642.93
522.55	21647.61
522.72	21687.40
522.89	21825.50
523.07	21895.71
523.24	21984.65
523.41	22054.87
523.58	21846.56
523.75	22045.51
523.92	21706.13
524.10	22050.19
524.27	21855.92
524.44	22148.49
524.61	22321.69
524.78	22298.28
524.96	22132.11
525.13	22309.99
525.30	22340.41
525.47	22169.55
525.64	22663.41
525.81	22614.26
525.98	22450.42
526.16	22724.26
526.33	22558.08
526.50	22890.44
526.67	22511.27
526.84	22740.64
527.01	22331.05
527.18	22899.80
527.36	23065.98
527.53	23044.91
527.70	23035.55
527.87	23138.54
528.04	23009.81
528.21	23063.64
528.38	22918.53
528.55	23351.52
528.72	23302.37
528.89	22904.48
529.07	23419.40
529.24	23166.62
529.41	23435.78
529.58	23152.58
529.75	23597.28
529.92	23583.24
530.09	23417.06
530.26	23318.76
530.43	23445.15
530.60	23295.35
530.77	23370.25
530.94	23466.21
531.11	23627.71
531.28	23777.50
531.46	23651.11
531.63	23917.93
531.80	23690.90
531.97	24259.65
532.14	24294.76
532.31	23946.02
532.48	23819.63
532.65	24135.60
532.82	23772.82
532.99	24222.20
533.16	24126.24
533.33	24306.46
533.50	24219.86
533.67	24425.83
533.84	23927.30
534.01	24336.89
534.18	23901.55
534.35	24388.38
534.52	23955.38
534.69	24350.93
534.86	24266.67
535.03	24372.00
535.20	24524.13
535.37	24477.32
535.54	24432.85
535.71	24474.98
535.88	24442.21
536.05	24865.85
536.22	24613.07
536.38	24830.74
536.55	24596.69
536.72	25153.74
536.89	24931.39
537.06	24912.66
537.23	24779.25
537.40	25017.99
537.57	24823.72
537.74	25249.70
537.91	25319.92
538.08	25097.56
538.25	24556.90
538.42	25268.42
538.59	25135.01
538.75	25050.75
538.92	25144.38
539.09	25177.14
539.26	25064.80
539.43	25277.79
539.60	25605.46
539.77	25242.68
539.94	25350.34
540.11	25132.67
540.28	25090.54
540.44	25193.53
540.61	25163.10
540.78	25174.80
540.95	25500.14
541.12	25710.78
541.29	25146.72
541.46	25298.85
541.62	25582.06
541.79	25448.64
541.96	25441.62
542.13	25598.44
542.30	26040.80
542.47	26188.25
542.63	25991.65
542.80	25991.65
542.97	26235.06
543.14	26291.24
543.31	26064.21
543.48	26066.55
543.64	26387.20
543.81	26412.95
543.98	26525.29
544.15	26623.59
544.32	26092.29
544.48	26785.09
544.65	26338.05
544.82	26178.89
544.99	25818.45
545.16	26265.49
545.32	26206.98
545.49	26588.49
545.66	26705.51
545.83	26665.72
546.00	26705.51
546.16	26628.27
546.33	26457.42
546.50	26089.95
546.67	26483.16
546.83	26167.19
547.00	26422.31
547.17	26742.96
547.34	26590.83
547.50	27108.08
547.67	27016.80
547.84	26590.83
548.00	26761.69
548.17	27119.79
548.34	27042.55
548.51	27360.86
548.67	27269.58
548.84	27166.60
549.01	26682.11
549.18	27112.77
549.34	27194.68
549.51	27145.53
549.68	27292.99
549.84	27159.58
550.01	27026.17
550.18	27384.27
550.34	27414.69
550.51	27030.85
550.68	27651.09
550.84	27260.22
551.01	27630.02
551.18	27033.19
551.34	27171.28
551.51	27089.36
551.68	27267.24
551.84	27534.06
552.01	27777.48
552.18	27623.00
552.34	27309.37
552.51	27625.34
552.68	27491.93
552.84	27880.46
553.01	27311.71
553.18	27639.39
553.34	27915.57
553.51	27447.46
553.67	27725.99
553.84	28086.43
554.01	27786.84
554.17	28114.52
554.34	27700.24
554.51	27435.76
554.67	27639.39
554.84	27831.31
555.00	27585.55
555.17	27817.27
555.33	28056.00
555.50	27639.39
555.67	27819.61
555.83	27938.97
556.00	28250.27
556.16	28430.49
556.33	28512.41
556.50	28086.43
556.66	28313.46
556.83	27967.06
556.99	28559.22
557.16	28156.64
557.32	28411.76
557.49	28402.40
557.65	28140.26
557.82	28205.80
557.98	28299.42
558.15	28512.41
558.32	28671.56
558.48	28210.48
558.65	28744.12
558.81	28353.25
558.98	28348.57
559.14	28217.50
559.31	28137.92
559.47	28215.16
559.64	28226.86
559.80	28437.51
559.97	28907.96
560.13	28524.11
560.30	28699.65
560.46	28809.65
560.63	28446.87
560.79	28322.82
560.96	28716.03
561.12	28622.41
561.29	28854.12
561.45	28086.43
561.61	28561.56
561.78	28727.74
561.94	28697.31
562.11	28858.81
562.27	28762.84
562.44	28591.98
562.60	28631.77
562.77	28882.21
562.93	28573.26
563.10	28943.06
563.26	28744.12
563.42	28896.25
563.59	28662.20
563.75	28795.61
563.92	28683.27
564.08	28875.19
564.24	28416.44
564.41	28685.61
564.57	28842.42
564.74	28891.57
564.90	29252.02
565.07	29003.92
565.23	28856.46
565.39	28655.18
565.56	28828.38
565.72	29270.74
565.88	28940.72
566.05	28704.33
566.21	28858.81
566.38	29139.67
566.54	28936.04
566.70	29397.13
566.87	29163.08
567.03	29230.95
567.19	29502.45
567.36	29174.78
567.52	28940.72
567.68	28842.42
567.85	28816.68
568.01	29003.92
568.17	29404.15
568.34	29076.48
568.50	29118.60
568.66	29174.78
568.83	29429.90
568.99	29085.84
569.15	29256.70
569.32	29436.92
569.48	29050.73
569.64	29109.24
569.81	29453.30
569.97	29298.83
570.13	29380.74
570.30	28575.60
570.46	29371.38
570.62	29504.79
570.78	29170.10
570.95	29055.41
571.11	29261.38
571.27	29036.69
571.43	28779.23
571.60	29207.55
571.76	29319.89
571.92	29514.16
572.09	29591.39
572.25	29607.78
572.41	29074.13
572.57	29352.66
572.74	29465.00
572.90	29373.72
573.06	29247.33
573.22	29378.40
573.38	29401.81
573.55	29633.52
573.71	29511.81
573.87	29745.87
574.03	29244.99
574.20	29385.43
574.36	29567.99
574.52	29282.44
574.68	29214.57
574.84	29209.89
575.01	29703.74
575.17	29181.80
575.33	29507.13
575.49	29649.91
575.65	29584.37
575.82	29525.86
575.98	29511.81
576.14	29596.07
576.30	29699.06
576.46	29563.31
576.62	29472.03
576.79	29305.85
576.95	29408.83
577.11	29958.86
577.27	29546.92
577.43	29692.04
577.59	30080.56
577.75	29766.93
577.92	29617.14
578.08	29663.95
578.24	29638.20
578.40	29441.60
578.56	29457.98
578.72	29766.93
578.88	30120.35
579.04	29710.76
579.21	29656.93
579.37	29858.21
579.53	29638.20
579.69	29167.76
579.85	29869.92
580.01	29713.10
580.17	29362.02
580.33	29308.19
580.49	29649.91
580.65	29703.74
580.82	29762.25
580.98	29780.98
581.14	29551.60
581.30	29876.94
581.46	29874.60
581.62	29462.66
581.78	29497.77
581.94	29666.29
582.10	29481.39
582.26	29902.68
582.42	29453.30
582.58	30309.94
582.74	29652.25
582.90	29729.48
583.06	29855.87
583.22	29495.43
583.38	29446.28
583.54	29804.38
583.70	29488.41
583.86	29479.05
584.02	29694.38
584.18	30101.63
584.34	29776.30
584.50	30029.07
584.66	29610.12
584.82	29647.57
584.98	29823.11
585.14	29895.66
585.30	29610.12
585.46	30054.82
585.62	29780.98
585.78	29663.95
585.94	29380.74
586.10	30188.23
586.26	30050.14
586.42	30162.48
586.58	29724.80
586.74	29406.49
586.90	29621.82
587.06	29748.21
587.22	29958.86
587.38	29406.49
587.54	29846.51
587.70	30345.05
587.86	29972.90
588.02	30284.19
588.18	30469.09
588.34	29729.48
588.49	30279.51
588.65	29935.45
588.81	29694.38
588.97	29951.84
589.13	29963.54
589.29	29869.92
589.45	29858.21
589.61	30125.04
589.77	30113.33
589.93	30059.50
590.08	30235.04
590.24	30080.56
590.40	30466.75
590.56	30092.27
590.72	30019.71
590.88	29961.20
591.04	29582.03
591.20	30008.01
591.35	30539.31
591.51	30291.21
591.67	30071.20
591.83	30281.85
591.99	30223.34
