SpectraSuite Data File
++++++++++++++++++++++++++++++++++++
Date: Fri Oct 18 13:58:27 GMT-05:00 2013
User: bianchi
Dark Spectrum Present: No
Reference Spectrum Present: No
Number of Sampled Component Spectra: 1
Spectrometers: USB2+H05261
Integration Time (usec): 50000 (USB2+H05261)
Spectra Averaged: 1 (USB2+H05261)
Boxcar Smoothing: 0 (USB2+H05261)
Correct for Electrical Dark: No (USB2+H05261)
Strobe/Lamp Enabled: No (USB2+H05261)
Correct for Detector Non-linearity: No (USB2+H05261)
Correct for Stray Light: No (USB2+H05261)
Number of Pixels in Processed Spectrum: 2048
>>>>>Begin Processed Spectral Data<<<<<
365.73	0.00
365.92	0.00
366.12	0.00
366.32	0.00
366.52	0.00
366.72	0.00
366.91	0.00
367.11	0.00
367.31	0.00
367.51	0.00
367.70	0.00
367.90	0.00
368.10	0.00
368.30	0.00
368.49	0.00
368.69	0.00
368.89	0.00
369.09	0.00
369.28	0.00
369.48	0.00
369.68	0.00
369.87	0.00
370.07	0.00
370.27	0.00
370.47	0.00
370.66	98.30
370.86	124.05
371.06	140.43
371.25	112.35
371.45	131.07
371.65	72.56
371.84	142.77
372.04	168.52
372.24	147.45
372.44	208.31
372.63	203.63
372.83	191.92
373.03	168.52
373.22	241.08
373.42	196.60
373.62	276.18
373.81	280.86
374.01	252.78
374.21	145.11
374.40	259.80
374.60	201.29
374.79	227.03
374.99	266.82
375.19	278.52
375.38	280.86
375.58	170.86
375.78	201.29
375.97	187.24
376.17	334.70
376.37	255.12
376.56	259.80
376.76	257.46
376.95	250.44
377.15	227.03
377.35	276.18
377.54	280.86
377.74	297.25
377.93	306.61
378.13	255.12
378.33	262.14
378.52	318.31
378.72	238.73
378.91	304.27
379.11	313.63
379.31	255.12
379.50	287.89
379.70	276.18
379.89	243.42
380.09	311.29
380.28	360.44
380.48	397.89
380.68	346.40
380.87	231.71
381.07	348.74
381.26	351.08
381.46	360.44
381.65	252.78
381.85	339.38
382.04	315.97
382.24	280.86
382.43	353.42
382.63	330.02
382.83	341.72
383.02	287.89
383.22	287.89
383.41	362.78
383.61	330.02
383.80	358.10
384.00	369.80
384.19	395.55
384.39	278.52
384.58	393.21
384.78	292.57
384.97	337.04
385.17	414.27
385.36	407.25
385.56	301.93
385.75	395.55
385.95	390.87
386.14	484.49
386.34	437.68
386.53	416.62
386.72	301.93
386.92	346.40
387.11	444.70
387.31	484.49
387.50	390.87
387.70	376.83
387.89	463.43
388.09	437.68
388.28	355.76
388.48	390.87
388.67	447.04
388.86	358.10
389.06	449.38
389.25	428.32
389.45	531.30
389.64	433.00
389.84	477.47
390.03	484.49
390.22	435.34
390.42	444.70
390.61	484.49
390.81	411.93
391.00	507.90
391.19	491.51
391.39	484.49
391.58	491.51
391.78	458.74
391.97	463.43
392.16	458.74
392.36	505.56
392.55	507.90
392.75	451.72
392.94	519.60
393.13	566.41
393.33	594.50
393.52	578.11
393.71	589.82
393.91	566.41
394.10	514.92
394.29	550.03
394.49	540.66
394.68	622.58
394.88	578.11
395.07	559.39
395.26	550.03
395.46	660.03
395.65	641.31
395.84	653.01
396.04	674.07
396.23	676.41
396.42	629.60
396.62	638.97
396.81	613.22
397.00	660.03
397.19	671.73
397.39	648.33
397.58	599.18
397.77	711.52
397.97	592.16
398.16	610.88
398.35	617.90
398.55	706.84
398.74	802.80
398.93	732.59
399.12	655.35
399.32	631.94
399.51	704.50
399.70	772.38
399.90	741.95
400.09	727.91
400.28	718.54
400.47	683.44
400.67	798.12
400.86	737.27
401.05	767.70
401.24	720.88
401.44	791.10
401.63	786.42
401.82	760.67
402.01	791.10
402.21	861.32
402.40	805.14
402.59	851.96
402.78	870.68
402.97	835.57
403.17	812.17
403.36	805.14
403.55	786.42
403.74	915.15
403.93	945.58
404.13	791.10
404.32	987.71
404.51	896.43
404.70	863.66
404.89	901.11
405.09	924.51
405.28	964.30
405.47	819.19
405.66	992.39
405.85	945.58
406.05	1071.97
406.24	905.79
406.43	1011.11
406.62	1027.50
406.81	1034.52
407.00	983.02
407.20	947.92
407.39	1074.31
407.58	1067.28
407.77	1088.35
407.96	1071.97
408.15	1184.31
408.34	1041.54
408.54	1060.26
408.73	1111.75
408.92	1128.14
409.11	1104.73
409.30	1067.28
409.49	1156.22
409.68	1142.18
409.87	1170.27
410.07	1231.12
410.26	1109.41
410.45	1053.24
410.64	1261.55
410.83	1156.22
411.02	1142.18
411.21	1273.25
411.40	1137.50
411.59	1233.46
411.78	1296.66
411.98	1343.47
412.17	1306.02
412.36	1268.57
412.55	1282.61
412.74	1287.29
412.93	1270.91
413.12	1317.72
413.31	1460.49
413.50	1289.64
413.69	1392.62
413.88	1357.51
414.07	1423.05
414.26	1331.76
414.45	1420.71
414.64	1483.90
414.83	1434.75
415.02	1523.69
415.22	1533.05
415.41	1617.31
415.60	1549.43
415.79	1453.47
415.98	1523.69
416.17	1467.52
416.36	1570.50
416.55	1603.27
416.74	1666.46
416.93	1589.22
417.12	1685.19
417.31	1799.87
417.50	1710.93
417.69	1720.29
417.88	1717.95
418.07	1764.76
418.26	1720.29
418.45	1659.44
418.64	1834.98
418.83	1806.89
419.02	1767.10
419.21	1717.95
419.39	1827.96
419.58	1729.66
419.77	1799.87
419.96	1795.19
420.15	2008.18
420.34	1872.43
420.53	1851.36
420.72	1849.02
420.91	1937.96
421.10	1905.20
421.29	1956.69
421.48	1980.09
421.67	1973.07
421.86	1806.89
422.05	2040.95
422.24	1916.90
422.43	1994.14
422.61	1947.33
422.80	1998.82
422.99	1928.60
423.18	2132.23
423.37	2031.58
423.56	2033.93
423.75	1952.01
423.94	1959.03
424.13	1900.52
424.32	1816.26
424.50	1977.75
424.69	2057.33
424.88	2043.29
425.07	1947.33
425.26	1900.52
425.45	1961.37
425.64	2022.22
425.83	2062.01
426.01	2031.58
426.20	2101.80
426.39	2008.18
426.58	2078.40
426.77	2005.84
426.96	2022.22
427.15	2090.10
427.33	2066.69
427.52	2036.27
427.71	2111.16
427.90	2080.74
428.09	1996.48
428.28	2155.63
428.46	2312.45
428.65	2172.02
428.84	2218.83
429.03	2265.64
429.22	2118.18
429.40	2190.74
429.59	2111.16
429.78	2148.61
429.97	2125.21
430.16	2106.48
430.34	2389.69
430.53	2270.32
430.72	2312.45
430.91	2176.70
431.10	2251.60
431.28	2303.09
431.47	2340.54
431.66	2466.92
431.85	2324.15
432.03	2347.56
432.22	2504.37
432.41	2338.20
432.60	2415.43
432.79	2403.73
432.97	2394.37
433.16	2420.11
433.35	2417.77
433.54	2424.80
433.72	2534.80
433.91	2485.65
434.10	2541.82
434.28	2504.37
434.47	2434.16
434.66	2602.68
434.85	2518.42
435.03	2499.69
435.22	2572.25
435.41	2612.04
435.59	2490.33
435.78	2506.71
435.97	2567.57
436.16	2649.49
436.34	2590.97
436.53	2562.89
436.72	2686.94
436.90	2602.68
437.09	2607.36
437.28	2609.70
437.46	2780.56
437.65	2801.62
437.84	2768.85
438.02	2733.75
438.21	2892.90
438.40	2918.65
438.58	2731.41
438.77	2913.97
438.96	2829.71
439.14	2827.37
439.33	2892.90
439.52	2918.65
439.70	2918.65
439.89	2913.97
440.08	3094.19
440.26	2935.03
440.45	3087.17
440.63	2892.90
440.82	3131.64
441.01	3080.14
441.19	3002.91
441.38	3218.24
441.57	3276.75
441.75	3281.43
441.94	3204.19
442.12	3269.73
442.31	3288.45
442.50	3272.07
442.68	3309.52
442.87	3417.18
443.05	3410.16
443.24	3375.05
443.43	3346.97
443.61	3459.31
443.80	3365.69
443.98	3541.23
444.17	3274.41
444.35	3328.24
444.54	3410.16
444.73	3445.27
444.91	3391.44
445.10	3459.31
445.28	3335.26
445.47	3288.45
445.65	3386.76
445.84	3466.33
446.02	3527.19
446.21	3375.05
446.39	3433.57
446.58	3307.18
446.77	3531.87
446.95	3442.93
447.14	3506.12
447.32	3473.36
447.51	3405.48
447.69	3426.54
447.88	3447.61
448.06	3513.14
448.25	3426.54
448.43	3609.11
448.62	3471.01
448.80	3534.21
448.99	3592.72
449.17	3517.83
449.36	3588.04
449.54	3616.13
449.73	3564.64
449.91	3702.73
450.10	3695.71
450.28	3779.97
450.46	3672.30
450.65	3733.15
450.83	3735.50
451.02	3709.75
451.20	3782.31
451.39	3646.55
451.57	3880.61
451.76	3667.62
451.94	3838.48
452.13	3784.65
452.31	3859.54
452.49	3864.22
452.68	3908.69
452.86	3843.16
453.05	3791.67
453.23	3971.89
453.42	3810.39
453.60	3728.47
453.78	3887.63
453.97	3908.69
454.15	3887.63
454.34	3920.40
454.52	3941.46
454.70	3950.82
454.89	3934.44
455.07	4002.32
455.26	3939.12
455.44	4023.38
455.62	4086.58
455.81	4016.36
455.99	4032.74
456.17	3929.76
456.36	4161.47
456.54	4060.83
456.73	4231.69
456.91	4259.78
457.09	4255.09
457.28	4271.48
457.46	4241.05
457.64	4337.01
457.83	4327.65
458.01	4348.72
458.19	4428.29
458.38	4418.93
458.56	4407.23
458.74	4184.88
458.93	4304.25
459.11	4329.99
459.29	4248.07
459.48	4358.08
459.66	4428.29
459.84	4414.25
460.03	4641.28
460.21	4449.36
460.39	4624.90
460.57	4475.10
460.76	4629.58
460.94	4519.57
461.12	4596.81
461.31	4627.24
461.49	4650.64
461.67	4608.51
461.85	4685.75
462.04	4793.42
462.22	4732.56
462.40	4638.94
462.59	4704.48
462.77	4674.05
462.95	4891.72
463.13	4751.29
463.32	4751.29
463.50	4774.69
463.68	4779.37
463.86	4816.82
464.05	4772.35
464.23	4667.03
464.41	4870.65
464.59	4727.88
464.78	4936.19
464.96	4828.53
465.14	4915.12
465.32	4873.00
465.50	4975.98
465.69	5025.13
465.87	4943.21
466.05	4875.34
466.23	4954.91
466.41	5018.11
466.60	5364.51
466.78	4849.59
466.96	4980.66
467.14	5013.43
467.32	5036.83
467.51	4938.53
467.69	5001.72
467.87	5062.58
468.05	5018.11
468.23	4884.70
468.41	5032.15
468.60	5160.88
468.78	5198.33
468.96	5214.71
469.14	5205.35
469.32	5167.90
469.50	5081.30
469.69	5397.28
469.87	5308.34
470.05	5404.30
470.23	5383.23
470.41	5338.76
470.59	5488.56
470.77	5322.38
470.95	5523.66
471.14	5621.97
471.32	5530.69
471.50	5572.82
471.68	5657.07
471.86	5694.52
472.04	5493.24
472.22	5692.18
472.40	5549.41
472.58	5575.16
472.77	5783.46
472.95	5430.04
473.13	5940.28
473.31	5713.25
473.49	5619.63
473.67	5776.44
473.85	5914.53
474.03	5951.98
474.21	5916.87
474.39	6022.20
474.57	5980.07
474.75	6054.97
474.93	6153.27
475.12	6071.35
475.30	6115.82
475.48	6129.86
475.66	6267.95
475.84	6183.70
476.02	6209.44
476.20	6347.53
476.38	6396.68
476.56	6413.07
476.74	6464.56
476.92	6534.78
477.10	6516.05
477.28	6609.67
477.46	6616.69
477.64	6757.13
477.82	6710.32
478.00	6951.39
478.18	6923.30
478.36	6902.24
478.54	7080.12
478.72	7131.61
478.90	7066.08
479.08	7059.06
479.26	7143.32
479.44	7117.57
479.62	7253.32
479.80	7330.56
479.98	7295.45
480.16	7487.37
480.34	7396.09
480.52	7456.95
480.70	7550.57
480.88	7517.80
481.06	7492.05
481.24	7702.70
481.41	7695.68
481.59	7840.79
481.77	7978.89
481.95	7922.71
482.13	8154.43
482.31	8039.74
482.49	8332.31
482.67	8255.07
482.85	8175.49
483.03	8557.00
483.21	8393.16
483.39	8580.40
483.57	8461.04
483.74	8709.13
483.92	8662.32
484.10	8348.69
484.28	8727.86
484.46	9027.45
484.64	9036.81
484.82	9067.24
485.00	8994.68
485.18	9252.14
485.35	9411.29
485.53	9434.70
485.71	9312.99
485.89	9542.36
486.07	9425.34
486.25	9298.95
486.43	9647.69
486.61	9610.24
486.78	9841.95
486.96	9937.91
487.14	9975.36
487.32	9898.13
487.50	9956.64
487.68	9991.75
487.85	10054.94
488.03	10370.91
488.21	10436.45
488.39	10513.69
488.57	10576.88
488.75	10558.16
488.92	10820.30
489.10	10913.92
489.28	10700.93
489.46	10986.47
489.64	10855.40
489.81	11087.12
489.99	11098.82
490.17	11318.83
490.35	11211.17
490.53	11367.98
490.70	11213.51
490.88	11466.28
491.06	11747.15
491.24	11534.16
491.41	11838.43
491.59	11719.06
491.77	12205.89
491.95	11953.12
492.13	12112.27
492.30	11831.41
492.48	11978.86
492.66	12205.89
492.84	12189.51
493.01	12315.90
493.19	12367.39
493.37	12564.00
493.54	12746.56
493.72	12713.79
493.90	12622.51
494.08	12723.15
494.25	12971.25
494.43	13025.08
494.61	12795.71
494.79	13015.72
494.96	13198.28
495.14	13097.64
495.32	13467.44
495.49	13575.11
495.67	13486.17
495.85	13633.62
496.02	13633.62
496.20	13678.09
496.38	13650.00
496.55	13809.16
496.73	14288.97
496.91	14267.91
497.09	14190.67
497.26	14033.85
497.44	14188.33
497.62	14050.24
497.79	14539.41
497.97	14548.77
498.14	14799.21
498.32	14714.95
498.50	14501.96
498.67	14635.37
498.85	14611.96
499.03	14714.95
499.20	14853.04
499.38	15005.17
499.56	15098.80
499.73	15037.94
499.91	15161.99
500.08	15555.20
500.26	15054.33
500.44	15372.64
500.61	15454.56
500.79	15468.60
500.97	15592.65
501.14	15800.96
501.32	15597.33
501.49	15679.25
501.67	15686.27
501.84	15679.25
502.02	15672.23
502.20	15929.69
502.37	16058.42
502.55	16016.29
502.72	16086.50
502.90	16016.29
503.07	16208.21
503.25	15822.02
503.43	16105.23
503.60	16528.86
503.78	16451.63
503.95	16334.60
504.13	16348.64
504.30	16353.32
504.48	16145.02
504.65	16758.24
504.83	16791.00
505.01	16856.54
505.18	16636.53
505.36	17149.11
505.53	16865.90
505.71	16856.54
505.88	16910.37
506.06	16938.46
506.23	17067.19
506.41	17114.00
506.58	17387.84
506.76	17242.73
506.93	17135.06
507.11	17137.40
507.28	17153.79
507.46	17326.99
507.63	17584.44
507.81	17525.93
507.98	17518.91
508.16	17659.34
508.33	17516.57
508.50	17460.40
508.68	17614.87
508.85	18008.08
509.03	17865.31
509.20	18029.15
509.38	18125.11
509.55	18104.04
509.73	18136.81
509.90	18101.70
510.08	17972.97
510.25	18291.29
510.42	18302.99
510.60	18420.02
510.77	18686.84
510.95	18412.99
511.12	18380.23
511.30	18469.17
511.47	18576.83
511.64	18607.26
511.82	18611.94
511.99	18714.92
512.17	19232.18
512.34	18640.03
512.51	18988.77
512.69	19012.17
512.86	19248.57
513.04	19225.16
513.21	19421.77
513.38	19124.52
513.56	19227.50
513.73	19262.61
513.90	19300.06
514.08	19248.57
514.25	19257.93
514.43	18988.77
514.60	19548.15
514.77	19590.28
514.95	19990.52
515.12	19721.35
515.29	19269.63
515.47	19917.96
515.64	20119.24
515.81	20004.56
515.99	19892.21
516.16	19882.85
516.33	19894.55
516.51	20091.16
516.68	19917.96
516.85	19768.16
517.03	20397.77
517.20	20257.34
517.37	20210.53
517.54	19999.88
517.72	20175.42
517.89	20369.68
518.06	20521.82
518.24	20472.67
518.41	20479.69
518.58	20503.09
518.75	20285.42
518.93	20620.12
519.10	20467.98
519.27	20727.78
519.45	20638.84
519.62	20659.91
519.79	20659.91
519.96	20599.05
520.14	20865.88
520.31	21106.95
520.48	21041.42
520.65	20971.20
520.83	21252.06
521.00	21081.21
521.17	21144.40
521.34	21048.44
521.52	21158.44
521.69	21406.54
521.86	21696.77
522.03	21514.20
522.20	21610.17
522.38	21818.47
522.55	21568.04
522.72	21661.66
522.89	21579.74
523.07	21783.37
523.24	21656.98
523.41	22071.25
523.58	21656.98
523.75	21991.67
523.92	21811.45
524.10	21902.73
524.27	22127.42
524.44	22094.66
524.61	22127.42
524.78	22284.24
524.96	22380.20
525.13	22052.53
525.30	22384.88
525.47	22494.89
525.64	22429.35
525.81	22616.60
525.98	22850.65
526.16	22656.39
526.33	22288.92
526.50	22707.88
526.67	22345.09
526.84	22539.36
527.01	22644.68
527.18	22651.70
527.36	22668.09
527.53	22693.83
527.70	23005.13
527.87	22820.22
528.04	23070.66
528.21	22890.44
528.38	22789.80
528.55	23016.83
528.72	23049.60
528.89	23096.41
529.07	23384.29
529.24	23264.92
529.41	23501.32
529.58	23269.61
529.75	23206.41
529.92	23068.32
530.09	23332.80
530.26	23335.14
530.43	23185.35
530.60	23506.00
530.77	23304.71
530.94	23536.43
531.11	23344.50
531.28	23463.87
531.46	23634.73
531.63	23576.22
531.80	23672.18
531.97	23765.80
532.14	23943.68
532.31	23508.34
532.48	24016.24
532.65	23997.51
532.82	23653.45
532.99	23967.09
533.16	23857.08
533.33	24011.56
533.50	24540.52
533.67	24091.13
533.84	23894.53
534.01	24278.38
534.18	24156.67
534.35	24212.84
534.52	24149.65
534.69	24545.20
534.86	24411.79
535.03	24105.18
535.20	24491.37
535.37	24269.01
535.54	24575.62
535.71	24222.20
535.88	24709.04
536.05	24259.65
536.22	24720.74
536.38	24577.97
536.55	24716.06
536.72	24713.72
536.89	24444.56
537.06	24648.18
537.23	24835.42
537.40	24842.45
537.57	24809.68
537.74	25127.99
537.91	24959.47
538.08	25025.01
538.25	24943.09
538.42	25090.54
538.59	24973.52
538.75	24765.21
538.92	25317.57
539.09	24755.85
539.26	25275.45
539.43	25242.68
539.60	25144.38
539.77	25261.40
539.94	25458.01
540.11	24933.73
540.28	25483.75
540.44	24943.09
540.61	25092.88
540.78	25511.84
540.95	25303.53
541.12	25460.35
541.29	25556.31
541.46	25404.17
541.62	25479.07
541.79	25383.11
541.96	25135.01
542.13	25600.78
542.30	25764.62
542.47	25764.62
542.63	25736.53
542.80	25914.41
542.97	26181.23
543.14	26155.49
543.31	25972.92
543.48	25813.77
543.64	26197.62
543.81	26347.41
543.98	26146.12
544.15	26265.49
544.32	26188.25
544.48	26389.54
544.65	26106.34
544.82	26497.20
544.99	26094.63
545.16	25961.22
545.32	26059.52
545.49	26422.31
545.66	26567.42
545.83	26539.33
546.00	26565.08
546.16	26707.85
546.33	26052.50
546.50	26010.37
546.67	26298.26
546.83	26197.62
547.00	26459.76
547.17	26450.39
547.34	26501.89
547.50	27033.19
547.67	27075.32
547.84	26813.18
548.00	26480.82
548.17	26644.66
548.34	26848.29
548.51	26579.12
548.67	27056.59
548.84	27080.00
549.01	26920.84
549.18	26855.31
549.34	26848.29
549.51	27058.93
549.68	27033.19
549.84	26813.18
550.01	26955.95
550.18	26789.77
550.34	26785.09
550.51	27323.41
550.68	27271.92
550.84	27082.34
551.01	27241.50
551.18	27267.24
551.34	26785.09
551.51	27199.37
551.68	27328.10
551.84	27358.52
552.01	27318.73
552.18	27779.82
552.34	26925.52
552.51	27367.88
552.68	27250.86
552.84	27351.50
553.01	27463.85
553.18	27108.08
553.34	27440.44
553.51	27395.97
553.67	27683.86
553.84	27854.72
554.01	27988.13
554.17	27690.88
554.34	27676.83
554.51	27639.39
554.67	27821.95
554.84	27513.00
555.00	27931.95
555.17	27988.13
555.33	28013.87
555.50	27667.47
555.67	27875.78
555.83	27398.31
556.00	27573.85
556.16	28182.39
556.33	28102.81
556.50	27686.20
556.66	28023.23
556.83	28151.96
556.99	28004.51
557.16	27770.46
557.32	28386.02
557.49	28308.78
557.65	27606.62
557.82	28189.41
557.98	27840.67
558.15	27983.44
558.32	27957.70
558.48	28163.67
558.65	28538.15
558.81	28257.29
558.98	28341.55
559.14	28123.88
559.31	28355.59
559.47	28264.31
559.64	28114.52
559.80	28030.26
559.97	28187.07
560.13	28393.04
560.30	28105.15
560.46	28666.88
560.63	28467.94
560.79	27957.70
560.96	28627.09
561.12	28297.08
561.29	28519.43
561.45	28432.83
561.61	28526.45
561.78	28720.71
561.94	28322.82
562.11	28767.52
562.27	28680.92
562.44	28596.67
562.60	28332.18
562.77	28517.09
562.93	28514.75
563.10	28739.44
563.26	28830.72
563.42	28493.68
563.59	28650.50
563.75	28826.04
563.92	28727.74
564.08	28514.75
564.24	28554.54
564.41	28512.41
564.57	28458.57
564.74	28446.87
564.90	28732.42
565.07	28472.62
565.23	28788.59
565.39	28893.91
565.56	28659.86
565.72	28484.32
565.88	29017.96
566.05	28631.77
566.21	28751.14
566.38	28329.84
566.54	28706.67
566.70	28776.89
566.87	29324.57
567.03	28634.11
567.19	29235.63
567.36	29359.68
567.52	28746.46
567.68	28952.43
567.85	28624.75
568.01	28847.10
568.17	28641.14
568.34	29235.63
568.50	29207.55
568.66	28907.96
568.83	29429.90
568.99	29158.39
569.15	29298.83
569.32	29158.39
569.48	28823.70
569.64	28870.51
569.81	28891.57
569.97	28896.25
570.13	29266.06
570.30	28943.06
570.46	28954.77
570.62	28926.68
570.78	29001.58
570.95	29078.82
571.11	28966.47
571.27	28893.91
571.43	29010.94
571.60	28940.72
571.76	29200.52
571.92	28996.90
572.09	29266.06
572.25	29261.38
572.41	29273.08
572.57	28912.64
572.74	29441.60
572.90	29184.14
573.06	29020.30
573.22	29123.29
573.38	29326.91
573.55	29111.58
573.71	29244.99
573.87	29455.64
574.03	29111.58
574.20	29191.16
574.36	29184.14
574.52	29252.02
574.68	29490.75
574.84	29303.51
575.01	29106.90
575.17	29589.05
575.33	29345.64
575.49	29252.02
575.65	29556.28
575.82	29343.30
575.98	28858.81
576.14	29422.87
576.30	29172.44
576.46	29322.23
576.62	29209.89
576.79	29556.28
576.95	29333.93
577.11	29624.16
577.27	29481.39
577.43	29811.40
577.59	29043.71
577.75	29591.39
577.92	28992.22
578.08	28833.06
578.24	29415.85
578.40	29254.36
578.56	29450.96
578.72	29392.45
578.88	29949.50
579.04	29266.06
579.21	29556.28
579.37	29343.30
579.53	29282.44
579.69	29167.76
579.85	29542.24
580.01	29514.16
580.17	29420.53
580.33	28985.19
580.49	29460.32
580.65	29642.88
580.82	29397.13
580.98	29436.92
581.14	29427.56
581.30	29488.41
581.46	29312.87
581.62	29502.45
581.78	29291.80
581.94	29572.67
582.10	29448.62
582.26	29064.77
582.42	29188.82
582.58	29741.19
582.74	29907.37
582.90	29387.77
583.06	29507.13
583.22	29465.00
583.38	29455.64
583.54	29638.20
583.70	29039.03
583.86	29345.64
584.02	29488.41
584.18	29752.89
584.34	29544.58
584.50	29462.66
584.66	29647.57
584.82	29312.87
584.98	29270.74
585.14	29266.06
585.30	29579.69
585.46	29567.99
585.62	29542.24
585.78	29816.08
585.94	29448.62
586.10	29507.13
586.26	29525.86
586.42	29741.19
586.58	29570.33
586.74	29436.92
586.90	29689.70
587.06	29497.77
587.22	29518.84
587.38	29649.91
587.54	29827.79
587.70	29832.47
587.86	29284.78
588.02	29457.98
588.18	29914.39
588.34	29855.87
588.49	29544.58
588.65	29207.55
588.81	29848.85
588.97	30080.56
589.13	29628.84
589.29	29837.15
589.45	29839.49
589.61	29813.74
589.77	29790.34
589.93	29944.81
590.08	30068.86
590.24	29928.43
590.40	30101.63
590.56	29802.04
590.72	29624.16
590.88	29490.75
591.04	29830.13
591.20	30422.28
591.35	30279.51
591.51	30384.83
591.67	30157.80
591.83	30033.75
591.99	29905.02
