SpectraSuite Data File
++++++++++++++++++++++++++++++++++++
Date: Fri Oct 18 13:58:22 GMT-05:00 2013
User: bianchi
Dark Spectrum Present: No
Reference Spectrum Present: No
Number of Sampled Component Spectra: 1
Spectrometers: USB2+H05261
Integration Time (usec): 50000 (USB2+H05261)
Spectra Averaged: 1 (USB2+H05261)
Boxcar Smoothing: 0 (USB2+H05261)
Correct for Electrical Dark: No (USB2+H05261)
Strobe/Lamp Enabled: No (USB2+H05261)
Correct for Detector Non-linearity: No (USB2+H05261)
Correct for Stray Light: No (USB2+H05261)
Number of Pixels in Processed Spectrum: 2048
>>>>>Begin Processed Spectral Data<<<<<
365.73	0.00
365.92	0.00
366.12	0.00
366.32	0.00
366.52	0.00
366.72	0.00
366.91	0.00
367.11	0.00
367.31	0.00
367.51	0.00
367.70	0.00
367.90	0.00
368.10	0.00
368.30	0.00
368.49	0.00
368.69	0.00
368.89	0.00
369.09	0.00
369.28	0.00
369.48	0.00
369.68	0.00
369.87	0.00
370.07	0.00
370.27	0.00
370.47	0.00
370.66	70.22
370.86	177.88
371.06	126.39
371.25	105.32
371.45	187.24
371.65	180.22
371.84	168.52
372.04	170.86
372.24	88.94
372.44	271.50
372.63	290.23
372.83	124.05
373.03	184.90
373.22	189.58
373.42	238.73
373.62	215.33
373.81	173.20
374.01	180.22
374.21	271.50
374.40	205.97
374.60	294.91
374.79	245.76
374.99	248.10
375.19	182.56
375.38	271.50
375.58	255.12
375.78	264.48
375.97	308.95
376.17	283.20
376.37	266.82
376.56	276.18
376.76	276.18
376.95	245.76
377.15	255.12
377.35	266.82
377.54	238.73
377.74	332.36
377.93	194.26
378.13	351.08
378.33	355.76
378.52	250.44
378.72	276.18
378.91	313.63
379.11	255.12
379.31	332.36
379.50	313.63
379.70	355.76
379.89	252.78
380.09	273.84
380.28	325.33
380.48	330.02
380.68	243.42
380.87	348.74
381.07	294.91
381.26	327.68
381.46	346.40
381.65	346.40
381.85	322.99
382.04	372.15
382.24	339.38
382.43	353.42
382.63	280.86
382.83	341.72
383.02	421.30
383.22	355.76
383.41	304.27
383.61	301.93
383.80	423.64
384.00	388.53
384.19	330.02
384.39	433.00
384.58	386.19
384.78	348.74
384.97	402.57
385.17	330.02
385.36	367.46
385.56	383.85
385.75	440.02
385.95	433.00
386.14	449.38
386.34	374.49
386.53	411.93
386.72	442.36
386.92	416.62
387.11	489.17
387.31	416.62
387.50	362.78
387.70	461.09
387.89	472.79
388.09	437.68
388.28	379.17
388.48	381.51
388.67	365.12
388.86	407.25
389.06	484.49
389.25	491.51
389.45	442.36
389.64	444.70
389.84	496.19
390.03	475.13
390.22	465.77
390.42	493.85
390.61	484.49
390.81	498.53
391.00	475.13
391.19	573.43
391.39	444.70
391.58	444.70
391.78	461.09
391.97	472.79
392.16	552.37
392.36	557.05
392.55	575.77
392.75	496.19
392.94	528.96
393.13	585.13
393.33	531.30
393.52	596.84
393.71	643.65
393.91	596.84
394.10	526.62
394.29	507.90
394.49	613.22
394.68	552.37
394.88	631.94
395.07	587.47
395.26	573.43
395.46	641.31
395.65	657.69
395.84	636.63
396.04	648.33
396.23	613.22
396.42	725.57
396.62	606.20
396.81	697.48
397.00	615.56
397.19	594.50
397.39	711.52
397.58	730.25
397.77	638.97
397.97	755.99
398.16	706.84
398.35	685.78
398.55	606.20
398.74	681.10
398.93	688.12
399.12	746.63
399.32	711.52
399.51	777.06
399.70	755.99
399.90	718.54
400.09	873.02
400.28	755.99
400.47	800.46
400.67	798.12
400.86	772.38
401.05	802.80
401.24	781.74
401.44	812.17
401.63	798.12
401.82	891.74
402.01	805.14
402.21	863.66
402.40	866.00
402.59	781.74
402.78	875.36
402.97	990.05
403.17	858.98
403.36	868.34
403.55	901.11
403.74	842.59
403.93	842.59
404.13	983.02
404.32	943.24
404.51	837.91
404.70	931.53
404.89	919.83
405.09	910.47
405.28	931.53
405.47	842.59
405.66	966.64
405.85	933.87
406.05	971.32
406.24	1008.77
406.43	976.00
406.62	1081.33
406.81	1130.48
407.00	1020.47
407.20	1025.15
407.39	1057.92
407.58	1036.86
407.77	1057.92
407.96	1008.77
408.15	1048.56
408.34	1104.73
408.54	1046.22
408.73	1097.71
408.92	1142.18
409.11	1102.39
409.30	1167.93
409.49	1158.57
409.68	1102.39
409.87	1128.14
410.07	1191.33
410.26	1132.82
410.45	1193.67
410.64	1212.40
410.83	1268.57
411.02	1207.72
411.21	1301.34
411.40	1310.70
411.59	1238.14
411.78	1228.78
411.98	1217.08
412.17	1345.81
412.36	1282.61
412.55	1420.71
412.74	1366.87
412.93	1306.02
413.12	1317.72
413.31	1383.26
413.50	1406.66
413.69	1378.58
413.88	1472.20
414.07	1481.56
414.26	1399.64
414.45	1399.64
414.64	1362.19
414.83	1423.05
415.02	1565.82
415.22	1621.99
415.41	1586.88
415.60	1577.52
415.79	1547.09
415.98	1598.59
416.17	1666.46
416.36	1572.84
416.55	1554.12
416.74	1629.01
416.93	1598.59
417.12	1640.72
417.31	1678.16
417.50	1607.95
417.69	1732.00
417.88	1689.87
418.07	1729.66
418.26	1764.76
418.45	1746.04
418.64	1767.10
418.83	1729.66
419.02	1692.21
419.21	1811.57
419.39	1813.92
419.58	1825.62
419.77	1914.56
419.96	1851.36
420.15	1860.73
420.34	1940.30
420.53	1785.83
420.72	1886.47
420.91	1872.43
421.10	1881.79
421.29	1959.03
421.48	1839.66
421.67	1888.81
421.86	1963.71
422.05	1893.49
422.24	1949.67
422.43	1874.77
422.61	2033.93
422.80	2005.84
422.99	1982.43
423.18	1991.80
423.37	1977.75
423.56	2036.27
423.75	2062.01
423.94	2008.18
424.13	1849.02
424.32	1844.34
424.50	2069.03
424.69	1905.20
424.88	1933.28
425.07	2031.58
425.26	1973.07
425.45	2104.14
425.64	1996.48
425.83	2033.93
426.01	2085.42
426.20	2078.40
426.39	1973.07
426.58	2054.99
426.77	2085.42
426.96	2188.40
427.15	2087.76
427.33	2237.55
427.52	2003.50
427.71	2122.87
427.90	2017.54
428.09	2134.57
428.28	2228.19
428.46	2251.60
428.65	2118.18
428.84	2179.04
429.03	2218.83
429.22	2193.08
429.40	2310.11
429.59	2237.55
429.78	2155.63
429.97	2183.72
430.16	2174.36
430.34	2167.34
430.53	2303.09
430.72	2340.54
430.91	2300.75
431.10	2246.91
431.28	2408.41
431.47	2291.38
431.66	2438.84
431.85	2289.04
432.03	2300.75
432.22	2492.67
432.41	2389.69
432.60	2492.67
432.79	2480.97
432.97	2392.03
433.16	2420.11
433.35	2319.47
433.54	2579.27
433.72	2504.37
433.91	2492.67
434.10	2436.50
434.28	2560.55
434.47	2487.99
434.66	2651.83
434.85	2633.10
435.03	2567.57
435.22	2637.78
435.41	2600.34
435.59	2551.18
435.78	2565.23
435.97	2633.10
436.16	2576.93
436.34	2698.64
436.53	2785.24
436.72	2754.81
436.90	2839.07
437.09	2698.64
437.28	2757.15
437.46	2649.49
437.65	2799.28
437.84	2799.28
438.02	2813.32
438.21	2949.08
438.40	2722.04
438.58	2857.79
438.77	2918.65
438.96	2897.58
439.14	2890.56
439.33	2857.79
439.52	2918.65
439.70	2998.23
439.89	2984.18
440.08	3077.80
440.26	3000.57
440.45	3080.14
440.63	2984.18
440.82	3157.38
441.01	3133.98
441.19	3112.91
441.38	3157.38
441.57	3197.17
441.75	3208.87
441.94	3325.90
442.12	3248.66
442.31	3412.50
442.50	3283.77
442.68	3307.18
442.87	3330.58
443.05	3318.88
443.24	3389.10
443.43	3405.48
443.61	3330.58
443.80	3459.31
443.98	3307.18
444.17	3279.09
444.35	3419.52
444.54	3410.16
444.73	3414.84
444.91	3398.46
445.10	3414.84
445.28	3452.29
445.47	3318.88
445.65	3442.93
445.84	3290.79
446.02	3421.86
446.21	3522.51
446.39	3396.12
446.58	3597.40
446.77	3599.74
446.95	3449.95
447.14	3337.60
447.32	3564.64
447.51	3499.10
447.69	3595.06
447.88	3473.36
448.06	3557.61
448.25	3541.23
448.43	3501.44
448.62	3426.54
448.80	3508.46
448.99	3552.93
449.17	3499.10
449.36	3595.06
449.54	3705.07
449.73	3595.06
449.91	3611.45
450.10	3658.26
450.28	3817.41
450.46	3803.37
450.65	3847.84
450.83	3737.84
451.02	3700.39
451.20	3786.99
451.39	3667.62
451.57	3768.26
451.76	3583.36
451.94	3852.52
452.13	3838.48
452.31	3864.22
452.49	3754.22
452.68	3808.05
452.86	3838.48
453.05	3946.14
453.23	3913.38
453.42	3974.23
453.60	3901.67
453.78	3894.65
453.97	3950.82
454.15	3812.73
454.34	3845.50
454.52	3892.31
454.70	4023.38
454.89	4025.72
455.07	4002.32
455.26	4044.45
455.44	3974.23
455.62	4166.15
455.81	4018.70
455.99	4177.86
456.17	4095.94
456.36	4163.81
456.54	4121.68
456.73	4180.20
456.91	4203.60
457.09	4250.41
457.28	4372.12
457.46	4072.53
457.64	4348.72
457.83	4194.24
458.01	4250.41
458.19	4397.87
458.38	4280.84
458.56	4278.50
458.74	4409.57
458.93	4374.46
459.11	4524.26
459.29	4409.57
459.48	4374.46
459.66	4393.19
459.84	4519.57
460.03	4526.60
460.21	4454.04
460.39	4641.28
460.57	4512.55
460.76	4491.49
460.94	4777.03
461.12	4599.15
461.31	4423.61
461.49	4535.96
461.67	4442.34
461.85	4671.71
462.04	4681.07
462.22	4601.49
462.40	4746.61
462.59	4601.49
462.77	4826.18
462.95	4795.76
463.13	4744.27
463.32	4786.40
463.50	4690.43
463.68	4720.86
463.86	4791.08
464.05	4791.08
464.23	4997.04
464.41	4968.96
464.59	4716.18
464.78	4950.23
464.96	4961.94
465.14	4802.78
465.32	5053.22
465.50	4966.62
465.69	5139.82
465.87	4990.02
466.05	4968.96
466.23	4861.29
466.41	5022.79
466.60	5172.58
466.78	5144.50
466.96	4919.81
467.14	4912.78
467.32	5261.52
467.51	5146.84
467.69	5001.72
467.87	5231.10
468.05	5109.39
468.23	5004.07
468.41	5132.79
468.60	5275.57
468.78	5280.25
468.96	5149.18
469.14	5235.78
469.32	5343.44
469.50	5158.54
469.69	5270.89
469.87	5392.59
470.05	5488.56
470.23	5427.70
470.41	5296.63
470.59	5446.43
470.77	5437.06
470.95	5430.04
471.14	5528.35
471.32	5453.45
471.50	5561.11
471.68	5486.22
471.86	5678.14
472.04	5399.62
472.22	5724.95
472.40	5633.67
472.58	5710.91
472.77	5729.63
472.95	5893.47
473.13	5919.21
473.31	5921.56
473.49	5790.49
473.67	5863.04
473.85	5860.70
474.03	5975.39
474.21	6003.47
474.39	6195.40
474.57	5921.56
474.75	6232.85
474.93	6197.74
475.12	6282.00
475.30	6225.82
475.48	6305.40
475.66	6235.19
475.84	6307.74
476.02	6420.09
476.20	6455.20
476.38	6523.07
476.56	6429.45
476.74	6541.80
476.92	6450.52
477.10	6644.78
477.28	6649.46
477.46	6621.38
477.64	6754.79
477.82	6789.89
478.00	6974.80
478.18	6836.70
478.36	7016.93
478.54	7009.90
478.72	7213.53
478.90	7005.22
479.08	7232.26
479.26	7173.74
479.44	7201.83
479.62	7365.67
479.80	7417.16
479.98	7349.28
480.16	7557.59
480.34	7447.58
480.52	7721.43
480.70	7634.83
480.88	7569.29
481.06	7714.41
481.24	7864.20
481.41	7843.14
481.59	7882.92
481.77	7791.64
481.95	8121.66
482.13	7990.59
482.31	8116.98
482.49	8276.13
482.67	8313.58
482.85	8388.48
483.03	8353.37
483.21	8446.99
483.39	8498.49
483.57	8737.22
483.74	8744.24
483.92	8713.81
484.10	8650.62
484.28	8966.59
484.46	8997.02
484.64	9055.53
484.82	8844.88
485.00	9048.51
485.18	9266.18
485.35	9547.05
485.53	9570.45
485.71	9254.48
485.89	9570.45
486.07	9509.60
486.25	9535.34
486.43	9703.86
486.61	9631.30
486.78	9823.23
486.96	9881.74
487.14	10108.77
487.32	10101.75
487.50	10164.95
487.68	10118.14
487.85	10509.01
488.03	10445.81
488.21	10729.02
488.39	10576.88
488.57	10672.84
488.75	10637.73
488.92	10820.30
489.10	11009.88
489.28	10827.32
489.46	11096.48
489.64	10925.62
489.81	11372.66
489.99	11077.76
490.17	11056.69
490.35	11435.86
490.53	11293.08
490.70	11721.40
490.88	11311.81
491.06	11765.87
491.24	11908.65
491.41	11819.71
491.59	11800.98
491.77	11971.84
491.95	12051.42
492.13	12177.81
492.30	12308.88
492.48	12142.70
492.66	12418.88
492.84	12264.41
493.01	12638.89
493.19	12430.59
493.37	12519.53
493.54	12952.52
493.72	12781.67
493.90	12819.11
494.08	12807.41
494.25	12952.52
494.43	13046.15
494.61	13331.69
494.79	12964.23
494.96	13231.05
495.14	13219.35
495.32	13355.10
495.49	13523.62
495.67	13598.51
495.85	13731.92
496.02	13858.31
496.20	13977.68
496.38	13881.72
496.55	13902.78
496.73	14200.03
496.91	14115.77
497.09	14377.91
497.26	14377.91
497.44	14324.08
497.62	14195.35
497.79	14389.61
497.97	14265.57
498.14	14586.22
498.32	14771.12
498.50	14932.62
498.67	15197.10
498.85	14904.53
499.03	15201.78
499.20	14944.32
499.38	14970.07
499.56	15260.29
499.73	15339.87
499.91	15529.45
500.08	15332.85
500.26	15054.33
500.44	15503.71
500.61	15515.41
500.79	15262.63
500.97	15697.97
501.14	15744.78
501.32	15550.52
501.49	15800.96
501.67	15864.15
501.84	16222.25
502.02	15810.32
502.20	16145.02
502.37	16105.23
502.55	16006.92
502.72	16135.65
502.90	16196.51
503.07	16304.17
503.25	16152.04
503.43	16510.14
503.60	16421.20
503.78	16365.03
503.95	16613.12
504.13	16500.78
504.30	16472.69
504.48	16414.18
504.65	16468.01
504.83	17011.01
505.01	16915.05
505.18	16882.28
505.36	16959.52
505.53	16936.12
505.71	17050.80
505.88	17198.26
506.06	17011.01
506.23	17486.14
506.41	17542.32
506.58	17165.49
506.76	17191.23
506.93	17170.17
507.11	17535.29
507.28	17539.97
507.46	17614.87
507.63	17881.69
507.81	17687.43
507.98	17479.12
508.16	17781.05
508.33	17755.30
508.50	17757.64
508.68	17858.29
508.85	17909.78
509.03	18052.55
509.20	18258.52
509.38	18200.01
509.55	18710.24
509.73	18139.15
509.90	18174.26
510.08	18396.61
510.25	18260.86
510.42	18375.55
510.60	18499.59
510.77	18686.84
510.95	18913.87
511.12	18614.28
511.30	18775.78
511.47	18651.73
511.64	19028.56
511.82	19173.67
511.99	18757.05
512.17	19037.92
512.34	18958.34
512.51	19164.31
512.69	19220.48
512.86	19236.86
513.04	19470.92
513.21	19571.56
513.38	19714.33
513.56	19257.93
513.73	19199.41
513.90	19257.93
514.08	19503.68
514.25	19606.67
514.43	19651.14
514.60	19651.14
514.77	19690.93
514.95	19988.18
515.12	19845.40
515.29	19873.49
515.47	19882.85
515.64	19962.43
515.81	19644.12
515.99	20067.75
516.16	20072.43
516.33	20271.38
516.51	20353.30
516.68	20315.85
516.85	20404.79
517.03	20180.10
517.20	20798.00
517.37	20381.38
517.54	20362.66
517.72	20528.84
517.89	20652.89
518.06	20451.60
518.24	20753.53
518.41	20465.64
518.58	21020.35
518.75	21193.55
518.93	21060.14
519.10	20943.11
519.27	20620.12
519.45	21076.52
519.62	20931.41
519.79	21142.06
519.96	20954.82
520.14	21266.11
520.31	21259.09
520.48	20943.11
520.65	21223.98
520.83	21586.76
521.00	21397.18
521.17	21118.65
521.34	21158.44
521.52	21275.47
521.69	21544.63
521.86	21785.71
522.03	21736.56
522.20	21453.35
522.38	21944.86
522.55	21685.06
522.72	21963.59
522.89	21830.18
523.07	22073.59
523.24	21949.54
523.41	22349.78
523.58	22022.10
523.75	22366.16
523.92	21998.70
524.10	22071.25
524.27	22253.81
524.44	22085.30
524.61	22295.94
524.78	22642.34
524.96	22637.66
525.13	22345.09
525.30	22541.70
525.47	22375.52
525.64	22801.50
525.81	22677.45
525.98	22389.56
526.16	22953.63
526.33	22539.36
526.50	22855.33
526.67	22698.52
526.84	22993.42
527.01	22686.81
527.18	22883.42
527.36	23028.53
527.53	23084.70
527.70	23194.71
527.87	23545.79
528.04	23080.02
528.21	22972.36
528.38	23321.10
528.55	23302.37
528.72	23374.93
528.89	23489.62
529.07	23269.61
529.24	23424.08
529.41	23531.75
529.58	23543.45
529.75	23585.58
529.92	23541.11
530.09	23522.38
530.26	23716.65
530.43	23777.50
530.60	23606.64
530.77	23470.89
530.94	24189.44
531.11	24126.24
531.28	23836.02
531.46	23868.78
531.63	24023.26
531.80	23845.38
531.97	24126.24
532.14	24379.02
532.31	23718.99
532.48	23978.79
532.65	24151.99
532.82	23557.49
532.99	24437.53
533.16	24020.92
533.33	24339.23
533.50	24395.40
533.67	24549.88
533.84	24154.33
534.01	24292.42
534.18	24196.46
534.35	24350.93
534.52	24503.07
534.69	24720.74
534.86	24947.77
535.03	24364.98
535.20	24732.44
535.37	24922.02
535.54	24833.08
535.71	24063.05
535.88	24510.09
536.05	24823.72
536.22	25003.94
536.38	24769.89
536.55	24992.24
536.72	24786.27
536.89	25036.71
537.06	24903.30
537.23	25207.57
537.40	25020.33
537.57	24980.54
537.74	25060.12
537.91	25560.99
538.08	25064.80
538.25	24739.46
538.42	25310.55
538.59	25425.24
538.75	24814.36
538.92	25078.84
539.09	25399.49
539.26	25488.43
539.43	25652.27
539.60	25685.04
539.77	25530.56
539.94	25317.57
540.11	25521.20
540.28	25383.11
540.44	25619.50
540.61	25348.00
540.78	25582.06
540.95	25809.09
541.12	25848.88
541.29	25570.35
541.46	25589.08
541.62	25277.79
541.79	25750.57
541.96	25589.08
542.13	25537.59
542.30	26183.57
542.47	25853.56
542.63	26155.49
542.80	25982.29
542.97	26267.83
543.14	26602.53
543.31	25837.17
543.48	26169.53
543.64	26522.95
543.81	26555.72
543.98	26300.60
544.15	26434.01
544.32	26319.32
544.48	26686.79
544.65	26277.19
544.82	26689.13
544.99	26354.43
545.16	26518.27
545.32	26602.53
545.49	26857.65
545.66	26817.86
545.83	26583.80
546.00	27131.49
546.16	26632.96
546.33	26553.38
546.50	26434.01
546.67	26749.98
546.83	26766.37
547.00	26953.61
547.17	26871.69
547.34	26827.22
547.50	26995.74
547.67	26897.44
547.84	27185.32
548.00	27182.98
548.17	27400.65
548.34	27108.08
548.51	27339.80
548.67	27239.15
548.84	27316.39
549.01	26883.39
549.18	27335.12
549.34	27592.58
549.51	27295.33
549.68	27384.27
549.84	27005.10
550.01	27178.30
550.18	27007.44
550.34	27625.34
550.51	27316.39
550.68	27234.47
550.84	27065.96
551.01	27185.32
551.18	27248.52
551.34	27201.71
551.51	27290.65
551.68	27527.04
551.84	27578.53
552.01	27630.02
552.18	27599.60
552.34	27686.20
552.51	27330.44
552.68	27662.79
552.84	27711.94
553.01	27967.06
553.18	27608.96
553.34	27861.74
553.51	27695.56
553.67	27723.65
553.84	28133.24
554.01	27733.01
554.17	27953.02
554.34	28025.57
554.51	27742.37
554.67	28156.64
554.84	27950.68
555.00	28137.92
555.17	28149.62
555.33	28418.78
555.50	27866.42
555.67	28088.77
555.83	27887.48
556.00	28180.05
556.16	28238.56
556.33	28128.56
556.50	28278.35
556.66	28327.50
556.83	28371.97
556.99	28322.82
557.16	28339.21
557.32	28584.96
557.49	28386.02
557.65	28144.94
557.82	28292.40
557.98	28608.37
558.15	28369.63
558.32	28568.58
558.48	28191.75
558.65	28699.65
558.81	28584.96
558.98	28659.86
559.14	28474.96
559.31	28503.04
559.47	28540.49
559.64	28500.70
559.80	28844.76
559.97	28985.19
560.13	29032.00
560.30	28191.75
560.46	28737.10
560.63	28552.20
560.79	28676.24
560.96	28634.11
561.12	28851.78
561.29	28795.61
561.45	28664.54
561.61	28865.83
561.78	29097.54
561.94	29186.48
562.11	29113.92
562.27	28606.03
562.44	28687.95
562.60	28744.12
562.77	28709.01
562.93	28580.28
563.10	28891.57
563.26	28762.84
563.42	29371.38
563.59	29078.82
563.75	28903.28
563.92	29167.76
564.08	28982.85
564.24	28669.22
564.41	28999.24
564.57	29205.20
564.74	28744.12
564.90	29010.94
565.07	29486.07
565.23	29462.66
565.39	29125.63
565.56	29455.64
565.72	28800.29
565.88	29289.46
566.05	29046.05
566.21	28992.22
566.38	28914.98
566.54	29261.38
566.70	29343.30
566.87	29549.26
567.03	29214.57
567.19	29406.49
567.36	29507.13
567.52	28959.45
567.68	29294.14
567.85	29081.16
568.01	29167.76
568.17	29085.84
568.34	29670.97
568.50	29394.79
568.66	29359.68
568.83	29167.76
568.99	29181.80
569.15	29212.23
569.32	29324.57
569.48	29556.28
569.64	29317.55
569.81	29254.36
569.97	29600.76
570.13	29280.10
570.30	29474.37
570.46	29345.64
570.62	29453.30
570.78	29343.30
570.95	29062.43
571.11	29266.06
571.27	29242.65
571.43	29118.60
571.60	29160.73
571.76	29542.24
571.92	29624.16
572.09	29706.08
572.25	29282.44
572.41	29617.14
572.57	29507.13
572.74	29425.22
572.90	29350.32
573.06	29483.73
573.22	29343.30
573.38	29509.47
573.55	29312.87
573.71	29502.45
573.87	29799.70
574.03	29575.01
574.20	29556.28
574.36	29434.58
574.52	29254.36
574.68	29570.33
574.84	29710.76
575.01	29254.36
575.17	29443.94
575.33	29549.26
575.49	29619.48
575.65	29663.95
575.82	29720.12
575.98	29411.17
576.14	29872.26
576.30	29745.87
576.46	29558.63
576.62	29645.23
576.79	29755.23
576.95	29514.16
577.11	29584.37
577.27	30108.65
577.43	29617.14
577.59	29832.47
577.75	29809.06
577.92	29270.74
578.08	29675.65
578.24	29380.74
578.40	29542.24
578.56	29724.80
578.72	29848.85
578.88	29984.60
579.04	29825.45
579.21	29944.81
579.37	29830.13
579.53	29729.48
579.69	29626.50
579.85	29439.26
580.01	29827.79
580.17	29610.12
580.33	29411.17
580.49	29858.21
580.65	29748.21
580.82	29949.50
580.98	29729.48
581.14	29708.42
581.30	30031.41
581.46	29619.48
581.62	29504.79
581.78	30017.37
581.94	29979.92
582.10	29350.32
582.26	29851.19
582.42	29706.08
582.58	30178.87
582.74	29949.50
582.90	29788.00
583.06	29436.92
583.22	29752.89
583.38	29549.26
583.54	29486.07
583.70	29984.60
583.86	29970.56
584.02	29589.05
584.18	30235.04
584.34	29902.68
584.50	30059.50
584.66	29912.05
584.82	29560.97
584.98	30122.69
585.14	30087.59
585.30	29539.90
585.46	29830.13
585.62	29806.72
585.78	30038.44
585.94	29282.44
586.10	29998.65
586.26	30033.75
586.42	30263.13
586.58	29666.29
586.74	29963.54
586.90	29860.55
587.06	29525.86
587.22	29696.72
587.38	29378.40
587.54	30459.73
587.70	30305.26
587.86	30176.53
588.02	29724.80
588.18	30204.61
588.34	30045.46
588.49	29902.68
588.65	29654.59
588.81	29780.98
588.97	30209.29
589.13	29865.24
589.29	29575.01
589.45	30092.27
589.61	30129.72
589.77	30132.06
589.93	30340.36
590.08	30656.34
590.24	30462.07
590.40	30178.87
590.56	30274.83
590.72	30017.37
590.88	29961.20
591.04	30213.98
591.20	30478.46
591.35	30206.95
591.51	30618.89
591.67	30567.40
591.83	30382.49
591.99	30057.16
