SpectraSuite Data File
++++++++++++++++++++++++++++++++++++
Date: Fri Oct 18 13:58:35 GMT-05:00 2013
User: bianchi
Dark Spectrum Present: No
Reference Spectrum Present: No
Number of Sampled Component Spectra: 1
Spectrometers: USB2+H05261
Integration Time (usec): 50000 (USB2+H05261)
Spectra Averaged: 1 (USB2+H05261)
Boxcar Smoothing: 0 (USB2+H05261)
Correct for Electrical Dark: No (USB2+H05261)
Strobe/Lamp Enabled: No (USB2+H05261)
Correct for Detector Non-linearity: No (USB2+H05261)
Correct for Stray Light: No (USB2+H05261)
Number of Pixels in Processed Spectrum: 2048
>>>>>Begin Processed Spectral Data<<<<<
365.73	0.00
365.92	0.00
366.12	0.00
366.32	0.00
366.52	0.00
366.72	0.00
366.91	0.00
367.11	0.00
367.31	0.00
367.51	0.00
367.70	0.00
367.90	0.00
368.10	0.00
368.30	0.00
368.49	0.00
368.69	0.00
368.89	0.00
369.09	0.00
369.28	0.00
369.48	0.00
369.68	0.00
369.87	0.00
370.07	0.00
370.27	0.00
370.47	0.00
370.66	102.98
370.86	93.62
371.06	81.92
371.25	149.79
371.45	117.03
371.65	84.26
371.84	124.05
372.04	126.39
372.24	170.86
372.44	191.92
372.63	217.67
372.83	238.73
373.03	227.03
373.22	257.46
373.42	248.10
373.62	212.99
373.81	184.90
374.01	189.58
374.21	184.90
374.40	229.37
374.60	287.89
374.79	245.76
374.99	236.39
375.19	147.45
375.38	259.80
375.58	259.80
375.78	205.97
375.97	285.55
376.17	304.27
376.37	241.08
376.56	327.68
376.76	215.33
376.95	278.52
377.15	271.50
377.35	257.46
377.54	292.57
377.74	320.65
377.93	294.91
378.13	290.23
378.33	353.42
378.52	337.04
378.72	379.17
378.91	313.63
379.11	262.14
379.31	344.06
379.50	283.20
379.70	294.91
379.89	369.80
380.09	358.10
380.28	346.40
380.48	381.51
380.68	287.89
380.87	280.86
381.07	301.93
381.26	290.23
381.46	311.29
381.65	276.18
381.85	327.68
382.04	341.72
382.24	315.97
382.43	379.17
382.63	383.85
382.83	358.10
383.02	381.51
383.22	442.36
383.41	351.08
383.61	330.02
383.80	404.91
384.00	351.08
384.19	273.84
384.39	395.55
384.58	372.15
384.78	358.10
384.97	351.08
385.17	320.65
385.36	423.64
385.56	362.78
385.75	376.83
385.95	351.08
386.14	383.85
386.34	393.21
386.53	442.36
386.72	388.53
386.92	367.46
387.11	493.85
387.31	404.91
387.50	500.87
387.70	421.30
387.89	442.36
388.09	461.09
388.28	472.79
388.48	423.64
388.67	477.47
388.86	437.68
389.06	411.93
389.25	482.15
389.45	521.94
389.64	449.38
389.84	500.87
390.03	517.26
390.22	496.19
390.42	472.79
390.61	433.00
390.81	383.85
391.00	531.30
391.19	615.56
391.39	491.51
391.58	465.77
391.78	472.79
391.97	564.07
392.16	489.17
392.36	547.69
392.55	489.17
392.75	599.18
392.94	585.13
393.13	559.39
393.33	503.22
393.52	489.17
393.71	573.43
393.91	585.13
394.10	571.09
394.29	650.67
394.49	479.81
394.68	554.71
394.88	589.82
395.07	622.58
395.26	615.56
395.46	596.84
395.65	664.71
395.84	660.03
396.04	641.31
396.23	699.82
396.42	620.24
396.62	617.90
396.81	606.20
397.00	655.35
397.19	610.88
397.39	706.84
397.58	648.33
397.77	664.71
397.97	674.07
398.16	648.33
398.35	702.16
398.55	676.41
398.74	802.80
398.93	697.48
399.12	737.27
399.32	755.99
399.51	763.01
399.70	709.18
399.90	683.44
400.09	779.40
400.28	816.85
400.47	636.63
400.67	713.86
400.86	866.00
401.05	727.91
401.24	744.29
401.44	760.67
401.63	779.40
401.82	816.85
402.01	781.74
402.21	835.57
402.40	954.94
402.59	788.76
402.78	854.30
402.97	807.48
403.17	765.36
403.36	844.93
403.55	924.51
403.74	830.89
403.93	898.77
404.13	1081.33
404.32	863.66
404.51	931.53
404.70	938.55
404.89	931.53
405.09	908.13
405.28	880.04
405.47	990.05
405.66	950.26
405.85	933.87
406.05	919.83
406.24	1034.52
406.43	936.21
406.62	1074.31
406.81	1043.88
407.00	987.71
407.20	943.24
407.39	961.96
407.58	1053.24
407.77	1029.84
407.96	1081.33
408.15	1062.60
408.34	1107.07
408.54	1123.46
408.73	1076.65
408.92	1116.44
409.11	1142.18
409.30	1179.63
409.49	1174.95
409.68	1078.99
409.87	1130.48
410.07	1210.06
410.26	1160.91
410.45	1158.57
410.64	1177.29
410.83	1280.27
411.02	1224.10
411.21	1247.51
411.40	1284.95
411.59	1247.51
411.78	1282.61
411.98	1310.70
412.17	1329.42
412.36	1301.34
412.55	1324.74
412.74	1266.23
412.93	1401.98
413.12	1427.73
413.31	1483.90
413.50	1387.94
413.69	1341.13
413.88	1458.15
414.07	1474.54
414.26	1432.41
414.45	1481.56
414.64	1458.15
414.83	1465.18
415.02	1624.33
415.22	1521.35
415.41	1521.35
415.60	1570.50
415.79	1605.61
415.98	1605.61
416.17	1624.33
416.36	1544.75
416.55	1563.48
416.74	1563.48
416.93	1621.99
417.12	1633.69
417.31	1612.63
417.50	1703.91
417.69	1708.59
417.88	1732.00
418.07	1739.02
418.26	1792.85
418.45	1762.42
418.64	1727.32
418.83	1947.33
419.02	1816.26
419.21	1809.23
419.39	1930.94
419.58	1956.69
419.77	1795.19
419.96	1858.39
420.15	1863.07
420.34	1830.30
420.53	1893.49
420.72	1783.49
420.91	2071.37
421.10	1886.47
421.29	1919.24
421.48	1837.32
421.67	1989.46
421.86	1984.77
422.05	1884.13
422.24	1933.28
422.43	1970.73
422.61	1952.01
422.80	2003.50
422.99	2080.74
423.18	2069.03
423.37	2038.61
423.56	1966.05
423.75	2024.56
423.94	2045.63
424.13	1851.36
424.32	1839.66
424.50	2090.10
424.69	2069.03
424.88	2010.52
425.07	1984.77
425.26	2122.87
425.45	2012.86
425.64	2026.90
425.83	1963.71
426.01	2153.29
426.20	2050.31
426.39	2022.22
426.58	2017.54
426.77	2001.16
426.96	2267.98
427.15	2115.84
427.33	2186.06
427.52	2139.25
427.71	2101.80
427.90	2179.04
428.09	2157.97
428.28	2132.23
428.46	2218.83
428.65	2221.17
428.84	2239.89
429.03	2361.60
429.22	2190.74
429.40	2277.34
429.59	2286.70
429.78	2174.36
429.97	2228.19
430.16	2225.85
430.34	2193.08
430.53	2438.84
430.72	2396.71
430.91	2438.84
431.10	2258.62
431.28	2293.72
431.47	2476.29
431.66	2410.75
431.85	2361.60
432.03	2408.41
432.22	2513.74
432.41	2396.71
432.60	2504.37
432.79	2366.28
432.97	2324.15
433.16	2427.14
433.35	2438.84
433.54	2492.67
433.72	2616.72
433.91	2499.69
434.10	2504.37
434.28	2492.67
434.47	2499.69
434.66	2565.23
434.85	2523.10
435.03	2626.08
435.22	2532.46
435.41	2665.87
435.59	2616.72
435.78	2740.77
435.97	2668.21
436.16	2726.72
436.34	2750.13
436.53	2654.17
436.72	2665.87
436.90	2743.11
437.09	2698.64
437.28	2703.32
437.46	2605.02
437.65	2696.30
437.84	2684.59
438.02	2724.38
438.21	2836.73
438.40	2698.64
438.58	2874.18
438.77	2984.18
438.96	2780.56
439.14	2932.69
439.33	2935.03
439.52	2942.05
439.70	3033.33
439.89	3089.51
440.08	3040.36
440.26	3075.46
440.45	3178.45
440.63	3169.09
440.82	3108.23
441.01	3122.27
441.19	3059.08
441.38	3190.15
441.57	3251.00
441.75	3222.92
441.94	3346.97
442.12	3353.99
442.31	3246.32
442.50	3426.54
442.68	3325.90
442.87	3330.58
443.05	3449.95
443.24	3377.39
443.43	3440.59
443.61	3363.35
443.80	3503.78
443.98	3293.13
444.17	3279.09
444.35	3431.23
444.54	3372.71
444.73	3449.95
444.91	3459.31
445.10	3281.43
445.28	3442.93
445.47	3517.83
445.65	3379.73
445.84	3478.04
446.02	3468.67
446.21	3349.31
446.39	3550.59
446.58	3562.30
446.77	3562.30
446.95	3330.58
447.14	3468.67
447.32	3545.91
447.51	3475.70
447.69	3440.59
447.88	3618.47
448.06	3499.10
448.25	3590.38
448.43	3538.89
448.62	3592.72
448.80	3665.28
448.99	3536.55
449.17	3538.89
449.36	3513.14
449.54	3634.85
449.73	3805.71
449.91	3604.42
450.10	3719.11
450.28	3726.13
450.46	3850.18
450.65	3794.01
450.83	3754.22
451.02	3866.56
451.20	3845.50
451.39	3868.91
451.57	3763.58
451.76	3847.84
451.94	3637.19
452.13	3946.14
452.31	3726.13
452.49	3754.22
452.68	3861.88
452.86	3838.48
453.05	3974.23
453.23	4046.79
453.42	3831.46
453.60	3920.40
453.78	4023.38
453.97	3779.97
454.15	3955.51
454.34	4070.19
454.52	4145.09
454.70	4023.38
454.89	4053.81
455.07	3953.16
455.26	4014.02
455.44	4093.60
455.62	4023.38
455.81	4063.17
455.99	4091.26
456.17	4163.81
456.36	4278.50
456.54	4208.28
456.73	4301.90
456.91	4339.35
457.09	4418.93
457.28	4327.65
457.46	4308.93
457.64	4379.14
457.83	4372.12
458.01	4388.50
458.19	4299.56
458.38	4250.41
458.56	4341.69
458.74	4428.29
458.93	4341.69
459.11	4491.49
459.29	4397.87
459.48	4587.45
459.66	4589.79
459.84	4589.79
460.03	4702.14
460.21	4498.51
460.39	4599.15
460.57	4449.36
460.76	4652.98
460.94	4580.43
461.12	4678.73
461.31	4547.66
461.49	4704.48
461.67	4603.83
461.85	4718.52
462.04	4681.07
462.22	4802.78
462.40	4741.93
462.59	4791.08
462.77	4873.00
462.95	4833.21
463.13	4821.50
463.32	4943.21
463.50	5004.07
463.68	4784.06
463.86	4880.02
464.05	4837.89
464.23	4971.30
464.41	4821.50
464.59	4873.00
464.78	5128.11
464.96	5036.83
465.14	4943.21
465.32	5104.71
465.50	4975.98
465.69	5095.35
465.87	5032.15
466.05	5097.69
466.23	5039.17
466.41	5078.96
466.60	5226.42
466.78	5053.22
466.96	5174.92
467.14	5057.90
467.32	4959.60
467.51	5226.42
467.69	5057.90
467.87	5184.29
468.05	5093.01
468.23	5025.13
468.41	5132.79
468.60	5203.01
468.78	5434.72
468.96	5235.78
469.14	5352.81
469.32	5226.42
469.50	5184.29
469.69	5460.47
469.87	5411.32
470.05	5502.60
470.23	5345.78
470.41	5507.28
470.59	5296.63
470.77	5437.06
470.95	5528.35
471.14	5675.80
471.32	5465.15
471.50	5568.13
471.68	5678.14
471.86	5579.84
472.04	5689.84
472.22	5769.42
472.40	5818.57
472.58	5841.98
472.77	5827.93
472.95	5706.23
473.13	5947.30
473.31	5788.14
473.49	5905.17
473.67	6118.16
473.85	5895.81
474.03	6024.54
474.21	5982.41
474.39	6090.07
474.57	6003.47
474.75	6150.93
474.93	6303.06
475.12	6129.86
475.30	6293.70
475.48	6321.79
475.66	6153.27
475.84	6319.45
476.02	6321.79
476.20	6314.77
476.38	6719.68
476.56	6619.04
476.74	6628.40
476.92	6399.02
477.10	6745.42
477.28	6703.29
477.46	6707.98
477.64	6761.81
477.82	6773.51
478.00	6965.43
478.18	7021.61
478.36	6913.94
478.54	7119.91
478.72	7155.02
478.90	7183.10
479.08	7365.67
479.26	7372.69
479.44	7288.43
479.62	7316.51
479.80	7325.88
479.98	7379.71
480.16	7555.25
480.34	7536.52
480.52	7618.44
480.70	7892.29
480.88	7588.02
481.06	7728.45
481.24	7749.51
481.41	7939.10
481.59	7850.16
481.77	7995.27
481.95	8009.31
482.13	8191.88
482.31	8126.34
482.49	8173.15
482.67	8339.33
482.85	8369.76
483.03	8395.50
483.21	8540.61
483.39	8650.62
483.57	8416.57
483.74	8863.61
483.92	8826.16
484.10	8718.50
484.28	8997.02
484.46	9011.06
484.64	9207.67
484.82	9048.51
485.00	9226.39
485.18	9149.15
485.35	9472.15
485.53	9535.34
485.71	9568.11
485.89	9731.95
486.07	9598.54
486.25	9621.94
486.43	9413.63
486.61	9951.96
486.78	9839.61
486.96	9954.30
487.14	10087.71
487.32	10169.63
487.50	10155.58
487.68	10197.71
487.85	10441.13
488.03	10530.07
488.21	10509.01
488.39	10766.46
488.57	10476.24
488.75	10544.11
488.92	10843.70
489.10	10846.04
489.28	10857.75
489.46	11162.01
489.64	11236.91
489.81	11047.33
489.99	11386.71
490.17	11225.21
490.35	11360.96
490.53	11569.27
490.70	11805.66
490.88	11690.98
491.06	11627.78
491.24	11920.35
491.41	11906.31
491.59	11817.36
491.77	11796.30
491.95	12035.03
492.13	12189.51
492.30	12273.77
492.48	12437.61
492.66	12299.52
492.84	12379.09
493.01	12713.79
493.19	12657.62
493.37	12807.41
493.54	12865.92
493.72	12737.20
493.90	12788.69
494.08	13076.57
494.25	13268.50
494.43	13259.13
494.61	13268.50
494.79	13441.70
494.96	13338.71
495.14	13373.82
495.32	13626.60
495.49	13612.56
495.67	13603.19
495.85	13750.65
496.02	13781.07
496.20	13928.53
496.38	14061.94
496.55	14120.45
496.73	14218.75
496.91	14359.19
497.09	14099.39
497.26	14274.93
497.44	14317.06
497.62	14347.48
497.79	14483.24
497.97	14654.09
498.14	14693.88
498.32	14904.53
498.50	14672.82
498.67	14972.41
498.85	14956.02
499.03	15232.21
499.20	14937.30
499.38	15077.73
499.56	15166.67
499.73	15332.85
499.91	15159.65
500.08	15571.58
500.26	15143.27
500.44	15510.73
500.61	15492.01
500.79	15501.37
500.97	15667.55
501.14	15896.92
501.32	15847.77
501.49	16084.16
501.67	16046.71
501.84	15955.43
502.02	16128.63
502.20	16004.58
502.37	16058.42
502.55	16339.28
502.72	16147.36
502.90	16262.04
503.07	16400.13
503.25	16276.09
503.43	16240.98
503.60	16517.16
503.78	16805.05
503.95	16641.21
504.13	16891.65
504.30	16861.22
504.48	16898.67
504.65	16786.32
504.83	17109.32
505.01	17305.92
505.18	17027.40
505.36	17294.22
505.53	17074.21
505.71	17060.16
505.88	17015.69
506.06	17083.57
506.23	17156.13
506.41	17472.10
506.58	17561.04
506.76	17369.12
506.93	17322.30
507.11	17481.46
507.28	17764.67
507.46	17486.14
507.63	17715.51
507.81	17731.90
507.98	17729.56
508.16	17846.58
508.33	17713.17
508.50	18176.60
508.68	18068.94
508.85	18359.16
509.03	18167.24
509.20	18373.21
509.38	18256.18
509.55	18260.86
509.73	18427.04
509.90	18410.65
510.08	18693.86
510.25	18679.82
510.42	18633.00
510.60	18754.71
510.77	18658.75
510.95	19009.83
511.12	18635.35
511.30	18827.27
511.47	18904.51
511.64	19229.84
511.82	19271.97
511.99	18939.62
512.17	19190.05
512.34	19108.13
512.51	19477.94
512.69	19522.41
512.86	19201.76
513.04	19161.97
513.21	19501.34
513.38	19419.42
513.56	19552.84
513.73	19709.65
513.90	19744.76
514.08	19356.23
514.25	19541.13
514.43	19822.00
514.60	19836.04
514.77	19775.19
514.95	20123.93
515.12	19817.32
515.29	20009.24
515.47	20079.46
515.64	20058.39
515.81	20540.54
515.99	20226.91
516.16	20554.58
516.33	20266.70
516.51	20753.53
516.68	20350.96
516.85	20276.06
517.03	20348.62
517.20	20556.93
517.37	20507.77
517.54	21018.01
517.72	20360.32
517.89	20512.46
518.06	20596.71
518.24	20636.50
518.41	20737.15
518.58	21062.48
518.75	20793.32
518.93	21060.14
519.10	20851.83
519.27	20772.25
519.45	21109.29
519.62	20971.20
519.79	21029.71
519.96	21069.50
520.14	21113.97
520.31	21294.19
520.48	21593.78
520.65	21383.13
520.83	21076.52
521.00	21544.63
521.17	21362.07
521.34	21575.06
521.52	21603.14
521.69	21577.40
521.86	21930.82
522.03	21834.86
522.20	21743.58
522.38	21685.06
522.55	22115.72
522.72	21956.57
522.89	21694.43
523.07	22405.95
523.24	22221.05
523.41	21970.61
523.58	21865.28
523.75	22211.68
523.92	22108.70
524.10	22113.38
524.27	22441.06
524.44	22314.67
524.61	22679.79
524.78	22469.14
524.96	22338.07
525.13	22632.98
525.30	22429.35
525.47	22717.24
525.64	22588.51
525.81	22689.15
525.98	23211.09
526.16	23154.92
526.33	22930.23
526.50	23145.56
526.67	22845.97
526.84	22881.08
527.01	22750.01
527.18	23056.62
527.36	23278.97
527.53	23257.90
527.70	23625.37
527.87	23653.45
528.04	23300.03
528.21	23307.05
528.38	23190.03
528.55	23506.00
528.72	23056.62
528.89	23611.32
529.07	23550.47
529.24	23309.40
529.41	23683.88
529.58	23456.85
529.75	23131.51
529.92	23894.53
530.09	23527.06
530.26	23585.58
530.43	23889.85
530.60	23737.71
530.77	23611.32
530.94	24053.69
531.11	23838.36
531.28	23728.35
531.46	23903.89
531.63	23482.59
531.80	23957.72
531.97	24182.42
532.14	24030.28
532.31	23995.17
532.48	24159.01
532.65	24109.86
532.82	23971.77
532.99	24444.56
533.16	24123.90
533.33	24432.85
533.50	24617.75
533.67	24498.39
533.84	24133.26
534.01	24510.09
534.18	24339.23
534.35	24622.44
534.52	24580.31
534.69	24540.52
534.86	24678.61
535.03	24823.72
535.20	24620.10
535.37	24952.45
535.54	25193.53
535.71	24589.67
535.88	24685.63
536.05	24858.83
536.22	24697.33
536.38	24987.56
536.55	25319.92
536.72	25003.94
536.89	25118.63
537.06	25135.01
537.23	25135.01
537.40	24964.15
537.57	24959.47
537.74	25415.88
537.91	25509.50
538.08	25076.50
538.25	25605.46
538.42	25230.98
538.59	25259.06
538.75	25109.27
538.92	25776.32
539.09	25439.28
539.26	25408.86
539.43	25563.33
539.60	25652.27
539.77	25839.51
539.94	25736.53
540.11	25579.71
540.28	25673.34
540.44	25586.74
540.61	25799.73
540.78	25757.60
540.95	26288.90
541.12	25865.26
541.29	25902.71
541.46	25804.41
541.62	25867.60
541.79	25916.75
541.96	25596.10
542.13	25832.49
542.30	25926.11
542.47	26078.25
542.63	26202.30
542.80	26185.91
542.97	26214.00
543.14	26693.81
543.31	26424.65
543.48	26188.25
543.64	26691.47
543.81	26733.60
543.98	26665.72
544.15	26352.09
544.32	26637.64
544.48	26998.08
544.65	26675.09
544.82	26518.27
544.99	26153.15
545.16	26632.96
545.32	26597.85
545.49	26775.73
545.66	26897.44
545.83	27147.87
546.00	27150.21
546.16	26962.97
546.33	26733.60
546.50	26359.11
546.67	26581.46
546.83	26305.28
547.00	27084.68
547.17	27007.44
547.34	26735.94
547.50	27274.26
547.67	27571.51
547.84	27316.39
548.00	27206.39
548.17	27131.49
548.34	26895.10
548.51	27545.76
548.67	27351.50
548.84	27138.51
549.01	26988.72
549.18	27131.49
549.34	27225.11
549.51	27578.53
549.68	27225.11
549.84	27454.48
550.01	27494.27
550.18	27304.69
550.34	27426.40
550.51	27475.55
550.68	27590.24
550.84	27211.07
551.01	27627.68
551.18	27566.83
551.34	27503.64
551.51	27304.69
551.68	27569.17
551.84	27826.63
552.01	27594.92
552.18	27828.97
552.34	27725.99
552.51	27569.17
552.68	27704.92
552.84	27718.96
553.01	27894.50
553.18	27580.87
553.34	27889.82
553.51	28170.69
553.67	27728.33
553.84	27978.76
554.01	27985.79
554.17	28217.50
554.34	28383.68
554.51	27744.71
554.67	28041.96
554.84	27938.97
555.00	28203.46
555.17	28409.42
555.33	28381.34
555.50	28379.00
555.67	28067.70
555.83	27999.83
556.00	28208.14
556.16	28624.75
556.33	27985.79
556.50	28425.81
556.66	28491.34
556.83	28680.92
556.99	28690.29
557.16	28875.19
557.32	28622.41
557.49	28531.13
557.65	28517.09
557.82	28320.48
557.98	28276.01
558.15	28594.32
558.32	28500.70
558.48	28582.62
558.65	28936.04
558.81	28594.32
558.98	28882.21
559.14	28851.78
559.31	28697.31
559.47	28442.19
559.64	28863.49
559.80	28547.51
559.97	28669.22
560.13	29212.23
560.30	28964.13
560.46	29193.50
560.63	28634.11
560.79	28940.72
560.96	29078.82
561.12	28858.81
561.29	28788.59
561.45	28989.88
561.61	29095.20
561.78	29296.49
561.94	28996.90
562.11	28971.15
562.27	28898.59
562.44	29305.85
562.60	29184.14
562.77	28776.89
562.93	28835.40
563.10	29308.19
563.26	28809.65
563.42	29415.85
563.59	29036.69
563.75	29034.35
563.92	29294.14
564.08	29106.90
564.24	29193.50
564.41	29034.35
564.57	29032.00
564.74	29039.03
564.90	29244.99
565.07	29275.42
565.23	29324.57
565.39	29010.94
565.56	29457.98
565.72	29139.67
565.88	29216.91
566.05	28943.06
566.21	28919.66
566.38	29277.76
566.54	29163.08
566.70	29462.66
566.87	29095.20
567.03	29163.08
567.19	29909.71
567.36	29303.51
567.52	29376.06
567.68	29387.77
567.85	29312.87
568.01	29680.33
568.17	29139.67
568.34	29280.10
568.50	29357.34
568.66	29481.39
568.83	29493.09
568.99	29291.80
569.15	29888.64
569.32	29345.64
569.48	29439.26
569.64	29558.63
569.81	29462.66
569.97	29563.31
570.13	29677.99
570.30	29315.21
570.46	29652.25
570.62	29603.10
570.78	29481.39
570.95	29600.76
571.11	29701.40
571.27	29273.08
571.43	29394.79
571.60	29670.97
571.76	29909.71
571.92	29785.66
572.09	29762.25
572.25	29855.87
572.41	29797.36
572.57	29752.89
572.74	30022.05
572.90	29406.49
573.06	29706.08
573.22	29706.08
573.38	29961.20
573.55	29652.25
573.71	30003.33
573.87	29888.64
574.03	29532.88
574.20	29944.81
574.36	29661.61
574.52	29907.37
574.68	29481.39
574.84	29572.67
575.01	29890.98
575.17	29785.66
575.33	29144.35
575.49	29516.50
575.65	29731.83
575.82	29869.92
575.98	29401.81
576.14	29680.33
576.30	29949.50
576.46	29448.62
576.62	29570.33
576.79	29654.59
576.95	29703.74
577.11	30192.91
577.27	29930.77
577.43	30057.16
577.59	30242.06
577.75	29699.06
577.92	29291.80
578.08	29890.98
578.24	29703.74
578.40	29626.50
578.56	29820.77
578.72	29879.28
578.88	30029.07
579.04	30012.69
579.21	29617.14
579.37	29846.51
579.53	29883.96
579.69	29579.69
579.85	29696.72
580.01	29869.92
580.17	29495.43
580.33	29886.30
580.49	29755.23
580.65	30047.80
580.82	29996.31
580.98	29930.77
581.14	29846.51
581.30	29958.86
581.46	29869.92
581.62	29898.00
581.78	29722.46
581.94	29883.96
582.10	29890.98
582.26	29738.85
582.42	30038.44
582.58	30129.72
582.74	30080.56
582.90	30115.67
583.06	30118.01
583.22	30031.41
583.38	29762.25
583.54	29598.41
583.70	29890.98
583.86	29905.02
584.02	29626.50
584.18	29865.24
584.34	29942.47
584.50	30244.40
584.66	30082.91
584.82	30199.93
584.98	29743.53
585.14	30244.40
585.30	29823.11
585.46	29834.81
585.62	30127.38
585.78	29900.34
585.94	29893.32
586.10	30230.36
586.26	30441.01
586.42	30225.68
586.58	30223.34
586.74	29841.83
586.90	30129.72
587.06	29923.75
587.22	29771.61
587.38	30010.35
587.54	30008.01
587.70	30244.40
587.86	30286.53
588.02	30492.50
588.18	30436.33
588.34	30129.72
588.49	30281.85
588.65	30120.35
588.81	29956.52
588.97	29933.11
589.13	30054.82
589.29	30026.73
589.45	30288.87
589.61	30515.90
589.77	30522.93
589.93	30312.28
590.08	30621.23
590.24	30572.08
590.40	30696.13
590.56	30125.04
590.72	30235.04
590.88	29916.73
591.04	30118.01
591.20	30295.89
591.35	30522.93
591.51	30646.97
591.67	30476.12
591.83	30995.71
591.99	30684.42
