SpectraSuite Data File
++++++++++++++++++++++++++++++++++++
Date: Fri Oct 18 13:58:24 GMT-05:00 2013
User: bianchi
Dark Spectrum Present: No
Reference Spectrum Present: No
Number of Sampled Component Spectra: 1
Spectrometers: USB2+H05261
Integration Time (usec): 50000 (USB2+H05261)
Spectra Averaged: 1 (USB2+H05261)
Boxcar Smoothing: 0 (USB2+H05261)
Correct for Electrical Dark: No (USB2+H05261)
Strobe/Lamp Enabled: No (USB2+H05261)
Correct for Detector Non-linearity: No (USB2+H05261)
Correct for Stray Light: No (USB2+H05261)
Number of Pixels in Processed Spectrum: 2048
>>>>>Begin Processed Spectral Data<<<<<
365.73	0.00
365.92	0.00
366.12	0.00
366.32	0.00
366.52	0.00
366.72	0.00
366.91	0.00
367.11	0.00
367.31	0.00
367.51	0.00
367.70	0.00
367.90	0.00
368.10	0.00
368.30	0.00
368.49	0.00
368.69	0.00
368.89	0.00
369.09	0.00
369.28	0.00
369.48	0.00
369.68	0.00
369.87	0.00
370.07	0.00
370.27	0.00
370.47	0.00
370.66	138.09
370.86	152.13
371.06	154.48
371.25	149.79
371.45	88.94
371.65	182.56
371.84	212.99
372.04	105.32
372.24	152.13
372.44	224.69
372.63	131.07
372.83	166.18
373.03	180.22
373.22	231.71
373.42	180.22
373.62	252.78
373.81	198.95
374.01	271.50
374.21	210.65
374.40	191.92
374.60	201.29
374.79	245.76
374.99	285.55
375.19	266.82
375.38	255.12
375.58	259.80
375.78	348.74
375.97	238.73
376.17	327.68
376.37	184.90
376.56	290.23
376.76	290.23
376.95	301.93
377.15	287.89
377.35	264.48
377.54	308.95
377.74	304.27
377.93	252.78
378.13	220.01
378.33	229.37
378.52	276.18
378.72	271.50
378.91	255.12
379.11	292.57
379.31	287.89
379.50	262.14
379.70	311.29
379.89	311.29
380.09	266.82
380.28	315.97
380.48	372.15
380.68	280.86
380.87	318.31
381.07	259.80
381.26	297.25
381.46	374.49
381.65	294.91
381.85	348.74
382.04	341.72
382.24	351.08
382.43	381.51
382.63	278.52
382.83	381.51
383.02	416.62
383.22	294.91
383.41	341.72
383.61	285.55
383.80	379.17
384.00	402.57
384.19	437.68
384.39	327.68
384.58	266.82
384.78	358.10
384.97	325.33
385.17	351.08
385.36	315.97
385.56	315.97
385.75	383.85
385.95	358.10
386.14	402.57
386.34	430.66
386.53	407.25
386.72	456.40
386.92	493.85
387.11	470.45
387.31	395.55
387.50	404.91
387.70	353.42
387.89	451.72
388.09	404.91
388.28	386.19
388.48	454.06
388.67	397.89
388.86	442.36
389.06	463.43
389.25	388.53
389.45	444.70
389.64	435.34
389.84	416.62
390.03	397.89
390.22	454.06
390.42	444.70
390.61	404.91
390.81	440.02
391.00	447.04
391.19	517.26
391.39	447.04
391.58	531.30
391.78	524.28
391.97	477.47
392.16	479.81
392.36	465.77
392.55	589.82
392.75	491.51
392.94	533.64
393.13	575.77
393.33	564.07
393.52	578.11
393.71	559.39
393.91	636.63
394.10	606.20
394.29	622.58
394.49	561.73
394.68	617.90
394.88	547.69
395.07	706.84
395.26	606.20
395.46	610.88
395.65	596.84
395.84	653.01
396.04	713.86
396.23	676.41
396.42	608.54
396.62	575.77
396.81	587.47
397.00	645.99
397.19	603.86
397.39	727.91
397.58	655.35
397.77	624.92
397.97	720.88
398.16	683.44
398.35	688.12
398.55	688.12
398.74	716.20
398.93	746.63
399.12	737.27
399.32	688.12
399.51	723.23
399.70	753.65
399.90	812.17
400.09	753.65
400.28	746.63
400.47	807.48
400.67	816.85
400.86	744.29
401.05	826.21
401.24	858.98
401.44	837.91
401.63	861.32
401.82	795.78
402.01	814.51
402.21	828.55
402.40	840.25
402.59	835.57
402.78	774.72
402.97	814.51
403.17	863.66
403.36	957.28
403.55	870.68
403.74	924.51
403.93	936.21
404.13	805.14
404.32	891.74
404.51	994.73
404.70	915.15
404.89	901.11
405.09	954.94
405.28	901.11
405.47	1015.79
405.66	922.17
405.85	994.73
406.05	968.98
406.24	1006.43
406.43	1053.24
406.62	1048.56
406.81	1057.92
407.00	919.83
407.20	1022.81
407.39	1116.44
407.58	1081.33
407.77	1111.75
407.96	1025.15
408.15	1067.28
408.34	1165.59
408.54	1062.60
408.73	1015.79
408.92	1090.69
409.11	1137.50
409.30	1081.33
409.49	1137.50
409.68	1078.99
409.87	1214.74
410.07	1193.67
410.26	1179.63
410.45	1198.35
410.64	1224.10
410.83	1259.21
411.02	1231.12
411.21	1172.61
411.40	1207.72
411.59	1273.25
411.78	1158.57
411.98	1317.72
412.17	1327.08
412.36	1383.26
412.55	1392.62
412.74	1212.40
412.93	1352.83
413.12	1334.11
413.31	1423.05
413.50	1439.43
413.69	1369.21
413.88	1488.58
414.07	1486.24
414.26	1504.96
414.45	1486.24
414.64	1448.79
414.83	1519.01
415.02	1458.15
415.22	1465.18
415.41	1619.65
415.60	1444.11
415.79	1600.93
415.98	1633.69
416.17	1593.90
416.36	1664.12
416.55	1556.46
416.74	1617.31
416.93	1701.57
417.12	1682.85
417.31	1621.99
417.50	1659.44
417.69	1743.70
417.88	1727.32
418.07	1783.49
418.26	1771.79
418.45	1879.45
418.64	1844.34
418.83	1757.74
419.02	1818.60
419.21	1818.60
419.39	1834.98
419.58	1776.47
419.77	1748.38
419.96	1802.21
420.15	1893.49
420.34	1802.21
420.53	1881.79
420.72	1909.88
420.91	1980.09
421.10	1928.60
421.29	1928.60
421.48	1874.77
421.67	1994.14
421.86	1937.96
422.05	1982.43
422.24	1856.04
422.43	1947.33
422.61	1902.86
422.80	2019.88
422.99	2001.16
423.18	2054.99
423.37	2050.31
423.56	2031.58
423.75	1963.71
423.94	1952.01
424.13	1881.79
424.32	1853.70
424.50	2005.84
424.69	2057.33
424.88	2181.38
425.07	2148.61
425.26	2057.33
425.45	1982.43
425.64	1977.75
425.83	2010.52
426.01	2127.55
426.20	2022.22
426.39	2015.20
426.58	2062.01
426.77	2106.48
426.96	2174.36
427.15	2092.44
427.33	2225.85
427.52	2155.63
427.71	2169.68
427.90	2148.61
428.09	2099.46
428.28	2256.28
428.46	2197.76
428.65	2143.93
428.84	2361.60
429.03	2186.06
429.22	2277.34
429.40	2207.13
429.59	2321.81
429.78	2141.59
429.97	2195.42
430.16	2176.70
430.34	2317.13
430.53	2307.77
430.72	2359.26
430.91	2352.24
431.10	2392.03
431.28	2342.88
431.47	2415.43
431.66	2406.07
431.85	2286.70
432.03	2375.64
432.22	2579.27
432.41	2581.61
432.60	2385.01
432.79	2331.17
432.97	2436.50
433.16	2560.55
433.35	2408.41
433.54	2502.03
433.72	2567.57
433.91	2441.18
434.10	2492.67
434.28	2527.78
434.47	2693.96
434.66	2483.31
434.85	2555.86
435.03	2506.71
435.22	2630.76
435.41	2750.13
435.59	2647.15
435.78	2586.29
435.97	2616.72
436.16	2597.99
436.34	2651.83
436.53	2595.65
436.72	2801.62
436.90	2703.32
437.09	2827.37
437.28	2724.38
437.46	2708.00
437.65	2729.06
437.84	2719.70
438.02	2803.96
438.21	2822.69
438.40	2771.19
438.58	2911.63
438.77	2946.73
438.96	2855.45
439.14	2916.31
439.33	2874.18
439.52	2979.50
439.70	2986.52
439.89	2991.20
440.08	3112.91
440.26	3148.02
440.45	3077.80
440.63	3112.91
440.82	3141.00
441.01	3119.93
441.19	3096.53
441.38	3131.64
441.57	3232.28
441.75	3253.34
441.94	3281.43
442.12	3302.50
442.31	3442.93
442.50	3281.43
442.68	3311.86
442.87	3325.90
443.05	3276.75
443.24	3346.97
443.43	3337.60
443.61	3382.07
443.80	3459.31
443.98	3407.82
444.17	3246.32
444.35	3459.31
444.54	3433.57
444.73	3393.78
444.91	3555.27
445.10	3396.12
445.28	3272.07
445.47	3332.92
445.65	3393.78
445.84	3513.14
446.02	3517.83
446.21	3323.56
446.39	3492.08
446.58	3494.42
446.77	3494.42
446.95	3510.80
447.14	3349.31
447.32	3513.14
447.51	3599.74
447.69	3597.40
447.88	3400.80
448.06	3478.04
448.25	3475.70
448.43	3510.80
448.62	3566.98
448.80	3581.02
448.99	3503.78
449.17	3541.23
449.36	3623.15
449.54	3688.68
449.73	3686.34
449.91	3730.81
450.10	3719.11
450.28	3831.46
450.46	3754.22
450.65	3768.26
450.83	3786.99
451.02	3637.19
451.20	3822.09
451.39	3892.31
451.57	3712.09
451.76	3859.54
451.94	3854.86
452.13	3838.48
452.31	3833.80
452.49	3805.71
452.68	3763.58
452.86	3913.38
453.05	3798.69
453.23	3967.21
453.42	3939.12
453.60	3819.75
453.78	3864.22
453.97	3997.64
454.15	3833.80
454.34	3789.33
454.52	4070.19
454.70	4109.98
454.89	4063.17
455.07	4072.53
455.26	4095.94
455.44	3908.69
455.62	4088.92
455.81	4093.60
455.99	4161.47
456.17	4049.13
456.36	4229.35
456.54	4329.99
456.73	4201.26
456.91	4306.59
457.09	4222.33
457.28	4367.44
457.46	4362.76
457.64	4334.67
457.83	4252.75
458.01	4210.62
458.19	4306.59
458.38	4360.42
458.56	4402.55
458.74	4381.48
458.93	4451.70
459.11	4437.66
459.29	4538.30
459.48	4489.15
459.66	4676.39
459.84	4493.83
460.03	4437.66
460.21	4601.49
460.39	4477.44
460.57	4449.36
460.76	4486.81
460.94	4657.67
461.12	4599.15
461.31	4610.86
461.49	4634.26
461.67	4573.41
461.85	4681.07
462.04	4699.80
462.22	4807.46
462.40	4840.23
462.59	4812.14
462.77	4800.44
462.95	4840.23
463.13	4662.35
463.32	5001.72
463.50	4954.91
463.68	4959.60
463.86	4828.53
464.05	4816.82
464.23	4903.42
464.41	4931.51
464.59	4779.37
464.78	4938.53
464.96	4830.87
465.14	4823.84
465.32	5034.49
465.50	5130.45
465.69	5116.41
465.87	4901.08
466.05	4959.60
466.23	4851.93
466.41	4931.51
466.60	5160.88
466.78	5214.71
466.96	5046.20
467.14	5139.82
467.32	5153.86
467.51	5160.88
467.69	4957.25
467.87	5200.67
468.05	5174.92
468.23	5081.30
468.41	5191.31
468.60	5217.05
468.78	5252.16
468.96	5144.50
469.14	5252.16
469.32	5303.65
469.50	5308.34
469.69	5479.19
469.87	5453.45
470.05	5556.43
470.23	5394.93
470.41	5373.87
470.59	5451.11
470.77	5483.88
470.95	5430.04
471.14	5455.79
471.32	5556.43
471.50	5631.33
471.68	5650.05
471.86	5650.05
472.04	5666.44
472.22	5795.17
472.40	5790.49
472.58	5867.72
472.77	5731.97
472.95	5844.32
473.13	6024.54
473.31	5783.46
473.49	5825.59
473.67	5804.53
473.85	5816.23
474.03	5975.39
474.21	5996.45
474.39	6012.84
474.57	6024.54
474.75	6071.35
474.93	6155.61
475.12	6122.84
475.30	6132.20
475.48	6221.14
475.66	6272.64
475.84	6272.64
476.02	6260.93
476.20	6296.04
476.38	6492.65
476.56	6623.72
476.74	6487.96
476.92	6263.27
477.10	6452.86
477.28	6668.19
477.46	6562.86
477.64	6932.67
477.82	6867.13
478.00	6860.11
478.18	7063.74
478.36	7063.74
478.54	6998.20
478.72	7250.98
478.90	7159.70
479.08	7180.76
479.26	7258.00
479.44	7250.98
479.62	7562.27
479.80	7520.14
479.98	7475.67
480.16	7506.10
480.34	7473.33
480.52	7639.51
480.70	7864.20
480.88	7552.91
481.06	7681.64
481.24	7756.54
481.41	7864.20
481.59	8081.87
481.77	8168.47
481.95	8025.70
482.13	8147.40
482.31	8039.74
482.49	8376.78
482.67	8339.33
482.85	8208.26
483.03	8498.49
483.21	8559.34
483.39	8659.98
483.57	8603.81
483.74	8629.56
483.92	8858.93
484.10	8938.51
484.28	8922.12
484.46	9118.73
484.64	9156.18
484.82	8898.72
485.00	9015.74
485.18	9327.03
485.35	9692.16
485.53	9324.69
485.71	9406.61
485.89	9771.74
486.07	9619.60
486.25	9607.90
486.43	9572.79
486.61	9769.40
486.78	9958.98
486.96	9937.91
487.14	10235.16
487.32	9788.12
487.50	10246.87
487.68	10406.02
487.85	10443.47
488.03	10576.88
488.21	10459.85
488.39	10516.03
488.57	10719.65
488.75	10637.73
488.92	10759.44
489.10	11098.82
489.28	11152.65
489.46	11080.10
489.64	11164.36
489.81	11246.27
489.99	11302.45
490.17	11176.06
490.35	11431.18
490.53	11524.80
490.70	11838.43
490.88	11690.98
491.06	12067.80
491.24	11676.93
491.41	11768.21
491.59	11845.45
491.77	11995.25
491.95	12098.23
492.13	12184.83
492.30	12297.17
492.48	12184.83
492.66	12332.28
492.84	12276.11
493.01	12760.60
493.19	12479.74
493.37	12596.76
493.54	12809.75
493.72	12765.28
493.90	12889.33
494.08	13074.23
494.25	13233.39
494.43	13362.12
494.61	13378.50
494.79	13551.70
494.96	13350.42
495.14	13537.66
495.32	13357.44
495.49	13570.43
495.67	13612.56
495.85	13926.19
496.02	13921.51
496.20	14277.27
496.38	14033.85
496.55	13912.14
496.73	14462.17
496.91	14038.53
497.09	14595.58
497.26	14382.59
497.44	14146.20
497.62	14420.04
497.79	14827.29
497.97	14843.68
498.14	14766.44
498.32	14998.15
498.50	14949.00
498.67	15115.18
498.85	14820.27
499.03	15169.01
499.20	15190.08
499.38	15089.43
499.56	15440.51
499.73	15475.62
499.91	15536.48
500.08	15728.40
500.26	15302.42
500.44	15733.08
500.61	15702.65
500.79	15789.25
500.97	15740.10
501.14	15704.99
501.32	15864.15
501.49	15847.77
501.67	15889.90
501.84	16037.35
502.02	16243.32
502.20	16102.89
502.37	16437.58
502.55	16119.27
502.72	16475.03
502.90	16470.35
503.07	16161.40
503.25	16451.63
503.43	16229.27
503.60	16430.56
503.78	16460.99
503.95	16463.33
504.13	16645.89
504.30	16606.10
504.48	16898.67
504.65	16711.42
504.83	16826.11
505.01	17039.10
505.18	16737.17
505.36	17064.85
505.53	16802.71
505.71	17273.15
505.88	17193.58
506.06	17137.40
506.23	17432.31
506.41	17291.88
506.58	17287.20
506.76	17495.50
506.93	17724.88
507.11	17507.21
507.28	17750.62
507.46	17687.43
507.63	17767.01
507.81	17832.54
507.98	17858.29
508.16	17774.03
508.33	18022.12
508.50	18003.40
508.68	18162.56
508.85	18141.49
509.03	18148.51
509.20	18354.48
509.38	18441.08
509.55	18097.02
509.73	18476.19
509.90	18045.53
510.08	18434.06
510.25	18317.03
510.42	18691.52
510.60	18801.52
510.77	18523.00
510.95	18883.44
511.12	18871.74
511.30	18696.20
511.47	19028.56
511.64	18948.98
511.82	19056.64
511.99	19000.47
512.17	19108.13
512.34	19197.07
512.51	18881.10
512.69	19063.66
512.86	19264.95
513.04	19674.54
513.21	19463.90
513.38	19733.06
513.56	19728.38
513.73	19688.59
513.90	19655.82
514.08	19510.71
514.25	19936.68
514.43	20034.99
514.60	19838.38
514.77	19934.34
514.95	20156.69
515.12	19981.15
515.29	19623.05
515.47	20219.89
515.64	20116.90
515.81	20053.71
515.99	20201.16
516.16	20336.91
516.33	20299.47
516.51	20695.02
516.68	20308.83
516.85	20212.87
517.03	20683.31
517.20	20514.80
517.37	20610.76
517.54	20889.28
517.72	20617.78
517.89	20697.36
518.06	20538.20
518.24	20891.62
518.41	21067.16
518.58	20706.72
518.75	20964.18
518.93	20863.54
519.10	20725.44
519.27	21006.31
519.45	21076.52
519.62	21010.99
519.79	21357.39
519.96	21413.56
520.14	21235.68
520.31	21553.99
520.48	21490.80
520.65	21223.98
520.83	21383.13
521.00	21401.86
521.17	21549.31
521.34	21383.13
521.52	21682.72
521.69	21694.43
521.86	21656.98
522.03	21572.72
522.20	21673.36
522.38	22160.19
522.55	21898.05
522.72	21996.35
522.89	21659.32
523.07	22328.71
523.24	21935.50
523.41	22466.80
523.58	22256.15
523.75	22260.84
523.92	22171.89
524.10	22485.53
524.27	22356.80
524.44	22693.83
524.61	22422.33
524.78	22501.91
524.96	22616.60
525.13	22728.94
525.30	22511.27
525.47	22705.54
525.64	22684.47
525.81	22827.24
525.98	22932.57
526.16	22963.00
526.33	22815.54
526.50	23042.57
526.67	23058.96
526.84	22890.44
527.01	23037.89
527.18	23073.00
527.36	23211.09
527.53	23335.14
527.70	23330.46
527.87	23414.72
528.04	23190.03
528.21	23456.85
528.38	23236.84
528.55	23098.75
528.72	23220.45
528.89	23311.74
529.07	23552.81
529.24	23293.01
529.41	23576.22
529.58	23721.33
529.75	23637.07
529.92	23552.81
530.09	23749.42
530.26	23644.09
530.43	23784.52
530.60	23681.54
530.77	23896.87
530.94	24009.22
531.11	24318.17
531.28	23740.05
531.46	23871.12
531.63	23667.50
531.80	24175.39
531.97	24376.68
532.14	24290.08
532.31	24086.45
532.48	24395.40
532.65	24458.60
532.82	24299.44
532.99	24372.00
533.16	24142.63
533.33	24671.59
533.50	24311.14
533.67	24652.86
533.84	24142.63
534.01	24151.99
534.18	24353.27
534.35	24858.83
534.52	24540.52
534.69	24938.41
534.86	24999.26
535.03	24851.81
535.20	24596.69
535.37	24720.74
535.54	24961.81
535.71	24634.14
535.88	24900.96
536.05	24809.68
536.22	24980.54
536.38	25006.28
536.55	25319.92
536.72	24961.81
536.89	24964.15
537.06	24950.11
537.23	24985.22
537.40	25200.55
537.57	25034.37
537.74	25146.72
537.91	25614.82
538.08	25387.79
538.25	25521.20
538.42	25209.91
538.59	25785.68
538.75	24996.92
538.92	25303.53
539.09	25703.76
539.26	25565.67
539.43	25521.20
539.60	25607.80
539.77	25497.80
539.94	25507.16
540.11	25806.75
540.28	25802.07
540.44	25956.54
540.61	25640.57
540.78	25139.69
540.95	25682.70
541.12	25736.53
541.29	25811.43
541.46	26045.48
541.62	25610.14
541.79	25745.89
541.96	25537.59
542.13	25806.75
542.30	26249.11
542.47	26359.11
542.63	26134.42
542.80	26434.01
542.97	26485.50
543.14	26169.53
543.31	26195.28
543.48	26178.89
543.64	26796.79
543.81	26513.59
543.98	26897.44
544.15	26604.87
544.32	26789.77
544.48	26831.90
544.65	26757.00
544.82	26845.94
544.99	26408.26
545.16	26745.30
545.32	26677.43
545.49	27068.30
545.66	27143.19
545.83	27363.20
546.00	27393.63
546.16	26698.49
546.33	26885.73
546.50	26536.99
546.67	26911.48
546.83	26724.24
547.00	26904.46
547.17	26789.77
547.34	27101.06
547.50	27037.87
547.67	27033.19
547.84	27337.46
548.00	27061.27
548.17	27447.46
548.34	27150.21
548.51	27709.60
548.67	27395.97
548.84	27428.74
549.01	27711.94
549.18	27136.17
549.34	27475.55
549.51	27267.24
549.68	27283.62
549.84	27498.95
550.01	27583.21
550.18	27515.34
550.34	27594.92
550.51	27740.03
550.68	27625.34
550.84	27374.91
551.01	27573.85
551.18	27517.68
551.34	27417.04
551.51	27857.06
551.68	27927.27
551.84	27819.61
552.01	27697.90
552.18	28004.51
552.34	27854.72
552.51	27955.36
552.68	27999.83
552.84	27927.27
553.01	28002.17
553.18	28023.23
553.34	28009.19
553.51	28091.11
553.67	28400.06
553.84	28238.56
554.01	28313.46
554.17	28505.38
554.34	27990.47
554.51	27899.19
554.67	28423.47
554.84	28194.09
555.00	28304.10
555.17	28371.97
555.33	28290.06
555.50	28161.33
555.67	28072.39
555.83	28315.80
556.00	28215.16
556.16	28744.12
556.33	28189.41
556.50	28236.22
556.66	28402.40
556.83	28444.53
556.99	28790.93
557.16	28669.22
557.32	28879.87
557.49	28659.86
557.65	28477.30
557.82	28903.28
557.98	28573.26
558.15	28631.77
558.32	28900.94
558.48	28559.22
558.65	29142.01
558.81	28561.56
558.98	28570.92
559.14	29015.62
559.31	29055.41
559.47	28725.39
559.64	28456.23
559.80	29146.69
559.97	28966.47
560.13	28849.44
560.30	29074.13
560.46	29125.63
560.63	28936.04
560.79	29242.65
560.96	29465.00
561.12	28814.34
561.29	28849.44
561.45	28772.21
561.61	29027.32
561.78	29008.60
561.94	28704.33
562.11	29202.86
562.27	29053.07
562.44	28996.90
562.60	28814.34
562.77	28945.41
562.93	29139.67
563.10	29130.31
563.26	29041.37
563.42	29481.39
563.59	28709.01
563.75	29439.26
563.92	29146.69
564.08	29216.91
564.24	29095.20
564.41	29041.37
564.57	29184.14
564.74	29153.71
564.90	29106.90
565.07	29481.39
565.23	29771.61
565.39	29273.08
565.56	29357.34
565.72	29146.69
565.88	29614.80
566.05	29362.02
566.21	29261.38
566.38	29118.60
566.54	29628.84
566.70	29663.95
566.87	29752.89
567.03	29612.46
567.19	29778.64
567.36	29731.83
567.52	29312.87
567.68	29315.21
567.85	29032.00
568.01	29680.33
568.17	29455.64
568.34	29593.73
568.50	29776.30
568.66	29788.00
568.83	29752.89
568.99	29558.63
569.15	29535.22
569.32	29567.99
569.48	29256.70
569.64	29476.71
569.81	29537.56
569.97	29816.08
570.13	29722.46
570.30	29799.70
570.46	29675.65
570.62	29659.27
570.78	29296.49
570.95	29415.85
571.11	29380.74
571.27	29282.44
571.43	29596.07
571.60	29734.17
571.76	29450.96
571.92	29558.63
572.09	29923.75
572.25	29832.47
572.41	29757.57
572.57	29942.47
572.74	29984.60
572.90	29483.73
573.06	29289.46
573.22	29577.35
573.38	29446.28
573.55	29291.80
573.71	29727.14
573.87	29689.70
574.03	29738.85
574.20	29685.01
574.36	29900.34
574.52	29968.22
574.68	29626.50
574.84	29769.27
575.01	29895.66
575.17	29839.49
575.33	29949.50
575.49	29996.31
575.65	30078.22
575.82	29778.64
575.98	29912.05
576.14	30047.80
576.30	29862.90
576.46	29575.01
576.62	29677.99
576.79	29809.06
576.95	29907.37
577.11	30455.05
577.27	30157.80
577.43	30019.71
577.59	30054.82
577.75	29926.09
577.92	29397.13
578.08	29860.55
578.24	30000.99
578.40	29715.44
578.56	30183.55
578.72	30183.55
578.88	30199.93
579.04	30274.83
579.21	30232.70
579.37	29930.77
579.53	29975.24
579.69	29778.64
579.85	29575.01
580.01	29783.32
580.17	29450.96
580.33	29795.02
580.49	30206.95
580.65	30143.76
580.82	30038.44
580.98	30183.55
581.14	30309.94
581.30	30206.95
581.46	30188.23
581.62	29984.60
581.78	29989.28
581.94	29778.64
582.10	29722.46
582.26	29729.48
582.42	30218.66
582.58	29888.64
582.74	30272.49
582.90	30080.56
583.06	30178.87
583.22	29715.44
583.38	30174.19
583.54	30146.10
583.70	29893.32
583.86	30176.53
584.02	30204.61
584.18	30433.99
584.34	30352.07
584.50	30431.65
584.66	29883.96
584.82	29773.95
584.98	30197.59
585.14	30178.87
585.30	29940.13
585.46	29853.53
585.62	29692.04
585.78	29865.24
585.94	30012.69
586.10	30031.41
586.26	30204.61
586.42	30504.20
586.58	30040.78
586.74	30260.79
586.90	30316.96
587.06	30169.51
587.22	30162.48
587.38	29624.16
587.54	29816.08
587.70	30298.23
587.86	30298.23
588.02	30221.00
588.18	30754.64
588.34	30300.58
588.49	29977.58
588.65	29898.00
588.81	29900.34
588.97	30237.38
589.13	30080.56
589.29	29996.31
589.45	30136.74
589.61	30464.41
589.77	30448.03
589.93	30401.22
590.08	30485.48
590.24	30312.28
590.40	30471.43
590.56	30890.39
590.72	30052.48
590.88	29961.20
591.04	30469.09
591.20	30515.90
591.35	30764.00
591.51	30864.64
591.67	30597.82
591.83	30656.34
591.99	30408.24
