SpectraSuite Data File
++++++++++++++++++++++++++++++++++++
Date: Fri Oct 18 13:58:08 GMT-05:00 2013
User: bianchi
Dark Spectrum Present: No
Reference Spectrum Present: No
Number of Sampled Component Spectra: 1
Spectrometers: USB2+H05261
Integration Time (usec): 50000 (USB2+H05261)
Spectra Averaged: 1 (USB2+H05261)
Boxcar Smoothing: 0 (USB2+H05261)
Correct for Electrical Dark: No (USB2+H05261)
Strobe/Lamp Enabled: No (USB2+H05261)
Correct for Detector Non-linearity: No (USB2+H05261)
Correct for Stray Light: No (USB2+H05261)
Number of Pixels in Processed Spectrum: 2048
>>>>>Begin Processed Spectral Data<<<<<
365.73	0.00
365.92	0.00
366.12	0.00
366.32	0.00
366.52	0.00
366.72	0.00
366.91	0.00
367.11	0.00
367.31	0.00
367.51	0.00
367.70	0.00
367.90	0.00
368.10	0.00
368.30	0.00
368.49	0.00
368.69	0.00
368.89	0.00
369.09	0.00
369.28	0.00
369.48	0.00
369.68	0.00
369.87	0.00
370.07	0.00
370.27	0.00
370.47	0.00
370.66	67.88
370.86	114.69
371.06	100.64
371.25	105.32
371.45	107.66
371.65	124.05
371.84	133.41
372.04	166.18
372.24	88.94
372.44	156.82
372.63	189.58
372.83	212.99
373.03	205.97
373.22	170.86
373.42	234.05
373.62	208.31
373.81	210.65
374.01	231.71
374.21	299.59
374.40	259.80
374.60	238.73
374.79	252.78
374.99	259.80
375.19	227.03
375.38	306.61
375.58	285.55
375.78	294.91
375.97	243.42
376.17	273.84
376.37	287.89
376.56	290.23
376.76	280.86
376.95	318.31
377.15	318.31
377.35	238.73
377.54	299.59
377.74	276.18
377.93	290.23
378.13	358.10
378.33	278.52
378.52	344.06
378.72	297.25
378.91	257.46
379.11	271.50
379.31	320.65
379.50	290.23
379.70	238.73
379.89	318.31
380.09	362.78
380.28	304.27
380.48	308.95
380.68	299.59
380.87	252.78
381.07	229.37
381.26	325.33
381.46	355.76
381.65	351.08
381.85	327.68
382.04	365.12
382.24	313.63
382.43	292.57
382.63	341.72
382.83	344.06
383.02	383.85
383.22	470.45
383.41	430.66
383.61	416.62
383.80	358.10
384.00	428.32
384.19	393.21
384.39	409.59
384.58	301.93
384.78	397.89
384.97	409.59
385.17	407.25
385.36	379.17
385.56	456.40
385.75	442.36
385.95	386.19
386.14	407.25
386.34	416.62
386.53	437.68
386.72	285.55
386.92	390.87
387.11	470.45
387.31	351.08
387.50	365.12
387.70	397.89
387.89	421.30
388.09	458.74
388.28	400.23
388.48	442.36
388.67	463.43
388.86	358.10
389.06	423.64
389.25	463.43
389.45	535.98
389.64	437.68
389.84	589.82
390.03	543.00
390.22	435.34
390.42	437.68
390.61	533.64
390.81	498.53
391.00	500.87
391.19	587.47
391.39	559.39
391.58	526.62
391.78	493.85
391.97	568.75
392.16	535.98
392.36	561.73
392.55	468.11
392.75	599.18
392.94	465.77
393.13	580.45
393.33	575.77
393.52	461.09
393.71	568.75
393.91	596.84
394.10	657.69
394.29	643.65
394.49	622.58
394.68	566.41
394.88	669.39
395.07	692.80
395.26	681.10
395.46	575.77
395.65	620.24
395.84	559.39
396.04	695.14
396.23	636.63
396.42	638.97
396.62	643.65
396.81	748.97
397.00	671.73
397.19	720.88
397.39	702.16
397.58	641.31
397.77	641.31
397.97	720.88
398.16	692.80
398.35	760.67
398.55	744.29
398.74	718.54
398.93	821.53
399.12	741.95
399.32	695.14
399.51	697.48
399.70	781.74
399.90	720.88
400.09	800.46
400.28	819.19
400.47	835.57
400.67	774.72
400.86	795.78
401.05	873.02
401.24	758.33
401.44	849.61
401.63	929.19
401.82	905.79
402.01	844.93
402.21	732.59
402.40	901.11
402.59	842.59
402.78	854.30
402.97	802.80
403.17	880.04
403.36	861.32
403.55	835.57
403.74	894.08
403.93	901.11
404.13	873.02
404.32	915.15
404.51	976.00
404.70	903.45
404.89	898.77
405.09	973.66
405.28	903.45
405.47	898.77
405.66	884.72
405.85	959.62
406.05	950.26
406.24	940.90
406.43	1076.65
406.62	997.07
406.81	1069.62
407.00	971.32
407.20	952.60
407.39	954.94
407.58	1128.14
407.77	1078.99
407.96	1055.58
408.15	1153.88
408.34	1107.07
408.54	1188.99
408.73	978.34
408.92	1151.54
409.11	1093.03
409.30	1158.57
409.49	1184.31
409.68	1088.35
409.87	1102.39
410.07	1181.97
410.26	1200.69
410.45	1203.04
410.64	1245.16
410.83	1238.14
411.02	1172.61
411.21	1273.25
411.40	1165.59
411.59	1336.45
411.78	1341.13
411.98	1284.95
412.17	1376.24
412.36	1359.85
412.55	1357.51
412.74	1383.26
412.93	1324.74
413.12	1348.15
413.31	1516.67
413.50	1416.02
413.69	1387.94
413.88	1411.34
414.07	1474.54
414.26	1465.18
414.45	1584.54
414.64	1547.09
414.83	1514.33
415.02	1554.12
415.22	1568.16
415.41	1544.75
415.60	1563.48
415.79	1570.50
415.98	1561.14
416.17	1659.44
416.36	1657.10
416.55	1706.25
416.74	1619.65
416.93	1598.59
417.12	1565.82
417.31	1767.10
417.50	1703.91
417.69	1722.63
417.88	1633.69
418.07	1762.42
418.26	1699.23
418.45	1816.26
418.64	1844.34
418.83	1860.73
419.02	1776.47
419.21	1734.34
419.39	1893.49
419.58	1687.53
419.77	1776.47
419.96	1849.02
420.15	1954.35
420.34	1893.49
420.53	1853.70
420.72	1919.24
420.91	1987.11
421.10	1980.09
421.29	1956.69
421.48	1893.49
421.67	2001.16
421.86	1914.56
422.05	1926.26
422.24	2076.06
422.43	1973.07
422.61	2038.61
422.80	2104.14
422.99	2083.08
423.18	2078.40
423.37	2008.18
423.56	1907.54
423.75	2066.69
423.94	1977.75
424.13	1912.22
424.32	1959.03
424.50	2059.67
424.69	2150.95
424.88	2040.95
425.07	2003.50
425.26	1949.67
425.45	2122.87
425.64	2062.01
425.83	2033.93
426.01	2066.69
426.20	2031.58
426.39	2106.48
426.58	2165.00
426.77	2160.31
426.96	2167.34
427.15	2097.12
427.33	2195.42
427.52	2132.23
427.71	2197.76
427.90	2129.89
428.09	2153.29
428.28	2225.85
428.46	2303.09
428.65	2225.85
428.84	2286.70
429.03	2413.09
429.22	2246.91
429.40	2235.21
429.59	2258.62
429.78	2258.62
429.97	2160.31
430.16	2284.36
430.34	2380.32
430.53	2366.28
430.72	2349.90
430.91	2338.20
431.10	2303.09
431.28	2356.92
431.47	2457.56
431.66	2459.90
431.85	2438.84
432.03	2502.03
432.22	2527.78
432.41	2518.42
432.60	2469.27
432.79	2427.14
432.97	2497.35
433.16	2537.14
433.35	2483.31
433.54	2478.63
433.72	2523.10
433.91	2518.42
434.10	2621.40
434.28	2628.42
434.47	2406.07
434.66	2630.76
434.85	2684.59
435.03	2621.40
435.22	2576.93
435.41	2703.32
435.59	2693.96
435.78	2569.91
435.97	2689.28
436.16	2677.57
436.34	2738.43
436.53	2698.64
436.72	2792.26
436.90	2719.70
437.09	2712.68
437.28	2677.57
437.46	2867.16
437.65	2710.34
437.84	2810.98
438.02	2885.88
438.21	2792.26
438.40	2890.56
438.58	2876.52
438.77	3007.59
438.96	2778.22
439.14	2932.69
439.33	2913.97
439.52	2953.76
439.70	3026.31
439.89	2977.16
440.08	2920.99
440.26	3080.14
440.45	2986.52
440.63	3052.06
440.82	3126.96
441.01	3126.96
441.19	3150.36
441.38	3398.46
441.57	3248.66
441.75	3267.39
441.94	3262.71
442.12	3274.41
442.31	3407.82
442.50	3288.45
442.68	3382.07
442.87	3309.52
443.05	3358.67
443.24	3461.65
443.43	3372.71
443.61	3398.46
443.80	3496.76
443.98	3382.07
444.17	3365.69
444.35	3456.97
444.54	3644.21
444.73	3616.13
444.91	3433.57
445.10	3534.21
445.28	3590.38
445.47	3463.99
445.65	3536.55
445.84	3602.08
446.02	3520.17
446.21	3524.85
446.39	3583.36
446.58	3499.10
446.77	3632.51
446.95	3534.21
447.14	3524.85
447.32	3632.51
447.51	3555.27
447.69	3426.54
447.88	3698.05
448.06	3597.40
448.25	3501.44
448.43	3604.42
448.62	3466.33
448.80	3714.43
448.99	3700.39
449.17	3527.19
449.36	3590.38
449.54	3616.13
449.73	3829.12
449.91	3676.98
450.10	3702.73
450.28	3782.31
450.46	3749.54
450.65	3779.97
450.83	3801.03
451.02	3826.78
451.20	3857.20
451.39	3833.80
451.57	3831.46
451.76	3805.71
451.94	3899.33
452.13	3859.54
452.31	4035.08
452.49	3976.57
452.68	3953.16
452.86	3934.44
453.05	3997.64
453.23	3932.10
453.42	3978.91
453.60	3815.07
453.78	3974.23
453.97	3943.80
454.15	3943.80
454.34	3768.26
454.52	4093.60
454.70	4070.19
454.89	4168.49
455.07	4128.70
455.26	4248.07
455.44	4222.33
455.62	4074.87
455.81	4131.05
455.99	4175.52
456.17	4208.28
456.36	4142.75
456.54	4287.86
456.73	4231.69
456.91	4198.92
457.09	4379.14
457.28	4463.40
457.46	4432.97
457.64	4383.82
457.83	4468.08
458.01	4327.65
458.19	4395.53
458.38	4423.61
458.56	4594.47
458.74	4507.87
458.93	4348.72
459.11	4545.32
459.29	4634.26
459.48	4617.88
459.66	4561.70
459.84	4540.64
460.03	4739.58
460.21	4458.72
460.39	4641.28
460.57	4660.01
460.76	4685.75
460.94	4713.84
461.12	4662.35
461.31	4709.16
461.49	4667.03
461.67	4699.80
461.85	4786.40
462.04	4954.91
462.22	5006.41
462.40	4917.47
462.59	4821.50
462.77	5004.07
462.95	4770.01
463.13	4849.59
463.32	4840.23
463.50	4777.03
463.68	4877.68
463.86	5067.26
464.05	4793.42
464.23	4889.38
464.41	4912.78
464.59	4821.50
464.78	4931.51
464.96	4978.32
465.14	4912.78
465.32	4968.96
465.50	5083.64
465.69	5165.56
465.87	5008.75
466.05	5083.64
466.23	5085.98
466.41	5193.65
466.60	5366.85
466.78	5139.82
466.96	5114.07
467.14	5135.14
467.32	5268.55
467.51	5224.08
467.69	5004.07
467.87	5329.40
468.05	5247.48
468.23	5282.59
468.41	5343.44
468.60	5369.19
468.78	5343.44
468.96	5303.65
469.14	5350.46
469.32	5296.63
469.50	5401.96
469.69	5437.06
469.87	5551.75
470.05	5472.17
470.23	5397.28
470.41	5425.36
470.59	5551.75
470.77	5514.30
470.95	5537.71
471.14	5673.46
471.32	5575.16
471.50	5680.48
471.68	5579.84
471.86	5783.46
472.04	5769.42
472.22	5884.11
472.40	5764.74
472.58	5771.76
472.77	5774.10
472.95	6008.16
473.13	5977.73
473.31	5694.52
473.49	5895.81
473.67	5947.30
473.85	5994.11
474.03	6134.54
474.21	6092.41
474.39	6080.71
474.57	6080.71
474.75	6221.14
474.93	6317.11
475.12	6218.80
475.30	6296.04
475.48	6129.86
475.66	6253.91
475.84	6448.18
476.02	6452.86
476.20	6633.08
476.38	6502.01
476.56	6705.63
476.74	6698.61
476.92	6679.89
477.10	6621.38
477.28	6913.94
477.46	6684.57
477.64	6715.00
477.82	6906.92
478.00	7061.40
478.18	7115.23
478.36	6986.50
478.54	7204.17
478.72	7269.70
478.90	7204.17
479.08	7246.30
479.26	7243.96
479.44	7431.20
479.62	7454.61
479.80	7632.49
479.98	7751.85
480.16	7566.95
480.34	7522.48
480.52	7768.24
480.70	7646.53
480.88	7768.24
481.06	7873.56
481.24	7878.24
481.41	7913.35
481.59	8035.06
481.77	8173.15
481.95	8056.12
482.13	8365.07
482.31	8259.75
482.49	8439.97
482.67	8479.76
482.85	8484.44
483.03	8594.45
483.21	8634.24
483.39	8847.22
483.57	8760.63
483.74	8690.41
483.92	8929.14
484.10	8819.14
484.28	9125.75
484.46	9348.10
484.64	9334.06
484.82	8973.61
485.00	9238.09
485.18	9472.15
485.35	9589.17
485.53	9317.67
485.71	9577.47
485.89	9722.59
486.07	9717.90
486.25	9755.35
486.43	9802.16
486.61	9991.75
486.78	9966.00
486.96	9919.19
487.14	10202.40
487.32	10246.87
487.50	10171.97
487.68	10265.59
487.85	10384.96
488.03	10595.61
488.21	10752.42
488.39	10537.09
488.57	10904.56
488.75	10923.28
488.92	11105.84
489.10	11007.54
489.28	11164.36
489.46	11260.32
489.64	11187.76
489.81	11403.09
489.99	11332.87
490.17	11681.61
490.35	11646.51
490.53	11817.36
490.70	11875.88
490.88	11868.86
491.06	12009.29
491.24	11967.16
491.41	12194.19
491.59	12100.57
491.77	12063.12
491.95	12241.00
492.13	12477.40
492.30	12226.96
492.48	12320.58
492.66	12395.48
492.84	12641.23
493.01	12971.25
493.19	12959.55
493.37	12695.07
493.54	12961.89
493.72	12868.27
493.90	13090.62
494.08	13172.54
494.25	13383.18
494.43	13420.63
494.61	13350.42
494.79	13558.72
494.96	13495.53
495.14	13603.19
495.32	13619.58
495.49	13994.06
495.67	13640.64
495.85	13954.27
496.02	13951.93
496.20	13994.06
496.38	14185.99
496.55	14244.50
496.73	14787.50
496.91	14387.27
497.09	14534.73
497.26	14516.00
497.44	14717.29
497.62	14635.37
497.79	14911.55
497.97	14799.21
498.14	14974.75
498.32	15264.97
498.50	15070.71
498.67	15379.66
498.85	15016.88
499.03	15520.09
499.20	15283.70
499.38	15325.83
499.56	15665.21
499.73	15304.76
499.91	15707.34
500.08	15763.51
500.26	15339.87
500.44	15669.89
500.61	15421.79
500.79	15655.84
500.97	15871.17
501.14	16140.33
501.32	16035.01
501.49	16084.16
501.67	16240.98
501.84	16093.52
502.02	16243.32
502.20	16255.02
502.37	16449.28
502.55	16718.45
502.72	16493.76
502.90	16315.87
503.07	16451.63
503.25	16517.16
503.43	16449.28
503.60	16798.02
503.78	16666.95
503.95	16575.67
504.13	16657.59
504.30	16699.72
504.48	16968.88
504.65	17076.55
504.83	17348.05
505.01	17640.62
505.18	16987.61
505.36	17277.83
505.53	17200.60
505.71	17317.62
505.88	17486.14
506.06	17383.16
506.23	17518.91
506.41	17874.67
506.58	17628.92
506.76	17806.80
506.93	17853.61
507.11	17579.76
507.28	17823.18
507.46	17774.03
507.63	18050.21
507.81	18139.15
507.98	17991.70
508.16	18024.47
508.33	18204.69
508.50	18221.07
508.68	18111.07
508.85	18644.71
509.03	18593.22
509.20	18607.26
509.38	18778.12
509.55	18733.65
509.73	18728.97
509.90	18508.96
510.08	18298.31
510.25	18724.29
510.42	19009.83
510.60	18902.17
510.77	18768.76
510.95	19241.54
511.12	18977.06
511.30	18878.76
511.47	19241.54
511.64	19349.21
511.82	19424.11
511.99	19309.42
512.17	19391.34
512.34	19527.09
512.51	19271.97
512.69	19566.88
512.86	19463.90
513.04	19534.11
513.21	19763.48
513.38	19765.82
513.56	19960.09
513.73	19875.83
513.90	19779.87
514.08	20152.01
514.25	20198.82
514.43	20173.08
514.60	20175.42
514.77	19871.15
514.95	20168.40
515.12	20367.34
515.29	20208.19
515.47	20224.57
515.64	20416.49
515.81	20137.97
515.99	20746.51
516.16	20449.26
516.33	20734.81
516.51	20870.56
516.68	20638.84
516.85	20210.53
517.03	20688.00
517.20	20870.56
517.37	20638.84
517.54	20879.92
517.72	20819.07
517.89	20950.14
518.06	21043.76
518.24	20936.09
518.41	21064.82
518.58	21186.53
518.75	21350.37
518.93	21151.42
519.10	21202.91
519.27	21266.11
519.45	21261.43
519.62	21303.56
519.79	21310.58
519.96	21341.00
520.14	21872.31
520.31	21680.38
520.48	21813.79
520.65	22125.08
520.83	21390.16
521.00	22024.44
521.17	21556.33
521.34	21839.54
521.52	21788.05
521.69	21961.25
521.86	22157.85
522.03	22113.38
522.20	22368.50
522.38	22132.11
522.55	22099.34
522.72	22068.91
522.89	21884.01
523.07	22520.63
523.24	22553.40
523.41	22469.14
523.58	22583.83
523.75	22750.01
523.92	22274.88
524.10	22618.94
524.27	22501.91
524.44	22703.20
524.61	22686.81
524.78	23077.68
524.96	22845.97
525.13	22916.19
525.30	22609.58
525.47	22668.09
525.64	23061.30
525.81	23058.96
525.98	23037.89
526.16	23068.32
526.33	23250.88
526.50	23365.57
526.67	23183.01
526.84	23337.48
527.01	23260.24
527.18	23094.07
527.36	23463.87
527.53	23431.10
527.70	23623.03
527.87	23716.65
528.04	23339.82
528.21	23915.59
528.38	23625.37
528.55	23826.65
528.72	23620.69
528.89	23620.69
529.07	24018.58
529.24	23913.25
529.41	23950.70
529.58	23864.10
529.75	23608.98
529.92	23768.14
530.09	23887.51
530.26	24133.26
530.43	24123.90
530.60	23988.15
530.77	23995.17
530.94	24170.71
531.11	24297.10
531.28	24346.25
531.46	24496.05
531.63	24383.70
531.80	24060.71
531.97	24451.58
532.14	24503.07
532.31	24367.32
532.48	24685.63
532.65	24514.77
532.82	24346.25
532.99	24699.67
533.16	24697.33
533.33	24973.52
533.50	24933.73
533.67	24975.86
533.84	24877.55
534.01	24915.00
534.18	24458.60
534.35	24723.08
534.52	24755.85
534.69	25364.39
534.86	25092.88
535.03	24498.39
535.20	25268.42
535.37	24917.34
535.54	25216.93
535.71	24936.07
535.88	25146.72
536.05	25549.29
536.22	25453.33
536.38	25799.73
536.55	25371.41
536.72	25823.13
536.89	25462.69
537.06	25483.75
537.23	25483.75
537.40	25359.70
537.57	25479.07
537.74	25397.15
537.91	25757.60
538.08	25788.02
538.25	25640.57
538.42	25450.99
538.59	25933.14
538.75	25472.05
538.92	25895.69
539.09	25923.77
539.26	25802.07
539.43	25898.03
539.60	26099.31
539.77	25930.80
539.94	26054.84
540.11	25958.88
540.28	26319.32
540.44	26061.87
540.61	26019.74
540.78	26101.65
540.95	25951.86
541.12	25811.43
541.29	26305.28
541.46	26295.92
541.62	26408.26
541.79	26202.30
541.96	25919.09
542.13	26157.83
542.30	26576.78
542.47	26677.43
542.63	26515.93
542.80	26717.22
542.97	26799.13
543.14	26558.06
543.31	26958.29
543.48	26735.94
543.64	26974.67
543.81	26941.91
543.98	26946.59
544.15	26913.82
544.32	26869.35
544.48	27166.60
544.65	27072.98
544.82	27110.43
544.99	26909.14
545.16	27089.36
545.32	27241.50
545.49	27136.17
545.66	27541.08
545.83	27108.08
546.00	27590.24
546.16	27143.19
546.33	27049.57
546.50	27005.10
546.67	27278.94
546.83	26897.44
547.00	27503.64
547.17	27393.63
547.34	27967.06
547.50	27358.52
547.67	27948.34
547.84	28044.30
548.00	27702.58
548.17	27751.73
548.34	27740.03
548.51	27693.22
548.67	27688.54
548.84	27683.86
549.01	27583.21
549.18	27852.38
549.34	27861.74
549.51	27803.22
549.68	27857.06
549.84	27613.64
550.01	27981.10
550.18	27655.77
550.34	27850.03
550.51	28135.58
550.68	27924.93
550.84	27747.05
551.01	28084.09
551.18	27681.52
551.34	27835.99
551.51	27960.04
551.68	28102.81
551.84	28147.28
552.01	28011.53
552.18	28734.76
552.34	28257.29
552.51	28198.77
552.68	28341.55
552.84	27821.95
553.01	28451.55
553.18	28210.48
553.34	28542.83
553.51	28210.48
553.67	28510.07
553.84	28416.44
554.01	28725.39
554.17	28486.66
554.34	28622.41
554.51	28355.59
554.67	28762.84
554.84	28615.39
555.00	28423.47
555.17	28741.78
555.33	28622.41
555.50	28458.57
555.67	28545.17
555.83	28933.70
556.00	28786.25
556.16	28889.23
556.33	28697.31
556.50	28952.43
556.66	28767.52
556.83	28945.41
556.99	29165.42
557.16	29067.11
557.32	29347.98
557.49	29230.95
557.65	28608.37
557.82	29036.69
557.98	28828.38
558.15	29092.86
558.32	28819.02
558.48	29252.02
558.65	29460.32
558.81	29027.32
558.98	28870.51
559.14	29083.50
559.31	29032.00
559.47	29139.67
559.64	29422.87
559.80	29457.98
559.97	29467.34
560.13	29090.52
560.30	29015.62
560.46	29373.72
560.63	29448.62
560.79	29551.60
560.96	29242.65
561.12	29200.52
561.29	29240.31
561.45	29355.00
561.61	29357.34
561.78	29474.37
561.94	29483.73
562.11	29476.71
562.27	29116.26
562.44	29207.55
562.60	29226.27
562.77	28889.23
562.93	29324.57
563.10	29731.83
563.26	29387.77
563.42	29680.33
563.59	29687.36
563.75	29347.98
563.92	29830.13
564.08	29216.91
564.24	29303.51
564.41	29481.39
564.57	29429.90
564.74	29825.45
564.90	29996.31
565.07	29521.18
565.23	30101.63
565.39	29560.97
565.56	30115.67
565.72	29734.17
565.88	29799.70
566.05	29626.50
566.21	29612.46
566.38	29893.32
566.54	29661.61
566.70	30045.46
566.87	30298.23
567.03	29968.22
567.19	30146.10
567.36	29883.96
567.52	30192.91
567.68	29717.78
567.85	30024.39
568.01	29930.77
568.17	29586.71
568.34	30244.40
568.50	29926.09
568.66	30059.50
568.83	29890.98
568.99	30204.61
569.15	30050.14
569.32	30031.41
569.48	29776.30
569.64	30082.91
569.81	29741.19
569.97	30043.12
570.13	30003.33
570.30	30000.99
570.46	30417.60
570.62	30118.01
570.78	30146.10
570.95	30031.41
571.11	30096.95
571.27	29785.66
571.43	30012.69
571.60	29874.60
571.76	30110.99
571.92	29827.79
572.09	30382.49
572.25	30508.88
572.41	30132.06
572.57	30221.00
572.74	30497.18
572.90	30450.37
573.06	29841.83
573.22	29921.41
573.38	30061.84
573.55	29879.28
573.71	30473.78
573.87	30576.76
574.03	30221.00
574.20	30696.13
574.36	30092.27
574.52	30092.27
574.68	30249.08
574.84	29996.31
575.01	30672.72
575.17	30225.68
575.33	30000.99
575.49	30560.37
575.65	30492.50
575.82	30150.78
575.98	30373.13
576.14	30600.16
576.30	30478.46
576.46	29963.54
576.62	30328.66
576.79	30740.60
576.95	30143.76
577.11	30228.02
577.27	29706.08
577.43	30256.11
577.59	30536.97
577.75	30354.41
577.92	29874.60
578.08	29993.97
578.24	30127.38
578.40	30349.73
578.56	30501.86
578.72	30431.65
578.88	30398.88
579.04	30696.13
579.21	30148.44
579.37	30665.70
579.53	30761.66
579.69	29991.62
579.85	30499.52
580.01	30483.14
580.17	30272.49
580.33	30497.18
580.49	30148.44
580.65	30555.69
580.82	30462.07
580.98	30850.60
581.14	30401.22
581.30	30733.57
581.46	30279.51
581.62	30199.93
581.78	30258.45
581.94	30235.04
582.10	30092.27
582.26	30281.85
582.42	30747.62
582.58	30682.08
582.74	30450.37
582.90	30558.03
583.06	31274.24
583.22	30473.78
583.38	30497.18
583.54	30441.01
583.70	30082.91
583.86	30668.04
584.02	30508.88
584.18	30410.58
584.34	30735.92
584.50	30962.95
584.66	30153.12
584.82	30373.13
584.98	30464.41
585.14	30562.72
585.30	30244.40
585.46	30443.35
585.62	30391.86
585.78	30948.90
585.94	30321.64
586.10	31126.78
586.26	30829.54
586.42	30656.34
586.58	30562.72
586.74	30686.76
586.90	30565.06
587.06	30155.46
587.22	30335.68
587.38	30412.92
587.54	30668.04
587.70	31143.17
587.86	30600.16
588.02	30749.96
588.18	31161.89
588.34	30733.57
588.49	30768.68
588.65	30663.36
588.81	30621.23
588.97	31096.36
589.13	30682.08
589.29	30822.51
589.45	30951.24
589.61	30862.30
589.77	30628.25
589.93	31037.84
590.08	30670.38
590.24	30899.75
590.40	31044.87
590.56	30838.90
590.72	30958.27
590.88	30780.39
591.04	31175.94
591.20	31019.12
591.35	30892.73
591.51	30958.27
591.67	31133.81
591.83	31318.71
591.99	30991.03
