SpectraSuite Data File
++++++++++++++++++++++++++++++++++++
Date: Fri Oct 18 13:58:37 GMT-05:00 2013
User: bianchi
Dark Spectrum Present: No
Reference Spectrum Present: No
Number of Sampled Component Spectra: 1
Spectrometers: USB2+H05261
Integration Time (usec): 50000 (USB2+H05261)
Spectra Averaged: 1 (USB2+H05261)
Boxcar Smoothing: 0 (USB2+H05261)
Correct for Electrical Dark: No (USB2+H05261)
Strobe/Lamp Enabled: No (USB2+H05261)
Correct for Detector Non-linearity: No (USB2+H05261)
Correct for Stray Light: No (USB2+H05261)
Number of Pixels in Processed Spectrum: 2048
>>>>>Begin Processed Spectral Data<<<<<
365.73	0.00
365.92	0.00
366.12	0.00
366.32	0.00
366.52	0.00
366.72	0.00
366.91	0.00
367.11	0.00
367.31	0.00
367.51	0.00
367.70	0.00
367.90	0.00
368.10	0.00
368.30	0.00
368.49	0.00
368.69	0.00
368.89	0.00
369.09	0.00
369.28	0.00
369.48	0.00
369.68	0.00
369.87	0.00
370.07	0.00
370.27	0.00
370.47	0.00
370.66	110.01
370.86	79.58
371.06	133.41
371.25	177.88
371.45	145.11
371.65	163.84
371.84	191.92
372.04	163.84
372.24	187.24
372.44	205.97
372.63	231.71
372.83	234.05
373.03	170.86
373.22	231.71
373.42	304.27
373.62	262.14
373.81	152.13
374.01	198.95
374.21	187.24
374.40	264.48
374.60	227.03
374.79	187.24
374.99	255.12
375.19	292.57
375.38	292.57
375.58	264.48
375.78	236.39
375.97	304.27
376.17	353.42
376.37	304.27
376.56	215.33
376.76	212.99
376.95	271.50
377.15	231.71
377.35	271.50
377.54	306.61
377.74	283.20
377.93	234.05
378.13	280.86
378.33	201.29
378.52	304.27
378.72	287.89
378.91	301.93
379.11	304.27
379.31	308.95
379.50	322.99
379.70	287.89
379.89	304.27
380.09	287.89
380.28	280.86
380.48	301.93
380.68	311.29
380.87	294.91
381.07	287.89
381.26	297.25
381.46	372.15
381.65	344.06
381.85	332.36
382.04	266.82
382.24	313.63
382.43	430.66
382.63	348.74
382.83	325.33
383.02	306.61
383.22	430.66
383.41	416.62
383.61	339.38
383.80	367.46
384.00	334.70
384.19	400.23
384.39	313.63
384.58	388.53
384.78	318.31
384.97	339.38
385.17	404.91
385.36	334.70
385.56	313.63
385.75	416.62
385.95	425.98
386.14	425.98
386.34	383.85
386.53	440.02
386.72	428.32
386.92	395.55
387.11	379.17
387.31	477.47
387.50	409.59
387.70	404.91
387.89	416.62
388.09	458.74
388.28	383.85
388.48	376.83
388.67	493.85
388.86	423.64
389.06	465.77
389.25	458.74
389.45	477.47
389.64	510.24
389.84	428.32
390.03	456.40
390.22	477.47
390.42	472.79
390.61	505.56
390.81	418.96
391.00	479.81
391.19	531.30
391.39	484.49
391.58	479.81
391.78	528.96
391.97	512.58
392.16	491.51
392.36	535.98
392.55	540.66
392.75	615.56
392.94	564.07
393.13	491.51
393.33	545.34
393.52	477.47
393.71	507.90
393.91	585.13
394.10	538.32
394.29	557.05
394.49	608.54
394.68	606.20
394.88	594.50
395.07	655.35
395.26	645.99
395.46	547.69
395.65	624.92
395.84	645.99
396.04	702.16
396.23	688.12
396.42	606.20
396.62	734.93
396.81	641.31
397.00	622.58
397.19	692.80
397.39	660.03
397.58	723.23
397.77	589.82
397.97	638.97
398.16	669.39
398.35	650.67
398.55	681.10
398.74	699.82
398.93	699.82
399.12	650.67
399.32	638.97
399.51	622.58
399.70	805.14
399.90	741.95
400.09	688.12
400.28	774.72
400.47	805.14
400.67	774.72
400.86	842.59
401.05	788.76
401.24	837.91
401.44	779.40
401.63	765.36
401.82	828.55
402.01	809.83
402.21	873.02
402.40	819.19
402.59	763.01
402.78	816.85
402.97	784.08
403.17	781.74
403.36	917.49
403.55	891.74
403.74	863.66
403.93	938.55
404.13	898.77
404.32	873.02
404.51	887.06
404.70	922.17
404.89	901.11
405.09	945.58
405.28	945.58
405.47	957.28
405.66	1060.26
405.85	898.77
406.05	1013.45
406.24	1029.84
406.43	966.64
406.62	990.05
406.81	1086.01
407.00	922.17
407.20	1006.43
407.39	966.64
407.58	1067.28
407.77	1062.60
407.96	1074.31
408.15	997.07
408.34	1053.24
408.54	990.05
408.73	1069.62
408.92	1086.01
409.11	1135.16
409.30	1132.82
409.49	1170.27
409.68	1095.37
409.87	1156.22
410.07	1142.18
410.26	1193.67
410.45	1242.82
410.64	1233.46
410.83	1167.93
411.02	1205.38
411.21	1212.40
411.40	1315.38
411.59	1193.67
411.78	1226.44
411.98	1282.61
412.17	1313.04
412.36	1277.93
412.55	1268.57
412.74	1299.00
412.93	1268.57
413.12	1350.49
413.31	1404.32
413.50	1327.08
413.69	1287.29
413.88	1411.34
414.07	1467.52
414.26	1453.47
414.45	1387.94
414.64	1516.67
414.83	1465.18
415.02	1589.22
415.22	1636.03
415.41	1647.74
415.60	1568.16
415.79	1488.58
415.98	1631.35
416.17	1600.93
416.36	1568.16
416.55	1514.33
416.74	1638.38
416.93	1643.06
417.12	1727.32
417.31	1699.23
417.50	1671.14
417.69	1764.76
417.88	1797.53
418.07	1802.21
418.26	1760.08
418.45	1799.87
418.64	1804.55
418.83	1846.68
419.02	1797.53
419.21	1797.53
419.39	1820.94
419.58	1863.07
419.77	1877.11
419.96	1813.92
420.15	1867.75
420.34	1764.76
420.53	1870.09
420.72	2036.27
420.91	1982.43
421.10	1952.01
421.29	1980.09
421.48	1886.47
421.67	1991.80
421.86	1778.81
422.05	1987.11
422.24	2057.33
422.43	1940.30
422.61	1865.41
422.80	1998.82
422.99	1982.43
423.18	2050.31
423.37	1968.39
423.56	1998.82
423.75	2024.56
423.94	2017.54
424.13	1881.79
424.32	1846.68
424.50	1982.43
424.69	2129.89
424.88	2104.14
425.07	2054.99
425.26	1998.82
425.45	1942.64
425.64	2122.87
425.83	2062.01
426.01	2090.10
426.20	1980.09
426.39	2120.53
426.58	1954.35
426.77	2019.88
426.96	2054.99
427.15	2139.25
427.33	2193.08
427.52	2134.57
427.71	2146.27
427.90	2118.18
428.09	2101.80
428.28	2113.50
428.46	2160.31
428.65	2181.38
428.84	2253.94
429.03	2253.94
429.22	2181.38
429.40	2289.04
429.59	2165.00
429.78	2195.42
429.97	2209.47
430.16	2223.51
430.34	2282.02
430.53	2286.70
430.72	2399.05
430.91	2307.77
431.10	2265.64
431.28	2359.26
431.47	2392.03
431.66	2340.54
431.85	2406.07
432.03	2417.77
432.22	2415.43
432.41	2541.82
432.60	2499.69
432.79	2431.82
432.97	2375.64
433.16	2399.05
433.35	2485.65
433.54	2633.10
433.72	2555.86
433.91	2530.12
434.10	2513.74
434.28	2497.35
434.47	2534.80
434.66	2686.94
434.85	2647.15
435.03	2663.53
435.22	2586.29
435.41	2649.49
435.59	2656.51
435.78	2590.97
435.97	2654.17
436.16	2759.49
436.34	2600.34
436.53	2736.09
436.72	2822.69
436.90	2562.89
437.09	2672.89
437.28	2668.21
437.46	2609.70
437.65	2726.72
437.84	2747.79
438.02	2752.47
438.21	2630.76
438.40	2836.73
438.58	2928.01
438.77	2855.45
438.96	2892.90
439.14	3073.12
439.33	2979.50
439.52	2993.55
439.70	2939.71
439.89	3007.59
440.08	3045.04
440.26	3155.04
440.45	3115.25
440.63	3122.27
440.82	3026.31
441.01	3157.38
441.19	3169.09
441.38	3213.56
441.57	3234.62
441.75	3201.85
441.94	3251.00
442.12	3222.92
442.31	3218.24
442.50	3389.10
442.68	3255.69
442.87	3325.90
443.05	3290.79
443.24	3239.30
443.43	3370.37
443.61	3353.99
443.80	3482.72
443.98	3346.97
444.17	3272.07
444.35	3562.30
444.54	3456.97
444.73	3503.78
444.91	3536.55
445.10	3442.93
445.28	3520.17
445.47	3407.82
445.65	3400.80
445.84	3475.70
446.02	3517.83
446.21	3328.24
446.39	3389.10
446.58	3627.83
446.77	3410.16
446.95	3669.96
447.14	3492.08
447.32	3531.87
447.51	3520.17
447.69	3393.78
447.88	3478.04
448.06	3548.25
448.25	3499.10
448.43	3522.51
448.62	3555.27
448.80	3543.57
448.99	3595.06
449.17	3653.58
449.36	3548.25
449.54	3620.81
449.73	3838.48
449.91	3555.27
450.10	3672.30
450.28	3674.64
450.46	3653.58
450.65	3707.41
450.83	3775.28
451.02	3826.78
451.20	3803.37
451.39	3768.26
451.57	3672.30
451.76	3747.20
451.94	3941.46
452.13	4053.81
452.31	3794.01
452.49	3838.48
452.68	3735.50
452.86	3831.46
453.05	3913.38
453.23	3964.87
453.42	3925.08
453.60	3777.62
453.78	4007.00
453.97	3925.08
454.15	3981.25
454.34	3817.41
454.52	3985.93
454.70	4067.85
454.89	4117.00
455.07	4086.58
455.26	3992.95
455.44	4187.22
455.62	4016.36
455.81	4065.51
455.99	4173.18
456.17	4231.69
456.36	4159.13
456.54	4154.45
456.73	4243.39
456.91	4411.91
457.09	4283.18
457.28	4173.18
457.46	4203.60
457.64	4383.82
457.83	4411.91
458.01	4156.79
458.19	4278.50
458.38	4388.50
458.56	4442.34
458.74	4432.97
458.93	4334.67
459.11	4465.74
459.29	4493.83
459.48	4550.00
459.66	4575.75
459.84	4585.11
460.03	4475.10
460.21	4521.92
460.39	4540.64
460.57	4496.17
460.76	4528.94
460.94	4711.50
461.12	4498.51
461.31	4500.85
461.49	4704.48
461.67	4559.36
461.85	4760.65
462.04	4683.41
462.22	4814.48
462.40	4828.53
462.59	4699.80
462.77	4760.65
462.95	4727.88
463.13	4713.84
463.32	4697.46
463.50	4828.53
463.68	4823.84
463.86	4938.53
464.05	4734.90
464.23	4926.83
464.41	4938.53
464.59	4917.47
464.78	4926.83
464.96	4896.40
465.14	4929.17
465.32	4959.60
465.50	4994.70
465.69	5004.07
465.87	4957.25
466.05	5036.83
466.23	4952.57
466.41	5008.75
466.60	5219.39
466.78	5011.09
466.96	5022.79
467.14	5034.49
467.32	5179.61
467.51	5172.58
467.69	5207.69
467.87	5125.77
468.05	5179.61
468.23	5050.88
468.41	5294.29
468.60	5191.31
468.78	5261.52
468.96	5144.50
469.14	5453.45
469.32	5233.44
469.50	5128.11
469.69	5280.25
469.87	5432.38
470.05	5430.04
470.23	5483.88
470.41	5451.11
470.59	5481.53
470.77	5364.51
470.95	5420.68
471.14	5666.44
471.32	5359.83
471.50	5792.83
471.68	5540.05
471.86	5619.63
472.04	5764.74
472.22	5853.68
472.40	5731.97
472.58	5743.67
472.77	5738.99
472.95	5783.46
473.13	6052.63
473.31	5811.55
473.49	5783.46
473.67	6005.81
473.85	5916.87
474.03	6008.16
474.21	5937.94
474.39	6146.25
474.57	6179.01
474.75	6136.88
474.93	6221.14
475.12	6249.23
475.30	6076.03
475.48	6169.65
475.66	6258.59
475.84	6274.98
476.02	6214.12
476.20	6108.80
476.38	6506.69
476.56	6558.18
476.74	6661.16
476.92	6485.62
477.10	6581.59
477.28	6635.42
477.46	6633.08
477.64	6738.40
477.82	6684.57
478.00	6817.98
478.18	6998.20
478.36	6862.45
478.54	7199.49
478.72	7218.21
478.90	7070.76
479.08	7063.74
479.26	7115.23
479.44	7412.48
479.62	7456.95
479.80	7435.88
479.98	7705.04
480.16	7688.66
480.34	7655.89
480.52	7625.47
480.70	7850.16
480.88	7698.02
481.06	7824.41
481.24	7796.32
481.41	7882.92
481.59	8013.99
481.77	8006.97
481.95	8112.30
482.13	8212.94
482.31	8021.02
482.49	8287.84
482.67	8388.48
482.85	8180.17
483.03	8683.39
483.21	8648.28
483.39	8512.53
483.57	8622.53
483.74	8697.43
483.92	8737.22
484.10	8713.81
484.28	8802.75
484.46	9130.43
484.64	9261.50
484.82	9050.85
485.00	8990.00
485.18	9226.39
485.35	9373.85
485.53	9352.78
485.71	9516.62
485.89	9734.29
486.07	9600.88
486.25	9638.33
486.43	9715.56
486.61	9650.03
486.78	10036.22
486.96	9881.74
487.14	10090.05
487.32	10057.28
487.50	10036.22
487.68	10073.67
487.85	10555.82
488.03	10511.35
488.21	10626.03
488.39	10705.61
488.57	10572.20
488.75	10569.86
488.92	11084.78
489.10	10731.36
489.28	11054.35
489.46	11070.73
489.64	10970.09
489.81	11456.92
489.99	11627.78
490.17	11428.84
490.35	11365.64
490.53	11492.03
490.70	11419.47
490.88	11613.74
491.06	11672.25
491.24	11566.93
491.41	11875.88
491.59	11932.05
491.77	12224.62
491.95	12320.58
492.13	12123.98
492.30	12060.78
492.48	12299.52
492.66	12465.69
492.84	12526.55
493.01	12585.06
493.19	12662.30
493.37	12786.35
493.54	12666.98
493.72	12807.41
493.90	12823.80
494.08	12788.69
494.25	13160.83
494.43	13259.13
494.61	13486.17
494.79	13364.46
494.96	13247.43
495.14	13341.05
495.32	13287.22
495.49	13699.16
495.67	13624.26
495.85	13760.01
496.02	13886.40
496.20	13877.04
496.38	13865.33
496.55	13844.27
496.73	14326.42
496.91	14132.15
497.09	14370.89
497.26	14452.81
497.44	14450.47
497.62	14459.83
497.79	14595.58
497.97	14736.01
498.14	14703.25
498.32	14839.00
498.50	14993.47
498.67	15000.49
498.85	15035.60
499.03	15051.99
499.20	15056.67
499.38	15180.71
499.56	15403.07
499.73	15288.38
499.91	15529.45
500.08	15304.76
500.26	15419.45
500.44	15276.68
500.61	15470.94
500.79	15344.55
500.97	15758.83
501.14	16074.80
501.32	16039.69
501.49	15894.58
501.67	15686.27
501.84	15889.90
502.02	15838.41
502.20	15906.28
502.37	16306.51
502.55	16222.25
502.72	16198.85
502.90	16173.10
503.07	16304.17
503.25	16365.03
503.43	16603.76
503.60	16505.46
503.78	16596.74
503.95	16622.48
504.13	16503.12
504.30	16688.02
504.48	16929.09
504.65	16982.93
504.83	17092.93
505.01	16982.93
505.18	17076.55
505.36	17329.33
505.53	17090.59
505.71	16856.54
505.88	17032.08
506.06	17067.19
506.23	17179.53
506.41	17500.19
506.58	17537.63
506.76	17291.88
506.93	17413.59
507.11	17394.86
507.28	17511.89
507.46	17319.96
507.63	17378.48
507.81	17806.80
507.98	17743.60
508.16	17598.49
508.33	17745.94
508.50	17994.04
508.68	17879.35
508.85	18132.13
509.03	18153.20
509.20	18209.37
509.38	18415.34
509.55	18209.37
509.73	18628.32
509.90	18410.65
510.08	18480.87
510.25	18572.15
510.42	18651.73
510.60	18885.78
510.77	18618.96
510.95	18576.83
511.12	18967.70
511.30	18700.88
511.47	18946.64
511.64	19009.83
511.82	19061.32
511.99	19110.47
512.17	19335.17
512.34	18934.93
512.51	19311.76
512.69	19470.92
512.86	19576.24
513.04	19239.20
513.21	19541.13
513.38	19426.45
513.56	19627.73
513.73	19510.71
513.90	19594.96
514.08	19410.06
514.25	19782.21
514.43	19777.53
514.60	19824.34
514.77	19894.55
514.95	19822.00
515.12	19924.98
515.29	19784.55
515.47	20039.67
515.64	19948.39
515.81	19885.19
515.99	20105.20
516.16	20500.75
516.33	20414.15
516.51	20596.71
516.68	20142.65
516.85	20266.70
517.03	20720.76
517.20	20320.53
517.37	20772.25
517.54	20563.95
517.72	20819.07
517.89	20423.51
518.06	20903.32
518.24	20954.82
518.41	20690.34
518.58	20975.88
518.75	20802.68
518.93	21039.08
519.10	21034.39
519.27	21233.34
519.45	21151.42
519.62	21319.94
519.79	21242.70
519.96	21123.33
520.14	21193.55
520.31	21025.03
520.48	21357.39
520.65	21600.80
520.83	21432.29
521.00	21277.81
521.17	21195.89
521.34	21453.35
521.52	21638.25
521.69	21549.31
521.86	21713.15
522.03	22087.64
522.20	21912.10
522.38	21420.58
522.55	21809.11
522.72	21633.57
522.89	22132.11
523.07	22305.31
523.24	22043.17
523.41	22405.95
523.58	22010.40
523.75	22412.97
523.92	22118.06
524.10	21986.99
524.27	22396.59
524.44	22359.14
524.61	22604.89
524.78	22485.53
524.96	22518.29
525.13	22604.89
525.30	22569.79
525.47	22679.79
525.64	22867.03
525.81	22785.12
525.98	22668.09
526.16	23124.49
526.33	22644.68
526.50	22965.34
526.67	22689.15
526.84	22885.76
527.01	22787.46
527.18	22878.74
527.36	23145.56
527.53	23105.77
527.70	23353.87
527.87	23311.74
528.04	23178.33
528.21	23510.68
528.38	23260.24
528.55	23742.39
528.72	23353.87
528.89	23508.34
529.07	23456.85
529.24	23510.68
529.41	23515.36
529.58	23171.30
529.75	23431.10
529.92	23585.58
530.09	23894.53
530.26	23440.47
530.43	24049.00
530.60	23613.66
530.77	23807.93
530.94	23971.77
531.11	23836.02
531.28	23882.83
531.46	23978.79
531.63	23836.02
531.80	24217.52
531.97	24016.24
532.14	24254.97
532.31	24348.59
532.48	24030.28
532.65	24238.59
532.82	24233.91
532.99	23913.25
533.16	24011.56
533.33	24231.57
533.50	24584.99
533.67	24683.29
533.84	24346.25
534.01	24507.75
534.18	24219.86
534.35	24510.09
534.52	24423.49
534.69	24524.13
534.86	24671.59
535.03	24510.09
535.20	25116.29
535.37	24496.05
535.54	24856.49
535.71	24812.02
535.88	24659.88
536.05	24671.59
536.22	24917.34
536.38	24996.92
536.55	25397.15
536.72	25202.89
536.89	24907.98
537.06	25111.61
537.23	25074.16
537.40	25270.76
537.57	25371.41
537.74	25003.94
537.91	25773.98
538.08	25404.17
538.25	24683.29
538.42	25383.11
538.59	25479.07
538.75	25116.29
538.92	25280.13
539.09	25551.63
539.26	25254.38
539.43	25553.97
539.60	25598.44
539.77	25586.74
539.94	25804.41
540.11	25591.42
540.28	25656.95
540.44	25549.29
540.61	25345.66
540.78	25539.93
540.95	25682.70
541.12	25811.43
541.29	25741.21
541.46	26178.89
541.62	25706.10
541.79	25729.51
541.96	25376.09
542.13	26155.49
542.30	25977.61
542.47	26038.46
542.63	26043.14
542.80	26258.47
542.97	26426.99
543.14	26120.38
543.31	26466.78
543.48	26506.57
543.64	26710.19
543.81	26637.64
543.98	26457.42
544.15	26560.40
544.32	26902.12
544.48	26635.30
544.65	26604.87
544.82	26544.02
544.99	26118.04
545.16	26494.86
545.32	26672.74
545.49	27000.42
545.66	26909.14
545.83	27000.42
546.00	27103.40
546.16	26635.30
546.33	26560.40
546.50	26504.23
546.67	26977.01
546.83	26780.41
547.00	26450.39
547.17	27044.89
547.34	27288.31
547.50	27241.50
547.67	27185.32
547.84	26923.18
548.00	27346.82
548.17	27087.02
548.34	27236.81
548.51	27363.20
548.67	27590.24
548.84	27386.61
549.01	26962.97
549.18	27150.21
549.34	27012.12
549.51	27180.64
549.68	27197.02
549.84	27173.62
550.01	27323.41
550.18	27527.04
550.34	27391.29
550.51	27974.08
550.68	27789.18
550.84	27688.54
551.01	27583.21
551.18	27606.62
551.34	27428.74
551.51	27924.93
551.68	27681.52
551.84	27470.87
552.01	27592.58
552.18	27826.63
552.34	27463.85
552.51	27569.17
552.68	27871.10
552.84	27723.65
553.01	27814.93
553.18	27775.14
553.34	27796.20
553.51	28079.41
553.67	28156.64
553.84	28107.49
554.01	28189.41
554.17	28486.66
554.34	28151.96
554.51	28077.07
554.67	27782.16
554.84	27824.29
555.00	28123.88
555.17	28004.51
555.33	27908.55
555.50	28240.90
555.67	28393.04
555.83	28268.99
556.00	28290.06
556.16	28463.25
556.33	27941.32
556.50	28575.60
556.66	28662.20
556.83	28346.23
556.99	28683.27
557.16	28261.97
557.32	28683.27
557.49	28746.46
557.65	28629.43
557.82	27924.93
557.98	28102.81
558.15	28636.45
558.32	28484.32
558.48	28790.93
558.65	29034.35
558.81	28594.32
558.98	28584.96
559.14	28533.47
559.31	28727.74
559.47	28856.46
559.64	28542.83
559.80	28643.48
559.97	29109.24
560.13	28683.27
560.30	28968.81
560.46	28950.09
560.63	28830.72
560.79	28381.34
560.96	28830.72
561.12	28655.18
561.29	28261.97
561.45	28758.16
561.61	28762.84
561.78	28795.61
561.94	28716.03
562.11	28802.63
562.27	28973.49
562.44	28938.38
562.60	28788.59
562.77	28666.88
562.93	28811.99
563.10	29488.41
563.26	28903.28
563.42	29401.81
563.59	29237.97
563.75	29242.65
563.92	29317.55
564.08	28840.08
564.24	29137.33
564.41	28999.24
564.57	28924.34
564.74	29352.66
564.90	29298.83
565.07	29415.85
565.23	29324.57
565.39	29172.44
565.56	29507.13
565.72	29177.12
565.88	29310.53
566.05	29340.96
566.21	29397.13
566.38	29633.52
566.54	29413.51
566.70	29682.67
566.87	29546.92
567.03	29266.06
567.19	29575.01
567.36	29308.19
567.52	29310.53
567.68	29303.51
567.85	29511.81
568.01	29305.85
568.17	29500.11
568.34	29640.54
568.50	29530.54
568.66	29677.99
568.83	29467.34
568.99	29457.98
569.15	29418.19
569.32	29605.44
569.48	29310.53
569.64	29696.72
569.81	29659.27
569.97	29441.60
570.13	29640.54
570.30	29289.46
570.46	29703.74
570.62	29600.76
570.78	29605.44
570.95	29364.36
571.11	29486.07
571.27	28926.68
571.43	29612.46
571.60	29603.10
571.76	29579.69
571.92	29523.52
572.09	29839.49
572.25	29687.36
572.41	29968.22
572.57	29804.38
572.74	29605.44
572.90	29308.19
573.06	29837.15
573.22	29600.76
573.38	29816.08
573.55	29317.55
573.71	30075.88
573.87	29764.59
574.03	29612.46
574.20	29675.65
574.36	29282.44
574.52	29532.88
574.68	29539.90
574.84	29556.28
575.01	29750.55
575.17	30019.71
575.33	29546.92
575.49	29605.44
575.65	29734.17
575.82	29701.40
575.98	29596.07
576.14	30024.39
576.30	29895.66
576.46	29355.00
576.62	29542.24
576.79	29722.46
576.95	29830.13
577.11	30010.35
577.27	29778.64
577.43	29518.84
577.59	30176.53
577.75	29603.10
577.92	29596.07
578.08	29497.77
578.24	29916.73
578.40	29413.51
578.56	29654.59
578.72	29902.68
578.88	29893.32
579.04	29933.11
579.21	29537.56
579.37	30174.19
579.53	30146.10
579.69	29598.41
579.85	30022.05
580.01	30230.36
580.17	29886.30
580.33	30012.69
580.49	29673.31
580.65	29968.22
580.82	29703.74
580.98	30043.12
581.14	30036.09
581.30	30270.15
581.46	29900.34
581.62	29816.08
581.78	29893.32
581.94	29902.68
582.10	29895.66
582.26	29656.93
582.42	29708.42
582.58	30038.44
582.74	29902.68
582.90	30036.09
583.06	29905.02
583.22	29879.28
583.38	30033.75
583.54	30242.06
583.70	29748.21
583.86	29905.02
584.02	29954.18
584.18	29970.56
584.34	30380.15
584.50	29776.30
584.66	30033.75
584.82	29663.95
584.98	29898.00
585.14	29996.31
585.30	29851.19
585.46	29839.49
585.62	30057.16
585.78	29975.24
585.94	29933.11
586.10	30452.71
586.26	29694.38
586.42	30019.71
586.58	30059.50
586.74	29998.65
586.90	30073.54
587.06	29844.17
587.22	30171.85
587.38	29841.83
587.54	30043.12
587.70	30515.90
587.86	30235.04
588.02	30089.93
588.18	30677.40
588.34	30096.95
588.49	30099.29
588.65	30038.44
588.81	30157.80
588.97	30469.09
589.13	29893.32
589.29	30291.21
589.45	29937.79
589.61	30370.79
589.77	30600.16
589.93	30087.59
590.08	30309.94
590.24	30691.44
590.40	30611.87
590.56	30403.56
590.72	30204.61
590.88	30038.44
591.04	30199.93
591.20	30326.32
591.35	30480.80
591.51	31054.23
591.67	30494.84
591.83	30614.21
591.99	30340.36
