SpectraSuite Data File
++++++++++++++++++++++++++++++++++++
Date: Fri Oct 18 13:58:00 GMT-05:00 2013
User: bianchi
Dark Spectrum Present: No
Reference Spectrum Present: No
Number of Sampled Component Spectra: 1
Spectrometers: USB2+H05261
Integration Time (usec): 50000 (USB2+H05261)
Spectra Averaged: 1 (USB2+H05261)
Boxcar Smoothing: 0 (USB2+H05261)
Correct for Electrical Dark: No (USB2+H05261)
Strobe/Lamp Enabled: No (USB2+H05261)
Correct for Detector Non-linearity: No (USB2+H05261)
Correct for Stray Light: No (USB2+H05261)
Number of Pixels in Processed Spectrum: 2048
>>>>>Begin Processed Spectral Data<<<<<
365.73	0.00
365.92	0.00
366.12	0.00
366.32	0.00
366.52	0.00
366.72	0.00
366.91	0.00
367.11	0.00
367.31	0.00
367.51	0.00
367.70	0.00
367.90	0.00
368.10	0.00
368.30	0.00
368.49	0.00
368.69	0.00
368.89	0.00
369.09	0.00
369.28	0.00
369.48	0.00
369.68	0.00
369.87	0.00
370.07	0.00
370.27	0.00
370.47	0.00
370.66	4.68
370.86	93.62
371.06	131.07
371.25	93.62
371.45	28.09
371.65	175.54
371.84	119.37
372.04	135.75
372.24	194.26
372.44	220.01
372.63	117.03
372.83	236.39
373.03	227.03
373.22	166.18
373.42	170.86
373.62	210.65
373.81	273.84
374.01	194.26
374.21	220.01
374.40	198.95
374.60	271.50
374.79	203.63
374.99	234.05
375.19	229.37
375.38	280.86
375.58	196.60
375.78	234.05
375.97	245.76
376.17	330.02
376.37	231.71
376.56	229.37
376.76	245.76
376.95	381.51
377.15	227.03
377.35	278.52
377.54	273.84
377.74	187.24
377.93	236.39
378.13	266.82
378.33	283.20
378.52	259.80
378.72	280.86
378.91	344.06
379.11	308.95
379.31	271.50
379.50	257.46
379.70	318.31
379.89	381.51
380.09	297.25
380.28	360.44
380.48	346.40
380.68	332.36
380.87	304.27
381.07	299.59
381.26	297.25
381.46	304.27
381.65	330.02
381.85	386.19
382.04	325.33
382.24	353.42
382.43	367.46
382.63	304.27
382.83	390.87
383.02	334.70
383.22	287.89
383.41	355.76
383.61	278.52
383.80	365.12
384.00	330.02
384.19	425.98
384.39	374.49
384.58	372.15
384.78	346.40
384.97	306.61
385.17	362.78
385.36	369.80
385.56	421.30
385.75	383.85
385.95	423.64
386.14	383.85
386.34	393.21
386.53	358.10
386.72	360.44
386.92	430.66
387.11	402.57
387.31	388.53
387.50	409.59
387.70	489.17
387.89	475.13
388.09	372.15
388.28	461.09
388.48	456.40
388.67	386.19
388.86	381.51
389.06	451.72
389.25	493.85
389.45	418.96
389.64	397.89
389.84	517.26
390.03	437.68
390.22	425.98
390.42	433.00
390.61	594.50
390.81	456.40
391.00	458.74
391.19	477.47
391.39	470.45
391.58	573.43
391.78	507.90
391.97	538.32
392.16	437.68
392.36	589.82
392.55	566.41
392.75	491.51
392.94	571.09
393.13	510.24
393.33	557.05
393.52	498.53
393.71	610.88
393.91	575.77
394.10	571.09
394.29	531.30
394.49	613.22
394.68	702.16
394.88	615.56
395.07	603.86
395.26	627.26
395.46	622.58
395.65	603.86
395.84	615.56
396.04	683.44
396.23	624.92
396.42	709.18
396.62	699.82
396.81	758.33
397.00	643.65
397.19	627.26
397.39	545.34
397.58	732.59
397.77	702.16
397.97	737.27
398.16	716.20
398.35	671.73
398.55	720.88
398.74	746.63
398.93	737.27
399.12	737.27
399.32	662.37
399.51	690.46
399.70	774.72
399.90	664.71
400.09	695.14
400.28	732.59
400.47	739.61
400.67	830.89
400.86	847.27
401.05	802.80
401.24	823.87
401.44	816.85
401.63	840.25
401.82	835.57
402.01	793.44
402.21	767.70
402.40	718.54
402.59	795.78
402.78	898.77
402.97	938.55
403.17	837.91
403.36	812.17
403.55	828.55
403.74	884.72
403.93	959.62
404.13	945.58
404.32	877.70
404.51	898.77
404.70	851.96
404.89	917.49
405.09	1004.09
405.28	1053.24
405.47	908.13
405.66	992.39
405.85	961.96
406.05	1036.86
406.24	1001.75
406.43	978.34
406.62	1139.84
406.81	1022.81
407.00	976.00
407.20	1015.79
407.39	1069.62
407.58	1107.07
407.77	1001.75
407.96	1132.82
408.15	1114.10
408.34	1071.97
408.54	1100.05
408.73	1146.86
408.92	1123.46
409.11	1036.86
409.30	1151.54
409.49	1123.46
409.68	1191.33
409.87	1245.16
410.07	1184.31
410.26	1153.88
410.45	1277.93
410.64	1177.29
410.83	1174.95
411.02	1207.72
411.21	1184.31
411.40	1235.80
411.59	1280.27
411.78	1245.16
411.98	1200.69
412.17	1266.23
412.36	1301.34
412.55	1345.81
412.74	1306.02
412.93	1359.85
413.12	1378.58
413.31	1423.05
413.50	1329.42
413.69	1291.98
413.88	1420.71
414.07	1446.45
414.26	1364.53
414.45	1413.68
414.64	1474.54
414.83	1500.28
415.02	1451.13
415.22	1462.83
415.41	1558.80
415.60	1533.05
415.79	1451.13
415.98	1685.19
416.17	1626.67
416.36	1502.62
416.55	1668.80
416.74	1640.72
416.93	1696.89
417.12	1624.33
417.31	1680.50
417.50	1717.95
417.69	1795.19
417.88	1685.19
418.07	1701.57
418.26	1755.40
418.45	1769.44
418.64	1832.64
418.83	1863.07
419.02	1724.97
419.21	1902.86
419.39	1776.47
419.58	1743.70
419.77	1799.87
419.96	1870.09
420.15	1923.92
420.34	1912.22
420.53	1916.90
420.72	1886.47
420.91	1830.30
421.10	1968.39
421.29	1916.90
421.48	1975.41
421.67	2022.22
421.86	1898.17
422.05	1991.80
422.24	2059.67
422.43	1973.07
422.61	1977.75
422.80	2157.97
422.99	1989.46
423.18	2022.22
423.37	2094.78
423.56	1954.35
423.75	2073.71
423.94	1851.36
424.13	1851.36
424.32	1842.00
424.50	2001.16
424.69	2139.25
424.88	2108.82
425.07	1998.82
425.26	2022.22
425.45	2106.48
425.64	2099.46
425.83	2073.71
426.01	1989.46
426.20	1942.64
426.39	2120.53
426.58	2101.80
426.77	2062.01
426.96	2129.89
427.15	2150.95
427.33	2165.00
427.52	2148.61
427.71	2099.46
427.90	2115.84
428.09	2153.29
428.28	2176.70
428.46	2230.53
428.65	2214.15
428.84	2225.85
429.03	2242.23
429.22	2221.17
429.40	2289.04
429.59	2237.55
429.78	2216.49
429.97	2106.48
430.16	2284.36
430.34	2169.68
430.53	2326.49
430.72	2246.91
430.91	2359.26
431.10	2326.49
431.28	2356.92
431.47	2354.58
431.66	2338.20
431.85	2335.85
432.03	2267.98
432.22	2530.12
432.41	2349.90
432.60	2492.67
432.79	2490.33
432.97	2544.16
433.16	2513.74
433.35	2445.86
433.54	2455.22
433.72	2581.61
433.91	2410.75
434.10	2476.29
434.28	2424.80
434.47	2623.74
434.66	2518.42
434.85	2520.76
435.03	2441.18
435.22	2588.63
435.41	2609.70
435.59	2649.49
435.78	2590.97
435.97	2731.41
436.16	2597.99
436.34	2719.70
436.53	2700.98
436.72	2724.38
436.90	2654.17
437.09	2693.96
437.28	2649.49
437.46	2712.68
437.65	2719.70
437.84	2780.56
438.02	2726.72
438.21	2820.35
438.40	2729.06
438.58	2918.65
438.77	2972.48
438.96	2897.58
439.14	2757.15
439.33	3009.93
439.52	2935.03
439.70	2965.46
439.89	3005.25
440.08	2930.35
440.26	2939.71
440.45	3075.46
440.63	3173.77
440.82	3145.68
441.01	3206.53
441.19	3133.98
441.38	3133.98
441.57	3229.94
441.75	3138.66
441.94	3159.72
442.12	3227.60
442.31	3281.43
442.50	3206.53
442.68	3279.09
442.87	3335.26
443.05	3325.90
443.24	3288.45
443.43	3463.99
443.61	3391.44
443.80	3337.60
443.98	3358.67
444.17	3386.76
444.35	3555.27
444.54	3410.16
444.73	3379.73
444.91	3375.05
445.10	3391.44
445.28	3466.33
445.47	3396.12
445.65	3386.76
445.84	3510.80
446.02	3543.57
446.21	3412.50
446.39	3393.78
446.58	3555.27
446.77	3473.36
446.95	3534.21
447.14	3421.86
447.32	3445.27
447.51	3494.42
447.69	3543.57
447.88	3623.15
448.06	3428.88
448.25	3501.44
448.43	3623.15
448.62	3482.72
448.80	3623.15
448.99	3613.79
449.17	3672.30
449.36	3623.15
449.54	3634.85
449.73	3669.96
449.91	3672.30
450.10	3782.31
450.28	3674.64
450.46	3632.51
450.65	3637.19
450.83	3824.44
451.02	3660.60
451.20	3878.27
451.39	3873.59
451.57	3688.68
451.76	3714.43
451.94	3854.86
452.13	3871.25
452.31	3761.24
452.49	3880.61
452.68	3779.97
452.86	3719.11
453.05	3815.07
453.23	3922.74
453.42	3920.40
453.60	3868.91
453.78	3864.22
453.97	3861.88
454.15	3913.38
454.34	3838.48
454.52	4011.68
454.70	4046.79
454.89	4177.86
455.07	3960.19
455.26	4030.40
455.44	4121.68
455.62	4102.96
455.81	4067.85
455.99	4093.60
456.17	4175.52
456.36	4100.62
456.54	4147.43
456.73	4266.80
456.91	4299.56
457.09	4334.67
457.28	4210.62
457.46	4325.31
457.64	4255.09
457.83	4390.84
458.01	4447.02
458.19	4484.47
458.38	4416.59
458.56	4407.23
458.74	4449.36
458.93	4372.12
459.11	4418.93
459.29	4397.87
459.48	4500.85
459.66	4519.57
459.84	4458.72
460.03	4535.96
460.21	4542.98
460.39	4552.34
460.57	4606.17
460.76	4542.98
460.94	4631.92
461.12	4589.79
461.31	4554.68
461.49	4531.28
461.67	4526.60
461.85	4589.79
462.04	4732.56
462.22	4999.38
462.40	4713.84
462.59	4844.91
462.77	4725.54
462.95	4704.48
463.13	4770.01
463.32	4788.74
463.50	4849.59
463.68	4936.19
463.86	4741.93
464.05	4830.87
464.23	4828.53
464.41	4877.68
464.59	4718.52
464.78	4980.66
464.96	4800.44
465.14	4912.78
465.32	4875.34
465.50	4933.85
465.69	5046.20
465.87	4805.12
466.05	5022.79
466.23	4851.93
466.41	5006.41
466.60	5217.05
466.78	5104.71
466.96	5085.98
467.14	5111.73
467.32	5116.41
467.51	5064.92
467.69	5088.32
467.87	5188.97
468.05	5165.56
468.23	5109.39
468.41	5184.29
468.60	5296.63
468.78	5219.39
468.96	5067.26
469.14	5329.40
469.32	5191.31
469.50	5039.17
469.69	5268.55
469.87	5472.17
470.05	5310.68
470.23	5364.51
470.41	5549.41
470.59	5476.85
470.77	5437.06
470.95	5472.17
471.14	5563.45
471.32	5441.75
471.50	5624.31
471.68	5544.73
471.86	5624.31
472.04	5631.33
472.22	5795.17
472.40	5638.35
472.58	5722.61
472.77	5825.59
472.95	5841.98
473.13	5863.04
473.31	5914.53
473.49	5692.18
473.67	5860.70
473.85	5898.15
474.03	6012.84
474.21	5888.79
474.39	6052.63
474.57	6054.97
474.75	6115.82
474.93	6225.82
475.12	6183.70
475.30	6143.91
475.48	6010.50
475.66	6087.73
475.84	6235.19
476.02	6406.05
476.20	6356.90
476.38	6431.79
476.56	6572.22
476.74	6609.67
476.92	6628.40
477.10	6600.31
477.28	6757.13
477.46	6502.01
477.64	6476.26
477.82	6881.18
478.00	6834.36
478.18	6937.35
478.36	7012.24
478.54	6958.41
478.72	7070.76
478.90	7133.95
479.08	7286.09
479.26	7358.64
479.44	7372.69
479.62	7375.03
479.80	7405.46
479.98	7393.75
480.16	7506.10
480.34	7487.37
480.52	7581.00
480.70	7595.04
480.88	7597.38
481.06	7779.94
481.24	7829.09
481.41	7756.54
481.59	7885.26
481.77	7911.01
481.95	8105.28
482.13	8163.79
482.31	8053.78
482.49	8255.07
482.67	8114.64
482.85	8479.76
483.03	8421.25
483.21	8418.91
483.39	8418.91
483.57	8500.83
483.74	8554.66
483.92	8842.54
484.10	8624.87
484.28	8828.50
484.46	9071.92
484.64	8992.34
484.82	8812.12
485.00	9310.65
485.18	9308.31
485.35	9434.70
485.53	9284.91
485.71	9490.87
485.89	9619.60
486.07	9708.54
486.25	9579.81
486.43	9647.69
486.61	9799.82
486.78	9820.89
486.96	9984.73
487.14	9877.06
487.32	10118.14
487.50	10274.95
487.68	10064.30
487.85	10590.92
488.03	10621.35
488.21	10424.75
488.39	10808.59
488.57	10822.64
488.75	10705.61
488.92	10888.17
489.10	10759.44
489.28	11009.88
489.46	11082.44
489.64	11075.42
489.81	11089.46
489.99	11176.06
490.17	11187.76
490.35	11487.35
490.53	11480.33
490.70	11861.84
490.88	11529.48
491.06	11580.97
491.24	11627.78
491.41	11646.51
491.59	11953.12
491.77	11969.50
491.95	12149.72
492.13	12053.76
492.30	12334.62
492.48	12173.13
492.66	12152.06
492.84	12346.33
493.01	12547.61
493.19	12566.34
493.37	12795.71
493.54	13050.83
493.72	12945.50
493.90	13125.72
494.08	13144.45
494.25	13275.52
494.43	12901.03
494.61	13233.39
494.79	13373.82
494.96	13336.37
495.14	13245.09
495.32	13568.09
495.49	13652.34
495.67	13827.88
495.85	13317.65
496.02	13902.78
496.20	14052.58
496.38	13909.80
496.55	14080.66
496.73	14354.51
496.91	13935.55
497.09	14242.16
497.26	14202.37
497.44	14534.73
497.62	14523.02
497.79	14569.83
497.97	14422.38
498.14	14640.05
498.32	14827.29
498.50	14831.97
498.67	15021.56
498.85	14981.77
499.03	14953.68
499.20	14916.23
499.38	15082.41
499.56	15164.33
499.73	15314.13
499.91	15183.06
500.08	15372.64
500.26	15091.77
500.44	15585.63
500.61	15410.09
500.79	15599.67
500.97	15571.58
501.14	15824.36
501.32	15789.25
501.49	15826.70
501.67	15548.18
501.84	15990.54
502.02	15819.68
502.20	16236.30
502.37	16100.55
502.55	16079.48
502.72	15901.60
502.90	15969.48
503.07	16039.69
503.25	16159.06
503.43	15957.77
503.60	16582.70
503.78	16444.60
503.95	16465.67
504.13	16580.36
504.30	16475.03
504.48	16472.69
504.65	16781.64
504.83	16835.47
505.01	17011.01
505.18	17177.19
505.36	17334.01
505.53	16954.84
505.71	16924.41
505.88	17343.37
506.06	17088.25
506.23	17362.09
506.41	17287.20
506.58	17633.60
506.76	17235.70
506.93	17834.88
507.11	17561.04
507.28	17689.77
507.46	17895.74
507.63	17631.26
507.81	17947.23
507.98	17809.14
508.16	17989.36
508.33	17902.76
508.50	17867.65
508.68	17617.21
508.85	18246.82
509.03	18160.22
509.20	18314.69
509.38	18462.15
509.55	18153.20
509.73	18307.67
509.90	18602.58
510.08	18298.31
510.25	18494.91
510.42	18382.57
510.60	19082.39
510.77	18607.26
510.95	18766.42
511.12	18686.84
511.30	18560.45
511.47	18740.67
511.64	19094.09
511.82	19047.28
511.99	18984.09
512.17	18937.27
512.34	19028.56
512.51	19187.71
512.69	19227.50
512.86	19068.34
513.04	19440.49
513.21	19456.87
513.38	19452.19
513.56	19440.49
513.73	19321.12
513.90	19604.33
514.08	19573.90
514.25	19594.96
514.43	19723.69
514.60	19709.65
514.77	19693.27
514.95	19850.08
515.12	19866.47
515.29	19854.76
515.47	19864.13
515.64	20247.97
515.81	19995.20
515.99	20458.62
516.16	20273.72
516.33	20112.22
516.51	20208.19
516.68	20250.32
516.85	19955.41
517.03	20519.48
517.20	20685.65
517.37	20453.94
517.54	20538.20
517.72	20430.54
517.89	20769.91
518.06	20652.89
518.24	20767.57
518.41	20575.65
518.58	20739.49
518.75	20631.82
518.93	20879.92
519.10	20758.21
519.27	21048.44
519.45	21238.02
519.62	21184.19
519.79	20790.98
519.96	20982.90
520.14	21434.63
520.31	21422.92
520.48	21528.25
520.65	21233.34
520.83	21642.93
521.00	21607.83
521.17	21359.73
521.34	21312.92
521.52	21656.98
521.69	21944.86
521.86	21804.43
522.03	22153.17
522.20	21703.79
522.38	22026.78
522.55	21659.32
522.72	21921.46
522.89	21855.92
523.07	22160.19
523.24	22178.92
523.41	22373.18
523.58	21525.91
523.75	22572.13
523.92	22286.58
524.10	21914.44
524.27	22434.03
524.44	22377.86
524.61	22597.87
524.78	22614.26
524.96	22497.23
525.13	22480.85
525.30	22672.77
525.47	22735.96
525.64	22604.89
525.81	22766.39
525.98	23042.57
526.16	22820.22
526.33	22642.34
526.50	22661.07
526.67	23157.26
526.84	22981.72
527.01	22632.98
527.18	23119.81
527.36	23101.09
527.53	23161.94
527.70	23370.25
527.87	23506.00
528.04	23318.76
528.21	23232.16
528.38	23112.79
528.55	23161.94
528.72	23412.38
528.89	23349.18
529.07	23168.96
529.24	23417.06
529.41	23583.24
529.58	23508.34
529.75	23374.93
529.92	23424.08
530.09	23456.85
530.26	23550.47
530.43	23634.73
530.60	23590.26
530.77	23803.25
530.94	23899.21
531.11	24037.30
531.28	23913.25
531.46	23861.76
531.63	23866.44
531.80	23833.68
531.97	24159.01
532.14	24306.46
532.31	23929.64
532.48	24046.66
532.65	24339.23
532.82	24308.80
532.99	24334.55
533.16	24093.47
533.33	24369.66
533.50	24395.40
533.67	24662.22
533.84	24362.64
534.01	24489.03
534.18	24154.33
534.35	24435.19
534.52	24821.38
534.69	24685.63
534.86	24823.72
535.03	24751.17
535.20	24765.21
535.37	24608.39
535.54	24797.98
535.71	24486.68
535.88	24666.91
536.05	25032.03
536.22	24774.57
536.38	24797.98
536.55	25156.08
536.72	25034.37
536.89	24620.10
537.06	24898.62
537.23	24936.07
537.40	25036.71
537.57	24903.30
537.74	25174.80
537.91	25387.79
538.08	25284.81
538.25	25465.03
538.42	25406.52
538.59	25322.26
538.75	25109.27
538.92	25525.88
539.09	25366.73
539.26	25308.21
539.43	25816.11
539.60	25766.96
539.77	25465.03
539.94	25764.62
540.11	25556.31
540.28	25673.34
540.44	25675.68
540.61	25460.35
540.78	25544.61
540.95	25816.11
541.12	25626.53
541.29	25853.56
541.46	25834.83
541.62	25869.94
541.79	25991.65
541.96	25649.93
542.13	25668.66
542.30	25848.88
542.47	25902.71
542.63	26125.06
542.80	26260.81
542.97	26583.80
543.14	26398.90
543.31	26412.95
543.48	26237.41
543.64	26689.13
543.81	26370.82
543.98	26794.45
544.15	26766.37
544.32	26326.35
544.48	26710.19
544.65	26450.39
544.82	26199.96
544.99	26326.35
545.16	26768.71
545.32	26649.34
545.49	26579.12
545.66	26986.38
545.83	26731.26
546.00	27091.70
546.16	26911.48
546.33	26958.29
546.50	26553.38
546.67	26951.27
546.83	26597.85
547.00	26876.37
547.17	26813.18
547.34	27049.57
547.50	27538.74
547.67	27484.91
547.84	27164.26
548.00	27302.35
548.17	27108.08
548.34	27058.93
548.51	27140.85
548.67	27262.56
548.84	27220.43
549.01	27182.98
549.18	27285.97
549.34	26986.38
549.51	27438.10
549.68	27323.41
549.84	27239.15
550.01	27309.37
550.18	27185.32
550.34	27314.05
550.51	27711.94
550.68	27672.15
550.84	27440.44
551.01	27377.25
551.18	27716.62
551.34	27143.19
551.51	27838.33
551.68	27295.33
551.84	27845.35
552.01	27597.26
552.18	27927.27
552.34	27828.97
552.51	27887.48
552.68	27901.53
552.84	27775.14
553.01	27882.80
553.18	27737.69
553.34	28058.34
553.51	27737.69
553.67	28350.91
553.84	28081.75
554.01	28013.87
554.17	27723.65
554.34	27871.10
554.51	28266.65
554.67	28175.37
554.84	28219.84
555.00	28278.35
555.17	27728.33
555.33	28411.76
555.50	28161.33
555.67	27997.49
555.83	28243.24
556.00	28119.20
556.16	28767.52
556.33	28325.16
556.50	28624.75
556.66	28437.51
556.83	28048.98
556.99	28933.70
557.16	28807.31
557.32	28449.21
557.49	28444.53
557.65	28439.85
557.82	28650.50
557.98	28278.35
558.15	28292.40
558.32	28416.44
558.48	28507.72
558.65	28538.15
558.81	28751.14
558.98	28760.50
559.14	28737.10
559.31	28662.20
559.47	28741.78
559.64	28589.64
559.80	29029.66
559.97	28603.69
560.13	28999.24
560.30	28713.69
560.46	28720.71
560.63	28980.51
560.79	28989.88
560.96	28746.46
561.12	28486.66
561.29	28809.65
561.45	28809.65
561.61	28776.89
561.78	28802.63
561.94	28804.97
562.11	28893.91
562.27	29027.32
562.44	28926.68
562.60	28914.98
562.77	28865.83
562.93	28622.41
563.10	29270.74
563.26	29254.36
563.42	29441.60
563.59	29015.62
563.75	29067.11
563.92	29226.27
564.08	29106.90
564.24	29043.71
564.41	28685.61
564.57	29277.76
564.74	29120.95
564.90	29474.37
565.07	29111.58
565.23	29158.39
565.39	29404.15
565.56	29022.64
565.72	29226.27
565.88	29434.58
566.05	28999.24
566.21	29163.08
566.38	29085.84
566.54	29567.99
566.70	29385.43
566.87	29736.51
567.03	29434.58
567.19	29820.77
567.36	29624.16
567.52	29336.27
567.68	29249.67
567.85	29198.18
568.01	29502.45
568.17	29156.05
568.34	29252.02
568.50	29329.25
568.66	29263.72
568.83	29874.60
568.99	29457.98
569.15	29607.78
569.32	29226.27
569.48	29408.83
569.64	29806.72
569.81	29085.84
569.97	29500.11
570.13	29888.64
570.30	29277.76
570.46	29715.44
570.62	30043.12
570.78	29415.85
570.95	29156.05
571.11	29940.13
571.27	29589.05
571.43	29151.37
571.60	29624.16
571.76	29675.65
571.92	29530.54
572.09	29748.21
572.25	29703.74
572.41	29797.36
572.57	29607.78
572.74	29776.30
572.90	29537.56
573.06	29280.10
573.22	29163.08
573.38	29523.52
573.55	29750.55
573.71	29692.04
573.87	29844.17
574.03	29563.31
574.20	29621.82
574.36	29486.07
574.52	29436.92
574.68	29621.82
574.84	29699.06
575.01	29851.19
575.17	29481.39
575.33	29661.61
575.49	29895.66
575.65	29741.19
575.82	29628.84
575.98	29631.18
576.14	29755.23
576.30	29551.60
576.46	29680.33
576.62	29965.88
576.79	29780.98
576.95	29579.69
577.11	30000.99
577.27	29809.06
577.43	29776.30
577.59	29780.98
577.75	29792.68
577.92	29560.97
578.08	29837.15
578.24	29666.29
578.40	29556.28
578.56	29811.40
578.72	30132.06
578.88	30232.70
579.04	30043.12
579.21	29907.37
579.37	29900.34
579.53	30183.55
579.69	29752.89
579.85	29954.18
580.01	29890.98
580.17	29802.04
580.33	29799.70
580.49	29516.50
580.65	29652.25
580.82	29848.85
580.98	29869.92
581.14	29680.33
581.30	30122.69
581.46	29921.41
581.62	29799.70
581.78	29881.62
581.94	29659.27
582.10	29893.32
582.26	29813.74
582.42	29715.44
582.58	29928.43
582.74	29926.09
582.90	30043.12
583.06	29949.50
583.22	29802.04
583.38	29841.83
583.54	29846.51
583.70	30108.65
583.86	29977.58
584.02	29668.63
584.18	29928.43
584.34	30108.65
584.50	30256.11
584.66	30150.78
584.82	29986.94
584.98	30136.74
585.14	30190.57
585.30	30225.68
585.46	29926.09
585.62	29670.97
585.78	29984.60
585.94	29797.36
586.10	29666.29
586.26	30607.19
586.42	30405.90
586.58	30239.72
586.74	30113.33
586.90	30057.16
587.06	30122.69
587.22	29923.75
587.38	29635.86
587.54	30096.95
587.70	30354.41
587.86	30401.22
588.02	30295.89
588.18	30712.51
588.34	30075.88
588.49	30338.02
588.65	29912.05
588.81	30136.74
588.97	30019.71
589.13	30024.39
589.29	30031.41
589.45	30171.85
589.61	30228.02
589.77	30529.95
589.93	30061.84
590.08	30319.30
590.24	30611.87
590.40	30448.03
590.56	30614.21
590.72	30284.19
590.88	30174.19
591.04	30352.07
591.20	30497.18
591.35	30583.78
591.51	30787.41
591.67	30775.70
591.83	30726.55
591.99	30096.95
