SpectraSuite Data File
++++++++++++++++++++++++++++++++++++
Date: Fri Oct 18 13:57:54 GMT-05:00 2013
User: bianchi
Dark Spectrum Present: No
Reference Spectrum Present: No
Number of Sampled Component Spectra: 1
Spectrometers: USB2+H05261
Integration Time (usec): 50000 (USB2+H05261)
Spectra Averaged: 1 (USB2+H05261)
Boxcar Smoothing: 0 (USB2+H05261)
Correct for Electrical Dark: No (USB2+H05261)
Strobe/Lamp Enabled: No (USB2+H05261)
Correct for Detector Non-linearity: No (USB2+H05261)
Correct for Stray Light: No (USB2+H05261)
Number of Pixels in Processed Spectrum: 2048
>>>>>Begin Processed Spectral Data<<<<<
365.73	0.00
365.92	0.00
366.12	0.00
366.32	0.00
366.52	0.00
366.72	0.00
366.91	0.00
367.11	0.00
367.31	0.00
367.51	0.00
367.70	0.00
367.90	0.00
368.10	0.00
368.30	0.00
368.49	0.00
368.69	0.00
368.89	0.00
369.09	0.00
369.28	0.00
369.48	0.00
369.68	0.00
369.87	0.00
370.07	0.00
370.27	0.00
370.47	0.00
370.66	18.72
370.86	154.48
371.06	126.39
371.25	142.77
371.45	215.33
371.65	65.54
371.84	131.07
372.04	152.13
372.24	194.26
372.44	212.99
372.63	112.35
372.83	266.82
373.03	245.76
373.22	229.37
373.42	147.45
373.62	299.59
373.81	245.76
374.01	299.59
374.21	252.78
374.40	245.76
374.60	262.14
374.79	259.80
374.99	259.80
375.19	264.48
375.38	285.55
375.58	245.76
375.78	264.48
375.97	250.44
376.17	313.63
376.37	273.84
376.56	320.65
376.76	163.84
376.95	374.49
377.15	273.84
377.35	313.63
377.54	264.48
377.74	243.42
377.93	280.86
378.13	311.29
378.33	360.44
378.52	278.52
378.72	292.57
378.91	241.08
379.11	341.72
379.31	292.57
379.50	322.99
379.70	245.76
379.89	360.44
380.09	327.68
380.28	341.72
380.48	299.59
380.68	315.97
380.87	299.59
381.07	306.61
381.26	308.95
381.46	299.59
381.65	320.65
381.85	287.89
382.04	322.99
382.24	337.04
382.43	388.53
382.63	278.52
382.83	358.10
383.02	388.53
383.22	430.66
383.41	353.42
383.61	409.59
383.80	411.93
384.00	313.63
384.19	341.72
384.39	360.44
384.58	301.93
384.78	381.51
384.97	440.02
385.17	433.00
385.36	353.42
385.56	435.34
385.75	367.46
385.95	428.32
386.14	442.36
386.34	461.09
386.53	379.17
386.72	428.32
386.92	421.30
387.11	486.83
387.31	430.66
387.50	388.53
387.70	416.62
387.89	454.06
388.09	468.11
388.28	400.23
388.48	514.92
388.67	458.74
388.86	531.30
389.06	475.13
389.25	381.51
389.45	486.83
389.64	442.36
389.84	528.96
390.03	482.15
390.22	421.30
390.42	500.87
390.61	498.53
390.81	454.06
391.00	484.49
391.19	498.53
391.39	521.94
391.58	571.09
391.78	585.13
391.97	533.64
392.16	578.11
392.36	550.03
392.55	613.22
392.75	608.54
392.94	573.43
393.13	507.90
393.33	566.41
393.52	592.16
393.71	620.24
393.91	566.41
394.10	650.67
394.29	599.18
394.49	610.88
394.68	643.65
394.88	603.86
395.07	638.97
395.26	610.88
395.46	624.92
395.65	627.26
395.84	660.03
396.04	603.86
396.23	676.41
396.42	613.22
396.62	702.16
396.81	669.39
397.00	737.27
397.19	653.01
397.39	695.14
397.58	653.01
397.77	596.84
397.97	709.18
398.16	692.80
398.35	744.29
398.55	709.18
398.74	765.36
398.93	732.59
399.12	676.41
399.32	730.25
399.51	739.61
399.70	739.61
399.90	741.95
400.09	760.67
400.28	716.20
400.47	730.25
400.67	826.21
400.86	849.61
401.05	819.19
401.24	868.34
401.44	809.83
401.63	753.65
401.82	751.31
402.01	821.53
402.21	854.30
402.40	823.87
402.59	847.27
402.78	856.64
402.97	957.28
403.17	863.66
403.36	898.77
403.55	931.53
403.74	936.21
403.93	915.15
404.13	891.74
404.32	884.72
404.51	917.49
404.70	1025.15
404.89	997.07
405.09	983.02
405.28	957.28
405.47	938.55
405.66	947.92
405.85	1055.58
406.05	1053.24
406.24	1121.12
406.43	985.37
406.62	1011.11
406.81	1081.33
407.00	1032.18
407.20	1043.88
407.39	1142.18
407.58	1149.20
407.77	1064.94
407.96	1156.22
408.15	1146.86
408.34	1034.52
408.54	1011.11
408.73	1050.90
408.92	1179.63
409.11	1144.52
409.30	1118.78
409.49	1160.91
409.68	1210.06
409.87	1207.72
410.07	1261.55
410.26	1217.08
410.45	1144.52
410.64	1270.91
410.83	1245.16
411.02	1352.83
411.21	1315.38
411.40	1301.34
411.59	1376.24
411.78	1277.93
411.98	1294.32
412.17	1362.19
412.36	1317.72
412.55	1364.53
412.74	1268.57
412.93	1441.77
413.12	1378.58
413.31	1488.58
413.50	1413.68
413.69	1437.09
413.88	1439.43
414.07	1362.19
414.26	1460.49
414.45	1528.37
414.64	1416.02
414.83	1516.67
415.02	1556.46
415.22	1568.16
415.41	1736.68
415.60	1558.80
415.79	1624.33
415.98	1647.74
416.17	1650.08
416.36	1638.38
416.55	1621.99
416.74	1666.46
416.93	1741.36
417.12	1795.19
417.31	1717.95
417.50	1715.61
417.69	1790.51
417.88	1858.39
418.07	1771.79
418.26	1781.15
418.45	1666.46
418.64	1900.52
418.83	1818.60
419.02	1881.79
419.21	1837.32
419.39	1914.56
419.58	1914.56
419.77	1830.30
419.96	1914.56
420.15	1865.41
420.34	1872.43
420.53	1774.13
420.72	2001.16
420.91	2015.20
421.10	1940.30
421.29	2076.06
421.48	1973.07
421.67	2129.89
421.86	1987.11
422.05	2038.61
422.24	2003.50
422.43	2038.61
422.61	2069.03
422.80	2054.99
422.99	2059.67
423.18	2136.91
423.37	2214.15
423.56	2108.82
423.75	2050.31
423.94	2062.01
424.13	1842.00
424.32	1935.62
424.50	2090.10
424.69	2120.53
424.88	2113.50
425.07	2017.54
425.26	2040.95
425.45	2003.50
425.64	2097.12
425.83	2157.97
426.01	2174.36
426.20	2204.78
426.39	2218.83
426.58	2106.48
426.77	2157.97
426.96	2153.29
427.15	2118.18
427.33	2183.72
427.52	2169.68
427.71	2083.08
427.90	2155.63
428.09	2289.04
428.28	2141.59
428.46	2134.57
428.65	2354.58
428.84	2307.77
429.03	2303.09
429.22	2242.23
429.40	2265.64
429.59	2347.56
429.78	2275.00
429.97	2221.17
430.16	2286.70
430.34	2324.15
430.53	2377.98
430.72	2356.92
430.91	2340.54
431.10	2328.83
431.28	2513.74
431.47	2567.57
431.66	2532.46
431.85	2448.20
432.03	2429.48
432.22	2560.55
432.41	2548.84
432.60	2593.31
432.79	2527.78
432.97	2537.14
433.16	2434.16
433.35	2424.80
433.54	2527.78
433.72	2637.78
433.91	2553.52
434.10	2647.15
434.28	2558.21
434.47	2630.76
434.66	2761.83
434.85	2551.18
435.03	2775.88
435.22	2708.00
435.41	2843.75
435.59	2689.28
435.78	2904.60
435.97	2794.60
436.16	2803.96
436.34	2630.76
436.53	2834.39
436.72	2843.75
436.90	2691.62
437.09	2878.86
437.28	2738.43
437.46	2853.11
437.65	2881.20
437.84	2822.69
438.02	2794.60
438.21	2892.90
438.40	2874.18
438.58	2848.43
438.77	3012.27
438.96	2860.13
439.14	3056.74
439.33	3059.08
439.52	3026.31
439.70	3059.08
439.89	3042.70
440.08	3133.98
440.26	3185.47
440.45	3185.47
440.63	3180.79
440.82	3213.56
441.01	3115.25
441.19	3215.90
441.38	3290.79
441.57	3112.91
441.75	3311.86
441.94	3356.33
442.12	3398.46
442.31	3459.31
442.50	3473.36
442.68	3361.01
442.87	3426.54
443.05	3389.10
443.24	3445.27
443.43	3557.61
443.61	3548.25
443.80	3648.90
443.98	3396.12
444.17	3349.31
444.35	3403.14
444.54	3501.44
444.73	3524.85
444.91	3578.68
445.10	3508.46
445.28	3538.89
445.47	3548.25
445.65	3576.34
445.84	3620.81
446.02	3679.32
446.21	3545.91
446.39	3620.81
446.58	3679.32
446.77	3555.27
446.95	3667.62
447.14	3445.27
447.32	3648.90
447.51	3555.27
447.69	3728.47
447.88	3623.15
448.06	3667.62
448.25	3569.32
448.43	3662.94
448.62	3637.19
448.80	3634.85
448.99	3641.87
449.17	3775.28
449.36	3531.87
449.54	3784.65
449.73	3716.77
449.91	3756.56
450.10	3735.50
450.28	3927.42
450.46	3873.59
450.65	3779.97
450.83	3840.82
451.02	3772.94
451.20	3880.61
451.39	3882.95
451.57	3946.14
451.76	3901.67
451.94	4002.32
452.13	3981.25
452.31	3992.95
452.49	3817.41
452.68	3927.42
452.86	4037.42
453.05	4170.83
453.23	4180.20
453.42	3988.27
453.60	3971.89
453.78	4058.49
453.97	3964.87
454.15	4035.08
454.34	3988.27
454.52	4128.70
454.70	4009.34
454.89	4102.96
455.07	4231.69
455.26	4072.53
455.44	4187.22
455.62	4147.43
455.81	4100.62
455.99	4248.07
456.17	4290.20
456.36	4234.03
456.54	4224.67
456.73	4325.31
456.91	4299.56
457.09	4276.16
457.28	4596.81
457.46	4418.93
457.64	4414.25
457.83	4496.17
458.01	4383.82
458.19	4472.76
458.38	4390.84
458.56	4599.15
458.74	4596.81
458.93	4514.89
459.11	4465.74
459.29	4538.30
459.48	4685.75
459.66	4550.00
459.84	4660.01
460.03	4725.54
460.21	4688.09
460.39	4674.05
460.57	4713.84
460.76	4606.17
460.94	4816.82
461.12	4720.86
461.31	4779.37
461.49	4732.56
461.67	4851.93
461.85	4889.38
462.04	4840.23
462.22	5071.94
462.40	4877.68
462.59	4800.44
462.77	4896.40
462.95	4905.76
463.13	4957.25
463.32	4997.04
463.50	5043.85
463.68	5043.85
463.86	5027.47
464.05	4940.87
464.23	4983.00
464.41	5163.22
464.59	4905.76
464.78	5050.88
464.96	5172.58
465.14	4990.02
465.32	5085.98
465.50	5210.03
465.69	5123.43
465.87	4992.36
466.05	5146.84
466.23	5149.18
466.41	5301.31
466.60	5467.49
466.78	5259.18
466.96	5188.97
467.14	5093.01
467.32	5210.03
467.51	5308.34
467.69	5238.12
467.87	5324.72
468.05	5390.25
468.23	5219.39
468.41	5294.29
468.60	5401.96
468.78	5460.47
468.96	5444.09
469.14	5521.32
469.32	5593.88
469.50	5518.98
469.69	5593.88
469.87	5593.88
470.05	5678.14
470.23	5504.94
470.41	5565.79
470.59	5626.65
470.77	5820.91
470.95	5556.43
471.14	5706.23
471.32	5540.05
471.50	5954.32
471.68	5673.46
471.86	5849.00
472.04	5785.80
472.22	6012.84
472.40	5937.94
472.58	5935.60
472.77	5762.40
472.95	6078.37
473.13	6061.99
473.31	6064.33
473.49	6047.94
473.67	5994.11
473.85	6083.05
474.03	6239.87
474.21	6129.86
474.39	6293.70
474.57	6260.93
474.75	6314.77
474.93	6338.17
475.12	6282.00
475.30	6413.07
475.48	6249.23
475.66	6530.09
475.84	6403.71
476.02	6593.29
476.20	6583.93
476.38	6558.18
476.56	6761.81
476.74	6696.27
476.92	6799.26
477.10	6602.65
477.28	6848.41
477.46	6820.32
477.64	6977.14
477.82	7016.93
478.00	7103.53
478.18	7122.25
478.36	7229.91
478.54	7162.04
478.72	7297.79
478.90	7260.34
479.08	7122.25
479.26	7559.93
479.44	7623.12
479.62	7442.90
479.80	7686.32
479.98	7543.55
480.16	7866.54
480.34	7761.22
480.52	8063.15
480.70	7847.82
480.88	7782.28
481.06	7941.44
481.24	7819.73
481.41	7957.82
481.59	8152.09
481.77	8311.24
481.95	8257.41
482.13	8479.76
482.31	8423.59
482.49	8690.41
482.67	8629.56
482.85	8762.97
483.03	8805.10
483.21	8781.69
483.39	8793.39
483.57	8882.33
483.74	8812.12
483.92	8919.78
484.10	8933.82
484.28	9146.81
484.46	9193.62
484.64	9401.93
484.82	9305.97
485.00	9652.37
485.18	9415.98
485.35	9743.65
485.53	9701.52
485.71	9710.88
485.89	9860.68
486.07	9797.48
486.25	10118.14
486.43	9921.53
486.61	10183.67
486.78	10139.20
486.96	10328.78
487.14	10450.49
487.32	10492.62
487.50	10619.01
487.68	10579.22
487.85	10738.38
488.03	10810.93
488.21	11002.86
488.39	10897.53
488.57	11019.24
488.75	11122.23
488.92	11248.61
489.10	11382.03
489.28	11461.60
489.46	11695.66
489.64	11410.11
489.81	11740.13
489.99	11536.50
490.17	11838.43
490.35	12013.97
490.53	11885.24
490.70	12049.08
490.88	11948.43
491.06	11971.84
491.24	12180.15
491.41	12458.67
491.59	12535.91
491.77	12444.63
491.95	12409.52
492.13	12664.64
492.30	12688.04
492.48	12657.62
492.66	12760.60
492.84	12664.64
493.01	13076.57
493.19	13217.01
493.37	13233.39
493.54	13483.83
493.72	13156.15
493.90	13256.79
494.08	13338.71
494.25	13692.13
494.43	13568.09
494.61	13689.79
494.79	13701.50
494.96	13785.76
495.14	14001.08
495.32	13818.52
495.49	14068.96
495.67	14071.30
495.85	14162.58
496.02	14445.79
496.20	14106.41
496.38	14394.29
496.55	14525.36
496.73	14974.75
496.91	14846.02
497.09	14684.52
497.26	14824.95
497.44	14995.81
497.62	14623.67
497.79	15180.71
497.97	15070.71
498.14	15157.31
498.32	15126.88
498.50	15461.58
498.67	15297.74
498.85	15484.98
499.03	15517.75
499.20	15257.95
499.38	15665.21
499.56	15747.12
499.73	15899.26
499.91	16194.17
500.08	15950.75
500.26	15831.38
500.44	15887.56
500.61	16208.21
500.79	16023.31
500.97	16191.83
501.14	16196.51
501.32	16248.00
501.49	16552.27
501.67	16194.17
501.84	16484.39
502.02	16587.38
502.20	16882.28
502.37	16650.57
502.55	16533.54
502.72	16734.83
502.90	16828.45
503.07	16856.54
503.25	17055.48
503.43	16915.05
503.60	17195.92
503.78	17008.67
503.95	17226.34
504.13	17043.78
504.30	17219.32
504.48	17153.79
504.65	17678.07
504.83	17516.57
505.01	17703.81
505.18	17853.61
505.36	17703.81
505.53	17483.80
505.71	17647.64
505.88	17687.43
506.06	17523.59
506.23	18040.85
506.41	18073.62
506.58	18377.89
506.76	18090.00
506.93	17757.64
507.11	18005.74
507.28	18022.12
507.46	18321.71
507.63	18429.38
507.81	18668.11
507.98	18380.23
508.16	18511.30
508.33	18391.93
508.50	18506.62
508.68	18368.52
508.85	18604.92
509.03	18864.72
509.20	18759.39
509.38	18925.57
509.55	19028.56
509.73	18754.71
509.90	19089.41
510.08	18869.40
510.25	18965.36
510.42	19257.93
510.60	19293.04
510.77	19295.38
510.95	19328.14
511.12	19241.54
511.30	19339.85
511.47	19503.68
511.64	19939.02
511.82	19580.92
511.99	19655.82
512.17	19730.72
512.34	19571.56
512.51	19805.61
512.69	19702.63
512.86	19632.41
513.04	20065.41
513.21	20262.02
513.38	20065.41
513.56	20121.59
513.73	20084.14
513.90	20287.76
514.08	20233.93
514.25	20159.03
514.43	20491.39
514.60	20472.67
514.77	20830.77
514.95	20629.48
515.12	20343.94
515.29	20624.80
515.47	20704.38
515.64	20964.18
515.81	20849.49
515.99	21125.68
516.16	21097.59
516.33	21172.49
516.51	20905.66
516.68	20807.36
516.85	21010.99
517.03	21097.59
517.20	21277.81
517.37	21118.65
517.54	21216.96
517.72	21303.56
517.89	21647.61
518.06	21071.84
518.24	21570.38
518.41	21151.42
518.58	21523.57
518.75	21458.03
518.93	22087.64
519.10	21612.51
519.27	21774.00
519.45	21537.61
519.62	21701.45
519.79	21764.64
519.96	21956.57
520.14	21998.70
520.31	21720.17
520.48	22288.92
520.65	21860.60
520.83	22071.25
521.00	22305.31
521.17	22277.22
521.34	22162.53
521.52	22253.81
521.69	22258.49
521.86	22611.92
522.03	22511.27
522.20	22647.02
522.38	22614.26
522.55	22623.62
522.72	22684.47
522.89	22815.54
523.07	22979.38
523.24	22916.19
523.41	23192.37
523.58	22588.51
523.75	22906.82
523.92	22960.66
524.10	23035.55
524.27	23154.92
524.44	23335.14
524.61	23442.81
524.78	23445.15
524.96	23185.35
525.13	23236.84
525.30	23536.43
525.47	23115.13
525.64	23498.98
525.81	23550.47
525.98	23527.06
526.16	23765.80
526.33	23737.71
526.50	23620.69
526.67	23796.23
526.84	23934.32
527.01	23611.32
527.18	23950.70
527.36	24013.90
527.53	23920.28
527.70	24250.29
527.87	23999.85
528.04	23896.87
528.21	24114.54
528.38	23833.68
528.55	24343.91
528.72	23934.32
528.89	24285.40
529.07	24049.00
529.24	24393.06
529.41	24512.43
529.58	24503.07
529.75	24329.87
529.92	24350.93
530.09	24428.17
530.26	24332.21
530.43	24451.58
530.60	24341.57
530.77	24690.31
530.94	24599.03
531.11	24568.60
531.28	24758.19
531.46	24519.45
531.63	24594.35
531.80	24519.45
531.97	25039.05
532.14	25032.03
532.31	24978.20
532.48	25219.27
532.65	25102.25
532.82	25055.43
532.99	25078.84
533.16	25092.88
533.33	25273.10
533.50	25401.83
533.67	25441.62
533.84	24959.47
534.01	25069.48
534.18	25399.49
534.35	25394.81
534.52	25500.14
534.69	25659.29
534.86	25476.73
535.03	25598.44
535.20	25560.99
535.37	25542.27
535.54	25635.89
535.71	25528.22
535.88	25420.56
536.05	25458.01
536.22	26043.14
536.38	25612.48
536.55	26040.80
536.72	25909.73
536.89	25645.25
537.06	25750.57
537.23	25844.20
537.40	25984.63
537.57	26036.12
537.74	25881.64
537.91	26228.04
538.08	26122.72
538.25	26183.57
538.42	26092.29
538.59	26267.83
538.75	25872.28
538.92	26122.72
539.09	26202.30
539.26	26567.42
539.43	26141.44
539.60	26684.45
539.77	26735.94
539.94	26972.33
540.11	26225.70
540.28	26696.15
540.44	26593.17
540.61	26431.67
540.78	26834.24
540.95	26623.59
541.12	26515.93
541.29	26977.01
541.46	26757.00
541.62	26497.20
541.79	26717.22
541.96	26661.04
542.13	26625.93
542.30	27124.47
542.47	27002.76
542.63	26918.50
542.80	27161.92
542.97	27428.74
543.14	27278.94
543.31	27178.30
543.48	27358.52
543.64	27281.28
543.81	27311.71
543.98	27782.16
544.15	27543.42
544.32	28027.92
544.48	27681.52
544.65	27901.53
544.82	27424.06
544.99	27171.28
545.16	27487.25
545.32	27470.87
545.49	28039.62
545.66	27831.31
545.83	27976.42
546.00	27978.76
546.16	27573.85
546.33	27690.88
546.50	27508.32
546.67	27789.18
546.83	27529.38
547.00	28278.35
547.17	27765.78
547.34	28016.21
547.50	27875.78
547.67	28156.64
547.84	27962.38
548.00	28229.20
548.17	28510.07
548.34	27955.36
548.51	28273.67
548.67	28292.40
548.84	28404.74
549.01	28268.99
549.18	28318.14
549.34	28311.12
549.51	28156.64
549.68	28453.89
549.84	28208.14
550.01	28760.50
550.18	28341.55
550.34	28451.55
550.51	28741.78
550.68	28919.66
550.84	28407.08
551.01	28547.51
551.18	28519.43
551.34	28280.69
551.51	28528.79
551.68	28652.84
551.84	29013.28
552.01	28573.26
552.18	28758.16
552.34	28449.21
552.51	29163.08
552.68	28751.14
552.84	28746.46
553.01	29132.65
553.18	28917.32
553.34	28980.51
553.51	29219.25
553.67	29116.26
553.84	29177.12
554.01	29085.84
554.17	29001.58
554.34	28591.98
554.51	29092.86
554.67	29432.24
554.84	29078.82
555.00	29301.17
555.17	29060.09
555.33	29134.99
555.50	29738.85
555.67	29551.60
555.83	29160.73
556.00	29067.11
556.16	29663.95
556.33	29434.58
556.50	29434.58
556.66	29567.99
556.83	29378.40
556.99	29795.02
557.16	29680.33
557.32	29371.38
557.49	29888.64
557.65	29333.93
557.82	29467.34
557.98	29600.76
558.15	29762.25
558.32	29776.30
558.48	30008.01
558.65	29750.55
558.81	29900.34
558.98	29493.09
559.14	29972.90
559.31	29795.02
559.47	29773.95
559.64	29968.22
559.80	29968.22
559.97	29970.56
560.13	29830.13
560.30	29612.46
560.46	29923.75
560.63	29977.58
560.79	29944.81
560.96	29993.97
561.12	30206.95
561.29	29848.85
561.45	30099.29
561.61	30235.04
561.78	30265.47
561.94	29556.28
562.11	30361.43
562.27	29996.31
562.44	30094.61
562.60	30129.72
562.77	30260.79
562.93	29947.15
563.10	30033.75
563.26	30246.74
563.42	30682.08
563.59	30323.98
563.75	29942.47
563.92	30473.78
564.08	29965.88
564.24	30181.21
564.41	30277.17
564.57	30115.67
564.74	30221.00
564.90	30272.49
565.07	30274.83
565.23	30576.76
565.39	30490.16
565.56	30370.79
565.72	30267.81
565.88	30490.16
566.05	30302.92
566.21	30525.27
566.38	30232.70
566.54	30452.71
566.70	30972.31
566.87	30923.16
567.03	30590.80
567.19	30878.69
567.36	30630.59
567.52	30466.75
567.68	30541.65
567.85	30572.08
568.01	30457.39
568.17	30597.82
568.34	30438.67
568.50	30445.69
568.66	30705.49
568.83	30796.77
568.99	31187.64
569.15	30569.74
569.32	30740.60
569.48	30661.02
569.64	30377.81
569.81	30895.07
569.97	30810.81
570.13	30663.36
570.30	30728.89
570.46	30691.44
570.62	30993.37
570.78	30838.90
570.95	30490.16
571.11	30419.94
571.27	30562.72
571.43	30433.99
571.60	30630.59
571.76	30988.69
571.92	30525.27
572.09	30871.67
572.25	30958.27
572.41	30817.83
572.57	30946.56
572.74	30916.14
572.90	30607.19
573.06	30892.73
573.22	30848.26
573.38	30583.78
573.55	30389.52
573.71	31138.49
573.87	31161.89
574.03	30892.73
574.20	30756.98
574.36	30859.96
574.52	30792.09
574.68	30874.01
574.84	30820.17
575.01	31124.44
575.17	31098.70
575.33	30939.54
575.49	31044.87
575.65	31103.38
575.82	31054.23
575.98	30721.87
576.14	30836.56
576.30	31243.81
576.46	31131.47
576.62	31112.74
576.79	30581.44
576.95	31044.87
577.11	31269.56
577.27	30969.97
577.43	31089.34
577.59	31152.53
577.75	30878.69
577.92	30878.69
578.08	30937.20
578.24	30536.97
578.40	31147.85
578.56	30890.39
578.72	31405.31
578.88	31049.55
579.04	30946.56
579.21	30976.99
579.37	31386.58
579.53	31126.78
579.69	30923.16
579.85	30890.39
580.01	31197.00
580.17	30864.64
580.33	31042.53
580.49	31332.75
580.65	31470.84
580.82	31271.90
580.98	31084.65
581.14	31550.42
581.30	31316.37
581.46	30923.16
581.62	31274.24
581.78	30593.14
581.94	30972.31
582.10	30916.14
582.26	31435.74
582.42	30965.29
582.58	31342.11
582.74	31014.44
582.90	31435.74
583.06	31094.02
583.22	31435.74
583.38	31309.35
583.54	31468.50
583.70	31077.63
583.86	31248.49
584.02	31412.33
584.18	31449.78
584.34	30948.90
584.50	31405.31
584.66	31154.87
584.82	30780.39
584.98	31494.25
585.14	31316.37
585.30	30616.55
585.46	31243.81
585.62	30656.34
585.78	31178.28
585.94	30824.86
586.10	31388.92
586.26	31435.74
586.42	31793.84
586.58	31859.37
586.74	31131.47
586.90	30932.52
587.06	31030.82
587.22	31477.86
587.38	31089.34
587.54	31388.92
587.70	31461.48
587.86	31243.81
588.02	31395.95
588.18	31587.87
588.34	31969.38
588.49	31189.98
588.65	31302.32
588.81	31145.51
588.97	31365.52
589.13	31548.08
589.29	31173.60
589.45	31222.75
589.61	31707.24
589.77	31814.90
589.93	31452.12
590.08	31587.87
590.24	31704.90
590.40	31325.73
590.56	31709.58
590.72	31728.30
590.88	31358.50
591.04	31660.43
591.20	31714.26
591.35	31576.17
591.51	32016.19
591.67	32126.19
591.83	31910.86
