SpectraSuite Data File
++++++++++++++++++++++++++++++++++++
Date: Fri Oct 18 13:58:21 GMT-05:00 2013
User: bianchi
Dark Spectrum Present: No
Reference Spectrum Present: No
Number of Sampled Component Spectra: 1
Spectrometers: USB2+H05261
Integration Time (usec): 50000 (USB2+H05261)
Spectra Averaged: 1 (USB2+H05261)
Boxcar Smoothing: 0 (USB2+H05261)
Correct for Electrical Dark: No (USB2+H05261)
Strobe/Lamp Enabled: No (USB2+H05261)
Correct for Detector Non-linearity: No (USB2+H05261)
Correct for Stray Light: No (USB2+H05261)
Number of Pixels in Processed Spectrum: 2048
>>>>>Begin Processed Spectral Data<<<<<
365.73	0.00
365.92	0.00
366.12	0.00
366.32	0.00
366.52	0.00
366.72	0.00
366.91	0.00
367.11	0.00
367.31	0.00
367.51	0.00
367.70	0.00
367.90	0.00
368.10	0.00
368.30	0.00
368.49	0.00
368.69	0.00
368.89	0.00
369.09	0.00
369.28	0.00
369.48	0.00
369.68	0.00
369.87	0.00
370.07	0.00
370.27	0.00
370.47	0.00
370.66	74.90
370.86	49.15
371.06	156.82
371.25	140.43
371.45	147.45
371.65	161.50
371.84	124.05
372.04	135.75
372.24	168.52
372.44	159.16
372.63	149.79
372.83	248.10
373.03	173.20
373.22	168.52
373.42	163.84
373.62	229.37
373.81	198.95
374.01	201.29
374.21	154.48
374.40	276.18
374.60	280.86
374.79	220.01
374.99	170.86
375.19	250.44
375.38	222.35
375.58	259.80
375.78	262.14
375.97	259.80
376.17	196.60
376.37	210.65
376.56	292.57
376.76	355.76
376.95	290.23
377.15	271.50
377.35	201.29
377.54	255.12
377.74	306.61
377.93	292.57
378.13	266.82
378.33	297.25
378.52	241.08
378.72	346.40
378.91	252.78
379.11	250.44
379.31	248.10
379.50	299.59
379.70	337.04
379.89	339.38
380.09	276.18
380.28	212.99
380.48	292.57
380.68	245.76
380.87	273.84
381.07	301.93
381.26	358.10
381.46	337.04
381.65	273.84
381.85	355.76
382.04	304.27
382.24	374.49
382.43	355.76
382.63	311.29
382.83	327.68
383.02	365.12
383.22	386.19
383.41	365.12
383.61	313.63
383.80	301.93
384.00	322.99
384.19	348.74
384.39	367.46
384.58	330.02
384.78	416.62
384.97	355.76
385.17	369.80
385.36	411.93
385.56	355.76
385.75	397.89
385.95	318.31
386.14	292.57
386.34	449.38
386.53	440.02
386.72	407.25
386.92	397.89
387.11	449.38
387.31	341.72
387.50	425.98
387.70	341.72
387.89	465.77
388.09	386.19
388.28	355.76
388.48	362.78
388.67	447.04
388.86	465.77
389.06	491.51
389.25	521.94
389.45	404.91
389.64	533.64
389.84	519.60
390.03	465.77
390.22	479.81
390.42	425.98
390.61	477.47
390.81	484.49
391.00	496.19
391.19	498.53
391.39	454.06
391.58	512.58
391.78	491.51
391.97	550.03
392.16	486.83
392.36	547.69
392.55	550.03
392.75	533.64
392.94	568.75
393.13	521.94
393.33	573.43
393.52	535.98
393.71	603.86
393.91	561.73
394.10	596.84
394.29	503.22
394.49	582.79
394.68	610.88
394.88	580.45
395.07	683.44
395.26	634.29
395.46	559.39
395.65	547.69
395.84	634.29
396.04	641.31
396.23	566.41
396.42	706.84
396.62	627.26
396.81	650.67
397.00	528.96
397.19	608.54
397.39	620.24
397.58	662.37
397.77	653.01
397.97	720.88
398.16	681.10
398.35	685.78
398.55	629.60
398.74	716.20
398.93	812.17
399.12	653.01
399.32	695.14
399.51	730.25
399.70	767.70
399.90	793.44
400.09	812.17
400.28	793.44
400.47	828.55
400.67	727.91
400.86	812.17
401.05	655.35
401.24	795.78
401.44	828.55
401.63	842.59
401.82	795.78
402.01	795.78
402.21	861.32
402.40	821.53
402.59	887.06
402.78	922.17
402.97	800.46
403.17	847.27
403.36	898.77
403.55	887.06
403.74	903.45
403.93	844.93
404.13	861.32
404.32	861.32
404.51	968.98
404.70	781.74
404.89	889.40
405.09	917.49
405.28	912.81
405.47	954.94
405.66	926.85
405.85	1057.92
406.05	1008.77
406.24	938.55
406.43	915.15
406.62	926.85
406.81	997.07
407.00	973.66
407.20	1025.15
407.39	1027.50
407.58	1034.52
407.77	1043.88
407.96	992.39
408.15	1001.75
408.34	1043.88
408.54	1041.54
408.73	1046.22
408.92	1069.62
409.11	1036.86
409.30	1107.07
409.49	1086.01
409.68	1109.41
409.87	1186.65
410.07	1125.80
410.26	1174.95
410.45	1158.57
410.64	1050.90
410.83	1217.08
411.02	1086.01
411.21	1240.48
411.40	1214.74
411.59	1174.95
411.78	1184.31
411.98	1191.33
412.17	1331.76
412.36	1200.69
412.55	1270.91
412.74	1423.05
412.93	1334.11
413.12	1355.17
413.31	1345.81
413.50	1392.62
413.69	1432.41
413.88	1355.17
414.07	1366.87
414.26	1406.66
414.45	1369.21
414.64	1406.66
414.83	1453.47
415.02	1430.07
415.22	1514.33
415.41	1526.03
415.60	1453.47
415.79	1458.15
415.98	1563.48
416.17	1556.46
416.36	1558.80
416.55	1617.31
416.74	1753.06
416.93	1577.52
417.12	1633.69
417.31	1624.33
417.50	1682.85
417.69	1703.91
417.88	1626.67
418.07	1694.55
418.26	1767.10
418.45	1671.14
418.64	1741.36
418.83	1708.59
419.02	1804.55
419.21	1771.79
419.39	1785.83
419.58	1811.57
419.77	1802.21
419.96	1856.04
420.15	1884.13
420.34	1865.41
420.53	1802.21
420.72	1816.26
420.91	1902.86
421.10	1949.67
421.29	1944.99
421.48	1977.75
421.67	1842.00
421.86	1842.00
422.05	1919.24
422.24	1928.60
422.43	1898.17
422.61	2005.84
422.80	1907.54
422.99	2024.56
423.18	1935.62
423.37	1973.07
423.56	2033.93
423.75	1942.64
423.94	1959.03
424.13	1863.07
424.32	1954.35
424.50	2003.50
424.69	2033.93
424.88	2083.08
425.07	2031.58
425.26	2022.22
425.45	2045.63
425.64	2118.18
425.83	1973.07
426.01	1989.46
426.20	2052.65
426.39	1966.05
426.58	2040.95
426.77	2076.06
426.96	1975.41
427.15	2036.27
427.33	2040.95
427.52	2139.25
427.71	2097.12
427.90	2038.61
428.09	2057.33
428.28	2097.12
428.46	2062.01
428.65	2181.38
428.84	2200.10
429.03	2157.97
429.22	2195.42
429.40	2214.15
429.59	2225.85
429.78	2062.01
429.97	2104.14
430.16	2129.89
430.34	2270.32
430.53	2370.96
430.72	2277.34
430.91	2251.60
431.10	2150.95
431.28	2368.62
431.47	2387.35
431.66	2377.98
431.85	2225.85
432.03	2249.25
432.22	2363.94
432.41	2403.73
432.60	2399.05
432.79	2410.75
432.97	2572.25
433.16	2354.58
433.35	2279.68
433.54	2471.61
433.72	2495.01
433.91	2523.10
434.10	2574.59
434.28	2473.95
434.47	2417.77
434.66	2551.18
434.85	2595.65
435.03	2544.16
435.22	2597.99
435.41	2731.41
435.59	2586.29
435.78	2621.40
435.97	2703.32
436.16	2616.72
436.34	2698.64
436.53	2635.44
436.72	2717.36
436.90	2581.61
437.09	2705.66
437.28	2682.25
437.46	2565.23
437.65	2581.61
437.84	2768.85
438.02	2738.43
438.21	2696.30
438.40	2743.11
438.58	2848.43
438.77	2843.75
438.96	2885.88
439.14	2864.82
439.33	2836.73
439.52	2993.55
439.70	2906.95
439.89	2995.89
440.08	2993.55
440.26	3005.25
440.45	2984.18
440.63	3159.72
440.82	3105.89
441.01	2972.48
441.19	3077.80
441.38	3110.57
441.57	3126.96
441.75	3288.45
441.94	3255.69
442.12	3229.94
442.31	3274.41
442.50	3185.47
442.68	3222.92
442.87	3253.34
443.05	3400.80
443.24	3393.78
443.43	3297.81
443.61	3307.18
443.80	3368.03
443.98	3180.79
444.17	3232.28
444.35	3300.16
444.54	3384.41
444.73	3485.06
444.91	3489.74
445.10	3456.97
445.28	3276.75
445.47	3414.84
445.65	3384.41
445.84	3375.05
446.02	3438.25
446.21	3400.80
446.39	3372.71
446.58	3358.67
446.77	3300.16
446.95	3351.65
447.14	3353.99
447.32	3513.14
447.51	3433.57
447.69	3435.91
447.88	3466.33
448.06	3604.42
448.25	3517.83
448.43	3517.83
448.62	3410.16
448.80	3473.36
448.99	3501.44
449.17	3543.57
449.36	3442.93
449.54	3534.21
449.73	3702.73
449.91	3655.92
450.10	3686.34
450.28	3672.30
450.46	3684.00
450.65	3749.54
450.83	3847.84
451.02	3719.11
451.20	3742.52
451.39	3730.81
451.57	3831.46
451.76	3826.78
451.94	3712.09
452.13	3796.35
452.31	3782.31
452.49	3646.55
452.68	3920.40
452.86	3796.35
453.05	3960.19
453.23	3845.50
453.42	3850.18
453.60	3791.67
453.78	3829.12
453.97	3852.52
454.15	3943.80
454.34	3892.31
454.52	3833.80
454.70	3892.31
454.89	3957.85
455.07	4007.00
455.26	4081.89
455.44	3918.06
455.62	4011.68
455.81	4102.96
455.99	3988.27
456.17	4156.79
456.36	4051.47
456.54	4121.68
456.73	4152.11
456.91	4224.67
457.09	4147.43
457.28	4212.96
457.46	4217.65
457.64	4320.63
457.83	4273.82
458.01	4189.56
458.19	4325.31
458.38	4344.03
458.56	4329.99
458.74	4227.01
458.93	4224.67
459.11	4273.82
459.29	4322.97
459.48	4285.52
459.66	4500.85
459.84	4376.80
460.03	4606.17
460.21	4489.15
460.39	4416.59
460.57	4411.91
460.76	4526.60
460.94	4566.39
461.12	4500.85
461.31	4470.42
461.49	4613.20
461.67	4638.94
461.85	4564.04
462.04	4552.34
462.22	4697.46
462.40	4599.15
462.59	4720.86
462.77	4718.52
462.95	4798.10
463.13	4657.67
463.32	4737.24
463.50	4702.14
463.68	4793.42
463.86	4758.31
464.05	4683.41
464.23	4741.93
464.41	4786.40
464.59	4734.90
464.78	4842.57
464.96	4882.36
465.14	4617.88
465.32	4924.49
465.50	4858.95
465.69	5032.15
465.87	4835.55
466.05	4917.47
466.23	4910.44
466.41	4961.94
466.60	4964.28
466.78	4964.28
466.96	4807.46
467.14	4788.74
467.32	4964.28
467.51	5046.20
467.69	4917.47
467.87	5259.18
468.05	5036.83
468.23	5109.39
468.41	5149.18
468.60	5102.37
468.78	5282.59
468.96	5167.90
469.14	5329.40
469.32	5254.50
469.50	4973.64
469.69	5263.86
469.87	5125.77
470.05	5294.29
470.23	5423.02
470.41	5240.46
470.59	5490.90
470.77	5469.83
470.95	5551.75
471.14	5514.30
471.32	5378.55
471.50	5432.38
471.68	5584.52
471.86	5556.43
472.04	5514.30
472.22	5631.33
472.40	5575.16
472.58	5636.01
472.77	5776.44
472.95	5687.50
473.13	5795.17
473.31	5746.02
473.49	5628.99
473.67	5582.18
473.85	5792.83
474.03	5980.07
474.21	5830.27
474.39	5977.73
474.57	5914.53
474.75	6073.69
474.93	5970.71
475.12	6045.60
475.30	6118.16
475.48	6040.92
475.66	6340.51
475.84	5996.45
476.02	6134.54
476.20	6164.97
476.38	6403.71
476.56	6319.45
476.74	6530.09
476.92	6422.43
477.10	6490.31
477.28	6494.99
477.46	6429.45
477.64	6597.97
477.82	6850.75
478.00	6677.55
478.18	6810.96
478.36	6913.94
478.54	7047.35
478.72	6960.75
478.90	6906.92
479.08	7115.23
479.26	7192.47
479.44	7229.91
479.62	7115.23
479.80	7232.26
479.98	7475.67
480.16	7407.80
480.34	7382.05
480.52	7412.48
480.70	7660.57
480.88	7499.08
481.06	7721.43
481.24	7609.08
481.41	7889.95
481.59	7688.66
481.77	7976.55
481.95	8006.97
482.13	7992.93
482.31	8044.42
482.49	8208.26
482.67	8065.49
482.85	8248.05
483.03	8299.54
483.21	8463.38
483.39	8662.32
483.57	8231.66
483.74	8425.93
483.92	8592.11
484.10	8699.77
484.28	8727.86
484.46	8903.40
484.64	8947.87
484.82	8933.82
485.00	8891.70
485.18	9172.56
485.35	9359.80
485.53	9334.06
485.71	9296.61
485.89	9507.26
486.07	9350.44
486.25	9486.19
486.43	9626.62
486.61	9453.42
486.78	9610.24
486.96	9961.32
487.14	9797.48
487.32	9844.29
487.50	9921.53
487.68	10141.54
487.85	10242.18
488.03	10436.45
488.21	10298.36
488.39	10387.30
488.57	10560.50
488.75	10473.90
488.92	10658.80
489.10	10775.83
489.28	10684.55
489.46	10686.89
489.64	10911.58
489.81	11176.06
489.99	10902.22
490.17	11353.94
490.35	11276.70
490.53	11407.77
490.70	11356.28
490.88	11646.51
491.06	11712.04
491.24	11625.44
491.41	11688.64
491.59	11726.08
491.77	11873.54
491.95	12065.46
492.13	12156.74
492.30	12173.13
492.48	12184.83
492.66	12053.76
492.84	11920.35
493.01	12365.05
493.19	12299.52
493.37	12587.40
493.54	12622.51
493.72	12734.85
493.90	12554.63
494.08	12720.81
494.25	12896.35
494.43	12858.90
494.61	13043.81
494.79	12989.97
494.96	12954.87
495.14	13532.98
495.32	13364.46
495.49	13273.18
495.67	13455.74
495.85	13362.12
496.02	13785.76
496.20	13624.26
496.38	13692.13
496.55	13476.80
496.73	13846.61
496.91	13935.55
497.09	13987.04
497.26	14167.26
497.44	13947.25
497.62	14075.98
497.79	14424.72
497.97	14214.07
498.14	14429.40
498.32	14525.36
498.50	14857.72
498.67	14464.51
498.85	14548.77
499.03	14836.66
499.20	14534.73
499.38	14909.21
499.56	14949.00
499.73	15040.28
499.91	15213.48
500.08	15082.41
500.26	14972.41
500.44	15302.42
500.61	15176.03
500.79	15234.55
500.97	15264.97
501.14	15442.85
501.32	15597.33
501.49	15630.10
501.67	15466.26
501.84	15538.82
502.02	15714.36
502.20	15529.45
502.37	16180.12
502.55	15791.59
502.72	16072.46
502.90	16056.08
503.07	15941.39
503.25	16116.93
503.43	15917.98
503.60	16388.43
503.78	16397.79
503.95	16023.31
504.13	16168.42
504.30	16533.54
504.48	16479.71
504.65	16559.29
504.83	16643.55
505.01	16992.29
505.18	16826.11
505.36	16826.11
505.53	16671.64
505.71	16819.09
505.88	16767.60
506.06	16585.04
506.23	16898.67
506.41	16964.20
506.58	17090.59
506.76	17350.39
506.93	17334.01
507.11	17039.10
507.28	17245.07
507.46	17380.82
507.63	17172.51
507.81	17598.49
507.98	17378.48
508.16	17411.25
508.33	17635.94
508.50	17851.27
508.68	17521.25
508.85	17675.73
509.03	17862.97
509.20	17909.78
509.38	17689.77
509.55	18064.25
509.73	18082.98
509.90	18106.38
510.08	17947.23
510.25	18078.30
510.42	18263.20
510.60	18532.36
510.77	18265.54
510.95	18518.32
511.12	18150.85
511.30	18593.22
511.47	18530.02
511.64	18721.95
511.82	18714.92
511.99	18558.11
512.17	18970.04
512.34	18759.39
512.51	19028.56
512.69	19075.37
512.86	18829.61
513.04	18979.40
513.21	19112.81
513.38	19150.26
513.56	19346.87
513.73	18869.40
513.90	19487.30
514.08	19082.39
514.25	19431.13
514.43	19323.46
514.60	19623.05
514.77	19590.28
514.95	19784.55
515.12	19695.61
515.29	19208.78
515.47	19903.92
515.64	19819.66
515.81	19641.78
515.99	19520.07
516.16	19882.85
516.33	20023.28
516.51	20072.43
516.68	19962.43
516.85	20107.54
517.03	20137.97
517.20	20086.48
517.37	20189.46
517.54	20224.57
517.72	20154.35
517.89	19932.00
518.06	20271.38
518.24	20556.93
518.41	20521.82
518.58	20311.17
518.75	20418.83
518.93	20734.81
519.10	20589.69
519.27	20688.00
519.45	20566.29
519.62	20772.25
519.79	20577.99
519.96	20734.81
520.14	20910.35
520.31	20957.16
520.48	21132.70
520.65	20774.60
520.83	21144.40
521.00	21137.38
521.17	21020.35
521.34	20982.90
521.52	21291.85
521.69	21256.75
521.86	21420.58
522.03	21415.90
522.20	21369.09
522.38	21586.76
522.55	21530.59
522.72	21345.69
522.89	21811.45
523.07	21790.39
523.24	21542.29
523.41	21879.33
523.58	21600.80
523.75	21837.20
523.92	21624.21
524.10	21832.52
524.27	21582.08
524.44	22073.59
524.61	22160.19
524.78	22324.03
524.96	22026.78
525.13	21956.57
525.30	22071.25
525.47	22270.20
525.64	22324.03
525.81	22551.06
525.98	22141.47
526.16	22441.06
526.33	22534.68
526.50	22661.07
526.67	22354.46
526.84	22560.42
527.01	22588.51
527.18	22572.13
527.36	22958.31
527.53	22972.36
527.70	23014.49
527.87	22948.95
528.04	22759.37
528.21	22932.57
528.38	22731.28
528.55	23143.22
528.72	22813.20
528.89	22876.40
529.07	22867.03
529.24	23225.14
529.41	23536.43
529.58	22965.34
529.75	23150.24
529.92	22864.69
530.09	23101.09
530.26	23307.05
530.43	23269.61
530.60	23199.39
530.77	23337.48
530.94	23552.81
531.11	23164.28
531.28	23250.88
531.46	23489.62
531.63	23538.77
531.80	23924.96
531.97	23807.93
532.14	23988.15
532.31	23779.84
532.48	23590.26
532.65	24027.94
532.82	23693.24
532.99	23726.01
533.16	23578.56
533.33	24177.73
533.50	24208.16
533.67	24112.20
533.84	24123.90
534.01	24142.63
534.18	23789.20
534.35	24201.14
534.52	24079.43
534.69	24283.06
534.86	24308.80
535.03	24041.98
535.20	24086.45
535.37	24212.84
535.54	24259.65
535.71	23882.83
535.88	24215.18
536.05	24170.71
536.22	24470.30
536.38	24491.37
536.55	24493.71
536.72	24627.12
536.89	24489.03
537.06	24393.06
537.23	24737.12
537.40	24582.65
537.57	24620.10
537.74	24676.27
537.91	25385.45
538.08	24809.68
538.25	24563.92
538.42	24842.45
538.59	24926.71
538.75	24421.15
538.92	24854.15
539.09	24828.40
539.26	25092.88
539.43	24971.18
539.60	24936.07
539.77	24865.85
539.94	25673.34
540.11	25493.12
540.28	25032.03
540.44	25223.95
540.61	25139.69
540.78	25036.71
540.95	25163.10
541.12	25181.82
541.29	25254.38
541.46	25366.73
541.62	25198.21
541.79	25296.51
541.96	25020.33
542.13	25357.36
542.30	25378.43
542.47	25874.62
542.63	25575.03
542.80	25720.15
542.97	26251.45
543.14	26003.35
543.31	25923.77
543.48	26003.35
543.64	25820.79
543.81	26190.59
543.98	26078.25
544.15	26204.64
544.32	25811.43
544.48	26228.04
544.65	25635.89
544.82	25813.77
544.99	25788.02
545.16	25986.97
545.32	26080.59
545.49	26242.09
545.66	26424.65
545.83	26464.44
546.00	26518.27
546.16	26293.58
546.33	26242.09
546.50	26024.42
546.67	26314.64
546.83	26068.89
547.00	26499.55
547.17	26544.02
547.34	26614.23
547.50	26473.80
547.67	26810.84
547.84	26469.12
548.00	26579.12
548.17	26342.73
548.34	26698.49
548.51	26691.47
548.67	26986.38
548.84	26845.94
549.01	26888.07
549.18	26895.10
549.34	26946.59
549.51	26710.19
549.68	26794.45
549.84	27140.85
550.01	27000.42
550.18	26946.59
550.34	27075.32
550.51	27091.70
550.68	27145.53
550.84	26654.02
551.01	27019.14
551.18	26859.99
551.34	26845.94
551.51	27098.72
551.68	26993.40
551.84	27222.77
552.01	27019.14
552.18	27257.88
552.34	27250.86
552.51	27428.74
552.68	27058.93
552.84	27522.36
553.01	27374.91
553.18	27372.57
553.34	27828.97
553.51	27557.47
553.67	27552.79
553.84	27826.63
554.01	27545.76
554.17	27276.60
554.34	27569.17
554.51	27318.73
554.67	27522.36
554.84	27742.37
555.00	27777.48
555.17	27276.60
555.33	27637.05
555.50	27510.66
555.67	27328.10
555.83	27644.07
556.00	27428.74
556.16	27812.59
556.33	27749.39
556.50	28173.03
556.66	28175.37
556.83	27751.73
556.99	28236.22
557.16	28091.11
557.32	28170.69
557.49	27953.02
557.65	27552.79
557.82	27913.23
557.98	27866.42
558.15	28259.63
558.32	27995.15
558.48	28086.43
558.65	28058.34
558.81	28140.26
558.98	28465.60
559.14	28247.93
559.31	27754.07
559.47	28074.73
559.64	28151.96
559.80	28575.60
559.97	28535.81
560.13	28224.52
560.30	28114.52
560.46	28556.88
560.63	28320.48
560.79	28561.56
560.96	28559.22
561.12	28268.99
561.29	28086.43
561.45	28568.58
561.61	28444.53
561.78	28442.19
561.94	28144.94
562.11	28404.74
562.27	28189.41
562.44	28229.20
562.60	28231.54
562.77	28617.73
562.93	28467.94
563.10	28797.95
563.26	28339.21
563.42	29156.05
563.59	28243.24
563.75	28582.62
563.92	28767.52
564.08	28645.82
564.24	28837.74
564.41	28599.01
564.57	28364.95
564.74	28517.09
564.90	28575.60
565.07	28690.29
565.23	28666.88
565.39	28720.71
565.56	28739.44
565.72	28701.99
565.88	28737.10
566.05	28685.61
566.21	28648.16
566.38	28774.55
566.54	28727.74
566.70	28734.76
566.87	28891.57
567.03	28746.46
567.19	28835.40
567.36	28821.36
567.52	28971.15
567.68	28936.04
567.85	28540.49
568.01	29181.80
568.17	28620.07
568.34	28922.00
568.50	28746.46
568.66	28643.48
568.83	29088.18
568.99	28762.84
569.15	28800.29
569.32	29048.39
569.48	28755.82
569.64	29001.58
569.81	28978.17
569.97	28870.51
570.13	29095.20
570.30	28966.47
570.46	28982.85
570.62	29280.10
570.78	28484.32
570.95	28683.27
571.11	28854.12
571.27	29153.71
571.43	28659.86
571.60	29006.26
571.76	29032.00
571.92	29404.15
572.09	29097.54
572.25	28835.40
572.41	29418.19
572.57	29460.32
572.74	29340.96
572.90	28961.79
573.06	28767.52
573.22	28699.65
573.38	28987.53
573.55	28882.21
573.71	29315.21
573.87	29256.70
574.03	29188.82
574.20	28952.43
574.36	28807.31
574.52	29399.47
574.68	28804.97
574.84	28854.12
575.01	29099.88
575.17	29003.92
575.33	29167.76
575.49	29252.02
575.65	29333.93
575.82	29219.25
575.98	29170.10
576.14	29163.08
576.30	29191.16
576.46	28891.57
576.62	28929.02
576.79	29244.99
576.95	29312.87
577.11	29067.11
577.27	29270.74
577.43	29064.77
577.59	28982.85
577.75	29287.12
577.92	28711.35
578.08	28938.38
578.24	29020.30
578.40	29029.66
578.56	29118.60
578.72	29228.61
578.88	29703.74
579.04	29563.31
579.21	29008.60
579.37	29582.03
579.53	29357.34
579.69	28830.72
579.85	29598.41
580.01	28889.23
580.17	29441.60
580.33	29439.26
580.49	29167.76
580.65	29432.24
580.82	29488.41
580.98	29610.12
581.14	29266.06
581.30	29291.80
581.46	29088.18
581.62	29099.88
581.78	29057.75
581.94	29539.90
582.10	29268.40
582.26	29399.47
582.42	29249.67
582.58	29338.62
582.74	29085.84
582.90	29415.85
583.06	29706.08
583.22	29563.31
583.38	29247.33
583.54	29406.49
583.70	29144.35
583.86	29490.75
584.02	29095.20
584.18	29462.66
584.34	29504.79
584.50	29495.43
584.66	29125.63
584.82	29123.29
584.98	29780.98
585.14	29670.97
585.30	29317.55
585.46	28982.85
585.62	29331.59
585.78	29371.38
585.94	29352.66
586.10	29556.28
586.26	29755.23
586.42	29497.77
586.58	29535.22
586.74	29603.10
586.90	29284.78
587.06	29511.81
587.22	29502.45
587.38	29378.40
587.54	29659.27
587.70	29975.24
587.86	29720.12
588.02	29811.40
588.18	29961.20
588.34	29621.82
588.49	29687.36
588.65	29322.23
588.81	29429.90
588.97	29476.71
589.13	29783.32
589.29	29303.51
589.45	29551.60
589.61	29397.13
589.77	29694.38
589.93	29546.92
590.08	29324.57
590.24	29563.31
590.40	29757.57
590.56	29853.53
590.72	29710.76
590.88	29577.35
591.04	29624.16
591.20	29928.43
591.35	29895.66
591.51	30129.72
591.67	30384.83
591.83	30066.52
591.99	29811.40
