SpectraSuite Data File
++++++++++++++++++++++++++++++++++++
Date: Fri Oct 18 13:58:13 GMT-05:00 2013
User: bianchi
Dark Spectrum Present: No
Reference Spectrum Present: No
Number of Sampled Component Spectra: 1
Spectrometers: USB2+H05261
Integration Time (usec): 50000 (USB2+H05261)
Spectra Averaged: 1 (USB2+H05261)
Boxcar Smoothing: 0 (USB2+H05261)
Correct for Electrical Dark: No (USB2+H05261)
Strobe/Lamp Enabled: No (USB2+H05261)
Correct for Detector Non-linearity: No (USB2+H05261)
Correct for Stray Light: No (USB2+H05261)
Number of Pixels in Processed Spectrum: 2048
>>>>>Begin Processed Spectral Data<<<<<
365.73	0.00
365.92	0.00
366.12	0.00
366.32	0.00
366.52	0.00
366.72	0.00
366.91	0.00
367.11	0.00
367.31	0.00
367.51	0.00
367.70	0.00
367.90	0.00
368.10	0.00
368.30	0.00
368.49	0.00
368.69	0.00
368.89	0.00
369.09	0.00
369.28	0.00
369.48	0.00
369.68	0.00
369.87	0.00
370.07	0.00
370.27	0.00
370.47	0.00
370.66	32.77
370.86	105.32
371.06	152.13
371.25	161.50
371.45	100.64
371.65	145.11
371.84	175.54
372.04	198.95
372.24	210.65
372.44	147.45
372.63	147.45
372.83	201.29
373.03	159.16
373.22	128.73
373.42	142.77
373.62	194.26
373.81	245.76
374.01	238.73
374.21	212.99
374.40	231.71
374.60	306.61
374.79	205.97
374.99	257.46
375.19	224.69
375.38	290.23
375.58	360.44
375.78	224.69
375.97	243.42
376.17	224.69
376.37	315.97
376.56	262.14
376.76	212.99
376.95	222.35
377.15	290.23
377.35	322.99
377.54	212.99
377.74	201.29
377.93	257.46
378.13	308.95
378.33	271.50
378.52	238.73
378.72	220.01
378.91	313.63
379.11	266.82
379.31	304.27
379.50	236.39
379.70	318.31
379.89	344.06
380.09	301.93
380.28	341.72
380.48	320.65
380.68	393.21
380.87	351.08
381.07	301.93
381.26	330.02
381.46	360.44
381.65	348.74
381.85	243.42
382.04	311.29
382.24	402.57
382.43	344.06
382.63	315.97
382.83	325.33
383.02	334.70
383.22	435.34
383.41	390.87
383.61	365.12
383.80	360.44
384.00	386.19
384.19	374.49
384.39	411.93
384.58	442.36
384.78	390.87
384.97	402.57
385.17	386.19
385.36	388.53
385.56	393.21
385.75	358.10
385.95	447.04
386.14	383.85
386.34	442.36
386.53	414.27
386.72	418.96
386.92	379.17
387.11	414.27
387.31	503.22
387.50	409.59
387.70	456.40
387.89	510.24
388.09	397.89
388.28	402.57
388.48	423.64
388.67	524.28
388.86	477.47
389.06	477.47
389.25	491.51
389.45	458.74
389.64	456.40
389.84	503.22
390.03	589.82
390.22	519.60
390.42	479.81
390.61	526.62
390.81	486.83
391.00	550.03
391.19	561.73
391.39	561.73
391.58	517.26
391.78	538.32
391.97	603.86
392.16	533.64
392.36	622.58
392.55	512.58
392.75	564.07
392.94	514.92
393.13	517.26
393.33	514.92
393.52	543.00
393.71	550.03
393.91	568.75
394.10	596.84
394.29	582.79
394.49	564.07
394.68	636.63
394.88	608.54
395.07	538.32
395.26	589.82
395.46	582.79
395.65	580.45
395.84	610.88
396.04	601.52
396.23	667.05
396.42	627.26
396.62	676.41
396.81	622.58
397.00	620.24
397.19	664.71
397.39	713.86
397.58	753.65
397.77	638.97
397.97	725.57
398.16	660.03
398.35	681.10
398.55	746.63
398.74	697.48
398.93	767.70
399.12	748.97
399.32	800.46
399.51	788.76
399.70	856.64
399.90	758.33
400.09	746.63
400.28	758.33
400.47	746.63
400.67	788.76
400.86	758.33
401.05	751.31
401.24	800.46
401.44	777.06
401.63	744.29
401.82	809.83
402.01	891.74
402.21	915.15
402.40	940.90
402.59	812.17
402.78	875.36
402.97	795.78
403.17	849.61
403.36	861.32
403.55	861.32
403.74	884.72
403.93	931.53
404.13	882.38
404.32	882.38
404.51	887.06
404.70	919.83
404.89	933.87
405.09	1011.11
405.28	924.51
405.47	849.61
405.66	992.39
405.85	976.00
406.05	1090.69
406.24	1015.79
406.43	973.66
406.62	1109.41
406.81	1083.67
407.00	1015.79
407.20	1004.09
407.39	971.32
407.58	1029.84
407.77	1025.15
407.96	1057.92
408.15	1011.11
408.34	1121.12
408.54	1067.28
408.73	1088.35
408.92	1137.50
409.11	1135.16
409.30	1097.71
409.49	1188.99
409.68	1135.16
409.87	1240.48
410.07	1177.29
410.26	1186.65
410.45	1132.82
410.64	1235.80
410.83	1203.04
411.02	1228.78
411.21	1252.19
411.40	1235.80
411.59	1203.04
411.78	1245.16
411.98	1256.87
412.17	1228.78
412.36	1380.92
412.55	1366.87
412.74	1310.70
412.93	1357.51
413.12	1350.49
413.31	1516.67
413.50	1329.42
413.69	1446.45
413.88	1500.28
414.07	1462.83
414.26	1528.37
414.45	1502.62
414.64	1451.13
414.83	1497.94
415.02	1437.09
415.22	1535.39
415.41	1603.27
415.60	1453.47
415.79	1521.35
415.98	1490.92
416.17	1542.41
416.36	1586.88
416.55	1549.43
416.74	1708.59
416.93	1638.38
417.12	1687.53
417.31	1689.87
417.50	1673.48
417.69	1827.96
417.88	1811.57
418.07	1734.34
418.26	1785.83
418.45	1849.02
418.64	1877.11
418.83	1954.35
419.02	1781.15
419.21	1771.79
419.39	1900.52
419.58	1891.15
419.77	1713.27
419.96	1865.41
420.15	1926.26
420.34	1905.20
420.53	1928.60
420.72	1914.56
420.91	1947.33
421.10	1914.56
421.29	1970.73
421.48	1928.60
421.67	2015.20
421.86	2010.52
422.05	2062.01
422.24	2015.20
422.43	1858.39
422.61	1909.88
422.80	2017.54
422.99	1977.75
423.18	2097.12
423.37	2111.16
423.56	2052.65
423.75	2101.80
423.94	2003.50
424.13	1935.62
424.32	2017.54
424.50	2071.37
424.69	2054.99
424.88	2097.12
425.07	1963.71
425.26	2015.20
425.45	2106.48
425.64	2066.69
425.83	2127.55
426.01	2047.97
426.20	2167.34
426.39	2115.84
426.58	2129.89
426.77	2176.70
426.96	2253.94
427.15	2139.25
427.33	2174.36
427.52	2132.23
427.71	2237.55
427.90	2176.70
428.09	2176.70
428.28	2237.55
428.46	2293.72
428.65	2249.25
428.84	2246.91
429.03	2282.02
429.22	2167.34
429.40	2361.60
429.59	2296.07
429.78	2209.47
429.97	2160.31
430.16	2438.84
430.34	2394.37
430.53	2452.88
430.72	2406.07
430.91	2256.28
431.10	2401.39
431.28	2422.45
431.47	2422.45
431.66	2595.65
431.85	2352.24
432.03	2499.69
432.22	2586.29
432.41	2415.43
432.60	2441.18
432.79	2499.69
432.97	2377.98
433.16	2579.27
433.35	2513.74
433.54	2597.99
433.72	2541.82
433.91	2607.36
434.10	2499.69
434.28	2431.82
434.47	2525.44
434.66	2602.68
434.85	2581.61
435.03	2583.95
435.22	2593.31
435.41	2656.51
435.59	2759.49
435.78	2703.32
435.97	2766.51
436.16	2764.17
436.34	2722.04
436.53	2773.53
436.72	2832.05
436.90	2799.28
437.09	2743.11
437.28	2759.49
437.46	2759.49
437.65	2682.25
437.84	2857.79
438.02	2822.69
438.21	2874.18
438.40	2785.24
438.58	2855.45
438.77	3033.33
438.96	2855.45
439.14	2963.12
439.33	3052.06
439.52	2993.55
439.70	3047.38
439.89	3012.27
440.08	3173.77
440.26	3124.62
440.45	3143.34
440.63	3126.96
440.82	3197.17
441.01	3243.98
441.19	3267.39
441.38	3332.92
441.57	3213.56
441.75	3267.39
441.94	3283.77
442.12	3314.20
442.31	3456.97
442.50	3332.92
442.68	3475.70
442.87	3398.46
443.05	3393.78
443.24	3433.57
443.43	3524.85
443.61	3492.08
443.80	3583.36
443.98	3384.41
444.17	3349.31
444.35	3461.65
444.54	3419.52
444.73	3421.86
444.91	3496.76
445.10	3536.55
445.28	3365.69
445.47	3344.63
445.65	3487.40
445.84	3487.40
446.02	3604.42
446.21	3550.59
446.39	3449.95
446.58	3609.11
446.77	3639.53
446.95	3524.85
447.14	3625.49
447.32	3618.47
447.51	3597.40
447.69	3545.91
447.88	3574.00
448.06	3562.30
448.25	3672.30
448.43	3599.74
448.62	3520.17
448.80	3566.98
448.99	3637.19
449.17	3651.24
449.36	3721.45
449.54	3681.66
449.73	3796.35
449.91	3803.37
450.10	3730.81
450.28	3852.52
450.46	3822.09
450.65	3747.20
450.83	3796.35
451.02	3857.20
451.20	3840.82
451.39	3850.18
451.57	3779.97
451.76	3782.31
451.94	3943.80
452.13	3934.44
452.31	3985.93
452.49	3829.12
452.68	3927.42
452.86	3885.29
453.05	3999.98
453.23	3995.29
453.42	3904.01
453.60	3990.61
453.78	4072.53
453.97	4021.04
454.15	4114.66
454.34	4002.32
454.52	4014.02
454.70	4126.36
454.89	4084.23
455.07	4088.92
455.26	4198.92
455.44	4341.69
455.62	4145.09
455.81	4201.26
455.99	4210.62
456.17	4280.84
456.36	4133.39
456.54	4341.69
456.73	4292.54
456.91	4510.21
457.09	4360.42
457.28	4447.02
457.46	4430.63
457.64	4416.59
457.83	4521.92
458.01	4554.68
458.19	4465.74
458.38	4491.49
458.56	4627.24
458.74	4674.05
458.93	4430.63
459.11	4552.34
459.29	4655.33
459.48	4444.68
459.66	4634.26
459.84	4617.88
460.03	4636.60
460.21	4629.58
460.39	4545.32
460.57	4690.43
460.76	4830.87
460.94	4636.60
461.12	4713.84
461.31	4784.06
461.49	4720.86
461.67	4594.47
461.85	4858.95
462.04	4889.38
462.22	5109.39
462.40	4854.27
462.59	5088.32
462.77	4725.54
462.95	4870.65
463.13	4880.02
463.32	4997.04
463.50	4844.91
463.68	4882.36
463.86	4968.96
464.05	5036.83
464.23	4952.57
464.41	5093.01
464.59	5144.50
464.78	5174.92
464.96	4919.81
465.14	4983.00
465.32	5130.45
465.50	5050.88
465.69	5277.91
465.87	4968.96
466.05	4980.66
466.23	5083.64
466.41	5020.45
466.60	5376.21
466.78	5217.05
466.96	5275.57
467.14	5146.84
467.32	5029.81
467.51	5444.09
467.69	5177.26
467.87	5336.42
468.05	5394.93
468.23	5193.65
468.41	5238.12
468.60	5479.19
468.78	5369.19
468.96	5373.87
469.14	5313.02
469.32	5427.70
469.50	5320.04
469.69	5446.43
469.87	5528.35
470.05	5577.50
470.23	5486.22
470.41	5586.86
470.59	5624.31
470.77	5671.12
470.95	5636.01
471.14	5823.25
471.32	5474.51
471.50	5589.20
471.68	5811.55
471.86	5870.06
472.04	5760.06
472.22	5874.74
472.40	5797.51
472.58	6012.84
472.77	5788.14
472.95	5980.07
473.13	6181.35
473.31	5907.51
473.49	6050.28
473.67	6026.88
473.85	6080.71
474.03	6111.14
474.21	6127.52
474.39	6176.67
474.57	6094.76
474.75	6211.78
474.93	6289.02
475.12	6258.59
475.30	6324.13
475.48	6410.73
475.66	6509.03
475.84	6293.70
476.02	6525.41
476.20	6448.18
476.38	6616.69
476.56	6813.30
476.74	6740.74
476.92	6733.72
477.10	6649.46
477.28	6832.02
477.46	6539.46
477.64	6719.68
477.82	6942.03
478.00	7187.79
478.18	7250.98
478.36	7173.74
478.54	7325.88
478.72	7084.80
478.90	7302.47
479.08	7368.01
479.26	7480.35
479.44	7508.44
479.62	7499.08
479.80	7379.71
479.98	7559.93
480.16	7735.47
480.34	7627.81
480.52	7864.20
480.70	8002.29
480.88	7683.98
481.06	7950.80
481.24	7836.11
481.41	8037.40
481.59	8128.68
481.77	8360.39
481.95	8346.35
482.13	8365.07
482.31	8299.54
482.49	8676.37
482.67	8592.11
482.85	8341.67
483.03	8809.78
483.21	8655.30
483.39	8926.80
483.57	8795.73
483.74	8926.80
483.92	8959.57
484.10	8828.50
484.28	9078.94
484.46	9259.16
484.64	9331.72
484.82	9329.38
485.00	9411.29
485.18	9537.68
485.35	9568.11
485.53	9612.58
485.71	9750.67
485.89	9825.57
486.07	9841.95
486.25	9895.78
486.43	9867.70
486.61	9919.19
486.78	9998.77
486.96	10314.74
487.14	10380.28
487.32	10286.65
487.50	10448.15
487.68	10331.12
487.85	10691.57
488.03	10689.23
488.21	10937.32
488.39	11056.69
488.57	10958.39
488.75	11049.67
488.92	11122.23
489.10	11211.17
489.28	11176.06
489.46	11293.08
489.64	11283.72
489.81	11590.33
489.99	11548.20
490.17	11754.17
490.35	11714.38
490.53	11850.13
490.70	11850.13
490.88	11950.78
491.06	12025.67
491.24	11871.20
491.41	12086.53
491.59	12093.55
491.77	12484.42
491.95	12166.10
492.13	12290.15
492.30	12671.66
492.48	12947.84
492.66	12587.40
492.84	12425.90
493.01	12929.12
493.19	12929.12
493.37	13053.17
493.54	13186.58
493.72	13275.52
493.90	13139.77
494.08	13139.77
494.25	13408.93
494.43	13439.36
494.61	13790.44
494.79	13687.45
494.96	13621.92
495.14	13523.62
495.32	13720.22
495.49	13886.40
495.67	13797.46
495.85	14174.28
496.02	14141.52
496.20	14066.62
496.38	14101.73
496.55	14518.34
496.73	14579.20
496.91	14464.51
497.09	14771.12
497.26	14635.37
497.44	14562.81
497.62	14686.86
497.79	14876.44
497.97	14988.79
498.14	15150.29
498.32	15400.72
498.50	15143.27
498.67	15332.85
498.85	15279.02
499.03	15592.65
499.20	15328.17
499.38	15330.51
499.56	15606.69
499.73	15426.47
499.91	15620.74
500.08	16042.03
500.26	15681.59
500.44	15744.78
500.61	15878.19
500.79	16032.67
500.97	16049.05
501.14	16159.06
501.32	16215.23
501.49	16217.57
501.67	16327.58
501.84	16468.01
502.02	16446.94
502.20	16386.09
502.37	16690.36
502.55	16439.92
502.72	16699.72
502.90	16807.39
503.07	16479.71
503.25	16643.55
503.43	16896.33
503.60	17003.99
503.78	17128.04
503.95	16989.95
504.13	16788.66
504.30	17331.67
504.48	17109.32
504.65	17310.60
504.83	17195.92
505.01	17383.16
505.18	17238.05
505.36	17809.14
505.53	17500.19
505.71	17427.63
505.88	17710.83
506.06	17600.83
506.23	17846.58
506.41	17699.13
506.58	17813.82
506.76	17968.29
506.93	18113.41
507.11	17755.30
507.28	17989.36
507.46	18012.76
507.63	18090.00
507.81	18150.85
507.98	18319.37
508.16	18029.15
508.33	18235.11
508.50	18710.24
508.68	18384.91
508.85	18504.28
509.03	18420.02
509.20	18897.49
509.38	18801.52
509.55	18909.19
509.73	18998.13
509.90	18537.04
510.08	18963.02
510.25	18682.16
510.42	19037.92
510.60	19288.35
510.77	19314.10
510.95	19566.88
511.12	19154.94
511.30	19068.34
511.47	19442.83
511.64	19262.61
511.82	19587.94
511.99	19604.33
512.17	19571.56
512.34	19555.18
512.51	19934.34
512.69	20203.50
512.86	19658.16
513.04	19992.86
513.21	20196.48
513.38	19822.00
513.56	19864.13
513.73	20168.40
513.90	20009.24
514.08	19943.70
514.25	20154.35
514.43	20318.19
514.60	20563.95
514.77	20467.98
514.95	20503.09
515.12	20526.50
515.29	20201.16
515.47	20472.67
515.64	20350.96
515.81	20360.32
515.99	21123.33
516.16	20673.95
516.33	20751.19
516.51	21160.78
516.68	20664.59
516.85	20861.19
517.03	20872.90
517.20	20905.66
517.37	20966.52
517.54	21071.84
517.72	21120.99
517.89	21212.28
518.06	20980.56
518.24	21460.37
518.41	21149.08
518.58	21659.32
518.75	21399.52
518.93	21544.63
519.10	21834.86
519.27	21350.37
519.45	21692.08
519.62	21600.80
519.79	21364.41
519.96	21731.87
520.14	21635.91
520.31	21879.33
520.48	21785.71
520.65	21664.00
520.83	21745.92
521.00	22171.89
521.17	21902.73
521.34	21879.33
521.52	22050.19
521.69	22125.08
521.86	22054.87
522.03	22499.57
522.20	22658.73
522.38	22558.08
522.55	22429.35
522.72	22445.74
522.89	22668.09
523.07	22895.12
523.24	22614.26
523.41	22511.27
523.58	22389.56
523.75	22848.31
523.92	22417.65
524.10	22750.01
524.27	22838.95
524.44	22920.87
524.61	23197.05
524.78	23175.98
524.96	23154.92
525.13	22885.76
525.30	23159.60
525.47	23325.78
525.64	23110.45
525.81	23522.38
525.98	23651.11
526.16	23136.20
526.33	23161.94
526.50	23625.37
526.67	23381.95
526.84	23260.24
527.01	23358.55
527.18	23482.59
527.36	23697.92
527.53	23997.51
527.70	24180.07
527.87	23686.22
528.04	23768.14
528.21	23943.68
528.38	24009.22
528.55	23515.36
528.72	23927.30
528.89	24025.60
529.07	23969.43
529.24	23946.02
529.41	24287.74
529.58	23833.68
529.75	24044.32
529.92	24334.55
530.09	24142.63
530.26	24301.78
530.43	24465.62
530.60	24182.42
530.77	24645.84
530.94	24542.86
531.11	24322.85
531.28	24467.96
531.46	24521.79
531.63	24648.18
531.80	24493.71
531.97	24931.39
532.14	24620.10
532.31	24725.42
532.48	24697.33
532.65	24617.75
532.82	24709.04
532.99	24987.56
533.16	24929.05
533.33	25198.21
533.50	25230.98
533.67	25132.67
533.84	24910.32
534.01	25034.37
534.18	25132.67
534.35	25245.02
534.52	25127.99
534.69	25259.06
534.86	25394.81
535.03	25228.63
535.20	25186.50
535.37	25411.20
535.54	25364.39
535.71	25039.05
535.88	25628.87
536.05	25497.80
536.22	25820.79
536.38	25731.85
536.55	25673.34
536.72	25853.56
536.89	25532.90
537.06	25750.57
537.23	25979.95
537.40	25781.00
537.57	25600.78
537.74	25603.12
537.91	26239.75
538.08	25809.09
538.25	25986.97
538.42	26150.81
538.59	25668.66
538.75	25872.28
538.92	26155.49
539.09	26176.55
539.26	25968.24
539.43	26089.95
539.60	26181.23
539.77	26089.95
539.94	26492.52
540.11	26373.16
540.28	26075.91
540.44	26319.32
540.61	25984.63
540.78	26113.36
540.95	26429.33
541.12	26642.32
541.29	25984.63
541.46	26555.72
541.62	26342.73
541.79	26789.77
541.96	26040.80
542.13	26253.79
542.30	26607.21
542.47	26632.96
542.63	26843.60
542.80	26979.36
542.97	26869.35
543.14	27131.49
543.31	26967.65
543.48	26878.71
543.64	27379.59
543.81	27402.99
543.98	27370.22
544.15	27360.86
544.32	27393.63
544.48	27496.61
544.65	27190.00
544.82	27491.93
544.99	27040.21
545.16	26906.80
545.32	27314.05
545.49	27494.27
545.66	27730.67
545.83	27548.11
546.00	27840.67
546.16	27435.76
546.33	27524.70
546.50	27304.69
546.67	27744.71
546.83	27250.86
547.00	27538.74
547.17	27751.73
547.34	27480.23
547.50	27894.50
547.67	27922.59
547.84	27529.38
548.00	28084.09
548.17	27742.37
548.34	27814.93
548.51	28027.92
548.67	28264.31
548.84	28093.45
549.01	28034.94
549.18	28194.09
549.34	28166.01
549.51	28182.39
549.68	27981.10
549.84	27751.73
550.01	28168.35
550.18	28046.64
550.34	28416.44
550.51	28474.96
550.68	28400.06
550.84	27957.70
551.01	28182.39
551.18	28161.33
551.34	28013.87
551.51	28013.87
551.68	28386.02
551.84	28489.00
552.01	28137.92
552.18	28833.06
552.34	28624.75
552.51	28711.35
552.68	28643.48
552.84	28226.86
553.01	28924.34
553.18	28760.50
553.34	28648.16
553.51	28814.34
553.67	28804.97
553.84	29109.24
554.01	29053.07
554.17	28709.01
554.34	29017.96
554.51	28613.05
554.67	28737.10
554.84	28531.13
555.00	28929.02
555.17	28882.21
555.33	28973.49
555.50	29151.37
555.67	29111.58
555.83	28912.64
556.00	28802.63
556.16	29446.28
556.33	28835.40
556.50	29305.85
556.66	29308.19
556.83	29092.86
556.99	29457.98
557.16	29509.47
557.32	29460.32
557.49	29575.01
557.65	29280.10
557.82	28985.19
557.98	28795.61
558.15	29226.27
558.32	29647.57
558.48	29191.16
558.65	29532.88
558.81	29230.95
558.98	29376.06
559.14	29596.07
559.31	29628.84
559.47	29427.56
559.64	29179.46
559.80	29713.10
559.97	30015.03
560.13	29577.35
560.30	29408.83
560.46	29834.81
560.63	29411.17
560.79	29560.97
560.96	29806.72
561.12	29233.29
561.29	29890.98
561.45	29633.52
561.61	29780.98
561.78	29708.42
561.94	29844.17
562.11	29558.63
562.27	29806.72
562.44	29888.64
562.60	29544.58
562.77	29607.78
562.93	29617.14
563.10	29912.05
563.26	29708.42
563.42	30361.43
563.59	29764.59
563.75	30026.73
563.92	29900.34
564.08	29687.36
564.24	29598.41
564.41	30031.41
564.57	29804.38
564.74	30075.88
564.90	30485.48
565.07	30192.91
565.23	29940.13
565.39	29961.20
565.56	30148.44
565.72	30106.31
565.88	29982.26
566.05	30125.04
566.21	30323.98
566.38	30132.06
566.54	29893.32
566.70	30319.30
566.87	30579.10
567.03	30277.17
567.19	30263.13
567.36	30150.78
567.52	30094.61
567.68	30328.66
567.85	29975.24
568.01	30064.18
568.17	30333.34
568.34	30146.10
568.50	30466.75
568.66	30260.79
568.83	30508.88
568.99	30120.35
569.15	30291.21
569.32	30101.63
569.48	29893.32
569.64	30536.97
569.81	30316.96
569.97	29996.31
570.13	30508.88
570.30	30251.42
570.46	30429.30
570.62	30621.23
570.78	30527.61
570.95	30422.28
571.11	30546.33
571.27	30384.83
571.43	29944.81
571.60	30527.61
571.76	30345.05
571.92	30792.09
572.09	30164.82
572.25	30443.35
572.41	30232.70
572.57	30738.26
572.74	30752.30
572.90	30043.12
573.06	30529.95
573.22	30649.32
573.38	30373.13
573.55	30047.80
573.71	30665.70
573.87	30639.95
574.03	30810.81
574.20	30632.93
574.36	30417.60
574.52	30960.61
574.68	30429.30
574.84	30249.08
575.01	30326.32
575.17	30672.72
575.33	30295.89
575.49	30611.87
575.65	30562.72
575.82	30590.80
575.98	30572.08
576.14	31019.12
576.30	30583.78
576.46	30686.76
576.62	30321.64
576.79	30368.45
576.95	30429.30
577.11	30656.34
577.27	30939.54
577.43	30572.08
577.59	30560.37
577.75	30717.19
577.92	30410.58
578.08	30782.73
578.24	30352.07
578.40	30721.87
578.56	30787.41
578.72	30939.54
578.88	31047.21
579.04	30984.01
579.21	30656.34
579.37	30848.26
579.53	31194.66
579.69	30501.86
579.85	30768.68
580.01	30663.36
580.17	30848.26
580.33	30998.06
580.49	30869.33
580.65	30799.11
580.82	30951.24
580.98	30546.33
581.14	30951.24
581.30	30862.30
581.46	30707.83
581.62	30466.75
581.78	30656.34
581.94	31278.92
582.10	30410.58
582.26	30948.90
582.42	30471.43
582.58	30483.14
582.74	30822.51
582.90	31087.00
583.06	31124.44
583.22	30831.88
583.38	30803.79
583.54	31019.12
583.70	30476.12
583.86	31044.87
584.02	30700.81
584.18	31087.00
584.34	30969.97
584.50	31138.49
584.66	30888.05
584.82	30471.43
584.98	30883.37
585.14	30792.09
585.30	30780.39
585.46	30728.89
585.62	30689.10
585.78	31051.89
585.94	30939.54
586.10	30993.37
586.26	31257.85
586.42	31143.17
586.58	31030.82
586.74	30836.56
586.90	30874.01
587.06	30668.04
587.22	30756.98
587.38	30815.49
587.54	31063.59
587.70	30923.16
587.86	31035.50
588.02	31276.58
588.18	31218.07
588.34	30995.71
588.49	30909.11
588.65	30948.90
588.81	30710.17
588.97	31264.88
589.13	30836.56
589.29	31016.78
589.45	31215.72
589.61	30986.35
589.77	31213.38
589.93	31234.45
590.08	31527.02
590.24	31208.70
590.40	31454.46
590.56	31524.68
590.72	31372.54
590.88	30998.06
591.04	31189.98
591.20	31665.11
591.35	31601.91
591.51	31480.21
591.67	31021.46
591.83	31702.56
591.99	31414.67
