SpectraSuite Data File
++++++++++++++++++++++++++++++++++++
Date: Fri Oct 18 13:58:35 GMT-05:00 2013
User: bianchi
Dark Spectrum Present: No
Reference Spectrum Present: No
Number of Sampled Component Spectra: 1
Spectrometers: USB2+H05261
Integration Time (usec): 50000 (USB2+H05261)
Spectra Averaged: 1 (USB2+H05261)
Boxcar Smoothing: 0 (USB2+H05261)
Correct for Electrical Dark: No (USB2+H05261)
Strobe/Lamp Enabled: No (USB2+H05261)
Correct for Detector Non-linearity: No (USB2+H05261)
Correct for Stray Light: No (USB2+H05261)
Number of Pixels in Processed Spectrum: 2048
>>>>>Begin Processed Spectral Data<<<<<
365.73	0.00
365.92	0.00
366.12	0.00
366.32	0.00
366.52	0.00
366.72	0.00
366.91	0.00
367.11	0.00
367.31	0.00
367.51	0.00
367.70	0.00
367.90	0.00
368.10	0.00
368.30	0.00
368.49	0.00
368.69	0.00
368.89	0.00
369.09	0.00
369.28	0.00
369.48	0.00
369.68	0.00
369.87	0.00
370.07	0.00
370.27	0.00
370.47	0.00
370.66	81.92
370.86	46.81
371.06	126.39
371.25	163.84
371.45	79.58
371.65	105.32
371.84	245.76
372.04	194.26
372.24	163.84
372.44	131.07
372.63	250.44
372.83	208.31
373.03	135.75
373.22	271.50
373.42	208.31
373.62	114.69
373.81	222.35
374.01	264.48
374.21	229.37
374.40	276.18
374.60	306.61
374.79	231.71
374.99	318.31
375.19	264.48
375.38	273.84
375.58	229.37
375.78	294.91
375.97	283.20
376.17	315.97
376.37	124.05
376.56	346.40
376.76	205.97
376.95	262.14
377.15	231.71
377.35	283.20
377.54	276.18
377.74	308.95
377.93	255.12
378.13	227.03
378.33	229.37
378.52	308.95
378.72	278.52
378.91	322.99
379.11	243.42
379.31	259.80
379.50	280.86
379.70	273.84
379.89	269.16
380.09	304.27
380.28	283.20
380.48	327.68
380.68	283.20
380.87	280.86
381.07	337.04
381.26	351.08
381.46	344.06
381.65	339.38
381.85	407.25
382.04	313.63
382.24	276.18
382.43	294.91
382.63	283.20
382.83	325.33
383.02	400.23
383.22	386.19
383.41	372.15
383.61	325.33
383.80	489.17
384.00	355.76
384.19	346.40
384.39	346.40
384.58	395.55
384.78	334.70
384.97	313.63
385.17	416.62
385.36	362.78
385.56	330.02
385.75	397.89
385.95	390.87
386.14	365.12
386.34	374.49
386.53	440.02
386.72	416.62
386.92	451.72
387.11	519.60
387.31	437.68
387.50	416.62
387.70	454.06
387.89	416.62
388.09	407.25
388.28	533.64
388.48	472.79
388.67	414.27
388.86	535.98
389.06	493.85
389.25	425.98
389.45	491.51
389.64	451.72
389.84	505.56
390.03	463.43
390.22	505.56
390.42	418.96
390.61	517.26
390.81	416.62
391.00	498.53
391.19	535.98
391.39	472.79
391.58	507.90
391.78	477.47
391.97	512.58
392.16	559.39
392.36	528.96
392.55	489.17
392.75	559.39
392.94	561.73
393.13	543.00
393.33	543.00
393.52	528.96
393.71	540.66
393.91	608.54
394.10	489.17
394.29	610.88
394.49	521.94
394.68	505.56
394.88	486.83
395.07	650.67
395.26	653.01
395.46	631.94
395.65	613.22
395.84	589.82
396.04	699.82
396.23	650.67
396.42	554.71
396.62	622.58
396.81	653.01
397.00	664.71
397.19	620.24
397.39	634.29
397.58	669.39
397.77	711.52
397.97	634.29
398.16	674.07
398.35	720.88
398.55	765.36
398.74	671.73
398.93	709.18
399.12	716.20
399.32	737.27
399.51	739.61
399.70	772.38
399.90	730.25
400.09	711.52
400.28	779.40
400.47	809.83
400.67	805.14
400.86	711.52
401.05	826.21
401.24	774.72
401.44	772.38
401.63	812.17
401.82	786.42
402.01	919.83
402.21	873.02
402.40	777.06
402.59	737.27
402.78	807.48
402.97	875.36
403.17	844.93
403.36	889.40
403.55	819.19
403.74	947.92
403.93	851.96
404.13	954.94
404.32	922.17
404.51	880.04
404.70	830.89
404.89	851.96
405.09	936.21
405.28	997.07
405.47	968.98
405.66	945.58
405.85	844.93
406.05	945.58
406.24	1064.94
406.43	952.60
406.62	945.58
406.81	1083.67
407.00	992.39
407.20	985.37
407.39	1062.60
407.58	959.62
407.77	1032.18
407.96	1097.71
408.15	1100.05
408.34	1050.90
408.54	1118.78
408.73	1022.81
408.92	1057.92
409.11	1184.31
409.30	1149.20
409.49	1050.90
409.68	1181.97
409.87	1125.80
410.07	1139.84
410.26	1184.31
410.45	1160.91
410.64	1207.72
410.83	1235.80
411.02	1240.48
411.21	1275.59
411.40	1247.51
411.59	1252.19
411.78	1282.61
411.98	1277.93
412.17	1172.61
412.36	1310.70
412.55	1254.53
412.74	1296.66
412.93	1329.42
413.12	1352.83
413.31	1359.85
413.50	1378.58
413.69	1357.51
413.88	1460.49
414.07	1418.36
414.26	1451.13
414.45	1446.45
414.64	1479.22
414.83	1563.48
415.02	1474.54
415.22	1425.39
415.41	1526.03
415.60	1554.12
415.79	1568.16
415.98	1673.48
416.17	1579.86
416.36	1554.12
416.55	1568.16
416.74	1680.50
416.93	1664.12
417.12	1629.01
417.31	1633.69
417.50	1739.02
417.69	1720.29
417.88	1743.70
418.07	1844.34
418.26	1703.91
418.45	1701.57
418.64	1673.48
418.83	1827.96
419.02	1898.17
419.21	1778.81
419.39	1811.57
419.58	1881.79
419.77	1834.98
419.96	1961.37
420.15	1935.62
420.34	1881.79
420.53	1846.68
420.72	1874.77
420.91	1998.82
421.10	1928.60
421.29	1952.01
421.48	1956.69
421.67	1860.73
421.86	2026.90
422.05	1916.90
422.24	1940.30
422.43	1944.99
422.61	1956.69
422.80	2029.24
422.99	2043.29
423.18	2054.99
423.37	2012.86
423.56	2031.58
423.75	2043.29
423.94	2017.54
424.13	1874.77
424.32	1956.69
424.50	2108.82
424.69	2085.42
424.88	2050.31
425.07	2003.50
425.26	2069.03
425.45	1916.90
425.64	2113.50
425.83	2108.82
426.01	2080.74
426.20	2099.46
426.39	2106.48
426.58	2076.06
426.77	2029.24
426.96	2120.53
427.15	2125.21
427.33	2099.46
427.52	2246.91
427.71	2148.61
427.90	2221.17
428.09	2146.27
428.28	2186.06
428.46	2232.87
428.65	2277.34
428.84	2345.22
429.03	2249.25
429.22	2153.29
429.40	2179.04
429.59	2244.57
429.78	2263.30
429.97	2165.00
430.16	2307.77
430.34	2326.49
430.53	2256.28
430.72	2349.90
430.91	2331.17
431.10	2349.90
431.28	2347.56
431.47	2303.09
431.66	2293.72
431.85	2347.56
432.03	2345.22
432.22	2485.65
432.41	2326.49
432.60	2464.58
432.79	2396.71
432.97	2511.39
433.16	2537.14
433.35	2368.62
433.54	2530.12
433.72	2441.18
433.91	2403.73
434.10	2558.21
434.28	2523.10
434.47	2537.14
434.66	2605.02
434.85	2595.65
435.03	2628.42
435.22	2499.69
435.41	2607.36
435.59	2576.93
435.78	2642.46
435.97	2562.89
436.16	2799.28
436.34	2686.94
436.53	2649.49
436.72	2803.96
436.90	2715.02
437.09	2771.19
437.28	2729.06
437.46	2780.56
437.65	2787.58
437.84	2850.77
438.02	2747.79
438.21	2843.75
438.40	2832.05
438.58	2878.86
438.77	2960.78
438.96	2846.09
439.14	2944.39
439.33	2911.63
439.52	3021.63
439.70	2951.42
439.89	3115.25
440.08	3126.96
440.26	3122.27
440.45	3122.27
440.63	3166.74
440.82	3236.96
441.01	3007.59
441.19	3204.19
441.38	3119.93
441.57	3211.22
441.75	3136.32
441.94	3379.73
442.12	3236.96
442.31	3239.30
442.50	3234.62
442.68	3361.01
442.87	3297.81
443.05	3307.18
443.24	3318.88
443.43	3356.33
443.61	3428.88
443.80	3485.06
443.98	3398.46
444.17	3267.39
444.35	3531.87
444.54	3412.50
444.73	3449.95
444.91	3353.99
445.10	3515.48
445.28	3365.69
445.47	3389.10
445.65	3524.85
445.84	3501.44
446.02	3449.95
446.21	3447.61
446.39	3463.99
446.58	3581.02
446.77	3574.00
446.95	3398.46
447.14	3585.70
447.32	3524.85
447.51	3410.16
447.69	3492.08
447.88	3548.25
448.06	3487.40
448.25	3557.61
448.43	3471.01
448.62	3559.95
448.80	3531.87
448.99	3644.21
449.17	3632.51
449.36	3485.06
449.54	3604.42
449.73	3730.81
449.91	3597.40
450.10	3693.37
450.28	3740.18
450.46	3758.90
450.65	3850.18
450.83	3747.20
451.02	3669.96
451.20	3817.41
451.39	3763.58
451.57	3679.32
451.76	3749.54
451.94	3714.43
452.13	3969.55
452.31	3801.03
452.49	3733.15
452.68	3831.46
452.86	3925.08
453.05	3878.27
453.23	3960.19
453.42	4016.36
453.60	3808.05
453.78	3985.93
453.97	3906.35
454.15	3960.19
454.34	4063.17
454.52	3908.69
454.70	3995.29
454.89	4107.64
455.07	3983.59
455.26	4093.60
455.44	4039.76
455.62	4166.15
455.81	4133.39
455.99	4154.45
456.17	4079.55
456.36	4210.62
456.54	4322.97
456.73	4170.83
456.91	4273.82
457.09	4224.67
457.28	4308.93
457.46	4332.33
457.64	4500.85
457.83	4346.37
458.01	4255.09
458.19	4308.93
458.38	4290.20
458.56	4514.89
458.74	4486.81
458.93	4425.95
459.11	4416.59
459.29	4437.66
459.48	4587.45
459.66	4435.32
459.84	4351.06
460.03	4667.03
460.21	4533.62
460.39	4702.14
460.57	4538.30
460.76	4603.83
460.94	4676.39
461.12	4535.96
461.31	4723.20
461.49	4641.28
461.67	4486.81
461.85	4779.37
462.04	4760.65
462.22	4765.33
462.40	4809.80
462.59	4631.92
462.77	4568.73
462.95	4844.91
463.13	4704.48
463.32	4915.12
463.50	4880.02
463.68	4793.42
463.86	4788.74
464.05	4830.87
464.23	4814.48
464.41	4924.49
464.59	4849.59
464.78	4933.85
464.96	4828.53
465.14	4816.82
465.32	5078.96
465.50	4936.19
465.69	5043.85
465.87	4954.91
466.05	4940.87
466.23	5085.98
466.41	5090.67
466.60	5238.12
466.78	5011.09
466.96	4978.32
467.14	4947.89
467.32	5050.88
467.51	5193.65
467.69	4894.06
467.87	5097.69
468.05	5228.76
468.23	5102.37
468.41	5004.07
468.60	5217.05
468.78	5324.72
468.96	5109.39
469.14	5200.67
469.32	5266.21
469.50	5228.76
469.69	5401.96
469.87	5256.84
470.05	5500.26
470.23	5317.70
470.41	5411.32
470.59	5486.22
470.77	5444.09
470.95	5533.03
471.14	5558.77
471.32	5401.96
471.50	5647.71
471.68	5666.44
471.86	5575.16
472.04	5692.18
472.22	5802.19
472.40	5664.10
472.58	5652.39
472.77	5837.30
472.95	5912.19
473.13	5912.19
473.31	5865.38
473.49	5863.04
473.67	5762.40
473.85	5914.53
474.03	6033.90
474.21	5933.26
474.39	5795.17
474.57	6160.29
474.75	6200.08
474.93	6277.32
475.12	6099.44
475.30	6258.59
475.48	6237.53
475.66	6282.00
475.84	6303.06
476.02	6317.11
476.20	6279.66
476.38	6607.33
476.56	6656.48
476.74	6420.09
476.92	6619.04
477.10	6525.41
477.28	6822.66
477.46	6738.40
477.64	6743.08
477.82	6918.62
478.00	6956.07
478.18	6998.20
478.36	7087.14
478.54	7089.48
478.72	7052.03
478.90	7229.91
479.08	7265.02
479.26	7297.79
479.44	7302.47
479.62	7382.05
479.80	7314.17
479.98	7325.88
480.16	7440.56
480.34	7466.31
480.52	7749.51
480.70	7698.02
480.88	7529.50
481.06	7852.50
481.24	7719.09
481.41	7658.23
481.59	7892.29
481.77	8112.30
481.95	8074.85
482.13	8039.74
482.31	8009.31
482.49	8116.98
482.67	8386.14
482.85	8325.29
483.03	8683.39
483.21	8681.05
483.39	8461.04
483.57	8510.19
483.74	8718.50
483.92	8828.50
484.10	8645.94
484.28	9013.40
484.46	9163.20
484.64	9076.60
484.82	9013.40
485.00	9210.01
485.18	9301.29
485.35	9472.15
485.53	9425.34
485.71	9516.62
485.89	9734.29
486.07	9547.05
486.25	9607.90
486.43	9781.10
486.61	9872.38
486.78	10101.75
486.96	9884.08
487.14	10029.20
487.32	10040.90
487.50	10197.71
487.68	10157.92
487.85	10300.70
488.03	10537.09
488.21	10569.86
488.39	10693.91
488.57	10626.03
488.75	10792.21
488.92	10850.72
489.10	10944.34
489.28	11023.92
489.46	11026.26
489.64	11164.36
489.81	11431.18
489.99	11047.33
490.17	11335.21
490.35	11314.15
490.53	11543.52
490.70	11793.96
490.88	11819.71
491.06	11709.70
491.24	11693.32
491.41	12063.12
491.59	12149.72
491.77	11918.01
491.95	12336.96
492.13	12205.89
492.30	12315.90
492.48	12507.82
492.66	12201.21
492.84	12290.15
493.01	12582.72
493.19	12428.24
493.37	12681.02
493.54	12856.56
493.72	12854.22
493.90	12627.19
494.08	13064.87
494.25	13245.09
494.43	13153.81
494.61	13259.13
494.79	13099.98
494.96	13348.08
495.14	13362.12
495.32	13420.63
495.49	13582.13
495.67	13783.41
495.85	13874.70
496.02	13825.54
496.20	13951.93
496.38	13867.67
496.55	13996.40
496.73	13942.57
496.91	14120.45
497.09	14707.93
497.26	14544.09
497.44	14118.11
497.62	14436.42
497.79	14604.94
497.97	14429.40
498.14	14572.18
498.32	14874.10
498.50	14726.65
498.67	15173.69
498.85	14871.76
499.03	15033.26
499.20	15110.50
499.38	15274.34
499.56	15068.37
499.73	15344.55
499.91	15321.15
500.08	15470.94
500.26	15220.50
500.44	15637.12
500.61	15475.62
500.79	15477.96
500.97	15585.63
501.14	15983.52
501.32	15859.47
501.49	15646.48
501.67	16070.12
501.84	16074.80
502.02	16042.03
502.20	16128.63
502.37	16283.11
502.55	16119.27
502.72	16369.71
502.90	16121.61
503.07	16219.91
503.25	16423.54
503.43	16119.27
503.60	16688.02
503.78	16439.92
503.95	16575.67
504.13	16610.78
504.30	16828.45
504.48	16922.07
504.65	16809.73
504.83	16718.45
505.01	17181.87
505.18	17256.77
505.36	17310.60
505.53	16973.56
505.71	17116.34
505.88	17219.32
506.06	17200.60
506.23	17238.05
506.41	17338.69
506.58	17947.23
506.76	17465.08
506.93	17724.88
507.11	17514.23
507.28	17717.86
507.46	17380.82
507.63	17923.82
507.81	17982.34
507.98	17717.86
508.16	17806.80
508.33	17968.29
508.50	17872.33
508.68	18207.03
508.85	18022.12
509.03	18239.79
509.20	18293.63
509.38	18314.69
509.55	18572.15
509.73	18307.67
509.90	18326.39
510.08	18370.86
510.25	18532.36
510.42	18459.81
510.60	18473.85
510.77	18902.17
510.95	18630.66
511.12	18785.14
511.30	19082.39
511.47	19028.56
511.64	19119.84
511.82	19246.23
511.99	18958.34
512.17	19042.60
512.34	19204.10
512.51	19255.59
512.69	19522.41
512.86	19400.70
513.04	19365.59
513.21	19559.86
513.38	19466.24
513.56	19693.27
513.73	19424.11
513.90	19367.93
514.08	19484.96
514.25	19585.60
514.43	19747.10
514.60	19896.89
514.77	19747.10
514.95	19847.74
515.12	19887.53
515.29	20046.69
515.47	19967.11
515.64	20156.69
515.81	20091.16
515.99	20283.08
516.16	20514.80
516.33	20276.06
516.51	20355.64
516.68	20636.50
516.85	20589.69
517.03	20365.00
517.20	21018.01
517.37	20624.80
517.54	20671.61
517.72	20819.07
517.89	20573.31
518.06	20725.44
518.24	20758.21
518.41	20676.29
518.58	20816.72
518.75	20936.09
518.93	21167.80
519.10	21006.31
519.27	21085.89
519.45	20760.55
519.62	20938.43
519.79	21345.69
519.96	21179.51
520.14	21392.50
520.31	21298.88
520.48	21333.98
520.65	21188.87
520.83	21270.79
521.00	21287.17
521.17	21570.38
521.34	21539.95
521.52	21324.62
521.69	21664.00
521.86	21809.11
522.03	21921.46
522.20	21809.11
522.38	21827.84
522.55	21823.16
522.72	22092.32
522.89	22059.55
523.07	22075.93
523.24	22340.41
523.41	22146.15
523.58	22099.34
523.75	22230.41
523.92	21811.45
524.10	22139.13
524.27	22340.41
524.44	22656.39
524.61	22455.10
524.78	22366.16
524.96	22565.10
525.13	22513.61
525.30	22469.14
525.47	22630.64
525.64	22590.85
525.81	23035.55
525.98	22848.31
526.16	22757.03
526.33	22785.12
526.50	22656.39
526.67	22841.29
526.84	22918.53
527.01	22888.10
527.18	23080.02
527.36	23028.53
527.53	23131.51
527.70	23529.41
527.87	23501.32
528.04	23531.75
528.21	23101.09
528.38	23421.74
528.55	23278.97
528.72	23145.56
528.89	23475.57
529.07	23506.00
529.24	23264.92
529.41	23627.71
529.58	23440.47
529.75	23571.54
529.92	23873.46
530.09	23274.29
530.26	23527.06
530.43	24011.56
530.60	23964.75
530.77	23955.38
530.94	23871.12
531.11	24016.24
531.28	23674.52
531.46	23901.55
531.63	23985.81
531.80	24257.31
531.97	23946.02
532.14	24168.37
532.31	24016.24
532.48	24276.04
532.65	24161.35
532.82	24095.82
532.99	24350.93
533.16	24119.22
533.33	24601.37
533.50	24575.62
533.67	24074.75
533.84	24065.39
534.01	24510.09
534.18	24491.37
534.35	24797.98
534.52	24573.28
534.69	24985.22
534.86	24613.07
535.03	24629.46
535.20	24741.80
535.37	24322.85
535.54	25081.18
535.71	24482.00
535.88	25174.80
536.05	25057.78
536.22	25139.69
536.38	24975.86
536.55	25127.99
536.72	25193.53
536.89	25050.75
537.06	24704.35
537.23	24996.92
537.40	25380.77
537.57	24819.04
537.74	25252.04
537.91	25422.90
538.08	25340.98
538.25	25228.63
538.42	25284.81
538.59	25317.57
538.75	25495.46
538.92	25212.25
539.09	25324.60
539.26	25582.06
539.43	25462.69
539.60	25769.30
539.77	25673.34
539.94	25495.46
540.11	25788.02
540.28	25855.90
540.44	25748.23
540.61	25277.79
540.78	25542.27
540.95	25905.05
541.12	25832.49
541.29	25434.60
541.46	25802.07
541.62	25834.83
541.79	25982.29
541.96	25373.75
542.13	25848.88
542.30	25909.73
542.47	26073.57
542.63	26183.57
542.80	26593.17
542.97	26714.87
543.14	26548.70
543.31	26314.64
543.48	26373.16
543.64	26604.87
543.81	26185.91
543.98	26878.71
544.15	26373.16
544.32	26611.89
544.48	26820.20
544.65	26628.27
544.82	26661.04
544.99	26480.82
545.16	26602.53
545.32	26478.48
545.49	26642.32
545.66	27213.41
545.83	26679.77
546.00	27168.94
546.16	27098.72
546.33	26576.78
546.50	26548.70
546.67	27171.28
546.83	26773.39
547.00	26801.47
547.17	26616.57
547.34	27033.19
547.50	27503.64
547.67	27339.80
547.84	27491.93
548.00	26965.31
548.17	27407.67
548.34	27166.60
548.51	27278.94
548.67	27218.09
548.84	27538.74
549.01	27480.23
549.18	27281.28
549.34	26890.41
549.51	27442.78
549.68	27384.27
549.84	27159.58
550.01	27740.03
550.18	27042.55
550.34	27793.86
550.51	27594.92
550.68	27997.49
550.84	27473.21
551.01	27529.38
551.18	27592.58
551.34	27463.85
551.51	27639.39
551.68	27880.46
551.84	27555.13
552.01	27644.07
552.18	27819.61
552.34	28072.39
552.51	27974.08
552.68	27529.38
552.84	27763.43
553.01	28084.09
553.18	27821.95
553.34	27688.54
553.51	28051.32
553.67	28070.04
553.84	27962.38
554.01	28095.79
554.17	28034.94
554.34	28203.46
554.51	28285.37
554.67	28086.43
554.84	28311.12
555.00	28472.62
555.17	28011.53
555.33	28250.27
555.50	27922.59
555.67	28386.02
555.83	28056.00
556.00	28430.49
556.16	28379.00
556.33	28166.01
556.50	28158.99
556.66	28364.95
556.83	28341.55
556.99	28545.17
557.16	28732.42
557.32	28751.14
557.49	28690.29
557.65	28203.46
557.82	28645.82
557.98	28451.55
558.15	28945.41
558.32	28451.55
558.48	28563.90
558.65	28615.39
558.81	28652.84
558.98	28615.39
559.14	28528.79
559.31	28931.36
559.47	28772.21
559.64	28811.99
559.80	29017.96
559.97	28753.48
560.13	28933.70
560.30	28811.99
560.46	29015.62
560.63	28858.81
560.79	29111.58
560.96	28959.45
561.12	29214.57
561.29	28945.41
561.45	29078.82
561.61	29523.52
561.78	28903.28
561.94	28849.44
562.11	28865.83
562.27	29282.44
562.44	29233.29
562.60	29036.69
562.77	29308.19
562.93	28917.32
563.10	29074.13
563.26	29228.61
563.42	29535.22
563.59	29340.96
563.75	29076.48
563.92	29390.11
564.08	29060.09
564.24	29095.20
564.41	28961.79
564.57	29289.46
564.74	29179.46
564.90	29270.74
565.07	29244.99
565.23	29413.51
565.39	29247.33
565.56	29443.94
565.72	29198.18
565.88	29085.84
566.05	28783.91
566.21	29362.02
566.38	29350.32
566.54	29256.70
566.70	29860.55
566.87	29420.53
567.03	29565.65
567.19	29879.28
567.36	29401.81
567.52	29429.90
567.68	29418.19
567.85	29106.90
568.01	30108.65
568.17	29446.28
568.34	29570.33
568.50	29743.53
568.66	29511.81
568.83	29591.39
568.99	29469.69
569.15	29731.83
569.32	29598.41
569.48	29432.24
569.64	29603.10
569.81	29848.85
569.97	29429.90
570.13	29322.23
570.30	29296.49
570.46	29645.23
570.62	29600.76
570.78	29530.54
570.95	29811.40
571.11	29682.67
571.27	29296.49
571.43	29612.46
571.60	29675.65
571.76	29237.97
571.92	29350.32
572.09	29869.92
572.25	29710.76
572.41	29961.20
572.57	29521.18
572.74	29305.85
572.90	29296.49
573.06	29481.39
573.22	29858.21
573.38	29834.81
573.55	29879.28
573.71	29802.04
573.87	29993.97
574.03	29631.18
574.20	29589.05
574.36	29699.06
574.52	29685.01
574.68	29521.18
574.84	29340.96
575.01	29593.73
575.17	29837.15
575.33	29773.95
575.49	29717.78
575.65	29809.06
575.82	29748.21
575.98	29734.17
576.14	30003.33
576.30	29928.43
576.46	29738.85
576.62	29455.64
576.79	29624.16
576.95	29647.57
577.11	29883.96
577.27	29867.58
577.43	30249.08
577.59	29996.31
577.75	29673.31
577.92	29722.46
578.08	29844.17
578.24	29472.03
578.40	30092.27
578.56	30092.27
578.72	30045.46
578.88	29996.31
579.04	30108.65
579.21	30000.99
579.37	29993.97
579.53	29848.85
579.69	30024.39
579.85	30036.09
580.01	29556.28
580.17	29776.30
580.33	29802.04
580.49	30085.25
580.65	29701.40
580.82	30529.95
580.98	29617.14
581.14	30052.48
581.30	30038.44
581.46	29790.34
581.62	29846.51
581.78	29535.22
581.94	29827.79
582.10	29942.47
582.26	30000.99
582.42	29483.73
582.58	30356.75
582.74	30141.42
582.90	29881.62
583.06	30103.97
583.22	30295.89
583.38	29923.75
583.54	29567.99
583.70	29965.88
583.86	30075.88
584.02	29750.55
584.18	30136.74
584.34	29766.93
584.50	30469.09
584.66	30033.75
584.82	30040.78
584.98	29977.58
585.14	29673.31
585.30	29692.04
585.46	29923.75
585.62	29773.95
585.78	30139.08
585.94	29584.37
586.10	30197.59
586.26	30033.75
586.42	30288.87
586.58	30323.98
586.74	29902.68
586.90	30082.91
587.06	30036.09
587.22	30307.60
587.38	29479.05
587.54	29933.11
587.70	30431.65
587.86	29954.18
588.02	30134.40
588.18	30354.41
588.34	29839.49
588.49	30143.76
588.65	30176.53
588.81	30050.14
588.97	29947.15
589.13	30223.34
589.29	29809.06
589.45	30359.09
589.61	30646.97
589.77	30396.54
589.93	30216.32
590.08	30560.37
590.24	30579.10
590.40	30221.00
590.56	30139.08
590.72	29921.41
590.88	29989.28
591.04	30293.55
591.20	30726.55
591.35	30782.73
591.51	30541.65
591.67	30661.02
591.83	30492.50
591.99	30817.83
