SpectraSuite Data File
++++++++++++++++++++++++++++++++++++
Date: Fri Oct 18 13:58:23 GMT-05:00 2013
User: bianchi
Dark Spectrum Present: No
Reference Spectrum Present: No
Number of Sampled Component Spectra: 1
Spectrometers: USB2+H05261
Integration Time (usec): 50000 (USB2+H05261)
Spectra Averaged: 1 (USB2+H05261)
Boxcar Smoothing: 0 (USB2+H05261)
Correct for Electrical Dark: No (USB2+H05261)
Strobe/Lamp Enabled: No (USB2+H05261)
Correct for Detector Non-linearity: No (USB2+H05261)
Correct for Stray Light: No (USB2+H05261)
Number of Pixels in Processed Spectrum: 2048
>>>>>Begin Processed Spectral Data<<<<<
365.73	4.68
365.92	4.68
366.12	4.68
366.32	0.00
366.52	0.00
366.72	0.00
366.91	0.00
367.11	0.00
367.31	0.00
367.51	0.00
367.70	0.00
367.90	0.00
368.10	0.00
368.30	0.00
368.49	0.00
368.69	0.00
368.89	0.00
369.09	0.00
369.28	0.00
369.48	0.00
369.68	0.00
369.87	0.00
370.07	0.00
370.27	0.00
370.47	0.00
370.66	91.28
370.86	194.26
371.06	133.41
371.25	156.82
371.45	102.98
371.65	135.75
371.84	88.94
372.04	37.45
372.24	252.78
372.44	222.35
372.63	215.33
372.83	184.90
373.03	215.33
373.22	212.99
373.42	196.60
373.62	222.35
373.81	227.03
374.01	313.63
374.21	212.99
374.40	241.08
374.60	262.14
374.79	215.33
374.99	269.16
375.19	215.33
375.38	234.05
375.58	273.84
375.78	301.93
375.97	320.65
376.17	346.40
376.37	266.82
376.56	278.52
376.76	264.48
376.95	194.26
377.15	315.97
377.35	262.14
377.54	273.84
377.74	238.73
377.93	304.27
378.13	255.12
378.33	297.25
378.52	257.46
378.72	266.82
378.91	334.70
379.11	259.80
379.31	264.48
379.50	184.90
379.70	276.18
379.89	304.27
380.09	252.78
380.28	285.55
380.48	304.27
380.68	325.33
380.87	229.37
381.07	308.95
381.26	301.93
381.46	311.29
381.65	348.74
381.85	339.38
382.04	348.74
382.24	407.25
382.43	262.14
382.63	430.66
382.83	381.51
383.02	358.10
383.22	379.17
383.41	381.51
383.61	346.40
383.80	433.00
384.00	404.91
384.19	297.25
384.39	332.36
384.58	355.76
384.78	428.32
384.97	315.97
385.17	372.15
385.36	397.89
385.56	435.34
385.75	339.38
385.95	402.57
386.14	461.09
386.34	517.26
386.53	393.21
386.72	325.33
386.92	461.09
387.11	353.42
387.31	404.91
387.50	409.59
387.70	355.76
387.89	456.40
388.09	365.12
388.28	519.60
388.48	491.51
388.67	400.23
388.86	421.30
389.06	449.38
389.25	400.23
389.45	444.70
389.64	463.43
389.84	507.90
390.03	470.45
390.22	463.43
390.42	447.04
390.61	423.64
390.81	566.41
391.00	540.66
391.19	638.97
391.39	507.90
391.58	477.47
391.78	491.51
391.97	531.30
392.16	514.92
392.36	547.69
392.55	524.28
392.75	503.22
392.94	484.49
393.13	484.49
393.33	638.97
393.52	601.52
393.71	601.52
393.91	587.47
394.10	582.79
394.29	578.11
394.49	587.47
394.68	594.50
394.88	608.54
395.07	599.18
395.26	507.90
395.46	606.20
395.65	638.97
395.84	603.86
396.04	638.97
396.23	641.31
396.42	561.73
396.62	688.12
396.81	704.50
397.00	631.94
397.19	760.67
397.39	730.25
397.58	634.29
397.77	580.45
397.97	627.26
398.16	674.07
398.35	599.18
398.55	641.31
398.74	648.33
398.93	809.83
399.12	772.38
399.32	734.93
399.51	683.44
399.70	788.76
399.90	751.31
400.09	753.65
400.28	798.12
400.47	751.31
400.67	774.72
400.86	760.67
401.05	809.83
401.24	737.27
401.44	814.51
401.63	758.33
401.82	821.53
402.01	770.04
402.21	866.00
402.40	772.38
402.59	718.54
402.78	819.19
402.97	826.21
403.17	863.66
403.36	847.27
403.55	870.68
403.74	884.72
403.93	849.61
404.13	896.43
404.32	866.00
404.51	844.93
404.70	983.02
404.89	943.24
405.09	1041.54
405.28	968.98
405.47	947.92
405.66	983.02
405.85	1001.75
406.05	992.39
406.24	971.32
406.43	961.96
406.62	1039.20
406.81	1067.28
407.00	985.37
407.20	1062.60
407.39	1020.47
407.58	964.30
407.77	1034.52
407.96	1118.78
408.15	1097.71
408.34	1118.78
408.54	1036.86
408.73	1034.52
408.92	1055.58
409.11	1130.48
409.30	1210.06
409.49	1118.78
409.68	1156.22
409.87	1252.19
410.07	1170.27
410.26	1226.44
410.45	1289.64
410.64	1235.80
410.83	1200.69
411.02	1158.57
411.21	1205.38
411.40	1224.10
411.59	1420.71
411.78	1238.14
411.98	1256.87
412.17	1207.72
412.36	1221.76
412.55	1294.32
412.74	1392.62
412.93	1418.36
413.12	1385.60
413.31	1401.98
413.50	1399.64
413.69	1411.34
413.88	1359.85
414.07	1479.22
414.26	1427.73
414.45	1511.99
414.64	1385.60
414.83	1458.15
415.02	1540.07
415.22	1537.73
415.41	1638.38
415.60	1647.74
415.79	1554.12
415.98	1626.67
416.17	1598.59
416.36	1575.18
416.55	1575.18
416.74	1659.44
416.93	1645.40
417.12	1659.44
417.31	1673.48
417.50	1610.29
417.69	1753.06
417.88	1732.00
418.07	1764.76
418.26	1795.19
418.45	1795.19
418.64	1741.36
418.83	1722.63
419.02	1778.81
419.21	1811.57
419.39	1802.21
419.58	1802.21
419.77	1741.36
419.96	1830.30
420.15	1877.11
420.34	1914.56
420.53	1912.22
420.72	1916.90
420.91	1895.83
421.10	1888.81
421.29	2012.86
421.48	1834.98
421.67	1930.94
421.86	1977.75
422.05	1959.03
422.24	1919.24
422.43	1970.73
422.61	1921.58
422.80	2026.90
422.99	1994.14
423.18	1952.01
423.37	1973.07
423.56	2001.16
423.75	1923.92
423.94	1998.82
424.13	1865.41
424.32	1940.30
424.50	2050.31
424.69	2169.68
424.88	2040.95
425.07	2005.84
425.26	2043.29
425.45	1949.67
425.64	1984.77
425.83	2073.71
426.01	1989.46
426.20	2005.84
426.39	1975.41
426.58	2087.76
426.77	2150.95
426.96	2122.87
427.15	2190.74
427.33	2165.00
427.52	2097.12
427.71	2087.76
427.90	2101.80
428.09	2193.08
428.28	2136.91
428.46	2246.91
428.65	2216.49
428.84	2211.81
429.03	2289.04
429.22	2132.23
429.40	2228.19
429.59	2319.47
429.78	2141.59
429.97	2143.93
430.16	2263.30
430.34	2340.54
430.53	2310.11
430.72	2361.60
430.91	2473.95
431.10	2319.47
431.28	2335.85
431.47	2347.56
431.66	2490.33
431.85	2370.96
432.03	2310.11
432.22	2466.92
432.41	2436.50
432.60	2455.22
432.79	2485.65
432.97	2527.78
433.16	2434.16
433.35	2518.42
433.54	2520.76
433.72	2487.99
433.91	2483.31
434.10	2586.29
434.28	2422.45
434.47	2459.90
434.66	2612.04
434.85	2506.71
435.03	2497.35
435.22	2455.22
435.41	2813.32
435.59	2626.08
435.78	2649.49
435.97	2689.28
436.16	2663.53
436.34	2665.87
436.53	2675.23
436.72	2782.90
436.90	2640.12
437.09	2754.81
437.28	2698.64
437.46	2642.46
437.65	2651.83
437.84	2864.82
438.02	2700.98
438.21	2738.43
438.40	2705.66
438.58	2878.86
438.77	2991.20
438.96	2754.81
439.14	2857.79
439.33	3047.38
439.52	3063.76
439.70	2899.92
439.89	2991.20
440.08	3012.27
440.26	3019.29
440.45	3136.32
440.63	3119.93
440.82	3126.96
441.01	3124.62
441.19	3229.94
441.38	3213.56
441.57	3253.34
441.75	3265.05
441.94	3169.09
442.12	3234.62
442.31	3260.37
442.50	3328.24
442.68	3328.24
442.87	3393.78
443.05	3286.11
443.24	3353.99
443.43	3368.03
443.61	3276.75
443.80	3431.23
443.98	3229.94
444.17	3375.05
444.35	3590.38
444.54	3480.38
444.73	3328.24
444.91	3398.46
445.10	3353.99
445.28	3389.10
445.47	3407.82
445.65	3365.69
445.84	3382.07
446.02	3529.53
446.21	3403.14
446.39	3499.10
446.58	3499.10
446.77	3396.12
446.95	3351.65
447.14	3363.35
447.32	3639.53
447.51	3421.86
447.69	3536.55
447.88	3508.46
448.06	3588.04
448.25	3550.59
448.43	3576.34
448.62	3660.60
448.80	3531.87
448.99	3695.71
449.17	3574.00
449.36	3581.02
449.54	3604.42
449.73	3641.87
449.91	3730.81
450.10	3658.26
450.28	3726.13
450.46	3625.49
450.65	3826.78
450.83	3861.88
451.02	3747.20
451.20	3843.16
451.39	3810.39
451.57	3801.03
451.76	3859.54
451.94	3779.97
452.13	3754.22
452.31	3845.50
452.49	3868.91
452.68	3904.01
452.86	3904.01
453.05	3871.25
453.23	3934.44
453.42	3950.82
453.60	3889.97
453.78	3819.75
453.97	3964.87
454.15	3962.53
454.34	3990.61
454.52	4046.79
454.70	4114.66
454.89	4091.26
455.07	4180.20
455.26	4067.85
455.44	4014.02
455.62	4229.35
455.81	4140.41
455.99	4168.49
456.17	4107.64
456.36	4154.45
456.54	4208.28
456.73	4203.60
456.91	4294.88
457.09	4222.33
457.28	4290.20
457.46	4086.58
457.64	4337.01
457.83	4332.33
458.01	4334.67
458.19	4498.51
458.38	4325.31
458.56	4423.61
458.74	4479.79
458.93	4372.12
459.11	4472.76
459.29	4428.29
459.48	4440.00
459.66	4365.10
459.84	4447.02
460.03	4620.22
460.21	4599.15
460.39	4594.47
460.57	4440.00
460.76	4688.09
460.94	4610.86
461.12	4596.81
461.31	4503.19
461.49	4592.13
461.67	4531.28
461.85	4655.33
462.04	4561.70
462.22	4779.37
462.40	4863.63
462.59	4882.36
462.77	4720.86
462.95	4784.06
463.13	4784.06
463.32	4774.69
463.50	4957.25
463.68	4816.82
463.86	4891.72
464.05	4772.35
464.23	4840.23
464.41	4865.97
464.59	4826.18
464.78	4880.02
464.96	4978.32
465.14	4938.53
465.32	5027.47
465.50	5109.39
465.69	5027.47
465.87	4961.94
466.05	4915.12
466.23	5088.32
466.41	5039.17
466.60	5207.69
466.78	4968.96
466.96	5043.85
467.14	5043.85
467.32	5142.16
467.51	5104.71
467.69	5165.56
467.87	5205.35
468.05	5085.98
468.23	5132.79
468.41	5146.84
468.60	5303.65
468.78	5336.42
468.96	5174.92
469.14	5380.89
469.32	5486.22
469.50	5118.75
469.69	5261.52
469.87	5441.75
470.05	5252.16
470.23	5327.06
470.41	5338.76
470.59	5584.52
470.77	5500.26
470.95	5472.17
471.14	5526.00
471.32	5453.45
471.50	5444.09
471.68	5682.82
471.86	5397.28
472.04	5692.18
472.22	5696.86
472.40	5617.29
472.58	5640.69
472.77	5628.99
472.95	5870.06
473.13	6033.90
473.31	5708.57
473.49	5816.23
473.67	5827.93
473.85	5902.83
474.03	5937.94
474.21	5902.83
474.39	6052.63
474.57	6085.39
474.75	6209.44
474.93	6328.81
475.12	6099.44
475.30	6218.80
475.48	6104.12
475.66	6174.33
475.84	6232.85
476.02	6340.51
476.20	6368.60
476.38	6382.64
476.56	6342.85
476.74	6513.71
476.92	6455.20
477.10	6670.53
477.28	6616.69
477.46	6651.80
477.64	6759.47
477.82	6787.55
478.00	6846.07
478.18	6883.52
478.36	6970.12
478.54	6984.16
478.72	7218.21
478.90	7169.06
479.08	7140.97
479.26	7126.93
479.44	7152.68
479.62	7253.32
479.80	7250.98
479.98	7410.14
480.16	7618.44
480.34	7559.93
480.52	7683.98
480.70	7805.69
480.88	7470.99
481.06	7831.43
481.24	7672.28
481.41	7815.05
481.59	7962.50
481.77	8142.72
481.95	8060.80
482.13	8278.47
482.31	8100.59
482.49	8072.51
482.67	8091.23
482.85	8484.44
483.03	8552.32
483.21	8582.74
483.39	8404.86
483.57	8482.10
483.74	8601.47
483.92	8718.50
484.10	8594.45
484.28	8854.25
484.46	9029.79
484.64	9050.85
484.82	9020.42
485.00	9238.09
485.18	9380.87
485.35	9362.14
485.53	9427.68
485.71	9439.38
485.89	9373.85
486.07	9565.77
486.25	9579.81
486.43	9605.56
486.61	9734.29
486.78	9778.76
486.96	10052.60
487.14	10052.60
487.32	10277.29
487.50	10237.50
487.68	10120.48
487.85	10319.42
488.03	10480.92
488.21	10518.37
488.39	10560.50
488.57	10785.19
488.75	10696.25
488.92	10719.65
489.10	10832.00
489.28	10960.73
489.46	11089.46
489.64	11073.07
489.81	11438.20
489.99	11391.39
490.17	11262.66
490.35	11496.71
490.53	11595.01
490.70	11463.94
490.88	11454.58
491.06	11735.45
491.24	11714.38
491.41	11840.77
491.59	11964.82
491.77	11815.02
491.95	12142.70
492.13	12095.89
492.30	12215.26
492.48	12250.36
492.66	12226.96
492.84	12343.99
493.01	12334.62
493.19	12540.59
493.37	12737.20
493.54	12795.71
493.72	12933.80
493.90	12596.76
494.08	12975.93
494.25	12996.99
494.43	13090.62
494.61	13486.17
494.79	13198.28
494.96	13535.32
495.14	13408.93
495.32	13408.93
495.49	13757.67
495.67	13589.15
495.85	13804.48
496.02	13638.30
496.20	13886.40
496.38	14043.21
496.55	14033.85
496.73	13968.32
496.91	14113.43
497.09	14143.86
497.26	14155.56
497.44	14396.64
497.62	14347.48
497.79	14569.83
497.97	14284.29
498.14	14670.48
498.32	15101.14
498.50	14696.22
498.67	14785.16
498.85	14963.04
499.03	15110.50
499.20	15026.24
499.38	14899.85
499.56	15201.78
499.73	15215.82
499.91	15424.13
500.08	15697.97
500.26	15339.87
500.44	15496.69
500.61	15573.92
500.79	15714.36
500.97	15693.29
501.14	15864.15
501.32	16018.63
501.49	15831.38
501.67	15484.98
501.84	15829.04
502.02	15960.11
502.20	16030.33
502.37	15950.75
502.55	16252.68
502.72	16280.77
502.90	16294.81
503.07	16093.52
503.25	16257.36
503.43	16367.37
503.60	16257.36
503.78	16521.84
503.95	16648.23
504.13	16760.58
504.30	16362.69
504.48	16673.98
504.65	16741.85
504.83	16926.75
505.01	17076.55
505.18	17118.68
505.36	17022.72
505.53	17174.85
505.71	16542.91
505.88	17170.17
506.06	16980.59
506.23	17071.87
506.41	17364.43
506.58	17703.81
506.76	17085.91
506.93	17617.21
507.11	17415.93
507.28	17448.69
507.46	17701.47
507.63	17703.81
507.81	17884.03
507.98	17619.55
508.16	17930.84
508.33	17841.90
508.50	17921.48
508.68	17888.71
508.85	18143.83
509.03	18157.88
509.20	18298.31
509.38	18207.03
509.55	18438.74
509.73	18504.28
509.90	18274.90
510.08	18398.95
510.25	18684.50
510.42	18689.18
510.60	18745.35
510.77	18625.98
510.95	18579.17
511.12	18892.80
511.30	18803.86
511.47	18700.88
511.64	18878.76
511.82	19075.37
511.99	18988.77
512.17	19105.79
512.34	18995.79
512.51	18941.96
512.69	18998.13
512.86	19239.20
513.04	19538.79
513.21	19463.90
513.38	19236.86
513.56	19555.18
513.73	19442.83
513.90	19508.37
514.08	19576.24
514.25	19648.80
514.43	19800.93
514.60	19730.72
514.77	20081.80
514.95	20072.43
515.12	19784.55
515.29	19768.16
515.47	20100.52
515.64	19964.77
515.81	20060.73
515.99	20329.89
516.16	20250.32
516.33	20318.19
516.51	20149.67
516.68	20505.43
516.85	20350.96
517.03	20465.64
517.20	20512.46
517.37	20449.26
517.54	20765.23
517.72	20453.94
517.89	20823.75
518.06	20793.32
518.24	20482.03
518.41	20568.63
518.58	20762.89
518.75	20702.04
518.93	21062.48
519.10	20741.83
519.27	20987.58
519.45	20718.42
519.62	21060.14
519.79	21235.68
519.96	21025.03
520.14	21191.21
520.31	21174.83
520.48	21493.14
520.65	21401.86
520.83	21266.11
521.00	21846.56
521.17	21273.13
521.34	21645.27
521.52	21490.80
521.69	21687.40
521.86	21544.63
522.03	21736.56
522.20	21708.47
522.38	21766.98
522.55	21563.36
522.72	21696.77
522.89	22078.27
523.07	21970.61
523.24	21949.54
523.41	22129.77
523.58	21846.56
523.75	22373.18
523.92	22047.85
524.10	22164.87
524.27	22277.22
524.44	22132.11
524.61	22738.30
524.78	22593.19
524.96	22450.42
525.13	22471.48
525.30	22647.02
525.47	22848.31
525.64	22981.72
525.81	22614.26
525.98	23091.73
526.16	22794.48
526.33	22895.12
526.50	23005.13
526.67	22513.61
526.84	22789.80
527.01	22909.16
527.18	22991.08
527.36	23222.80
527.53	23119.81
527.70	23206.41
527.87	23089.38
528.04	22806.18
528.21	23388.97
528.38	23300.03
528.55	23325.78
528.72	23150.24
528.89	23442.81
529.07	23676.86
529.24	23192.37
529.41	23531.75
529.58	23597.28
529.75	23550.47
529.92	23496.64
530.09	24020.92
530.26	23396.00
530.43	23843.04
530.60	23253.22
530.77	24034.96
530.94	23901.55
531.11	23576.22
531.28	23864.10
531.46	24027.94
531.63	23882.83
531.80	24191.78
531.97	23777.50
532.14	24219.86
532.31	23960.06
532.48	24217.52
532.65	24058.37
532.82	24203.48
532.99	23943.68
533.16	24374.34
533.33	24400.08
533.50	24582.65
533.67	24877.55
533.84	24388.38
534.01	24540.52
534.18	24381.36
534.35	24376.68
534.52	24276.04
534.69	24893.94
534.86	24739.46
535.03	24467.96
535.20	24823.72
535.37	24411.79
535.54	24545.20
535.71	24638.82
535.88	24797.98
536.05	24727.76
536.22	24940.75
536.38	25167.78
536.55	25001.60
536.72	24725.42
536.89	24865.85
537.06	25118.63
537.23	25071.82
537.40	25017.99
537.57	25142.03
537.74	25160.76
537.91	25530.56
538.08	25179.48
538.25	25268.42
538.42	25544.61
538.59	25488.43
538.75	25315.23
538.92	25362.04
539.09	25539.93
539.26	25301.19
539.43	25315.23
539.60	25706.10
539.77	25434.60
539.94	25465.03
540.11	25584.40
540.28	25469.71
540.44	25682.70
540.61	25706.10
540.78	25439.28
540.95	25458.01
541.12	25195.87
541.29	25752.91
541.46	26204.64
541.62	25591.42
541.79	26071.23
541.96	25465.03
542.13	25696.74
542.30	26012.71
542.47	26214.00
542.63	25993.99
542.80	26059.52
542.97	26181.23
543.14	26520.61
543.31	26132.08
543.48	26132.08
543.64	26632.96
543.81	26459.76
543.98	26082.93
544.15	26757.00
544.32	26499.55
544.48	26604.87
544.65	26366.13
544.82	26302.94
544.99	26567.42
545.16	26600.19
545.32	26403.58
545.49	26682.11
545.66	26902.12
545.83	26895.10
546.00	27016.80
546.16	26670.40
546.33	26359.11
546.50	26726.58
546.67	26904.46
546.83	26527.63
547.00	27030.85
547.17	26892.76
547.34	26937.23
547.50	27115.11
547.67	27496.61
547.84	27089.36
548.00	26614.23
548.17	27592.58
548.34	27353.84
548.51	26937.23
548.67	27122.13
548.84	27243.84
549.01	27257.88
549.18	27035.53
549.34	27204.05
549.51	27164.26
549.68	27585.55
549.84	27407.67
550.01	27461.51
550.18	27534.06
550.34	27630.02
550.51	27597.26
550.68	27770.46
550.84	27288.31
551.01	27936.63
551.18	27360.86
551.34	27213.41
551.51	27412.35
551.68	27929.61
551.84	27513.00
552.01	27793.86
552.18	27541.08
552.34	27704.92
552.51	27903.87
552.68	28123.88
552.84	27798.54
553.01	27828.97
553.18	27810.25
553.34	27896.85
553.51	27955.36
553.67	28224.52
553.84	27662.79
554.01	27929.61
554.17	28100.47
554.34	27775.14
554.51	27943.66
554.67	28173.03
554.84	28044.30
555.00	28077.07
555.17	27938.97
555.33	28383.68
555.50	28371.97
555.67	27810.25
555.83	28121.54
556.00	28212.82
556.16	28453.89
556.33	28084.09
556.50	28535.81
556.66	28091.11
556.83	28030.26
556.99	28811.99
557.16	28669.22
557.32	28552.20
557.49	29008.60
557.65	28343.89
557.82	28650.50
557.98	28086.43
558.15	28236.22
558.32	28629.43
558.48	28552.20
558.65	28697.31
558.81	28591.98
558.98	28542.83
559.14	28659.86
559.31	28716.03
559.47	28091.11
559.64	28652.84
559.80	28582.62
559.97	28367.29
560.13	28819.02
560.30	28599.01
560.46	28636.45
560.63	28713.69
560.79	28886.89
560.96	28816.68
561.12	28388.36
561.29	28542.83
561.45	28725.39
561.61	28924.34
561.78	29024.98
561.94	28823.70
562.11	29057.75
562.27	28826.04
562.44	28938.38
562.60	28793.27
562.77	28996.90
562.93	28804.97
563.10	28751.14
563.26	29156.05
563.42	29289.46
563.59	29125.63
563.75	28989.88
563.92	29130.31
564.08	28732.42
564.24	29369.04
564.41	28891.57
564.57	29027.32
564.74	29174.78
564.90	29212.23
565.07	29170.10
565.23	29167.76
565.39	29034.35
565.56	28912.64
565.72	29359.68
565.88	29099.88
566.05	29039.03
566.21	29200.52
566.38	28938.38
566.54	29184.14
566.70	29411.17
566.87	29504.79
567.03	29249.67
567.19	29633.52
567.36	29558.63
567.52	29436.92
567.68	29149.03
567.85	29383.09
568.01	29425.22
568.17	29457.98
568.34	29460.32
568.50	29413.51
568.66	29347.98
568.83	29773.95
568.99	29088.18
569.15	29598.41
569.32	29275.42
569.48	29106.90
569.64	29537.56
569.81	29621.82
569.97	29383.09
570.13	29699.06
570.30	29326.91
570.46	29495.43
570.62	29249.67
570.78	29273.08
570.95	29167.76
571.11	29532.88
571.27	29881.62
571.43	29596.07
571.60	29284.78
571.76	29385.43
571.92	29914.39
572.09	29544.58
572.25	29687.36
572.41	29593.73
572.57	29436.92
572.74	29670.97
572.90	29347.98
573.06	29633.52
573.22	29312.87
573.38	29937.79
573.55	29876.94
573.71	29703.74
573.87	29858.21
574.03	29799.70
574.20	29750.55
574.36	29378.40
574.52	29284.78
574.68	29628.84
574.84	29759.91
575.01	29589.05
575.17	29727.14
575.33	29575.01
575.49	29614.80
575.65	29670.97
575.82	29729.48
575.98	29706.08
576.14	29855.87
576.30	30068.86
576.46	29703.74
576.62	29366.70
576.79	29699.06
576.95	29692.04
577.11	29511.81
577.27	29816.08
577.43	30099.29
577.59	29720.12
577.75	29837.15
577.92	29687.36
578.08	29315.21
578.24	29806.72
578.40	29961.20
578.56	29788.00
578.72	29933.11
578.88	29930.77
579.04	29926.09
579.21	29465.00
579.37	29750.55
579.53	29497.77
579.69	29703.74
579.85	29589.05
580.01	29853.53
580.17	29631.18
580.33	29743.53
580.49	29724.80
580.65	30185.89
580.82	30094.61
580.98	29685.01
581.14	29977.58
581.30	30054.82
581.46	29961.20
581.62	29640.54
581.78	29909.71
581.94	29914.39
582.10	29769.27
582.26	29926.09
582.42	29944.81
582.58	30008.01
582.74	29790.34
582.90	29909.71
583.06	29858.21
583.22	29954.18
583.38	29937.79
583.54	30216.32
583.70	29923.75
583.86	29773.95
584.02	29708.42
584.18	29935.45
584.34	30026.73
584.50	29893.32
584.66	30080.56
584.82	29766.93
584.98	30183.55
585.14	30162.48
585.30	29703.74
585.46	29757.57
585.62	29603.10
585.78	30265.47
585.94	29996.31
586.10	30480.80
586.26	30054.82
586.42	30033.75
586.58	29928.43
586.74	29914.39
586.90	29656.93
587.06	29626.50
587.22	30045.46
587.38	29935.45
587.54	30005.67
587.70	29989.28
587.86	29596.07
588.02	30167.16
588.18	30272.49
588.34	30260.79
588.49	29858.21
588.65	30022.05
588.81	30103.97
588.97	30125.04
589.13	29998.65
589.29	29811.40
589.45	30216.32
589.61	30359.09
589.77	30419.94
589.93	30422.28
590.08	30504.20
590.24	30232.70
590.40	30698.47
590.56	30532.29
590.72	30354.41
590.88	29968.22
591.04	29790.34
591.20	30188.23
591.35	30426.96
591.51	30635.27
591.67	30202.27
591.83	30590.80
591.99	30387.18
