SpectraSuite Data File
++++++++++++++++++++++++++++++++++++
Date: Fri Oct 18 13:58:27 GMT-05:00 2013
User: bianchi
Dark Spectrum Present: No
Reference Spectrum Present: No
Number of Sampled Component Spectra: 1
Spectrometers: USB2+H05261
Integration Time (usec): 50000 (USB2+H05261)
Spectra Averaged: 1 (USB2+H05261)
Boxcar Smoothing: 0 (USB2+H05261)
Correct for Electrical Dark: No (USB2+H05261)
Strobe/Lamp Enabled: No (USB2+H05261)
Correct for Detector Non-linearity: No (USB2+H05261)
Correct for Stray Light: No (USB2+H05261)
Number of Pixels in Processed Spectrum: 2048
>>>>>Begin Processed Spectral Data<<<<<
365.73	0.00
365.92	0.00
366.12	0.00
366.32	0.00
366.52	0.00
366.72	0.00
366.91	0.00
367.11	0.00
367.31	0.00
367.51	0.00
367.70	0.00
367.90	0.00
368.10	0.00
368.30	0.00
368.49	0.00
368.69	0.00
368.89	0.00
369.09	0.00
369.28	0.00
369.48	0.00
369.68	0.00
369.87	0.00
370.07	0.00
370.27	0.00
370.47	0.00
370.66	91.28
370.86	105.32
371.06	156.82
371.25	147.45
371.45	105.32
371.65	182.56
371.84	187.24
372.04	114.69
372.24	149.79
372.44	140.43
372.63	320.65
372.83	252.78
373.03	215.33
373.22	236.39
373.42	234.05
373.62	231.71
373.81	248.10
374.01	198.95
374.21	227.03
374.40	292.57
374.60	201.29
374.79	224.69
374.99	266.82
375.19	229.37
375.38	290.23
375.58	205.97
375.78	252.78
375.97	266.82
376.17	292.57
376.37	238.73
376.56	220.01
376.76	215.33
376.95	222.35
377.15	276.18
377.35	294.91
377.54	222.35
377.74	269.16
377.93	271.50
378.13	201.29
378.33	210.65
378.52	297.25
378.72	259.80
378.91	276.18
379.11	220.01
379.31	252.78
379.50	187.24
379.70	304.27
379.89	294.91
380.09	315.97
380.28	243.42
380.48	304.27
380.68	208.31
380.87	393.21
381.07	325.33
381.26	374.49
381.46	299.59
381.65	313.63
381.85	351.08
382.04	341.72
382.24	397.89
382.43	372.15
382.63	311.29
382.83	358.10
383.02	393.21
383.22	308.95
383.41	341.72
383.61	418.96
383.80	351.08
384.00	390.87
384.19	358.10
384.39	334.70
384.58	327.68
384.78	339.38
384.97	437.68
385.17	411.93
385.36	390.87
385.56	400.23
385.75	379.17
385.95	400.23
386.14	334.70
386.34	421.30
386.53	353.42
386.72	418.96
386.92	393.21
387.11	454.06
387.31	397.89
387.50	388.53
387.70	486.83
387.89	402.57
388.09	430.66
388.28	416.62
388.48	437.68
388.67	475.13
388.86	465.77
389.06	468.11
389.25	475.13
389.45	456.40
389.64	362.78
389.84	491.51
390.03	465.77
390.22	484.49
390.42	472.79
390.61	547.69
390.81	510.24
391.00	493.85
391.19	484.49
391.39	592.16
391.58	589.82
391.78	430.66
391.97	533.64
392.16	475.13
392.36	587.47
392.55	479.81
392.75	533.64
392.94	610.88
393.13	580.45
393.33	535.98
393.52	585.13
393.71	601.52
393.91	606.20
394.10	535.98
394.29	557.05
394.49	589.82
394.68	629.60
394.88	634.29
395.07	564.07
395.26	603.86
395.46	634.29
395.65	571.09
395.84	690.46
396.04	697.48
396.23	547.69
396.42	627.26
396.62	678.76
396.81	631.94
397.00	589.82
397.19	594.50
397.39	627.26
397.58	638.97
397.77	734.93
397.97	650.67
398.16	664.71
398.35	755.99
398.55	695.14
398.74	702.16
398.93	732.59
399.12	732.59
399.32	709.18
399.51	828.55
399.70	690.46
399.90	734.93
400.09	699.82
400.28	781.74
400.47	784.08
400.67	737.27
400.86	699.82
401.05	772.38
401.24	821.53
401.44	798.12
401.63	826.21
401.82	758.33
402.01	725.57
402.21	819.19
402.40	854.30
402.59	800.46
402.78	858.98
402.97	812.17
403.17	847.27
403.36	894.08
403.55	894.08
403.74	957.28
403.93	898.77
404.13	889.40
404.32	915.15
404.51	917.49
404.70	919.83
404.89	908.13
405.09	990.05
405.28	908.13
405.47	887.06
405.66	950.26
405.85	973.66
406.05	959.62
406.24	1011.11
406.43	966.64
406.62	1046.22
406.81	1083.67
407.00	1088.35
407.20	1041.54
407.39	931.53
407.58	1074.31
407.77	1095.37
407.96	1078.99
408.15	1071.97
408.34	1027.50
408.54	1048.56
408.73	1015.79
408.92	1116.44
409.11	1100.05
409.30	1083.67
409.49	1151.54
409.68	1188.99
409.87	1090.69
410.07	1142.18
410.26	1071.97
410.45	1193.67
410.64	1160.91
410.83	1205.38
411.02	1167.93
411.21	1235.80
411.40	1107.07
411.59	1259.21
411.78	1306.02
411.98	1254.53
412.17	1238.14
412.36	1313.04
412.55	1343.47
412.74	1416.02
412.93	1397.30
413.12	1310.70
413.31	1397.30
413.50	1233.46
413.69	1366.87
413.88	1516.67
414.07	1439.43
414.26	1376.24
414.45	1376.24
414.64	1453.47
414.83	1425.39
415.02	1490.92
415.22	1530.71
415.41	1507.30
415.60	1488.58
415.79	1490.92
415.98	1617.31
416.17	1511.99
416.36	1556.46
416.55	1542.41
416.74	1596.25
416.93	1624.33
417.12	1729.66
417.31	1629.01
417.50	1673.48
417.69	1699.23
417.88	1774.13
418.07	1577.52
418.26	1713.27
418.45	1806.89
418.64	1790.51
418.83	1788.17
419.02	1767.10
419.21	1755.40
419.39	1837.32
419.58	1722.63
419.77	1783.49
419.96	1767.10
420.15	1867.75
420.34	1834.98
420.53	1959.03
420.72	1877.11
420.91	1839.66
421.10	1954.35
421.29	1928.60
421.48	1865.41
421.67	1923.92
421.86	1832.64
422.05	1888.81
422.24	1984.77
422.43	1959.03
422.61	1858.39
422.80	2031.58
422.99	2008.18
423.18	1975.41
423.37	2078.40
423.56	2076.06
423.75	2038.61
423.94	1905.20
424.13	1877.11
424.32	1923.92
424.50	2010.52
424.69	1935.62
424.88	2083.08
425.07	1966.05
425.26	1996.48
425.45	2066.69
425.64	1937.96
425.83	2022.22
426.01	2139.25
426.20	2069.03
426.39	2029.24
426.58	1975.41
426.77	2050.31
426.96	2085.42
427.15	2118.18
427.33	2148.61
427.52	2104.14
427.71	2073.71
427.90	2143.93
428.09	2200.10
428.28	2174.36
428.46	2150.95
428.65	2228.19
428.84	2209.47
429.03	2188.40
429.22	2111.16
429.40	2242.23
429.59	2200.10
429.78	2165.00
429.97	2080.74
430.16	2188.40
430.34	2312.45
430.53	2352.24
430.72	2193.08
430.91	2232.87
431.10	2303.09
431.28	2324.15
431.47	2286.70
431.66	2403.73
431.85	2333.51
432.03	2342.88
432.22	2356.92
432.41	2410.75
432.60	2466.92
432.79	2312.45
432.97	2466.92
433.16	2422.45
433.35	2406.07
433.54	2466.92
433.72	2497.35
433.91	2516.08
434.10	2565.23
434.28	2380.32
434.47	2530.12
434.66	2518.42
434.85	2502.03
435.03	2593.31
435.22	2506.71
435.41	2656.51
435.59	2616.72
435.78	2583.95
435.97	2497.35
436.16	2626.08
436.34	2548.84
436.53	2705.66
436.72	2705.66
436.90	2581.61
437.09	2757.15
437.28	2609.70
437.46	2700.98
437.65	2691.62
437.84	2815.66
438.02	2640.12
438.21	2839.07
438.40	2743.11
438.58	2773.53
438.77	2911.63
438.96	2663.53
439.14	2892.90
439.33	2888.22
439.52	2977.16
439.70	3056.74
439.89	2984.18
440.08	2995.89
440.26	2970.14
440.45	2925.67
440.63	3108.23
440.82	3105.89
441.01	3171.43
441.19	2972.48
441.38	3213.56
441.57	3218.24
441.75	3269.73
441.94	3042.70
442.12	3293.13
442.31	3311.86
442.50	3241.64
442.68	3283.77
442.87	3316.54
443.05	3377.39
443.24	3403.14
443.43	3323.56
443.61	3332.92
443.80	3400.80
443.98	3332.92
444.17	3201.85
444.35	3447.61
444.54	3344.63
444.73	3424.20
444.91	3583.36
445.10	3489.74
445.28	3361.01
445.47	3283.77
445.65	3337.60
445.84	3482.72
446.02	3524.85
446.21	3356.33
446.39	3452.29
446.58	3536.55
446.77	3503.78
446.95	3543.57
447.14	3485.06
447.32	3623.15
447.51	3393.78
447.69	3428.88
447.88	3426.54
448.06	3468.67
448.25	3534.21
448.43	3585.70
448.62	3529.53
448.80	3417.18
448.99	3555.27
449.17	3473.36
449.36	3459.31
449.54	3655.92
449.73	3510.80
449.91	3669.96
450.10	3595.06
450.28	3569.32
450.46	3765.92
450.65	3737.84
450.83	3768.26
451.02	3784.65
451.20	3737.84
451.39	3794.01
451.57	3803.37
451.76	3630.17
451.94	3836.14
452.13	3995.29
452.31	3889.97
452.49	3838.48
452.68	3896.99
452.86	3747.20
453.05	4014.02
453.23	3943.80
453.42	3864.22
453.60	3838.48
453.78	3829.12
453.97	3857.20
454.15	3845.50
454.34	3840.82
454.52	3922.74
454.70	3899.33
454.89	4032.74
455.07	4002.32
455.26	4070.19
455.44	4133.39
455.62	3990.61
455.81	3964.87
455.99	4091.26
456.17	4105.30
456.36	3997.64
456.54	4208.28
456.73	4194.24
456.91	4360.42
457.09	4271.48
457.28	4184.88
457.46	4177.86
457.64	4217.65
457.83	4236.37
458.01	4170.83
458.19	4554.68
458.38	4280.84
458.56	4259.78
458.74	4386.16
458.93	4407.23
459.11	4454.04
459.29	4458.72
459.48	4472.76
459.66	4407.23
459.84	4395.53
460.03	4571.07
460.21	4542.98
460.39	4479.79
460.57	4493.83
460.76	4479.79
460.94	4702.14
461.12	4524.26
461.31	4674.05
461.49	4578.09
461.67	4493.83
461.85	4634.26
462.04	4580.43
462.22	4814.48
462.40	4795.76
462.59	4667.03
462.77	4877.68
462.95	4802.78
463.13	4800.44
463.32	4660.01
463.50	4889.38
463.68	4929.17
463.86	4765.33
464.05	4849.59
464.23	4779.37
464.41	5055.56
464.59	4667.03
464.78	4947.89
464.96	4945.55
465.14	4807.46
465.32	4952.57
465.50	4947.89
465.69	5006.41
465.87	5062.58
466.05	4896.40
466.23	4961.94
466.41	4896.40
466.60	5034.49
466.78	5043.85
466.96	4910.44
467.14	5011.09
467.32	4954.91
467.51	5172.58
467.69	4891.72
467.87	5011.09
468.05	5055.56
468.23	5069.60
468.41	5107.05
468.60	5146.84
468.78	5111.73
468.96	5088.32
469.14	5235.78
469.32	5369.19
469.50	4922.15
469.69	5341.10
469.87	5259.18
470.05	5252.16
470.23	5432.38
470.41	5247.48
470.59	5348.12
470.77	5231.10
470.95	5341.10
471.14	5621.97
471.32	5493.24
471.50	5760.06
471.68	5706.23
471.86	5551.75
472.04	5685.16
472.22	5687.50
472.40	5628.99
472.58	5713.25
472.77	5708.57
472.95	5792.83
473.13	5874.74
473.31	5830.27
473.49	5755.38
473.67	5753.04
473.85	5858.36
474.03	5851.34
474.21	5909.85
474.39	5984.75
474.57	5923.90
474.75	6230.51
474.93	6061.99
475.12	6141.57
475.30	6157.95
475.48	6113.48
475.66	6218.80
475.84	6202.42
476.02	6361.58
476.20	6235.19
476.38	6361.58
476.56	6415.41
476.74	6389.66
476.92	6534.78
477.10	6518.39
477.28	6614.35
477.46	6621.38
477.64	6747.76
477.82	6775.85
478.00	6935.01
478.18	6981.82
478.36	6827.34
478.54	7070.76
478.72	6944.37
478.90	7082.46
479.08	7091.82
479.26	7070.76
479.44	7227.57
479.62	7405.46
479.80	7269.70
479.98	7412.48
480.16	7527.16
480.34	7517.80
480.52	7531.84
480.70	7480.35
480.88	7524.82
481.06	7644.19
481.24	7632.49
481.41	7709.72
481.59	7667.60
481.77	7899.31
481.95	8065.49
482.13	8072.51
482.31	8065.49
482.49	8290.18
482.67	8145.06
482.85	8468.06
483.03	8435.29
483.21	8351.03
483.39	8477.42
483.57	8463.38
483.74	8395.50
483.92	8592.11
484.10	8634.24
484.28	8809.78
484.46	8975.95
484.64	8954.89
484.82	8802.75
485.00	8903.40
485.18	9083.62
485.35	9341.08
485.53	9282.56
485.71	9327.03
485.89	9558.75
486.07	9376.19
486.25	9441.72
486.43	9549.39
486.61	9879.40
486.78	9809.19
486.96	9799.82
487.14	9909.83
487.32	10052.60
487.50	10347.51
487.68	10155.58
487.85	10092.39
488.03	10361.55
488.21	10429.43
488.39	10457.51
488.57	10527.73
488.75	10586.24
488.92	10871.79
489.10	10977.11
489.28	10565.18
489.46	11009.88
489.64	11042.65
489.81	11239.25
489.99	11077.76
490.17	11204.14
490.35	11522.46
490.53	11375.00
490.70	11630.12
490.88	11375.00
491.06	11658.21
491.24	11674.59
491.41	11688.64
491.59	11587.99
491.77	11686.29
491.95	11932.05
492.13	12161.42
492.30	12168.45
492.48	12051.42
492.66	12109.93
492.84	12126.32
493.01	12465.69
493.19	12526.55
493.37	12645.91
493.54	12730.17
493.72	12662.30
493.90	12655.28
494.08	12643.57
494.25	13022.74
494.43	12809.75
494.61	13249.77
494.79	13055.51
494.96	12943.16
495.14	13376.16
495.32	13343.39
495.49	13556.38
495.67	13465.10
495.85	13699.16
496.02	13909.80
496.20	13441.70
496.38	13750.65
496.55	13865.33
496.73	14050.24
496.91	14038.53
497.09	14127.47
497.26	14218.75
497.44	14101.73
497.62	14160.24
497.79	14511.32
497.97	14375.57
498.14	14738.35
498.32	14640.05
498.50	14808.57
498.67	14899.85
498.85	14682.18
499.03	14895.17
499.20	14920.92
499.38	15007.52
499.56	14937.30
499.73	15005.17
499.91	15061.35
500.08	15091.77
500.26	15164.33
500.44	15304.76
500.61	15035.60
500.79	15330.51
500.97	15529.45
501.14	15941.39
501.32	15693.29
501.49	15697.97
501.67	15822.02
501.84	15662.86
502.02	15807.98
502.20	16102.89
502.37	15953.09
502.55	15805.64
502.72	16315.87
502.90	16027.99
503.07	15873.51
503.25	15749.46
503.43	16044.37
503.60	16554.61
503.78	16542.91
503.95	16671.64
504.13	16093.52
504.30	16248.00
504.48	16304.17
504.65	16704.40
504.83	16837.81
505.01	16592.06
505.18	16987.61
505.36	16975.91
505.53	16835.47
505.71	16980.59
505.88	16830.79
506.06	16826.11
506.23	17060.16
506.41	17125.70
506.58	17425.29
506.76	17458.06
506.93	17228.68
507.11	17277.83
507.28	17315.28
507.46	17474.44
507.63	17579.76
507.81	17439.33
507.98	17364.43
508.16	17633.60
508.33	17813.82
508.50	17968.29
508.68	17575.08
508.85	17921.48
509.03	18029.15
509.20	17846.58
509.38	18197.67
509.55	18277.24
509.73	17933.18
509.90	17961.27
510.08	18225.75
510.25	18279.58
510.42	18518.32
510.60	18663.43
510.77	18724.29
510.95	18656.41
511.12	18658.75
511.30	18310.01
511.47	18448.10
511.64	18558.11
511.82	18927.91
511.99	18902.17
512.17	18892.80
512.34	18979.40
512.51	18920.89
512.69	19075.37
512.86	19033.24
513.04	19281.33
513.21	19215.80
513.38	19321.12
513.56	19428.79
513.73	19293.04
513.90	19264.95
514.08	19007.49
514.25	19433.47
514.43	19456.87
514.60	19555.18
514.77	19674.54
514.95	19541.13
515.12	19665.18
515.29	19613.69
515.47	19864.13
515.64	19508.37
515.81	19637.09
515.99	20084.14
516.16	19948.39
516.33	20053.71
516.51	20208.19
516.68	19829.02
516.85	19974.13
517.03	20147.33
517.20	20390.75
517.37	20240.95
517.54	20496.07
517.72	20116.90
517.89	20489.05
518.06	20524.16
518.24	20638.84
518.41	20659.91
518.58	20648.21
518.75	20662.25
518.93	20840.13
519.10	20620.12
519.27	20786.30
519.45	20882.26
519.62	20692.68
519.79	20837.79
519.96	20903.32
520.14	21106.95
520.31	20723.10
520.48	21125.68
520.65	20922.05
520.83	21158.44
521.00	21113.97
521.17	20781.62
521.34	21284.83
521.52	21455.69
521.69	21158.44
521.86	21572.72
522.03	21701.45
522.20	21465.05
522.38	21806.77
522.55	21507.18
522.72	21888.69
522.89	21738.90
523.07	21797.41
523.24	21937.84
523.41	21818.47
523.58	21977.63
523.75	21972.95
523.92	22104.02
524.10	21823.16
524.27	22120.40
524.44	22260.84
524.61	22625.96
524.78	22031.46
524.96	22178.92
525.13	22492.55
525.30	22513.61
525.47	22235.09
525.64	22326.37
525.81	22773.41
525.98	22560.42
526.16	22607.23
526.33	22574.47
526.50	22906.82
526.67	22565.10
526.84	22572.13
527.01	22532.34
527.18	22654.05
527.36	22958.31
527.53	22691.49
527.70	22852.99
527.87	22742.99
528.04	22988.74
528.21	22834.27
528.38	23054.28
528.55	23384.29
528.72	23065.98
528.89	23339.82
529.07	23096.41
529.24	23520.04
529.41	23381.95
529.58	23339.82
529.75	23145.56
529.92	23110.45
530.09	23030.87
530.26	23236.84
530.43	23370.25
530.60	23293.01
530.77	23491.96
530.94	23316.42
531.11	23456.85
531.28	23428.76
531.46	23606.64
531.63	23634.73
531.80	23857.08
531.97	23931.98
532.14	23728.35
532.31	23648.77
532.48	23885.17
532.65	24020.92
532.82	23730.69
532.99	23744.73
533.16	23887.51
533.33	23885.17
533.50	24390.72
533.67	24004.53
533.84	24177.73
534.01	24121.56
534.18	23711.97
534.35	24421.15
534.52	24304.12
534.69	24409.45
534.86	24538.18
535.03	24095.82
535.20	24292.42
535.37	24566.26
535.54	24496.05
535.71	24482.00
535.88	24292.42
536.05	24472.64
536.22	24482.00
536.38	24987.56
536.55	24807.34
536.72	24606.05
536.89	24500.73
537.06	24423.49
537.23	24669.25
537.40	24741.80
537.57	24891.60
537.74	25097.56
537.91	25071.82
538.08	24975.86
538.25	24662.22
538.42	25247.36
538.59	24861.17
538.75	24840.11
538.92	25120.97
539.09	25223.95
539.26	25113.95
539.43	25142.03
539.60	25275.45
539.77	25046.07
539.94	25191.19
540.11	25296.51
540.28	25195.87
540.44	25163.10
540.61	25238.00
540.78	25186.50
540.95	25481.41
541.12	25343.32
541.29	25149.06
541.46	25429.92
541.62	25350.34
541.79	25724.83
541.96	25319.92
542.13	25626.53
542.30	25610.14
542.47	25809.09
542.63	25797.38
542.80	26012.71
542.97	25993.99
543.14	25851.22
543.31	25902.71
543.48	25762.28
543.64	26181.23
543.81	26221.02
543.98	26305.28
544.15	26363.79
544.32	26230.38
544.48	26316.98
544.65	26497.20
544.82	26103.99
544.99	26087.61
545.16	26214.00
545.32	26181.23
545.49	26445.71
545.66	26752.32
545.83	26387.20
546.00	26852.97
546.16	26522.95
546.33	26494.86
546.50	26302.94
546.67	26714.87
546.83	26202.30
547.00	26782.75
547.17	26375.50
547.34	26462.10
547.50	26742.96
547.67	26834.24
547.84	26616.57
548.00	26984.04
548.17	26829.56
548.34	26705.51
548.51	26913.82
548.67	27342.14
548.84	27033.19
549.01	27080.00
549.18	27035.53
549.34	27211.07
549.51	26766.37
549.68	26642.32
549.84	26600.19
550.01	27185.32
550.18	26962.97
550.34	27302.35
550.51	27185.32
550.68	27185.32
550.84	26904.46
551.01	27061.27
551.18	27117.45
551.34	26918.50
551.51	26972.33
551.68	27587.89
551.84	27454.48
552.01	27283.62
552.18	27337.46
552.34	27332.78
552.51	27541.08
552.68	27510.66
552.84	27623.00
553.01	27367.88
553.18	27700.24
553.34	27662.79
553.51	27449.80
553.67	27885.14
553.84	27658.11
554.01	27777.48
554.17	27866.42
554.34	27770.46
554.51	27634.71
554.67	27641.73
554.84	27969.40
555.00	27740.03
555.17	27915.57
555.33	27756.41
555.50	28091.11
555.67	27686.20
555.83	27805.56
556.00	28147.28
556.16	28161.33
556.33	27922.59
556.50	27779.82
556.66	28025.57
556.83	27819.61
556.99	28133.24
557.16	28472.62
557.32	28613.05
557.49	28224.52
557.65	27889.82
557.82	27885.14
557.98	28065.36
558.15	28236.22
558.32	28491.34
558.48	28135.58
558.65	28521.77
558.81	28311.12
558.98	28397.72
559.14	28250.27
559.31	28217.50
559.47	28261.97
559.64	28493.68
559.80	28044.30
559.97	28783.91
560.13	28367.29
560.30	28266.65
560.46	28549.85
560.63	28739.44
560.79	28472.62
560.96	28327.50
561.12	28322.82
561.29	28423.47
561.45	28341.55
561.61	28498.36
561.78	28444.53
561.94	28561.56
562.11	28659.86
562.27	28617.73
562.44	28697.31
562.60	28587.30
562.77	28711.35
562.93	28442.19
563.10	29057.75
563.26	28521.77
563.42	28968.81
563.59	28882.21
563.75	28788.59
563.92	28561.56
564.08	28730.08
564.24	28875.19
564.41	28489.00
564.57	28437.51
564.74	28542.83
564.90	28975.83
565.07	28975.83
565.23	29024.98
565.39	29142.01
565.56	28936.04
565.72	28975.83
565.88	28322.82
566.05	28811.99
566.21	28673.90
566.38	28811.99
566.54	29062.43
566.70	28950.09
566.87	28954.77
567.03	29277.76
567.19	29001.58
567.36	29301.17
567.52	28786.25
567.68	29015.62
567.85	29450.96
568.01	29078.82
568.17	28870.51
568.34	28835.40
568.50	29221.59
568.66	29055.41
568.83	29385.43
568.99	29062.43
569.15	29198.18
569.32	29074.13
569.48	28720.71
569.64	29317.55
569.81	28760.50
569.97	28898.59
570.13	29432.24
570.30	28678.58
570.46	29289.46
570.62	29317.55
570.78	28922.00
570.95	28788.59
571.11	29214.57
571.27	28840.08
571.43	28744.12
571.60	29387.77
571.76	29132.65
571.92	29268.40
572.09	29008.60
572.25	29230.95
572.41	29219.25
572.57	29104.56
572.74	29352.66
572.90	28978.17
573.06	28924.34
573.22	29228.61
573.38	29427.56
573.55	29408.83
573.71	29551.60
573.87	29607.78
574.03	29443.94
574.20	29642.88
574.36	29420.53
574.52	29329.25
574.68	29153.71
574.84	29106.90
575.01	29116.26
575.17	29509.47
575.33	29259.04
575.49	29083.50
575.65	29479.05
575.82	29455.64
575.98	29118.60
576.14	29170.10
576.30	29752.89
576.46	28975.83
576.62	29469.69
576.79	29118.60
576.95	29179.46
577.11	29701.40
577.27	29006.26
577.43	29596.07
577.59	29399.47
577.75	29462.66
577.92	28781.57
578.08	29425.22
578.24	29062.43
578.40	29504.79
578.56	29366.70
578.72	29282.44
578.88	29661.61
579.04	29799.70
579.21	29649.91
579.37	29750.55
579.53	29364.36
579.69	29310.53
579.85	29076.48
580.01	29392.45
580.17	29024.98
580.33	29324.57
580.49	29188.82
580.65	29565.65
580.82	29507.13
580.98	29628.84
581.14	29687.36
581.30	29553.94
581.46	29352.66
581.62	29486.07
581.78	29598.41
581.94	29603.10
582.10	29235.63
582.26	29575.01
582.42	29577.35
582.58	29769.27
582.74	29383.09
582.90	29565.65
583.06	29699.06
583.22	29205.20
583.38	29572.67
583.54	29577.35
583.70	29820.77
583.86	29649.91
584.02	29535.22
584.18	29635.86
584.34	29521.18
584.50	29752.89
584.66	29607.78
584.82	29509.47
584.98	29745.87
585.14	29369.04
585.30	29514.16
585.46	29961.20
585.62	29497.77
585.78	29324.57
585.94	29252.02
586.10	29518.84
586.26	29783.32
586.42	29738.85
586.58	29780.98
586.74	29137.33
586.90	29284.78
587.06	29757.57
587.22	29165.42
587.38	29404.15
587.54	29905.02
587.70	30005.67
587.86	29713.10
588.02	29710.76
588.18	30033.75
588.34	30005.67
588.49	29902.68
588.65	29362.02
588.81	29549.26
588.97	29685.01
589.13	29659.27
589.29	29301.17
589.45	29413.51
589.61	29923.75
589.77	30146.10
589.93	29993.97
590.08	29898.00
590.24	30412.92
590.40	30183.55
590.56	29898.00
590.72	29862.90
590.88	29441.60
591.04	29617.14
591.20	29961.20
591.35	30195.25
591.51	30155.46
591.67	30078.22
591.83	30174.19
591.99	30237.38
