SpectraSuite Data File
++++++++++++++++++++++++++++++++++++
Date: Fri Oct 18 13:58:13 GMT-05:00 2013
User: bianchi
Dark Spectrum Present: No
Reference Spectrum Present: No
Number of Sampled Component Spectra: 1
Spectrometers: USB2+H05261
Integration Time (usec): 50000 (USB2+H05261)
Spectra Averaged: 1 (USB2+H05261)
Boxcar Smoothing: 0 (USB2+H05261)
Correct for Electrical Dark: No (USB2+H05261)
Strobe/Lamp Enabled: No (USB2+H05261)
Correct for Detector Non-linearity: No (USB2+H05261)
Correct for Stray Light: No (USB2+H05261)
Number of Pixels in Processed Spectrum: 2048
>>>>>Begin Processed Spectral Data<<<<<
365.73	0.00
365.92	0.00
366.12	0.00
366.32	0.00
366.52	0.00
366.72	0.00
366.91	0.00
367.11	0.00
367.31	0.00
367.51	0.00
367.70	0.00
367.90	0.00
368.10	0.00
368.30	0.00
368.49	0.00
368.69	0.00
368.89	0.00
369.09	0.00
369.28	0.00
369.48	0.00
369.68	0.00
369.87	0.00
370.07	0.00
370.27	0.00
370.47	0.00
370.66	114.69
370.86	105.32
371.06	117.03
371.25	138.09
371.45	70.22
371.65	212.99
371.84	121.71
372.04	131.07
372.24	184.90
372.44	241.08
372.63	145.11
372.83	224.69
373.03	222.35
373.22	215.33
373.42	173.20
373.62	224.69
373.81	215.33
374.01	245.76
374.21	241.08
374.40	231.71
374.60	299.59
374.79	273.84
374.99	184.90
375.19	245.76
375.38	294.91
375.58	318.31
375.78	285.55
375.97	271.50
376.17	334.70
376.37	304.27
376.56	318.31
376.76	276.18
376.95	220.01
377.15	278.52
377.35	250.44
377.54	306.61
377.74	259.80
377.93	259.80
378.13	259.80
378.33	236.39
378.52	266.82
378.72	259.80
378.91	297.25
379.11	299.59
379.31	297.25
379.50	311.29
379.70	301.93
379.89	348.74
380.09	304.27
380.28	266.82
380.48	292.57
380.68	292.57
380.87	243.42
381.07	208.31
381.26	379.17
381.46	327.68
381.65	358.10
381.85	402.57
382.04	283.20
382.24	318.31
382.43	318.31
382.63	358.10
382.83	318.31
383.02	379.17
383.22	344.06
383.41	337.04
383.61	414.27
383.80	367.46
384.00	454.06
384.19	369.80
384.39	381.51
384.58	374.49
384.78	430.66
384.97	407.25
385.17	318.31
385.36	418.96
385.56	400.23
385.75	451.72
385.95	348.74
386.14	381.51
386.34	404.91
386.53	421.30
386.72	411.93
386.92	332.36
387.11	461.09
387.31	461.09
387.50	449.38
387.70	423.64
387.89	425.98
388.09	437.68
388.28	409.59
388.48	402.57
388.67	447.04
388.86	409.59
389.06	386.19
389.25	498.53
389.45	470.45
389.64	564.07
389.84	456.40
390.03	484.49
390.22	519.60
390.42	496.19
390.61	489.17
390.81	510.24
391.00	470.45
391.19	603.86
391.39	510.24
391.58	540.66
391.78	507.90
391.97	578.11
392.16	578.11
392.36	575.77
392.55	582.79
392.75	596.84
392.94	507.90
393.13	638.97
393.33	486.83
393.52	528.96
393.71	606.20
393.91	535.98
394.10	566.41
394.29	620.24
394.49	575.77
394.68	582.79
394.88	629.60
395.07	655.35
395.26	610.88
395.46	627.26
395.65	664.71
395.84	594.50
396.04	716.20
396.23	713.86
396.42	676.41
396.62	657.69
396.81	608.54
397.00	566.41
397.19	641.31
397.39	671.73
397.58	664.71
397.77	709.18
397.97	716.20
398.16	674.07
398.35	753.65
398.55	741.95
398.74	709.18
398.93	734.93
399.12	758.33
399.32	753.65
399.51	692.80
399.70	805.14
399.90	699.82
400.09	753.65
400.28	791.10
400.47	713.86
400.67	896.43
400.86	821.53
401.05	819.19
401.24	851.96
401.44	961.96
401.63	844.93
401.82	807.48
402.01	903.45
402.21	788.76
402.40	887.06
402.59	866.00
402.78	842.59
402.97	861.32
403.17	856.64
403.36	952.60
403.55	791.10
403.74	919.83
403.93	1001.75
404.13	926.85
404.32	858.98
404.51	950.26
404.70	896.43
404.89	887.06
405.09	1001.75
405.28	903.45
405.47	1006.43
405.66	1062.60
405.85	994.73
406.05	990.05
406.24	1057.92
406.43	1086.01
406.62	1027.50
406.81	1097.71
407.00	1053.24
407.20	964.30
407.39	1041.54
407.58	997.07
407.77	1114.10
407.96	1132.82
408.15	1142.18
408.34	1078.99
408.54	1200.69
408.73	1069.62
408.92	1088.35
409.11	1090.69
409.30	1156.22
409.49	1144.52
409.68	1170.27
409.87	1118.78
410.07	1242.82
410.26	1086.01
410.45	1252.19
410.64	1270.91
410.83	1193.67
411.02	1217.08
411.21	1331.76
411.40	1221.76
411.59	1280.27
411.78	1245.16
411.98	1387.94
412.17	1423.05
412.36	1341.13
412.55	1392.62
412.74	1352.83
412.93	1416.02
413.12	1343.47
413.31	1507.30
413.50	1427.73
413.69	1432.41
413.88	1479.22
414.07	1441.77
414.26	1528.37
414.45	1526.03
414.64	1413.68
414.83	1530.71
415.02	1516.67
415.22	1521.35
415.41	1596.25
415.60	1530.71
415.79	1568.16
415.98	1647.74
416.17	1575.18
416.36	1694.55
416.55	1750.72
416.74	1722.63
416.93	1713.27
417.12	1652.42
417.31	1732.00
417.50	1664.12
417.69	1825.62
417.88	1668.80
418.07	1781.15
418.26	1785.83
418.45	1781.15
418.64	1827.96
418.83	1851.36
419.02	1771.79
419.21	1858.39
419.39	1802.21
419.58	1842.00
419.77	1806.89
419.96	1912.22
420.15	2001.16
420.34	1914.56
420.53	1895.83
420.72	1966.05
420.91	1952.01
421.10	2031.58
421.29	1968.39
421.48	1982.43
421.67	2001.16
421.86	1928.60
422.05	2015.20
422.24	1961.37
422.43	2054.99
422.61	2012.86
422.80	2122.87
422.99	2064.35
423.18	2066.69
423.37	1966.05
423.56	2165.00
423.75	2092.44
423.94	2003.50
424.13	2139.25
424.32	1905.20
424.50	2062.01
424.69	2076.06
424.88	2146.27
425.07	2057.33
425.26	2106.48
425.45	1895.83
425.64	2015.20
425.83	1998.82
426.01	2221.17
426.20	2052.65
426.39	2172.02
426.58	2134.57
426.77	2118.18
426.96	2066.69
427.15	2134.57
427.33	2120.53
427.52	2148.61
427.71	2179.04
427.90	2312.45
428.09	2298.41
428.28	2153.29
428.46	2162.66
428.65	2200.10
428.84	2349.90
429.03	2312.45
429.22	2237.55
429.40	2328.83
429.59	2202.44
429.78	2235.21
429.97	2246.91
430.16	2282.02
430.34	2373.30
430.53	2443.52
430.72	2321.81
430.91	2349.90
431.10	2321.81
431.28	2349.90
431.47	2502.03
431.66	2434.16
431.85	2300.75
432.03	2448.20
432.22	2539.48
432.41	2569.91
432.60	2427.14
432.79	2424.80
432.97	2546.50
433.16	2560.55
433.35	2490.33
433.54	2626.08
433.72	2616.72
433.91	2502.03
434.10	2525.44
434.28	2492.67
434.47	2452.88
434.66	2602.68
434.85	2583.95
435.03	2581.61
435.22	2605.02
435.41	2722.04
435.59	2691.62
435.78	2670.55
435.97	2743.11
436.16	2700.98
436.34	2677.57
436.53	2752.47
436.72	2820.35
436.90	2787.58
437.09	2848.43
437.28	2684.59
437.46	2705.66
437.65	2878.86
437.84	2890.56
438.02	2761.83
438.21	2846.09
438.40	2775.88
438.58	2995.89
438.77	2984.18
438.96	2789.92
439.14	3098.87
439.33	3035.67
439.52	2970.14
439.70	3126.96
439.89	3040.36
440.08	3009.93
440.26	3117.59
440.45	3150.36
440.63	3215.90
440.82	3199.51
441.01	3197.17
441.19	3183.13
441.38	3318.88
441.57	3201.85
441.75	3241.64
441.94	3272.07
442.12	3335.26
442.31	3503.78
442.50	3417.18
442.68	3300.16
442.87	3328.24
443.05	3414.84
443.24	3510.80
443.43	3353.99
443.61	3389.10
443.80	3548.25
443.98	3466.33
444.17	3318.88
444.35	3398.46
444.54	3609.11
444.73	3566.98
444.91	3536.55
445.10	3548.25
445.28	3585.70
445.47	3529.53
445.65	3527.19
445.84	3536.55
446.02	3700.39
446.21	3543.57
446.39	3480.38
446.58	3543.57
446.77	3545.91
446.95	3531.87
447.14	3501.44
447.32	3581.02
447.51	3581.02
447.69	3566.98
447.88	3585.70
448.06	3705.07
448.25	3566.98
448.43	3588.04
448.62	3400.80
448.80	3372.71
448.99	3658.26
449.17	3681.66
449.36	3728.47
449.54	3791.67
449.73	3791.67
449.91	3782.31
450.10	3838.48
450.28	3728.47
450.46	3875.93
450.65	3833.80
450.83	3836.14
451.02	3786.99
451.20	4032.74
451.39	4028.06
451.57	3927.42
451.76	3918.06
451.94	3899.33
452.13	4067.85
452.31	3934.44
452.49	3847.84
452.68	3936.78
452.86	3843.16
453.05	3992.95
453.23	4194.24
453.42	3971.89
453.60	3889.97
453.78	3922.74
453.97	3915.72
454.15	4084.23
454.34	4039.76
454.52	4147.43
454.70	4065.51
454.89	4063.17
455.07	4058.49
455.26	4168.49
455.44	4182.54
455.62	4070.19
455.81	4182.54
455.99	4259.78
456.17	4184.88
456.36	4362.76
456.54	4262.12
456.73	4201.26
456.91	4432.97
457.09	4493.83
457.28	4440.00
457.46	4442.34
457.64	4482.13
457.83	4512.55
458.01	4435.32
458.19	4521.92
458.38	4393.19
458.56	4493.83
458.74	4416.59
458.93	4559.36
459.11	4641.28
459.29	4468.08
459.48	4568.73
459.66	4514.89
459.84	4606.17
460.03	4624.90
460.21	4650.64
460.39	4702.14
460.57	4641.28
460.76	4669.37
460.94	4713.84
461.12	4746.61
461.31	4739.58
461.49	4706.82
461.67	4660.01
461.85	4849.59
462.04	4777.03
462.22	5069.60
462.40	4971.30
462.59	4798.10
462.77	4889.38
462.95	4922.15
463.13	4802.78
463.32	5036.83
463.50	4945.55
463.68	4905.76
463.86	4990.02
464.05	4936.19
464.23	4917.47
464.41	5006.41
464.59	4889.38
464.78	5191.31
464.96	4994.70
465.14	5013.43
465.32	5146.84
465.50	5085.98
465.69	5093.01
465.87	5057.90
466.05	5193.65
466.23	5111.73
466.41	5226.42
466.60	5238.12
466.78	5207.69
466.96	5263.86
467.14	5149.18
467.32	5210.03
467.51	5172.58
467.69	5034.49
467.87	5355.15
468.05	5235.78
468.23	5221.74
468.41	5247.48
468.60	5369.19
468.78	5224.08
468.96	5282.59
469.14	5434.72
469.32	5305.99
469.50	5193.65
469.69	5500.26
469.87	5671.12
470.05	5565.79
470.23	5572.82
470.41	5343.44
470.59	5636.01
470.77	5486.22
470.95	5694.52
471.14	5750.70
471.32	5533.03
471.50	5771.76
471.68	5671.12
471.86	5722.61
472.04	5760.06
472.22	6024.54
472.40	5846.66
472.58	6101.78
472.77	5837.30
472.95	6083.05
473.13	6036.24
473.31	5895.81
473.49	6106.46
473.67	6045.60
473.85	5951.98
474.03	5959.00
474.21	6087.73
474.39	6080.71
474.57	6083.05
474.75	6216.46
474.93	6384.98
475.12	6216.46
475.30	6347.53
475.48	6291.36
475.66	6466.90
475.84	6342.85
476.02	6576.91
476.20	6490.31
476.38	6518.39
476.56	6778.19
476.74	6726.70
476.92	6778.19
477.10	6736.06
477.28	6843.73
477.46	7042.67
477.64	6848.41
477.82	6949.05
478.00	7145.66
478.18	7026.29
478.36	7159.70
478.54	7274.38
478.72	7412.48
478.90	7337.58
479.08	7449.93
479.26	7506.10
479.44	7440.56
479.62	7527.16
479.80	7588.02
479.98	7840.79
480.16	7672.28
480.34	7700.36
480.52	7709.72
480.70	7960.16
480.88	7889.95
481.06	7967.18
481.24	7786.96
481.41	7985.91
481.59	8248.05
481.77	8168.47
481.95	8105.28
482.13	8250.39
482.31	8269.11
482.49	8475.08
482.67	8549.98
482.85	8425.93
483.03	8730.20
483.21	8748.92
483.39	8917.44
483.57	8622.53
483.74	8833.18
483.92	8823.82
484.10	8887.01
484.28	9160.86
484.46	9294.27
484.64	9451.08
484.82	9181.92
485.00	9376.19
485.18	9694.50
485.35	9556.41
485.53	9596.20
485.71	9586.83
485.89	9970.68
486.07	9902.81
486.25	9689.82
486.43	9989.41
486.61	10143.88
486.78	10061.96
486.96	10015.15
487.14	10235.16
487.32	10277.29
487.50	10401.34
487.68	10464.54
487.85	10729.02
488.03	10581.56
488.21	10808.59
488.39	10937.32
488.57	10949.03
488.75	11002.86
488.92	11028.60
489.10	11386.71
489.28	11115.20
489.46	11449.90
489.64	11412.45
489.81	11520.12
489.99	11515.44
490.17	11452.24
490.35	11695.66
490.53	11758.85
490.70	11913.33
490.88	11826.73
491.06	11850.13
491.24	11981.20
491.41	12250.36
491.59	12304.20
491.77	12367.39
491.95	12465.69
492.13	12439.95
492.30	12315.90
492.48	12681.02
492.66	12493.78
492.84	12816.77
493.01	12758.26
493.19	12940.82
493.37	13025.08
493.54	13057.85
493.72	13095.30
493.90	13224.03
494.08	13249.77
494.25	13446.38
494.43	13399.57
494.61	13682.77
494.79	13603.19
494.96	13504.89
495.14	13589.15
495.32	13837.25
495.49	14015.13
495.67	14230.46
495.85	14253.86
496.02	14073.64
496.20	14221.10
496.38	14239.82
496.55	14424.72
496.73	14356.85
496.91	14415.36
497.09	14628.35
497.26	14544.09
497.44	14920.92
497.62	14567.49
497.79	14899.85
497.97	14871.76
498.14	15332.85
498.32	15131.56
498.50	15335.19
498.67	15480.30
498.85	15396.04
499.03	15463.92
499.20	15524.77
499.38	15618.39
499.56	15489.67
499.73	15445.20
499.91	16032.67
500.08	15786.91
500.26	15506.05
500.44	15566.90
500.61	15772.87
500.79	15854.79
500.97	16098.20
501.14	16421.20
501.32	16184.80
501.49	16238.64
501.67	16196.51
501.84	16306.51
502.02	16313.53
502.20	16460.99
502.37	16372.05
502.55	16690.36
502.72	16484.39
502.90	16657.59
503.07	16554.61
503.25	16776.96
503.43	16662.27
503.60	16861.22
503.78	16908.03
503.95	17025.06
504.13	16821.43
504.30	17376.14
504.48	16802.71
504.65	17329.33
504.83	17029.74
505.01	17834.88
505.18	17418.27
505.36	17706.15
505.53	17633.60
505.71	17661.68
505.88	17537.63
506.06	17383.16
506.23	17678.07
506.41	17703.81
506.58	17930.84
506.76	17893.40
506.93	17752.96
507.11	17797.43
507.28	17713.17
507.46	18218.73
507.63	18300.65
507.81	18263.20
507.98	17855.95
508.16	18298.31
508.33	18436.40
508.50	18082.98
508.68	18380.23
508.85	18637.69
509.03	18588.53
509.20	18576.83
509.38	18398.95
509.55	18867.06
509.73	18747.69
509.90	18890.46
510.08	18843.65
510.25	18916.21
510.42	19070.68
510.60	19073.03
510.77	19283.67
510.95	19080.05
511.12	19211.12
511.30	19627.73
511.47	19293.04
511.64	19342.19
511.82	19543.47
511.99	19428.79
512.17	19611.35
512.34	19484.96
512.51	19679.22
512.69	19442.83
512.86	19665.18
513.04	19971.79
513.21	19960.09
513.38	19946.05
513.56	19721.35
513.73	19770.51
513.90	19941.36
514.08	19967.11
514.25	20051.37
514.43	19992.86
514.60	20453.94
514.77	20444.58
514.95	20411.81
515.12	20201.16
515.29	20517.14
515.47	20376.70
515.64	20475.01
515.81	20812.04
515.99	20959.50
516.16	21071.84
516.33	20669.27
516.51	20755.87
516.68	20863.54
516.85	20744.17
517.03	20650.55
517.20	21118.65
517.37	21062.48
517.54	21118.65
517.72	21125.68
517.89	21090.57
518.06	20957.16
518.24	20842.47
518.41	21076.52
518.58	21158.44
518.75	21642.93
518.93	21745.92
519.10	21376.11
519.27	21570.38
519.45	21528.25
519.62	21532.93
519.79	21825.50
519.96	21549.31
520.14	21724.85
520.31	21802.09
520.48	21855.92
520.65	21600.80
520.83	22057.21
521.00	21703.79
521.17	22040.82
521.34	21994.01
521.52	22204.66
521.69	22300.62
521.86	22059.55
522.03	22235.09
522.20	22211.68
522.38	22508.93
522.55	22125.08
522.72	22017.42
522.89	22541.70
523.07	22773.41
523.24	22586.17
523.41	22733.62
523.58	22588.51
523.75	22595.53
523.92	22595.53
524.10	22965.34
524.27	22813.20
524.44	23262.58
524.61	23431.10
524.78	22890.44
524.96	23122.15
525.13	23206.41
525.30	23232.16
525.47	23136.20
525.64	23087.04
525.81	23323.44
525.98	23627.71
526.16	23545.79
526.33	23344.50
526.50	23744.73
526.67	23192.37
526.84	23522.38
527.01	23454.51
527.18	23440.47
527.36	23520.04
527.53	23735.37
527.70	23864.10
527.87	23953.04
528.04	24046.66
528.21	23772.82
528.38	23850.06
528.55	23953.04
528.72	24046.66
528.89	23756.44
529.07	24247.95
529.24	23908.57
529.41	24437.53
529.58	24180.07
529.75	23920.28
529.92	24400.08
530.09	23941.34
530.26	23917.93
530.43	24355.61
530.60	24173.05
530.77	24023.26
530.94	24732.44
531.11	24285.40
531.28	24353.27
531.46	24519.45
531.63	24575.62
531.80	24442.21
531.97	25181.82
532.14	25362.04
532.31	24912.66
532.48	24767.55
532.65	24755.85
532.82	24828.40
532.99	24690.31
533.16	25036.71
533.33	25348.00
533.50	25340.98
533.67	25097.56
533.84	24765.21
534.01	24671.59
534.18	24854.15
534.35	25181.82
534.52	25055.43
534.69	25530.56
534.86	25722.49
535.03	25273.10
535.20	25474.39
535.37	25132.67
535.54	25514.18
535.71	25315.23
535.88	25186.50
536.05	25525.88
536.22	25692.06
536.38	25879.30
536.55	25692.06
536.72	25834.83
536.89	25369.07
537.06	25689.72
537.23	25572.69
537.40	25773.98
537.57	25696.74
537.74	25802.07
537.91	25996.33
538.08	25951.86
538.25	25893.35
538.42	25752.91
538.59	26134.42
538.75	25797.38
538.92	25778.66
539.09	26368.48
539.26	26366.13
539.43	26316.98
539.60	26345.07
539.77	25982.29
539.94	26235.06
540.11	25954.20
540.28	26314.64
540.44	26092.29
540.61	26246.77
540.78	26321.66
540.95	26302.94
541.12	26525.29
541.29	26534.65
541.46	26305.28
541.62	26366.13
541.79	26277.19
541.96	26485.50
542.13	26471.46
542.30	26670.40
542.47	26824.88
542.63	26958.29
542.80	26649.34
542.97	27395.97
543.14	27157.24
543.31	27276.60
543.48	26895.10
543.64	27323.41
543.81	27054.25
543.98	27300.01
544.15	27318.73
544.32	27370.22
544.48	27660.45
544.65	27264.90
544.82	27157.24
544.99	27246.18
545.16	27543.42
545.32	27157.24
545.49	27545.76
545.66	27417.04
545.83	27634.71
546.00	27723.65
546.16	27271.92
546.33	27522.36
546.50	27255.54
546.67	27786.84
546.83	27417.04
547.00	27599.60
547.17	28018.55
547.34	27910.89
547.50	27634.71
547.67	28074.73
547.84	27264.90
548.00	27756.41
548.17	28268.99
548.34	27957.70
548.51	28257.29
548.67	28430.49
548.84	28051.32
549.01	27950.68
549.18	27693.22
549.34	28292.40
549.51	28315.80
549.68	28268.99
549.84	28109.83
550.01	28329.84
550.18	27896.85
550.34	28219.84
550.51	28446.87
550.68	28418.78
550.84	28137.92
551.01	28098.13
551.18	27955.36
551.34	27894.50
551.51	28048.98
551.68	28201.11
551.84	28233.88
552.01	28659.86
552.18	28453.89
552.34	28685.61
552.51	28952.43
552.68	27889.82
552.84	28666.88
553.01	28905.62
553.18	28709.01
553.34	28931.36
553.51	28690.29
553.67	28793.27
553.84	28924.34
554.01	28479.64
554.17	28980.51
554.34	28807.31
554.51	28638.80
554.67	28952.43
554.84	28819.02
555.00	28760.50
555.17	28790.93
555.33	29130.31
555.50	29029.66
555.67	28961.79
555.83	29034.35
556.00	28966.47
556.16	29364.36
556.33	29362.02
556.50	28538.15
556.66	29273.08
556.83	29095.20
556.99	29095.20
557.16	29422.87
557.32	29226.27
557.49	29198.18
557.65	29226.27
557.82	29060.09
557.98	29319.89
558.15	29142.01
558.32	29376.06
558.48	29429.90
558.65	29654.59
558.81	29242.65
558.98	29563.31
559.14	29586.71
559.31	29324.57
559.47	29525.86
559.64	29628.84
559.80	29310.53
559.97	29610.12
560.13	29497.77
560.30	29741.19
560.46	29806.72
560.63	29516.50
560.79	29699.06
560.96	29521.18
561.12	29537.56
561.29	29436.92
561.45	29521.18
561.61	29701.40
561.78	29469.69
561.94	29818.42
562.11	29820.77
562.27	29560.97
562.44	29867.58
562.60	29572.67
562.77	29631.18
562.93	29612.46
563.10	30118.01
563.26	29359.68
563.42	30003.33
563.59	29968.22
563.75	29776.30
563.92	29998.65
564.08	29551.60
564.24	29855.87
564.41	29855.87
564.57	30061.84
564.74	30153.12
564.90	30096.95
565.07	29919.07
565.23	29731.83
565.39	29893.32
565.56	30331.00
565.72	30026.73
565.88	29909.71
566.05	30115.67
566.21	30068.86
566.38	29874.60
566.54	29724.80
566.70	30471.43
566.87	30539.31
567.03	30181.21
567.19	30436.33
567.36	30146.10
567.52	30110.99
567.68	30700.81
567.85	30359.09
568.01	29773.95
568.17	30635.27
568.34	30480.80
568.50	30033.75
568.66	30443.35
568.83	30756.98
568.99	29993.97
569.15	30270.15
569.32	30225.68
569.48	30405.90
569.64	30213.98
569.81	30164.82
569.97	30384.83
570.13	30422.28
570.30	30075.88
570.46	30352.07
570.62	30211.64
570.78	30558.03
570.95	30094.61
571.11	30197.59
571.27	30115.67
571.43	30225.68
571.60	30082.91
571.76	30335.68
571.92	30436.33
572.09	30675.06
572.25	30522.93
572.41	30429.30
572.57	30230.36
572.74	30127.38
572.90	30218.66
573.06	30771.02
573.22	30146.10
573.38	30529.95
573.55	30408.24
573.71	30946.56
573.87	30707.83
574.03	30272.49
574.20	30717.19
574.36	30668.04
574.52	30398.88
574.68	30560.37
574.84	30717.19
575.01	30366.11
575.17	30452.71
575.33	30679.74
575.49	30345.05
575.65	30628.25
575.82	30553.35
575.98	30749.96
576.14	30426.96
576.30	30394.20
576.46	30756.98
576.62	30405.90
576.79	30349.73
576.95	30551.01
577.11	30457.39
577.27	30541.65
577.43	30888.05
577.59	30927.84
577.75	30646.97
577.92	30567.40
578.08	30054.82
578.24	30696.13
578.40	30948.90
578.56	30939.54
578.72	30478.46
578.88	31065.93
579.04	30866.98
579.21	30656.34
579.37	30820.17
579.53	30635.27
579.69	30794.43
579.85	30682.08
580.01	30677.40
580.17	30913.80
580.33	31030.82
580.49	30403.56
580.65	30630.59
580.82	30515.90
580.98	30850.60
581.14	30937.20
581.30	30925.50
581.46	30579.10
581.62	30476.12
581.78	30352.07
581.94	30801.45
582.10	30415.26
582.26	30925.50
582.42	31164.23
582.58	31084.65
582.74	30625.91
582.90	30881.03
583.06	31026.14
583.22	30888.05
583.38	30820.17
583.54	31147.85
583.70	30941.88
583.86	30532.29
584.02	30630.59
584.18	31019.12
584.34	31133.81
584.50	30976.99
584.66	30675.06
584.82	30752.30
584.98	30827.20
585.14	30869.33
585.30	30632.93
585.46	30932.52
585.62	30501.86
585.78	31234.45
585.94	30389.52
586.10	31168.91
586.26	30623.57
586.42	30944.22
586.58	30909.11
586.74	31260.20
586.90	30644.63
587.06	30354.41
587.22	30754.64
587.38	30457.39
587.54	30946.56
587.70	31119.76
587.86	30850.60
588.02	31285.94
588.18	31384.24
588.34	31068.27
588.49	30916.14
588.65	30766.34
588.81	30976.99
588.97	31140.83
589.13	30752.30
589.29	31019.12
589.45	31108.06
589.61	31054.23
589.77	31208.70
589.93	31257.85
590.08	31026.14
590.24	30932.52
590.40	31065.93
590.56	31168.91
590.72	30895.07
590.88	31089.34
591.04	30958.27
591.20	31438.08
591.35	31622.98
591.51	31337.43
591.67	31370.20
591.83	31197.00
