SpectraSuite Data File
++++++++++++++++++++++++++++++++++++
Date: Fri Oct 18 13:57:53 GMT-05:00 2013
User: bianchi
Dark Spectrum Present: No
Reference Spectrum Present: No
Number of Sampled Component Spectra: 1
Spectrometers: USB2+H05261
Integration Time (usec): 50000 (USB2+H05261)
Spectra Averaged: 1 (USB2+H05261)
Boxcar Smoothing: 0 (USB2+H05261)
Correct for Electrical Dark: No (USB2+H05261)
Strobe/Lamp Enabled: No (USB2+H05261)
Correct for Detector Non-linearity: No (USB2+H05261)
Correct for Stray Light: No (USB2+H05261)
Number of Pixels in Processed Spectrum: 2048
>>>>>Begin Processed Spectral Data<<<<<
365.73	0.00
365.92	0.00
366.12	0.00
366.32	0.00
366.52	0.00
366.72	0.00
366.91	0.00
367.11	0.00
367.31	0.00
367.51	0.00
367.70	0.00
367.90	0.00
368.10	0.00
368.30	0.00
368.49	0.00
368.69	0.00
368.89	0.00
369.09	0.00
369.28	0.00
369.48	0.00
369.68	0.00
369.87	0.00
370.07	0.00
370.27	0.00
370.47	0.00
370.66	105.32
370.86	100.64
371.06	159.16
371.25	187.24
371.45	131.07
371.65	105.32
371.84	154.48
372.04	147.45
372.24	168.52
372.44	154.48
372.63	236.39
372.83	222.35
373.03	198.95
373.22	257.46
373.42	222.35
373.62	184.90
373.81	262.14
374.01	248.10
374.21	187.24
374.40	276.18
374.60	248.10
374.79	252.78
374.99	280.86
375.19	278.52
375.38	248.10
375.58	236.39
375.78	318.31
375.97	229.37
376.17	318.31
376.37	325.33
376.56	269.16
376.76	234.05
376.95	334.70
377.15	297.25
377.35	327.68
377.54	299.59
377.74	220.01
377.93	259.80
378.13	205.97
378.33	327.68
378.52	287.89
378.72	266.82
378.91	238.73
379.11	262.14
379.31	320.65
379.50	332.36
379.70	348.74
379.89	252.78
380.09	257.46
380.28	348.74
380.48	294.91
380.68	351.08
380.87	222.35
381.07	290.23
381.26	351.08
381.46	332.36
381.65	304.27
381.85	283.20
382.04	320.65
382.24	351.08
382.43	414.27
382.63	273.84
382.83	351.08
383.02	285.55
383.22	362.78
383.41	318.31
383.61	372.15
383.80	346.40
384.00	423.64
384.19	358.10
384.39	337.04
384.58	395.55
384.78	428.32
384.97	379.17
385.17	402.57
385.36	386.19
385.56	344.06
385.75	447.04
385.95	379.17
386.14	376.83
386.34	395.55
386.53	437.68
386.72	430.66
386.92	330.02
387.11	358.10
387.31	407.25
387.50	425.98
387.70	381.51
387.89	409.59
388.09	400.23
388.28	421.30
388.48	435.34
388.67	449.38
388.86	404.91
389.06	430.66
389.25	491.51
389.45	416.62
389.64	451.72
389.84	437.68
390.03	528.96
390.22	503.22
390.42	479.81
390.61	430.66
390.81	526.62
391.00	500.87
391.19	397.89
391.39	507.90
391.58	468.11
391.78	468.11
391.97	547.69
392.16	493.85
392.36	559.39
392.55	610.88
392.75	582.79
392.94	524.28
393.13	587.47
393.33	566.41
393.52	615.56
393.71	561.73
393.91	486.83
394.10	521.94
394.29	650.67
394.49	552.37
394.68	526.62
394.88	594.50
395.07	617.90
395.26	664.71
395.46	629.60
395.65	601.52
395.84	674.07
396.04	645.99
396.23	662.37
396.42	580.45
396.62	718.54
396.81	685.78
397.00	622.58
397.19	681.10
397.39	671.73
397.58	786.42
397.77	653.01
397.97	746.63
398.16	650.67
398.35	676.41
398.55	718.54
398.74	688.12
398.93	744.29
399.12	718.54
399.32	720.88
399.51	709.18
399.70	734.93
399.90	802.80
400.09	753.65
400.28	793.44
400.47	781.74
400.67	763.01
400.86	770.04
401.05	760.67
401.24	779.40
401.44	844.93
401.63	767.70
401.82	802.80
402.01	800.46
402.21	823.87
402.40	866.00
402.59	741.95
402.78	877.70
402.97	917.49
403.17	880.04
403.36	910.47
403.55	835.57
403.74	826.21
403.93	898.77
404.13	983.02
404.32	957.28
404.51	873.02
404.70	950.26
404.89	896.43
405.09	882.38
405.28	973.66
405.47	973.66
405.66	1001.75
405.85	1013.45
406.05	980.68
406.24	1104.73
406.43	992.39
406.62	1015.79
406.81	1027.50
407.00	954.94
407.20	1100.05
407.39	1029.84
407.58	1048.56
407.77	1046.22
407.96	1132.82
408.15	1076.65
408.34	1137.50
408.54	1174.95
408.73	1135.16
408.92	1109.41
409.11	1203.04
409.30	1125.80
409.49	1104.73
409.68	1174.95
409.87	1149.20
410.07	1165.59
410.26	1226.44
410.45	1259.21
410.64	1196.01
410.83	1268.57
411.02	1198.35
411.21	1268.57
411.40	1348.15
411.59	1249.85
411.78	1165.59
411.98	1320.06
412.17	1270.91
412.36	1331.76
412.55	1317.72
412.74	1348.15
412.93	1437.09
413.12	1355.17
413.31	1369.21
413.50	1458.15
413.69	1448.79
413.88	1406.66
414.07	1474.54
414.26	1497.94
414.45	1338.79
414.64	1486.24
414.83	1390.28
415.02	1605.61
415.22	1654.76
415.41	1547.09
415.60	1540.07
415.79	1504.96
415.98	1610.29
416.17	1626.67
416.36	1570.50
416.55	1619.65
416.74	1645.40
416.93	1624.33
417.12	1717.95
417.31	1659.44
417.50	1652.42
417.69	1722.63
417.88	1785.83
418.07	1692.21
418.26	1666.46
418.45	1795.19
418.64	1757.74
418.83	1729.66
419.02	1858.39
419.21	1764.76
419.39	1881.79
419.58	1788.17
419.77	1797.53
419.96	1923.92
420.15	1860.73
420.34	1863.07
420.53	1902.86
420.72	1935.62
420.91	1860.73
421.10	1879.45
421.29	1928.60
421.48	1919.24
421.67	1930.94
421.86	1921.58
422.05	1914.56
422.24	2008.18
422.43	1902.86
422.61	2064.35
422.80	2005.84
422.99	2062.01
423.18	2019.88
423.37	2188.40
423.56	1989.46
423.75	2097.12
423.94	1928.60
424.13	1926.26
424.32	1935.62
424.50	1991.80
424.69	2113.50
424.88	2148.61
425.07	1907.54
425.26	2008.18
425.45	2169.68
425.64	2047.97
425.83	2076.06
426.01	2139.25
426.20	2045.63
426.39	2139.25
426.58	2001.16
426.77	2106.48
426.96	2186.06
427.15	2181.38
427.33	2059.67
427.52	2078.40
427.71	2136.91
427.90	2150.95
428.09	2132.23
428.28	2223.51
428.46	2253.94
428.65	2246.91
428.84	2155.63
429.03	2265.64
429.22	2148.61
429.40	2406.07
429.59	2303.09
429.78	2150.95
429.97	2228.19
430.16	2235.21
430.34	2349.90
430.53	2476.29
430.72	2324.15
430.91	2246.91
431.10	2366.28
431.28	2349.90
431.47	2492.67
431.66	2448.20
431.85	2368.62
432.03	2473.95
432.22	2420.11
432.41	2455.22
432.60	2544.16
432.79	2441.18
432.97	2532.46
433.16	2544.16
433.35	2546.50
433.54	2579.27
433.72	2612.04
433.91	2445.86
434.10	2572.25
434.28	2609.70
434.47	2588.63
434.66	2565.23
434.85	2619.06
435.03	2663.53
435.22	2523.10
435.41	2693.96
435.59	2595.65
435.78	2623.74
435.97	2745.45
436.16	2619.06
436.34	2773.53
436.53	2693.96
436.72	2736.09
436.90	2693.96
437.09	2736.09
437.28	2773.53
437.46	2705.66
437.65	2679.91
437.84	2820.35
438.02	2715.02
438.21	2864.82
438.40	2850.77
438.58	2864.82
438.77	2897.58
438.96	2899.92
439.14	3002.91
439.33	3028.65
439.52	3061.42
439.70	3028.65
439.89	3180.79
440.08	3152.70
440.26	3056.74
440.45	3030.99
440.63	3157.38
440.82	3229.94
441.01	3255.69
441.19	3178.45
441.38	3307.18
441.57	3243.98
441.75	3297.81
441.94	3290.79
442.12	3384.41
442.31	3332.92
442.50	3449.95
442.68	3349.31
442.87	3403.14
443.05	3377.39
443.24	3452.29
443.43	3351.65
443.61	3426.54
443.80	3611.45
443.98	3396.12
444.17	3330.58
444.35	3447.61
444.54	3524.85
444.73	3375.05
444.91	3487.40
445.10	3611.45
445.28	3543.57
445.47	3428.88
445.65	3447.61
445.84	3449.95
446.02	3574.00
446.21	3403.14
446.39	3421.86
446.58	3595.06
446.77	3494.42
446.95	3557.61
447.14	3468.67
447.32	3548.25
447.51	3599.74
447.69	3583.36
447.88	3550.59
448.06	3557.61
448.25	3513.14
448.43	3590.38
448.62	3419.52
448.80	3531.87
448.99	3480.38
449.17	3559.95
449.36	3630.17
449.54	3630.17
449.73	3786.99
449.91	3737.84
450.10	3695.71
450.28	3798.69
450.46	3742.52
450.65	3744.86
450.83	3742.52
451.02	3662.94
451.20	3831.46
451.39	3845.50
451.57	3861.88
451.76	3845.50
451.94	3852.52
452.13	3955.51
452.31	4007.00
452.49	3737.84
452.68	3915.72
452.86	3936.78
453.05	3906.35
453.23	4065.51
453.42	3908.69
453.60	3943.80
453.78	4046.79
453.97	3983.59
454.15	4030.40
454.34	4025.72
454.52	3999.98
454.70	4093.60
454.89	4119.34
455.07	4037.42
455.26	4091.26
455.44	4079.55
455.62	4074.87
455.81	4252.75
455.99	4133.39
456.17	4219.99
456.36	4241.05
456.54	4091.26
456.73	4327.65
456.91	4367.44
457.09	4311.27
457.28	4311.27
457.46	4315.95
457.64	4538.30
457.83	4304.25
458.01	4259.78
458.19	4362.76
458.38	4170.83
458.56	4585.11
458.74	4472.76
458.93	4500.85
459.11	4547.66
459.29	4484.47
459.48	4596.81
459.66	4526.60
459.84	4657.67
460.03	4643.62
460.21	4599.15
460.39	4739.58
460.57	4599.15
460.76	4559.36
460.94	4568.73
461.12	4582.77
461.31	4741.93
461.49	4540.64
461.67	4615.54
461.85	4741.93
462.04	4725.54
462.22	5069.60
462.40	4873.00
462.59	4683.41
462.77	4746.61
462.95	4819.16
463.13	4837.89
463.32	5008.75
463.50	4964.28
463.68	5100.03
463.86	5013.43
464.05	4781.71
464.23	4840.23
464.41	4896.40
464.59	4889.38
464.78	5153.86
464.96	5085.98
465.14	4840.23
465.32	4931.51
465.50	5074.28
465.69	5100.03
465.87	5060.24
466.05	5125.77
466.23	5226.42
466.41	5097.69
466.60	5181.95
466.78	5128.11
466.96	5057.90
467.14	4994.70
467.32	5020.45
467.51	5287.27
467.69	5198.33
467.87	5146.84
468.05	5259.18
468.23	5252.16
468.41	5156.20
468.60	5259.18
468.78	5298.97
468.96	5392.59
469.14	5273.23
469.32	5327.06
469.50	5139.82
469.69	5406.64
469.87	5582.18
470.05	5748.36
470.23	5362.17
470.41	5643.03
470.59	5549.41
470.77	5514.30
470.95	5526.00
471.14	5638.35
471.32	5526.00
471.50	5619.63
471.68	5743.67
471.86	5664.10
472.04	5621.97
472.22	5785.80
472.40	5792.83
472.58	5926.24
472.77	5785.80
472.95	5891.13
473.13	6057.31
473.31	5888.79
473.49	5980.07
473.67	6054.97
473.85	5860.70
474.03	5989.43
474.21	6179.01
474.39	6171.99
474.57	6228.17
474.75	6029.22
474.93	6267.95
475.12	6221.14
475.30	6321.79
475.48	6307.74
475.66	6333.49
475.84	6422.43
476.02	6506.69
476.20	6370.94
476.38	6492.65
476.56	6560.52
476.74	6523.07
476.92	6483.28
477.10	6731.38
477.28	6801.60
477.46	6572.22
477.64	6703.29
477.82	6967.77
478.00	6974.80
478.18	6881.18
478.36	7112.89
478.54	7009.90
478.72	7157.36
478.90	7272.04
479.08	7307.15
479.26	7492.05
479.44	7316.51
479.62	7606.74
479.80	7513.12
479.98	7665.25
480.16	7798.66
480.34	7559.93
480.52	7847.82
480.70	7782.28
480.88	7747.17
481.06	7667.60
481.24	7691.00
481.41	7920.37
481.59	8074.85
481.77	8079.53
481.95	8145.06
482.13	8119.32
482.31	8105.28
482.49	8318.26
482.67	8500.83
482.85	8549.98
483.03	8587.43
483.21	8472.74
483.39	8805.10
483.57	8594.45
483.74	8669.34
483.92	8830.84
484.10	8669.34
484.28	9139.79
484.46	9205.33
484.64	9172.56
484.82	9109.36
485.00	9357.46
485.18	9448.74
485.35	9322.35
485.53	9462.79
485.71	9497.89
485.89	9863.02
486.07	9792.80
486.25	9837.27
486.43	9998.77
486.61	9940.26
486.78	10005.79
486.96	10256.23
487.14	10377.94
487.32	10279.63
487.50	10422.41
487.68	10298.36
487.85	10384.96
488.03	10733.70
488.21	10593.26
488.39	10785.19
488.57	10504.32
488.75	10991.16
488.92	10923.28
489.10	11037.97
489.28	11007.54
489.46	11456.92
489.64	11206.48
489.81	11524.80
489.99	11506.07
490.17	11658.21
490.35	11676.93
490.53	11705.02
490.70	11690.98
490.88	11616.08
491.06	11885.24
491.24	11983.54
491.41	11812.68
491.59	12102.91
491.77	12063.12
491.95	12283.13
492.13	12320.58
492.30	12463.35
492.48	12465.69
492.66	12517.18
492.84	12449.31
493.01	12985.29
493.19	13006.36
493.37	12795.71
493.54	12823.80
493.72	12905.71
493.90	13146.79
494.08	12999.34
494.25	13128.06
494.43	13177.22
494.61	13404.25
494.79	13429.99
494.96	13521.27
495.14	13474.46
495.32	13748.31
495.49	13905.12
495.67	13886.40
495.85	13921.51
496.02	14155.56
496.20	13961.30
496.38	14118.11
496.55	14235.14
496.73	14429.40
496.91	14312.38
497.09	14314.72
497.26	14494.94
497.44	14469.19
497.62	14651.75
497.79	14874.10
497.97	14862.40
498.14	14965.39
498.32	15232.21
498.50	15220.50
498.67	15171.35
498.85	14993.47
499.03	15075.39
499.20	15105.82
499.38	15332.85
499.56	15564.56
499.73	15442.85
499.91	15616.05
500.08	15571.58
500.26	15807.98
500.44	15744.78
500.61	15798.62
500.79	15786.91
500.97	15990.54
501.14	16217.57
501.32	16091.18
501.49	15946.07
501.67	16093.52
501.84	16091.18
502.02	15932.03
502.20	16245.66
502.37	16229.27
502.55	16276.09
502.72	16430.56
502.90	16341.62
503.07	16329.92
503.25	16599.08
503.43	16561.63
503.60	16589.72
503.78	16711.42
503.95	16695.04
504.13	16964.20
504.30	16828.45
504.48	16877.60
504.65	17221.66
504.83	17439.33
505.01	17348.05
505.18	17034.42
505.36	17614.87
505.53	17341.03
505.71	17413.59
505.88	17383.16
506.06	17186.55
506.23	17401.88
506.41	17942.55
506.58	17453.37
506.76	17933.18
506.93	17862.97
507.11	17610.19
507.28	17713.17
507.46	17806.80
507.63	17832.54
507.81	18064.25
507.98	18251.50
508.16	18118.09
508.33	18003.40
508.50	18242.14
508.68	18434.06
508.85	18373.21
509.03	18384.91
509.20	18443.42
509.38	18635.35
509.55	18874.08
509.73	18670.45
509.90	18462.15
510.08	18684.50
510.25	18574.49
510.42	18817.91
510.60	19271.97
510.77	19185.37
510.95	19068.34
511.12	18824.93
511.30	18654.07
511.47	19009.83
511.64	19101.11
511.82	19316.44
511.99	19276.65
512.17	19227.50
512.34	19325.80
512.51	19365.59
512.69	19810.29
512.86	19669.86
513.04	19824.34
513.21	19693.27
513.38	19796.25
513.56	19618.37
513.73	19665.18
513.90	19726.04
514.08	19756.46
514.25	19784.55
514.43	20119.24
514.60	20105.20
514.77	20365.00
514.95	20299.47
515.12	20020.94
515.29	20294.79
515.47	20372.02
515.64	20191.80
515.81	20386.07
515.99	20496.07
516.16	20498.41
516.33	20744.17
516.51	20671.61
516.68	20755.87
516.85	20526.50
517.03	20774.60
517.20	20685.65
517.37	20950.14
517.54	21120.99
517.72	20917.37
517.89	20699.70
518.06	20926.73
518.24	20786.30
518.41	20961.84
518.58	20732.47
518.75	21104.61
518.93	21172.49
519.10	21076.52
519.27	21664.00
519.45	21371.43
519.62	21455.69
519.79	21392.50
519.96	21167.80
520.14	21722.51
520.31	21610.17
520.48	21783.37
520.65	21827.84
520.83	21867.63
521.00	21975.29
521.17	21673.36
521.34	21806.77
521.52	22132.11
521.69	21759.96
521.86	22188.28
522.03	22242.11
522.20	22436.38
522.38	22389.56
522.55	22253.81
522.72	22120.40
522.89	22597.87
523.07	22537.02
523.24	22525.32
523.41	22649.36
523.58	22167.21
523.75	22621.28
523.92	22539.36
524.10	22335.73
524.27	22909.16
524.44	22822.56
524.61	22902.14
524.78	22974.70
524.96	22794.48
525.13	22869.37
525.30	22881.08
525.47	22845.97
525.64	22836.61
525.81	23080.02
525.98	23056.62
526.16	23403.02
526.33	23164.28
526.50	23351.52
526.67	22890.44
526.84	22885.76
527.01	23452.17
527.18	23314.08
527.36	23520.04
527.53	23608.98
527.70	23915.59
527.87	23983.47
528.04	23611.32
528.21	23246.20
528.38	23335.14
528.55	23718.99
528.72	23669.84
528.89	23726.01
529.07	23943.68
529.24	23747.08
529.41	24027.94
529.58	24070.07
529.75	23576.22
529.92	23833.68
530.09	23798.57
530.26	24376.68
530.43	24315.83
530.60	24039.64
530.77	24025.60
530.94	24173.05
531.11	24135.60
531.28	24046.66
531.46	24264.33
531.63	24315.83
531.80	23983.47
531.97	24245.61
532.14	24409.45
532.31	24687.97
532.48	24547.54
532.65	24538.18
532.82	24491.37
532.99	24650.52
533.16	24699.67
533.33	24608.39
533.50	24985.22
533.67	24643.50
533.84	24584.99
534.01	24694.99
534.18	24898.62
534.35	24636.48
534.52	24823.72
534.69	25010.96
534.86	25277.79
535.03	24900.96
535.20	24760.53
535.37	25125.65
535.54	25223.95
535.71	24849.47
535.88	25247.36
536.05	25373.75
536.22	25174.80
536.38	25380.77
536.55	25425.24
536.72	25425.24
536.89	25025.01
537.06	25303.53
537.23	25504.82
537.40	25069.48
537.57	25671.00
537.74	25886.32
537.91	25846.54
538.08	25483.75
538.25	25596.10
538.42	25759.94
538.59	25865.26
538.75	25560.99
538.92	25982.29
539.09	25731.85
539.26	25942.50
539.43	25951.86
539.60	26005.69
539.77	25792.70
539.94	25975.27
540.11	25984.63
540.28	25921.43
540.44	26022.08
540.61	26003.35
540.78	25727.17
540.95	26136.76
541.12	25965.90
541.29	26628.27
541.46	26005.69
541.62	26206.98
541.79	26181.23
541.96	26251.45
542.13	26139.10
542.30	26316.98
542.47	26356.77
542.63	26625.93
542.80	26457.42
542.97	26867.01
543.14	26691.47
543.31	26647.00
543.48	26335.71
543.64	26937.23
543.81	27000.42
543.98	26988.72
544.15	26834.24
544.32	27175.96
544.48	27178.30
544.65	26993.40
544.82	26948.93
544.99	26691.47
545.16	27056.59
545.32	27037.87
545.49	27281.28
545.66	27353.84
545.83	27283.62
546.00	27742.37
546.16	27262.56
546.33	27246.18
546.50	26726.58
546.67	27049.57
546.83	26878.71
547.00	27075.32
547.17	27314.05
547.34	27435.76
547.50	27821.95
547.67	27857.06
547.84	27740.03
548.00	27405.33
548.17	27725.99
548.34	27360.86
548.51	27749.39
548.67	27601.94
548.84	27819.61
549.01	27735.35
549.18	27938.97
549.34	27349.16
549.51	27559.81
549.68	27718.96
549.84	27887.48
550.01	27934.29
550.18	28102.81
550.34	27730.67
550.51	27971.74
550.68	27735.35
550.84	27718.96
551.01	28147.28
551.18	28196.43
551.34	27683.86
551.51	28067.70
551.68	27859.40
551.84	27985.79
552.01	28287.71
552.18	27988.13
552.34	28112.17
552.51	28430.49
552.68	28360.27
552.84	27924.93
553.01	28100.47
553.18	28222.18
553.34	28589.64
553.51	28662.20
553.67	28442.19
553.84	28664.54
554.01	28451.55
554.17	28493.68
554.34	28638.80
554.51	28292.40
554.67	28783.91
554.84	28570.92
555.00	28318.14
555.17	28868.17
555.33	28481.98
555.50	28720.71
555.67	28835.40
555.83	28496.02
556.00	28849.44
556.16	28996.90
556.33	28772.21
556.50	28865.83
556.66	29050.73
556.83	29081.16
556.99	29022.64
557.16	29207.55
557.32	29345.64
557.49	28847.10
557.65	28917.32
557.82	28835.40
557.98	28950.09
558.15	28922.00
558.32	28875.19
558.48	28959.45
558.65	29228.61
558.81	29329.25
558.98	29254.36
559.14	29347.98
559.31	28875.19
559.47	28861.15
559.64	29205.20
559.80	29172.44
559.97	29209.89
560.13	28900.94
560.30	29043.71
560.46	29743.53
560.63	29565.65
560.79	29631.18
560.96	29766.93
561.12	29303.51
561.29	28982.85
561.45	29230.95
561.61	29488.41
561.78	29305.85
561.94	29841.83
562.11	29685.01
562.27	29605.44
562.44	29357.34
562.60	29418.19
562.77	29652.25
562.93	29399.47
563.10	29441.60
563.26	29362.02
563.42	29986.94
563.59	29532.88
563.75	30012.69
563.92	29369.04
564.08	29553.94
564.24	29474.37
564.41	29577.35
564.57	29610.12
564.74	29399.47
564.90	29593.73
565.07	29883.96
565.23	29912.05
565.39	29998.65
565.56	29752.89
565.72	30176.53
565.88	29839.49
566.05	29462.66
566.21	29486.07
566.38	30150.78
566.54	30005.67
566.70	30148.44
566.87	30162.48
567.03	29797.36
567.19	30047.80
567.36	29991.62
567.52	29762.25
567.68	29741.19
567.85	29961.20
568.01	30176.53
568.17	29804.38
568.34	30045.46
568.50	29846.51
568.66	30286.53
568.83	29984.60
568.99	29752.89
569.15	29673.31
569.32	30209.29
569.48	29685.01
569.64	30054.82
569.81	30059.50
569.97	30155.46
570.13	30328.66
570.30	30129.72
570.46	30281.85
570.62	29954.18
570.78	30174.19
570.95	29961.20
571.11	30003.33
571.27	29759.91
571.43	29961.20
571.60	29923.75
571.76	29956.52
571.92	30366.11
572.09	30181.21
572.25	30019.71
572.41	30249.08
572.57	30373.13
572.74	30410.58
572.90	29872.26
573.06	30110.99
573.22	30141.42
573.38	30110.99
573.55	30183.55
573.71	30625.91
573.87	30417.60
574.03	30162.48
574.20	30284.19
574.36	30096.95
574.52	30267.81
574.68	30038.44
574.84	30038.44
575.01	30246.74
575.17	30178.87
575.33	30120.35
575.49	30462.07
575.65	30768.68
575.82	30539.31
575.98	30288.87
576.14	30188.23
576.30	30319.30
576.46	30167.16
576.62	30242.06
576.79	30529.95
576.95	30391.86
577.11	30700.81
577.27	30328.66
577.43	30761.66
577.59	30668.04
577.75	30586.12
577.92	29919.07
578.08	30223.34
578.24	30373.13
578.40	30312.28
578.56	30616.55
578.72	30616.55
578.88	30682.08
579.04	30331.00
579.21	30506.54
579.37	30298.23
579.53	30553.35
579.69	30361.43
579.85	29902.68
580.01	30684.42
580.17	30141.42
580.33	30518.25
580.49	30375.47
580.65	30862.30
580.82	30771.02
580.98	30546.33
581.14	30361.43
581.30	30883.37
581.46	30284.19
581.62	30890.39
581.78	30579.10
581.94	30424.62
582.10	30223.34
582.26	30490.16
582.42	30546.33
582.58	30602.50
582.74	30595.48
582.90	30838.90
583.06	30850.60
583.22	30565.06
583.38	30433.99
583.54	30604.84
583.70	30426.96
583.86	30480.80
584.02	30279.51
584.18	30852.94
584.34	30686.76
584.50	30764.00
584.66	30499.52
584.82	30415.26
584.98	30726.55
585.14	30251.42
585.30	30345.05
585.46	30478.46
585.62	30742.94
585.78	30534.63
585.94	30548.67
586.10	30820.17
586.26	30607.19
586.42	30857.62
586.58	30845.92
586.74	30787.41
586.90	30749.96
587.06	30492.50
587.22	30438.67
587.38	30508.88
587.54	30916.14
587.70	30874.01
587.86	30918.48
588.02	31019.12
588.18	30644.63
588.34	31089.34
588.49	30745.28
588.65	30824.86
588.81	30347.39
588.97	30656.34
589.13	30656.34
589.29	30785.07
589.45	30593.14
589.61	30974.65
589.77	31161.89
589.93	31084.65
590.08	31143.17
590.24	30829.54
590.40	31182.96
590.56	31175.94
590.72	30672.72
590.88	30845.92
591.04	31131.47
591.20	30951.24
591.35	30817.83
591.51	31477.86
591.67	30965.29
591.83	31285.94
