SpectraSuite Data File
++++++++++++++++++++++++++++++++++++
Date: Fri Oct 18 13:58:42 GMT-05:00 2013
User: bianchi
Dark Spectrum Present: No
Reference Spectrum Present: No
Number of Sampled Component Spectra: 1
Spectrometers: USB2+H05261
Integration Time (usec): 50000 (USB2+H05261)
Spectra Averaged: 1 (USB2+H05261)
Boxcar Smoothing: 0 (USB2+H05261)
Correct for Electrical Dark: No (USB2+H05261)
Strobe/Lamp Enabled: No (USB2+H05261)
Correct for Detector Non-linearity: No (USB2+H05261)
Correct for Stray Light: No (USB2+H05261)
Number of Pixels in Processed Spectrum: 2048
>>>>>Begin Processed Spectral Data<<<<<
365.73	0.00
365.92	0.00
366.12	0.00
366.32	0.00
366.52	0.00
366.72	0.00
366.91	0.00
367.11	0.00
367.31	0.00
367.51	0.00
367.70	0.00
367.90	0.00
368.10	0.00
368.30	0.00
368.49	0.00
368.69	0.00
368.89	0.00
369.09	0.00
369.28	0.00
369.48	0.00
369.68	0.00
369.87	0.00
370.07	0.00
370.27	0.00
370.47	0.00
370.66	42.13
370.86	114.69
371.06	152.13
371.25	131.07
371.45	110.01
371.65	161.50
371.84	210.65
372.04	135.75
372.24	175.54
372.44	210.65
372.63	205.97
372.83	220.01
373.03	161.50
373.22	196.60
373.42	264.48
373.62	135.75
373.81	227.03
374.01	278.52
374.21	257.46
374.40	255.12
374.60	238.73
374.79	215.33
374.99	255.12
375.19	170.86
375.38	161.50
375.58	224.69
375.78	266.82
375.97	276.18
376.17	243.42
376.37	168.52
376.56	203.63
376.76	259.80
376.95	264.48
377.15	318.31
377.35	189.58
377.54	217.67
377.74	276.18
377.93	283.20
378.13	224.69
378.33	327.68
378.52	229.37
378.72	278.52
378.91	304.27
379.11	227.03
379.31	259.80
379.50	334.70
379.70	285.55
379.89	337.04
380.09	325.33
380.28	266.82
380.48	346.40
380.68	315.97
380.87	292.57
381.07	334.70
381.26	397.89
381.46	290.23
381.65	374.49
381.85	337.04
382.04	346.40
382.24	264.48
382.43	276.18
382.63	360.44
382.83	322.99
383.02	351.08
383.22	390.87
383.41	306.61
383.61	353.42
383.80	379.17
384.00	369.80
384.19	409.59
384.39	400.23
384.58	332.36
384.78	397.89
384.97	411.93
385.17	400.23
385.36	346.40
385.56	447.04
385.75	346.40
385.95	369.80
386.14	430.66
386.34	404.91
386.53	355.76
386.72	409.59
386.92	369.80
387.11	365.12
387.31	395.55
387.50	526.62
387.70	409.59
387.89	423.64
388.09	376.83
388.28	381.51
388.48	470.45
388.67	479.81
388.86	451.72
389.06	437.68
389.25	423.64
389.45	465.77
389.64	381.51
389.84	400.23
390.03	484.49
390.22	468.11
390.42	456.40
390.61	411.93
390.81	531.30
391.00	585.13
391.19	526.62
391.39	540.66
391.58	538.32
391.78	489.17
391.97	538.32
392.16	533.64
392.36	517.26
392.55	489.17
392.75	599.18
392.94	526.62
393.13	507.90
393.33	514.92
393.52	528.96
393.71	533.64
393.91	592.16
394.10	603.86
394.29	514.92
394.49	564.07
394.68	627.26
394.88	547.69
395.07	615.56
395.26	587.47
395.46	573.43
395.65	608.54
395.84	580.45
396.04	681.10
396.23	624.92
396.42	636.63
396.62	636.63
396.81	650.67
397.00	617.90
397.19	720.88
397.39	645.99
397.58	643.65
397.77	650.67
397.97	657.69
398.16	734.93
398.35	685.78
398.55	826.21
398.74	662.37
398.93	723.23
399.12	734.93
399.32	739.61
399.51	674.07
399.70	734.93
399.90	723.23
400.09	730.25
400.28	774.72
400.47	711.52
400.67	837.91
400.86	795.78
401.05	788.76
401.24	812.17
401.44	760.67
401.63	751.31
401.82	812.17
402.01	772.38
402.21	758.33
402.40	851.96
402.59	819.19
402.78	835.57
402.97	870.68
403.17	835.57
403.36	842.59
403.55	854.30
403.74	880.04
403.93	898.77
404.13	870.68
404.32	784.08
404.51	915.15
404.70	880.04
404.89	870.68
405.09	959.62
405.28	924.51
405.47	917.49
405.66	954.94
405.85	926.85
406.05	964.30
406.24	919.83
406.43	999.41
406.62	987.71
406.81	1041.54
407.00	973.66
407.20	971.32
407.39	966.64
407.58	1006.43
407.77	1116.44
407.96	1144.52
408.15	1116.44
408.34	950.26
408.54	1046.22
408.73	1036.86
408.92	1088.35
409.11	1193.67
409.30	1076.65
409.49	1224.10
409.68	1109.41
409.87	1139.84
410.07	1116.44
410.26	1135.16
410.45	1158.57
410.64	1142.18
410.83	1174.95
411.02	1193.67
411.21	1245.16
411.40	1163.25
411.59	1231.12
411.78	1200.69
411.98	1245.16
412.17	1289.64
412.36	1291.98
412.55	1327.08
412.74	1299.00
412.93	1371.55
413.12	1366.87
413.31	1416.02
413.50	1380.92
413.69	1385.60
413.88	1425.39
414.07	1437.09
414.26	1444.11
414.45	1434.75
414.64	1493.26
414.83	1469.86
415.02	1509.65
415.22	1551.78
415.41	1589.22
415.60	1631.35
415.79	1511.99
415.98	1441.77
416.17	1586.88
416.36	1504.96
416.55	1605.61
416.74	1624.33
416.93	1687.53
417.12	1624.33
417.31	1600.93
417.50	1666.46
417.69	1739.02
417.88	1713.27
418.07	1713.27
418.26	1769.44
418.45	1668.80
418.64	1811.57
418.83	1799.87
419.02	1746.04
419.21	1806.89
419.39	1813.92
419.58	1870.09
419.77	1851.36
419.96	1949.67
420.15	1762.42
420.34	1909.88
420.53	1881.79
420.72	1886.47
420.91	1930.94
421.10	1923.92
421.29	2085.42
421.48	1870.09
421.67	1930.94
421.86	1884.13
422.05	1989.46
422.24	1963.71
422.43	2012.86
422.61	1940.30
422.80	2050.31
422.99	1977.75
423.18	1987.11
423.37	1970.73
423.56	2019.88
423.75	1959.03
423.94	2003.50
424.13	1877.11
424.32	1825.62
424.50	1937.96
424.69	2115.84
424.88	2118.18
425.07	1980.09
425.26	1975.41
425.45	1930.94
425.64	2104.14
425.83	2047.97
426.01	1919.24
426.20	2031.58
426.39	2129.89
426.58	1975.41
426.77	2078.40
426.96	2146.27
427.15	2040.95
427.33	2223.51
427.52	2207.13
427.71	2141.59
427.90	2146.27
428.09	2134.57
428.28	2200.10
428.46	2193.08
428.65	2193.08
428.84	2197.76
429.03	2202.44
429.22	2169.68
429.40	2284.36
429.59	2267.98
429.78	2214.15
429.97	2176.70
430.16	2258.62
430.34	2197.76
430.53	2389.69
430.72	2342.88
430.91	2249.25
431.10	2305.43
431.28	2326.49
431.47	2340.54
431.66	2478.63
431.85	2328.83
432.03	2363.94
432.22	2373.30
432.41	2382.67
432.60	2406.07
432.79	2427.14
432.97	2354.58
433.16	2555.86
433.35	2527.78
433.54	2633.10
433.72	2452.88
433.91	2413.09
434.10	2413.09
434.28	2544.16
434.47	2462.24
434.66	2600.34
434.85	2607.36
435.03	2544.16
435.22	2478.63
435.41	2705.66
435.59	2630.76
435.78	2619.06
435.97	2539.48
436.16	2775.88
436.34	2546.50
436.53	2785.24
436.72	2689.28
436.90	2656.51
437.09	2789.92
437.28	2630.76
437.46	2700.98
437.65	2612.04
437.84	2771.19
438.02	2693.96
438.21	2785.24
438.40	2644.81
438.58	2878.86
438.77	2935.03
438.96	2888.22
439.14	2881.20
439.33	3066.10
439.52	3023.97
439.70	2937.37
439.89	2974.82
440.08	2906.95
440.26	2995.89
440.45	3066.10
440.63	3028.65
440.82	3150.36
441.01	3040.36
441.19	3054.40
441.38	3246.32
441.57	3208.87
441.75	3220.58
441.94	3251.00
442.12	3279.09
442.31	3330.58
442.50	3180.79
442.68	3061.42
442.87	3241.64
443.05	3166.74
443.24	3368.03
443.43	3304.84
443.61	3440.59
443.80	3454.63
443.98	3375.05
444.17	3379.73
444.35	3431.23
444.54	3325.90
444.73	3421.86
444.91	3433.57
445.10	3461.65
445.28	3365.69
445.47	3321.22
445.65	3353.99
445.84	3375.05
446.02	3597.40
446.21	3503.78
446.39	3428.88
446.58	3370.37
446.77	3417.18
446.95	3407.82
447.14	3379.73
447.32	3424.20
447.51	3447.61
447.69	3602.08
447.88	3557.61
448.06	3499.10
448.25	3552.93
448.43	3653.58
448.62	3660.60
448.80	3454.63
448.99	3688.68
449.17	3599.74
449.36	3648.90
449.54	3681.66
449.73	3588.04
449.91	3630.17
450.10	3763.58
450.28	3623.15
450.46	3794.01
450.65	3681.66
450.83	3843.16
451.02	3648.90
451.20	3716.77
451.39	3791.67
451.57	3676.98
451.76	3749.54
451.94	3756.56
452.13	3892.31
452.31	3756.56
452.49	3665.28
452.68	3728.47
452.86	3852.52
453.05	3768.26
453.23	3967.21
453.42	3918.06
453.60	3824.44
453.78	3976.57
453.97	3894.65
454.15	3864.22
454.34	3932.10
454.52	3999.98
454.70	4002.32
454.89	3943.80
455.07	4077.21
455.26	4002.32
455.44	4241.05
455.62	3948.48
455.81	4124.02
455.99	4102.96
456.17	4091.26
456.36	4231.69
456.54	4175.52
456.73	4119.34
456.91	4262.12
457.09	4337.01
457.28	4252.75
457.46	4241.05
457.64	4496.17
457.83	4444.68
458.01	4241.05
458.19	4355.74
458.38	4418.93
458.56	4564.04
458.74	4315.95
458.93	4479.79
459.11	4461.06
459.29	4311.27
459.48	4404.89
459.66	4444.68
459.84	4500.85
460.03	4564.04
460.21	4400.21
460.39	4362.76
460.57	4386.16
460.76	4547.66
460.94	4599.15
461.12	4624.90
461.31	4512.55
461.49	4587.45
461.67	4400.21
461.85	4575.75
462.04	4685.75
462.22	4681.07
462.40	4744.27
462.59	4571.07
462.77	4861.29
462.95	4954.91
463.13	4856.61
463.32	4793.42
463.50	4891.72
463.68	4704.48
463.86	4695.11
464.05	4791.08
464.23	4865.97
464.41	4802.78
464.59	4805.12
464.78	5006.41
464.96	5020.45
465.14	4884.70
465.32	4915.12
465.50	5013.43
465.69	4966.62
465.87	4865.97
466.05	4987.68
466.23	5062.58
466.41	5100.03
466.60	5041.51
466.78	4947.89
466.96	4973.64
467.14	4940.87
467.32	5174.92
467.51	5151.52
467.69	4833.21
467.87	5095.35
468.05	5137.48
468.23	5046.20
468.41	5149.18
468.60	5095.35
468.78	5275.57
468.96	5170.24
469.14	5249.82
469.32	5296.63
469.50	5266.21
469.69	5357.49
469.87	5177.26
470.05	5371.53
470.23	5416.00
470.41	5294.29
470.59	5425.36
470.77	5270.89
470.95	5504.94
471.14	5710.91
471.32	5352.81
471.50	5554.09
471.68	5628.99
471.86	5680.48
472.04	5582.18
472.22	5535.37
472.40	5633.67
472.58	5703.89
472.77	5654.73
472.95	5771.76
473.13	6134.54
473.31	5767.08
473.49	5760.06
473.67	5830.27
473.85	5631.33
474.03	5998.79
474.21	5956.66
474.39	6057.31
474.57	6113.48
474.75	6087.73
474.93	6136.88
475.12	6001.13
475.30	6200.08
475.48	6216.46
475.66	6202.42
475.84	6300.72
476.02	6258.59
476.20	6253.91
476.38	6352.21
476.56	6548.82
476.74	6509.03
476.92	6597.97
477.10	6406.05
477.28	6796.92
477.46	6609.67
477.64	6612.01
477.82	6745.42
478.00	6988.84
478.18	6916.28
478.36	7037.99
478.54	7073.10
478.72	7098.84
478.90	7211.19
479.08	7199.49
479.26	7187.79
479.44	7143.32
479.62	7393.75
479.80	7328.22
479.98	7482.69
480.16	7609.08
480.34	7506.10
480.52	7765.90
480.70	7702.70
480.88	7470.99
481.06	7733.13
481.24	7597.38
481.41	7782.28
481.59	7875.90
481.77	8074.85
481.95	8215.28
482.13	7960.16
482.31	7892.29
482.49	8102.93
482.67	8276.13
482.85	8360.39
483.03	8421.25
483.21	8500.83
483.39	8542.96
483.57	8463.38
483.74	8709.13
483.92	8638.92
484.10	8634.24
484.28	8737.22
484.46	9125.75
484.64	9116.39
484.82	8791.05
485.00	8706.79
485.18	9291.93
485.35	9305.97
485.53	9284.91
485.71	9404.27
485.89	9701.52
486.07	9462.79
486.25	9460.45
486.43	9460.45
486.61	9776.42
486.78	9809.19
486.96	10143.88
487.14	10008.13
487.32	10036.22
487.50	10150.90
487.68	10326.44
487.85	10136.86
488.03	10333.47
488.21	10478.58
488.39	10621.35
488.57	10583.90
488.75	10485.60
488.92	10899.87
489.10	10993.50
489.28	11054.35
489.46	11082.44
489.64	11087.12
489.81	11208.83
489.99	11052.01
490.17	11300.11
490.35	11393.73
490.53	11358.62
490.70	11552.88
490.88	11777.58
491.06	11676.93
491.24	11810.34
491.41	11695.66
491.59	11953.12
491.77	11925.03
491.95	12065.46
492.13	12245.68
492.30	12187.17
492.48	12248.02
492.66	12299.52
492.84	12297.17
493.01	12514.84
493.19	12493.78
493.37	12819.11
493.54	12830.82
493.72	12718.47
493.90	12744.22
494.08	13022.74
494.25	12706.77
494.43	13158.49
494.61	13214.66
494.79	13219.35
494.96	13584.47
495.14	13235.73
495.32	13785.76
495.49	13479.15
495.67	13270.84
495.85	13942.57
496.02	13745.97
496.20	13987.04
496.38	13994.06
496.55	13914.48
496.73	14090.02
496.91	14054.92
497.09	14150.88
497.26	14391.95
497.44	14265.57
497.62	14689.20
497.79	14537.07
497.97	14516.00
498.14	14618.99
498.32	14700.90
498.50	14815.59
498.67	15007.52
498.85	15040.28
499.03	14813.25
499.20	14860.06
499.38	15073.05
499.56	15007.52
499.73	15246.25
499.91	15206.46
500.08	15169.01
500.26	15178.37
500.44	15367.96
500.61	15344.55
500.79	15447.54
500.97	15330.51
501.14	15784.57
501.32	15978.84
501.49	15899.26
501.67	15690.95
501.84	15941.39
502.02	15847.77
502.20	16109.91
502.37	16116.93
502.55	16137.99
502.72	16152.04
502.90	16365.03
503.07	15815.00
503.25	16051.39
503.43	16168.42
503.60	16149.70
503.78	16475.03
503.95	16365.03
504.13	16645.89
504.30	16690.36
504.48	16545.25
504.65	16826.11
504.83	16975.91
505.01	16842.50
505.18	16954.84
505.36	17062.51
505.53	16816.75
505.71	16793.34
505.88	17151.45
506.06	16851.86
506.23	17568.06
506.41	17219.32
506.58	17231.02
506.76	17572.74
506.93	16985.27
507.11	17385.50
507.28	17584.44
507.46	17514.23
507.63	17539.97
507.81	17951.91
507.98	17539.97
508.16	17294.22
508.33	17755.30
508.50	17830.20
508.68	17858.29
508.85	18157.88
509.03	18251.50
509.20	18295.97
509.38	18284.26
509.55	18436.40
509.73	18373.21
509.90	18431.72
510.08	18295.97
510.25	18410.65
510.42	18373.21
510.60	18588.53
510.77	18972.38
510.95	18923.23
511.12	18611.94
511.30	18647.05
511.47	18998.13
511.64	18703.22
511.82	18888.12
511.99	18780.46
512.17	18679.82
512.34	18775.78
512.51	19178.35
512.69	19248.57
512.86	18925.57
513.04	19321.12
513.21	19403.04
513.38	19168.99
513.56	19353.89
513.73	19618.37
513.90	19499.00
514.08	19410.06
514.25	19756.46
514.43	19585.60
514.60	19810.29
514.77	19534.11
514.95	19995.20
515.12	19929.66
515.29	19864.13
515.47	19971.79
515.64	20020.94
515.81	20154.35
515.99	20142.65
516.16	20025.62
516.33	19955.41
516.51	20187.12
516.68	20095.84
516.85	20425.86
517.03	20397.77
517.20	20472.67
517.37	20301.81
517.54	20484.37
517.72	20552.24
517.89	20573.31
518.06	20725.44
518.24	20631.82
518.41	20421.17
518.58	20549.90
518.75	20840.13
518.93	20821.41
519.10	20744.17
519.27	20947.79
519.45	20891.62
519.62	20999.29
519.79	20753.53
519.96	21226.32
520.14	21252.06
520.31	21191.21
520.48	21209.93
520.65	21116.31
520.83	21116.31
521.00	21591.44
521.17	21322.28
521.34	21305.90
521.52	21069.50
521.69	21530.59
521.86	21481.44
522.03	21561.02
522.20	21584.42
522.38	21797.41
522.55	22003.38
522.72	21771.66
522.89	22075.93
523.07	22279.56
523.24	21937.84
523.41	22169.55
523.58	22181.26
523.75	22033.80
523.92	21963.59
524.10	22167.21
524.27	22122.74
524.44	22167.21
524.61	22450.42
524.78	22623.62
524.96	22462.12
525.13	22464.46
525.30	22279.56
525.47	22820.22
525.64	22532.34
525.81	22457.44
525.98	22691.49
526.16	22806.18
526.33	22799.16
526.50	22548.72
526.67	22792.14
526.84	22501.91
527.01	22890.44
527.18	22820.22
527.36	23278.97
527.53	23295.35
527.70	23381.95
527.87	23274.29
528.04	23293.01
528.21	23002.78
528.38	23089.38
528.55	23168.96
528.72	23124.49
528.89	23295.35
529.07	23222.80
529.24	23403.02
529.41	23676.86
529.58	23194.71
529.75	23288.33
529.92	23552.81
530.09	23374.93
530.26	23786.86
530.43	23784.52
530.60	23517.70
530.77	23599.62
530.94	23623.03
531.11	23370.25
531.28	23903.89
531.46	23541.11
531.63	23913.25
531.80	23948.36
531.97	23988.15
532.14	24072.41
532.31	24177.73
532.48	24049.00
532.65	24011.56
532.82	24034.96
532.99	24269.01
533.16	24004.53
533.33	24254.97
533.50	24283.06
533.67	24458.60
533.84	24261.99
534.01	24428.17
534.18	24058.37
534.35	24732.44
534.52	24629.46
534.69	24538.18
534.86	24716.06
535.03	24477.32
535.20	24676.27
535.37	24744.14
535.54	24561.58
535.71	24608.39
535.88	24566.26
536.05	24847.13
536.22	24797.98
536.38	24891.60
536.55	24999.26
536.72	24912.66
536.89	24933.73
537.06	25081.18
537.23	24954.79
537.40	24769.89
537.57	25123.31
537.74	25186.50
537.91	25340.98
538.08	25273.10
538.25	25228.63
538.42	24961.81
538.59	25277.79
538.75	25088.20
538.92	25315.23
539.09	25282.47
539.26	25486.09
539.43	25343.32
539.60	25865.26
539.77	25181.82
539.94	25308.21
540.11	25560.99
540.28	25532.90
540.44	25427.58
540.61	25537.59
540.78	25296.51
540.95	25914.41
541.12	25666.31
541.29	25820.79
541.46	25607.80
541.62	25523.54
541.79	25788.02
541.96	25647.59
542.13	25633.55
542.30	25986.97
542.47	25900.37
542.63	25912.07
542.80	26326.35
542.97	26038.46
543.14	26567.42
543.31	26359.11
543.48	26031.44
543.64	26611.89
543.81	26419.97
543.98	26536.99
544.15	26717.22
544.32	26511.25
544.48	26637.64
544.65	26375.50
544.82	26464.44
544.99	26263.15
545.16	26382.52
545.32	26441.03
545.49	26955.95
545.66	26944.25
545.83	26534.65
546.00	26969.99
546.16	26366.13
546.33	26466.78
546.50	26614.23
546.67	26686.79
546.83	26796.79
547.00	26635.30
547.17	26876.37
547.34	26794.45
547.50	26890.41
547.67	27421.72
547.84	27030.85
548.00	26972.33
548.17	27669.81
548.34	26941.91
548.51	27047.23
548.67	27250.86
548.84	26991.06
549.01	27061.27
549.18	27112.77
549.34	27061.27
549.51	27012.12
549.68	27030.85
549.84	27227.45
550.01	27087.02
550.18	27012.12
550.34	27365.54
550.51	27278.94
550.68	27037.87
550.84	27381.93
551.01	27421.72
551.18	27386.61
551.34	27175.96
551.51	27367.88
551.68	27571.51
551.84	27398.31
552.01	27412.35
552.18	27812.59
552.34	27498.95
552.51	27618.32
552.68	27585.55
552.84	27651.09
553.01	27587.89
553.18	27697.90
553.34	28013.87
553.51	27770.46
553.67	27852.38
553.84	28215.16
554.01	28074.73
554.17	27772.80
554.34	28093.45
554.51	28027.92
554.67	27754.07
554.84	27807.90
555.00	27894.50
555.17	28182.39
555.33	28079.41
555.50	28231.54
555.67	27669.81
555.83	28037.28
556.00	27924.93
556.16	28603.69
556.33	28173.03
556.50	28254.95
556.66	28283.03
556.83	28046.64
556.99	28095.79
557.16	28652.84
557.32	28383.68
557.49	28006.85
557.65	28341.55
557.82	28273.67
557.98	28147.28
558.15	28479.64
558.32	28767.52
558.48	28400.06
558.65	28435.17
558.81	28599.01
558.98	28531.13
559.14	28531.13
559.31	28624.75
559.47	28472.62
559.64	28694.97
559.80	28868.17
559.97	28538.15
560.13	28442.19
560.30	28570.92
560.46	28694.97
560.63	28725.39
560.79	28339.21
560.96	28510.07
561.12	28676.24
561.29	28584.96
561.45	28816.68
561.61	28811.99
561.78	28823.70
561.94	28566.24
562.11	28865.83
562.27	28463.25
562.44	28919.66
562.60	28985.19
562.77	28692.63
562.93	28699.65
563.10	29022.64
563.26	29064.77
563.42	29041.37
563.59	28872.85
563.75	29191.16
563.92	28898.59
564.08	28868.17
564.24	28676.24
564.41	28582.62
564.57	28835.40
564.74	28811.99
564.90	29294.14
565.07	29095.20
565.23	28966.47
565.39	28629.43
565.56	29064.77
565.72	29104.56
565.88	29034.35
566.05	28718.37
566.21	29172.44
566.38	28978.17
566.54	29172.44
566.70	29343.30
566.87	29472.03
567.03	29413.51
567.19	29603.10
567.36	29422.87
567.52	28797.95
567.68	29317.55
567.85	29521.18
568.01	29172.44
568.17	28858.81
568.34	29345.64
568.50	29429.90
568.66	29495.43
568.83	29542.24
568.99	29205.20
569.15	29024.98
569.32	29371.38
569.48	29130.31
569.64	29450.96
569.81	29158.39
569.97	29507.13
570.13	29156.05
570.30	29296.49
570.46	29638.20
570.62	29209.89
570.78	29097.54
570.95	29160.73
571.11	29486.07
571.27	28926.68
571.43	29294.14
571.60	29546.92
571.76	29462.66
571.92	29230.95
572.09	29528.20
572.25	29738.85
572.41	29369.04
572.57	29355.00
572.74	29731.83
572.90	29050.73
573.06	29017.96
573.22	29184.14
573.38	29420.53
573.55	29523.52
573.71	29699.06
573.87	29628.84
574.03	29362.02
574.20	29446.28
574.36	29612.46
574.52	29743.53
574.68	29406.49
574.84	29142.01
575.01	29586.71
575.17	29970.56
575.33	29549.26
575.49	29724.80
575.65	29631.18
575.82	29741.19
575.98	29507.13
576.14	29797.36
576.30	29799.70
576.46	29455.64
576.62	29336.27
576.79	29769.27
576.95	29207.55
577.11	29556.28
577.27	29687.36
577.43	29612.46
577.59	29834.81
577.75	29755.23
577.92	29305.85
578.08	29401.81
578.24	29600.76
578.40	29621.82
578.56	30075.88
578.72	29731.83
578.88	29593.73
579.04	30057.16
579.21	30080.56
579.37	29841.83
579.53	29797.36
579.69	29376.06
579.85	29474.37
580.01	29930.77
580.17	29495.43
580.33	29989.28
580.49	29914.39
580.65	30075.88
580.82	29883.96
580.98	29486.07
581.14	30005.67
581.30	30171.85
581.46	29923.75
581.62	29605.44
581.78	29282.44
581.94	30029.07
582.10	29729.48
582.26	29811.40
582.42	29638.20
582.58	30073.54
582.74	29970.56
582.90	30036.09
583.06	29642.88
583.22	29619.48
583.38	29872.26
583.54	29696.72
583.70	29563.31
583.86	29900.34
584.02	29720.12
584.18	30253.76
584.34	29757.57
584.50	29834.81
584.66	29764.59
584.82	29347.98
584.98	29340.96
585.14	29544.58
585.30	29860.55
585.46	29820.77
585.62	29926.09
585.78	29949.50
585.94	29769.27
586.10	29986.94
586.26	29860.55
586.42	30185.89
586.58	30078.22
586.74	29532.88
586.90	29979.92
587.06	29635.86
587.22	29612.46
587.38	29685.01
587.54	29799.70
587.70	29933.11
587.86	30174.19
588.02	29989.28
588.18	30464.41
588.34	30040.78
588.49	29844.17
588.65	29968.22
588.81	29799.70
588.97	29893.32
589.13	29851.19
589.29	29993.97
589.45	30026.73
589.61	29846.51
589.77	30298.23
589.93	30221.00
590.08	30445.69
590.24	30256.11
590.40	30221.00
590.56	30195.25
590.72	30015.03
590.88	29869.92
591.04	29720.12
591.20	30232.70
591.35	30331.00
591.51	30356.75
591.67	29998.65
591.83	30614.21
591.99	30157.80
