SpectraSuite Data File
++++++++++++++++++++++++++++++++++++
Date: Fri Oct 18 13:58:08 GMT-05:00 2013
User: bianchi
Dark Spectrum Present: No
Reference Spectrum Present: No
Number of Sampled Component Spectra: 1
Spectrometers: USB2+H05261
Integration Time (usec): 50000 (USB2+H05261)
Spectra Averaged: 1 (USB2+H05261)
Boxcar Smoothing: 0 (USB2+H05261)
Correct for Electrical Dark: No (USB2+H05261)
Strobe/Lamp Enabled: No (USB2+H05261)
Correct for Detector Non-linearity: No (USB2+H05261)
Correct for Stray Light: No (USB2+H05261)
Number of Pixels in Processed Spectrum: 2048
>>>>>Begin Processed Spectral Data<<<<<
365.73	0.00
365.92	0.00
366.12	0.00
366.32	0.00
366.52	0.00
366.72	0.00
366.91	0.00
367.11	0.00
367.31	0.00
367.51	0.00
367.70	0.00
367.90	0.00
368.10	0.00
368.30	0.00
368.49	0.00
368.69	0.00
368.89	0.00
369.09	0.00
369.28	0.00
369.48	0.00
369.68	0.00
369.87	0.00
370.07	0.00
370.27	0.00
370.47	0.00
370.66	114.69
370.86	46.81
371.06	175.54
371.25	163.84
371.45	145.11
371.65	100.64
371.84	271.50
372.04	163.84
372.24	189.58
372.44	196.60
372.63	234.05
372.83	180.22
373.03	180.22
373.22	248.10
373.42	220.01
373.62	156.82
373.81	257.46
374.01	227.03
374.21	245.76
374.40	212.99
374.60	220.01
374.79	271.50
374.99	208.31
375.19	128.73
375.38	262.14
375.58	287.89
375.78	191.92
375.97	262.14
376.17	250.44
376.37	273.84
376.56	318.31
376.76	198.95
376.95	262.14
377.15	243.42
377.35	257.46
377.54	266.82
377.74	222.35
377.93	264.48
378.13	264.48
378.33	294.91
378.52	231.71
378.72	257.46
378.91	304.27
379.11	294.91
379.31	266.82
379.50	271.50
379.70	248.10
379.89	330.02
380.09	224.69
380.28	294.91
380.48	276.18
380.68	294.91
380.87	390.87
381.07	330.02
381.26	346.40
381.46	344.06
381.65	386.19
381.85	346.40
382.04	327.68
382.24	381.51
382.43	266.82
382.63	360.44
382.83	341.72
383.02	278.52
383.22	421.30
383.41	327.68
383.61	353.42
383.80	414.27
384.00	322.99
384.19	472.79
384.39	379.17
384.58	437.68
384.78	409.59
384.97	367.46
385.17	379.17
385.36	348.74
385.56	369.80
385.75	395.55
385.95	395.55
386.14	458.74
386.34	367.46
386.53	404.91
386.72	388.53
386.92	449.38
387.11	440.02
387.31	390.87
387.50	358.10
387.70	437.68
387.89	444.70
388.09	423.64
388.28	442.36
388.48	479.81
388.67	479.81
388.86	482.15
389.06	437.68
389.25	486.83
389.45	503.22
389.64	433.00
389.84	575.77
390.03	538.32
390.22	519.60
390.42	491.51
390.61	465.77
390.81	442.36
391.00	407.25
391.19	454.06
391.39	552.37
391.58	503.22
391.78	496.19
391.97	531.30
392.16	491.51
392.36	517.26
392.55	533.64
392.75	564.07
392.94	582.79
393.13	538.32
393.33	519.60
393.52	585.13
393.71	641.31
393.91	622.58
394.10	587.47
394.29	547.69
394.49	568.75
394.68	629.60
394.88	524.28
395.07	655.35
395.26	601.52
395.46	674.07
395.65	664.71
395.84	592.16
396.04	739.61
396.23	648.33
396.42	599.18
396.62	622.58
396.81	587.47
397.00	608.54
397.19	723.23
397.39	720.88
397.58	685.78
397.77	545.34
397.97	725.57
398.16	685.78
398.35	791.10
398.55	676.41
398.74	681.10
398.93	751.31
399.12	681.10
399.32	711.52
399.51	688.12
399.70	730.25
399.90	662.37
400.09	737.27
400.28	798.12
400.47	812.17
400.67	819.19
400.86	809.83
401.05	828.55
401.24	763.01
401.44	891.74
401.63	877.70
401.82	866.00
402.01	770.04
402.21	854.30
402.40	774.72
402.59	856.64
402.78	830.89
402.97	840.25
403.17	851.96
403.36	875.36
403.55	849.61
403.74	1008.77
403.93	931.53
404.13	936.21
404.32	1034.52
404.51	926.85
404.70	980.68
404.89	908.13
405.09	952.60
405.28	1043.88
405.47	945.58
405.66	947.92
405.85	1015.79
406.05	968.98
406.24	940.90
406.43	966.64
406.62	1043.88
406.81	1125.80
407.00	1048.56
407.20	1039.20
407.39	966.64
407.58	1048.56
407.77	1076.65
407.96	1008.77
408.15	1118.78
408.34	1064.94
408.54	1191.33
408.73	1118.78
408.92	1029.84
409.11	1156.22
409.30	1184.31
409.49	1221.76
409.68	1083.67
409.87	1207.72
410.07	1247.51
410.26	1228.78
410.45	1287.29
410.64	1163.25
410.83	1226.44
411.02	1221.76
411.21	1242.82
411.40	1153.88
411.59	1369.21
411.78	1282.61
411.98	1221.76
412.17	1329.42
412.36	1275.59
412.55	1254.53
412.74	1266.23
412.93	1362.19
413.12	1418.36
413.31	1359.85
413.50	1324.74
413.69	1376.24
413.88	1476.88
414.07	1348.15
414.26	1467.52
414.45	1493.26
414.64	1441.77
414.83	1629.01
415.02	1554.12
415.22	1631.35
415.41	1650.08
415.60	1657.10
415.79	1614.97
415.98	1680.50
416.17	1680.50
416.36	1617.31
416.55	1746.04
416.74	1666.46
416.93	1612.63
417.12	1671.14
417.31	1743.70
417.50	1685.19
417.69	1732.00
417.88	1797.53
418.07	1675.82
418.26	1720.29
418.45	1764.76
418.64	1912.22
418.83	1851.36
419.02	1736.68
419.21	1750.72
419.39	1746.04
419.58	1788.17
419.77	1816.26
419.96	1942.64
420.15	1867.75
420.34	1820.94
420.53	1886.47
420.72	1895.83
420.91	1966.05
421.10	1989.46
421.29	2047.97
421.48	2015.20
421.67	1973.07
421.86	1879.45
422.05	1928.60
422.24	1968.39
422.43	1923.92
422.61	1909.88
422.80	2045.63
422.99	1940.30
423.18	2040.95
423.37	2036.27
423.56	2087.76
423.75	2012.86
423.94	1991.80
424.13	1884.13
424.32	2005.84
424.50	1956.69
424.69	2097.12
424.88	2179.04
425.07	2005.84
425.26	1973.07
425.45	1966.05
425.64	2073.71
425.83	2005.84
426.01	2052.65
426.20	2022.22
426.39	2073.71
426.58	2078.40
426.77	2127.55
426.96	2104.14
427.15	2069.03
427.33	2111.16
427.52	2141.59
427.71	2169.68
427.90	2104.14
428.09	2172.02
428.28	2277.34
428.46	2366.28
428.65	2338.20
428.84	2228.19
429.03	2338.20
429.22	2200.10
429.40	2291.38
429.59	2331.17
429.78	2204.78
429.97	2237.55
430.16	2214.15
430.34	2275.00
430.53	2310.11
430.72	2509.05
430.91	2335.85
431.10	2289.04
431.28	2476.29
431.47	2495.01
431.66	2537.14
431.85	2401.39
432.03	2469.27
432.22	2544.16
432.41	2504.37
432.60	2485.65
432.79	2429.48
432.97	2616.72
433.16	2452.88
433.35	2649.49
433.54	2480.97
433.72	2722.04
433.91	2485.65
434.10	2567.57
434.28	2626.08
434.47	2462.24
434.66	2480.97
434.85	2621.40
435.03	2649.49
435.22	2750.13
435.41	2700.98
435.59	2583.95
435.78	2705.66
435.97	2663.53
436.16	2712.68
436.34	2693.96
436.53	2792.26
436.72	2850.77
436.90	2663.53
437.09	2761.83
437.28	2759.49
437.46	2822.69
437.65	2794.60
437.84	2860.13
438.02	2827.37
438.21	2724.38
438.40	2881.20
438.58	2895.24
438.77	2995.89
438.96	2888.22
439.14	2958.44
439.33	2932.69
439.52	2984.18
439.70	3016.95
439.89	2944.39
440.08	3021.63
440.26	3098.87
440.45	3096.53
440.63	3211.22
440.82	3218.24
441.01	3068.44
441.19	3056.74
441.38	3236.96
441.57	3288.45
441.75	3297.81
441.94	3150.36
442.12	3187.81
442.31	3389.10
442.50	3279.09
442.68	3293.13
442.87	3414.84
443.05	3478.04
443.24	3496.76
443.43	3335.26
443.61	3445.27
443.80	3433.57
443.98	3332.92
444.17	3344.63
444.35	3417.18
444.54	3456.97
444.73	3438.25
444.91	3604.42
445.10	3459.31
445.28	3405.48
445.47	3485.06
445.65	3386.76
445.84	3501.44
446.02	3592.72
446.21	3482.72
446.39	3407.82
446.58	3492.08
446.77	3606.77
446.95	3391.44
447.14	3665.28
447.32	3604.42
447.51	3559.95
447.69	3487.40
447.88	3569.32
448.06	3398.46
448.25	3555.27
448.43	3613.79
448.62	3485.06
448.80	3566.98
448.99	3632.51
449.17	3770.60
449.36	3501.44
449.54	3552.93
449.73	3791.67
449.91	3749.54
450.10	3744.86
450.28	3770.60
450.46	3756.56
450.65	3749.54
450.83	3712.09
451.02	3770.60
451.20	3885.29
451.39	3796.35
451.57	3749.54
451.76	3775.28
451.94	3885.29
452.13	3929.76
452.31	3911.04
452.49	3864.22
452.68	3936.78
452.86	3824.44
453.05	4035.08
453.23	4072.53
453.42	3913.38
453.60	3892.31
453.78	4058.49
453.97	3840.82
454.15	3953.16
454.34	3955.51
454.52	3983.59
454.70	3948.48
454.89	4065.51
455.07	4016.36
455.26	4159.13
455.44	4063.17
455.62	4156.79
455.81	4142.75
455.99	4306.59
456.17	4187.22
456.36	4227.01
456.54	4315.95
456.73	4269.14
456.91	4383.82
457.09	4311.27
457.28	4379.14
457.46	4386.16
457.64	4465.74
457.83	4362.76
458.01	4344.03
458.19	4369.78
458.38	4451.70
458.56	4542.98
458.74	4322.97
458.93	4425.95
459.11	4414.25
459.29	4458.72
459.48	4540.64
459.66	4610.86
459.84	4573.41
460.03	4671.71
460.21	4493.83
460.39	4643.62
460.57	4447.02
460.76	4540.64
460.94	4610.86
461.12	4788.74
461.31	4812.14
461.49	4702.14
461.67	4667.03
461.85	4961.94
462.04	4718.52
462.22	4929.17
462.40	4861.29
462.59	4788.74
462.77	4926.83
462.95	4957.25
463.13	4772.35
463.32	4760.65
463.50	4992.36
463.68	5025.13
463.86	4990.02
464.05	4748.95
464.23	4884.70
464.41	4964.28
464.59	4870.65
464.78	4959.60
464.96	4882.36
465.14	4814.48
465.32	5132.79
465.50	5142.16
465.69	5100.03
465.87	5004.07
466.05	5081.30
466.23	4919.81
466.41	4997.04
466.60	5233.44
466.78	5125.77
466.96	5076.62
467.14	5249.82
467.32	5296.63
467.51	5156.20
467.69	5116.41
467.87	5205.35
468.05	5198.33
468.23	5132.79
468.41	5039.17
468.60	5350.46
468.78	5437.06
468.96	5167.90
469.14	5453.45
469.32	5439.40
469.50	5247.48
469.69	5331.74
469.87	5518.98
470.05	5495.58
470.23	5427.70
470.41	5458.13
470.59	5671.12
470.77	5495.58
470.95	5441.75
471.14	5600.90
471.32	5685.16
471.50	5776.44
471.68	5708.57
471.86	5671.12
472.04	5619.63
472.22	5825.59
472.40	5614.95
472.58	5888.79
472.77	5966.03
472.95	6010.50
473.13	6167.31
473.31	5977.73
473.49	5909.85
473.67	5771.76
473.85	6141.57
474.03	6061.99
474.21	6012.84
474.39	6179.01
474.57	6005.81
474.75	6417.75
474.93	6256.25
475.12	6155.61
475.30	6319.45
475.48	6195.40
475.66	6370.94
475.84	6307.74
476.02	6487.96
476.20	6492.65
476.38	6602.65
476.56	6700.95
476.74	6707.98
476.92	6572.22
477.10	6700.95
477.28	6656.48
477.46	6558.18
477.64	6698.61
477.82	6932.67
478.00	7045.01
478.18	6916.28
478.36	7148.00
478.54	7096.50
478.72	7293.11
478.90	7143.32
479.08	7513.12
479.26	7506.10
479.44	7335.24
479.62	7510.78
479.80	7433.54
479.98	7501.42
480.16	7583.34
480.34	7515.46
480.52	7714.41
480.70	7974.21
480.88	7658.23
481.06	7838.45
481.24	7786.96
481.41	8028.04
481.59	7929.74
481.77	8079.53
481.95	8290.18
482.13	8077.19
482.31	8386.14
482.49	8374.44
482.67	8280.82
482.85	8608.49
483.03	8521.89
483.21	8781.69
483.39	8870.63
483.57	8723.18
483.74	8713.81
483.92	9036.81
484.10	8894.04
484.28	8940.85
484.46	9060.21
484.64	9310.65
484.82	9247.46
485.00	9172.56
485.18	9502.58
485.35	9533.00
485.53	9392.57
485.71	9472.15
485.89	9743.65
486.07	9638.33
486.25	9528.32
486.43	9825.57
486.61	9811.53
486.78	9954.30
486.96	10127.50
487.14	10333.47
487.32	10384.96
487.50	10291.34
487.68	10305.38
487.85	10520.71
488.03	10623.69
488.21	10696.25
488.39	10897.53
488.57	10874.13
488.75	11080.10
488.92	10993.50
489.10	11108.18
489.28	10881.15
489.46	11178.40
489.64	11246.27
489.81	11389.05
489.99	11459.26
490.17	11375.00
490.35	11749.49
490.53	11763.53
490.70	11840.77
490.88	11882.90
491.06	11887.58
491.24	11918.01
491.41	12311.22
491.59	12079.50
491.77	12341.64
491.95	12369.73
492.13	12444.63
492.30	12524.21
492.48	12184.83
492.66	12446.97
492.84	12704.43
493.01	12802.73
493.19	12788.69
493.37	12966.57
493.54	12910.40
493.72	12954.87
493.90	13064.87
494.08	13387.86
494.25	13193.60
494.43	13284.88
494.61	13453.40
494.79	13500.21
494.96	13369.14
495.14	13678.09
495.32	14003.43
495.49	13631.28
495.67	13774.05
495.85	14015.13
496.02	14083.00
496.20	14094.71
496.38	14033.85
496.55	14073.64
496.73	14595.58
496.91	14487.92
497.09	14469.19
497.26	14586.22
497.44	14331.10
497.62	14855.38
497.79	14726.65
497.97	14705.59
498.14	14991.13
498.32	15112.84
498.50	14941.98
498.67	14960.70
498.85	14986.45
499.03	15396.04
499.20	15513.07
499.38	15190.08
499.56	15517.75
499.73	15627.76
499.91	15742.44
500.08	15845.43
500.26	15482.64
500.44	15445.20
500.61	15630.10
500.79	15850.11
500.97	15889.90
501.14	16121.61
501.32	16231.62
501.49	16156.72
501.67	16271.40
501.84	16046.71
502.02	16259.70
502.20	16369.71
502.37	16575.67
502.55	16482.05
502.72	16390.77
502.90	16535.88
503.07	16622.48
503.25	16659.93
503.43	16872.92
503.60	16863.56
503.78	16865.90
503.95	16713.77
504.13	16919.73
504.30	16781.64
504.48	16903.35
504.65	17076.55
504.83	17025.06
505.01	17350.39
505.18	17401.88
505.36	17273.15
505.53	17179.53
505.71	17518.91
505.88	17460.40
506.06	17359.75
506.23	17317.62
506.41	17179.53
506.58	17453.37
506.76	17734.24
506.93	17797.43
507.11	17699.13
507.28	17689.77
507.46	17743.60
507.63	17783.39
507.81	18047.87
507.98	18157.88
508.16	17954.25
508.33	18185.96
508.50	18148.51
508.68	18359.16
508.85	18672.79
509.03	18574.49
509.20	18728.97
509.38	18721.95
509.55	18504.28
509.73	18412.99
509.90	18614.28
510.08	18656.41
510.25	18874.08
510.42	18822.59
510.60	18757.05
510.77	19028.56
510.95	19180.69
511.12	19398.36
511.30	19051.96
511.47	19192.39
511.64	19077.71
511.82	19229.84
511.99	19269.63
512.17	19410.06
512.34	19199.41
512.51	19271.97
512.69	19410.06
512.86	19805.61
513.04	19569.22
513.21	19714.33
513.38	19683.91
513.56	20060.73
513.73	19791.57
513.90	19655.82
514.08	19714.33
514.25	20084.14
514.43	20074.77
514.60	19880.51
514.77	20240.95
514.95	20273.72
515.12	19784.55
515.29	20168.40
515.47	20362.66
515.64	20395.43
515.81	20390.75
515.99	20599.05
516.16	20664.59
516.33	20320.53
516.51	20643.52
516.68	21032.05
516.85	20418.83
517.03	20540.54
517.20	20723.10
517.37	20643.52
517.54	21069.50
517.72	20828.43
517.89	21053.12
518.06	20947.79
518.24	20959.50
518.41	21149.08
518.58	21329.30
518.75	21123.33
518.93	21184.19
519.10	21003.97
519.27	21284.83
519.45	21364.41
519.62	21308.24
519.79	21404.20
519.96	21624.21
520.14	21816.13
520.31	21687.40
520.48	21495.48
520.65	21799.75
520.83	22066.57
521.00	21722.51
521.17	21764.64
521.34	21713.15
521.52	21795.07
521.69	21937.84
521.86	22118.06
522.03	22391.91
522.20	22228.07
522.38	22239.77
522.55	22274.88
522.72	21811.45
522.89	22300.62
523.07	22359.14
523.24	22675.11
523.41	22693.83
523.58	22216.36
523.75	22520.63
523.92	22600.21
524.10	22368.50
524.27	22862.35
524.44	22562.76
524.61	22850.65
524.78	23016.83
524.96	22710.22
525.13	23094.07
525.30	22663.41
525.47	23285.99
525.64	22909.16
525.81	23253.22
525.98	23180.67
526.16	23138.54
526.33	23592.60
526.50	23651.11
526.67	23271.95
526.84	23428.76
527.01	22958.31
527.18	23463.87
527.36	23704.95
527.53	23410.04
527.70	23531.75
527.87	23559.83
528.04	23665.16
528.21	23765.80
528.38	23489.62
528.55	24205.82
528.72	23866.44
528.89	23637.07
529.07	23786.86
529.24	24030.28
529.41	24299.44
529.58	24077.09
529.75	24166.03
529.92	23838.36
530.09	23784.52
530.26	23910.91
530.43	24280.72
530.60	23946.02
530.77	24283.06
530.94	24259.65
531.11	24266.67
531.28	24219.86
531.46	24418.81
531.63	24184.76
531.80	24411.79
531.97	24404.77
532.14	24732.44
532.31	24416.47
532.48	24779.25
532.65	24613.07
532.82	24353.27
532.99	24400.08
533.16	24308.80
533.33	24975.86
533.50	25017.99
533.67	24999.26
533.84	24474.98
534.01	24456.26
534.18	24669.25
534.35	25013.31
534.52	24823.72
534.69	24795.64
534.86	25095.22
535.03	25083.52
535.20	25083.52
535.37	25502.48
535.54	25191.19
535.71	24971.18
535.88	25050.75
536.05	25275.45
536.22	25439.28
536.38	25493.12
536.55	25525.88
536.72	25565.67
536.89	25413.54
537.06	25238.00
537.23	25425.24
537.40	25198.21
537.57	25490.77
537.74	25759.94
537.91	25673.34
538.08	26047.82
538.25	25270.76
538.42	25982.29
538.59	25781.00
538.75	25977.61
538.92	25591.42
539.09	25738.87
539.26	26012.71
539.43	25975.27
539.60	26263.15
539.77	26155.49
539.94	26068.89
540.11	25991.65
540.28	25888.67
540.44	25788.02
540.61	25972.92
540.78	26340.39
540.95	25891.01
541.12	26204.64
541.29	25926.11
541.46	26342.73
541.62	26080.59
541.79	26052.50
541.96	26141.44
542.13	26316.98
542.30	26424.65
542.47	26642.32
542.63	26560.40
542.80	26527.63
542.97	26714.87
543.14	26937.23
543.31	26829.56
543.48	26953.61
543.64	26810.84
543.81	27304.69
543.98	26864.67
544.15	27002.76
544.32	26993.40
544.48	27154.90
544.65	27072.98
544.82	27131.49
544.99	26717.22
545.16	27117.45
545.32	27178.30
545.49	27314.05
545.66	27000.42
545.83	27372.57
546.00	27456.82
546.16	27070.64
546.33	27264.90
546.50	27157.24
546.67	27164.26
546.83	26843.60
547.00	27262.56
547.17	27730.67
547.34	27318.73
547.50	27545.76
547.67	27620.66
547.84	27580.87
548.00	27583.21
548.17	27585.55
548.34	27683.86
548.51	27742.37
548.67	27763.43
548.84	27889.82
549.01	27838.33
549.18	27686.20
549.34	27578.53
549.51	27606.62
549.68	27805.56
549.84	27934.29
550.01	27779.82
550.18	27957.70
550.34	28004.51
550.51	28320.48
550.68	28276.01
550.84	27835.99
551.01	28212.82
551.18	28109.83
551.34	28041.96
551.51	28348.57
551.68	28276.01
551.84	28528.79
552.01	27868.76
552.18	28201.11
552.34	28039.62
552.51	28517.09
552.68	28395.38
552.84	28334.53
553.01	28556.88
553.18	28077.07
553.34	28350.91
553.51	28699.65
553.67	28514.75
553.84	28521.77
554.01	28416.44
554.17	28620.07
554.34	28662.20
554.51	28875.19
554.67	28259.63
554.84	28858.81
555.00	29067.11
555.17	28362.61
555.33	28428.15
555.50	28474.96
555.67	28416.44
555.83	28868.17
556.00	28526.45
556.16	29125.63
556.33	28552.20
556.50	28524.11
556.66	29046.05
556.83	28790.93
556.99	29041.37
557.16	29457.98
557.32	29153.71
557.49	29266.06
557.65	28854.12
557.82	28987.53
557.98	28994.56
558.15	29247.33
558.32	29221.59
558.48	29322.23
558.65	29317.55
558.81	29010.94
558.98	29153.71
559.14	29123.29
559.31	29050.73
559.47	29207.55
559.64	29415.85
559.80	29184.14
559.97	29230.95
560.13	29273.08
560.30	29450.96
560.46	29331.59
560.63	29319.89
560.79	29603.10
560.96	29371.38
561.12	29713.10
561.29	29413.51
561.45	29425.22
561.61	29418.19
561.78	29219.25
561.94	29539.90
562.11	29446.28
562.27	29254.36
562.44	29172.44
562.60	29832.47
562.77	29298.83
562.93	29151.37
563.10	29949.50
563.26	29511.81
563.42	29528.20
563.59	29549.26
563.75	29804.38
563.92	29965.88
564.08	29343.30
564.24	29961.20
564.41	29465.00
564.57	29481.39
564.74	29415.85
564.90	29923.75
565.07	30064.18
565.23	29670.97
565.39	29453.30
565.56	30298.23
565.72	29659.27
565.88	29603.10
566.05	29441.60
566.21	29898.00
566.38	29589.05
566.54	29460.32
566.70	29806.72
566.87	30272.49
567.03	29970.56
567.19	30068.86
567.36	29867.58
567.52	29687.36
567.68	29670.97
567.85	29596.07
568.01	30005.67
568.17	30150.78
568.34	29954.18
568.50	29991.62
568.66	30436.33
568.83	29659.27
568.99	30103.97
569.15	29996.31
569.32	29984.60
569.48	29825.45
569.64	30305.26
569.81	30157.80
569.97	29919.07
570.13	30061.84
570.30	30073.54
570.46	30646.97
570.62	29996.31
570.78	29907.37
570.95	29851.19
571.11	30335.68
571.27	29600.76
571.43	30108.65
571.60	30075.88
571.76	30295.89
571.92	29895.66
572.09	30253.76
572.25	30073.54
572.41	30354.41
572.57	30813.15
572.74	30361.43
572.90	30223.34
573.06	30356.75
573.22	30361.43
573.38	30401.22
573.55	30190.57
573.71	31028.48
573.87	30279.51
574.03	30541.65
574.20	30342.70
574.36	30265.47
574.52	29979.92
574.68	30000.99
574.84	30405.90
575.01	30235.04
575.17	30389.52
575.33	30251.42
575.49	30459.73
575.65	30080.56
575.82	30071.20
575.98	30230.36
576.14	30237.38
576.30	30235.04
576.46	30338.02
576.62	30075.88
576.79	30155.46
576.95	30300.58
577.11	30441.01
577.27	30583.78
577.43	30490.16
577.59	30628.25
577.75	30700.81
577.92	30178.87
578.08	30345.05
578.24	30171.85
578.40	30527.61
578.56	30096.95
578.72	30429.30
578.88	30984.01
579.04	31030.82
579.21	30462.07
579.37	30494.84
579.53	30286.53
579.69	30527.61
579.85	30508.88
580.01	30394.20
580.17	30120.35
580.33	30410.58
580.49	30403.56
580.65	30644.63
580.82	30630.59
580.98	30162.48
581.14	30663.36
581.30	30764.00
581.46	30417.60
581.62	30656.34
581.78	30209.29
581.94	30621.23
582.10	30508.88
582.26	30515.90
582.42	30394.20
582.58	30572.08
582.74	30689.10
582.90	30419.94
583.06	30754.64
583.22	30555.69
583.38	30338.02
583.54	30567.40
583.70	30494.84
583.86	30441.01
584.02	31065.93
584.18	30864.64
584.34	30644.63
584.50	30934.86
584.66	30642.29
584.82	29937.79
584.98	30277.17
585.14	30483.14
585.30	30316.96
585.46	30852.94
585.62	30354.41
585.78	30909.11
585.94	30396.54
586.10	30583.78
586.26	30911.46
586.42	30808.47
586.58	30541.65
586.74	30508.88
586.90	30263.13
587.06	30433.99
587.22	30424.62
587.38	30768.68
587.54	30590.80
587.70	31246.15
587.86	31108.06
588.02	30719.53
588.18	30693.79
588.34	30848.26
588.49	30689.10
588.65	30820.17
588.81	30717.19
588.97	30991.03
589.13	30539.31
589.29	30485.48
589.45	31260.20
589.61	31065.93
589.77	30941.88
589.93	31021.46
590.08	31037.84
590.24	30995.71
590.40	30995.71
590.56	30923.16
590.72	30614.21
590.88	30754.64
591.04	30998.06
591.20	31213.38
591.35	31009.76
591.51	31337.43
591.67	31316.37
591.83	31510.63
