SpectraSuite Data File
++++++++++++++++++++++++++++++++++++
Date: Fri Oct 18 13:58:32 GMT-05:00 2013
User: bianchi
Dark Spectrum Present: No
Reference Spectrum Present: No
Number of Sampled Component Spectra: 1
Spectrometers: USB2+H05261
Integration Time (usec): 50000 (USB2+H05261)
Spectra Averaged: 1 (USB2+H05261)
Boxcar Smoothing: 0 (USB2+H05261)
Correct for Electrical Dark: No (USB2+H05261)
Strobe/Lamp Enabled: No (USB2+H05261)
Correct for Detector Non-linearity: No (USB2+H05261)
Correct for Stray Light: No (USB2+H05261)
Number of Pixels in Processed Spectrum: 2048
>>>>>Begin Processed Spectral Data<<<<<
365.73	7.02
365.92	7.02
366.12	7.02
366.32	0.00
366.52	0.00
366.72	0.00
366.91	0.00
367.11	0.00
367.31	0.00
367.51	0.00
367.70	0.00
367.90	0.00
368.10	0.00
368.30	0.00
368.49	0.00
368.69	0.00
368.89	0.00
369.09	0.00
369.28	0.00
369.48	0.00
369.68	0.00
369.87	0.00
370.07	0.00
370.27	0.00
370.47	0.00
370.66	74.90
370.86	91.28
371.06	131.07
371.25	105.32
371.45	154.48
371.65	191.92
371.84	131.07
372.04	154.48
372.24	201.29
372.44	159.16
372.63	170.86
372.83	212.99
373.03	215.33
373.22	198.95
373.42	224.69
373.62	147.45
373.81	243.42
374.01	266.82
374.21	220.01
374.40	257.46
374.60	348.74
374.79	212.99
374.99	250.44
375.19	304.27
375.38	283.20
375.58	241.08
375.78	334.70
375.97	229.37
376.17	297.25
376.37	330.02
376.56	238.73
376.76	222.35
376.95	180.22
377.15	257.46
377.35	243.42
377.54	313.63
377.74	276.18
377.93	280.86
378.13	227.03
378.33	276.18
378.52	234.05
378.72	250.44
378.91	264.48
379.11	264.48
379.31	227.03
379.50	241.08
379.70	278.52
379.89	257.46
380.09	297.25
380.28	278.52
380.48	304.27
380.68	344.06
380.87	299.59
381.07	334.70
381.26	294.91
381.46	334.70
381.65	257.46
381.85	304.27
382.04	262.14
382.24	348.74
382.43	416.62
382.63	315.97
382.83	308.95
383.02	397.89
383.22	435.34
383.41	245.76
383.61	362.78
383.80	369.80
384.00	362.78
384.19	353.42
384.39	430.66
384.58	416.62
384.78	360.44
384.97	404.91
385.17	463.43
385.36	325.33
385.56	411.93
385.75	402.57
385.95	330.02
386.14	334.70
386.34	322.99
386.53	367.46
386.72	390.87
386.92	418.96
387.11	409.59
387.31	386.19
387.50	444.70
387.70	280.86
387.89	444.70
388.09	444.70
388.28	423.64
388.48	449.38
388.67	423.64
388.86	456.40
389.06	437.68
389.25	409.59
389.45	510.24
389.64	463.43
389.84	491.51
390.03	512.58
390.22	482.15
390.42	479.81
390.61	592.16
390.81	503.22
391.00	507.90
391.19	503.22
391.39	526.62
391.58	503.22
391.78	468.11
391.97	491.51
392.16	514.92
392.36	491.51
392.55	524.28
392.75	566.41
392.94	617.90
393.13	538.32
393.33	550.03
393.52	528.96
393.71	545.34
393.91	582.79
394.10	681.10
394.29	615.56
394.49	561.73
394.68	587.47
394.88	533.64
395.07	592.16
395.26	599.18
395.46	641.31
395.65	676.41
395.84	617.90
396.04	636.63
396.23	580.45
396.42	578.11
396.62	575.77
396.81	734.93
397.00	596.84
397.19	690.46
397.39	662.37
397.58	610.88
397.77	674.07
397.97	657.69
398.16	704.50
398.35	697.48
398.55	671.73
398.74	732.59
398.93	746.63
399.12	657.69
399.32	641.31
399.51	657.69
399.70	765.36
399.90	706.84
400.09	760.67
400.28	812.17
400.47	802.80
400.67	767.70
400.86	716.20
401.05	770.04
401.24	709.18
401.44	816.85
401.63	896.43
401.82	866.00
402.01	786.42
402.21	758.33
402.40	772.38
402.59	704.50
402.78	830.89
402.97	908.13
403.17	844.93
403.36	753.65
403.55	840.25
403.74	882.38
403.93	880.04
404.13	922.17
404.32	931.53
404.51	915.15
404.70	945.58
404.89	912.81
405.09	945.58
405.28	997.07
405.47	971.32
405.66	1029.84
405.85	896.43
406.05	875.36
406.24	968.98
406.43	952.60
406.62	922.17
406.81	1071.97
407.00	1100.05
407.20	1074.31
407.39	959.62
407.58	1004.09
407.77	973.66
407.96	1050.90
408.15	1090.69
408.34	1102.39
408.54	1046.22
408.73	1062.60
408.92	1149.20
409.11	1158.57
409.30	1104.73
409.49	1095.37
409.68	1055.58
409.87	1121.12
410.07	1135.16
410.26	1270.91
410.45	1057.92
410.64	1144.52
410.83	1172.61
411.02	1254.53
411.21	1170.27
411.40	1156.22
411.59	1291.98
411.78	1270.91
411.98	1256.87
412.17	1327.08
412.36	1247.51
412.55	1385.60
412.74	1404.32
412.93	1371.55
413.12	1291.98
413.31	1409.00
413.50	1322.40
413.69	1301.34
413.88	1418.36
414.07	1371.55
414.26	1327.08
414.45	1345.81
414.64	1530.71
414.83	1465.18
415.02	1413.68
415.22	1390.28
415.41	1479.22
415.60	1497.94
415.79	1497.94
415.98	1523.69
416.17	1685.19
416.36	1610.29
416.55	1556.46
416.74	1680.50
416.93	1596.25
417.12	1696.89
417.31	1645.40
417.50	1636.03
417.69	1748.38
417.88	1605.61
418.07	1689.87
418.26	1771.79
418.45	1699.23
418.64	1785.83
418.83	1813.92
419.02	1696.89
419.21	1783.49
419.39	1952.01
419.58	1785.83
419.77	1799.87
419.96	1830.30
420.15	1797.53
420.34	1799.87
420.53	1895.83
420.72	1912.22
420.91	1863.07
421.10	1905.20
421.29	1998.82
421.48	1846.68
421.67	1973.07
421.86	1788.17
422.05	2050.31
422.24	1830.30
422.43	1982.43
422.61	2022.22
422.80	2099.46
422.99	1956.69
423.18	1898.17
423.37	2017.54
423.56	1874.77
423.75	1921.58
423.94	1940.30
424.13	1839.66
424.32	1914.56
424.50	1975.41
424.69	2040.95
424.88	1982.43
425.07	1930.94
425.26	1872.43
425.45	2076.06
425.64	1928.60
425.83	2043.29
426.01	2031.58
426.20	2071.37
426.39	2054.99
426.58	1956.69
426.77	2043.29
426.96	2111.16
427.15	1994.14
427.33	2155.63
427.52	1954.35
427.71	2150.95
427.90	2040.95
428.09	2083.08
428.28	2148.61
428.46	2195.42
428.65	2099.46
428.84	2258.62
429.03	2291.38
429.22	2195.42
429.40	2190.74
429.59	2317.13
429.78	2200.10
429.97	2195.42
430.16	2167.34
430.34	2200.10
430.53	2338.20
430.72	2377.98
430.91	2284.36
431.10	2277.34
431.28	2298.41
431.47	2333.51
431.66	2373.30
431.85	2324.15
432.03	2377.98
432.22	2429.48
432.41	2476.29
432.60	2396.71
432.79	2352.24
432.97	2420.11
433.16	2401.39
433.35	2476.29
433.54	2427.14
433.72	2457.56
433.91	2537.14
434.10	2497.35
434.28	2399.05
434.47	2579.27
434.66	2525.44
434.85	2502.03
435.03	2663.53
435.22	2569.91
435.41	2708.00
435.59	2607.36
435.78	2642.46
435.97	2581.61
436.16	2677.57
436.34	2623.74
436.53	2754.81
436.72	2724.38
436.90	2574.59
437.09	2600.34
437.28	2654.17
437.46	2661.19
437.65	2686.94
437.84	2796.94
438.02	2822.69
438.21	2696.30
438.40	2637.78
438.58	2818.00
438.77	2855.45
438.96	2787.58
439.14	2862.48
439.33	2752.47
439.52	2951.42
439.70	2904.60
439.89	2888.22
440.08	2965.46
440.26	2991.20
440.45	3075.46
440.63	3030.99
440.82	2967.80
441.01	3087.17
441.19	3115.25
441.38	3026.31
441.57	3159.72
441.75	3206.53
441.94	3131.64
442.12	3208.87
442.31	3208.87
442.50	3218.24
442.68	3211.22
442.87	3307.18
443.05	3155.04
443.24	3318.88
443.43	3145.68
443.61	3365.69
443.80	3463.99
443.98	3124.62
444.17	3162.06
444.35	3412.50
444.54	3384.41
444.73	3391.44
444.91	3304.84
445.10	3239.30
445.28	3365.69
445.47	3389.10
445.65	3471.01
445.84	3487.40
446.02	3445.27
446.21	3566.98
446.39	3428.88
446.58	3536.55
446.77	3410.16
446.95	3428.88
447.14	3613.79
447.32	3557.61
447.51	3440.59
447.69	3449.95
447.88	3501.44
448.06	3524.85
448.25	3473.36
448.43	3480.38
448.62	3414.84
448.80	3461.65
448.99	3534.21
449.17	3475.70
449.36	3428.88
449.54	3492.08
449.73	3712.09
449.91	3632.51
450.10	3510.80
450.28	3548.25
450.46	3714.43
450.65	3618.47
450.83	3779.97
451.02	3698.05
451.20	3623.15
451.39	3634.85
451.57	3669.96
451.76	3709.75
451.94	3779.97
452.13	3829.12
452.31	3815.07
452.49	3674.64
452.68	3887.63
452.86	3866.56
453.05	3920.40
453.23	3992.95
453.42	3850.18
453.60	3772.94
453.78	3829.12
453.97	3927.42
454.15	3723.79
454.34	3822.09
454.52	3948.48
454.70	3871.25
454.89	3833.80
455.07	3796.35
455.26	4053.81
455.44	4236.37
455.62	4004.66
455.81	4067.85
455.99	4112.32
456.17	4004.66
456.36	4065.51
456.54	4189.56
456.73	4121.68
456.91	4311.27
457.09	4205.94
457.28	4304.25
457.46	4227.01
457.64	4346.37
457.83	4276.16
458.01	4269.14
458.19	4325.31
458.38	4397.87
458.56	4447.02
458.74	4379.14
458.93	4430.63
459.11	4379.14
459.29	4315.95
459.48	4496.17
459.66	4507.87
459.84	4383.82
460.03	4484.47
460.21	4517.23
460.39	4547.66
460.57	4470.42
460.76	4585.11
460.94	4683.41
461.12	4531.28
461.31	4601.49
461.49	4683.41
461.67	4507.87
461.85	4704.48
462.04	4702.14
462.22	4924.49
462.40	4706.82
462.59	4788.74
462.77	4615.54
462.95	4711.50
463.13	4676.39
463.32	4725.54
463.50	4802.78
463.68	4767.67
463.86	4777.03
464.05	4767.67
464.23	4669.37
464.41	4884.70
464.59	4627.24
464.78	4793.42
464.96	4922.15
465.14	4718.52
465.32	4865.97
465.50	5001.72
465.69	4943.21
465.87	4732.56
466.05	4905.76
466.23	4851.93
466.41	5008.75
466.60	5144.50
466.78	5050.88
466.96	5104.71
467.14	4933.85
467.32	5008.75
467.51	5118.75
467.69	4943.21
467.87	5036.83
468.05	5064.92
468.23	5088.32
468.41	5041.51
468.60	5123.43
468.78	5118.75
468.96	5111.73
469.14	5184.29
469.32	5315.36
469.50	5170.24
469.69	5200.67
469.87	5371.53
470.05	5350.46
470.23	5376.21
470.41	5408.98
470.59	5577.50
470.77	5359.83
470.95	5441.75
471.14	5523.66
471.32	5547.07
471.50	5511.96
471.68	5563.45
471.86	5692.18
472.04	5582.18
472.22	5610.26
472.40	5640.69
472.58	5626.65
472.77	5891.13
472.95	5865.38
473.13	5757.72
473.31	5764.74
473.49	5612.60
473.67	5715.59
473.85	5654.73
474.03	6001.13
474.21	6050.28
474.39	6061.99
474.57	6026.88
474.75	6083.05
474.93	6094.76
475.12	6162.63
475.30	6083.05
475.48	6242.21
475.66	6188.38
475.84	6167.31
476.02	6265.61
476.20	6174.33
476.38	6286.68
476.56	6516.05
476.74	6583.93
476.92	6494.99
477.10	6410.73
477.28	6487.96
477.46	6572.22
477.64	6471.58
477.82	6590.95
478.00	6963.09
478.18	6815.64
478.36	6850.75
478.54	6911.60
478.72	7000.54
478.90	6906.92
479.08	6986.50
479.26	7126.93
479.44	7077.78
479.62	7391.41
479.80	7204.17
479.98	7300.13
480.16	7506.10
480.34	7478.01
480.52	7740.15
480.70	7475.67
480.88	7529.50
481.06	7634.83
481.24	7517.80
481.41	7822.07
481.59	7922.71
481.77	7992.93
481.95	7911.01
482.13	8063.15
482.31	7995.27
482.49	7948.46
482.67	7941.44
482.85	8224.64
483.03	8280.82
483.21	8468.06
483.39	8484.44
483.57	8552.32
483.74	8507.85
483.92	8730.20
484.10	8566.36
484.28	8554.66
484.46	8931.48
484.64	9029.79
484.82	8788.71
485.00	8968.93
485.18	9102.34
485.35	9202.99
485.53	9483.85
485.71	9357.46
485.89	9284.91
486.07	9343.42
486.25	9392.57
486.43	9486.19
486.61	9479.17
486.78	9682.80
486.96	9675.77
487.14	10026.86
487.32	9921.53
487.50	9708.54
487.68	10061.96
487.85	10129.84
488.03	10457.51
488.21	10497.30
488.39	10520.71
488.57	10640.08
488.75	10497.30
488.92	10672.84
489.10	10693.91
489.28	10775.83
489.46	11019.24
489.64	10876.47
489.81	11241.59
489.99	11176.06
490.17	11119.89
490.35	11190.10
490.53	11438.20
490.70	11456.92
490.88	11522.46
491.06	11475.65
491.24	11637.14
491.41	11665.23
491.59	11702.68
491.77	11707.36
491.95	12079.50
492.13	11826.73
492.30	12152.06
492.48	12191.85
492.66	12138.02
492.84	12093.55
493.01	12409.52
493.19	12093.55
493.37	12435.27
493.54	12592.08
493.72	12571.02
493.90	12833.16
494.08	13097.64
494.25	12982.95
494.43	12793.37
494.61	12943.16
494.79	13465.10
494.96	13132.75
495.14	13303.60
495.32	13310.63
495.49	13294.24
495.67	13633.62
495.85	13490.85
496.02	13568.09
496.20	13802.14
496.38	13633.62
496.55	13757.67
496.73	14038.53
496.91	13898.10
497.09	14183.65
497.26	14207.05
497.44	14143.86
497.62	14230.46
497.79	14410.68
497.97	14466.85
498.14	14487.92
498.32	14487.92
498.50	14684.52
498.67	15068.37
498.85	14946.66
499.03	14616.65
499.20	14913.89
499.38	15000.49
499.56	15115.18
499.73	14853.04
499.91	15077.73
500.08	15040.28
500.26	14972.41
500.44	15225.18
500.61	15243.91
500.79	15218.16
500.97	15433.49
501.14	15604.35
501.32	15688.61
501.49	15735.42
501.67	15459.24
501.84	15693.29
502.02	15683.93
502.20	15726.06
502.37	15775.21
502.55	15894.58
502.72	16105.23
502.90	16027.99
503.07	16175.44
503.25	16128.63
503.43	16276.09
503.60	16098.20
503.78	16437.58
503.95	16594.40
504.13	16159.06
504.30	16353.32
504.48	16407.16
504.65	16634.19
504.83	16692.70
505.01	16716.11
505.18	16678.66
505.36	16879.94
505.53	16926.75
505.71	16903.35
505.88	16645.89
506.06	16978.25
506.23	17242.73
506.41	17137.40
506.58	17245.07
506.76	17226.34
506.93	17116.34
507.11	17097.61
507.28	17216.98
507.46	17329.33
507.63	17137.40
507.81	17507.21
507.98	17364.43
508.16	17511.89
508.33	17373.80
508.50	17422.95
508.68	17743.60
508.85	17783.39
509.03	17846.58
509.20	17972.97
509.38	18148.51
509.55	17965.95
509.73	18129.79
509.90	18359.16
510.08	17987.02
510.25	17982.34
510.42	18106.38
510.60	18705.56
510.77	18302.99
510.95	18714.92
511.12	18560.45
511.30	18438.74
511.47	18604.92
511.64	18464.49
511.82	18998.13
511.99	18937.27
512.17	18773.44
512.34	19033.24
512.51	19002.81
512.69	19021.53
512.86	19136.22
513.04	19040.26
513.21	19325.80
513.38	19002.81
513.56	18967.70
513.73	18871.74
513.90	19019.19
514.08	19042.60
514.25	19084.73
514.43	19564.54
514.60	19653.48
514.77	19520.07
514.95	19726.04
515.12	19473.26
515.29	19604.33
515.47	19389.00
515.64	19873.49
515.81	19356.23
515.99	19676.88
516.16	20056.05
516.33	20121.59
516.51	20329.89
516.68	19892.21
516.85	20018.60
517.03	20053.71
517.20	20271.38
517.37	20479.69
517.54	20379.04
517.72	20191.80
517.89	20198.82
518.06	20217.55
518.24	20493.73
518.41	20355.64
518.58	20100.52
518.75	20519.48
518.93	20512.46
519.10	20381.38
519.27	20650.55
519.45	20690.34
519.62	20790.98
519.79	20781.62
519.96	20950.14
520.14	20844.81
520.31	20608.42
520.48	20840.13
520.65	20861.19
520.83	21076.52
521.00	21156.10
521.17	20985.24
521.34	21179.51
521.52	21097.59
521.69	21018.01
521.86	21317.60
522.03	21443.99
522.20	21401.86
522.38	21649.96
522.55	21200.57
522.72	21757.62
522.89	22115.72
523.07	21811.45
523.24	21736.56
523.41	21940.18
523.58	21703.79
523.75	21923.80
523.92	21664.00
524.10	21923.80
524.27	22010.40
524.44	22024.44
524.61	22043.17
524.78	22026.78
524.96	22012.74
525.13	22169.55
525.30	22349.78
525.47	22267.86
525.64	22319.35
525.81	22321.69
525.98	22478.50
526.16	22272.54
526.33	22630.64
526.50	22501.91
526.67	22773.41
526.84	22670.43
527.01	22647.02
527.18	22394.25
527.36	22567.45
527.53	22857.67
527.70	23293.01
527.87	23089.38
528.04	22890.44
528.21	23119.81
528.38	22836.61
528.55	23218.11
528.72	22937.25
528.89	23051.94
529.07	23087.04
529.24	23061.30
529.41	23271.95
529.58	22829.59
529.75	23044.91
529.92	22998.10
530.09	23061.30
530.26	23400.68
530.43	23562.17
530.60	23466.21
530.77	23152.58
530.94	23861.76
531.11	23183.01
531.28	23396.00
531.46	23571.54
531.63	23646.43
531.80	23800.91
531.97	23578.56
532.14	23403.02
532.31	23784.52
532.48	23831.33
532.65	23831.33
532.82	23580.90
532.99	23569.19
533.16	24128.58
533.33	23749.42
533.50	23915.59
533.67	24091.13
533.84	24032.62
534.01	24126.24
534.18	24346.25
534.35	23988.15
534.52	24374.34
534.69	24355.61
534.86	24257.31
535.03	24304.12
535.20	24201.14
535.37	24130.92
535.54	24348.59
535.71	24194.12
535.88	24327.53
536.05	24257.31
536.22	24390.72
536.38	24875.21
536.55	24484.34
536.72	24411.79
536.89	24662.22
537.06	24795.64
537.23	24482.00
537.40	24456.26
537.57	24294.76
537.74	24936.07
537.91	25034.37
538.08	24830.74
538.25	24964.15
538.42	25212.25
538.59	24620.10
538.75	24451.58
538.92	25036.71
539.09	25153.74
539.26	25357.36
539.43	25235.66
539.60	25504.82
539.77	24987.56
539.94	25078.84
540.11	25439.28
540.28	24896.28
540.44	25371.41
540.61	25280.13
540.78	25345.66
540.95	25671.00
541.12	25472.05
541.29	25518.86
541.46	25202.89
541.62	25149.06
541.79	25230.98
541.96	25596.10
542.13	25200.55
542.30	25610.14
542.47	25970.58
542.63	25708.44
542.80	25773.98
542.97	26073.57
543.14	25956.54
543.31	25975.27
543.48	25783.34
543.64	26120.38
543.81	26225.70
543.98	26291.24
544.15	26122.72
544.32	26225.70
544.48	26221.02
544.65	26171.87
544.82	25998.67
544.99	26092.29
545.16	26202.30
545.32	26047.82
545.49	25993.99
545.66	26946.59
545.83	26529.97
546.00	26501.89
546.16	26249.11
546.33	26120.38
546.50	26342.73
546.67	26335.71
546.83	26115.70
547.00	26436.35
547.17	26230.38
547.34	26380.18
547.50	26593.17
547.67	26850.63
547.84	26906.80
548.00	26649.34
548.17	26644.66
548.34	26485.50
548.51	26984.04
548.67	26946.59
548.84	26869.35
549.01	26806.16
549.18	26672.74
549.34	26808.50
549.51	26625.93
549.68	26754.66
549.84	26930.20
550.01	27119.79
550.18	27285.97
550.34	27243.84
550.51	27246.18
550.68	27206.39
550.84	26902.12
551.01	27489.59
551.18	26778.07
551.34	26906.80
551.51	27108.08
551.68	27311.71
551.84	27154.90
552.01	26995.74
552.18	27494.27
552.34	27342.14
552.51	27466.19
552.68	26909.14
552.84	27197.02
553.01	27346.82
553.18	27395.97
553.34	27072.98
553.51	27637.05
553.67	27360.86
553.84	27606.62
554.01	27711.94
554.17	27292.99
554.34	27484.91
554.51	27342.14
554.67	27709.60
554.84	27807.90
555.00	27962.38
555.17	27548.11
555.33	27501.29
555.50	27573.85
555.67	27597.26
555.83	27487.25
556.00	27693.22
556.16	28027.92
556.33	27711.94
556.50	27878.12
556.66	28006.85
556.83	27924.93
556.99	28196.43
557.16	28498.36
557.32	28098.13
557.49	28030.26
557.65	27704.92
557.82	27924.93
557.98	27953.02
558.15	27967.06
558.32	27840.67
558.48	28048.98
558.65	28552.20
558.81	28311.12
558.98	28135.58
559.14	28194.09
559.31	28074.73
559.47	28273.67
559.64	28268.99
559.80	28531.13
559.97	28334.53
560.13	28056.00
560.30	28659.86
560.46	28519.43
560.63	28364.95
560.79	28219.84
560.96	28353.25
561.12	28765.18
561.29	28561.56
561.45	28044.30
561.61	28388.36
561.78	28395.38
561.94	28514.75
562.11	28648.16
562.27	28381.34
562.44	28051.32
562.60	28507.72
562.77	28884.55
562.93	27915.57
563.10	28542.83
563.26	28271.33
563.42	28945.41
563.59	28725.39
563.75	28596.67
563.92	28676.24
564.08	28652.84
564.24	28624.75
564.41	28250.27
564.57	28568.58
564.74	28837.74
564.90	28512.41
565.07	28765.18
565.23	28856.46
565.39	28259.63
565.56	28542.83
565.72	28676.24
565.88	28481.98
566.05	28538.15
566.21	28765.18
566.38	29195.84
566.54	28844.76
566.70	28931.36
566.87	29261.38
567.03	28863.49
567.19	28922.00
567.36	29071.79
567.52	28582.62
567.68	28610.71
567.85	28638.80
568.01	28730.08
568.17	28704.33
568.34	29022.64
568.50	29160.73
568.66	28451.55
568.83	29198.18
568.99	28716.03
569.15	28947.75
569.32	28779.23
569.48	28624.75
569.64	28961.79
569.81	28926.68
569.97	28741.78
570.13	29067.11
570.30	29055.41
570.46	29226.27
570.62	29036.69
570.78	28802.63
570.95	29123.29
571.11	28540.49
571.27	28601.35
571.43	29003.92
571.60	29249.67
571.76	29158.39
571.92	29076.48
572.09	29001.58
572.25	29050.73
572.41	29104.56
572.57	29394.79
572.74	28788.59
572.90	28898.59
573.06	29074.13
573.22	29186.48
573.38	29123.29
573.55	29139.67
573.71	29432.24
573.87	29097.54
574.03	29244.99
574.20	29326.91
574.36	28762.84
574.52	29263.72
574.68	28533.47
574.84	29006.26
575.01	28999.24
575.17	29226.27
575.33	28861.15
575.49	29064.77
575.65	29149.03
575.82	29523.52
575.98	29399.47
576.14	29010.94
576.30	29209.89
576.46	29106.90
576.62	29125.63
576.79	28886.89
576.95	29235.63
577.11	29149.03
577.27	29228.61
577.43	28947.75
577.59	29401.81
577.75	29329.25
577.92	29137.33
578.08	29095.20
578.24	29090.52
578.40	29254.36
578.56	29305.85
578.72	29532.88
578.88	29640.54
579.04	29661.61
579.21	29158.39
579.37	29280.10
579.53	29790.34
579.69	28961.79
579.85	28938.38
580.01	29312.87
580.17	28943.06
580.33	29268.40
580.49	29195.84
580.65	29331.59
580.82	29879.28
580.98	29270.74
581.14	29046.05
581.30	29783.32
581.46	29247.33
581.62	29170.10
581.78	29216.91
581.94	29380.74
582.10	29277.76
582.26	29343.30
582.42	28917.32
582.58	29853.53
582.74	29024.98
582.90	29254.36
583.06	29776.30
583.22	29205.20
583.38	29507.13
583.54	29120.95
583.70	29193.50
583.86	29462.66
584.02	29329.25
584.18	29771.61
584.34	29626.50
584.50	29537.56
584.66	29359.68
584.82	29790.34
584.98	29586.71
585.14	29415.85
585.30	29326.91
585.46	29584.37
585.62	29556.28
585.78	29537.56
585.94	29046.05
586.10	29696.72
586.26	29366.70
586.42	29626.50
586.58	29638.20
586.74	29724.80
586.90	29275.42
587.06	28844.76
587.22	29565.65
587.38	29219.25
587.54	29717.78
587.70	29617.14
587.86	29624.16
588.02	29509.47
588.18	29472.03
588.34	29474.37
588.49	29752.89
588.65	29563.31
588.81	29656.93
588.97	29949.50
589.13	29434.58
589.29	29483.73
589.45	29750.55
589.61	29965.88
589.77	29837.15
589.93	29631.18
590.08	29940.13
590.24	30155.46
590.40	29986.94
590.56	30003.33
590.72	29848.85
590.88	29319.89
591.04	29450.96
591.20	29853.53
591.35	29696.72
591.51	30401.22
591.67	29874.60
591.83	30139.08
591.99	29797.36
