SpectraSuite Data File
++++++++++++++++++++++++++++++++++++
Date: Fri Oct 18 13:58:13 GMT-05:00 2013
User: bianchi
Dark Spectrum Present: No
Reference Spectrum Present: No
Number of Sampled Component Spectra: 1
Spectrometers: USB2+H05261
Integration Time (usec): 50000 (USB2+H05261)
Spectra Averaged: 1 (USB2+H05261)
Boxcar Smoothing: 0 (USB2+H05261)
Correct for Electrical Dark: No (USB2+H05261)
Strobe/Lamp Enabled: No (USB2+H05261)
Correct for Detector Non-linearity: No (USB2+H05261)
Correct for Stray Light: No (USB2+H05261)
Number of Pixels in Processed Spectrum: 2048
>>>>>Begin Processed Spectral Data<<<<<
365.73	0.00
365.92	0.00
366.12	0.00
366.32	0.00
366.52	0.00
366.72	0.00
366.91	0.00
367.11	0.00
367.31	0.00
367.51	0.00
367.70	0.00
367.90	0.00
368.10	0.00
368.30	0.00
368.49	0.00
368.69	0.00
368.89	0.00
369.09	0.00
369.28	0.00
369.48	0.00
369.68	0.00
369.87	0.00
370.07	0.00
370.27	0.00
370.47	0.00
370.66	72.56
370.86	128.73
371.06	95.96
371.25	168.52
371.45	177.88
371.65	220.01
371.84	138.09
372.04	220.01
372.24	191.92
372.44	175.54
372.63	166.18
372.83	248.10
373.03	217.67
373.22	294.91
373.42	201.29
373.62	231.71
373.81	203.63
374.01	250.44
374.21	294.91
374.40	252.78
374.60	212.99
374.79	149.79
374.99	222.35
375.19	168.52
375.38	262.14
375.58	266.82
375.78	273.84
375.97	252.78
376.17	304.27
376.37	222.35
376.56	243.42
376.76	231.71
376.95	273.84
377.15	273.84
377.35	318.31
377.54	325.33
377.74	243.42
377.93	255.12
378.13	278.52
378.33	308.95
378.52	264.48
378.72	332.36
378.91	257.46
379.11	252.78
379.31	234.05
379.50	269.16
379.70	362.78
379.89	418.96
380.09	297.25
380.28	306.61
380.48	318.31
380.68	344.06
380.87	301.93
381.07	337.04
381.26	348.74
381.46	290.23
381.65	318.31
381.85	365.12
382.04	337.04
382.24	393.21
382.43	383.85
382.63	337.04
382.83	369.80
383.02	409.59
383.22	299.59
383.41	414.27
383.61	383.85
383.80	493.85
384.00	421.30
384.19	365.12
384.39	327.68
384.58	337.04
384.78	325.33
384.97	355.76
385.17	414.27
385.36	411.93
385.56	433.00
385.75	367.46
385.95	484.49
386.14	383.85
386.34	416.62
386.53	425.98
386.72	414.27
386.92	409.59
387.11	425.98
387.31	379.17
387.50	447.04
387.70	456.40
387.89	400.23
388.09	430.66
388.28	404.91
388.48	428.32
388.67	477.47
388.86	470.45
389.06	360.44
389.25	447.04
389.45	421.30
389.64	510.24
389.84	491.51
390.03	447.04
390.22	472.79
390.42	458.74
390.61	507.90
390.81	465.77
391.00	491.51
391.19	514.92
391.39	482.15
391.58	510.24
391.78	514.92
391.97	468.11
392.16	528.96
392.36	589.82
392.55	531.30
392.75	540.66
392.94	580.45
393.13	540.66
393.33	550.03
393.52	500.87
393.71	620.24
393.91	547.69
394.10	620.24
394.29	547.69
394.49	573.43
394.68	608.54
394.88	606.20
395.07	643.65
395.26	610.88
395.46	545.34
395.65	617.90
395.84	674.07
396.04	603.86
396.23	629.60
396.42	638.97
396.62	674.07
396.81	678.76
397.00	608.54
397.19	643.65
397.39	631.94
397.58	727.91
397.77	620.24
397.97	695.14
398.16	697.48
398.35	681.10
398.55	692.80
398.74	727.91
398.93	678.76
399.12	683.44
399.32	732.59
399.51	692.80
399.70	723.23
399.90	807.48
400.09	856.64
400.28	833.23
400.47	774.72
400.67	823.87
400.86	840.25
401.05	887.06
401.24	833.23
401.44	854.30
401.63	840.25
401.82	833.23
402.01	807.48
402.21	863.66
402.40	851.96
402.59	851.96
402.78	809.83
402.97	905.79
403.17	868.34
403.36	938.55
403.55	866.00
403.74	933.87
403.93	889.40
404.13	866.00
404.32	851.96
404.51	961.96
404.70	882.38
404.89	1036.86
405.09	957.28
405.28	903.45
405.47	954.94
405.66	990.05
405.85	915.15
406.05	1027.50
406.24	1050.90
406.43	987.71
406.62	1043.88
406.81	1039.20
407.00	1034.52
407.20	1001.75
407.39	1121.12
407.58	1102.39
407.77	976.00
407.96	1100.05
408.15	1095.37
408.34	1083.67
408.54	1118.78
408.73	1102.39
408.92	1074.31
409.11	1121.12
409.30	1184.31
409.49	1151.54
409.68	1212.40
409.87	1179.63
410.07	1263.89
410.26	1252.19
410.45	1151.54
410.64	1188.99
410.83	1132.82
411.02	1219.42
411.21	1235.80
411.40	1198.35
411.59	1228.78
411.78	1324.74
411.98	1299.00
412.17	1355.17
412.36	1296.66
412.55	1240.48
412.74	1380.92
412.93	1404.32
413.12	1481.56
413.31	1394.96
413.50	1357.51
413.69	1493.26
413.88	1371.55
414.07	1467.52
414.26	1380.92
414.45	1455.81
414.64	1554.12
414.83	1493.26
415.02	1537.73
415.22	1486.24
415.41	1523.69
415.60	1593.90
415.79	1591.56
415.98	1668.80
416.17	1584.54
416.36	1664.12
416.55	1746.04
416.74	1689.87
416.93	1717.95
417.12	1661.78
417.31	1675.82
417.50	1781.15
417.69	1767.10
417.88	1661.78
418.07	1692.21
418.26	1729.66
418.45	1783.49
418.64	1825.62
418.83	1778.81
419.02	1825.62
419.21	1872.43
419.39	1921.58
419.58	1846.68
419.77	1849.02
419.96	1923.92
420.15	1856.04
420.34	1811.57
420.53	1881.79
420.72	1877.11
420.91	1947.33
421.10	1944.99
421.29	1998.82
421.48	1968.39
421.67	1980.09
421.86	2047.97
422.05	2054.99
422.24	1940.30
422.43	2005.84
422.61	2045.63
422.80	2087.76
422.99	2001.16
423.18	2054.99
423.37	2036.27
423.56	1994.14
423.75	1914.56
423.94	2005.84
424.13	1879.45
424.32	1954.35
424.50	1989.46
424.69	2057.33
424.88	2073.71
425.07	2099.46
425.26	2066.69
425.45	2111.16
425.64	2054.99
425.83	2120.53
426.01	2141.59
426.20	2097.12
426.39	2052.65
426.58	2022.22
426.77	2132.23
426.96	2165.00
427.15	2118.18
427.33	2172.02
427.52	2172.02
427.71	2221.17
427.90	2186.06
428.09	2160.31
428.28	2136.91
428.46	2293.72
428.65	2176.70
428.84	2244.57
429.03	2296.07
429.22	2197.76
429.40	2326.49
429.59	2293.72
429.78	2167.34
429.97	2251.60
430.16	2317.13
430.34	2354.58
430.53	2349.90
430.72	2478.63
430.91	2368.62
431.10	2333.51
431.28	2359.26
431.47	2387.35
431.66	2448.20
431.85	2354.58
432.03	2455.22
432.22	2429.48
432.41	2394.37
432.60	2530.12
432.79	2441.18
432.97	2448.20
433.16	2487.99
433.35	2487.99
433.54	2499.69
433.72	2605.02
433.91	2612.04
434.10	2551.18
434.28	2485.65
434.47	2569.91
434.66	2628.42
434.85	2675.23
435.03	2654.17
435.22	2612.04
435.41	2628.42
435.59	2689.28
435.78	2593.31
435.97	2633.10
436.16	2771.19
436.34	2736.09
436.53	2712.68
436.72	2719.70
436.90	2708.00
437.09	2848.43
437.28	2782.90
437.46	2815.66
437.65	2693.96
437.84	2782.90
438.02	2876.52
438.21	2855.45
438.40	2778.22
438.58	2916.31
438.77	2920.99
438.96	3012.27
439.14	2932.69
439.33	2998.23
439.52	3054.40
439.70	3143.34
439.89	3117.59
440.08	3117.59
440.26	3105.89
440.45	3054.40
440.63	3138.66
440.82	3159.72
441.01	3197.17
441.19	3155.04
441.38	3194.83
441.57	3295.47
441.75	3089.51
441.94	3325.90
442.12	3330.58
442.31	3461.65
442.50	3435.91
442.68	3307.18
442.87	3482.72
443.05	3459.31
443.24	3398.46
443.43	3410.16
443.61	3480.38
443.80	3459.31
443.98	3325.90
444.17	3300.16
444.35	3499.10
444.54	3548.25
444.73	3447.61
444.91	3536.55
445.10	3517.83
445.28	3524.85
445.47	3410.16
445.65	3576.34
445.84	3508.46
446.02	3531.87
446.21	3529.53
446.39	3620.81
446.58	3552.93
446.77	3606.77
446.95	3475.70
447.14	3389.10
447.32	3592.72
447.51	3541.23
447.69	3555.27
447.88	3571.66
448.06	3749.54
448.25	3485.06
448.43	3599.74
448.62	3510.80
448.80	3602.08
448.99	3758.90
449.17	3646.55
449.36	3667.62
449.54	3829.12
449.73	3859.54
449.91	3669.96
450.10	3775.28
450.28	3742.52
450.46	3770.60
450.65	3850.18
450.83	3915.72
451.02	3707.41
451.20	3779.97
451.39	3798.69
451.57	3843.16
451.76	3786.99
451.94	3899.33
452.13	4011.68
452.31	3889.97
452.49	3913.38
452.68	3918.06
452.86	3852.52
453.05	4032.74
453.23	4032.74
453.42	3808.05
453.60	3866.56
453.78	4088.92
453.97	4051.47
454.15	3873.59
454.34	4037.42
454.52	3953.16
454.70	4063.17
454.89	4121.68
455.07	4049.13
455.26	4182.54
455.44	4259.78
455.62	4294.88
455.81	4182.54
455.99	4219.99
456.17	4435.32
456.36	4332.33
456.54	4313.61
456.73	4175.52
456.91	4472.76
457.09	4390.84
457.28	4535.96
457.46	4344.03
457.64	4423.61
457.83	4376.80
458.01	4332.33
458.19	4416.59
458.38	4442.34
458.56	4561.70
458.74	4493.83
458.93	4538.30
459.11	4432.97
459.29	4571.07
459.48	4454.04
459.66	4610.86
459.84	4699.80
460.03	4748.95
460.21	4629.58
460.39	4657.67
460.57	4550.00
460.76	4620.22
460.94	4664.69
461.12	4746.61
461.31	4732.56
461.49	4578.09
461.67	4835.55
461.85	4802.78
462.04	4667.03
462.22	4999.38
462.40	4833.21
462.59	4851.93
462.77	4926.83
462.95	4894.06
463.13	4940.87
463.32	5050.88
463.50	4896.40
463.68	4915.12
463.86	4919.81
464.05	4835.55
464.23	4980.66
464.41	4987.68
464.59	4819.16
464.78	5055.56
464.96	4985.34
465.14	4868.31
465.32	5156.20
465.50	5240.46
465.69	5121.09
465.87	5034.49
466.05	5064.92
466.23	5097.69
466.41	5191.31
466.60	5317.70
466.78	5132.79
466.96	5149.18
467.14	5186.63
467.32	5210.03
467.51	5191.31
467.69	5116.41
467.87	5343.44
468.05	5284.93
468.23	5303.65
468.41	5228.76
468.60	5406.64
468.78	5437.06
468.96	5181.95
469.14	5305.99
469.32	5418.34
469.50	5425.36
469.69	5455.79
469.87	5607.92
470.05	5685.16
470.23	5504.94
470.41	5514.30
470.59	5605.58
470.77	5472.17
470.95	5577.50
471.14	5427.70
471.32	5514.30
471.50	5666.44
471.68	5678.14
471.86	5792.83
472.04	5727.29
472.22	5912.19
472.40	5748.36
472.58	5738.99
472.77	5893.47
472.95	5874.74
473.13	6190.72
473.31	5877.09
473.49	5881.77
473.67	5973.05
473.85	5804.53
474.03	6029.22
474.21	6218.80
474.39	6396.68
474.57	6176.67
474.75	6043.26
474.93	6153.27
475.12	6370.94
475.30	6106.46
475.48	6310.08
475.66	6321.79
475.84	6586.27
476.02	6441.15
476.20	6415.41
476.38	6649.46
476.56	6565.20
476.74	6562.86
476.92	6497.33
477.10	6736.06
477.28	6651.80
477.46	6829.68
477.64	6820.32
477.82	6843.73
478.00	7007.56
478.18	7232.26
478.36	7122.25
478.54	7349.28
478.72	7286.09
478.90	7536.52
479.08	7318.86
479.26	7463.97
479.44	7466.31
479.62	7456.95
479.80	7613.76
479.98	7494.40
480.16	7676.96
480.34	7707.38
480.52	7735.47
480.70	7838.45
480.88	7805.69
481.06	8032.72
481.24	7939.10
481.41	7864.20
481.59	8126.34
481.77	8325.29
481.95	8203.58
482.13	8161.45
482.31	8325.29
482.49	8329.97
482.67	8425.93
482.85	8524.23
483.03	8809.78
483.21	8734.88
483.39	8816.80
483.57	8858.93
483.74	8678.71
483.92	8971.27
484.10	9001.70
484.28	9034.47
484.46	9240.44
484.64	9181.92
484.82	9235.75
485.00	9090.64
485.18	9376.19
485.35	9579.81
485.53	9210.01
485.71	9460.45
485.89	10057.28
486.07	9708.54
486.25	9687.48
486.43	9647.69
486.61	10024.51
486.78	10122.82
486.96	10003.45
487.14	10366.23
487.32	10370.91
487.50	10178.99
487.68	10560.50
487.85	10511.35
488.03	10806.25
488.21	10757.10
488.39	11016.90
488.57	10963.07
488.75	10869.45
488.92	10965.41
489.10	11028.60
489.28	11162.01
489.46	11169.04
489.64	11487.35
489.81	11627.78
489.99	11410.11
490.17	11707.36
490.35	11641.82
490.53	11983.54
490.70	11840.77
490.88	11768.21
491.06	12070.14
491.24	12044.40
491.41	12210.57
491.59	12180.15
491.77	12301.86
491.95	12564.00
492.13	12711.45
492.30	12273.77
492.48	12638.89
492.66	12512.50
492.84	12762.94
493.01	12826.14
493.19	12692.73
493.37	13004.02
493.54	13256.79
493.72	13001.68
493.90	13233.39
494.08	13245.09
494.25	13289.56
494.43	13188.92
494.61	13659.37
494.79	13731.92
494.96	13479.15
495.14	13783.41
495.32	13774.05
495.49	13841.93
495.67	13996.40
495.85	14003.43
496.02	14054.92
496.20	14036.19
496.38	14024.49
496.55	14118.11
496.73	14562.81
496.91	14406.00
497.09	14581.54
497.26	14398.98
497.44	14698.56
497.62	14595.58
497.79	14569.83
497.97	14611.96
498.14	15023.90
498.32	15215.82
498.50	14974.75
498.67	15290.72
498.85	15222.84
499.03	15398.38
499.20	15557.54
499.38	15529.45
499.56	15587.97
499.73	15840.75
499.91	15632.44
500.08	16042.03
500.26	15683.93
500.44	15667.55
500.61	15712.02
500.79	15964.79
500.97	15960.11
501.14	16107.57
501.32	16025.65
501.49	16402.47
501.67	16166.08
501.84	16318.22
502.02	16205.87
502.20	16180.12
502.37	16397.79
502.55	16795.68
502.72	16606.10
502.90	16662.27
503.07	16556.95
503.25	16730.15
503.43	16585.04
503.60	17022.72
503.78	16957.18
503.95	17076.55
504.13	17212.30
504.30	17020.38
504.48	17106.98
504.65	17202.94
504.83	17390.18
505.01	17317.62
505.18	17214.64
505.36	17493.16
505.53	17446.35
505.71	17326.99
505.88	17813.82
506.06	17439.33
506.23	17640.62
506.41	17610.19
506.58	17750.62
506.76	17647.64
506.93	17759.98
507.11	17628.92
507.28	17879.35
507.46	18078.30
507.63	18239.79
507.81	18097.02
507.98	18185.96
508.16	18256.18
508.33	18094.68
508.50	18223.41
508.68	18644.71
508.85	18415.34
509.03	18471.51
509.20	18640.03
509.38	18562.79
509.55	18813.23
509.73	18773.44
509.90	18700.88
510.08	18817.91
510.25	18747.69
510.42	18714.92
510.60	19126.86
510.77	19269.63
510.95	19719.01
511.12	19164.31
511.30	19147.92
511.47	18927.91
511.64	19136.22
511.82	19290.70
511.99	19499.00
512.17	19400.70
512.34	19501.34
512.51	19374.95
512.69	19735.40
512.86	19693.27
513.04	19749.44
513.21	19962.43
513.38	19688.59
513.56	19695.61
513.73	19854.76
513.90	19878.17
514.08	19784.55
514.25	20252.66
514.43	20217.55
514.60	20334.57
514.77	20072.43
514.95	20397.77
515.12	20175.42
515.29	20339.26
515.47	20245.63
515.64	20332.23
515.81	20287.76
515.99	20767.57
516.16	20470.33
516.33	20617.78
516.51	20769.91
516.68	20987.58
516.85	20617.78
517.03	20673.95
517.20	20673.95
517.37	21184.19
517.54	21046.10
517.72	21301.22
517.89	21027.37
518.06	20786.30
518.24	21022.69
518.41	20819.07
518.58	21425.26
518.75	21287.17
518.93	21593.78
519.10	21502.50
519.27	21729.53
519.45	21731.87
519.62	21530.59
519.79	21268.45
519.96	21628.89
520.14	21631.23
520.31	21755.28
520.48	21895.71
520.65	21745.92
520.83	22029.12
521.00	21834.86
521.17	21949.54
521.34	21965.93
521.52	21965.93
521.69	21844.22
521.86	22064.23
522.03	22331.05
522.20	22113.38
522.38	22401.27
522.55	22380.20
522.72	22246.79
522.89	22487.87
523.07	22796.82
523.24	22796.82
523.41	22555.74
523.58	22342.75
523.75	22565.10
523.92	22705.54
524.10	22530.00
524.27	22312.33
524.44	23117.47
524.61	23094.07
524.78	22630.64
524.96	23037.89
525.13	22988.74
525.30	23150.24
525.47	23304.71
525.64	22906.82
525.81	23154.92
525.98	23316.42
526.16	23253.22
526.33	23321.10
526.50	23426.42
526.67	23157.26
526.84	23323.44
527.01	23255.56
527.18	23447.49
527.36	23580.90
527.53	23489.62
527.70	23754.10
527.87	23812.61
528.04	23681.54
528.21	23901.55
528.38	23487.28
528.55	24168.37
528.72	24046.66
528.89	23873.46
529.07	23885.17
529.24	23798.57
529.41	23913.25
529.58	23805.59
529.75	23847.72
529.92	23857.08
530.09	24219.86
530.26	24318.17
530.43	24238.59
530.60	24020.92
530.77	24163.69
530.94	24116.88
531.11	23843.04
531.28	24191.78
531.46	24676.27
531.63	24311.14
531.80	24748.82
531.97	24531.15
532.14	24294.76
532.31	24760.53
532.48	24800.32
532.65	24797.98
532.82	24397.74
532.99	24772.23
533.16	24861.17
533.33	24945.43
533.50	24933.73
533.67	24748.82
533.84	24498.39
534.01	25158.42
534.18	24919.68
534.35	25509.50
534.52	24828.40
534.69	25525.88
534.86	25308.21
535.03	25261.40
535.20	25247.36
535.37	25174.80
535.54	25385.45
535.71	25621.84
535.88	25158.42
536.05	25186.50
536.22	25624.18
536.38	25699.08
536.55	25551.63
536.72	25802.07
536.89	25322.26
537.06	25710.78
537.23	25603.12
537.40	25645.25
537.57	25926.11
537.74	25553.97
537.91	26017.40
538.08	25724.83
538.25	25947.18
538.42	26015.05
538.59	26036.12
538.75	25699.08
538.92	25874.62
539.09	25851.22
539.26	25778.66
539.43	25998.67
539.60	26129.74
539.77	26148.46
539.94	25912.07
540.11	26122.72
540.28	25748.23
540.44	25799.73
540.61	26230.38
540.78	26380.18
540.95	26476.14
541.12	26504.23
541.29	26253.79
541.46	26253.79
541.62	26452.73
541.79	26380.18
541.96	26349.75
542.13	26232.72
542.30	26536.99
542.47	26714.87
542.63	26845.94
542.80	26789.77
542.97	27021.48
543.14	26927.86
543.31	26663.38
543.48	27049.57
543.64	27136.17
543.81	27234.47
543.98	26953.61
544.15	26958.29
544.32	27410.01
544.48	27131.49
544.65	26944.25
544.82	27101.06
544.99	26780.41
545.16	27175.96
545.32	27229.79
545.49	27651.09
545.66	27360.86
545.83	27157.24
546.00	27793.86
546.16	27154.90
546.33	26796.79
546.50	27290.65
546.67	27768.12
546.83	27384.27
547.00	27489.59
547.17	27728.33
547.34	27763.43
547.50	27480.23
547.67	28414.10
547.84	27524.70
548.00	27941.32
548.17	28325.16
548.34	27723.65
548.51	28077.07
548.67	28018.55
548.84	28128.56
549.01	27791.52
549.18	27885.14
549.34	27936.63
549.51	28264.31
549.68	28020.89
549.84	27854.72
550.01	28268.99
550.18	28166.01
550.34	27985.79
550.51	27953.02
550.68	28175.37
550.84	28149.62
551.01	28444.53
551.18	28154.30
551.34	28381.34
551.51	28079.41
551.68	28294.74
551.84	28095.79
552.01	28465.60
552.18	28599.01
552.34	28472.62
552.51	28566.24
552.68	28393.04
552.84	28566.24
553.01	28774.55
553.18	28489.00
553.34	28823.70
553.51	28893.91
553.67	28554.54
553.84	28580.28
554.01	28666.88
554.17	28503.04
554.34	28353.25
554.51	28711.35
554.67	28849.44
554.84	28821.36
555.00	28851.78
555.17	28723.05
555.33	28755.82
555.50	28723.05
555.67	28943.06
555.83	28875.19
556.00	29053.07
556.16	29165.42
556.33	28919.66
556.50	28989.88
556.66	29230.95
556.83	29567.99
556.99	29001.58
557.16	29242.65
557.32	29350.32
557.49	29333.93
557.65	29170.10
557.82	29134.99
557.98	29132.65
558.15	28980.51
558.32	28900.94
558.48	29195.84
558.65	29432.24
558.81	29528.20
558.98	28912.64
559.14	29050.73
559.31	29315.21
559.47	29493.09
559.64	29097.54
559.80	29652.25
559.97	29710.76
560.13	29291.80
560.30	29252.02
560.46	29570.33
560.63	29694.38
560.79	29273.08
560.96	29795.02
561.12	29387.77
561.29	29280.10
561.45	29401.81
561.61	29862.90
561.78	29773.95
561.94	29575.01
562.11	29654.59
562.27	29837.15
562.44	29820.77
562.60	29729.48
562.77	29521.18
562.93	29481.39
563.10	29912.05
563.26	29722.46
563.42	29874.60
563.59	29773.95
563.75	29535.22
563.92	29670.97
564.08	29921.41
564.24	29666.29
564.41	29799.70
564.57	29551.60
564.74	29736.51
564.90	30096.95
565.07	29764.59
565.23	30012.69
565.39	30213.98
565.56	29759.91
565.72	29799.70
565.88	29909.71
566.05	29907.37
566.21	29727.14
566.38	29792.68
566.54	29369.04
566.70	30164.82
566.87	30195.25
567.03	29799.70
567.19	30178.87
567.36	29998.65
567.52	30316.96
567.68	30361.43
567.85	30284.19
568.01	30197.59
568.17	29893.32
568.34	29890.98
568.50	29970.56
568.66	30232.70
568.83	30403.56
568.99	30232.70
569.15	30160.14
569.32	29813.74
569.48	29841.83
569.64	30494.84
569.81	30356.75
569.97	30040.78
570.13	30270.15
570.30	30237.38
570.46	30139.08
570.62	30134.40
570.78	29996.31
570.95	29848.85
571.11	30115.67
571.27	30003.33
571.43	29825.45
571.60	29780.98
571.76	30326.32
571.92	30244.40
572.09	30403.56
572.25	30623.57
572.41	30286.53
572.57	30405.90
572.74	30628.25
572.90	30497.18
573.06	30125.04
573.22	30590.80
573.38	30536.97
573.55	30050.14
573.71	30806.13
573.87	30595.48
574.03	30391.86
574.20	30314.62
574.36	30380.15
574.52	30429.30
574.68	30354.41
574.84	30429.30
575.01	30370.79
575.17	30401.22
575.33	30663.36
575.49	30232.70
575.65	30843.58
575.82	30586.12
575.98	30682.08
576.14	30429.30
576.30	30766.34
576.46	30363.77
576.62	30183.55
576.79	30457.39
576.95	30017.37
577.11	30499.52
577.27	30675.06
577.43	30684.42
577.59	30745.28
577.75	30787.41
577.92	30356.75
578.08	30398.88
578.24	30356.75
578.40	30614.21
578.56	30703.15
578.72	30649.32
578.88	31054.23
579.04	30483.14
579.21	30661.02
579.37	30438.67
579.53	30927.84
579.69	30817.83
579.85	30380.15
580.01	30740.60
580.17	30284.19
580.33	30630.59
580.49	30663.36
580.65	30497.18
580.82	30600.16
580.98	31091.68
581.14	30632.93
581.30	30937.20
581.46	30518.25
581.62	30583.78
581.78	30501.86
581.94	30642.29
582.10	30469.09
582.26	30529.95
582.42	30813.15
582.58	30672.72
582.74	30377.81
582.90	30771.02
583.06	30345.05
583.22	30354.41
583.38	30597.82
583.54	30845.92
583.70	30480.80
583.86	30733.57
584.02	30644.63
584.18	30766.34
584.34	30775.70
584.50	30984.01
584.66	30778.04
584.82	30623.57
584.98	30960.61
585.14	30433.99
585.30	30808.47
585.46	30581.44
585.62	30529.95
585.78	30733.57
585.94	30356.75
586.10	30955.93
586.26	31047.21
586.42	31227.43
586.58	31056.57
586.74	30724.21
586.90	30646.97
587.06	30953.58
587.22	30965.29
587.38	30691.44
587.54	31084.65
587.70	30866.98
587.86	30923.16
588.02	30962.95
588.18	30998.06
588.34	30913.80
588.49	31058.91
588.65	30810.81
588.81	30551.01
588.97	31077.63
589.13	30962.95
589.29	30820.17
589.45	30892.73
589.61	31215.72
589.77	31241.47
589.93	30906.77
590.08	31206.36
590.24	31166.57
590.40	31278.92
590.56	31227.43
590.72	30850.60
590.88	30857.62
591.04	30792.09
591.20	31129.12
591.35	31094.02
591.51	31079.97
591.67	31356.16
591.83	31466.16
