SpectraSuite Data File
++++++++++++++++++++++++++++++++++++
Date: Fri Oct 18 13:58:39 GMT-05:00 2013
User: bianchi
Dark Spectrum Present: No
Reference Spectrum Present: No
Number of Sampled Component Spectra: 1
Spectrometers: USB2+H05261
Integration Time (usec): 50000 (USB2+H05261)
Spectra Averaged: 1 (USB2+H05261)
Boxcar Smoothing: 0 (USB2+H05261)
Correct for Electrical Dark: No (USB2+H05261)
Strobe/Lamp Enabled: No (USB2+H05261)
Correct for Detector Non-linearity: No (USB2+H05261)
Correct for Stray Light: No (USB2+H05261)
Number of Pixels in Processed Spectrum: 2048
>>>>>Begin Processed Spectral Data<<<<<
365.73	0.00
365.92	0.00
366.12	0.00
366.32	0.00
366.52	0.00
366.72	0.00
366.91	0.00
367.11	0.00
367.31	0.00
367.51	0.00
367.70	0.00
367.90	0.00
368.10	0.00
368.30	0.00
368.49	0.00
368.69	0.00
368.89	0.00
369.09	0.00
369.28	0.00
369.48	0.00
369.68	0.00
369.87	0.00
370.07	0.00
370.27	0.00
370.47	0.00
370.66	156.82
370.86	98.30
371.06	161.50
371.25	81.92
371.45	102.98
371.65	112.35
371.84	140.43
372.04	124.05
372.24	187.24
372.44	194.26
372.63	180.22
372.83	168.52
373.03	234.05
373.22	124.05
373.42	175.54
373.62	227.03
373.81	292.57
374.01	217.67
374.21	182.56
374.40	264.48
374.60	250.44
374.79	266.82
374.99	266.82
375.19	248.10
375.38	222.35
375.58	271.50
375.78	287.89
375.97	315.97
376.17	266.82
376.37	248.10
376.56	217.67
376.76	252.78
376.95	238.73
377.15	283.20
377.35	301.93
377.54	248.10
377.74	285.55
377.93	276.18
378.13	304.27
378.33	248.10
378.52	308.95
378.72	236.39
378.91	203.63
379.11	299.59
379.31	355.76
379.50	224.69
379.70	278.52
379.89	278.52
380.09	306.61
380.28	306.61
380.48	339.38
380.68	306.61
380.87	264.48
381.07	313.63
381.26	351.08
381.46	341.72
381.65	327.68
381.85	252.78
382.04	315.97
382.24	376.83
382.43	339.38
382.63	308.95
382.83	320.65
383.02	383.85
383.22	379.17
383.41	395.55
383.61	339.38
383.80	358.10
384.00	290.23
384.19	351.08
384.39	327.68
384.58	425.98
384.78	334.70
384.97	362.78
385.17	327.68
385.36	428.32
385.56	367.46
385.75	346.40
385.95	353.42
386.14	421.30
386.34	325.33
386.53	344.06
386.72	386.19
386.92	400.23
387.11	425.98
387.31	458.74
387.50	386.19
387.70	433.00
387.89	449.38
388.09	428.32
388.28	435.34
388.48	425.98
388.67	421.30
388.86	425.98
389.06	411.93
389.25	472.79
389.45	388.53
389.64	472.79
389.84	528.96
390.03	512.58
390.22	479.81
390.42	433.00
390.61	470.45
390.81	393.21
391.00	505.56
391.19	505.56
391.39	477.47
391.58	468.11
391.78	496.19
391.97	524.28
392.16	493.85
392.36	594.50
392.55	503.22
392.75	528.96
392.94	575.77
393.13	566.41
393.33	580.45
393.52	547.69
393.71	571.09
393.91	561.73
394.10	585.13
394.29	610.88
394.49	491.51
394.68	575.77
394.88	545.34
395.07	601.52
395.26	512.58
395.46	580.45
395.65	599.18
395.84	608.54
396.04	683.44
396.23	526.62
396.42	716.20
396.62	561.73
396.81	617.90
397.00	657.69
397.19	638.97
397.39	709.18
397.58	564.07
397.77	622.58
397.97	706.84
398.16	631.94
398.35	699.82
398.55	601.52
398.74	751.31
398.93	667.05
399.12	716.20
399.32	683.44
399.51	678.76
399.70	741.95
399.90	748.97
400.09	727.91
400.28	737.27
400.47	753.65
400.67	795.78
400.86	866.00
401.05	805.14
401.24	732.59
401.44	896.43
401.63	800.46
401.82	847.27
402.01	781.74
402.21	723.23
402.40	866.00
402.59	816.85
402.78	847.27
402.97	854.30
403.17	837.91
403.36	877.70
403.55	795.78
403.74	931.53
403.93	866.00
404.13	898.77
404.32	840.25
404.51	875.36
404.70	929.19
404.89	877.70
405.09	952.60
405.28	919.83
405.47	1020.47
405.66	940.90
405.85	938.55
406.05	961.96
406.24	922.17
406.43	994.73
406.62	1062.60
406.81	1111.75
407.00	1018.13
407.20	931.53
407.39	976.00
407.58	1100.05
407.77	1013.45
407.96	1078.99
408.15	1027.50
408.34	1050.90
408.54	978.34
408.73	1039.20
408.92	1137.50
409.11	1086.01
409.30	1050.90
409.49	1177.29
409.68	1109.41
409.87	1100.05
410.07	1142.18
410.26	1170.27
410.45	1149.20
410.64	1256.87
410.83	1181.97
411.02	1184.31
411.21	1191.33
411.40	1277.93
411.59	1231.12
411.78	1142.18
411.98	1207.72
412.17	1259.21
412.36	1266.23
412.55	1345.81
412.74	1338.79
412.93	1399.64
413.12	1329.42
413.31	1434.75
413.50	1364.53
413.69	1404.32
413.88	1444.11
414.07	1430.07
414.26	1483.90
414.45	1434.75
414.64	1380.92
414.83	1462.83
415.02	1430.07
415.22	1495.60
415.41	1570.50
415.60	1514.33
415.79	1582.20
415.98	1647.74
416.17	1603.27
416.36	1472.20
416.55	1460.49
416.74	1647.74
416.93	1717.95
417.12	1636.03
417.31	1734.34
417.50	1685.19
417.69	1823.28
417.88	1692.21
418.07	1671.14
418.26	1671.14
418.45	1741.36
418.64	1795.19
418.83	1689.87
419.02	1832.64
419.21	1846.68
419.39	1767.10
419.58	1776.47
419.77	1781.15
419.96	1853.70
420.15	1930.94
420.34	1849.02
420.53	1884.13
420.72	1928.60
420.91	1867.75
421.10	1959.03
421.29	1975.41
421.48	1893.49
421.67	1963.71
421.86	1834.98
422.05	1952.01
422.24	2036.27
422.43	1973.07
422.61	2052.65
422.80	2073.71
422.99	1977.75
423.18	1902.86
423.37	2029.24
423.56	2078.40
423.75	1996.48
423.94	1893.49
424.13	1863.07
424.32	1898.17
424.50	2108.82
424.69	1963.71
424.88	2008.18
425.07	2015.20
425.26	2001.16
425.45	2057.33
425.64	2120.53
425.83	2101.80
426.01	2092.44
426.20	2005.84
426.39	1984.77
426.58	1984.77
426.77	2050.31
426.96	2115.84
427.15	2054.99
427.33	2015.20
427.52	2122.87
427.71	2129.89
427.90	2101.80
428.09	2012.86
428.28	2239.89
428.46	2094.78
428.65	2155.63
428.84	2176.70
429.03	2256.28
429.22	2064.35
429.40	2188.40
429.59	2317.13
429.78	2256.28
429.97	2148.61
430.16	2113.50
430.34	2251.60
430.53	2408.41
430.72	2319.47
430.91	2392.03
431.10	2267.98
431.28	2356.92
431.47	2324.15
431.66	2354.58
431.85	2317.13
432.03	2434.16
432.22	2417.77
432.41	2415.43
432.60	2415.43
432.79	2436.50
432.97	2471.61
433.16	2572.25
433.35	2511.39
433.54	2312.45
433.72	2476.29
433.91	2436.50
434.10	2471.61
434.28	2614.38
434.47	2495.01
434.66	2466.92
434.85	2359.26
435.03	2551.18
435.22	2609.70
435.41	2560.55
435.59	2628.42
435.78	2574.59
435.97	2593.31
436.16	2612.04
436.34	2675.23
436.53	2609.70
436.72	2628.42
436.90	2562.89
437.09	2682.25
437.28	2628.42
437.46	2679.91
437.65	2682.25
437.84	2801.62
438.02	2700.98
438.21	2651.83
438.40	2733.75
438.58	2825.03
438.77	2839.07
438.96	2878.86
439.14	2937.37
439.33	2897.58
439.52	2991.20
439.70	3019.29
439.89	3052.06
440.08	3026.31
440.26	2956.10
440.45	3009.93
440.63	3056.74
440.82	3145.68
441.01	3143.34
441.19	3190.15
441.38	3197.17
441.57	3218.24
441.75	3155.04
441.94	3269.73
442.12	3328.24
442.31	3337.60
442.50	3276.75
442.68	3185.47
442.87	3325.90
443.05	3234.62
443.24	3304.84
443.43	3438.25
443.61	3342.28
443.80	3449.95
443.98	3260.37
444.17	3197.17
444.35	3293.13
444.54	3386.76
444.73	3431.23
444.91	3372.71
445.10	3435.91
445.28	3405.48
445.47	3229.94
445.65	3543.57
445.84	3529.53
446.02	3447.61
446.21	3300.16
446.39	3377.39
446.58	3506.12
446.77	3541.23
446.95	3468.67
447.14	3421.86
447.32	3466.33
447.51	3463.99
447.69	3487.40
447.88	3431.23
448.06	3503.78
448.25	3447.61
448.43	3550.59
448.62	3524.85
448.80	3489.74
448.99	3531.87
449.17	3581.02
449.36	3566.98
449.54	3669.96
449.73	3597.40
449.91	3630.17
450.10	3695.71
450.28	3786.99
450.46	3707.41
450.65	3735.50
450.83	3508.46
451.02	3714.43
451.20	3733.15
451.39	3782.31
451.57	3623.15
451.76	3658.26
451.94	3754.22
452.13	3770.60
452.31	3782.31
452.49	3686.34
452.68	3840.82
452.86	3796.35
453.05	3772.94
453.23	3953.16
453.42	3791.67
453.60	3845.50
453.78	3904.01
453.97	3913.38
454.15	3922.74
454.34	3967.21
454.52	3946.14
454.70	3950.82
454.89	4042.11
455.07	4011.68
455.26	3939.12
455.44	4194.24
455.62	3990.61
455.81	3985.93
455.99	4093.60
456.17	4105.30
456.36	3995.29
456.54	4308.93
456.73	4135.73
456.91	4299.56
457.09	4227.01
457.28	4243.39
457.46	4313.61
457.64	4236.37
457.83	4337.01
458.01	4318.29
458.19	4437.66
458.38	4325.31
458.56	4409.57
458.74	4423.61
458.93	4388.50
459.11	4374.46
459.29	4470.42
459.48	4491.49
459.66	4432.97
459.84	4550.00
460.03	4559.36
460.21	4507.87
460.39	4594.47
460.57	4493.83
460.76	4519.57
460.94	4465.74
461.12	4582.77
461.31	4617.88
461.49	4557.02
461.67	4470.42
461.85	4730.22
462.04	4662.35
462.22	4709.16
462.40	4678.73
462.59	4856.61
462.77	4741.93
462.95	4791.08
463.13	4655.33
463.32	4842.57
463.50	4844.91
463.68	4791.08
463.86	4610.86
464.05	4809.80
464.23	5013.43
464.41	4968.96
464.59	4706.82
464.78	5008.75
464.96	4929.17
465.14	4943.21
465.32	4922.15
465.50	4947.89
465.69	5015.77
465.87	4835.55
466.05	4861.29
466.23	4959.60
466.41	4940.87
466.60	5231.10
466.78	5032.15
466.96	5130.45
467.14	4798.10
467.32	4933.85
467.51	5301.31
467.69	4992.36
467.87	5198.33
468.05	5158.54
468.23	4739.58
468.41	4945.55
468.60	5245.14
468.78	5259.18
468.96	5088.32
469.14	5172.58
469.32	5217.05
469.50	5130.45
469.69	5179.61
469.87	5294.29
470.05	5441.75
470.23	5310.68
470.41	5280.25
470.59	5472.17
470.77	5249.82
470.95	5416.00
471.14	5348.12
471.32	5465.15
471.50	5540.05
471.68	5540.05
471.86	5390.25
472.04	5579.84
472.22	5706.23
472.40	5575.16
472.58	5554.09
472.77	5537.71
472.95	5636.01
473.13	6038.58
473.31	5631.33
473.49	5795.17
473.67	5816.23
473.85	5860.70
474.03	5998.79
474.21	5820.91
474.39	6092.41
474.57	6139.23
474.75	6050.28
474.93	6050.28
475.12	6129.86
475.30	6083.05
475.48	6087.73
475.66	6211.78
475.84	6171.99
476.02	6263.27
476.20	6232.85
476.38	6469.24
476.56	6586.27
476.74	6560.52
476.92	6565.20
477.10	6239.87
477.28	6567.54
477.46	6663.51
477.64	6562.86
477.82	6633.08
478.00	6869.47
478.18	6906.92
478.36	6937.35
478.54	6923.30
478.72	6967.77
478.90	7096.50
479.08	7073.10
479.26	7456.95
479.44	7246.30
479.62	7279.07
479.80	7377.37
479.98	7459.29
480.16	7648.87
480.34	7449.93
480.52	7676.96
480.70	7595.04
480.88	7468.65
481.06	7508.44
481.24	7576.31
481.41	7775.26
481.59	7861.86
481.77	7836.11
481.95	7880.58
482.13	8161.45
482.31	8002.29
482.49	8212.94
482.67	8231.66
482.85	8381.46
483.03	8465.72
483.21	8283.16
483.39	8596.79
483.57	8732.54
483.74	8369.76
483.92	8786.37
484.10	8678.71
484.28	8938.51
484.46	8856.59
484.64	9092.98
484.82	8833.18
485.00	8950.21
485.18	9071.92
485.35	9296.61
485.53	9074.26
485.71	9226.39
485.89	9551.73
486.07	9455.76
486.25	9390.23
486.43	9638.33
486.61	9568.11
486.78	9701.52
486.96	9745.99
487.14	9837.27
487.32	9937.91
487.50	9928.55
487.68	9977.70
487.85	10228.14
488.03	10291.34
488.21	10459.85
488.39	10375.59
488.57	10473.90
488.75	10413.04
488.92	10492.62
489.10	10832.00
489.28	10846.04
489.46	10834.34
489.64	11028.60
489.81	11286.06
489.99	11157.33
490.17	11192.44
490.35	11634.80
490.53	11307.13
490.70	11578.63
490.88	11630.12
491.06	11772.89
491.24	11606.72
491.41	11777.58
491.59	11950.78
491.77	11892.26
491.95	12131.00
492.13	11981.20
492.30	11932.05
492.48	12166.10
492.66	12163.76
492.84	12444.63
493.01	12332.28
493.19	12325.26
493.37	12566.34
493.54	12552.29
493.72	12601.44
493.90	12681.02
494.08	12957.21
494.25	13107.00
494.43	13167.85
494.61	12950.18
494.79	13275.52
494.96	13366.80
495.14	13385.52
495.32	13474.46
495.49	13752.99
495.67	13224.03
495.85	13584.47
496.02	13741.29
496.20	13488.51
496.38	13949.59
496.55	14075.98
496.73	13926.19
496.91	14038.53
497.09	14267.91
497.26	14139.18
497.44	14171.94
497.62	14090.02
497.79	14359.19
497.97	14225.78
498.14	14487.92
498.32	14740.69
498.50	14466.85
498.67	14862.40
498.85	14747.72
499.03	14829.63
499.20	14953.68
499.38	14979.43
499.56	14738.35
499.73	15033.26
499.91	15311.78
500.08	15433.49
500.26	15199.44
500.44	15492.01
500.61	15180.71
500.79	15513.07
500.97	15403.07
501.14	15927.35
501.32	15356.25
501.49	15477.96
501.67	15646.48
501.84	15896.92
502.02	15887.56
502.20	15946.07
502.37	16250.34
502.55	15866.49
502.72	16025.65
502.90	16135.65
503.07	16046.71
503.25	16154.38
503.43	16203.53
503.60	16133.31
503.78	16285.45
503.95	16451.63
504.13	16390.77
504.30	16549.93
504.48	16383.75
504.65	16692.70
504.83	16594.40
505.01	16849.52
505.18	16760.58
505.36	16732.49
505.53	16769.94
505.71	16889.31
505.88	16624.83
506.06	16744.19
506.23	16952.50
506.41	17099.95
506.58	16982.93
506.76	17366.78
506.93	17383.16
507.11	17528.27
507.28	17226.34
507.46	17446.35
507.63	17612.53
507.81	17654.66
507.98	17741.26
508.16	17675.73
508.33	17715.51
508.50	17769.35
508.68	18192.98
508.85	17769.35
509.03	17720.20
509.20	17994.04
509.38	18031.49
509.55	18200.01
509.73	18125.11
509.90	18010.42
510.08	17977.65
510.25	18029.15
510.42	18417.68
510.60	18469.17
510.77	18464.49
510.95	18445.76
511.12	18466.83
511.30	18455.12
511.47	18665.77
511.64	18796.84
511.82	18820.25
511.99	18700.88
512.17	18640.03
512.34	18778.12
512.51	18984.09
512.69	19082.39
512.86	19187.71
513.04	19363.25
513.21	19445.17
513.38	19269.63
513.56	19234.52
513.73	19489.64
513.90	19789.23
514.08	19211.12
514.25	19440.49
514.43	20056.05
514.60	19609.01
514.77	19697.95
514.95	19349.21
515.12	19653.48
515.29	19604.33
515.47	19620.71
515.64	19747.10
515.81	19707.31
515.99	19906.26
516.16	20187.12
516.33	19784.55
516.51	20255.00
516.68	20034.99
516.85	20077.12
517.03	20126.27
517.20	20563.95
517.37	20376.70
517.54	20453.94
517.72	20402.45
517.89	20631.82
518.06	20458.62
518.24	20210.53
518.41	20690.34
518.58	20968.86
518.75	20414.15
518.93	20634.16
519.10	20987.58
519.27	20638.84
519.45	20746.51
519.62	20704.38
519.79	21081.21
519.96	20744.17
520.14	21158.44
520.31	20945.45
520.48	20919.71
520.65	21198.23
520.83	21245.04
521.00	21476.76
521.17	21015.67
521.34	21034.39
521.52	21614.85
521.69	21256.75
521.86	21671.02
522.03	21397.18
522.20	21741.24
522.38	21766.98
522.55	21689.74
522.72	21827.84
522.89	21818.47
523.07	21912.10
523.24	21722.51
523.41	21961.25
523.58	21748.26
523.75	22080.61
523.92	22059.55
524.10	21752.94
524.27	22164.87
524.44	22010.40
524.61	22319.35
524.78	22342.75
524.96	22218.71
525.13	22202.32
525.30	22511.27
525.47	22199.98
525.64	22689.15
525.81	22499.57
525.98	22429.35
526.16	22595.53
526.33	22412.97
526.50	23126.83
526.67	22644.68
526.84	22719.58
527.01	22693.83
527.18	22761.71
527.36	22742.99
527.53	22864.69
527.70	23140.88
527.87	23545.79
528.04	22675.11
528.21	23058.96
528.38	22869.37
528.55	23225.14
528.72	23197.05
528.89	23346.84
529.07	23152.58
529.24	23159.60
529.41	23396.00
529.58	23185.35
529.75	22923.21
529.92	23339.82
530.09	23337.48
530.26	23414.72
530.43	23388.97
530.60	23491.96
530.77	23030.87
530.94	23608.98
531.11	23449.83
531.28	23344.50
531.46	23637.07
531.63	23770.48
531.80	23824.31
531.97	23758.78
532.14	23950.70
532.31	23770.48
532.48	24072.41
532.65	23789.20
532.82	23608.98
532.99	23758.78
533.16	23985.81
533.33	23805.59
533.50	24355.61
533.67	24159.01
533.84	24016.24
534.01	24201.14
534.18	24261.99
534.35	24236.25
534.52	24292.42
534.69	24364.98
534.86	24519.45
535.03	24395.40
535.20	24217.52
535.37	24339.23
535.54	24561.58
535.71	24280.72
535.88	24559.24
536.05	24446.90
536.22	24741.80
536.38	25010.96
536.55	24744.14
536.72	24971.18
536.89	24491.37
537.06	24702.01
537.23	25104.59
537.40	24547.54
537.57	25017.99
537.74	24692.65
537.91	25125.65
538.08	25067.14
538.25	24753.51
538.42	25135.01
538.59	25160.76
538.75	24877.55
538.92	25310.55
539.09	25378.43
539.26	25268.42
539.43	25032.03
539.60	25333.96
539.77	25050.75
539.94	25156.08
540.11	25340.98
540.28	25633.55
540.44	25408.86
540.61	25317.57
540.78	25235.66
540.95	25226.29
541.12	25509.50
541.29	25355.02
541.46	25455.67
541.62	25645.25
541.79	25343.32
541.96	25455.67
542.13	25563.33
542.30	25792.70
542.47	25472.05
542.63	25685.04
542.80	26267.83
542.97	26459.76
543.14	26015.05
543.31	25640.57
543.48	25837.17
543.64	26216.34
543.81	26005.69
543.98	26590.83
544.15	26185.91
544.32	26452.73
544.48	26810.84
544.65	26410.60
544.82	26150.81
544.99	26012.71
545.16	26387.20
545.32	26251.45
545.49	26607.21
545.66	26558.06
545.83	26450.39
546.00	26752.32
546.16	26827.22
546.33	26419.97
546.50	26324.01
546.67	26464.44
546.83	26214.00
547.00	26616.57
547.17	26628.27
547.34	26572.10
547.50	26658.70
547.67	27138.51
547.84	26721.90
548.00	27000.42
548.17	26836.58
548.34	26658.70
548.51	27213.41
548.67	27283.62
548.84	27225.11
549.01	26766.37
549.18	26618.91
549.34	27250.86
549.51	26785.09
549.68	26993.40
549.84	26745.30
550.01	26951.27
550.18	26981.70
550.34	27311.71
550.51	27089.36
550.68	27725.99
550.84	26721.90
551.01	27171.28
551.18	27304.69
551.34	27243.84
551.51	27283.62
551.68	27494.27
551.84	27325.75
552.01	27431.08
552.18	27503.64
552.34	27377.25
552.51	27452.14
552.68	27543.42
552.84	27410.01
553.01	27988.13
553.18	27197.02
553.34	27943.66
553.51	27711.94
553.67	27655.77
553.84	27995.15
554.01	27864.08
554.17	27786.84
554.34	27594.92
554.51	27644.07
554.67	27936.63
554.84	27573.85
555.00	27889.82
555.17	27662.79
555.33	27910.89
555.50	27852.38
555.67	27814.93
555.83	28229.20
556.00	27835.99
556.16	28292.40
556.33	28084.09
556.50	27861.74
556.66	28198.77
556.83	28011.53
556.99	28414.10
557.16	28187.07
557.32	28294.74
557.49	28308.78
557.65	28133.24
557.82	27796.20
557.98	28161.33
558.15	28020.89
558.32	28350.91
558.48	28292.40
558.65	28451.55
558.81	28350.91
558.98	28168.35
559.14	28196.43
559.31	28196.43
559.47	28498.36
559.64	28397.72
559.80	28481.98
559.97	28795.61
560.13	28170.69
560.30	28500.70
560.46	28341.55
560.63	28493.68
560.79	28416.44
560.96	28552.20
561.12	28676.24
561.29	28189.41
561.45	28720.71
561.61	28617.73
561.78	28863.49
561.94	28638.80
562.11	28706.67
562.27	28407.08
562.44	28556.88
562.60	28690.29
562.77	28788.59
562.93	28442.19
563.10	28877.53
563.26	28407.08
563.42	28767.52
563.59	28566.24
563.75	29167.76
563.92	28851.78
564.08	28624.75
564.24	28999.24
564.41	28882.21
564.57	28751.14
564.74	28587.30
564.90	29055.41
565.07	28835.40
565.23	28779.23
565.39	28992.22
565.56	28772.21
565.72	28882.21
565.88	29198.18
566.05	28922.00
566.21	28868.17
566.38	28793.27
566.54	28893.91
566.70	29228.61
566.87	29469.69
567.03	28584.96
567.19	29589.05
567.36	29359.68
567.52	28954.77
567.68	29310.53
567.85	28940.72
568.01	28723.05
568.17	29137.33
568.34	28870.51
568.50	29139.67
568.66	29153.71
568.83	29312.87
568.99	29043.71
569.15	29228.61
569.32	28762.84
569.48	29064.77
569.64	29619.48
569.81	29111.58
569.97	29270.74
570.13	28992.22
570.30	29113.92
570.46	29085.84
570.62	28919.66
570.78	28858.81
570.95	28975.83
571.11	29146.69
571.27	28622.41
571.43	28938.38
571.60	29640.54
571.76	29378.40
571.92	29275.42
572.09	29249.67
572.25	29668.63
572.41	29127.97
572.57	29408.83
572.74	29397.13
572.90	28919.66
573.06	29277.76
573.22	29401.81
573.38	29319.89
573.55	29085.84
573.71	29764.59
573.87	29371.38
574.03	29296.49
574.20	29127.97
574.36	29266.06
574.52	29345.64
574.68	28961.79
574.84	29575.01
575.01	29130.31
575.17	29521.18
575.33	29310.53
575.49	29371.38
575.65	29670.97
575.82	29703.74
575.98	29387.77
576.14	29177.12
576.30	29570.33
576.46	29355.00
576.62	29598.41
576.79	29371.38
576.95	29212.23
577.11	29298.83
577.27	29221.59
577.43	29324.57
577.59	29291.80
577.75	29453.30
577.92	29163.08
578.08	29172.44
578.24	29486.07
578.40	29380.74
578.56	29298.83
578.72	29317.55
578.88	29914.39
579.04	29956.52
579.21	29462.66
579.37	29670.97
579.53	29266.06
579.69	29294.14
579.85	29429.90
580.01	29486.07
580.17	29076.48
580.33	29614.80
580.49	29310.53
580.65	29539.90
580.82	29509.47
580.98	29558.63
581.14	29523.52
581.30	29673.31
581.46	29528.20
581.62	29605.44
581.78	29589.05
581.94	29596.07
582.10	29579.69
582.26	29488.41
582.42	29823.11
582.58	29558.63
582.74	29792.68
582.90	29198.18
583.06	29521.18
583.22	29497.77
583.38	29635.86
583.54	29254.36
583.70	29745.87
583.86	29745.87
584.02	29247.33
584.18	29685.01
584.34	30206.95
584.50	29694.38
584.66	29830.13
584.82	29479.05
584.98	29631.18
585.14	29563.31
585.30	29591.39
585.46	29600.76
585.62	29532.88
585.78	29511.81
585.94	29638.20
586.10	30071.20
586.26	29743.53
586.42	29710.76
586.58	29727.14
586.74	29846.51
586.90	29200.52
587.06	29378.40
587.22	29797.36
587.38	29380.74
587.54	29942.47
587.70	30047.80
587.86	29888.64
588.02	30216.32
588.18	29977.58
588.34	29851.19
588.49	29970.56
588.65	29247.33
588.81	29830.13
588.97	29834.81
589.13	29481.39
589.29	29577.35
589.45	29958.86
589.61	29958.86
589.77	29806.72
589.93	30122.69
590.08	29893.32
590.24	29996.31
590.40	30195.25
590.56	30361.43
590.72	30155.46
590.88	29766.93
591.04	29476.71
591.20	30291.21
591.35	30265.47
591.51	30401.22
591.67	30092.27
591.83	30431.65
591.99	30340.36
