SpectraSuite Data File
++++++++++++++++++++++++++++++++++++
Date: Fri Oct 18 13:58:06 GMT-05:00 2013
User: bianchi
Dark Spectrum Present: No
Reference Spectrum Present: No
Number of Sampled Component Spectra: 1
Spectrometers: USB2+H05261
Integration Time (usec): 50000 (USB2+H05261)
Spectra Averaged: 1 (USB2+H05261)
Boxcar Smoothing: 0 (USB2+H05261)
Correct for Electrical Dark: No (USB2+H05261)
Strobe/Lamp Enabled: No (USB2+H05261)
Correct for Detector Non-linearity: No (USB2+H05261)
Correct for Stray Light: No (USB2+H05261)
Number of Pixels in Processed Spectrum: 2048
>>>>>Begin Processed Spectral Data<<<<<
365.73	0.00
365.92	0.00
366.12	0.00
366.32	0.00
366.52	0.00
366.72	0.00
366.91	0.00
367.11	0.00
367.31	0.00
367.51	0.00
367.70	0.00
367.90	0.00
368.10	0.00
368.30	0.00
368.49	0.00
368.69	0.00
368.89	0.00
369.09	0.00
369.28	0.00
369.48	0.00
369.68	0.00
369.87	0.00
370.07	0.00
370.27	0.00
370.47	0.00
370.66	114.69
370.86	84.26
371.06	140.43
371.25	98.30
371.45	124.05
371.65	133.41
371.84	159.16
372.04	161.50
372.24	255.12
372.44	259.80
372.63	156.82
372.83	236.39
373.03	173.20
373.22	154.48
373.42	250.44
373.62	224.69
373.81	243.42
374.01	297.25
374.21	227.03
374.40	208.31
374.60	241.08
374.79	208.31
374.99	220.01
375.19	287.89
375.38	325.33
375.58	330.02
375.78	308.95
375.97	259.80
376.17	266.82
376.37	184.90
376.56	290.23
376.76	330.02
376.95	234.05
377.15	287.89
377.35	280.86
377.54	259.80
377.74	273.84
377.93	280.86
378.13	299.59
378.33	299.59
378.52	299.59
378.72	259.80
378.91	294.91
379.11	290.23
379.31	294.91
379.50	269.16
379.70	264.48
379.89	294.91
380.09	325.33
380.28	280.86
380.48	341.72
380.68	341.72
380.87	297.25
381.07	407.25
381.26	411.93
381.46	327.68
381.65	266.82
381.85	304.27
382.04	344.06
382.24	346.40
382.43	407.25
382.63	369.80
382.83	337.04
383.02	327.68
383.22	351.08
383.41	358.10
383.61	346.40
383.80	395.55
384.00	402.57
384.19	372.15
384.39	304.27
384.58	344.06
384.78	400.23
384.97	383.85
385.17	423.64
385.36	390.87
385.56	388.53
385.75	332.36
385.95	425.98
386.14	451.72
386.34	416.62
386.53	519.60
386.72	484.49
386.92	451.72
387.11	425.98
387.31	437.68
387.50	421.30
387.70	381.51
387.89	479.81
388.09	498.53
388.28	458.74
388.48	514.92
388.67	512.58
388.86	545.34
389.06	472.79
389.25	559.39
389.45	482.15
389.64	496.19
389.84	552.37
390.03	528.96
390.22	447.04
390.42	468.11
390.61	475.13
390.81	461.09
391.00	599.18
391.19	486.83
391.39	507.90
391.58	559.39
391.78	606.20
391.97	578.11
392.16	575.77
392.36	472.79
392.55	482.15
392.75	491.51
392.94	528.96
393.13	589.82
393.33	491.51
393.52	566.41
393.71	533.64
393.91	685.78
394.10	559.39
394.29	601.52
394.49	613.22
394.68	608.54
394.88	716.20
395.07	681.10
395.26	535.98
395.46	545.34
395.65	613.22
395.84	662.37
396.04	671.73
396.23	662.37
396.42	678.76
396.62	695.14
396.81	667.05
397.00	664.71
397.19	629.60
397.39	713.86
397.58	755.99
397.77	585.13
397.97	725.57
398.16	660.03
398.35	725.57
398.55	713.86
398.74	713.86
398.93	746.63
399.12	690.46
399.32	753.65
399.51	685.78
399.70	786.42
399.90	697.48
400.09	823.87
400.28	802.80
400.47	784.08
400.67	840.25
400.86	863.66
401.05	833.23
401.24	828.55
401.44	723.23
401.63	800.46
401.82	826.21
402.01	786.42
402.21	791.10
402.40	798.12
402.59	826.21
402.78	753.65
402.97	826.21
403.17	894.08
403.36	861.32
403.55	866.00
403.74	954.94
403.93	922.17
404.13	1013.45
404.32	968.98
404.51	922.17
404.70	990.05
404.89	887.06
405.09	1053.24
405.28	987.71
405.47	945.58
405.66	880.04
405.85	1055.58
406.05	959.62
406.24	1039.20
406.43	917.49
406.62	999.41
406.81	1081.33
407.00	1018.13
407.20	1029.84
407.39	1053.24
407.58	1128.14
407.77	1015.79
407.96	1078.99
408.15	1123.46
408.34	1153.88
408.54	1210.06
408.73	1160.91
408.92	1107.07
409.11	1205.38
409.30	1142.18
409.49	1198.35
409.68	1102.39
409.87	1174.95
410.07	1242.82
410.26	1196.01
410.45	1240.48
410.64	1111.75
410.83	1067.28
411.02	1270.91
411.21	1336.45
411.40	1231.12
411.59	1245.16
411.78	1336.45
411.98	1263.89
412.17	1320.06
412.36	1343.47
412.55	1418.36
412.74	1327.08
412.93	1376.24
413.12	1303.68
413.31	1420.71
413.50	1350.49
413.69	1359.85
413.88	1366.87
414.07	1509.65
414.26	1493.26
414.45	1603.27
414.64	1533.05
414.83	1519.01
415.02	1519.01
415.22	1448.79
415.41	1558.80
415.60	1544.75
415.79	1572.84
415.98	1549.43
416.17	1603.27
416.36	1647.74
416.55	1652.42
416.74	1645.40
416.93	1614.97
417.12	1736.68
417.31	1675.82
417.50	1785.83
417.69	1757.74
417.88	1844.34
418.07	1778.81
418.26	1898.17
418.45	1834.98
418.64	1802.21
418.83	1769.44
419.02	1767.10
419.21	1776.47
419.39	1923.92
419.58	1825.62
419.77	1839.66
419.96	1916.90
420.15	1858.39
420.34	1860.73
420.53	1928.60
420.72	2010.52
420.91	1930.94
421.10	1989.46
421.29	1970.73
421.48	1952.01
421.67	1930.94
421.86	1930.94
422.05	2033.93
422.24	2019.88
422.43	1940.30
422.61	2054.99
422.80	2174.36
422.99	2045.63
423.18	1984.77
423.37	2033.93
423.56	2064.35
423.75	1996.48
423.94	2003.50
424.13	1937.96
424.32	1970.73
424.50	2066.69
424.69	2193.08
424.88	2167.34
425.07	2024.56
425.26	2106.48
425.45	1963.71
425.64	2090.10
425.83	2090.10
426.01	2057.33
426.20	2204.78
426.39	2069.03
426.58	2122.87
426.77	2071.37
426.96	2249.25
427.15	2209.47
427.33	2115.84
427.52	2129.89
427.71	2183.72
427.90	2200.10
428.09	2174.36
428.28	2253.94
428.46	2321.81
428.65	2310.11
428.84	2235.21
429.03	2284.36
429.22	2310.11
429.40	2237.55
429.59	2359.26
429.78	2310.11
429.97	2125.21
430.16	2200.10
430.34	2396.71
430.53	2303.09
430.72	2410.75
430.91	2293.72
431.10	2275.00
431.28	2319.47
431.47	2459.90
431.66	2473.95
431.85	2478.63
432.03	2562.89
432.22	2462.24
432.41	2422.45
432.60	2548.84
432.79	2476.29
432.97	2567.57
433.16	2448.20
433.35	2530.12
433.54	2569.91
433.72	2590.97
433.91	2668.21
434.10	2633.10
434.28	2530.12
434.47	2597.99
434.66	2628.42
434.85	2614.38
435.03	2609.70
435.22	2560.55
435.41	2691.62
435.59	2635.44
435.78	2766.51
435.97	2665.87
436.16	2757.15
436.34	2736.09
436.53	2785.24
436.72	2841.41
436.90	2672.89
437.09	2722.04
437.28	2663.53
437.46	2665.87
437.65	2733.75
437.84	2813.32
438.02	2771.19
438.21	2853.11
438.40	2862.48
438.58	2869.50
438.77	2899.92
438.96	2988.86
439.14	2918.65
439.33	2967.80
439.52	3000.57
439.70	3009.93
439.89	3084.83
440.08	3119.93
440.26	3059.08
440.45	3033.33
440.63	3309.52
440.82	3126.96
441.01	3213.56
441.19	3332.92
441.38	3215.90
441.57	3316.54
441.75	3239.30
441.94	3361.01
442.12	3218.24
442.31	3286.11
442.50	3400.80
442.68	3482.72
442.87	3379.73
443.05	3403.14
443.24	3473.36
443.43	3384.41
443.61	3473.36
443.80	3576.34
443.98	3321.22
444.17	3398.46
444.35	3489.74
444.54	3442.93
444.73	3513.14
444.91	3492.08
445.10	3611.45
445.28	3529.53
445.47	3480.38
445.65	3496.76
445.84	3501.44
446.02	3545.91
446.21	3508.46
446.39	3456.97
446.58	3588.04
446.77	3487.40
446.95	3559.95
447.14	3517.83
447.32	3609.11
447.51	3602.08
447.69	3611.45
447.88	3684.00
448.06	3604.42
448.25	3503.78
448.43	3658.26
448.62	3679.32
448.80	3639.53
448.99	3637.19
449.17	3709.75
449.36	3730.81
449.54	3871.25
449.73	3805.71
449.91	3726.13
450.10	3794.01
450.28	3796.35
450.46	3915.72
450.65	3751.88
450.83	3789.33
451.02	3791.67
451.20	3871.25
451.39	3911.04
451.57	3838.48
451.76	3796.35
451.94	3901.67
452.13	3908.69
452.31	4138.07
452.49	3779.97
452.68	3843.16
452.86	3904.01
453.05	3985.93
453.23	3957.85
453.42	3904.01
453.60	3918.06
453.78	4063.17
453.97	3983.59
454.15	4044.45
454.34	3990.61
454.52	4166.15
454.70	4002.32
454.89	4166.15
455.07	4004.66
455.26	4187.22
455.44	4173.18
455.62	4161.47
455.81	4252.75
455.99	4212.96
456.17	4243.39
456.36	4292.54
456.54	4285.52
456.73	4238.71
456.91	4423.61
457.09	4283.18
457.28	4393.19
457.46	4348.72
457.64	4381.48
457.83	4369.78
458.01	4386.16
458.19	4491.49
458.38	4519.57
458.56	4568.73
458.74	4566.39
458.93	4365.10
459.11	4503.19
459.29	4655.33
459.48	4505.53
459.66	4538.30
459.84	4699.80
460.03	4690.43
460.21	4741.93
460.39	4788.74
460.57	4526.60
460.76	4748.95
460.94	4793.42
461.12	4690.43
461.31	4648.30
461.49	4751.29
461.67	4671.71
461.85	4816.82
462.04	4823.84
462.22	5198.33
462.40	4875.34
462.59	4739.58
462.77	4849.59
462.95	4805.12
463.13	4983.00
463.32	4812.14
463.50	4882.36
463.68	4865.97
463.86	4943.21
464.05	4821.50
464.23	4957.25
464.41	5006.41
464.59	4903.42
464.78	5111.73
464.96	5085.98
465.14	5100.03
465.32	5123.43
465.50	5135.14
465.69	5167.90
465.87	5121.09
466.05	5057.90
466.23	5085.98
466.41	5191.31
466.60	5317.70
466.78	5093.01
466.96	5053.22
467.14	5193.65
467.32	5214.71
467.51	5268.55
467.69	5245.14
467.87	5212.37
468.05	5291.95
468.23	5233.44
468.41	5217.05
468.60	5366.85
468.78	5387.91
468.96	5193.65
469.14	5430.04
469.32	5376.21
469.50	5188.97
469.69	5657.07
469.87	5533.03
470.05	5547.07
470.23	5645.37
470.41	5509.62
470.59	5706.23
470.77	5380.89
470.95	5687.50
471.14	5675.80
471.32	5589.20
471.50	5689.84
471.68	5865.38
471.86	5755.38
472.04	5914.53
472.22	5809.21
472.40	5795.17
472.58	5933.26
472.77	5902.83
472.95	5853.68
473.13	5921.56
473.31	6054.97
473.49	5935.60
473.67	6146.25
473.85	6022.20
474.03	6251.57
474.21	6106.46
474.39	6094.76
474.57	6324.13
474.75	6265.61
474.93	6431.79
475.12	6377.96
475.30	6354.55
475.48	6293.70
475.66	6583.93
475.84	6499.67
476.02	6686.91
476.20	6406.05
476.38	6434.13
476.56	6773.51
476.74	6733.72
476.92	6576.91
477.10	6630.74
477.28	6752.45
477.46	6789.89
477.64	6841.39
477.82	6963.09
478.00	7311.83
478.18	7143.32
478.36	7152.68
478.54	7108.21
478.72	7302.47
478.90	7316.51
479.08	7269.70
479.26	7370.35
479.44	7517.80
479.62	7599.72
479.80	7627.81
479.98	7391.41
480.16	7728.45
480.34	7349.28
480.52	7852.50
480.70	7803.35
480.88	7829.09
481.06	7964.84
481.24	7903.99
481.41	8166.13
481.59	8112.30
481.77	8060.80
481.95	8248.05
482.13	8442.31
482.31	8238.69
482.49	8351.03
482.67	8475.08
482.85	8484.44
483.03	8727.86
483.21	8772.33
483.39	8667.00
483.57	8690.41
483.74	8737.22
483.92	9001.70
484.10	8695.09
484.28	9064.89
484.46	9212.35
484.64	9341.08
484.82	9359.80
485.00	9261.50
485.18	9514.28
485.35	9507.26
485.53	9533.00
485.71	9635.99
485.89	9811.53
486.07	9856.00
486.25	9757.69
486.43	9834.93
486.61	9750.67
486.78	10090.05
486.96	10331.12
487.14	10270.27
487.32	10349.85
487.50	10389.64
487.68	10555.82
487.85	10635.39
488.03	10663.48
488.21	10719.65
488.39	10677.52
488.57	11021.58
488.75	10892.85
488.92	11110.52
489.10	10981.79
489.28	11112.86
489.46	11375.00
489.64	11105.84
489.81	11510.75
489.99	11653.53
490.17	11468.62
490.35	11815.02
490.53	11964.82
490.70	12065.46
490.88	11974.18
491.06	11901.62
491.24	11896.94
491.41	12084.19
491.59	12154.40
491.77	12231.64
491.95	12390.80
492.13	12566.34
492.30	12666.98
492.48	12500.80
492.66	12587.40
492.84	12486.76
493.01	12737.20
493.19	12798.05
493.37	13123.38
493.54	12945.50
493.72	13146.79
493.90	13088.28
494.08	13284.88
494.25	13235.73
494.43	13598.51
494.61	13570.43
494.79	13717.88
494.96	13544.68
495.14	13666.39
495.32	13994.06
495.49	13825.54
495.67	14012.79
495.85	14099.39
496.02	14209.39
496.20	14019.81
496.38	14193.01
496.55	14204.71
496.73	14588.56
496.91	14527.71
497.09	14754.74
497.26	14782.82
497.44	14670.48
497.62	14626.01
497.79	14951.34
497.97	14785.16
498.14	15082.41
498.32	15438.17
498.50	15169.01
498.67	15218.16
498.85	15403.07
499.03	15503.71
499.20	15613.71
499.38	15264.97
499.56	15480.30
499.73	15463.92
499.91	15889.90
500.08	15824.36
500.26	15733.08
500.44	15669.89
500.61	15971.82
500.79	15847.77
500.97	16404.81
501.14	16240.98
501.32	16329.92
501.49	16208.21
501.67	16152.04
501.84	16435.24
502.02	16217.57
502.20	16486.73
502.37	16439.92
502.55	16615.46
502.72	16638.87
502.90	16556.95
503.07	16376.73
503.25	16683.34
503.43	16662.27
503.60	17003.99
503.78	16924.41
503.95	16996.97
504.13	17149.11
504.30	17078.89
504.48	17053.14
504.65	17254.43
504.83	17451.03
505.01	17460.40
505.18	17535.29
505.36	17682.75
505.53	17256.77
505.71	17685.09
505.88	17666.36
506.06	17511.89
506.23	17795.09
506.41	17565.72
506.58	17767.01
506.76	17881.69
506.93	17961.27
507.11	17834.88
507.28	17963.61
507.46	18054.89
507.63	17919.14
507.81	18293.63
507.98	17958.93
508.16	18455.12
508.33	18331.08
508.50	18375.55
508.68	18565.13
508.85	18532.36
509.03	18738.33
509.20	18494.91
509.38	18965.36
509.55	18796.84
509.73	18663.43
509.90	18796.84
510.08	18668.11
510.25	18836.63
510.42	18991.11
510.60	19117.50
510.77	18902.17
510.95	19157.28
511.12	19077.71
511.30	18799.18
511.47	19452.19
511.64	19143.24
511.82	19756.46
511.99	19410.06
512.17	19463.90
512.34	19426.45
512.51	19534.11
512.69	20049.03
512.86	19658.16
513.04	19740.08
513.21	19847.74
513.38	20266.70
513.56	19971.79
513.73	20128.61
513.90	20056.05
514.08	19917.96
514.25	20154.35
514.43	20123.93
514.60	20395.43
514.77	20547.56
514.95	20343.94
515.12	20353.30
515.29	20175.42
515.47	20592.03
515.64	20697.36
515.81	20589.69
515.99	20776.94
516.16	20980.56
516.33	20912.69
516.51	21020.35
516.68	20727.78
516.85	20772.25
517.03	21193.55
517.20	21198.23
517.37	21144.40
517.54	21231.00
517.72	21296.53
517.89	20872.90
518.06	21378.45
518.24	20659.91
518.41	21013.33
518.58	21326.96
518.75	21036.74
518.93	21680.38
519.10	21561.02
519.27	21448.67
519.45	21818.47
519.62	21664.00
519.79	21633.57
519.96	21652.30
520.14	21926.14
520.31	21792.73
520.48	22061.89
520.65	22019.76
520.83	22143.81
521.00	22087.64
521.17	21715.49
521.34	21902.73
521.52	22143.81
521.69	22242.11
521.86	22441.06
522.03	22134.45
522.20	22326.37
522.38	22700.86
522.55	22405.95
522.72	22391.91
522.89	22995.76
523.07	22602.55
523.24	22611.92
523.41	22785.12
523.58	22768.73
523.75	22773.41
523.92	22892.78
524.10	22452.76
524.27	23140.88
524.44	23077.68
524.61	23026.19
524.78	22869.37
524.96	23173.64
525.13	23075.34
525.30	23234.50
525.47	23393.65
525.64	23218.11
525.81	23559.83
525.98	23337.48
526.16	23648.77
526.33	23353.87
526.50	23655.79
526.67	23520.04
526.84	23417.06
527.01	23634.73
527.18	23704.95
527.36	24063.05
527.53	23997.51
527.70	23941.34
527.87	24039.64
528.04	23772.82
528.21	24217.52
528.38	23836.02
528.55	24212.84
528.72	23667.50
528.89	23871.12
529.07	23817.29
529.24	23915.59
529.41	23988.15
529.58	24292.42
529.75	24416.47
529.92	24545.20
530.09	24088.79
530.26	24236.25
530.43	24086.45
530.60	24219.86
530.77	24404.77
530.94	24521.79
531.11	24465.62
531.28	24568.60
531.46	24292.42
531.63	24374.34
531.80	24584.99
531.97	24931.39
532.14	24559.24
532.31	24835.42
532.48	24849.47
532.65	25043.73
532.82	24374.34
532.99	24781.59
533.16	24793.29
533.33	25130.33
533.50	25420.56
533.67	25310.55
533.84	24891.60
534.01	24907.98
534.18	25184.16
534.35	25233.32
534.52	25163.10
534.69	25235.66
534.86	25593.76
535.03	24744.14
535.20	25458.01
535.37	25268.42
535.54	25916.75
535.71	25235.66
535.88	25340.98
536.05	25654.61
536.22	25633.55
536.38	25806.75
536.55	26057.18
536.72	25563.33
536.89	25553.97
537.06	25530.56
537.23	25823.13
537.40	25816.11
537.57	25916.75
537.74	25982.29
537.91	26146.12
538.08	25811.43
538.25	26106.34
538.42	25979.95
538.59	26012.71
538.75	25923.77
538.92	25820.79
539.09	26141.44
539.26	26150.81
539.43	26150.81
539.60	26324.01
539.77	26316.98
539.94	26602.53
540.11	26647.00
540.28	26171.87
540.44	26017.40
540.61	26038.46
540.78	25848.88
540.95	26649.34
541.12	26267.83
541.29	26363.79
541.46	26511.25
541.62	26459.76
541.79	26684.45
541.96	26251.45
542.13	26361.45
542.30	26766.37
542.47	26899.78
542.63	26761.69
542.80	26874.03
542.97	27194.68
543.14	27009.78
543.31	26946.59
543.48	26757.00
543.64	27035.53
543.81	27583.21
543.98	27248.52
544.15	27241.50
544.32	27332.78
544.48	27587.89
544.65	27374.91
544.82	27637.05
544.99	26899.78
545.16	27468.53
545.32	27510.66
545.49	27896.85
545.66	27356.18
545.83	27922.59
546.00	27913.23
546.16	27531.72
546.33	27300.01
546.50	27407.67
546.67	27737.69
546.83	27697.90
547.00	27845.35
547.17	27580.87
547.34	27740.03
547.50	27693.22
547.67	27910.89
547.84	28016.21
548.00	27805.56
548.17	28173.03
548.34	27924.93
548.51	28067.70
548.67	28102.81
548.84	28367.29
549.01	28151.96
549.18	28002.17
549.34	28166.01
549.51	28182.39
549.68	28224.52
549.84	28067.70
550.01	28210.48
550.18	28109.83
550.34	28528.79
550.51	28568.58
550.68	28692.63
550.84	28065.36
551.01	28395.38
551.18	28435.17
551.34	28060.68
551.51	28472.62
551.68	28144.94
551.84	28397.72
552.01	28596.67
552.18	28463.25
552.34	28308.78
552.51	28804.97
552.68	28341.55
552.84	28161.33
553.01	28617.73
553.18	28669.22
553.34	28727.74
553.51	29067.11
553.67	28641.14
553.84	28879.87
554.01	28793.27
554.17	29273.08
554.34	28936.04
554.51	28924.34
554.67	29188.82
554.84	28840.08
555.00	28802.63
555.17	28875.19
555.33	29127.97
555.50	29036.69
555.67	28861.15
555.83	28989.88
556.00	28978.17
556.16	29193.50
556.33	28989.88
556.50	28697.31
556.66	29338.62
556.83	29373.72
556.99	29745.87
557.16	29511.81
557.32	29109.24
557.49	29298.83
557.65	29228.61
557.82	29060.09
557.98	28889.23
558.15	29525.86
558.32	29312.87
558.48	29055.41
558.65	29802.04
558.81	29720.12
558.98	29017.96
559.14	29558.63
559.31	29247.33
559.47	29345.64
559.64	29376.06
559.80	29816.08
559.97	29455.64
560.13	29661.61
560.30	29462.66
560.46	29916.73
560.63	29694.38
560.79	29586.71
560.96	29759.91
561.12	29429.90
561.29	29436.92
561.45	29500.11
561.61	29729.48
561.78	29846.51
561.94	29685.01
562.11	29612.46
562.27	29926.09
562.44	29378.40
562.60	29460.32
562.77	29841.83
562.93	29640.54
563.10	30036.09
563.26	29872.26
563.42	30256.11
563.59	30178.87
563.75	30019.71
563.92	29905.02
564.08	29757.57
564.24	30223.34
564.41	29837.15
564.57	30223.34
564.74	30059.50
564.90	30160.14
565.07	30087.59
565.23	30153.12
565.39	30012.69
565.56	30513.56
565.72	30253.76
565.88	30508.88
566.05	29947.15
566.21	29893.32
566.38	29944.81
566.54	30118.01
566.70	30347.39
566.87	30424.62
567.03	30288.87
567.19	30225.68
567.36	30263.13
567.52	30082.91
567.68	30270.15
567.85	30270.15
568.01	30073.54
568.17	30237.38
568.34	30167.16
568.50	30335.68
568.66	30174.19
568.83	30593.14
568.99	30513.56
569.15	30260.79
569.32	30354.41
569.48	30345.05
569.64	30122.69
569.81	30649.32
569.97	30766.34
570.13	30794.43
570.30	30260.79
570.46	30366.11
570.62	30342.70
570.78	30497.18
570.95	30333.34
571.11	30246.74
571.27	30190.57
571.43	30192.91
571.60	30494.84
571.76	30419.94
571.92	30401.22
572.09	30368.45
572.25	30433.99
572.41	30630.59
572.57	30504.20
572.74	30281.85
572.90	30471.43
573.06	30616.55
573.22	30766.34
573.38	30405.90
573.55	30675.06
573.71	30345.05
573.87	31105.72
574.03	30419.94
574.20	30618.89
574.36	30216.32
574.52	30464.41
574.68	30534.63
574.84	30710.17
575.01	30515.90
575.17	30808.47
575.33	30504.20
575.49	30511.22
575.65	31082.31
575.82	30635.27
575.98	30555.69
576.14	31054.23
576.30	30855.28
576.46	30441.01
576.62	30684.42
576.79	30855.28
576.95	30455.05
577.11	30485.48
577.27	31070.61
577.43	31108.06
577.59	30829.54
577.75	30848.26
577.92	30424.62
578.08	30649.32
578.24	30579.10
578.40	30789.75
578.56	30866.98
578.72	30710.17
578.88	30855.28
579.04	31234.45
579.21	31012.10
579.37	31157.21
579.53	30988.69
579.69	30714.85
579.85	30918.48
580.01	30841.24
580.17	30206.95
580.33	31063.59
580.49	30665.70
580.65	30590.80
580.82	30958.27
580.98	30941.88
581.14	31133.81
581.30	30513.56
581.46	30728.89
581.62	30735.92
581.78	30712.51
581.94	30899.75
582.10	30532.29
582.26	30677.40
582.42	30902.09
582.58	30745.28
582.74	30958.27
582.90	31213.38
583.06	30815.49
583.22	30834.22
583.38	30930.18
583.54	30782.73
583.70	30796.77
583.86	30597.82
584.02	30691.44
584.18	31201.68
584.34	31536.38
584.50	31501.27
584.66	30843.58
584.82	30764.00
584.98	30876.35
585.14	30932.52
585.30	30855.28
585.46	30892.73
585.62	31042.53
585.78	31087.00
585.94	30646.97
586.10	31021.46
586.26	31094.02
586.42	31480.21
586.58	31363.18
586.74	31180.62
586.90	30642.29
587.06	30899.75
587.22	31182.96
587.38	30883.37
587.54	31140.83
587.70	31274.24
587.86	30958.27
588.02	31227.43
588.18	31384.24
588.34	31101.04
588.49	31140.83
588.65	31218.07
588.81	31047.21
588.97	31070.61
589.13	30883.37
589.29	31103.38
589.45	30976.99
589.61	31108.06
589.77	31229.77
589.93	31714.26
590.08	31274.24
590.24	30969.97
590.40	31370.20
590.56	31112.74
590.72	31688.51
590.88	30834.22
591.04	31161.89
591.20	31562.12
591.35	31786.82
591.51	31817.24
591.67	31096.36
591.83	31583.19
