SpectraSuite Data File
++++++++++++++++++++++++++++++++++++
Date: Fri Oct 18 13:58:26 GMT-05:00 2013
User: bianchi
Dark Spectrum Present: No
Reference Spectrum Present: No
Number of Sampled Component Spectra: 1
Spectrometers: USB2+H05261
Integration Time (usec): 50000 (USB2+H05261)
Spectra Averaged: 1 (USB2+H05261)
Boxcar Smoothing: 0 (USB2+H05261)
Correct for Electrical Dark: No (USB2+H05261)
Strobe/Lamp Enabled: No (USB2+H05261)
Correct for Detector Non-linearity: No (USB2+H05261)
Correct for Stray Light: No (USB2+H05261)
Number of Pixels in Processed Spectrum: 2048
>>>>>Begin Processed Spectral Data<<<<<
365.73	0.00
365.92	0.00
366.12	0.00
366.32	0.00
366.52	0.00
366.72	0.00
366.91	0.00
367.11	0.00
367.31	0.00
367.51	0.00
367.70	0.00
367.90	0.00
368.10	0.00
368.30	0.00
368.49	0.00
368.69	0.00
368.89	0.00
369.09	0.00
369.28	0.00
369.48	0.00
369.68	0.00
369.87	0.00
370.07	0.00
370.27	0.00
370.47	0.00
370.66	140.43
370.86	72.56
371.06	67.88
371.25	194.26
371.45	117.03
371.65	147.45
371.84	135.75
372.04	149.79
372.24	163.84
372.44	142.77
372.63	161.50
372.83	257.46
373.03	175.54
373.22	105.32
373.42	229.37
373.62	259.80
373.81	241.08
374.01	217.67
374.21	346.40
374.40	203.63
374.60	170.86
374.79	203.63
374.99	227.03
375.19	217.67
375.38	332.36
375.58	280.86
375.78	224.69
375.97	259.80
376.17	273.84
376.37	248.10
376.56	248.10
376.76	287.89
376.95	227.03
377.15	243.42
377.35	220.01
377.54	175.54
377.74	278.52
377.93	264.48
378.13	332.36
378.33	196.60
378.52	290.23
378.72	234.05
378.91	252.78
379.11	325.33
379.31	255.12
379.50	299.59
379.70	325.33
379.89	271.50
380.09	287.89
380.28	318.31
380.48	292.57
380.68	346.40
380.87	287.89
381.07	283.20
381.26	355.76
381.46	362.78
381.65	301.93
381.85	311.29
382.04	236.39
382.24	273.84
382.43	322.99
382.63	301.93
382.83	318.31
383.02	409.59
383.22	344.06
383.41	290.23
383.61	367.46
383.80	395.55
384.00	395.55
384.19	337.04
384.39	278.52
384.58	365.12
384.78	379.17
384.97	379.17
385.17	313.63
385.36	369.80
385.56	383.85
385.75	383.85
385.95	365.12
386.14	386.19
386.34	402.57
386.53	418.96
386.72	421.30
386.92	388.53
387.11	472.79
387.31	433.00
387.50	393.21
387.70	402.57
387.89	482.15
388.09	376.83
388.28	444.70
388.48	498.53
388.67	383.85
388.86	425.98
389.06	535.98
389.25	517.26
389.45	458.74
389.64	386.19
389.84	554.71
390.03	425.98
390.22	433.00
390.42	514.92
390.61	404.91
390.81	489.17
391.00	454.06
391.19	535.98
391.39	475.13
391.58	449.38
391.78	585.13
391.97	543.00
392.16	524.28
392.36	528.96
392.55	547.69
392.75	575.77
392.94	482.15
393.13	517.26
393.33	608.54
393.52	521.94
393.71	585.13
393.91	580.45
394.10	585.13
394.29	589.82
394.49	561.73
394.68	636.63
394.88	629.60
395.07	645.99
395.26	606.20
395.46	573.43
395.65	737.27
395.84	599.18
396.04	580.45
396.23	573.43
396.42	636.63
396.62	760.67
396.81	653.01
397.00	592.16
397.19	692.80
397.39	669.39
397.58	610.88
397.77	676.41
397.97	655.35
398.16	688.12
398.35	709.18
398.55	800.46
398.74	688.12
398.93	723.23
399.12	648.33
399.32	692.80
399.51	713.86
399.70	793.44
399.90	709.18
400.09	770.04
400.28	833.23
400.47	798.12
400.67	784.08
400.86	772.38
401.05	772.38
401.24	765.36
401.44	840.25
401.63	884.72
401.82	870.68
402.01	777.06
402.21	786.42
402.40	847.27
402.59	744.29
402.78	887.06
402.97	809.83
403.17	912.81
403.36	837.91
403.55	884.72
403.74	802.80
403.93	870.68
404.13	884.72
404.32	894.08
404.51	929.19
404.70	821.53
404.89	823.87
405.09	891.74
405.28	959.62
405.47	919.83
405.66	978.34
405.85	987.71
406.05	990.05
406.24	1064.94
406.43	957.28
406.62	978.34
406.81	1036.86
407.00	1027.50
407.20	990.05
407.39	997.07
407.58	1081.33
407.77	1093.03
407.96	1102.39
408.15	1090.69
408.34	1022.81
408.54	1130.48
408.73	1036.86
408.92	1076.65
409.11	1111.75
409.30	1217.08
409.49	1132.82
409.68	1172.61
409.87	1224.10
410.07	1174.95
410.26	1238.14
410.45	1212.40
410.64	1249.85
410.83	1109.41
411.02	1224.10
411.21	1235.80
411.40	1221.76
411.59	1291.98
411.78	1217.08
411.98	1228.78
412.17	1336.45
412.36	1320.06
412.55	1366.87
412.74	1423.05
412.93	1392.62
413.12	1401.98
413.31	1434.75
413.50	1348.15
413.69	1320.06
413.88	1413.68
414.07	1439.43
414.26	1514.33
414.45	1502.62
414.64	1362.19
414.83	1462.83
415.02	1593.90
415.22	1488.58
415.41	1556.46
415.60	1497.94
415.79	1537.73
415.98	1694.55
416.17	1521.35
416.36	1516.67
416.55	1497.94
416.74	1647.74
416.93	1619.65
417.12	1591.56
417.31	1729.66
417.50	1626.67
417.69	1703.91
417.88	1619.65
418.07	1746.04
418.26	1764.76
418.45	1708.59
418.64	1837.32
418.83	1771.79
419.02	1736.68
419.21	1813.92
419.39	1827.96
419.58	1874.77
419.77	1893.49
419.96	1923.92
420.15	1893.49
420.34	1905.20
420.53	1891.15
420.72	1886.47
420.91	1907.54
421.10	1944.99
421.29	1914.56
421.48	1886.47
421.67	2005.84
421.86	1816.26
422.05	1874.77
422.24	1898.17
422.43	1912.22
422.61	2038.61
422.80	2026.90
422.99	1994.14
423.18	2064.35
423.37	2036.27
423.56	2045.63
423.75	1942.64
423.94	1989.46
424.13	1870.09
424.32	1961.37
424.50	2040.95
424.69	2073.71
424.88	2083.08
425.07	2003.50
425.26	2078.40
425.45	2045.63
425.64	2019.88
425.83	2026.90
426.01	1973.07
426.20	2099.46
426.39	1987.11
426.58	2078.40
426.77	2069.03
426.96	2005.84
427.15	2064.35
427.33	2244.57
427.52	2172.02
427.71	2176.70
427.90	2202.44
428.09	2066.69
428.28	2181.38
428.46	2188.40
428.65	2080.74
428.84	2188.40
429.03	2305.43
429.22	2132.23
429.40	2242.23
429.59	2282.02
429.78	2165.00
429.97	2235.21
430.16	2211.81
430.34	2366.28
430.53	2256.28
430.72	2326.49
430.91	2253.94
431.10	2366.28
431.28	2375.64
431.47	2333.51
431.66	2506.71
431.85	2314.79
432.03	2328.83
432.22	2478.63
432.41	2401.39
432.60	2443.52
432.79	2413.09
432.97	2396.71
433.16	2466.92
433.35	2464.58
433.54	2429.48
433.72	2532.46
433.91	2408.41
434.10	2450.54
434.28	2616.72
434.47	2530.12
434.66	2574.59
434.85	2642.46
435.03	2663.53
435.22	2600.34
435.41	2642.46
435.59	2558.21
435.78	2682.25
435.97	2771.19
436.16	2590.97
436.34	2623.74
436.53	2621.40
436.72	2773.53
436.90	2532.46
437.09	2731.41
437.28	2724.38
437.46	2715.02
437.65	2796.94
437.84	2764.17
438.02	2635.44
438.21	2789.92
438.40	2846.09
438.58	2916.31
438.77	2841.41
438.96	2738.43
439.14	2928.01
439.33	3049.72
439.52	2925.67
439.70	3063.76
439.89	3045.04
440.08	2967.80
440.26	3023.97
440.45	3112.91
440.63	3082.49
440.82	3112.91
441.01	3110.57
441.19	3213.56
441.38	3105.89
441.57	3180.79
441.75	3194.83
441.94	3353.99
442.12	3281.43
442.31	3365.69
442.50	3358.67
442.68	3332.92
442.87	3351.65
443.05	3178.45
443.24	3330.58
443.43	3356.33
443.61	3379.73
443.80	3571.66
443.98	3262.71
444.17	3258.03
444.35	3283.77
444.54	3379.73
444.73	3454.63
444.91	3487.40
445.10	3300.16
445.28	3403.14
445.47	3370.37
445.65	3438.25
445.84	3501.44
446.02	3468.67
446.21	3541.23
446.39	3562.30
446.58	3606.77
446.77	3461.65
446.95	3466.33
447.14	3375.05
447.32	3468.67
447.51	3398.46
447.69	3576.34
447.88	3641.87
448.06	3583.36
448.25	3426.54
448.43	3688.68
448.62	3632.51
448.80	3463.99
448.99	3508.46
449.17	3611.45
449.36	3538.89
449.54	3648.90
449.73	3733.15
449.91	3688.68
450.10	3679.32
450.28	3730.81
450.46	3667.62
450.65	3705.07
450.83	3686.34
451.02	3789.33
451.20	3822.09
451.39	3693.37
451.57	3840.82
451.76	3679.32
451.94	3843.16
452.13	3864.22
452.31	3873.59
452.49	3754.22
452.68	3964.87
452.86	3868.91
453.05	3894.65
453.23	3981.25
453.42	3833.80
453.60	3866.56
453.78	3810.39
453.97	3971.89
454.15	3932.10
454.34	3997.64
454.52	4035.08
454.70	3927.42
454.89	4208.28
455.07	3908.69
455.26	3988.27
455.44	4098.28
455.62	4037.42
455.81	4035.08
455.99	4147.43
456.17	4173.18
456.36	4121.68
456.54	4198.92
456.73	4170.83
456.91	4346.37
457.09	4287.86
457.28	4386.16
457.46	4255.09
457.64	4360.42
457.83	4255.09
458.01	4236.37
458.19	4168.49
458.38	4449.36
458.56	4362.76
458.74	4400.21
458.93	4271.48
459.11	4514.89
459.29	4477.44
459.48	4521.92
459.66	4461.06
459.84	4407.23
460.03	4575.75
460.21	4559.36
460.39	4540.64
460.57	4596.81
460.76	4545.32
460.94	4702.14
461.12	4671.71
461.31	4631.92
461.49	4573.41
461.67	4507.87
461.85	4678.73
462.04	4683.41
462.22	4770.01
462.40	4676.39
462.59	4641.28
462.77	4725.54
462.95	4732.56
463.13	4629.58
463.32	4594.47
463.50	4770.01
463.68	4917.47
463.86	4814.48
464.05	4816.82
464.23	4837.89
464.41	4835.55
464.59	4755.97
464.78	5008.75
464.96	4915.12
465.14	4727.88
465.32	4840.23
465.50	5050.88
465.69	4968.96
465.87	4896.40
466.05	4812.14
466.23	4966.62
466.41	5111.73
466.60	5128.11
466.78	5041.51
466.96	5008.75
467.14	4980.66
467.32	4938.53
467.51	5109.39
467.69	5032.15
467.87	5130.45
468.05	5200.67
468.23	5247.48
468.41	5102.37
468.60	5093.01
468.78	5191.31
468.96	5163.22
469.14	5214.71
469.32	5380.89
469.50	5090.67
469.69	5341.10
469.87	5238.12
470.05	5376.21
470.23	5427.70
470.41	5423.02
470.59	5476.85
470.77	5275.57
470.95	5448.77
471.14	5387.91
471.32	5540.05
471.50	5605.58
471.68	5603.24
471.86	5659.42
472.04	5628.99
472.22	5652.39
472.40	5640.69
472.58	5713.25
472.77	5792.83
472.95	5781.12
473.13	5994.11
473.31	5888.79
473.49	5650.05
473.67	5795.17
473.85	5607.92
474.03	6024.54
474.21	6003.47
474.39	5881.77
474.57	5940.28
474.75	6263.27
474.93	6279.66
475.12	6120.50
475.30	6171.99
475.48	6118.16
475.66	6282.00
475.84	6221.14
476.02	6459.88
476.20	6380.30
476.38	6502.01
476.56	6509.03
476.74	6626.06
476.92	6513.71
477.10	6637.76
477.28	6771.17
477.46	6555.84
477.64	6654.14
477.82	6757.13
478.00	6951.39
478.18	6937.35
478.36	7014.59
478.54	6902.24
478.72	7016.93
478.90	7236.94
479.08	7232.26
479.26	7197.15
479.44	7258.00
479.62	7398.43
479.80	7463.97
479.98	7311.83
480.16	7398.43
480.34	7330.56
480.52	7737.81
480.70	7843.14
480.88	7478.01
481.06	7843.14
481.24	7829.09
481.41	7852.50
481.59	8021.02
481.77	7908.67
481.95	7983.57
482.13	8002.29
482.31	8173.15
482.49	8105.28
482.67	8353.37
482.85	8292.52
483.03	8489.12
483.21	8491.46
483.39	8737.22
483.57	8531.25
483.74	8542.96
483.92	8582.74
484.10	8713.81
484.28	8709.13
484.46	8922.12
484.64	9102.34
484.82	8840.20
485.00	9022.77
485.18	9376.19
485.35	9502.58
485.53	9483.85
485.71	9273.20
485.89	9781.10
486.07	9528.32
486.25	9493.21
486.43	9771.74
486.61	9652.37
486.78	9902.81
486.96	9776.42
487.14	9980.04
487.32	9980.04
487.50	10146.22
487.68	10298.36
487.85	10457.51
488.03	10317.08
488.21	10354.53
488.39	10359.21
488.57	10691.57
488.75	10607.31
488.92	10839.02
489.10	10942.00
489.28	10808.59
489.46	10895.19
489.64	10963.07
489.81	11290.74
489.99	11267.34
490.17	11293.08
490.35	11485.01
490.53	11531.82
490.70	11721.40
490.88	11543.52
491.06	11573.95
491.24	11545.86
491.41	11705.02
491.59	12018.65
491.77	11962.48
491.95	12138.02
492.13	12105.25
492.30	12243.34
492.48	12138.02
492.66	12128.66
492.84	12479.74
493.01	12442.29
493.19	12491.44
493.37	12564.00
493.54	12648.26
493.72	12805.07
493.90	12926.78
494.08	12919.76
494.25	13041.46
494.43	13181.90
494.61	13099.98
494.79	13488.51
494.96	13418.29
495.14	13341.05
495.32	13530.64
495.49	13638.30
495.67	13923.85
495.85	13785.76
496.02	13965.98
496.20	13891.08
496.38	13862.99
496.55	13837.25
496.73	13937.89
496.91	14073.64
497.09	14024.49
497.26	14267.91
497.44	14403.66
497.62	14497.28
497.79	14551.11
497.97	14607.28
498.14	14803.89
498.32	14771.12
498.50	14946.66
498.67	14839.00
498.85	14782.82
499.03	15150.29
499.20	15096.46
499.38	15007.52
499.56	15030.92
499.73	15367.96
499.91	15393.70
500.08	15461.58
500.26	15201.78
500.44	15440.51
500.61	15213.48
500.79	15761.17
500.97	15819.68
501.14	15782.23
501.32	15651.16
501.49	15981.18
501.67	15562.22
501.84	15714.36
502.02	15878.19
502.20	16161.40
502.37	16245.66
502.55	15887.56
502.72	16428.22
502.90	15957.77
503.07	16163.74
503.25	16248.00
503.43	16430.56
503.60	16446.94
503.78	16334.60
503.95	16519.50
504.13	16306.51
504.30	16610.78
504.48	16542.91
504.65	16606.10
504.83	17001.65
505.01	16940.80
505.18	17123.36
505.36	17041.44
505.53	16985.27
505.71	17090.59
505.88	17085.91
506.06	16844.84
506.23	17289.54
506.41	17160.81
506.58	17504.87
506.76	17336.35
506.93	17219.32
507.11	17563.38
507.28	17303.58
507.46	17493.16
507.63	17605.51
507.81	17544.66
507.98	17366.78
508.16	17940.21
508.33	17879.35
508.50	17855.95
508.68	17762.33
508.85	18129.79
509.03	18073.62
509.20	18384.91
509.38	18146.17
509.55	18389.59
509.73	18155.54
509.90	18356.82
510.08	18277.24
510.25	18176.60
510.42	18506.62
510.60	18412.99
510.77	18614.28
510.95	18640.03
511.12	18040.85
511.30	18956.00
511.47	18771.10
511.64	18991.11
511.82	19180.69
511.99	19000.47
512.17	19124.52
512.34	18946.64
512.51	19105.79
512.69	19126.86
512.86	19129.20
513.04	19499.00
513.21	19344.53
513.38	19360.91
513.56	19466.24
513.73	19506.02
513.90	19473.26
514.08	19765.82
514.25	19543.47
514.43	19716.67
514.60	19702.63
514.77	19889.87
514.95	20114.56
515.12	19983.49
515.29	19562.20
515.47	19758.80
515.64	20140.31
515.81	20130.95
515.99	20177.76
516.16	20034.99
516.33	20327.55
516.51	20350.96
516.68	20187.12
516.85	20236.27
517.03	20313.51
517.20	20315.85
517.37	20435.22
517.54	20507.77
517.72	20641.18
517.89	20397.77
518.06	20528.84
518.24	20608.42
518.41	20570.97
518.58	20697.36
518.75	20802.68
518.93	20931.41
519.10	20985.24
519.27	20758.21
519.45	20919.71
519.62	20767.57
519.79	21186.53
519.96	20793.32
520.14	21223.98
520.31	21088.23
520.48	21640.59
520.65	21223.98
520.83	21287.17
521.00	21048.44
521.17	21135.04
521.34	21296.53
521.52	21558.67
521.69	21331.64
521.86	21748.26
522.03	21720.17
522.20	21544.63
522.38	21823.16
522.55	21530.59
522.72	21961.25
522.89	21820.81
523.07	22122.74
523.24	21830.18
523.41	22099.34
523.58	21551.65
523.75	22045.51
523.92	22047.85
524.10	21865.28
524.27	22022.10
524.44	22508.93
524.61	22473.82
524.78	21851.24
524.96	22349.78
525.13	22419.99
525.30	22548.72
525.47	22602.55
525.64	22628.30
525.81	22888.10
525.98	22586.17
526.16	22885.76
526.33	22492.55
526.50	22609.58
526.67	22780.43
526.84	22867.03
527.01	22698.52
527.18	22766.39
527.36	22974.70
527.53	22780.43
527.70	23431.10
527.87	23484.94
528.04	23168.96
528.21	23239.18
528.38	23026.19
528.55	22909.16
528.72	22934.91
528.89	23410.04
529.07	23133.86
529.24	23255.56
529.41	23503.66
529.58	23253.22
529.75	23253.22
529.92	23407.70
530.09	23641.75
530.26	23686.22
530.43	23632.39
530.60	23197.05
530.77	23396.00
530.94	23679.20
531.11	23749.42
531.28	23931.98
531.46	23662.82
531.63	24009.22
531.80	24027.94
531.97	24093.47
532.14	24187.10
532.31	23910.91
532.48	23840.70
532.65	24070.07
532.82	23803.25
532.99	23922.62
533.16	23889.85
533.33	24577.97
533.50	24615.41
533.67	24554.56
533.84	23875.80
534.01	23798.57
534.18	24212.84
534.35	24367.32
534.52	24432.85
534.69	24222.20
534.86	24783.93
535.03	24432.85
535.20	24657.54
535.37	24641.16
535.54	24510.09
535.71	24891.60
535.88	24610.73
536.05	24407.11
536.22	24886.92
536.38	25076.50
536.55	24954.79
536.72	24893.94
536.89	24790.95
537.06	24643.50
537.23	25221.61
537.40	25163.10
537.57	25062.46
537.74	25015.65
537.91	25366.73
538.08	25355.02
538.25	25088.20
538.42	25303.53
538.59	25326.94
538.75	24819.04
538.92	25127.99
539.09	25352.68
539.26	25249.70
539.43	25352.68
539.60	25394.81
539.77	25617.16
539.94	25734.19
540.11	25340.98
540.28	25432.26
540.44	25493.12
540.61	25256.72
540.78	25343.32
540.95	25776.32
541.12	25607.80
541.29	25752.91
541.46	25806.75
541.62	25816.11
541.79	25565.67
541.96	25104.59
542.13	25563.33
542.30	25979.95
542.47	25701.42
542.63	26122.72
542.80	25879.30
542.97	26237.41
543.14	26192.94
543.31	25979.95
543.48	26043.14
543.64	26494.86
543.81	26682.11
543.98	26501.89
544.15	26204.64
544.32	26356.77
544.48	26443.37
544.65	26225.70
544.82	26583.80
544.99	25823.13
545.16	26242.09
545.32	26464.44
545.49	26792.11
545.66	26712.53
545.83	26871.69
546.00	26796.79
546.16	26867.01
546.33	26340.39
546.50	26375.50
546.67	26897.44
546.83	26803.82
547.00	26817.86
547.17	26850.63
547.34	27150.21
547.50	27115.11
547.67	27321.07
547.84	26810.84
548.00	26902.12
548.17	26754.66
548.34	26895.10
548.51	27283.62
548.67	27545.76
548.84	27108.08
549.01	26946.59
549.18	27161.92
549.34	27094.04
549.51	27063.61
549.68	27253.20
549.84	27222.77
550.01	27337.46
550.18	27407.67
550.34	27044.89
550.51	27501.29
550.68	27786.84
550.84	27473.21
551.01	27381.93
551.18	27040.21
551.34	27274.26
551.51	27332.78
551.68	27641.73
551.84	27819.61
552.01	27353.84
552.18	27520.02
552.34	27372.57
552.51	27623.00
552.68	27414.69
552.84	27763.43
553.01	27264.90
553.18	27775.14
553.34	27676.83
553.51	27850.03
553.67	28325.16
553.84	28002.17
554.01	27618.32
554.17	27620.66
554.34	27990.47
554.51	27960.04
554.67	27950.68
554.84	27873.44
555.00	27941.32
555.17	27543.42
555.33	27894.50
555.50	27803.22
555.67	28107.49
555.83	27927.27
556.00	28112.17
556.16	28259.63
556.33	28084.09
556.50	28191.75
556.66	28187.07
556.83	28095.79
556.99	28320.48
557.16	28400.06
557.32	28477.30
557.49	28147.28
557.65	28072.39
557.82	28065.36
557.98	28294.74
558.15	28383.68
558.32	28545.17
558.48	28346.23
558.65	28882.21
558.81	28287.71
558.98	28484.32
559.14	28683.27
559.31	28430.49
559.47	28662.20
559.64	28580.28
559.80	28622.41
559.97	28622.41
560.13	28283.03
560.30	28329.84
560.46	28865.83
560.63	28599.01
560.79	28840.08
560.96	28606.03
561.12	28336.87
561.29	28849.44
561.45	28741.78
561.61	28678.58
561.78	28926.68
561.94	28533.47
562.11	28577.94
562.27	28760.50
562.44	28840.08
562.60	28748.80
562.77	28776.89
562.93	28889.23
563.10	29364.36
563.26	28694.97
563.42	29385.43
563.59	29034.35
563.75	28594.32
563.92	28950.09
564.08	28924.34
564.24	28865.83
564.41	28802.63
564.57	28662.20
564.74	28800.29
564.90	28896.25
565.07	29172.44
565.23	29003.92
565.39	29055.41
565.56	29198.18
565.72	29039.03
565.88	29179.46
566.05	28758.16
566.21	28940.72
566.38	29078.82
566.54	29427.56
566.70	29488.41
566.87	29357.34
567.03	29500.11
567.19	29797.36
567.36	29308.19
567.52	28914.98
567.68	29340.96
567.85	29046.05
568.01	29104.56
568.17	29193.50
568.34	29324.57
568.50	29106.90
568.66	29055.41
568.83	29535.22
568.99	29465.00
569.15	29376.06
569.32	29308.19
569.48	29048.39
569.64	29174.78
569.81	29284.78
569.97	29172.44
570.13	29434.58
570.30	29120.95
570.46	29333.93
570.62	29151.37
570.78	29282.44
570.95	29212.23
571.11	29151.37
571.27	29284.78
571.43	29165.42
571.60	29106.90
571.76	29046.05
571.92	29401.81
572.09	29404.15
572.25	29537.56
572.41	29287.12
572.57	29434.58
572.74	29434.58
572.90	29099.88
573.06	29027.32
573.22	29298.83
573.38	29226.27
573.55	29237.97
573.71	29876.94
573.87	29577.35
574.03	29530.54
574.20	29422.87
574.36	29149.03
574.52	29553.94
574.68	29792.68
574.84	29270.74
575.01	29596.07
575.17	29642.88
575.33	29855.87
575.49	29376.06
575.65	29598.41
575.82	29575.01
575.98	29589.05
576.14	29827.79
576.30	29949.50
576.46	29392.45
576.62	29450.96
576.79	29530.54
576.95	29514.16
577.11	29654.59
577.27	29799.70
577.43	29778.64
577.59	29898.00
577.75	29654.59
577.92	29481.39
578.08	29544.58
578.24	29944.81
578.40	29766.93
578.56	29612.46
578.72	29507.13
578.88	29638.20
579.04	29893.32
579.21	29724.80
579.37	29546.92
579.53	29652.25
579.69	29095.20
579.85	29809.06
580.01	29792.68
580.17	29242.65
580.33	29853.53
580.49	29479.05
580.65	29865.24
580.82	29921.41
580.98	29820.77
581.14	29429.90
581.30	29731.83
581.46	29642.88
581.62	29593.73
581.78	29479.05
581.94	29139.67
582.10	29282.44
582.26	29593.73
582.42	29975.24
582.58	29757.57
582.74	30094.61
582.90	29703.74
583.06	29839.49
583.22	29544.58
583.38	29965.88
583.54	29523.52
583.70	29432.24
583.86	29816.08
584.02	29848.85
584.18	30237.38
584.34	29771.61
584.50	29998.65
584.66	29502.45
584.82	29830.13
584.98	29792.68
585.14	29813.74
585.30	29500.11
585.46	29844.17
585.62	29469.69
585.78	29612.46
585.94	29589.05
586.10	29876.94
586.26	29727.14
586.42	29926.09
586.58	29963.54
586.74	29699.06
586.90	29898.00
587.06	29752.89
587.22	29743.53
587.38	29717.78
587.54	30216.32
587.70	29813.74
587.86	29869.92
588.02	29848.85
588.18	30389.52
588.34	30185.89
588.49	29872.26
588.65	30075.88
588.81	29504.79
588.97	29792.68
589.13	29986.94
589.29	29809.06
589.45	30045.46
589.61	29963.54
589.77	30202.27
589.93	29912.05
590.08	30286.53
590.24	29972.90
590.40	29979.92
590.56	30204.61
590.72	30010.35
590.88	29956.52
591.04	29975.24
591.20	30323.98
591.35	30298.23
591.51	30560.37
591.67	30321.64
591.83	30066.52
591.99	30305.26
