SpectraSuite Data File
++++++++++++++++++++++++++++++++++++
Date: Fri Oct 18 13:58:20 GMT-05:00 2013
User: bianchi
Dark Spectrum Present: No
Reference Spectrum Present: No
Number of Sampled Component Spectra: 1
Spectrometers: USB2+H05261
Integration Time (usec): 50000 (USB2+H05261)
Spectra Averaged: 1 (USB2+H05261)
Boxcar Smoothing: 0 (USB2+H05261)
Correct for Electrical Dark: No (USB2+H05261)
Strobe/Lamp Enabled: No (USB2+H05261)
Correct for Detector Non-linearity: No (USB2+H05261)
Correct for Stray Light: No (USB2+H05261)
Number of Pixels in Processed Spectrum: 2048
>>>>>Begin Processed Spectral Data<<<<<
365.73	0.00
365.92	0.00
366.12	0.00
366.32	0.00
366.52	0.00
366.72	0.00
366.91	0.00
367.11	0.00
367.31	0.00
367.51	0.00
367.70	0.00
367.90	0.00
368.10	0.00
368.30	0.00
368.49	0.00
368.69	0.00
368.89	0.00
369.09	0.00
369.28	0.00
369.48	0.00
369.68	0.00
369.87	0.00
370.07	0.00
370.27	0.00
370.47	0.00
370.66	105.32
370.86	51.49
371.06	46.81
371.25	177.88
371.45	154.48
371.65	131.07
371.84	152.13
372.04	156.82
372.24	149.79
372.44	163.84
372.63	222.35
372.83	299.59
373.03	287.89
373.22	241.08
373.42	198.95
373.62	133.41
373.81	142.77
374.01	234.05
374.21	142.77
374.40	259.80
374.60	301.93
374.79	220.01
374.99	227.03
375.19	339.38
375.38	250.44
375.58	184.90
375.78	252.78
375.97	283.20
376.17	280.86
376.37	269.16
376.56	252.78
376.76	252.78
376.95	241.08
377.15	292.57
377.35	271.50
377.54	341.72
377.74	257.46
377.93	264.48
378.13	255.12
378.33	365.12
378.52	280.86
378.72	327.68
378.91	297.25
379.11	325.33
379.31	290.23
379.50	227.03
379.70	292.57
379.89	327.68
380.09	297.25
380.28	318.31
380.48	280.86
380.68	290.23
380.87	287.89
381.07	297.25
381.26	339.38
381.46	318.31
381.65	351.08
381.85	308.95
382.04	337.04
382.24	280.86
382.43	407.25
382.63	353.42
382.83	388.53
383.02	327.68
383.22	383.85
383.41	381.51
383.61	322.99
383.80	353.42
384.00	409.59
384.19	351.08
384.39	311.29
384.58	367.46
384.78	472.79
384.97	444.70
385.17	351.08
385.36	372.15
385.56	339.38
385.75	433.00
385.95	374.49
386.14	360.44
386.34	397.89
386.53	449.38
386.72	365.12
386.92	386.19
387.11	510.24
387.31	428.32
387.50	390.87
387.70	395.55
387.89	393.21
388.09	418.96
388.28	379.17
388.48	449.38
388.67	437.68
388.86	442.36
389.06	475.13
389.25	496.19
389.45	365.12
389.64	463.43
389.84	444.70
390.03	463.43
390.22	470.45
390.42	437.68
390.61	472.79
390.81	517.26
391.00	472.79
391.19	482.15
391.39	505.56
391.58	585.13
391.78	543.00
391.97	524.28
392.16	543.00
392.36	557.05
392.55	540.66
392.75	528.96
392.94	517.26
393.13	573.43
393.33	566.41
393.52	505.56
393.71	571.09
393.91	580.45
394.10	517.26
394.29	645.99
394.49	526.62
394.68	533.64
394.88	615.56
395.07	601.52
395.26	575.77
395.46	645.99
395.65	571.09
395.84	610.88
396.04	669.39
396.23	601.52
396.42	603.86
396.62	674.07
396.81	683.44
397.00	589.82
397.19	678.76
397.39	737.27
397.58	699.82
397.77	622.58
397.97	578.11
398.16	739.61
398.35	725.57
398.55	650.67
398.74	667.05
398.93	690.46
399.12	711.52
399.32	723.23
399.51	741.95
399.70	767.70
399.90	645.99
400.09	746.63
400.28	774.72
400.47	823.87
400.67	798.12
400.86	734.93
401.05	751.31
401.24	741.95
401.44	791.10
401.63	784.08
401.82	833.23
402.01	795.78
402.21	851.96
402.40	851.96
402.59	919.83
402.78	856.64
402.97	802.80
403.17	830.89
403.36	875.36
403.55	912.81
403.74	908.13
403.93	828.55
404.13	959.62
404.32	933.87
404.51	938.55
404.70	889.40
404.89	833.23
405.09	861.32
405.28	933.87
405.47	891.74
405.66	999.41
405.85	938.55
406.05	896.43
406.24	1069.62
406.43	964.30
406.62	976.00
406.81	1083.67
407.00	1020.47
407.20	1071.97
407.39	1011.11
407.58	1020.47
407.77	1013.45
407.96	1076.65
408.15	1109.41
408.34	1132.82
408.54	1048.56
408.73	1107.07
408.92	1132.82
409.11	1107.07
409.30	1188.99
409.49	1088.35
409.68	1053.24
409.87	1196.01
410.07	1165.59
410.26	1179.63
410.45	1165.59
410.64	1167.93
410.83	1142.18
411.02	1200.69
411.21	1284.95
411.40	1289.64
411.59	1228.78
411.78	1266.23
411.98	1294.32
412.17	1394.96
412.36	1231.12
412.55	1341.13
412.74	1465.18
412.93	1313.04
413.12	1317.72
413.31	1270.91
413.50	1322.40
413.69	1385.60
413.88	1371.55
414.07	1467.52
414.26	1427.73
414.45	1451.13
414.64	1523.69
414.83	1565.82
415.02	1579.86
415.22	1479.22
415.41	1549.43
415.60	1607.95
415.79	1577.52
415.98	1500.28
416.17	1582.20
416.36	1640.72
416.55	1774.13
416.74	1654.76
416.93	1570.50
417.12	1696.89
417.31	1694.55
417.50	1823.28
417.69	1839.66
417.88	1778.81
418.07	1788.17
418.26	1727.32
418.45	1664.12
418.64	1809.23
418.83	1912.22
419.02	1680.50
419.21	1867.75
419.39	1858.39
419.58	1891.15
419.77	1891.15
419.96	2001.16
420.15	1834.98
420.34	1795.19
420.53	1968.39
420.72	1853.70
420.91	1837.32
421.10	1891.15
421.29	1956.69
421.48	1844.34
421.67	1900.52
421.86	1907.54
422.05	1998.82
422.24	2057.33
422.43	2003.50
422.61	1987.11
422.80	2043.29
422.99	2038.61
423.18	2031.58
423.37	2174.36
423.56	2083.08
423.75	1905.20
423.94	1961.37
424.13	1804.55
424.32	1914.56
424.50	2031.58
424.69	2148.61
424.88	2064.35
425.07	1963.71
425.26	2085.42
425.45	2169.68
425.64	2083.08
425.83	1970.73
426.01	2085.42
426.20	2153.29
426.39	2080.74
426.58	2071.37
426.77	2186.06
426.96	2143.93
427.15	2090.10
427.33	2097.12
427.52	2087.76
427.71	2188.40
427.90	2143.93
428.09	2099.46
428.28	2146.27
428.46	2275.00
428.65	2181.38
428.84	2251.60
429.03	2286.70
429.22	2150.95
429.40	2291.38
429.59	2249.25
429.78	2214.15
429.97	2047.97
430.16	2263.30
430.34	2172.02
430.53	2235.21
430.72	2335.85
430.91	2335.85
431.10	2406.07
431.28	2277.34
431.47	2345.22
431.66	2427.14
431.85	2235.21
432.03	2431.82
432.22	2492.67
432.41	2328.83
432.60	2478.63
432.79	2448.20
432.97	2443.52
433.16	2480.97
433.35	2485.65
433.54	2539.48
433.72	2525.44
433.91	2579.27
434.10	2576.93
434.28	2396.71
434.47	2572.25
434.66	2555.86
434.85	2551.18
435.03	2668.21
435.22	2530.12
435.41	2752.47
435.59	2684.59
435.78	2593.31
435.97	2605.02
436.16	2569.91
436.34	2700.98
436.53	2616.72
436.72	2675.23
436.90	2710.34
437.09	2775.88
437.28	2651.83
437.46	2754.81
437.65	2902.26
437.84	2874.18
438.02	2836.73
438.21	2750.13
438.40	2825.03
438.58	2766.51
438.77	2932.69
438.96	2935.03
439.14	2953.76
439.33	2881.20
439.52	2846.09
439.70	3155.04
439.89	3063.76
440.08	3026.31
440.26	3000.57
440.45	3105.89
440.63	2995.89
440.82	3183.13
441.01	3126.96
441.19	3047.38
441.38	3220.58
441.57	3227.60
441.75	3234.62
441.94	3190.15
442.12	3346.97
442.31	3335.26
442.50	3342.28
442.68	3286.11
442.87	3384.41
443.05	3323.56
443.24	3335.26
443.43	3346.97
443.61	3487.40
443.80	3531.87
443.98	3316.54
444.17	3302.50
444.35	3508.46
444.54	3428.88
444.73	3482.72
444.91	3447.61
445.10	3368.03
445.28	3513.14
445.47	3445.27
445.65	3410.16
445.84	3639.53
446.02	3597.40
446.21	3419.52
446.39	3449.95
446.58	3510.80
446.77	3492.08
446.95	3454.63
447.14	3372.71
447.32	3440.59
447.51	3562.30
447.69	3501.44
447.88	3527.19
448.06	3574.00
448.25	3428.88
448.43	3590.38
448.62	3609.11
448.80	3538.89
448.99	3562.30
449.17	3618.47
449.36	3545.91
449.54	3742.52
449.73	3686.34
449.91	3812.73
450.10	3700.39
450.28	3859.54
450.46	3920.40
450.65	3688.68
450.83	3775.28
451.02	3805.71
451.20	3747.20
451.39	3875.93
451.57	3723.79
451.76	3733.15
451.94	3768.26
452.13	3850.18
452.31	3922.74
452.49	3845.50
452.68	3960.19
452.86	3922.74
453.05	4011.68
453.23	3988.27
453.42	3887.63
453.60	4021.04
453.78	3812.73
453.97	3915.72
454.15	3908.69
454.34	3964.87
454.52	3892.31
454.70	4011.68
454.89	4121.68
455.07	3983.59
455.26	4107.64
455.44	4133.39
455.62	4112.32
455.81	4227.01
455.99	4212.96
456.17	4241.05
456.36	4070.19
456.54	4177.86
456.73	4219.99
456.91	4468.08
457.09	4348.72
457.28	4425.95
457.46	4376.80
457.64	4257.43
457.83	4554.68
458.01	4437.66
458.19	4348.72
458.38	4283.18
458.56	4423.61
458.74	4482.13
458.93	4521.92
459.11	4397.87
459.29	4491.49
459.48	4531.28
459.66	4547.66
459.84	4557.02
460.03	4697.46
460.21	4561.70
460.39	4620.22
460.57	4571.07
460.76	4645.96
460.94	4706.82
461.12	4683.41
461.31	4720.86
461.49	4674.05
461.67	4681.07
461.85	4683.41
462.04	4624.90
462.22	5013.43
462.40	4753.63
462.59	4648.30
462.77	4882.36
462.95	4779.37
463.13	4947.89
463.32	4819.16
463.50	5020.45
463.68	4933.85
463.86	4777.03
464.05	4835.55
464.23	4821.50
464.41	4894.06
464.59	4873.00
464.78	5090.67
464.96	4877.68
465.14	4971.30
465.32	5107.05
465.50	5111.73
465.69	5069.60
465.87	4968.96
466.05	5132.79
466.23	5050.88
466.41	4947.89
466.60	5221.74
466.78	5219.39
466.96	5095.35
467.14	5195.99
467.32	5210.03
467.51	5121.09
467.69	5046.20
467.87	5095.35
468.05	5228.76
468.23	5107.05
468.41	5212.37
468.60	5327.06
468.78	5296.63
468.96	5210.03
469.14	5050.88
469.32	5355.15
469.50	5308.34
469.69	5490.90
469.87	5575.16
470.05	5523.66
470.23	5380.89
470.41	5369.19
470.59	5317.70
470.77	5579.84
470.95	5563.45
471.14	5561.11
471.32	5467.49
471.50	5713.25
471.68	5607.92
471.86	5678.14
472.04	5647.71
472.22	5865.38
472.40	5654.73
472.58	5799.85
472.77	5804.53
472.95	5900.49
473.13	6104.12
473.31	5874.74
473.49	5806.87
473.67	5928.58
473.85	5767.08
474.03	5884.11
474.21	5954.32
474.39	6270.30
474.57	6153.27
474.75	6183.70
474.93	6375.62
475.12	6179.01
475.30	6141.57
475.48	6342.85
475.66	6277.32
475.84	6579.25
476.02	6389.66
476.20	6303.06
476.38	6478.60
476.56	6478.60
476.74	6530.09
476.92	6633.08
477.10	6677.55
477.28	6827.34
477.46	6761.81
477.64	6897.56
477.82	6684.57
478.00	6970.12
478.18	6951.39
478.36	7091.82
478.54	7087.14
478.72	7012.24
478.90	7192.47
479.08	7328.22
479.26	7311.83
479.44	7363.33
479.62	7447.58
479.80	7253.32
479.98	7421.84
480.16	7557.59
480.34	7524.82
480.52	7581.00
480.70	7878.24
480.88	7747.17
481.06	7770.58
481.24	7641.85
481.41	7894.63
481.59	7957.82
481.77	8116.98
481.95	8067.83
482.13	8128.68
482.31	8056.12
482.49	8400.18
482.67	8322.94
482.85	8425.93
483.03	8601.47
483.21	8709.13
483.39	8620.19
483.57	8564.02
483.74	8748.92
483.92	8702.11
484.10	8636.58
484.28	8947.87
484.46	9156.18
484.64	9139.79
484.82	9092.98
485.00	9100.00
485.18	9245.12
485.35	9287.25
485.53	9432.36
485.71	9462.79
485.89	9547.05
486.07	9664.07
486.25	9736.63
486.43	9713.22
486.61	9727.27
486.78	9947.28
486.96	10015.15
487.14	10134.52
487.32	10003.45
487.50	10136.86
487.68	10384.96
487.85	10497.30
488.03	10623.69
488.21	10597.95
488.39	10759.44
488.57	10810.93
488.75	10757.10
488.92	10930.30
489.10	11129.25
489.28	11115.20
489.46	11290.74
489.64	11131.59
489.81	11309.47
489.99	11609.06
490.17	11255.64
490.35	11485.01
490.53	11548.20
490.70	11735.45
490.88	11564.59
491.06	11948.43
491.24	11651.19
491.41	12116.95
491.59	11903.96
491.77	11868.86
491.95	12273.77
492.13	12135.68
492.30	12386.12
492.48	12346.33
492.66	12421.22
492.84	12491.44
493.01	12924.44
493.19	12503.14
493.37	12971.25
493.54	12896.35
493.72	12737.20
493.90	12985.29
494.08	13144.45
494.25	13078.91
494.43	13097.64
494.61	13345.73
494.79	13394.89
494.96	13336.37
495.14	13439.36
495.32	13572.77
495.49	13561.06
495.67	13696.82
495.85	14134.50
496.02	14054.92
496.20	14059.60
496.38	14066.62
496.55	14045.55
496.73	14253.86
496.91	14363.87
497.09	14490.26
497.26	14466.85
497.44	14527.71
497.62	14429.40
497.79	14637.71
497.97	14881.13
498.14	14813.25
498.32	14803.89
498.50	14623.67
498.67	15180.71
498.85	14981.77
499.03	15005.17
499.20	15257.95
499.38	15297.74
499.56	15194.76
499.73	15297.74
499.91	15728.40
500.08	15496.69
500.26	15166.67
500.44	15630.10
500.61	15651.16
500.79	15248.59
500.97	15873.51
501.14	15857.13
501.32	15793.94
501.49	15697.97
501.67	16042.03
501.84	16027.99
502.02	16074.80
502.20	16166.08
502.37	16290.13
502.55	16023.31
502.72	16135.65
502.90	16386.09
503.07	16233.96
503.25	16603.76
503.43	16285.45
503.60	16772.28
503.78	16484.39
503.95	16655.25
504.13	16662.27
504.30	17153.79
504.48	16673.98
504.65	16769.94
504.83	17200.60
505.01	17146.76
505.18	17233.36
505.36	17256.77
505.53	17043.78
505.71	17270.81
505.88	17076.55
506.06	17116.34
506.23	17380.82
506.41	17294.22
506.58	17319.96
506.76	17614.87
506.93	17549.34
507.11	17678.07
507.28	17729.56
507.46	17767.01
507.63	17895.74
507.81	17774.03
507.98	17809.14
508.16	18066.60
508.33	18040.85
508.50	18338.10
508.68	18052.55
508.85	18190.64
509.03	18263.20
509.20	18438.74
509.38	18595.56
509.55	18349.80
509.73	18412.99
509.90	18501.93
510.08	18214.05
510.25	18410.65
510.42	18787.48
510.60	18923.23
510.77	18590.88
510.95	19168.99
511.12	18948.98
511.30	18707.90
511.47	19250.91
511.64	18979.40
511.82	19042.60
511.99	19126.86
512.17	19211.12
512.34	19145.58
512.51	19400.70
512.69	19400.70
512.86	19419.42
513.04	19690.93
513.21	19332.82
513.38	19660.50
513.56	19639.44
513.73	19543.47
513.90	19807.95
514.08	19440.49
514.25	19910.94
514.43	19765.82
514.60	20140.31
514.77	19721.35
514.95	20266.70
515.12	19899.23
515.29	19927.32
515.47	20042.01
515.64	20313.51
515.81	19964.77
515.99	20175.42
516.16	20589.69
516.33	20404.79
516.51	20517.14
516.68	20484.37
516.85	20477.35
517.03	20498.41
517.20	20706.72
517.37	20718.42
517.54	20706.72
517.72	20580.33
517.89	21085.89
518.06	20645.87
518.24	20779.28
518.41	20884.60
518.58	21102.27
518.75	21256.75
518.93	20994.61
519.10	20847.15
519.27	21280.15
519.45	21104.61
519.62	20971.20
519.79	21142.06
519.96	21144.40
520.14	21280.15
520.31	21820.81
520.48	21694.43
520.65	21394.84
520.83	21809.11
521.00	21467.39
521.17	21561.02
521.34	22064.23
521.52	21965.93
521.69	21905.07
521.86	21738.90
522.03	22073.59
522.20	22150.83
522.38	22075.93
522.55	21799.75
522.72	22001.04
522.89	22209.34
523.07	22286.58
523.24	22155.51
523.41	22375.52
523.58	22443.40
523.75	22422.33
523.92	22471.48
524.10	22347.44
524.27	22230.41
524.44	22485.53
524.61	22717.24
524.78	22614.26
524.96	22745.33
525.13	22810.86
525.30	22616.60
525.47	22780.43
525.64	22838.95
525.81	23211.09
525.98	22909.16
526.16	23005.13
526.33	23218.11
526.50	23250.88
526.67	22960.66
526.84	22981.72
527.01	22672.77
527.18	23456.85
527.36	23346.84
527.53	23110.45
527.70	23583.24
527.87	23271.95
528.04	23213.43
528.21	23440.47
528.38	23351.52
528.55	23508.34
528.72	23660.48
528.89	23405.36
529.07	23440.47
529.24	23531.75
529.41	24074.75
529.58	23833.68
529.75	23564.51
529.92	23833.68
530.09	23639.41
530.26	24100.50
530.43	23824.31
530.60	23903.89
530.77	23974.11
530.94	24070.07
531.11	23957.72
531.28	23901.55
531.46	24201.14
531.63	24388.38
531.80	24081.77
531.97	24397.74
532.14	24580.31
532.31	24231.57
532.48	24252.63
532.65	24313.48
532.82	24283.06
532.99	24449.24
533.16	24561.58
533.33	24620.10
533.50	24748.82
533.67	24870.53
533.84	24388.38
534.01	24704.35
534.18	24318.17
534.35	24685.63
534.52	24634.14
534.69	24924.36
534.86	25097.56
535.03	24833.08
535.20	24610.73
535.37	24861.17
535.54	24940.75
535.71	24886.92
535.88	24814.36
536.05	25179.48
536.22	25249.70
536.38	25069.48
536.55	25680.36
536.72	25460.35
536.89	25172.46
537.06	25202.89
537.23	25287.15
537.40	25071.82
537.57	25294.17
537.74	25598.44
537.91	25628.87
538.08	25460.35
538.25	25443.96
538.42	25874.62
538.59	25603.12
538.75	25458.01
538.92	25682.70
539.09	25654.61
539.26	25362.04
539.43	25661.63
539.60	25720.15
539.77	25876.96
539.94	25640.57
540.11	25729.51
540.28	25876.96
540.44	25795.04
540.61	25778.66
540.78	25535.24
540.95	26003.35
541.12	25778.66
541.29	26338.05
541.46	25713.13
541.62	26176.55
541.79	25888.67
541.96	25619.50
542.13	25947.18
542.30	26408.26
542.47	26466.78
542.63	26302.94
542.80	26480.82
542.97	26668.06
543.14	26611.89
543.31	26834.24
543.48	26373.16
543.64	26892.76
543.81	26824.88
543.98	26845.94
544.15	26876.37
544.32	26735.94
544.48	26764.03
544.65	26817.86
544.82	26867.01
544.99	26567.42
545.16	26644.66
545.32	26988.72
545.49	27257.88
545.66	27211.07
545.83	27255.54
546.00	26960.63
546.16	27250.86
546.33	27077.66
546.50	26906.80
546.67	26925.52
546.83	26766.37
547.00	26890.41
547.17	26827.22
547.34	27171.28
547.50	27295.33
547.67	27489.59
547.84	27318.73
548.00	27445.12
548.17	27267.24
548.34	27206.39
548.51	27566.83
548.67	27585.55
548.84	27693.22
549.01	27576.19
549.18	27391.29
549.34	27597.26
549.51	27395.97
549.68	27536.40
549.84	27424.06
550.01	27639.39
550.18	27592.58
550.34	27817.27
550.51	27711.94
550.68	27735.35
550.84	27850.03
551.01	27873.44
551.18	27454.48
551.34	27978.76
551.51	27955.36
551.68	27857.06
551.84	28051.32
552.01	27754.07
552.18	28170.69
552.34	27976.42
552.51	27737.69
552.68	27742.37
552.84	28175.37
553.01	28257.29
553.18	28098.13
553.34	28547.51
553.51	28364.95
553.67	28601.35
553.84	28514.75
554.01	28233.88
554.17	28320.48
554.34	28453.89
554.51	28217.50
554.67	28229.20
554.84	28297.08
555.00	28826.04
555.17	28233.88
555.33	28573.26
555.50	28364.95
555.67	28353.25
555.83	28512.41
556.00	28430.49
556.16	28683.27
556.33	28268.99
556.50	28390.70
556.66	28704.33
556.83	28718.37
556.99	28987.53
557.16	28786.25
557.32	28947.75
557.49	28666.88
557.65	28687.95
557.82	28489.00
557.98	28699.65
558.15	28837.74
558.32	28788.59
558.48	28709.01
558.65	28510.07
558.81	29228.61
558.98	28952.43
559.14	29010.94
559.31	28638.80
559.47	29221.59
559.64	29041.37
559.80	28905.62
559.97	29134.99
560.13	28868.17
560.30	28952.43
560.46	29343.30
560.63	28964.13
560.79	29247.33
560.96	28898.59
561.12	29415.85
561.29	28821.36
561.45	29214.57
561.61	28926.68
561.78	29029.66
561.94	29446.28
562.11	28950.09
562.27	29039.03
562.44	29043.71
562.60	29137.33
562.77	28872.85
562.93	28755.82
563.10	29146.69
563.26	28985.19
563.42	29668.63
563.59	29347.98
563.75	29343.30
563.92	29692.04
564.08	28966.47
564.24	29212.23
564.41	29170.10
564.57	28966.47
564.74	29268.40
564.90	29345.64
565.07	29465.00
565.23	29465.00
565.39	29762.25
565.56	29876.94
565.72	29373.72
565.88	29387.77
566.05	29441.60
566.21	29371.38
566.38	29200.52
566.54	29460.32
566.70	29806.72
566.87	29783.32
567.03	29745.87
567.19	29654.59
567.36	29645.23
567.52	29933.11
567.68	29642.88
567.85	29289.46
568.01	29481.39
568.17	29692.04
568.34	29682.67
568.50	29883.96
568.66	29745.87
568.83	29773.95
568.99	29752.89
569.15	29434.58
569.32	29563.31
569.48	29462.66
569.64	29731.83
569.81	29621.82
569.97	29717.78
570.13	29755.23
570.30	29701.40
570.46	30087.59
570.62	29928.43
570.78	29729.48
570.95	29673.31
571.11	29659.27
571.27	29404.15
571.43	29399.47
571.60	30101.63
571.76	29909.71
571.92	29734.17
572.09	29558.63
572.25	30075.88
572.41	30089.93
572.57	29692.04
572.74	30218.66
572.90	29663.95
573.06	29731.83
573.22	29989.28
573.38	29759.91
573.55	29862.90
573.71	30146.10
573.87	29970.56
574.03	30087.59
574.20	30157.80
574.36	29490.75
574.52	29930.77
574.68	29928.43
574.84	29666.29
575.01	29944.81
575.17	30366.11
575.33	30122.69
575.49	29926.09
575.65	29860.55
575.82	29827.79
575.98	29521.18
576.14	30253.76
576.30	29572.67
576.46	29780.98
576.62	29869.92
576.79	30000.99
576.95	29933.11
577.11	30141.42
577.27	30139.08
577.43	30167.16
577.59	29930.77
577.75	30141.42
577.92	29872.26
578.08	29923.75
578.24	29640.54
578.40	29881.62
578.56	30398.88
578.72	30075.88
578.88	30384.83
579.04	30422.28
579.21	29947.15
579.37	30331.00
579.53	30314.62
579.69	29624.16
579.85	30185.89
580.01	30064.18
580.17	29792.68
580.33	30281.85
580.49	30008.01
580.65	30176.53
580.82	30286.53
580.98	29626.50
581.14	30099.29
581.30	30515.90
581.46	30223.34
581.62	29954.18
581.78	29961.20
581.94	30089.93
582.10	30218.66
582.26	30462.07
582.42	30249.08
582.58	30459.73
582.74	30347.39
582.90	30541.65
583.06	30541.65
583.22	29998.65
583.38	30441.01
583.54	30494.84
583.70	30279.51
583.86	30347.39
584.02	29998.65
584.18	30469.09
584.34	30277.17
584.50	30600.16
584.66	30249.08
584.82	29902.68
584.98	30096.95
585.14	30068.86
585.30	30312.28
585.46	30361.43
585.62	30270.15
585.78	30230.36
585.94	30024.39
586.10	30239.72
586.26	30436.33
586.42	30328.66
586.58	30068.86
586.74	30106.31
586.90	30115.67
587.06	30288.87
587.22	30401.22
587.38	30162.48
587.54	30319.30
587.70	30761.66
587.86	30558.03
588.02	30459.73
588.18	30714.85
588.34	30642.29
588.49	30361.43
588.65	30455.05
588.81	30321.64
588.97	30146.10
589.13	30656.34
589.29	30185.89
589.45	30426.96
589.61	30541.65
589.77	30824.86
589.93	30852.94
590.08	30536.97
590.24	30602.50
590.40	30246.74
590.56	30787.41
590.72	30452.71
590.88	30314.62
591.04	30242.06
591.20	30314.62
591.35	30939.54
591.51	31206.36
591.67	30855.28
591.83	30665.70
591.99	30976.99
