SpectraSuite Data File
++++++++++++++++++++++++++++++++++++
Date: Fri Oct 18 13:58:43 GMT-05:00 2013
User: bianchi
Dark Spectrum Present: No
Reference Spectrum Present: No
Number of Sampled Component Spectra: 1
Spectrometers: USB2+H05261
Integration Time (usec): 50000 (USB2+H05261)
Spectra Averaged: 1 (USB2+H05261)
Boxcar Smoothing: 0 (USB2+H05261)
Correct for Electrical Dark: No (USB2+H05261)
Strobe/Lamp Enabled: No (USB2+H05261)
Correct for Detector Non-linearity: No (USB2+H05261)
Correct for Stray Light: No (USB2+H05261)
Number of Pixels in Processed Spectrum: 2048
>>>>>Begin Processed Spectral Data<<<<<
365.73	0.00
365.92	0.00
366.12	0.00
366.32	0.00
366.52	0.00
366.72	0.00
366.91	0.00
367.11	0.00
367.31	0.00
367.51	0.00
367.70	0.00
367.90	0.00
368.10	0.00
368.30	0.00
368.49	0.00
368.69	0.00
368.89	0.00
369.09	0.00
369.28	0.00
369.48	0.00
369.68	0.00
369.87	0.00
370.07	0.00
370.27	0.00
370.47	0.00
370.66	72.56
370.86	131.07
371.06	170.86
371.25	156.82
371.45	124.05
371.65	198.95
371.84	180.22
372.04	161.50
372.24	184.90
372.44	147.45
372.63	217.67
372.83	229.37
373.03	203.63
373.22	166.18
373.42	184.90
373.62	142.77
373.81	224.69
374.01	231.71
374.21	262.14
374.40	320.65
374.60	212.99
374.79	210.65
374.99	231.71
375.19	236.39
375.38	264.48
375.58	177.88
375.78	196.60
375.97	252.78
376.17	210.65
376.37	222.35
376.56	203.63
376.76	266.82
376.95	327.68
377.15	241.08
377.35	238.73
377.54	271.50
377.74	276.18
377.93	308.95
378.13	315.97
378.33	294.91
378.52	252.78
378.72	294.91
378.91	327.68
379.11	234.05
379.31	290.23
379.50	287.89
379.70	304.27
379.89	327.68
380.09	294.91
380.28	248.10
380.48	318.31
380.68	325.33
380.87	292.57
381.07	276.18
381.26	374.49
381.46	318.31
381.65	330.02
381.85	259.80
382.04	327.68
382.24	313.63
382.43	374.49
382.63	252.78
382.83	358.10
383.02	294.91
383.22	416.62
383.41	318.31
383.61	339.38
383.80	332.36
384.00	339.38
384.19	325.33
384.39	421.30
384.58	402.57
384.78	320.65
384.97	414.27
385.17	313.63
385.36	383.85
385.56	397.89
385.75	383.85
385.95	351.08
386.14	463.43
386.34	290.23
386.53	348.74
386.72	430.66
386.92	458.74
387.11	416.62
387.31	407.25
387.50	395.55
387.70	395.55
387.89	425.98
388.09	470.45
388.28	437.68
388.48	477.47
388.67	376.83
388.86	416.62
389.06	379.17
389.25	559.39
389.45	512.58
389.64	482.15
389.84	472.79
390.03	472.79
390.22	461.09
390.42	526.62
390.61	461.09
390.81	360.44
391.00	599.18
391.19	505.56
391.39	461.09
391.58	498.53
391.78	472.79
391.97	463.43
392.16	507.90
392.36	573.43
392.55	582.79
392.75	589.82
392.94	535.98
393.13	568.75
393.33	493.85
393.52	552.37
393.71	500.87
393.91	601.52
394.10	575.77
394.29	561.73
394.49	559.39
394.68	610.88
394.88	664.71
395.07	580.45
395.26	613.22
395.46	629.60
395.65	641.31
395.84	648.33
396.04	660.03
396.23	674.07
396.42	638.97
396.62	653.01
396.81	727.91
397.00	634.29
397.19	725.57
397.39	655.35
397.58	753.65
397.77	660.03
397.97	631.94
398.16	641.31
398.35	690.46
398.55	645.99
398.74	657.69
398.93	709.18
399.12	702.16
399.32	713.86
399.51	702.16
399.70	706.84
399.90	793.44
400.09	725.57
400.28	770.04
400.47	779.40
400.67	770.04
400.86	751.31
401.05	725.57
401.24	835.57
401.44	823.87
401.63	866.00
401.82	868.34
402.01	732.59
402.21	741.95
402.40	809.83
402.59	880.04
402.78	763.01
402.97	781.74
403.17	800.46
403.36	880.04
403.55	837.91
403.74	940.90
403.93	830.89
404.13	844.93
404.32	861.32
404.51	919.83
404.70	870.68
404.89	968.98
405.09	992.39
405.28	952.60
405.47	866.00
405.66	924.51
405.85	945.58
406.05	983.02
406.24	894.08
406.43	980.68
406.62	999.41
406.81	1137.50
407.00	997.07
407.20	964.30
407.39	1015.79
407.58	1036.86
407.77	1064.94
407.96	1020.47
408.15	1071.97
408.34	936.21
408.54	1069.62
408.73	1034.52
408.92	1062.60
409.11	1146.86
409.30	1118.78
409.49	1203.04
409.68	1132.82
409.87	1179.63
410.07	1177.29
410.26	1184.31
410.45	1221.76
410.64	1273.25
410.83	1198.35
411.02	1207.72
411.21	1249.85
411.40	1153.88
411.59	1331.76
411.78	1217.08
411.98	1275.59
412.17	1320.06
412.36	1207.72
412.55	1380.92
412.74	1380.92
412.93	1331.76
413.12	1303.68
413.31	1315.38
413.50	1458.15
413.69	1416.02
413.88	1427.73
414.07	1324.74
414.26	1404.32
414.45	1453.47
414.64	1434.75
414.83	1493.26
415.02	1467.52
415.22	1521.35
415.41	1502.62
415.60	1458.15
415.79	1488.58
415.98	1563.48
416.17	1636.03
416.36	1554.12
416.55	1652.42
416.74	1577.52
416.93	1645.40
417.12	1626.67
417.31	1722.63
417.50	1666.46
417.69	1664.12
417.88	1706.25
418.07	1694.55
418.26	1694.55
418.45	1710.93
418.64	1755.40
418.83	1851.36
419.02	1755.40
419.21	1797.53
419.39	1755.40
419.58	1818.60
419.77	1701.57
419.96	1893.49
420.15	1895.83
420.34	1816.26
420.53	1813.92
420.72	1930.94
420.91	1802.21
421.10	1989.46
421.29	1884.13
421.48	1785.83
421.67	2003.50
421.86	2003.50
422.05	1940.30
422.24	1944.99
422.43	1940.30
422.61	1970.73
422.80	1973.07
422.99	2064.35
423.18	1973.07
423.37	2052.65
423.56	1886.47
423.75	2012.86
423.94	1973.07
424.13	1830.30
424.32	2008.18
424.50	2045.63
424.69	2069.03
424.88	2094.78
425.07	1907.54
425.26	2092.44
425.45	1884.13
425.64	2040.95
425.83	1926.26
426.01	2094.78
426.20	1942.64
426.39	1996.48
426.58	2157.97
426.77	2047.97
426.96	2108.82
427.15	2106.48
427.33	2218.83
427.52	2057.33
427.71	2001.16
427.90	2073.71
428.09	2087.76
428.28	2113.50
428.46	2111.16
428.65	2136.91
428.84	2211.81
429.03	2303.09
429.22	2242.23
429.40	2275.00
429.59	2148.61
429.78	2085.42
429.97	2080.74
430.16	2202.44
430.34	2270.32
430.53	2356.92
430.72	2338.20
430.91	2277.34
431.10	2167.34
431.28	2345.22
431.47	2347.56
431.66	2307.77
431.85	2293.72
432.03	2370.96
432.22	2434.16
432.41	2502.03
432.60	2373.30
432.79	2417.77
432.97	2504.37
433.16	2445.86
433.35	2523.10
433.54	2513.74
433.72	2518.42
433.91	2434.16
434.10	2438.84
434.28	2464.58
434.47	2527.78
434.66	2511.39
434.85	2593.31
435.03	2595.65
435.22	2516.08
435.41	2576.93
435.59	2630.76
435.78	2637.78
435.97	2623.74
436.16	2616.72
436.34	2626.08
436.53	2672.89
436.72	2651.83
436.90	2754.81
437.09	2759.49
437.28	2605.02
437.46	2684.59
437.65	2712.68
437.84	2766.51
438.02	2733.75
438.21	2682.25
438.40	2745.45
438.58	2829.71
438.77	2956.10
438.96	2789.92
439.14	2970.14
439.33	2972.48
439.52	2850.77
439.70	2874.18
439.89	2923.33
440.08	3061.42
440.26	3000.57
440.45	3049.72
440.63	3009.93
440.82	3075.46
441.01	3117.59
441.19	3089.51
441.38	3274.41
441.57	3162.06
441.75	3133.98
441.94	3187.81
442.12	3358.67
442.31	3236.96
442.50	3180.79
442.68	3229.94
442.87	3346.97
443.05	3307.18
443.24	3297.81
443.43	3318.88
443.61	3389.10
443.80	3323.56
443.98	3241.64
444.17	3126.96
444.35	3501.44
444.54	3456.97
444.73	3520.17
444.91	3288.45
445.10	3375.05
445.28	3300.16
445.47	3379.73
445.65	3375.05
445.84	3426.54
446.02	3562.30
446.21	3503.78
446.39	3473.36
446.58	3529.53
446.77	3372.71
446.95	3403.14
447.14	3433.57
447.32	3557.61
447.51	3447.61
447.69	3445.27
447.88	3449.95
448.06	3571.66
448.25	3447.61
448.43	3545.91
448.62	3609.11
448.80	3506.12
448.99	3576.34
449.17	3595.06
449.36	3574.00
449.54	3616.13
449.73	3794.01
449.91	3639.53
450.10	3585.70
450.28	3686.34
450.46	3782.31
450.65	3700.39
450.83	3852.52
451.02	3712.09
451.20	3719.11
451.39	3709.75
451.57	3719.11
451.76	3700.39
451.94	3756.56
452.13	3772.94
452.31	3896.99
452.49	3667.62
452.68	3770.60
452.86	3786.99
453.05	3747.20
453.23	3925.08
453.42	3901.67
453.60	3705.07
453.78	3983.59
453.97	3880.61
454.15	3976.57
454.34	3866.56
454.52	3871.25
454.70	4002.32
454.89	4023.38
455.07	4032.74
455.26	3997.64
455.44	4114.66
455.62	4063.17
455.81	4077.21
455.99	4149.77
456.17	4067.85
456.36	4053.81
456.54	4308.93
456.73	4147.43
456.91	4243.39
457.09	4166.15
457.28	4416.59
457.46	4215.30
457.64	4367.44
457.83	4329.99
458.01	4369.78
458.19	4507.87
458.38	4432.97
458.56	4454.04
458.74	4379.14
458.93	4283.18
459.11	4369.78
459.29	4255.09
459.48	4358.08
459.66	4491.49
459.84	4629.58
460.03	4521.92
460.21	4404.89
460.39	4517.23
460.57	4564.04
460.76	4615.54
460.94	4589.79
461.12	4587.45
461.31	4629.58
461.49	4519.57
461.67	4671.71
461.85	4697.46
462.04	4669.37
462.22	4760.65
462.40	4690.43
462.59	4868.31
462.77	4826.18
462.95	4748.95
463.13	4652.98
463.32	4926.83
463.50	4770.01
463.68	4873.00
463.86	4856.61
464.05	4657.67
464.23	4816.82
464.41	4805.12
464.59	4767.67
464.78	4983.00
464.96	4809.80
465.14	4779.37
465.32	4938.53
465.50	5046.20
465.69	5046.20
465.87	5018.11
466.05	4828.53
466.23	4854.27
466.41	5067.26
466.60	5081.30
466.78	5001.72
466.96	4901.08
467.14	5057.90
467.32	5139.82
467.51	5074.28
467.69	5128.11
467.87	5060.24
468.05	5074.28
468.23	5174.92
468.41	5135.14
468.60	5088.32
468.78	5371.53
468.96	5270.89
469.14	5364.51
469.32	5334.08
469.50	5104.71
469.69	5380.89
469.87	5245.14
470.05	5303.65
470.23	5324.72
470.41	5359.83
470.59	5423.02
470.77	5308.34
470.95	5467.49
471.14	5504.94
471.32	5451.11
471.50	5619.63
471.68	5631.33
471.86	5561.11
472.04	5710.91
472.22	5809.21
472.40	5652.39
472.58	5570.48
472.77	5783.46
472.95	5757.72
473.13	5884.11
473.31	5797.51
473.49	5710.91
473.67	5933.26
473.85	5989.43
474.03	5902.83
474.21	6057.31
474.39	5937.94
474.57	6054.97
474.75	6097.10
474.93	5942.62
475.12	6083.05
475.30	6171.99
475.48	6307.74
475.66	6225.82
475.84	6296.04
476.02	6333.49
476.20	6139.23
476.38	6389.66
476.56	6558.18
476.74	6621.38
476.92	6523.07
477.10	6445.84
477.28	6579.25
477.46	6574.56
477.64	6619.04
477.82	6623.72
478.00	6876.49
478.18	6808.62
478.36	6885.86
478.54	6862.45
478.72	6991.18
478.90	6944.37
479.08	7169.06
479.26	7035.65
479.44	7103.53
479.62	7480.35
479.80	7433.54
479.98	7400.77
480.16	7758.88
480.34	7344.60
480.52	7641.85
480.70	7508.44
480.88	7602.06
481.06	7632.49
481.24	7815.05
481.41	7712.07
481.59	7833.77
481.77	7850.16
481.95	7829.09
482.13	8088.89
482.31	8109.96
482.49	8161.45
482.67	8262.09
482.85	8311.24
483.03	8304.22
483.21	8512.53
483.39	8388.48
483.57	8582.74
483.74	8503.17
483.92	8620.19
484.10	8671.68
484.28	8774.67
484.46	8992.34
484.64	9097.66
484.82	8936.17
485.00	9029.79
485.18	9137.45
485.35	9430.02
485.53	9385.55
485.71	9210.01
485.89	9685.14
486.07	9392.57
486.25	9528.32
486.43	9659.39
486.61	9755.35
486.78	9823.23
486.96	9823.23
487.14	9792.80
487.32	10059.62
487.50	10167.29
487.68	10160.27
487.85	9984.73
488.03	10417.72
488.21	10296.02
488.39	10436.45
488.57	10633.05
488.75	10565.18
488.92	10850.72
489.10	10764.12
489.28	10787.53
489.46	11150.31
489.64	11002.86
489.81	11236.91
489.99	11281.38
490.17	11101.16
490.35	11255.64
490.53	11433.52
490.70	11552.88
490.88	11529.48
491.06	11580.97
491.24	11709.70
491.41	11838.43
491.59	11803.32
491.77	11967.16
491.95	12035.03
492.13	12159.08
492.30	12133.34
492.48	12255.04
492.66	12250.36
492.84	12229.30
493.01	12512.50
493.19	12449.31
493.37	12587.40
493.54	12554.63
493.72	12657.62
493.90	12503.14
494.08	12894.01
494.25	12894.01
494.43	13088.28
494.61	13036.78
494.79	13125.72
494.96	13200.62
495.14	13036.78
495.32	13331.69
495.49	13364.46
495.67	13359.78
495.85	13532.98
496.02	13748.31
496.20	13715.54
496.38	13748.31
496.55	13965.98
496.73	13919.17
496.91	14104.07
497.09	14143.86
497.26	14284.29
497.44	14303.01
497.62	14300.67
497.79	14267.91
497.97	14579.20
498.14	14700.90
498.32	14743.03
498.50	14581.54
498.67	14731.33
498.85	14897.51
499.03	14773.46
499.20	14958.36
499.38	14806.23
499.56	14993.47
499.73	15204.12
499.91	15293.06
500.08	15283.70
500.26	15192.42
500.44	15346.89
500.61	15264.97
500.79	15215.82
500.97	15662.86
501.14	15878.19
501.32	15910.96
501.49	15616.05
501.67	15641.80
501.84	15751.81
502.02	15887.56
502.20	15892.24
502.37	15992.88
502.55	16194.17
502.72	16053.73
502.90	16058.42
503.07	16233.96
503.25	16107.57
503.43	16248.00
503.60	16425.88
503.78	16503.12
503.95	16346.30
504.13	16549.93
504.30	16458.65
504.48	16519.50
504.65	16484.39
504.83	16762.92
505.01	17013.35
505.18	16961.86
505.36	16858.88
505.53	16854.20
505.71	17057.82
505.88	16755.90
506.06	17001.65
506.23	16978.25
506.41	16964.20
506.58	17156.13
506.76	17202.94
506.93	17345.71
507.11	17216.98
507.28	17385.50
507.46	17275.49
507.63	17568.06
507.81	17750.62
507.98	17319.96
508.16	17600.83
508.33	17771.69
508.50	17727.22
508.68	17888.71
508.85	17965.95
509.03	17884.03
509.20	18005.74
509.38	18111.07
509.55	18380.23
509.73	18253.84
509.90	18359.16
510.08	18263.20
510.25	18431.72
510.42	18251.50
510.60	18455.12
510.77	18656.41
510.95	18492.57
511.12	18445.76
511.30	18412.99
511.47	18642.37
511.64	18862.38
511.82	18895.14
511.99	18658.75
512.17	18780.46
512.34	18853.02
512.51	18934.93
512.69	19126.86
512.86	19468.58
513.04	19183.03
513.21	19400.70
513.38	19187.71
513.56	19372.61
513.73	19234.52
513.90	19529.43
514.08	19176.01
514.25	19353.89
514.43	19569.22
514.60	19740.08
514.77	19882.85
514.95	19709.65
515.12	19480.28
515.29	19583.26
515.47	19707.31
515.64	19997.54
515.81	19791.57
515.99	20023.28
516.16	20393.09
516.33	20112.22
516.51	20247.97
516.68	19992.86
516.85	20233.93
517.03	20276.06
517.20	20283.08
517.37	20311.17
517.54	20262.02
517.72	20479.69
517.89	20451.60
518.06	20369.68
518.24	20393.09
518.41	20327.55
518.58	20767.57
518.75	20456.28
518.93	20943.11
519.10	20709.06
519.27	20807.36
519.45	20769.91
519.62	20601.40
519.79	20980.56
519.96	21156.10
520.14	21020.35
520.31	21275.47
520.48	21099.93
520.65	21041.42
520.83	21640.59
521.00	21184.19
521.17	21284.83
521.34	21149.08
521.52	21174.83
521.69	21308.24
521.86	21591.44
522.03	21621.87
522.20	21570.38
522.38	21986.99
522.55	21619.53
522.72	21664.00
522.89	21841.88
523.07	22050.19
523.24	22040.82
523.41	21682.72
523.58	21692.08
523.75	22246.79
523.92	22113.38
524.10	22129.77
524.27	22143.81
524.44	22340.41
524.61	22164.87
524.78	22317.01
524.96	22455.10
525.13	22466.80
525.30	22588.51
525.47	22279.56
525.64	22483.19
525.81	22515.95
525.98	22632.98
526.16	22775.75
526.33	22305.31
526.50	22691.49
526.67	22693.83
526.84	22373.18
527.01	22450.42
527.18	22883.42
527.36	22752.35
527.53	23197.05
527.70	23129.17
527.87	23288.33
528.04	22869.37
528.21	22860.01
528.38	22705.54
528.55	23152.58
528.72	22972.36
528.89	23410.04
529.07	22890.44
529.24	22995.76
529.41	23342.16
529.58	23255.56
529.75	23452.17
529.92	23590.26
530.09	23351.52
530.26	23653.45
530.43	23491.96
530.60	23330.46
530.77	23274.29
530.94	23608.98
531.11	23498.98
531.28	23623.03
531.46	23330.46
531.63	23480.25
531.80	23824.31
531.97	23847.72
532.14	23782.18
532.31	23747.08
532.48	23597.28
532.65	23901.55
532.82	23754.10
532.99	23807.93
533.16	24149.65
533.33	24182.42
533.50	24503.07
533.67	24194.12
533.84	24215.18
534.01	24278.38
534.18	24119.22
534.35	24318.17
534.52	23927.30
534.69	24580.31
534.86	24374.34
535.03	24320.51
535.20	24264.33
535.37	24613.07
535.54	24332.21
535.71	24215.18
535.88	24648.18
536.05	24467.96
536.22	25001.60
536.38	25003.94
536.55	24814.36
536.72	24772.23
536.89	24662.22
537.06	24482.00
537.23	25022.67
537.40	24673.93
537.57	24994.58
537.74	24830.74
537.91	24961.81
538.08	24830.74
538.25	25127.99
538.42	25144.38
538.59	25003.94
538.75	24933.73
538.92	24847.13
539.09	25205.23
539.26	25315.23
539.43	25296.51
539.60	25439.28
539.77	25071.82
539.94	25343.32
540.11	25200.55
540.28	25425.24
540.44	25116.29
540.61	25305.87
540.78	25401.83
540.95	25439.28
541.12	25277.79
541.29	25394.81
541.46	25483.75
541.62	25792.70
541.79	25486.09
541.96	25399.49
542.13	25736.53
542.30	25972.92
542.47	26263.15
542.63	25876.96
542.80	25876.96
542.97	26197.62
543.14	26094.63
543.31	25937.82
543.48	26052.50
543.64	26307.62
543.81	26256.13
543.98	26031.44
544.15	26274.85
544.32	26190.59
544.48	26632.96
544.65	26160.17
544.82	26551.04
544.99	26293.58
545.16	26080.59
545.32	26295.92
545.49	26572.10
545.66	26698.49
545.83	26752.32
546.00	26738.28
546.16	26434.01
546.33	26326.35
546.50	26345.07
546.67	26848.29
546.83	26225.70
547.00	26544.02
547.17	26773.39
547.34	26361.45
547.50	26923.18
547.67	26876.37
547.84	26742.96
548.00	26829.56
548.17	27152.55
548.34	26977.01
548.51	26801.47
548.67	26803.82
548.84	27166.60
549.01	26930.20
549.18	26441.03
549.34	26757.00
549.51	27510.66
549.68	26993.40
549.84	26733.60
550.01	27110.43
550.18	26998.08
550.34	26930.20
550.51	27473.21
550.68	27379.59
550.84	27377.25
551.01	27367.88
551.18	27215.75
551.34	27257.88
551.51	27278.94
551.68	27440.44
551.84	27653.43
552.01	27243.84
552.18	27407.67
552.34	27496.61
552.51	27751.73
552.68	27363.20
552.84	27950.68
553.01	27175.96
553.18	27440.44
553.34	27700.24
553.51	27662.79
553.67	27491.93
553.84	27913.23
554.01	27887.48
554.17	27800.88
554.34	27718.96
554.51	27505.98
554.67	27894.50
554.84	27674.49
555.00	28081.75
555.17	27648.75
555.33	27922.59
555.50	28079.41
555.67	27868.76
555.83	27929.61
556.00	27997.49
556.16	28072.39
556.33	28156.64
556.50	27943.66
556.66	28491.34
556.83	28027.92
556.99	28687.95
557.16	28268.99
557.32	28229.20
557.49	28343.89
557.65	28034.94
557.82	28257.29
557.98	28196.43
558.15	27730.67
558.32	28549.85
558.48	28315.80
558.65	28306.44
558.81	28374.31
558.98	28456.23
559.14	28566.24
559.31	28264.31
559.47	28095.79
559.64	28229.20
559.80	28474.96
559.97	28404.74
560.13	28334.53
560.30	28390.70
560.46	28425.81
560.63	28411.76
560.79	28591.98
560.96	28730.08
561.12	28418.78
561.29	28456.23
561.45	28568.58
561.61	28886.89
561.78	28507.72
561.94	28914.98
562.11	28732.42
562.27	28716.03
562.44	28596.67
562.60	28306.44
562.77	28898.59
562.93	28247.93
563.10	28594.32
563.26	28315.80
563.42	28922.00
563.59	28985.19
563.75	28919.66
563.92	29380.74
564.08	28802.63
564.24	28587.30
564.41	28669.22
564.57	28648.16
564.74	28591.98
564.90	29048.39
565.07	29315.21
565.23	29123.29
565.39	29153.71
565.56	29078.82
565.72	29027.32
565.88	29097.54
566.05	28790.93
566.21	28858.81
566.38	28943.06
566.54	29230.95
566.70	29029.66
566.87	29549.26
567.03	28968.81
567.19	29214.57
567.36	29032.00
567.52	28746.46
567.68	29352.66
567.85	28524.11
568.01	28711.35
568.17	28781.57
568.34	29275.42
568.50	29298.83
568.66	29282.44
568.83	28884.55
568.99	29158.39
569.15	28992.22
569.32	29455.64
569.48	28938.38
569.64	29177.12
569.81	29181.80
569.97	29074.13
570.13	29373.72
570.30	29165.42
570.46	29624.16
570.62	29228.61
570.78	28758.16
570.95	28793.27
571.11	29177.12
571.27	28943.06
571.43	29109.24
571.60	29392.45
571.76	29383.09
571.92	29500.11
572.09	29186.48
572.25	29343.30
572.41	29551.60
572.57	29053.07
572.74	29539.90
572.90	29127.97
573.06	29113.92
573.22	28781.57
573.38	29621.82
573.55	29521.18
573.71	29500.11
573.87	29659.27
574.03	29385.43
574.20	29277.76
574.36	29366.70
574.52	29654.59
574.68	29446.28
574.84	29521.18
575.01	29429.90
575.17	29549.26
575.33	29406.49
575.49	29193.50
575.65	29631.18
575.82	29593.73
575.98	29685.01
576.14	29450.96
576.30	29364.36
576.46	29504.79
576.62	29443.94
576.79	29596.07
576.95	29418.19
577.11	29642.88
577.27	29558.63
577.43	29886.30
577.59	29448.62
577.75	29553.94
577.92	29020.30
578.08	28968.81
578.24	29525.86
578.40	29062.43
578.56	29275.42
578.72	29439.26
578.88	30061.84
579.04	29855.87
579.21	29752.89
579.37	29600.76
579.53	29968.22
579.69	29275.42
579.85	29661.61
580.01	29961.20
580.17	29481.39
580.33	29923.75
580.49	29301.17
580.65	29677.99
580.82	29502.45
580.98	29839.49
581.14	29345.64
581.30	29694.38
581.46	29453.30
581.62	29380.74
581.78	28952.43
581.94	29500.11
582.10	29439.26
582.26	29097.54
582.42	29181.80
582.58	29495.43
582.74	29439.26
582.90	29584.37
583.06	29743.53
583.22	29713.10
583.38	29308.19
583.54	29919.07
583.70	29865.24
583.86	29736.51
584.02	29539.90
584.18	29628.84
584.34	29912.05
584.50	29820.77
584.66	29207.55
584.82	29280.10
584.98	29605.44
585.14	29429.90
585.30	29745.87
585.46	29579.69
585.62	29308.19
585.78	29436.92
585.94	29919.07
586.10	29546.92
586.26	30174.19
586.42	29600.76
586.58	29961.20
586.74	29418.19
586.90	29537.56
587.06	29514.16
587.22	29179.46
587.38	29532.88
587.54	29593.73
587.70	30127.38
587.86	29902.68
588.02	29612.46
588.18	30270.15
588.34	29879.28
588.49	29890.98
588.65	30038.44
588.81	29436.92
588.97	29879.28
589.13	30015.03
589.29	29652.25
589.45	29827.79
589.61	30029.07
589.77	30008.01
589.93	30015.03
590.08	30075.88
590.24	30125.04
590.40	30300.58
590.56	30115.67
590.72	29881.62
590.88	29975.24
591.04	29778.64
591.20	30471.43
591.35	29921.41
591.51	30167.16
591.67	29933.11
591.83	30415.26
591.99	29937.79
