SpectraSuite Data File
++++++++++++++++++++++++++++++++++++
Date: Fri Oct 18 13:57:55 GMT-05:00 2013
User: bianchi
Dark Spectrum Present: No
Reference Spectrum Present: No
Number of Sampled Component Spectra: 1
Spectrometers: USB2+H05261
Integration Time (usec): 50000 (USB2+H05261)
Spectra Averaged: 1 (USB2+H05261)
Boxcar Smoothing: 0 (USB2+H05261)
Correct for Electrical Dark: No (USB2+H05261)
Strobe/Lamp Enabled: No (USB2+H05261)
Correct for Detector Non-linearity: No (USB2+H05261)
Correct for Stray Light: No (USB2+H05261)
Number of Pixels in Processed Spectrum: 2048
>>>>>Begin Processed Spectral Data<<<<<
365.73	0.00
365.92	0.00
366.12	0.00
366.32	0.00
366.52	0.00
366.72	0.00
366.91	0.00
367.11	0.00
367.31	0.00
367.51	0.00
367.70	0.00
367.90	0.00
368.10	0.00
368.30	0.00
368.49	0.00
368.69	0.00
368.89	0.00
369.09	0.00
369.28	0.00
369.48	0.00
369.68	0.00
369.87	0.00
370.07	0.00
370.27	0.00
370.47	0.00
370.66	170.86
370.86	128.73
371.06	147.45
371.25	79.58
371.45	98.30
371.65	198.95
371.84	145.11
372.04	105.32
372.24	222.35
372.44	184.90
372.63	131.07
372.83	227.03
373.03	229.37
373.22	208.31
373.42	241.08
373.62	245.76
373.81	234.05
374.01	210.65
374.21	313.63
374.40	198.95
374.60	215.33
374.79	241.08
374.99	205.97
375.19	252.78
375.38	245.76
375.58	212.99
375.78	365.12
375.97	269.16
376.17	229.37
376.37	283.20
376.56	327.68
376.76	255.12
376.95	332.36
377.15	266.82
377.35	266.82
377.54	301.93
377.74	285.55
377.93	269.16
378.13	306.61
378.33	273.84
378.52	273.84
378.72	320.65
378.91	322.99
379.11	278.52
379.31	351.08
379.50	322.99
379.70	344.06
379.89	271.50
380.09	234.05
380.28	320.65
380.48	308.95
380.68	360.44
380.87	210.65
381.07	278.52
381.26	379.17
381.46	332.36
381.65	325.33
381.85	327.68
382.04	346.40
382.24	346.40
382.43	339.38
382.63	383.85
382.83	318.31
383.02	376.83
383.22	400.23
383.41	351.08
383.61	318.31
383.80	294.91
384.00	266.82
384.19	425.98
384.39	430.66
384.58	390.87
384.78	397.89
384.97	393.21
385.17	346.40
385.36	390.87
385.56	407.25
385.75	423.64
385.95	486.83
386.14	379.17
386.34	383.85
386.53	360.44
386.72	395.55
386.92	510.24
387.11	498.53
387.31	465.77
387.50	463.43
387.70	367.46
387.89	482.15
388.09	397.89
388.28	418.96
388.48	456.40
388.67	477.47
388.86	423.64
389.06	526.62
389.25	449.38
389.45	451.72
389.64	479.81
389.84	430.66
390.03	472.79
390.22	468.11
390.42	535.98
390.61	484.49
390.81	442.36
391.00	547.69
391.19	603.86
391.39	465.77
391.58	512.58
391.78	491.51
391.97	599.18
392.16	554.71
392.36	580.45
392.55	535.98
392.75	566.41
392.94	559.39
393.13	606.20
393.33	521.94
393.52	613.22
393.71	627.26
393.91	575.77
394.10	535.98
394.29	568.75
394.49	566.41
394.68	566.41
394.88	580.45
395.07	648.33
395.26	617.90
395.46	578.11
395.65	674.07
395.84	706.84
396.04	711.52
396.23	685.78
396.42	681.10
396.62	755.99
396.81	692.80
397.00	566.41
397.19	774.72
397.39	641.31
397.58	744.29
397.77	678.76
397.97	671.73
398.16	730.25
398.35	770.04
398.55	699.82
398.74	706.84
398.93	779.40
399.12	744.29
399.32	674.07
399.51	755.99
399.70	816.85
399.90	732.59
400.09	823.87
400.28	746.63
400.47	809.83
400.67	880.04
400.86	819.19
401.05	835.57
401.24	814.51
401.44	800.46
401.63	868.34
401.82	847.27
402.01	807.48
402.21	847.27
402.40	912.81
402.59	777.06
402.78	884.72
402.97	957.28
403.17	929.19
403.36	919.83
403.55	924.51
403.74	908.13
403.93	880.04
404.13	891.74
404.32	905.79
404.51	938.55
404.70	987.71
404.89	910.47
405.09	1013.45
405.28	1025.15
405.47	884.72
405.66	980.68
405.85	978.34
406.05	1001.75
406.24	1036.86
406.43	1064.94
406.62	1111.75
406.81	1064.94
407.00	1022.81
407.20	1013.45
407.39	1020.47
407.58	1097.71
407.77	1104.73
407.96	1107.07
408.15	1130.48
408.34	1111.75
408.54	1100.05
408.73	1074.31
408.92	1177.29
409.11	1174.95
409.30	1210.06
409.49	1245.16
409.68	1188.99
409.87	1074.31
410.07	1181.97
410.26	1287.29
410.45	1277.93
410.64	1142.18
410.83	1256.87
411.02	1163.25
411.21	1322.40
411.40	1289.64
411.59	1331.76
411.78	1324.74
411.98	1296.66
412.17	1270.91
412.36	1341.13
412.55	1320.06
412.74	1423.05
412.93	1401.98
413.12	1364.53
413.31	1420.71
413.50	1359.85
413.69	1397.30
413.88	1446.45
414.07	1493.26
414.26	1423.05
414.45	1575.18
414.64	1500.28
414.83	1603.27
415.02	1537.73
415.22	1631.35
415.41	1586.88
415.60	1603.27
415.79	1591.56
415.98	1647.74
416.17	1678.16
416.36	1664.12
416.55	1678.16
416.74	1626.67
416.93	1664.12
417.12	1673.48
417.31	1755.40
417.50	1764.76
417.69	1792.85
417.88	1785.83
418.07	1713.27
418.26	1682.85
418.45	1785.83
418.64	1877.11
418.83	1923.92
419.02	1795.19
419.21	1863.07
419.39	1856.04
419.58	1839.66
419.77	1842.00
419.96	1870.09
420.15	1886.47
420.34	1839.66
420.53	1858.39
420.72	1947.33
420.91	1966.05
421.10	1973.07
421.29	2059.67
421.48	2017.54
421.67	2031.58
421.86	1942.64
422.05	2083.08
422.24	2036.27
422.43	2090.10
422.61	2094.78
422.80	2076.06
422.99	2024.56
423.18	1970.73
423.37	2174.36
423.56	2005.84
423.75	2050.31
423.94	2026.90
424.13	1874.77
424.32	1987.11
424.50	2054.99
424.69	2106.48
424.88	2040.95
425.07	2071.37
425.26	2080.74
425.45	2092.44
425.64	2071.37
425.83	2195.42
426.01	2052.65
426.20	2094.78
426.39	2186.06
426.58	2062.01
426.77	2225.85
426.96	2186.06
427.15	2148.61
427.33	2193.08
427.52	2235.21
427.71	2249.25
427.90	2139.25
428.09	2256.28
428.28	2223.51
428.46	2207.13
428.65	2296.07
428.84	2403.73
429.03	2363.94
429.22	2232.87
429.40	2275.00
429.59	2186.06
429.78	2190.74
429.97	2267.98
430.16	2377.98
430.34	2401.39
430.53	2333.51
430.72	2321.81
430.91	2300.75
431.10	2263.30
431.28	2328.83
431.47	2485.65
431.66	2480.97
431.85	2387.35
432.03	2452.88
432.22	2476.29
432.41	2574.59
432.60	2434.16
432.79	2464.58
432.97	2558.21
433.16	2558.21
433.35	2602.68
433.54	2532.46
433.72	2722.04
433.91	2558.21
434.10	2495.01
434.28	2583.95
434.47	2649.49
434.66	2633.10
434.85	2656.51
435.03	2612.04
435.22	2729.06
435.41	2796.94
435.59	2651.83
435.78	2708.00
435.97	2803.96
436.16	2810.98
436.34	2710.34
436.53	2813.32
436.72	2794.60
436.90	2719.70
437.09	2766.51
437.28	2754.81
437.46	2686.94
437.65	2853.11
437.84	2862.48
438.02	2799.28
438.21	2918.65
438.40	2822.69
438.58	2946.73
438.77	2970.14
438.96	3007.59
439.14	2920.99
439.33	3009.93
439.52	2972.48
439.70	3047.38
439.89	3171.43
440.08	3115.25
440.26	3103.55
440.45	3157.38
440.63	3002.91
440.82	3192.49
441.01	3283.77
441.19	3272.07
441.38	3314.20
441.57	3407.82
441.75	3325.90
441.94	3180.79
442.12	3407.82
442.31	3400.80
442.50	3442.93
442.68	3393.78
442.87	3426.54
443.05	3396.12
443.24	3452.29
443.43	3468.67
443.61	3487.40
443.80	3630.17
443.98	3421.86
444.17	3398.46
444.35	3400.80
444.54	3674.64
444.73	3522.51
444.91	3569.32
445.10	3648.90
445.28	3412.50
445.47	3566.98
445.65	3534.21
445.84	3606.77
446.02	3665.28
446.21	3454.63
446.39	3499.10
446.58	3531.87
446.77	3548.25
446.95	3456.97
447.14	3585.70
447.32	3602.08
447.51	3705.07
447.69	3501.44
447.88	3585.70
448.06	3672.30
448.25	3545.91
448.43	3595.06
448.62	3417.18
448.80	3543.57
448.99	3620.81
449.17	3688.68
449.36	3681.66
449.54	3768.26
449.73	3714.43
449.91	3784.65
450.10	3868.91
450.28	3815.07
450.46	3908.69
450.65	3801.03
450.83	3716.77
451.02	3812.73
451.20	3911.04
451.39	3969.55
451.57	3915.72
451.76	3810.39
451.94	3992.95
452.13	3964.87
452.31	4028.06
452.49	3880.61
452.68	4014.02
452.86	4004.66
453.05	4044.45
453.23	4105.30
453.42	3976.57
453.60	4011.68
453.78	4117.00
453.97	3904.01
454.15	3967.21
454.34	3887.63
454.52	4074.87
454.70	4222.33
454.89	4205.94
455.07	4133.39
455.26	4021.04
455.44	4222.33
455.62	4095.94
455.81	4163.81
455.99	4262.12
456.17	4271.48
456.36	4376.80
456.54	4278.50
456.73	4353.40
456.91	4297.22
457.09	4339.35
457.28	4437.66
457.46	4437.66
457.64	4404.89
457.83	4386.16
458.01	4299.56
458.19	4533.62
458.38	4538.30
458.56	4503.19
458.74	4451.70
458.93	4617.88
459.11	4606.17
459.29	4524.26
459.48	4564.04
459.66	4608.51
459.84	4648.30
460.03	4844.91
460.21	4652.98
460.39	4613.20
460.57	4667.03
460.76	4683.41
460.94	4861.29
461.12	4781.71
461.31	4823.84
461.49	4795.76
461.67	4755.97
461.85	4826.18
462.04	4915.12
462.22	5100.03
462.40	4851.93
462.59	4865.97
462.77	4947.89
462.95	5018.11
463.13	5020.45
463.32	4985.34
463.50	4968.96
463.68	4999.38
463.86	5055.56
464.05	4985.34
464.23	5034.49
464.41	5085.98
464.59	5041.51
464.78	5233.44
464.96	5067.26
465.14	5050.88
465.32	4980.66
465.50	5085.98
465.69	5158.54
465.87	5067.26
466.05	5123.43
466.23	5121.09
466.41	5224.08
466.60	5348.12
466.78	5231.10
466.96	5228.76
467.14	5240.46
467.32	5289.61
467.51	5282.59
467.69	5256.84
467.87	5362.17
468.05	5296.63
468.23	5238.12
468.41	5224.08
468.60	5397.28
468.78	5497.92
468.96	5331.74
469.14	5488.56
469.32	5423.02
469.50	5467.49
469.69	5540.05
469.87	5638.35
470.05	5605.58
470.23	5647.71
470.41	5598.56
470.59	5479.19
470.77	5654.73
470.95	5617.29
471.14	5673.46
471.32	5706.23
471.50	5806.87
471.68	5748.36
471.86	5755.38
472.04	5785.80
472.22	5912.19
472.40	5820.91
472.58	5949.64
472.77	5895.81
472.95	6066.67
473.13	6134.54
473.31	6045.60
473.49	6090.07
473.67	6200.08
473.85	6223.48
474.03	6267.95
474.21	6228.17
474.39	6214.12
474.57	6160.29
474.75	6258.59
474.93	6338.17
475.12	6321.79
475.30	6389.66
475.48	6319.45
475.66	6431.79
475.84	6565.20
476.02	6642.44
476.20	6796.92
476.38	6759.47
476.56	6778.19
476.74	6745.42
476.92	6827.34
477.10	6670.53
477.28	6750.10
477.46	6822.66
477.64	6839.05
477.82	7061.40
478.00	7040.33
478.18	7052.03
478.36	7115.23
478.54	7255.66
478.72	7220.55
478.90	7351.62
479.08	7557.59
479.26	7424.18
479.44	7375.03
479.62	7639.51
479.80	7719.09
479.98	7611.42
480.16	7716.75
480.34	7749.51
480.52	7927.39
480.70	7903.99
480.88	7819.73
481.06	7995.27
481.24	8025.70
481.41	7974.21
481.59	8210.60
481.77	8369.76
481.95	8428.27
482.13	8397.84
482.31	8271.45
482.49	8608.49
482.67	8821.48
482.85	8514.87
483.03	8858.93
483.21	8748.92
483.39	8788.71
483.57	9027.45
483.74	8772.33
483.92	8999.36
484.10	9128.09
484.28	9441.72
484.46	9170.22
484.64	9394.91
484.82	9249.80
485.00	9359.80
485.18	9659.39
485.35	9706.20
485.53	9645.35
485.71	9827.91
485.89	9905.15
486.07	9928.55
486.25	9940.26
486.43	9816.21
486.61	10146.22
486.78	10452.83
486.96	10251.55
487.14	10410.70
487.32	10494.96
487.50	10494.96
487.68	10593.26
487.85	10574.54
488.03	10754.76
488.21	11049.67
488.39	11007.54
488.57	11218.19
488.75	11019.24
488.92	11297.77
489.10	11154.99
489.28	11314.15
489.46	11286.06
489.64	11344.58
489.81	11562.25
489.99	11630.12
490.17	11742.47
490.35	11868.86
490.53	12023.33
490.70	12123.98
490.88	11985.88
491.06	12128.66
491.24	12343.99
491.41	12032.69
491.59	12266.75
491.77	12182.49
491.95	12517.18
492.13	12528.89
492.30	12851.88
492.48	12849.54
492.66	12819.11
492.84	12662.30
493.01	13057.85
493.19	12964.23
493.37	13160.83
493.54	13102.32
493.72	13252.11
493.90	13224.03
494.08	13305.95
494.25	13558.72
494.43	13631.28
494.61	13778.73
494.79	13694.47
494.96	14054.92
495.14	13731.92
495.32	13830.23
495.49	13809.16
495.67	13750.65
495.85	14279.61
496.02	14193.01
496.20	14171.94
496.38	14317.06
496.55	14469.19
496.73	14728.99
496.91	14490.26
497.09	14892.83
497.26	14864.74
497.44	14897.51
497.62	15002.83
497.79	15091.77
497.97	14759.42
498.14	15028.58
498.32	15241.57
498.50	15669.89
498.67	15356.25
498.85	15339.87
499.03	15463.92
499.20	15637.12
499.38	15557.54
499.56	15910.96
499.73	15903.94
499.91	15800.96
500.08	16013.95
500.26	15630.10
500.44	16063.10
500.61	16088.84
500.79	16095.86
500.97	16276.09
501.14	16304.17
501.32	16400.13
501.49	16411.84
501.67	16500.78
501.84	16341.62
502.02	16709.08
502.20	16617.80
502.37	16716.11
502.55	16889.31
502.72	16723.13
502.90	16786.32
503.07	16781.64
503.25	16807.39
503.43	16875.26
503.60	16985.27
503.78	16996.97
503.95	17165.49
504.13	17062.51
504.30	17184.21
504.48	17359.75
504.65	17465.08
504.83	17769.35
505.01	17769.35
505.18	17362.09
505.36	17764.67
505.53	17813.82
505.71	17647.64
505.88	17589.13
506.06	17877.01
506.23	18127.45
506.41	18050.21
506.58	17848.93
506.76	17987.02
506.93	18302.99
507.11	18024.47
507.28	18134.47
507.46	18097.02
507.63	18494.91
507.81	18441.08
507.98	18345.12
508.16	18611.94
508.33	18445.76
508.50	18291.29
508.68	18906.85
508.85	18696.20
509.03	18670.45
509.20	18883.44
509.38	18939.62
509.55	18967.70
509.73	19431.13
509.90	19274.31
510.08	18988.77
510.25	19124.52
510.42	19115.16
510.60	19367.93
510.77	19271.97
510.95	19403.04
511.12	19157.28
511.30	19260.27
511.47	19398.36
511.64	19651.14
511.82	19583.26
511.99	19800.93
512.17	19819.66
512.34	19737.74
512.51	19730.72
512.69	19929.66
512.86	19906.26
513.04	20283.08
513.21	20243.29
513.38	20187.12
513.56	20184.78
513.73	20002.22
513.90	20109.88
514.08	20357.98
514.25	20247.97
514.43	20414.15
514.60	20166.06
514.77	20397.77
514.95	20606.08
515.12	20119.24
515.29	20575.65
515.47	20643.52
515.64	20744.17
515.81	20816.72
515.99	20844.81
516.16	20985.24
516.33	20947.79
516.51	20978.22
516.68	21041.42
516.85	20893.96
517.03	20711.40
517.20	21359.73
517.37	21188.87
517.54	21488.46
517.72	21071.84
517.89	21188.87
518.06	21188.87
518.24	21399.52
518.41	21553.99
518.58	21596.12
518.75	21523.57
518.93	21720.17
519.10	21598.46
519.27	21766.98
519.45	21741.24
519.62	21741.24
519.79	21884.01
519.96	21792.73
520.14	22169.55
520.31	21902.73
520.48	22017.42
520.65	21764.64
520.83	21998.70
521.00	21865.28
521.17	22214.02
521.34	22005.72
521.52	22630.64
521.69	22417.65
521.86	22265.52
522.03	22731.28
522.20	22534.68
522.38	22450.42
522.55	22384.88
522.72	22820.22
522.89	23166.62
523.07	22824.90
523.24	22787.46
523.41	22927.89
523.58	22719.58
523.75	22810.86
523.92	22714.90
524.10	22757.03
524.27	23140.88
524.44	23016.83
524.61	23012.15
524.78	23274.29
524.96	23606.64
525.13	23370.25
525.30	23321.10
525.47	23541.11
525.64	23410.04
525.81	23571.54
525.98	23641.75
526.16	23438.12
526.33	23651.11
526.50	23957.72
526.67	23538.77
526.84	23477.91
527.01	23669.84
527.18	24102.84
527.36	23672.18
527.53	24086.45
527.70	24137.94
527.87	24159.01
528.04	23908.57
528.21	24137.94
528.38	24147.31
528.55	24472.64
528.72	24049.00
528.89	24320.51
529.07	24142.63
529.24	23931.98
529.41	24662.22
529.58	23971.77
529.75	24446.90
529.92	24327.53
530.09	24496.05
530.26	24247.95
530.43	24425.83
530.60	24938.41
530.77	24631.80
530.94	24734.78
531.11	24783.93
531.28	24456.26
531.46	24575.62
531.63	24716.06
531.80	25003.94
531.97	24535.84
532.14	25287.15
532.31	24685.63
532.48	24980.54
532.65	25144.38
532.82	24538.18
532.99	25277.79
533.16	25132.67
533.33	25158.42
533.50	25312.89
533.67	25563.33
533.84	25179.48
534.01	25245.02
534.18	25439.28
534.35	25198.21
534.52	25064.80
534.69	25738.87
534.86	25535.24
535.03	25373.75
535.20	25912.07
535.37	25626.53
535.54	25699.08
535.71	25324.60
535.88	25373.75
536.05	25991.65
536.22	26190.59
536.38	25823.13
536.55	25912.07
536.72	25724.83
536.89	25589.08
537.06	26043.14
537.23	25977.61
537.40	25797.38
537.57	26129.74
537.74	26022.08
537.91	26216.34
538.08	26120.38
538.25	25806.75
538.42	25954.20
538.59	26244.43
538.75	26134.42
538.92	25942.50
539.09	26249.11
539.26	26373.16
539.43	26520.61
539.60	26546.36
539.77	26237.41
539.94	26494.86
540.11	26544.02
540.28	26644.66
540.44	26600.19
540.61	26267.83
540.78	26408.26
540.95	26555.72
541.12	26778.07
541.29	26544.02
541.46	26778.07
541.62	26836.58
541.79	26850.63
541.96	26380.18
542.13	26649.34
542.30	26965.31
542.47	27288.31
542.63	27501.29
542.80	27080.00
542.97	27236.81
543.14	27239.15
543.31	27187.66
543.48	27063.61
543.64	27704.92
543.81	27592.58
543.98	27381.93
544.15	27583.21
544.32	27541.08
544.48	27365.54
544.65	27283.62
544.82	27414.69
544.99	27555.13
545.16	27758.75
545.32	27555.13
545.49	27725.99
545.66	27798.54
545.83	27913.23
546.00	27683.86
546.16	27861.74
546.33	27791.52
546.50	27489.59
546.67	28233.88
546.83	27491.93
547.00	27538.74
547.17	27810.25
547.34	28432.83
547.50	28343.89
547.67	28175.37
547.84	28177.71
548.00	28041.96
548.17	28224.52
548.34	28095.79
548.51	28229.20
548.67	28587.30
548.84	28884.55
549.01	28013.87
549.18	28280.69
549.34	28119.20
549.51	28109.83
549.68	28327.50
549.84	28158.99
550.01	28545.17
550.18	28142.60
550.34	28261.97
550.51	28730.08
550.68	28711.35
550.84	28744.12
551.01	28533.47
551.18	28549.85
551.34	28013.87
551.51	28512.41
551.68	28563.90
551.84	28610.71
552.01	28973.49
552.18	28531.13
552.34	28971.15
552.51	28914.98
552.68	28788.59
552.84	28694.97
553.01	28961.79
553.18	28912.64
553.34	29041.37
553.51	29069.45
553.67	29294.14
553.84	29333.93
554.01	29242.65
554.17	29256.70
554.34	29071.79
554.51	29427.56
554.67	29345.64
554.84	29062.43
555.00	29074.13
555.17	29530.54
555.33	29282.44
555.50	29347.98
555.67	29181.80
555.83	29317.55
556.00	29214.57
556.16	29956.52
556.33	29277.76
556.50	29392.45
556.66	29338.62
556.83	29584.37
556.99	29610.12
557.16	29645.23
557.32	30031.41
557.49	29610.12
557.65	29603.10
557.82	29532.88
557.98	29221.59
558.15	29565.65
558.32	29785.66
558.48	29619.48
558.65	29673.31
558.81	29823.11
558.98	29717.78
559.14	29792.68
559.31	29394.79
559.47	29830.13
559.64	29743.53
559.80	29755.23
559.97	29764.59
560.13	30029.07
560.30	30211.64
560.46	29778.64
560.63	30080.56
560.79	29923.75
560.96	30059.50
561.12	29759.91
561.29	29823.11
561.45	30108.65
561.61	30286.53
561.78	30127.38
561.94	30115.67
562.11	29951.84
562.27	29715.44
562.44	30263.13
562.60	29963.54
562.77	29785.66
562.93	29865.24
563.10	30340.36
563.26	29986.94
563.42	30274.83
563.59	30160.14
563.75	30335.68
563.92	30309.94
564.08	29848.85
564.24	29977.58
564.41	30202.27
564.57	30047.80
564.74	30253.76
564.90	30426.96
565.07	30569.74
565.23	30551.01
565.39	30710.17
565.56	30211.64
565.72	29951.84
565.88	30644.63
566.05	30146.10
566.21	30604.84
566.38	30256.11
566.54	30551.01
566.70	30244.40
566.87	30827.20
567.03	30745.28
567.19	30902.09
567.36	30593.14
567.52	30586.12
567.68	30520.59
567.85	30349.73
568.01	30569.74
568.17	30590.80
568.34	30558.03
568.50	30363.77
568.66	30604.84
568.83	30710.17
568.99	30349.73
569.15	30658.68
569.32	30384.83
569.48	30274.83
569.64	30541.65
569.81	30810.81
569.97	30635.27
570.13	30665.70
570.30	30675.06
570.46	30871.67
570.62	30892.73
570.78	30988.69
570.95	30375.47
571.11	30794.43
571.27	30321.64
571.43	30506.54
571.60	30284.19
571.76	30562.72
571.92	30902.09
572.09	30799.11
572.25	31005.08
572.41	30787.41
572.57	30576.76
572.74	31232.11
572.90	30824.86
573.06	31028.48
573.22	30705.49
573.38	30536.97
573.55	30536.97
573.71	30937.20
573.87	31030.82
574.03	31079.97
574.20	31122.10
574.36	30796.77
574.52	30621.23
574.68	31035.50
574.84	30661.02
575.01	31009.76
575.17	30932.52
575.33	30611.87
575.49	31295.30
575.65	31185.30
575.82	31056.57
575.98	30843.58
576.14	30944.22
576.30	31051.89
576.46	30714.85
576.62	30925.50
576.79	31063.59
576.95	30951.24
577.11	31117.42
577.27	30941.88
577.43	31314.03
577.59	31229.77
577.75	30810.81
577.92	30441.01
578.08	30719.53
578.24	31260.20
578.40	31131.47
578.56	31269.56
578.72	31019.12
578.88	31562.12
579.04	31264.88
579.21	31105.72
579.37	30960.61
579.53	31063.59
579.69	30796.77
579.85	30756.98
580.01	31065.93
580.17	31089.34
580.33	31400.63
580.49	31110.40
580.65	31131.47
580.82	31367.86
580.98	31419.35
581.14	30815.49
581.30	31297.64
581.46	31484.89
581.62	30920.82
581.78	30962.95
581.94	31505.95
582.10	31075.29
582.26	31119.76
582.42	31129.12
582.58	31531.70
582.74	31292.96
582.90	31129.12
583.06	31278.92
583.22	31005.08
583.38	31098.70
583.54	31014.44
583.70	30937.20
583.86	31157.21
584.02	30852.94
584.18	31323.39
584.34	31213.38
584.50	31185.30
584.66	31381.90
584.82	31412.33
584.98	31311.69
585.14	31096.36
585.30	30991.03
585.46	31005.08
585.62	31164.23
585.78	31393.61
585.94	30874.01
586.10	31386.58
586.26	31342.11
586.42	31318.71
586.58	31459.14
586.74	31438.08
586.90	31302.32
587.06	30728.89
587.22	31054.23
587.38	31089.34
587.54	31707.24
587.70	31555.10
587.86	31379.56
588.02	31592.55
588.18	31819.58
588.34	31519.99
588.49	31491.91
588.65	31299.98
588.81	31332.75
588.97	31419.35
589.13	31344.45
589.29	31204.02
589.45	31763.41
589.61	31929.59
589.77	31522.34
589.93	31814.90
590.08	31615.96
590.24	31962.36
590.40	31840.65
590.56	31789.16
590.72	31491.91
590.88	31370.20
591.04	31358.50
591.20	31786.82
591.35	31756.39
591.51	32020.87
591.67	31971.72
591.83	32290.03
