SpectraSuite Data File
++++++++++++++++++++++++++++++++++++
Date: Fri Oct 18 13:58:18 GMT-05:00 2013
User: bianchi
Dark Spectrum Present: No
Reference Spectrum Present: No
Number of Sampled Component Spectra: 1
Spectrometers: USB2+H05261
Integration Time (usec): 50000 (USB2+H05261)
Spectra Averaged: 1 (USB2+H05261)
Boxcar Smoothing: 0 (USB2+H05261)
Correct for Electrical Dark: No (USB2+H05261)
Strobe/Lamp Enabled: No (USB2+H05261)
Correct for Detector Non-linearity: No (USB2+H05261)
Correct for Stray Light: No (USB2+H05261)
Number of Pixels in Processed Spectrum: 2048
>>>>>Begin Processed Spectral Data<<<<<
365.73	0.00
365.92	0.00
366.12	0.00
366.32	0.00
366.52	0.00
366.72	0.00
366.91	0.00
367.11	0.00
367.31	0.00
367.51	0.00
367.70	0.00
367.90	0.00
368.10	0.00
368.30	0.00
368.49	0.00
368.69	0.00
368.89	0.00
369.09	0.00
369.28	0.00
369.48	0.00
369.68	0.00
369.87	0.00
370.07	0.00
370.27	0.00
370.47	0.00
370.66	67.88
370.86	95.96
371.06	126.39
371.25	145.11
371.45	140.43
371.65	210.65
371.84	161.50
372.04	114.69
372.24	191.92
372.44	105.32
372.63	159.16
372.83	238.73
373.03	236.39
373.22	208.31
373.42	194.26
373.62	196.60
373.81	212.99
374.01	220.01
374.21	250.44
374.40	257.46
374.60	311.29
374.79	236.39
374.99	203.63
375.19	208.31
375.38	341.72
375.58	238.73
375.78	262.14
375.97	212.99
376.17	285.55
376.37	236.39
376.56	227.03
376.76	269.16
376.95	203.63
377.15	215.33
377.35	292.57
377.54	271.50
377.74	262.14
377.93	276.18
378.13	327.68
378.33	276.18
378.52	313.63
378.72	243.42
378.91	201.29
379.11	252.78
379.31	372.15
379.50	273.84
379.70	243.42
379.89	299.59
380.09	299.59
380.28	280.86
380.48	273.84
380.68	332.36
380.87	266.82
381.07	367.46
381.26	322.99
381.46	322.99
381.65	374.49
381.85	369.80
382.04	292.57
382.24	379.17
382.43	374.49
382.63	372.15
382.83	334.70
383.02	381.51
383.22	355.76
383.41	367.46
383.61	278.52
383.80	407.25
384.00	390.87
384.19	360.44
384.39	334.70
384.58	339.38
384.78	365.12
384.97	425.98
385.17	388.53
385.36	337.04
385.56	280.86
385.75	320.65
385.95	379.17
386.14	400.23
386.34	440.02
386.53	381.51
386.72	346.40
386.92	386.19
387.11	395.55
387.31	411.93
387.50	442.36
387.70	386.19
387.89	449.38
388.09	491.51
388.28	414.27
388.48	496.19
388.67	503.22
388.86	433.00
389.06	493.85
389.25	493.85
389.45	465.77
389.64	440.02
389.84	496.19
390.03	423.64
390.22	524.28
390.42	437.68
390.61	491.51
390.81	493.85
391.00	454.06
391.19	535.98
391.39	510.24
391.58	472.79
391.78	540.66
391.97	538.32
392.16	531.30
392.36	594.50
392.55	489.17
392.75	503.22
392.94	507.90
393.13	564.07
393.33	554.71
393.52	543.00
393.71	503.22
393.91	634.29
394.10	528.96
394.29	554.71
394.49	575.77
394.68	526.62
394.88	571.09
395.07	571.09
395.26	521.94
395.46	475.13
395.65	648.33
395.84	585.13
396.04	594.50
396.23	622.58
396.42	634.29
396.62	716.20
396.81	674.07
397.00	566.41
397.19	650.67
397.39	678.76
397.58	636.63
397.77	713.86
397.97	676.41
398.16	695.14
398.35	692.80
398.55	610.88
398.74	594.50
398.93	702.16
399.12	697.48
399.32	767.70
399.51	765.36
399.70	791.10
399.90	784.08
400.09	734.93
400.28	734.93
400.47	674.07
400.67	786.42
400.86	755.99
401.05	816.85
401.24	791.10
401.44	779.40
401.63	830.89
401.82	828.55
402.01	833.23
402.21	730.25
402.40	847.27
402.59	727.91
402.78	802.80
402.97	922.17
403.17	830.89
403.36	858.98
403.55	866.00
403.74	891.74
403.93	917.49
404.13	940.90
404.32	983.02
404.51	924.51
404.70	884.72
404.89	866.00
405.09	912.81
405.28	936.21
405.47	901.11
405.66	917.49
405.85	971.32
406.05	994.73
406.24	938.55
406.43	1013.45
406.62	957.28
406.81	1081.33
407.00	987.71
407.20	1053.24
407.39	992.39
407.58	1046.22
407.77	1114.10
407.96	1006.43
408.15	1088.35
408.34	1095.37
408.54	1069.62
408.73	1100.05
408.92	1097.71
409.11	1132.82
409.30	1235.80
409.49	1144.52
409.68	1172.61
409.87	1132.82
410.07	1088.35
410.26	1163.25
410.45	1200.69
410.64	1196.01
410.83	1188.99
411.02	1144.52
411.21	1231.12
411.40	1177.29
411.59	1308.36
411.78	1226.44
411.98	1207.72
412.17	1247.51
412.36	1249.85
412.55	1385.60
412.74	1263.89
412.93	1411.34
413.12	1313.04
413.31	1355.17
413.50	1308.36
413.69	1336.45
413.88	1486.24
414.07	1521.35
414.26	1425.39
414.45	1439.43
414.64	1385.60
414.83	1458.15
415.02	1490.92
415.22	1516.67
415.41	1596.25
415.60	1551.78
415.79	1582.20
415.98	1575.18
416.17	1570.50
416.36	1514.33
416.55	1617.31
416.74	1636.03
416.93	1490.92
417.12	1666.46
417.31	1710.93
417.50	1715.61
417.69	1727.32
417.88	1678.16
418.07	1717.95
418.26	1823.28
418.45	1776.47
418.64	1823.28
418.83	1741.36
419.02	1797.53
419.21	1767.10
419.39	1886.47
419.58	1856.04
419.77	1682.85
419.96	1762.42
420.15	1858.39
420.34	1823.28
420.53	1919.24
420.72	1884.13
420.91	1916.90
421.10	1914.56
421.29	2019.88
421.48	2050.31
421.67	1947.33
421.86	1900.52
422.05	1914.56
422.24	2003.50
422.43	2036.27
422.61	2076.06
422.80	2005.84
422.99	1977.75
423.18	1963.71
423.37	2019.88
423.56	1956.69
423.75	2008.18
423.94	1996.48
424.13	1914.56
424.32	1949.67
424.50	2059.67
424.69	2052.65
424.88	2099.46
425.07	1975.41
425.26	1947.33
425.45	1998.82
425.64	2001.16
425.83	1994.14
426.01	1984.77
426.20	1982.43
426.39	2040.95
426.58	2073.71
426.77	2153.29
426.96	2005.84
427.15	2038.61
427.33	2113.50
427.52	2083.08
427.71	2136.91
427.90	2090.10
428.09	2181.38
428.28	2052.65
428.46	2143.93
428.65	2310.11
428.84	2298.41
429.03	2153.29
429.22	2214.15
429.40	2232.87
429.59	2310.11
429.78	2146.27
429.97	2167.34
430.16	2211.81
430.34	2258.62
430.53	2296.07
430.72	2132.23
430.91	2244.57
431.10	2204.78
431.28	2333.51
431.47	2349.90
431.66	2359.26
431.85	2298.41
432.03	2385.01
432.22	2597.99
432.41	2443.52
432.60	2363.94
432.79	2406.07
432.97	2441.18
433.16	2417.77
433.35	2361.60
433.54	2576.93
433.72	2502.03
433.91	2504.37
434.10	2487.99
434.28	2473.95
434.47	2441.18
434.66	2415.43
434.85	2562.89
435.03	2509.05
435.22	2473.95
435.41	2672.89
435.59	2593.31
435.78	2534.80
435.97	2682.25
436.16	2539.48
436.34	2619.06
436.53	2663.53
436.72	2635.44
436.90	2626.08
437.09	2726.72
437.28	2752.47
437.46	2628.42
437.65	2675.23
437.84	2827.37
438.02	2717.36
438.21	2733.75
438.40	2850.77
438.58	2848.43
438.77	2881.20
438.96	2696.30
439.14	2867.16
439.33	2913.97
439.52	2857.79
439.70	2988.86
439.89	3023.97
440.08	2925.67
440.26	3038.02
440.45	2946.73
440.63	2993.55
440.82	3035.67
441.01	3084.83
441.19	3101.21
441.38	3335.26
441.57	3225.26
441.75	3098.87
441.94	3215.90
442.12	3143.34
442.31	3269.73
442.50	3311.86
442.68	3295.47
442.87	3206.53
443.05	3286.11
443.24	3421.86
443.43	3356.33
443.61	3328.24
443.80	3407.82
443.98	3290.79
444.17	3215.90
444.35	3353.99
444.54	3522.51
444.73	3419.52
444.91	3386.76
445.10	3424.20
445.28	3393.78
445.47	3414.84
445.65	3398.46
445.84	3475.70
446.02	3569.32
446.21	3386.76
446.39	3393.78
446.58	3442.93
446.77	3557.61
446.95	3431.23
447.14	3510.80
447.32	3433.57
447.51	3442.93
447.69	3379.73
447.88	3515.48
448.06	3489.74
448.25	3522.51
448.43	3578.68
448.62	3604.42
448.80	3517.83
448.99	3471.01
449.17	3616.13
449.36	3574.00
449.54	3751.88
449.73	3630.17
449.91	3740.18
450.10	3702.73
450.28	3749.54
450.46	3742.52
450.65	3726.13
450.83	3829.12
451.02	3786.99
451.20	3756.56
451.39	3735.50
451.57	3716.77
451.76	3789.33
451.94	3815.07
452.13	3691.02
452.31	3786.99
452.49	3648.90
452.68	3859.54
452.86	3698.05
453.05	3728.47
453.23	4007.00
453.42	3777.62
453.60	3779.97
453.78	3920.40
453.97	3932.10
454.15	3889.97
454.34	3875.93
454.52	3941.46
454.70	3927.42
454.89	3932.10
455.07	4002.32
455.26	3957.85
455.44	4119.34
455.62	4007.00
455.81	4030.40
455.99	4095.94
456.17	4042.11
456.36	4100.62
456.54	4086.58
456.73	4173.18
456.91	4156.79
457.09	4224.67
457.28	4306.59
457.46	4184.88
457.64	4337.01
457.83	4208.28
458.01	4285.52
458.19	4327.65
458.38	4238.71
458.56	4346.37
458.74	4409.57
458.93	4435.32
459.11	4374.46
459.29	4421.27
459.48	4512.55
459.66	4542.98
459.84	4449.36
460.03	4664.69
460.21	4573.41
460.39	4463.40
460.57	4407.23
460.76	4496.17
460.94	4528.94
461.12	4535.96
461.31	4652.98
461.49	4643.62
461.67	4510.21
461.85	4655.33
462.04	4667.03
462.22	4863.63
462.40	4695.11
462.59	4592.13
462.77	4643.62
462.95	4660.01
463.13	4634.26
463.32	4753.63
463.50	4954.91
463.68	4887.04
463.86	4685.75
464.05	4830.87
464.23	4753.63
464.41	4830.87
464.59	4744.27
464.78	4908.10
464.96	4837.89
465.14	4741.93
465.32	4835.55
465.50	5057.90
465.69	4973.64
465.87	5067.26
466.05	4983.00
466.23	4978.32
466.41	4964.28
466.60	5135.14
466.78	4987.68
466.96	5036.83
467.14	4922.15
467.32	4943.21
467.51	4997.04
467.69	4910.44
467.87	5121.09
468.05	5100.03
468.23	4959.60
468.41	5081.30
468.60	5228.76
468.78	5221.74
468.96	5156.20
469.14	5160.88
469.32	5242.80
469.50	5123.43
469.69	5355.15
469.87	5238.12
470.05	5320.04
470.23	5247.48
470.41	5289.61
470.59	5518.98
470.77	5165.56
470.95	5451.11
471.14	5579.84
471.32	5406.64
471.50	5568.13
471.68	5734.31
471.86	5502.60
472.04	5624.31
472.22	5638.35
472.40	5689.84
472.58	5713.25
472.77	5671.12
472.95	5736.65
473.13	5987.09
473.31	5886.45
473.49	5774.10
473.67	5617.29
473.85	5872.40
474.03	5870.06
474.21	5954.32
474.39	6134.54
474.57	6141.57
474.75	6150.93
474.93	6260.93
475.12	6031.56
475.30	6155.61
475.48	6209.44
475.66	6225.82
475.84	6296.04
476.02	6265.61
476.20	6122.84
476.38	6321.79
476.56	6399.02
476.74	6436.47
476.92	6450.52
477.10	6572.22
477.28	6602.65
477.46	6527.75
477.64	6623.72
477.82	6731.38
478.00	6991.18
478.18	6899.90
478.36	6759.47
478.54	6960.75
478.72	6909.26
478.90	6913.94
479.08	6923.30
479.26	7103.53
479.44	7318.86
479.62	7241.62
479.80	7295.45
479.98	7641.85
480.16	7461.63
480.34	7562.27
480.52	7529.50
480.70	7616.10
480.88	7625.47
481.06	7637.17
481.24	7613.76
481.41	7508.44
481.59	7845.48
481.77	7772.92
481.95	7915.69
482.13	8006.97
482.31	8084.21
482.49	8060.80
482.67	8060.80
482.85	8196.56
483.03	8325.29
483.21	8379.12
483.39	8444.65
483.57	8355.71
483.74	8706.79
483.92	8645.94
484.10	8545.30
484.28	8919.78
484.46	8882.33
484.64	9032.13
484.82	8816.80
485.00	9004.04
485.18	9310.65
485.35	9362.14
485.53	9146.81
485.71	9432.36
485.89	9413.63
486.07	9509.60
486.25	9392.57
486.43	9427.68
486.61	9493.21
486.78	9748.33
486.96	9858.34
487.14	9841.95
487.32	10008.13
487.50	9863.02
487.68	10221.12
487.85	10382.62
488.03	10391.98
488.21	10476.24
488.39	10427.09
488.57	10525.39
488.75	10539.43
488.92	10586.24
489.10	10803.91
489.28	10773.49
489.46	10827.32
489.64	10836.68
489.81	11276.70
489.99	11164.36
490.17	11229.89
490.35	11456.92
490.53	11466.28
490.70	11566.93
490.88	11793.96
491.06	11566.93
491.24	11398.41
491.41	11782.26
491.59	11756.51
491.77	11712.04
491.95	12067.80
492.13	11873.54
492.30	12056.10
492.48	12236.32
492.66	12100.57
492.84	12444.63
493.01	12566.34
493.19	12477.40
493.37	12482.08
493.54	12807.41
493.72	12669.32
493.90	12463.35
494.08	12774.64
494.25	12882.31
494.43	13174.88
494.61	13118.70
494.79	13008.70
494.96	13172.54
495.14	13102.32
495.32	13577.45
495.49	13502.55
495.67	13476.80
495.85	13518.93
496.02	13628.94
496.20	13937.89
496.38	13781.07
496.55	13818.52
496.73	14361.53
496.91	13905.12
497.09	14221.10
497.26	14078.32
497.44	14209.39
497.62	14263.22
497.79	14450.47
497.97	14420.04
498.14	14354.51
498.32	14604.94
498.50	14834.32
498.67	14883.47
498.85	14981.77
499.03	14909.21
499.20	14857.72
499.38	14810.91
499.56	15227.53
499.73	15267.31
499.91	15239.23
500.08	15243.91
500.26	15014.54
500.44	15477.96
500.61	15398.38
500.79	15555.20
500.97	15262.63
501.14	15770.53
501.32	15690.95
501.49	15730.74
501.67	15534.14
501.84	15845.43
502.02	15822.02
502.20	15695.63
502.37	15871.17
502.55	15981.18
502.72	16163.74
502.90	16119.27
503.07	16248.00
503.25	16259.70
503.43	16163.74
503.60	16240.98
503.78	16592.06
503.95	16475.03
504.13	16360.34
504.30	16491.41
504.48	16290.13
504.65	16535.88
504.83	16772.28
505.01	16645.89
505.18	17102.29
505.36	16856.54
505.53	16606.10
505.71	16732.49
505.88	16926.75
506.06	16947.82
506.23	17167.83
506.41	17025.06
506.58	17366.78
506.76	17317.62
506.93	17275.49
507.11	17329.33
507.28	17249.75
507.46	17436.99
507.63	17441.67
507.81	17972.97
507.98	17579.76
508.16	17514.23
508.33	17743.60
508.50	17727.22
508.68	17928.50
508.85	17872.33
509.03	17715.51
509.20	17928.50
509.38	18181.28
509.55	17879.35
509.73	18265.54
509.90	18139.15
510.08	17923.82
510.25	18221.07
510.42	18567.47
510.60	18396.61
510.77	18340.44
510.95	18848.33
511.12	18665.77
511.30	18459.81
511.47	18752.37
511.64	18712.58
511.82	18728.97
511.99	18647.05
512.17	18897.49
512.34	18946.64
512.51	18813.23
512.69	18991.11
512.86	18682.16
513.04	19389.00
513.21	19211.12
513.38	19393.68
513.56	19293.04
513.73	19183.03
513.90	19609.01
514.08	19297.72
514.25	19398.36
514.43	19587.94
514.60	19723.69
514.77	19484.96
514.95	19707.31
515.12	19480.28
515.29	19660.50
515.47	19763.48
515.64	19807.95
515.81	19634.75
515.99	19852.42
516.16	19962.43
516.33	19922.64
516.51	19721.35
516.68	20133.29
516.85	20233.93
517.03	20030.30
517.20	20367.34
517.37	20011.58
517.54	20063.07
517.72	20327.55
517.89	20184.78
518.06	20652.89
518.24	20327.55
518.41	20365.00
518.58	20510.11
518.75	20870.56
518.93	20769.91
519.10	20648.21
519.27	20823.75
519.45	20762.89
519.62	20622.46
519.79	20524.16
519.96	21032.05
520.14	20849.49
520.31	20975.88
520.48	20952.48
520.65	20936.09
520.83	20891.62
521.00	21284.83
521.17	21029.71
521.34	21294.19
521.52	21303.56
521.69	21308.24
521.86	21479.10
522.03	21614.85
522.20	21736.56
522.38	21483.78
522.55	21750.60
522.72	21628.89
522.89	21486.12
523.07	22036.14
523.24	21954.22
523.41	21907.41
523.58	21556.33
523.75	22155.51
523.92	22237.43
524.10	21907.41
524.27	22101.68
524.44	22052.53
524.61	22302.96
524.78	22448.08
524.96	21928.48
525.13	22237.43
525.30	22195.30
525.47	22183.60
525.64	22398.93
525.81	22614.26
525.98	22682.13
526.16	22242.11
526.33	22799.16
526.50	22799.16
526.67	22455.10
526.84	22616.60
527.01	22590.85
527.18	22609.58
527.36	22644.68
527.53	23000.44
527.70	22963.00
527.87	23019.17
528.04	23126.83
528.21	22923.21
528.38	22831.93
528.55	23063.64
528.72	22918.53
528.89	22988.74
529.07	23007.47
529.24	22995.76
529.41	23410.04
529.58	23337.48
529.75	23480.25
529.92	23126.83
530.09	23332.80
530.26	23323.44
530.43	23534.09
530.60	23709.63
530.77	23543.45
530.94	23761.12
531.11	23332.80
531.28	23634.73
531.46	23386.63
531.63	23639.41
531.80	23831.33
531.97	23639.41
532.14	24355.61
532.31	23882.83
532.48	23578.56
532.65	23960.06
532.82	23901.55
532.99	23964.75
533.16	24105.18
533.33	24189.44
533.50	24503.07
533.67	24294.76
533.84	24065.39
534.01	23917.93
534.18	23828.99
534.35	24175.39
534.52	24046.66
534.69	24599.03
534.86	24404.77
535.03	24425.83
535.20	24482.00
535.37	24187.10
535.54	24430.51
535.71	24432.85
535.88	24528.81
536.05	24575.62
536.22	24496.05
536.38	24687.97
536.55	24624.78
536.72	24802.66
536.89	24629.46
537.06	24720.74
537.23	25170.12
537.40	24629.46
537.57	24666.91
537.74	24950.11
537.91	25034.37
538.08	25013.31
538.25	25015.65
538.42	25139.69
538.59	24952.45
538.75	24816.70
538.92	24805.00
539.09	25263.74
539.26	25273.10
539.43	25142.03
539.60	25142.03
539.77	25305.87
539.94	25549.29
540.11	25476.73
540.28	25633.55
540.44	25116.29
540.61	25324.60
540.78	25062.46
540.95	25310.55
541.12	25642.91
541.29	25596.10
541.46	25298.85
541.62	25563.33
541.79	25259.06
541.96	25242.68
542.13	25500.14
542.30	25944.84
542.47	25986.97
542.63	25563.33
542.80	25804.41
542.97	26054.84
543.14	26291.24
543.31	25663.97
543.48	26066.55
543.64	26483.16
543.81	26230.38
543.98	26073.57
544.15	26565.08
544.32	26429.33
544.48	26595.51
544.65	26279.54
544.82	26569.76
544.99	26162.51
545.16	26511.25
545.32	26520.61
545.49	26499.55
545.66	26555.72
545.83	26424.65
546.00	26967.65
546.16	26450.39
546.33	26235.06
546.50	26019.74
546.67	26487.84
546.83	26071.23
547.00	26995.74
547.17	26368.48
547.34	26714.87
547.50	26906.80
547.67	27194.68
547.84	26745.30
548.00	26885.73
548.17	26801.47
548.34	26890.41
548.51	26944.25
548.67	27065.96
548.84	27016.80
549.01	26803.82
549.18	26761.69
549.34	26766.37
549.51	26969.99
549.68	26838.92
549.84	26960.63
550.01	26948.93
550.18	27054.25
550.34	26859.99
550.51	27248.52
550.68	27164.26
550.84	26972.33
551.01	27438.10
551.18	27386.61
551.34	27353.84
551.51	27087.02
551.68	27222.77
551.84	27353.84
552.01	27613.64
552.18	27501.29
552.34	27321.07
552.51	27339.80
552.68	27459.16
552.84	27204.05
553.01	27887.48
553.18	27447.46
553.34	27714.28
553.51	27597.26
553.67	28011.53
553.84	27934.29
554.01	27777.48
554.17	27697.90
554.34	28032.60
554.51	27798.54
554.67	27742.37
554.84	27721.30
555.00	27819.61
555.17	27824.29
555.33	28238.56
555.50	27908.55
555.67	28210.48
555.83	28060.68
556.00	27814.93
556.16	28290.06
556.33	27922.59
556.50	27768.12
556.66	28393.04
556.83	27988.13
556.99	28343.89
557.16	28112.17
557.32	28041.96
557.49	28109.83
557.65	28547.51
557.82	27974.08
557.98	27974.08
558.15	28180.05
558.32	28479.64
558.48	28219.84
558.65	28584.96
558.81	28229.20
558.98	28367.29
559.14	28381.34
559.31	28210.48
559.47	28170.69
559.64	28311.12
559.80	28769.86
559.97	28339.21
560.13	28533.47
560.30	28512.41
560.46	28156.64
560.63	28348.57
560.79	28386.02
560.96	28538.15
561.12	28751.14
561.29	28535.81
561.45	28524.11
561.61	28650.50
561.78	28746.46
561.94	28886.89
562.11	28531.13
562.27	28528.79
562.44	28664.54
562.60	28196.43
562.77	28463.25
562.93	28491.34
563.10	29064.77
563.26	28701.99
563.42	29160.73
563.59	28893.91
563.75	29057.75
563.92	28624.75
564.08	28561.56
564.24	28854.12
564.41	28425.81
564.57	28606.03
564.74	28535.81
564.90	28802.63
565.07	28961.79
565.23	28891.57
565.39	29048.39
565.56	29024.98
565.72	29106.90
565.88	29076.48
566.05	28751.14
566.21	28549.85
566.38	28690.29
566.54	28414.10
566.70	29003.92
566.87	29347.98
567.03	29214.57
567.19	29357.34
567.36	28797.95
567.52	29090.52
567.68	29373.72
567.85	29181.80
568.01	28737.10
568.17	29184.14
568.34	29111.58
568.50	29305.85
568.66	29090.52
568.83	29635.86
568.99	29088.18
569.15	29338.62
569.32	28978.17
569.48	29109.24
569.64	29333.93
569.81	29090.52
569.97	29043.71
570.13	29455.64
570.30	29081.16
570.46	29085.84
570.62	29493.09
570.78	29305.85
570.95	29186.48
571.11	29617.14
571.27	29125.63
571.43	29266.06
571.60	29439.26
571.76	29263.72
571.92	29319.89
572.09	29352.66
572.25	29392.45
572.41	29422.87
572.57	29460.32
572.74	29024.98
572.90	28989.88
573.06	29385.43
573.22	29006.26
573.38	29392.45
573.55	29350.32
573.71	29647.57
573.87	29759.91
574.03	29504.79
574.20	29266.06
574.36	29450.96
574.52	29694.38
574.68	29380.74
574.84	29324.57
575.01	29057.75
575.17	29270.74
575.33	29539.90
575.49	29518.84
575.65	29652.25
575.82	29687.36
575.98	29146.69
576.14	29560.97
576.30	29546.92
576.46	29163.08
576.62	29509.47
576.79	29420.53
576.95	29567.99
577.11	29567.99
577.27	29500.11
577.43	29907.37
577.59	29507.13
577.75	29467.34
577.92	29146.69
578.08	29649.91
578.24	28835.40
578.40	29364.36
578.56	29497.77
578.72	29699.06
578.88	29699.06
579.04	29584.37
579.21	29282.44
579.37	29577.35
579.53	29708.42
579.69	29102.22
579.85	29670.97
580.01	29088.18
580.17	29167.76
580.33	29809.06
580.49	29174.78
580.65	29706.08
580.82	29420.53
580.98	29757.57
581.14	29830.13
581.30	29596.07
581.46	29525.86
581.62	29338.62
581.78	29207.55
581.94	29343.30
582.10	29441.60
582.26	29123.29
582.42	29514.16
582.58	29771.61
582.74	29619.48
582.90	29748.21
583.06	29692.04
583.22	29516.50
583.38	30188.23
583.54	29792.68
583.70	29572.67
583.86	29474.37
584.02	29308.19
584.18	29457.98
584.34	29937.79
584.50	29596.07
584.66	29699.06
584.82	29544.58
584.98	29593.73
585.14	29626.50
585.30	29577.35
585.46	29780.98
585.62	29214.57
585.78	29799.70
585.94	29591.39
586.10	29701.40
586.26	29455.64
586.42	30162.48
586.58	29743.53
586.74	29841.83
586.90	29413.51
587.06	29563.31
587.22	29474.37
587.38	29649.91
587.54	30092.27
587.70	30251.42
587.86	29720.12
588.02	29865.24
588.18	30000.99
588.34	30073.54
588.49	29898.00
588.65	29738.85
588.81	29465.00
588.97	30036.09
589.13	29914.39
589.29	29312.87
589.45	29890.98
589.61	29947.15
589.77	30291.21
589.93	30082.91
590.08	30066.52
590.24	29788.00
590.40	30232.70
590.56	29890.98
590.72	30071.20
590.88	29886.30
591.04	30047.80
591.20	30298.23
591.35	29972.90
591.51	30504.20
591.67	30574.42
591.83	29935.45
591.99	30017.37
