SpectraSuite Data File
++++++++++++++++++++++++++++++++++++
Date: Fri Oct 18 13:57:57 GMT-05:00 2013
User: bianchi
Dark Spectrum Present: No
Reference Spectrum Present: No
Number of Sampled Component Spectra: 1
Spectrometers: USB2+H05261
Integration Time (usec): 50000 (USB2+H05261)
Spectra Averaged: 1 (USB2+H05261)
Boxcar Smoothing: 0 (USB2+H05261)
Correct for Electrical Dark: No (USB2+H05261)
Strobe/Lamp Enabled: No (USB2+H05261)
Correct for Detector Non-linearity: No (USB2+H05261)
Correct for Stray Light: No (USB2+H05261)
Number of Pixels in Processed Spectrum: 2048
>>>>>Begin Processed Spectral Data<<<<<
365.73	0.00
365.92	0.00
366.12	0.00
366.32	0.00
366.52	0.00
366.72	0.00
366.91	0.00
367.11	0.00
367.31	0.00
367.51	0.00
367.70	0.00
367.90	0.00
368.10	0.00
368.30	0.00
368.49	0.00
368.69	0.00
368.89	0.00
369.09	0.00
369.28	0.00
369.48	0.00
369.68	0.00
369.87	0.00
370.07	0.00
370.27	0.00
370.47	0.00
370.66	49.15
370.86	140.43
371.06	79.58
371.25	114.69
371.45	154.48
371.65	140.43
371.84	138.09
372.04	191.92
372.24	124.05
372.44	231.71
372.63	173.20
372.83	236.39
373.03	212.99
373.22	173.20
373.42	250.44
373.62	299.59
373.81	224.69
374.01	229.37
374.21	301.93
374.40	205.97
374.60	227.03
374.79	257.46
374.99	332.36
375.19	273.84
375.38	142.77
375.58	238.73
375.78	250.44
375.97	271.50
376.17	259.80
376.37	280.86
376.56	299.59
376.76	273.84
376.95	236.39
377.15	325.33
377.35	245.76
377.54	283.20
377.74	264.48
377.93	259.80
378.13	290.23
378.33	315.97
378.52	313.63
378.72	297.25
378.91	184.90
379.11	252.78
379.31	304.27
379.50	341.72
379.70	346.40
379.89	330.02
380.09	358.10
380.28	290.23
380.48	337.04
380.68	283.20
380.87	360.44
381.07	327.68
381.26	276.18
381.46	337.04
381.65	454.06
381.85	383.85
382.04	262.14
382.24	332.36
382.43	374.49
382.63	294.91
382.83	344.06
383.02	299.59
383.22	318.31
383.41	280.86
383.61	407.25
383.80	339.38
384.00	374.49
384.19	318.31
384.39	449.38
384.58	383.85
384.78	393.21
384.97	372.15
385.17	400.23
385.36	418.96
385.56	416.62
385.75	360.44
385.95	451.72
386.14	456.40
386.34	386.19
386.53	381.51
386.72	404.91
386.92	451.72
387.11	390.87
387.31	383.85
387.50	479.81
387.70	360.44
387.89	383.85
388.09	440.02
388.28	376.83
388.48	449.38
388.67	458.74
388.86	470.45
389.06	414.27
389.25	493.85
389.45	397.89
389.64	395.55
389.84	531.30
390.03	479.81
390.22	484.49
390.42	491.51
390.61	496.19
390.81	568.75
391.00	526.62
391.19	545.34
391.39	493.85
391.58	425.98
391.78	388.53
391.97	451.72
392.16	498.53
392.36	442.36
392.55	613.22
392.75	594.50
392.94	608.54
393.13	456.40
393.33	568.75
393.52	498.53
393.71	608.54
393.91	538.32
394.10	606.20
394.29	580.45
394.49	617.90
394.68	629.60
394.88	599.18
395.07	486.83
395.26	653.01
395.46	657.69
395.65	645.99
395.84	596.84
396.04	587.47
396.23	699.82
396.42	690.46
396.62	671.73
396.81	674.07
397.00	627.26
397.19	695.14
397.39	730.25
397.58	725.57
397.77	622.58
397.97	793.44
398.16	692.80
398.35	737.27
398.55	660.03
398.74	706.84
398.93	826.21
399.12	678.76
399.32	685.78
399.51	730.25
399.70	690.46
399.90	784.08
400.09	753.65
400.28	842.59
400.47	784.08
400.67	748.97
400.86	877.70
401.05	795.78
401.24	863.66
401.44	795.78
401.63	795.78
401.82	800.46
402.01	802.80
402.21	891.74
402.40	812.17
402.59	800.46
402.78	856.64
402.97	903.45
403.17	983.02
403.36	777.06
403.55	931.53
403.74	971.32
403.93	976.00
404.13	880.04
404.32	870.68
404.51	1034.52
404.70	961.96
404.89	983.02
405.09	1008.77
405.28	952.60
405.47	961.96
405.66	922.17
405.85	926.85
406.05	994.73
406.24	1029.84
406.43	997.07
406.62	1025.15
406.81	1123.46
407.00	1043.88
407.20	917.49
407.39	1032.18
407.58	985.37
407.77	973.66
407.96	1083.67
408.15	1163.25
408.34	1137.50
408.54	1102.39
408.73	1067.28
408.92	1093.03
409.11	1116.44
409.30	1146.86
409.49	1146.86
409.68	1128.14
409.87	1151.54
410.07	1179.63
410.26	1125.80
410.45	1219.42
410.64	1219.42
410.83	1226.44
411.02	1228.78
411.21	1266.23
411.40	1160.91
411.59	1284.95
411.78	1233.46
411.98	1247.51
412.17	1303.68
412.36	1320.06
412.55	1373.89
412.74	1425.39
412.93	1371.55
413.12	1373.89
413.31	1467.52
413.50	1394.96
413.69	1420.71
413.88	1441.77
414.07	1413.68
414.26	1453.47
414.45	1521.35
414.64	1586.88
414.83	1423.05
415.02	1561.14
415.22	1607.95
415.41	1607.95
415.60	1671.14
415.79	1650.08
415.98	1572.84
416.17	1689.87
416.36	1577.52
416.55	1645.40
416.74	1689.87
416.93	1652.42
417.12	1633.69
417.31	1694.55
417.50	1748.38
417.69	1818.60
417.88	1703.91
418.07	1659.44
418.26	1696.89
418.45	1792.85
418.64	1846.68
418.83	1849.02
419.02	1788.17
419.21	1891.15
419.39	1870.09
419.58	1776.47
419.77	1891.15
419.96	1867.75
420.15	1959.03
420.34	1849.02
420.53	1870.09
420.72	1898.17
420.91	1837.32
421.10	1937.96
421.29	1930.94
421.48	1984.77
421.67	1952.01
421.86	1926.26
422.05	2115.84
422.24	1968.39
422.43	2071.37
422.61	2092.44
422.80	2090.10
422.99	2036.27
423.18	2083.08
423.37	2036.27
423.56	2101.80
423.75	2008.18
423.94	2033.93
424.13	1853.70
424.32	1994.14
424.50	1930.94
424.69	2036.27
424.88	2080.74
425.07	2087.76
425.26	2069.03
425.45	2019.88
425.64	2092.44
425.83	2003.50
426.01	2057.33
426.20	2118.18
426.39	2132.23
426.58	2094.78
426.77	2172.02
426.96	2097.12
427.15	2085.42
427.33	2150.95
427.52	2122.87
427.71	2122.87
427.90	2197.76
428.09	2265.64
428.28	2265.64
428.46	2265.64
428.65	2211.81
428.84	2216.49
429.03	2359.26
429.22	2186.06
429.40	2186.06
429.59	2260.96
429.78	2216.49
429.97	2183.72
430.16	2307.77
430.34	2335.85
430.53	2438.84
430.72	2354.58
430.91	2303.09
431.10	2382.67
431.28	2399.05
431.47	2525.44
431.66	2385.01
431.85	2392.03
432.03	2429.48
432.22	2583.95
432.41	2532.46
432.60	2541.82
432.79	2588.63
432.97	2504.37
433.16	2450.54
433.35	2361.60
433.54	2548.84
433.72	2609.70
433.91	2614.38
434.10	2509.05
434.28	2473.95
434.47	2572.25
434.66	2597.99
434.85	2630.76
435.03	2597.99
435.22	2541.82
435.41	2705.66
435.59	2658.85
435.78	2665.87
435.97	2743.11
436.16	2684.59
436.34	2595.65
436.53	2780.56
436.72	2897.58
436.90	2750.13
437.09	2761.83
437.28	2717.36
437.46	2885.88
437.65	2710.34
437.84	2808.64
438.02	2780.56
438.21	2916.31
438.40	2883.54
438.58	2895.24
438.77	2939.71
438.96	2977.16
439.14	2986.52
439.33	3103.55
439.52	3026.31
439.70	3056.74
439.89	3033.33
440.08	3042.70
440.26	2991.20
440.45	3155.04
440.63	3215.90
440.82	3199.51
441.01	3068.44
441.19	3112.91
441.38	3211.22
441.57	3297.81
441.75	3466.33
441.94	3370.37
442.12	3384.41
442.31	3379.73
442.50	3492.08
442.68	3349.31
442.87	3365.69
443.05	3468.67
443.24	3461.65
443.43	3445.27
443.61	3391.44
443.80	3562.30
443.98	3501.44
444.17	3248.66
444.35	3370.37
444.54	3552.93
444.73	3564.64
444.91	3620.81
445.10	3454.63
445.28	3396.12
445.47	3431.23
445.65	3405.48
445.84	3508.46
446.02	3583.36
446.21	3501.44
446.39	3445.27
446.58	3588.04
446.77	3625.49
446.95	3494.42
447.14	3574.00
447.32	3749.54
447.51	3468.67
447.69	3424.20
447.88	3522.51
448.06	3548.25
448.25	3456.97
448.43	3735.50
448.62	3492.08
448.80	3686.34
448.99	3714.43
449.17	3740.18
449.36	3660.60
449.54	3733.15
449.73	3712.09
449.91	3634.85
450.10	3817.41
450.28	3859.54
450.46	3749.54
450.65	3815.07
450.83	3838.48
451.02	3822.09
451.20	3927.42
451.39	3873.59
451.57	3918.06
451.76	3805.71
451.94	3861.88
452.13	3992.95
452.31	3918.06
452.49	3908.69
452.68	3948.48
452.86	3889.97
453.05	3988.27
453.23	3925.08
453.42	3988.27
453.60	4065.51
453.78	3995.29
453.97	4067.85
454.15	4037.42
454.34	3852.52
454.52	4051.47
454.70	4198.92
454.89	4231.69
455.07	4189.56
455.26	4044.45
455.44	4189.56
455.62	4100.62
455.81	4147.43
455.99	4301.90
456.17	4159.13
456.36	4168.49
456.54	4369.78
456.73	4292.54
456.91	4351.06
457.09	4465.74
457.28	4461.06
457.46	4381.48
457.64	4329.99
457.83	4404.89
458.01	4376.80
458.19	4514.89
458.38	4465.74
458.56	4636.60
458.74	4362.76
458.93	4440.00
459.11	4580.43
459.29	4435.32
459.48	4531.28
459.66	4507.87
459.84	4533.62
460.03	4753.63
460.21	4631.92
460.39	4636.60
460.57	4470.42
460.76	4517.23
460.94	4650.64
461.12	4608.51
461.31	4655.33
461.49	4643.62
461.67	4690.43
461.85	4720.86
462.04	4830.87
462.22	5001.72
462.40	4908.10
462.59	4812.14
462.77	4954.91
462.95	4821.50
463.13	4943.21
463.32	4936.19
463.50	4992.36
463.68	5018.11
463.86	5064.92
464.05	4896.40
464.23	5039.17
464.41	5069.60
464.59	4922.15
464.78	5156.20
464.96	5027.47
465.14	5069.60
465.32	5095.35
465.50	5048.54
465.69	5207.69
465.87	4973.64
466.05	5116.41
466.23	5235.78
466.41	5186.63
466.60	5324.72
466.78	5247.48
466.96	5118.75
467.14	5071.94
467.32	5135.14
467.51	5305.99
467.69	5231.10
467.87	5195.99
468.05	5291.95
468.23	5191.31
468.41	5385.57
468.60	5303.65
468.78	5277.91
468.96	5188.97
469.14	5488.56
469.32	5355.15
469.50	5378.55
469.69	5521.32
469.87	5561.11
470.05	5495.58
470.23	5523.66
470.41	5467.49
470.59	5521.32
470.77	5558.77
470.95	5605.58
471.14	5755.38
471.32	5652.39
471.50	5778.78
471.68	5631.33
471.86	5783.46
472.04	5603.24
472.22	5933.26
472.40	5694.52
472.58	5746.02
472.77	5905.17
472.95	5813.89
473.13	6047.94
473.31	6001.13
473.49	5935.60
473.67	6073.69
473.85	5914.53
474.03	6071.35
474.21	6200.08
474.39	6338.17
474.57	6223.48
474.75	6239.87
474.93	6349.87
475.12	6078.37
475.30	6277.32
475.48	6265.61
475.66	6307.74
475.84	6555.84
476.02	6649.46
476.20	6569.88
476.38	6576.91
476.56	6635.42
476.74	6675.21
476.92	6799.26
477.10	6771.17
477.28	6471.58
477.46	6876.49
477.64	6740.74
477.82	6911.60
478.00	7140.97
478.18	7052.03
478.36	7300.13
478.54	7171.40
478.72	7164.38
478.90	7293.11
479.08	7183.10
479.26	7236.94
479.44	7344.60
479.62	7513.12
479.80	7478.01
479.98	7510.78
480.16	7681.64
480.34	7641.85
480.52	7707.38
480.70	7672.28
480.88	7712.07
481.06	7918.03
481.24	7779.94
481.41	8077.19
481.59	8250.39
481.77	8133.36
481.95	8187.19
482.13	8189.53
482.31	8166.13
482.49	8496.14
482.67	8606.15
482.85	8631.90
483.03	8617.85
483.21	8674.03
483.39	8985.32
483.57	8982.98
483.74	8889.35
483.92	8997.02
484.10	9074.26
484.28	9109.36
484.46	9165.54
484.64	9100.00
484.82	9212.35
485.00	9205.33
485.18	9383.21
485.35	9715.56
485.53	9591.52
485.71	9696.84
485.89	9895.78
486.07	9736.63
486.25	9804.50
486.43	9696.84
486.61	10232.82
486.78	10120.48
486.96	9893.44
487.14	10436.45
487.32	10111.11
487.50	10326.44
487.68	10218.78
487.85	10427.09
488.03	10644.76
488.21	10864.77
488.39	10892.85
488.57	10881.15
488.75	10843.70
488.92	11096.48
489.10	11073.07
489.28	10888.17
489.46	11187.76
489.64	11482.67
489.81	11475.65
489.99	11548.20
490.17	11646.51
490.35	11632.46
490.53	11730.76
490.70	11786.94
490.88	11978.86
491.06	12025.67
491.24	11913.33
491.41	12166.10
491.59	12224.62
491.77	12175.47
491.95	12510.16
492.13	12566.34
492.30	12784.01
492.48	12535.91
492.66	12643.57
492.84	12575.70
493.01	12744.22
493.19	12828.48
493.37	13055.51
493.54	13170.19
493.72	13195.94
493.90	12971.25
494.08	13233.39
494.25	13181.90
494.43	13378.50
494.61	13624.26
494.79	13745.97
494.96	13741.29
495.14	13666.39
495.32	13940.23
495.49	14195.35
495.67	13734.26
495.85	13839.59
496.02	13947.25
496.20	14537.07
496.38	14420.04
496.55	14148.54
496.73	14595.58
496.91	14478.55
497.09	14663.46
497.26	14778.14
497.44	14623.67
497.62	14682.18
497.79	14951.34
497.97	14913.89
498.14	15042.62
498.32	15087.09
498.50	15206.46
498.67	15328.17
498.85	15269.66
499.03	15264.97
499.20	15161.99
499.38	15655.84
499.56	15417.11
499.73	15817.34
499.91	15536.48
500.08	15719.04
500.26	15747.12
500.44	15627.76
500.61	15681.59
500.79	15880.53
500.97	15925.00
501.14	16395.45
501.32	16004.58
501.49	16255.02
501.67	16135.65
501.84	16496.10
502.02	16252.68
502.20	16339.28
502.37	16477.37
502.55	16512.48
502.72	16851.86
502.90	16692.70
503.07	16540.57
503.25	16734.83
503.43	16631.85
503.60	17039.10
503.78	16908.03
503.95	17011.01
504.13	16989.95
504.30	17025.06
504.48	16938.46
504.65	17135.06
504.83	17451.03
505.01	17687.43
505.18	17633.60
505.36	17762.33
505.53	17195.92
505.71	17128.04
505.88	17497.84
506.06	17336.35
506.23	17631.26
506.41	17851.27
506.58	17628.92
506.76	17511.89
506.93	17898.08
507.11	17778.71
507.28	17748.28
507.46	18068.94
507.63	18380.23
507.81	18111.07
507.98	17933.18
508.16	18029.15
508.33	18637.69
508.50	18253.84
508.68	18515.98
508.85	18429.38
509.03	18754.71
509.20	18721.95
509.38	19021.53
509.55	18618.96
509.73	18703.22
509.90	18668.11
510.08	18801.52
510.25	18853.02
510.42	18944.30
510.60	19145.58
510.77	19122.18
510.95	19133.88
511.12	19297.72
511.30	19136.22
511.47	19143.24
511.64	19466.24
511.82	19417.08
511.99	19503.68
512.17	19503.68
512.34	19590.28
512.51	19637.09
512.69	19716.67
512.86	19630.07
513.04	19915.62
513.21	19845.40
513.38	20173.08
513.56	20095.84
513.73	19983.49
513.90	19775.19
514.08	19859.45
514.25	19864.13
514.43	20287.76
514.60	20144.99
514.77	20175.42
514.95	20376.70
515.12	19948.39
515.29	20137.97
515.47	20484.37
515.64	20526.50
515.81	20217.55
515.99	20528.84
516.16	20568.63
516.33	20645.87
516.51	20900.98
516.68	20702.04
516.85	20854.17
517.03	21095.25
517.20	21212.28
517.37	21118.65
517.54	21003.97
517.72	21399.52
517.89	20973.54
518.06	21364.41
518.24	21099.93
518.41	20971.20
518.58	21191.21
518.75	21371.43
518.93	21535.27
519.10	21465.05
519.27	21436.97
519.45	21631.23
519.62	21640.59
519.79	21371.43
519.96	21731.87
520.14	21596.12
520.31	21483.78
520.48	21708.47
520.65	21979.97
520.83	22113.38
521.00	22101.68
521.17	21701.45
521.34	21972.95
521.52	21869.97
521.69	22352.12
521.86	22218.71
522.03	22218.71
522.20	22429.35
522.38	22436.38
522.55	22548.72
522.72	22134.45
522.89	22642.34
523.07	22862.35
523.24	22586.17
523.41	22785.12
523.58	22401.27
523.75	22604.89
523.92	22717.24
524.10	22745.33
524.27	22721.92
524.44	22850.65
524.61	22852.99
524.78	23253.22
524.96	22637.66
525.13	23297.69
525.30	23119.81
525.47	23199.39
525.64	23126.83
525.81	23051.94
525.98	23449.83
526.16	23302.37
526.33	23253.22
526.50	23704.95
526.67	23318.76
526.84	23358.55
527.01	23388.97
527.18	23503.66
527.36	24037.30
527.53	23978.79
527.70	23955.38
527.87	23707.29
528.04	23690.90
528.21	23583.24
528.38	23896.87
528.55	23962.40
528.72	24060.71
528.89	23871.12
529.07	24140.29
529.24	24053.69
529.41	24079.43
529.58	23934.32
529.75	24154.33
529.92	24020.92
530.09	23946.02
530.26	24418.81
530.43	24425.83
530.60	24261.99
530.77	24575.62
530.94	24570.94
531.11	24563.92
531.28	24264.33
531.46	24404.77
531.63	24467.96
531.80	25050.75
531.97	24762.87
532.14	24524.13
532.31	24655.20
532.48	24900.96
532.65	24957.13
532.82	24437.53
532.99	24842.45
533.16	24538.18
533.33	24905.64
533.50	25198.21
533.67	24725.42
533.84	24762.87
534.01	24861.17
534.18	24989.90
534.35	25268.42
534.52	25209.91
534.69	25284.81
534.86	25577.37
535.03	25135.01
535.20	25427.58
535.37	25235.66
535.54	25525.88
535.71	25359.70
535.88	25329.28
536.05	25228.63
536.22	25734.19
536.38	25469.71
536.55	25734.19
536.72	25614.82
536.89	25369.07
537.06	25245.02
537.23	25460.35
537.40	25352.68
537.57	25895.69
537.74	25977.61
537.91	25907.39
538.08	25862.92
538.25	25701.42
538.42	25851.22
538.59	25902.71
538.75	25855.90
538.92	25865.26
539.09	25764.62
539.26	26103.99
539.43	25993.99
539.60	26316.98
539.77	26153.15
539.94	26216.34
540.11	26054.84
540.28	26218.68
540.44	26230.38
540.61	26305.28
540.78	26324.01
540.95	26286.56
541.12	26410.60
541.29	26363.79
541.46	26408.26
541.62	26029.10
541.79	26415.29
541.96	26293.58
542.13	26586.15
542.30	26553.38
542.47	26876.37
542.63	26801.47
542.80	26955.95
542.97	27098.72
543.14	26817.86
543.31	26895.10
543.48	26707.85
543.64	26998.08
543.81	27089.36
543.98	26717.22
544.15	26953.61
544.32	27232.13
544.48	27009.78
544.65	27330.44
544.82	27147.87
544.99	26712.53
545.16	27274.26
545.32	27005.10
545.49	27639.39
545.66	27330.44
545.83	27510.66
546.00	27190.00
546.16	27332.78
546.33	27098.72
546.50	27658.11
546.67	27662.79
546.83	27136.17
547.00	27639.39
547.17	27300.01
547.34	27356.18
547.50	27480.23
547.67	27522.36
547.84	27936.63
548.00	28070.04
548.17	27599.60
548.34	27969.40
548.51	28243.24
548.67	27833.65
548.84	28149.62
549.01	28121.54
549.18	27672.15
549.34	28051.32
549.51	27889.82
549.68	27817.27
549.84	27901.53
550.01	28280.69
550.18	28173.03
550.34	28252.61
550.51	28346.23
550.68	28009.19
550.84	27910.89
551.01	28226.86
551.18	28023.23
551.34	28074.73
551.51	27995.15
551.68	28367.29
551.84	28088.77
552.01	28325.16
552.18	28577.94
552.34	28343.89
552.51	28329.84
552.68	28673.90
552.84	28357.93
553.01	28486.66
553.18	28173.03
553.34	28723.05
553.51	28711.35
553.67	28582.62
553.84	28725.39
554.01	28765.18
554.17	29067.11
554.34	28875.19
554.51	29003.92
554.67	28886.89
554.84	28563.90
555.00	28912.64
555.17	28952.43
555.33	29003.92
555.50	28704.33
555.67	29013.28
555.83	28793.27
556.00	28776.89
556.16	29244.99
556.33	28823.70
556.50	28816.68
556.66	29359.68
556.83	28821.36
556.99	28989.88
557.16	29294.14
557.32	28966.47
557.49	29200.52
557.65	29039.03
557.82	29156.05
557.98	29591.39
558.15	29319.89
558.32	28865.83
558.48	29237.97
558.65	29586.71
558.81	29420.53
558.98	29443.94
559.14	29359.68
559.31	29347.98
559.47	29069.45
559.64	29418.19
559.80	29411.17
559.97	29762.25
560.13	29324.57
560.30	29383.09
560.46	29441.60
560.63	29406.49
560.79	29738.85
560.96	29303.51
561.12	29865.24
561.29	29476.71
561.45	29390.11
561.61	29582.03
561.78	29404.15
561.94	29867.58
562.11	29612.46
562.27	30045.46
562.44	29476.71
562.60	29467.34
562.77	29694.38
562.93	29343.30
563.10	29949.50
563.26	29785.66
563.42	29949.50
563.59	29860.55
563.75	29537.56
563.92	30141.42
564.08	29865.24
564.24	29556.28
564.41	29752.89
564.57	29947.15
564.74	29795.02
564.90	30089.93
565.07	30164.82
565.23	30181.21
565.39	30141.42
565.56	30199.93
565.72	29706.08
565.88	29717.78
566.05	29647.57
566.21	29900.34
566.38	30202.27
566.54	30199.93
566.70	30422.28
566.87	30419.94
567.03	29827.79
567.19	30572.08
567.36	30134.40
567.52	30073.54
567.68	30148.44
567.85	30251.42
568.01	30232.70
568.17	29675.65
568.34	30073.54
568.50	30052.48
568.66	30085.25
568.83	30274.83
568.99	30038.44
569.15	29886.30
569.32	30209.29
569.48	30256.11
569.64	29984.60
569.81	30036.09
569.97	30164.82
570.13	30321.64
570.30	30015.03
570.46	30354.41
570.62	30288.87
570.78	29947.15
570.95	30522.93
571.11	30455.05
571.27	30223.34
571.43	30073.54
571.60	30335.68
571.76	30284.19
571.92	30012.69
572.09	30373.13
572.25	30195.25
572.41	30232.70
572.57	30543.99
572.74	30249.08
572.90	29890.98
573.06	30249.08
573.22	30249.08
573.38	30522.93
573.55	30356.75
573.71	30569.74
573.87	30878.69
574.03	30539.31
574.20	30213.98
574.36	30508.88
574.52	30288.87
574.68	30125.04
574.84	30401.22
575.01	30569.74
575.17	30651.66
575.33	30497.18
575.49	30551.01
575.65	30775.70
575.82	30600.16
575.98	30370.79
576.14	30838.90
576.30	30333.34
576.46	30499.52
576.62	30546.33
576.79	30483.14
576.95	30333.34
577.11	30579.10
577.27	30508.88
577.43	30838.90
577.59	30649.32
577.75	30497.18
577.92	30169.51
578.08	30408.24
578.24	30389.52
578.40	30714.85
578.56	30785.07
578.72	30492.50
578.88	30852.94
579.04	30843.58
579.21	30527.61
579.37	30499.52
579.53	30569.74
579.69	30508.88
579.85	30593.14
580.01	30614.21
580.17	29951.84
580.33	30590.80
580.49	30787.41
580.65	30682.08
580.82	30707.83
580.98	30836.56
581.14	30661.02
581.30	31063.59
581.46	30600.16
581.62	30532.29
581.78	30792.09
581.94	31058.91
582.10	30773.36
582.26	30747.62
582.42	30679.74
582.58	30703.15
582.74	30728.89
582.90	30728.89
583.06	30651.66
583.22	30469.09
583.38	30789.75
583.54	30555.69
583.70	30742.94
583.86	30672.72
584.02	30684.42
584.18	30431.65
584.34	30705.49
584.50	30810.81
584.66	30827.20
584.82	30473.78
584.98	30560.37
585.14	30792.09
585.30	30787.41
585.46	30731.23
585.62	30419.94
585.78	30806.13
585.94	30794.43
586.10	30986.35
586.26	30785.07
586.42	30913.80
586.58	31108.06
586.74	30778.04
586.90	30497.18
587.06	30394.20
587.22	30801.45
587.38	30646.97
587.54	30728.89
587.70	31122.10
587.86	30969.97
588.02	31005.08
588.18	31117.42
588.34	30768.68
588.49	31206.36
588.65	31091.68
588.81	30740.60
588.97	30689.10
589.13	30611.87
589.29	30869.33
589.45	31091.68
589.61	30817.83
589.77	31150.19
589.93	31278.92
590.08	31433.39
590.24	31208.70
590.40	31297.64
590.56	31360.84
590.72	30785.07
590.88	30857.62
591.04	30859.96
591.20	31580.85
591.35	30899.75
591.51	31536.38
591.67	31248.49
591.83	31426.37
591.99	31281.26
