SpectraSuite Data File
++++++++++++++++++++++++++++++++++++
Date: Fri Oct 18 13:57:57 GMT-05:00 2013
User: bianchi
Dark Spectrum Present: No
Reference Spectrum Present: No
Number of Sampled Component Spectra: 1
Spectrometers: USB2+H05261
Integration Time (usec): 50000 (USB2+H05261)
Spectra Averaged: 1 (USB2+H05261)
Boxcar Smoothing: 0 (USB2+H05261)
Correct for Electrical Dark: No (USB2+H05261)
Strobe/Lamp Enabled: No (USB2+H05261)
Correct for Detector Non-linearity: No (USB2+H05261)
Correct for Stray Light: No (USB2+H05261)
Number of Pixels in Processed Spectrum: 2048
>>>>>Begin Processed Spectral Data<<<<<
365.73	0.00
365.92	0.00
366.12	0.00
366.32	0.00
366.52	0.00
366.72	0.00
366.91	0.00
367.11	0.00
367.31	0.00
367.51	0.00
367.70	0.00
367.90	0.00
368.10	0.00
368.30	0.00
368.49	0.00
368.69	0.00
368.89	0.00
369.09	0.00
369.28	0.00
369.48	0.00
369.68	0.00
369.87	0.00
370.07	0.00
370.27	0.00
370.47	0.00
370.66	65.54
370.86	74.90
371.06	135.75
371.25	182.56
371.45	128.73
371.65	210.65
371.84	131.07
372.04	222.35
372.24	159.16
372.44	79.58
372.63	159.16
372.83	273.84
373.03	187.24
373.22	201.29
373.42	177.88
373.62	217.67
373.81	255.12
374.01	313.63
374.21	220.01
374.40	255.12
374.60	248.10
374.79	311.29
374.99	227.03
375.19	287.89
375.38	215.33
375.58	224.69
375.78	266.82
375.97	259.80
376.17	259.80
376.37	264.48
376.56	201.29
376.76	236.39
376.95	243.42
377.15	360.44
377.35	320.65
377.54	287.89
377.74	231.71
377.93	208.31
378.13	262.14
378.33	255.12
378.52	290.23
378.72	353.42
378.91	292.57
379.11	327.68
379.31	320.65
379.50	280.86
379.70	278.52
379.89	285.55
380.09	269.16
380.28	280.86
380.48	278.52
380.68	388.53
380.87	311.29
381.07	292.57
381.26	308.95
381.46	341.72
381.65	330.02
381.85	360.44
382.04	276.18
382.24	306.61
382.43	322.99
382.63	367.46
382.83	315.97
383.02	362.78
383.22	402.57
383.41	388.53
383.61	315.97
383.80	360.44
384.00	325.33
384.19	334.70
384.39	397.89
384.58	299.59
384.78	327.68
384.97	383.85
385.17	365.12
385.36	332.36
385.56	437.68
385.75	418.96
385.95	379.17
386.14	461.09
386.34	416.62
386.53	393.21
386.72	404.91
386.92	456.40
387.11	454.06
387.31	397.89
387.50	451.72
387.70	461.09
387.89	535.98
388.09	416.62
388.28	440.02
388.48	421.30
388.67	456.40
388.86	458.74
389.06	465.77
389.25	477.47
389.45	470.45
389.64	416.62
389.84	486.83
390.03	603.86
390.22	463.43
390.42	503.22
390.61	505.56
390.81	393.21
391.00	468.11
391.19	503.22
391.39	496.19
391.58	519.60
391.78	437.68
391.97	601.52
392.16	561.73
392.36	552.37
392.55	526.62
392.75	528.96
392.94	512.58
393.13	547.69
393.33	493.85
393.52	489.17
393.71	601.52
393.91	582.79
394.10	571.09
394.29	627.26
394.49	538.32
394.68	641.31
394.88	550.03
395.07	638.97
395.26	557.05
395.46	636.63
395.65	770.04
395.84	688.12
396.04	615.56
396.23	669.39
396.42	606.20
396.62	739.61
396.81	683.44
397.00	629.60
397.19	720.88
397.39	727.91
397.58	753.65
397.77	671.73
397.97	678.76
398.16	692.80
398.35	753.65
398.55	681.10
398.74	765.36
398.93	669.39
399.12	744.29
399.32	739.61
399.51	800.46
399.70	748.97
399.90	826.21
400.09	767.70
400.28	788.76
400.47	732.59
400.67	826.21
400.86	854.30
401.05	863.66
401.24	774.72
401.44	772.38
401.63	755.99
401.82	823.87
402.01	961.96
402.21	835.57
402.40	828.55
402.59	844.93
402.78	777.06
402.97	889.40
403.17	842.59
403.36	931.53
403.55	936.21
403.74	964.30
403.93	943.24
404.13	952.60
404.32	959.62
404.51	884.72
404.70	924.51
404.89	873.02
405.09	943.24
405.28	894.08
405.47	856.64
405.66	922.17
405.85	1034.52
406.05	936.21
406.24	938.55
406.43	1004.09
406.62	1055.58
406.81	978.34
407.00	990.05
407.20	1053.24
407.39	1097.71
407.58	1032.18
407.77	987.71
407.96	1053.24
408.15	1064.94
408.34	1095.37
408.54	992.39
408.73	1135.16
408.92	1097.71
409.11	1053.24
409.30	1137.50
409.49	1029.84
409.68	1193.67
409.87	1167.93
410.07	1156.22
410.26	1163.25
410.45	1231.12
410.64	1203.04
410.83	1226.44
411.02	1245.16
411.21	1179.63
411.40	1214.74
411.59	1233.46
411.78	1165.59
411.98	1336.45
412.17	1212.40
412.36	1275.59
412.55	1331.76
412.74	1362.19
412.93	1420.71
413.12	1444.11
413.31	1357.51
413.50	1430.07
413.69	1486.24
413.88	1490.92
414.07	1472.20
414.26	1481.56
414.45	1439.43
414.64	1458.15
414.83	1479.22
415.02	1497.94
415.22	1629.01
415.41	1511.99
415.60	1533.05
415.79	1619.65
415.98	1708.59
416.17	1675.82
416.36	1600.93
416.55	1593.90
416.74	1666.46
416.93	1640.72
417.12	1675.82
417.31	1736.68
417.50	1734.34
417.69	1860.73
417.88	1743.70
418.07	1856.04
418.26	1790.51
418.45	1715.61
418.64	1874.77
418.83	1961.37
419.02	1895.83
419.21	1867.75
419.39	1830.30
419.58	1832.64
419.77	1788.17
419.96	1839.66
420.15	1839.66
420.34	1912.22
420.53	1902.86
420.72	1926.26
420.91	1832.64
421.10	1923.92
421.29	1982.43
421.48	1998.82
421.67	2012.86
421.86	1898.17
422.05	1928.60
422.24	2043.29
422.43	1987.11
422.61	1980.09
422.80	2078.40
422.99	2186.06
423.18	2019.88
423.37	2064.35
423.56	1959.03
423.75	1956.69
423.94	2012.86
424.13	1928.60
424.32	1973.07
424.50	2160.31
424.69	2153.29
424.88	2267.98
425.07	2115.84
425.26	1949.67
425.45	2094.78
425.64	2190.74
425.83	2085.42
426.01	2113.50
426.20	2024.56
426.39	2092.44
426.58	2017.54
426.77	2118.18
426.96	2193.08
427.15	2211.81
427.33	2176.70
427.52	2080.74
427.71	2120.53
427.90	2108.82
428.09	2244.57
428.28	2200.10
428.46	2221.17
428.65	2335.85
428.84	2218.83
429.03	2232.87
429.22	2165.00
429.40	2293.72
429.59	2321.81
429.78	2258.62
429.97	2165.00
430.16	2207.13
430.34	2335.85
430.53	2314.79
430.72	2373.30
430.91	2389.69
431.10	2352.24
431.28	2422.45
431.47	2436.50
431.66	2471.61
431.85	2408.41
432.03	2361.60
432.22	2560.55
432.41	2502.03
432.60	2523.10
432.79	2469.27
432.97	2567.57
433.16	2621.40
433.35	2511.39
433.54	2483.31
433.72	2523.10
433.91	2539.48
434.10	2546.50
434.28	2553.52
434.47	2523.10
434.66	2649.49
434.85	2588.63
435.03	2663.53
435.22	2574.59
435.41	2738.43
435.59	2595.65
435.78	2651.83
435.97	2801.62
436.16	2642.46
436.34	2661.19
436.53	2715.02
436.72	2778.22
436.90	2850.77
437.09	2796.94
437.28	2808.64
437.46	2705.66
437.65	2860.13
437.84	2867.16
438.02	2888.22
438.21	2799.28
438.40	2841.41
438.58	2909.29
438.77	2916.31
438.96	2885.88
439.14	2916.31
439.33	3047.38
439.52	2881.20
439.70	3063.76
439.89	3091.85
440.08	3096.53
440.26	3138.66
440.45	3236.96
440.63	3197.17
440.82	3169.09
441.01	3194.83
441.19	3124.62
441.38	3225.26
441.57	3225.26
441.75	3239.30
441.94	3241.64
442.12	3279.09
442.31	3480.38
442.50	3389.10
442.68	3365.69
442.87	3342.28
443.05	3351.65
443.24	3524.85
443.43	3513.14
443.61	3492.08
443.80	3634.85
443.98	3311.86
444.17	3229.94
444.35	3485.06
444.54	3506.12
444.73	3536.55
444.91	3461.65
445.10	3449.95
445.28	3538.89
445.47	3393.78
445.65	3604.42
445.84	3578.68
446.02	3456.97
446.21	3471.01
446.39	3482.72
446.58	3674.64
446.77	3503.78
446.95	3527.19
447.14	3475.70
447.32	3655.92
447.51	3665.28
447.69	3494.42
447.88	3581.02
448.06	3613.79
448.25	3454.63
448.43	3581.02
448.62	3742.52
448.80	3669.96
448.99	3669.96
449.17	3684.00
449.36	3648.90
449.54	3728.47
449.73	3796.35
449.91	3730.81
450.10	3768.26
450.28	3922.74
450.46	3756.56
450.65	3789.33
450.83	3836.14
451.02	3808.05
451.20	3763.58
451.39	3981.25
451.57	3892.31
451.76	3765.92
451.94	3904.01
452.13	3868.91
452.31	3997.64
452.49	3728.47
452.68	3950.82
452.86	3864.22
453.05	4065.51
453.23	4060.83
453.42	3927.42
453.60	3999.98
453.78	3911.04
453.97	3918.06
454.15	3939.12
454.34	3918.06
454.52	4173.18
454.70	4081.89
454.89	3962.53
455.07	4028.06
455.26	4046.79
455.44	4299.56
455.62	4271.48
455.81	4105.30
455.99	4131.05
456.17	4208.28
456.36	4219.99
456.54	4365.10
456.73	4322.97
456.91	4428.29
457.09	4449.36
457.28	4498.51
457.46	4344.03
457.64	4528.94
457.83	4528.94
458.01	4390.84
458.19	4606.17
458.38	4386.16
458.56	4500.85
458.74	4592.13
458.93	4554.68
459.11	4634.26
459.29	4461.06
459.48	4486.81
459.66	4709.16
459.84	4730.22
460.03	4697.46
460.21	4585.11
460.39	4475.10
460.57	4580.43
460.76	4575.75
460.94	4751.29
461.12	4669.37
461.31	4631.92
461.49	4610.86
461.67	4809.80
461.85	4730.22
462.04	4910.44
462.22	5011.09
462.40	4793.42
462.59	4908.10
462.77	4718.52
462.95	4929.17
463.13	4919.81
463.32	4814.48
463.50	4964.28
463.68	4957.25
463.86	4975.98
464.05	4882.36
464.23	4865.97
464.41	5067.26
464.59	4884.70
464.78	5116.41
464.96	4910.44
465.14	5008.75
465.32	5121.09
465.50	5205.35
465.69	5142.16
465.87	5125.77
466.05	5090.67
466.23	5195.99
466.41	5095.35
466.60	5125.77
466.78	5195.99
466.96	5296.63
467.14	5039.17
467.32	5210.03
467.51	5280.25
467.69	5231.10
467.87	5104.71
468.05	5233.44
468.23	5259.18
468.41	5270.89
468.60	5476.85
468.78	5448.77
468.96	5378.55
469.14	5277.91
469.32	5441.75
469.50	5270.89
469.69	5474.51
469.87	5472.17
470.05	5467.49
470.23	5547.07
470.41	5621.97
470.59	5481.53
470.77	5481.53
470.95	5626.65
471.14	5661.76
471.32	5593.88
471.50	5902.83
471.68	5830.27
471.86	5741.33
472.04	5898.15
472.22	6029.22
472.40	5884.11
472.58	5802.19
472.77	5886.45
472.95	5907.51
473.13	6171.99
473.31	5994.11
473.49	5884.11
473.67	6017.52
473.85	6008.16
474.03	6251.57
474.21	5970.71
474.39	6284.34
474.57	6258.59
474.75	6148.59
474.93	6588.61
475.12	6293.70
475.30	6305.40
475.48	6356.90
475.66	6387.32
475.84	6384.98
476.02	6441.15
476.20	6497.33
476.38	6471.58
476.56	6621.38
476.74	6647.12
476.92	6827.34
477.10	6649.46
477.28	6993.52
477.46	6897.56
477.64	6832.02
477.82	6920.96
478.00	7061.40
478.18	7056.72
478.36	6984.16
478.54	7250.98
478.72	7220.55
478.90	7321.20
479.08	7281.41
479.26	7342.26
479.44	7342.26
479.62	7543.55
479.80	7599.72
479.98	7698.02
480.16	7768.24
480.34	7452.27
480.52	7747.17
480.70	7768.24
480.88	7702.70
481.06	7894.63
481.24	7988.25
481.41	8006.97
481.59	8112.30
481.77	8236.35
481.95	8278.47
482.13	8313.58
482.31	8315.92
482.49	8510.19
482.67	8351.03
482.85	8451.67
483.03	8526.57
483.21	8620.19
483.39	8629.56
483.57	8793.39
483.74	8746.58
483.92	8987.66
484.10	8884.67
484.28	9135.11
484.46	9205.33
484.64	9184.26
484.82	9191.28
485.00	9357.46
485.18	9317.67
485.35	9610.24
485.53	9502.58
485.71	9673.43
485.89	9762.37
486.07	9738.97
486.25	9825.57
486.43	9809.19
486.61	10029.20
486.78	9795.14
486.96	10253.89
487.14	10326.44
487.32	10335.81
487.50	10424.75
487.68	10532.41
487.85	10492.62
488.03	10647.10
488.21	10867.11
488.39	10780.51
488.57	10834.34
488.75	10860.09
488.92	11066.05
489.10	11253.30
489.28	11007.54
489.46	11283.72
489.64	11349.26
489.81	11559.91
489.99	11620.76
490.17	11578.63
490.35	11786.94
490.53	11735.45
490.70	11852.47
490.88	11922.69
491.06	12011.63
491.24	12002.27
491.41	11995.25
491.59	12180.15
491.77	12203.55
491.95	12685.70
492.13	12311.22
492.30	12549.95
492.48	12657.62
492.66	12531.23
492.84	12659.96
493.01	12889.33
493.19	12847.20
493.37	12720.81
493.54	12917.42
493.72	13109.34
493.90	13217.01
494.08	13121.04
494.25	13504.89
494.43	13591.49
494.61	13451.06
494.79	13568.09
494.96	13652.34
495.14	13497.87
495.32	13703.84
495.49	13771.71
495.67	13998.74
495.85	14094.71
496.02	14190.67
496.20	14066.62
496.38	14113.43
496.55	14284.29
496.73	14431.74
496.91	14516.00
497.09	14630.69
497.26	14539.41
497.44	14773.46
497.62	14902.19
497.79	14918.57
497.97	14878.79
498.14	14904.53
498.32	15241.57
498.50	15501.37
498.67	15332.85
498.85	15246.25
499.03	15440.51
499.20	15267.31
499.38	15681.59
499.56	15550.52
499.73	15379.66
499.91	16025.65
500.08	15765.85
500.26	15641.80
500.44	15784.57
500.61	16102.89
500.79	15882.88
500.97	16035.01
501.14	15985.86
501.32	16283.11
501.49	16121.61
501.67	16177.78
501.84	16266.72
502.02	15955.43
502.20	16432.90
502.37	16596.74
502.55	16723.13
502.72	16432.90
502.90	16423.54
503.07	16732.49
503.25	16432.90
503.43	16505.46
503.60	16978.25
503.78	17043.78
503.95	16858.88
504.13	16783.98
504.30	17029.74
504.48	17092.93
504.65	17078.89
504.83	17523.59
505.01	17453.37
505.18	17518.91
505.36	17411.25
505.53	17095.27
505.71	17413.59
505.88	17682.75
506.06	17713.17
506.23	17542.32
506.41	17523.59
506.58	17884.03
506.76	17961.27
506.93	18047.87
507.11	17497.84
507.28	18139.15
507.46	18024.47
507.63	18211.71
507.81	18284.26
507.98	18045.53
508.16	18242.14
508.33	18356.82
508.50	18342.78
508.68	18438.74
508.85	18291.29
509.03	18754.71
509.20	18663.43
509.38	18941.96
509.55	18628.32
509.73	18677.48
509.90	18625.98
510.08	18913.87
510.25	18944.30
510.42	18754.71
510.60	19058.98
510.77	19370.27
510.95	19419.42
511.12	18944.30
511.30	19232.18
511.47	19407.72
511.64	19262.61
511.82	19185.37
511.99	19381.98
512.17	19632.41
512.34	19569.22
512.51	19756.46
512.69	19768.16
512.86	19566.88
513.04	19749.44
513.21	19810.29
513.38	20060.73
513.56	19777.53
513.73	19709.65
513.90	20072.43
514.08	19796.25
514.25	20194.14
514.43	20016.26
514.60	20119.24
514.77	20306.49
514.95	20428.20
515.12	20292.44
515.29	19964.77
515.47	20425.86
515.64	20737.15
515.81	20528.84
515.99	20627.14
516.16	20800.34
516.33	20709.06
516.51	20882.26
516.68	20982.90
516.85	20964.18
517.03	21111.63
517.20	21209.93
517.37	20889.28
517.54	21174.83
517.72	20975.88
517.89	21214.62
518.06	20936.09
518.24	21111.63
518.41	21207.59
518.58	21160.78
518.75	21467.39
518.93	21774.00
519.10	21458.03
519.27	21605.49
519.45	21476.76
519.62	21542.29
519.79	21394.84
519.96	21605.49
520.14	21869.97
520.31	21516.54
520.48	22054.87
520.65	21846.56
520.83	21795.07
521.00	21935.50
521.17	21818.47
521.34	22054.87
521.52	22291.26
521.69	22192.96
521.86	22228.07
522.03	22139.13
522.20	22345.09
522.38	22050.19
522.55	22328.71
522.72	22558.08
522.89	22445.74
523.07	22614.26
523.24	22544.04
523.41	22970.02
523.58	22630.64
523.75	22668.09
523.92	22663.41
524.10	22773.41
524.27	22625.96
524.44	22934.91
524.61	23082.36
524.78	23016.83
524.96	23129.17
525.13	22766.39
525.30	23115.13
525.47	23246.20
525.64	22986.40
525.81	23403.02
525.98	23288.33
526.16	23264.92
526.33	23367.91
526.50	23197.05
526.67	23459.19
526.84	23527.06
527.01	23735.37
527.18	23543.45
527.36	23466.21
527.53	23587.92
527.70	23831.33
527.87	23749.42
528.04	23662.82
528.21	23510.68
528.38	23761.12
528.55	23948.36
528.72	23929.64
528.89	24320.51
529.07	23679.20
529.24	23662.82
529.41	24093.47
529.58	23826.65
529.75	23892.19
529.92	24355.61
530.09	24168.37
530.26	24458.60
530.43	24409.45
530.60	24177.73
530.77	24276.04
530.94	24362.64
531.11	24360.30
531.28	24332.21
531.46	24514.77
531.63	24177.73
531.80	24858.83
531.97	24589.67
532.14	24435.19
532.31	24517.11
532.48	24505.41
532.65	24694.99
532.82	24730.10
532.99	25025.01
533.16	24994.58
533.33	24788.61
533.50	25125.65
533.67	25120.97
533.84	24929.05
534.01	25017.99
534.18	24851.81
534.35	25153.74
534.52	24982.88
534.69	25446.30
534.86	25476.73
535.03	24835.42
535.20	24964.15
535.37	25230.98
535.54	25450.99
535.71	24905.64
535.88	25479.07
536.05	25432.26
536.22	25593.76
536.38	25607.80
536.55	25797.38
536.72	25214.59
536.89	25425.24
537.06	25565.67
537.23	25745.89
537.40	25560.99
537.57	25659.29
537.74	25439.28
537.91	25825.47
538.08	26082.93
538.25	25722.49
538.42	25795.04
538.59	26045.48
538.75	25696.74
538.92	26057.18
539.09	25785.68
539.26	26082.93
539.43	26143.78
539.60	26415.29
539.77	26089.95
539.94	26513.59
540.11	25998.67
540.28	26361.45
540.44	26441.03
540.61	26204.64
540.78	26382.52
540.95	26167.19
541.12	26302.94
541.29	26286.56
541.46	26223.36
541.62	26408.26
541.79	26553.38
541.96	26298.26
542.13	26408.26
542.30	26246.77
542.47	26920.84
542.63	26885.73
542.80	26621.25
542.97	26749.98
543.14	27014.46
543.31	27009.78
543.48	27206.39
543.64	26984.04
543.81	26979.36
543.98	27435.76
544.15	27129.15
544.32	27594.92
544.48	27182.98
544.65	27140.85
544.82	27110.43
544.99	26911.48
545.16	27477.89
545.32	27414.69
545.49	27283.62
545.66	27791.52
545.83	27386.61
546.00	27529.38
546.16	27304.69
546.33	27264.90
546.50	27314.05
546.67	27379.59
546.83	27346.82
547.00	27417.04
547.17	27690.88
547.34	27791.52
547.50	27845.35
547.67	27821.95
547.84	27805.56
548.00	27868.76
548.17	27964.72
548.34	27763.43
548.51	27924.93
548.67	27510.66
548.84	28371.97
549.01	27950.68
549.18	28109.83
549.34	27676.83
549.51	28135.58
549.68	27850.03
549.84	28011.53
550.01	27957.70
550.18	27873.44
550.34	27885.14
550.51	28467.94
550.68	28294.74
550.84	28166.01
551.01	28297.08
551.18	28196.43
551.34	27819.61
551.51	28198.77
551.68	28039.62
551.84	28154.30
552.01	28339.21
552.18	28514.75
552.34	28400.06
552.51	28582.62
552.68	28409.42
552.84	28465.60
553.01	28449.21
553.18	28636.45
553.34	28575.60
553.51	28500.70
553.67	28751.14
553.84	28769.86
554.01	28657.52
554.17	28606.03
554.34	28559.22
554.51	28566.24
554.67	28603.69
554.84	28755.82
555.00	28959.45
555.17	28599.01
555.33	28704.33
555.50	29198.18
555.67	28512.41
555.83	28795.61
556.00	28470.28
556.16	28936.04
556.33	29237.97
556.50	28957.11
556.66	28898.59
556.83	29146.69
556.99	29551.60
557.16	29198.18
557.32	29331.59
557.49	29390.11
557.65	28903.28
557.82	28861.15
557.98	29259.04
558.15	29193.50
558.32	28950.09
558.48	29308.19
558.65	29310.53
558.81	29256.70
558.98	29254.36
559.14	29322.23
559.31	29118.60
559.47	29448.62
559.64	29345.64
559.80	29364.36
559.97	29462.66
560.13	29586.71
560.30	29179.46
560.46	29855.87
560.63	29413.51
560.79	29408.83
560.96	29778.64
561.12	29317.55
561.29	29296.49
561.45	29694.38
561.61	29785.66
561.78	29649.91
561.94	29792.68
562.11	29385.43
562.27	29944.81
562.44	29820.77
562.60	29385.43
562.77	29446.28
562.93	28964.13
563.10	30064.18
563.26	29933.11
563.42	30185.89
563.59	30118.01
563.75	29668.63
563.92	29748.21
564.08	29729.48
564.24	29823.11
564.41	29982.26
564.57	29551.60
564.74	29923.75
564.90	29795.02
565.07	30209.29
565.23	29776.30
565.39	30157.80
565.56	30171.85
565.72	29626.50
565.88	29970.56
566.05	30054.82
566.21	29766.93
566.38	29832.47
566.54	29965.88
566.70	30382.49
566.87	30199.93
567.03	30059.50
567.19	30375.47
567.36	30370.79
567.52	30223.34
567.68	30139.08
567.85	30033.75
568.01	29750.55
568.17	29795.02
568.34	29792.68
568.50	30251.42
568.66	30096.95
568.83	30363.77
568.99	30443.35
569.15	30469.09
569.32	30073.54
569.48	29848.85
569.64	30361.43
569.81	30183.55
569.97	30267.81
570.13	30511.22
570.30	30583.78
570.46	30363.77
570.62	30366.11
570.78	30155.46
570.95	30232.70
571.11	30265.47
571.27	30099.29
571.43	30080.56
571.60	30469.09
571.76	30125.04
571.92	30426.96
572.09	30101.63
572.25	30246.74
572.41	30319.30
572.57	30457.39
572.74	30625.91
572.90	30169.51
573.06	30316.96
573.22	30118.01
573.38	30085.25
573.55	30368.45
573.71	30792.09
573.87	30766.34
574.03	30309.94
574.20	30422.28
574.36	30316.96
574.52	30504.20
574.68	29989.28
574.84	30253.76
575.01	30532.29
575.17	30382.49
575.33	30527.61
575.49	30492.50
575.65	30632.93
575.82	30609.53
575.98	30139.08
576.14	30691.44
576.30	30745.28
576.46	30389.52
576.62	30457.39
576.79	30480.80
576.95	30382.49
577.11	30551.01
577.27	30597.82
577.43	30726.55
577.59	30728.89
577.75	30927.84
577.92	30630.59
578.08	30258.45
578.24	30380.15
578.40	30871.67
578.56	30906.77
578.72	30691.44
578.88	30998.06
579.04	30843.58
579.21	30623.57
579.37	30675.06
579.53	31009.76
579.69	30424.62
579.85	30529.95
580.01	30560.37
580.17	30471.43
580.33	30586.12
580.49	30536.97
580.65	30883.37
580.82	30672.72
580.98	30742.94
581.14	30740.60
581.30	30930.18
581.46	30281.85
581.62	30284.19
581.78	30382.49
581.94	30703.15
582.10	30391.86
582.26	31124.44
582.42	30551.01
582.58	30511.22
582.74	30515.90
582.90	31075.29
583.06	30859.96
583.22	30448.03
583.38	30639.95
583.54	30623.57
583.70	30597.82
583.86	31065.93
584.02	30628.25
584.18	30815.49
584.34	30981.67
584.50	30829.54
584.66	30749.96
584.82	30408.24
584.98	30646.97
585.14	30602.50
585.30	30799.11
585.46	30562.72
585.62	30651.66
585.78	30614.21
585.94	30824.86
586.10	30705.49
586.26	30738.26
586.42	31157.21
586.58	30981.67
586.74	30504.20
586.90	31037.84
587.06	30522.93
587.22	30576.76
587.38	30536.97
587.54	30923.16
587.70	30998.06
587.86	30834.22
588.02	30714.85
588.18	31019.12
588.34	31150.19
588.49	30754.64
588.65	31094.02
588.81	30738.26
588.97	31007.42
589.13	31037.84
589.29	30862.30
589.45	30707.83
589.61	31295.30
589.77	31243.81
589.93	31157.21
590.08	31187.64
590.24	31206.36
590.40	31089.34
590.56	31276.58
590.72	31166.57
590.88	31063.59
591.04	31044.87
591.20	31679.15
591.35	31501.27
591.51	31473.18
591.67	31498.93
591.83	31875.76
591.99	31096.36
