SpectraSuite Data File
++++++++++++++++++++++++++++++++++++
Date: Fri Oct 18 13:58:25 GMT-05:00 2013
User: bianchi
Dark Spectrum Present: No
Reference Spectrum Present: No
Number of Sampled Component Spectra: 1
Spectrometers: USB2+H05261
Integration Time (usec): 50000 (USB2+H05261)
Spectra Averaged: 1 (USB2+H05261)
Boxcar Smoothing: 0 (USB2+H05261)
Correct for Electrical Dark: No (USB2+H05261)
Strobe/Lamp Enabled: No (USB2+H05261)
Correct for Detector Non-linearity: No (USB2+H05261)
Correct for Stray Light: No (USB2+H05261)
Number of Pixels in Processed Spectrum: 2048
>>>>>Begin Processed Spectral Data<<<<<
365.73	0.00
365.92	0.00
366.12	0.00
366.32	0.00
366.52	0.00
366.72	0.00
366.91	0.00
367.11	0.00
367.31	0.00
367.51	0.00
367.70	0.00
367.90	0.00
368.10	0.00
368.30	0.00
368.49	0.00
368.69	0.00
368.89	0.00
369.09	0.00
369.28	0.00
369.48	0.00
369.68	0.00
369.87	0.00
370.07	0.00
370.27	0.00
370.47	0.00
370.66	86.60
370.86	142.77
371.06	86.60
371.25	161.50
371.45	88.94
371.65	175.54
371.84	198.95
372.04	180.22
372.24	236.39
372.44	135.75
372.63	212.99
372.83	161.50
373.03	170.86
373.22	271.50
373.42	266.82
373.62	220.01
373.81	241.08
374.01	203.63
374.21	177.88
374.40	229.37
374.60	273.84
374.79	259.80
374.99	222.35
375.19	273.84
375.38	315.97
375.58	241.08
375.78	248.10
375.97	243.42
376.17	266.82
376.37	191.92
376.56	212.99
376.76	243.42
376.95	236.39
377.15	294.91
377.35	220.01
377.54	311.29
377.74	271.50
377.93	248.10
378.13	273.84
378.33	271.50
378.52	276.18
378.72	337.04
378.91	355.76
379.11	215.33
379.31	262.14
379.50	285.55
379.70	278.52
379.89	304.27
380.09	355.76
380.28	203.63
380.48	278.52
380.68	217.67
380.87	222.35
381.07	332.36
381.26	297.25
381.46	301.93
381.65	299.59
381.85	355.76
382.04	301.93
382.24	320.65
382.43	287.89
382.63	334.70
382.83	355.76
383.02	423.64
383.22	444.70
383.41	365.12
383.61	330.02
383.80	404.91
384.00	344.06
384.19	388.53
384.39	315.97
384.58	386.19
384.78	388.53
384.97	470.45
385.17	369.80
385.36	351.08
385.56	355.76
385.75	369.80
385.95	437.68
386.14	388.53
386.34	402.57
386.53	360.44
386.72	393.21
386.92	369.80
387.11	320.65
387.31	404.91
387.50	454.06
387.70	376.83
387.89	437.68
388.09	395.55
388.28	447.04
388.48	393.21
388.67	442.36
388.86	418.96
389.06	421.30
389.25	430.66
389.45	444.70
389.64	437.68
389.84	486.83
390.03	454.06
390.22	547.69
390.42	414.27
390.61	421.30
390.81	470.45
391.00	484.49
391.19	533.64
391.39	519.60
391.58	461.09
391.78	491.51
391.97	554.71
392.16	517.26
392.36	505.56
392.55	489.17
392.75	505.56
392.94	514.92
393.13	514.92
393.33	552.37
393.52	517.26
393.71	557.05
393.91	592.16
394.10	547.69
394.29	496.19
394.49	554.71
394.68	636.63
394.88	578.11
395.07	566.41
395.26	587.47
395.46	587.47
395.65	599.18
395.84	648.33
396.04	629.60
396.23	578.11
396.42	589.82
396.62	571.09
396.81	674.07
397.00	645.99
397.19	645.99
397.39	606.20
397.58	606.20
397.77	688.12
397.97	741.95
398.16	688.12
398.35	795.78
398.55	648.33
398.74	706.84
398.93	805.14
399.12	716.20
399.32	688.12
399.51	660.03
399.70	835.57
399.90	772.38
400.09	716.20
400.28	828.55
400.47	755.99
400.67	847.27
400.86	734.93
401.05	739.61
401.24	807.48
401.44	753.65
401.63	816.85
401.82	884.72
402.01	812.17
402.21	781.74
402.40	781.74
402.59	784.08
402.78	844.93
402.97	854.30
403.17	812.17
403.36	840.25
403.55	821.53
403.74	957.28
403.93	882.38
404.13	851.96
404.32	830.89
404.51	961.96
404.70	866.00
404.89	992.39
405.09	884.72
405.28	922.17
405.47	1020.47
405.66	994.73
405.85	985.37
406.05	938.55
406.24	912.81
406.43	1032.18
406.62	950.26
406.81	922.17
407.00	947.92
407.20	978.34
407.39	1039.20
407.58	1032.18
407.77	1048.56
407.96	968.98
408.15	1008.77
408.34	1027.50
408.54	1067.28
408.73	1130.48
408.92	997.07
409.11	1100.05
409.30	1104.73
409.49	1153.88
409.68	1123.46
409.87	1139.84
410.07	1231.12
410.26	1160.91
410.45	1156.22
410.64	1118.78
410.83	1135.16
411.02	1233.46
411.21	1228.78
411.40	1345.81
411.59	1284.95
411.78	1306.02
411.98	1137.50
412.17	1362.19
412.36	1289.64
412.55	1343.47
412.74	1334.11
412.93	1331.76
413.12	1420.71
413.31	1451.13
413.50	1483.90
413.69	1390.28
413.88	1420.71
414.07	1373.89
414.26	1439.43
414.45	1399.64
414.64	1453.47
414.83	1516.67
415.02	1554.12
415.22	1453.47
415.41	1565.82
415.60	1526.03
415.79	1455.81
415.98	1575.18
416.17	1516.67
416.36	1486.24
416.55	1526.03
416.74	1750.72
416.93	1762.42
417.12	1689.87
417.31	1591.56
417.50	1666.46
417.69	1832.64
417.88	1741.36
418.07	1643.06
418.26	1687.53
418.45	1710.93
418.64	1860.73
418.83	1769.44
419.02	1856.04
419.21	1804.55
419.39	1760.08
419.58	1734.34
419.77	1811.57
419.96	1757.74
420.15	1909.88
420.34	1856.04
420.53	1804.55
420.72	1923.92
420.91	1952.01
421.10	1952.01
421.29	1930.94
421.48	1825.62
421.67	1949.67
421.86	1935.62
422.05	1984.77
422.24	1923.92
422.43	1963.71
422.61	2029.24
422.80	1909.88
422.99	1980.09
423.18	1893.49
423.37	2019.88
423.56	2015.20
423.75	2108.82
423.94	1952.01
424.13	1830.30
424.32	1984.77
424.50	2069.03
424.69	2076.06
424.88	2047.97
425.07	1940.30
425.26	1959.03
425.45	1935.62
425.64	2090.10
425.83	2078.40
426.01	2087.76
426.20	2019.88
426.39	2113.50
426.58	2045.63
426.77	2024.56
426.96	2043.29
427.15	2129.89
427.33	2092.44
427.52	2071.37
427.71	2108.82
427.90	2179.04
428.09	2202.44
428.28	2174.36
428.46	2162.66
428.65	2148.61
428.84	2202.44
429.03	2253.94
429.22	2244.57
429.40	2118.18
429.59	2228.19
429.78	2132.23
429.97	2221.17
430.16	2225.85
430.34	2204.78
430.53	2300.75
430.72	2122.87
430.91	2284.36
431.10	2279.68
431.28	2265.64
431.47	2385.01
431.66	2356.92
431.85	2321.81
432.03	2368.62
432.22	2370.96
432.41	2340.54
432.60	2471.61
432.79	2359.26
432.97	2328.83
433.16	2396.71
433.35	2410.75
433.54	2478.63
433.72	2450.54
433.91	2565.23
434.10	2513.74
434.28	2424.80
434.47	2560.55
434.66	2579.27
434.85	2534.80
435.03	2572.25
435.22	2621.40
435.41	2630.76
435.59	2581.61
435.78	2654.17
435.97	2665.87
436.16	2715.02
436.34	2649.49
436.53	2619.06
436.72	2902.26
436.90	2565.23
437.09	2635.44
437.28	2495.01
437.46	2696.30
437.65	2640.12
437.84	2710.34
438.02	2729.06
438.21	2822.69
438.40	2768.85
438.58	2818.00
438.77	2836.73
438.96	2813.32
439.14	2895.24
439.33	3026.31
439.52	3056.74
439.70	2979.50
439.89	3110.57
440.08	3054.40
440.26	2991.20
440.45	2963.12
440.63	3096.53
440.82	3089.51
441.01	3110.57
441.19	3059.08
441.38	3150.36
441.57	3253.34
441.75	3094.19
441.94	3232.28
442.12	3309.52
442.31	3314.20
442.50	3267.39
442.68	3236.96
442.87	3344.63
443.05	3370.37
443.24	3279.09
443.43	3351.65
443.61	3328.24
443.80	3363.35
443.98	3279.09
444.17	3260.37
444.35	3304.84
444.54	3517.83
444.73	3349.31
444.91	3349.31
445.10	3370.37
445.28	3410.16
445.47	3290.79
445.65	3386.76
445.84	3522.51
446.02	3452.29
446.21	3545.91
446.39	3255.69
446.58	3499.10
446.77	3595.06
446.95	3459.31
447.14	3515.48
447.32	3538.89
447.51	3501.44
447.69	3421.86
447.88	3585.70
448.06	3412.50
448.25	3499.10
448.43	3548.25
448.62	3463.99
448.80	3529.53
448.99	3592.72
449.17	3693.37
449.36	3606.77
449.54	3597.40
449.73	3688.68
449.91	3798.69
450.10	3712.09
450.28	3754.22
450.46	3665.28
450.65	3742.52
450.83	3646.55
451.02	3609.11
451.20	3733.15
451.39	3754.22
451.57	3695.71
451.76	3716.77
451.94	3627.83
452.13	4014.02
452.31	3672.30
452.49	3789.33
452.68	3815.07
452.86	3847.84
453.05	3838.48
453.23	3716.77
453.42	3939.12
453.60	3941.46
453.78	3866.56
453.97	3878.27
454.15	3880.61
454.34	3871.25
454.52	3950.82
454.70	4032.74
454.89	3908.69
455.07	3934.44
455.26	4046.79
455.44	4154.45
455.62	4084.23
455.81	4107.64
455.99	4063.17
456.17	4255.09
456.36	4142.75
456.54	4166.15
456.73	4131.05
456.91	4292.54
457.09	4208.28
457.28	4374.46
457.46	4182.54
457.64	4276.16
457.83	4215.30
458.01	4191.90
458.19	4332.33
458.38	4290.20
458.56	4390.84
458.74	4475.10
458.93	4376.80
459.11	4301.90
459.29	4493.83
459.48	4477.44
459.66	4390.84
459.84	4418.93
460.03	4627.24
460.21	4397.87
460.39	4559.36
460.57	4456.38
460.76	4489.15
460.94	4681.07
461.12	4629.58
461.31	4643.62
461.49	4582.77
461.67	4615.54
461.85	4678.73
462.04	4582.77
462.22	4601.49
462.40	4695.11
462.59	4798.10
462.77	4723.20
462.95	4800.44
463.13	4685.75
463.32	4643.62
463.50	4828.53
463.68	4821.50
463.86	4868.31
464.05	4699.80
464.23	4870.65
464.41	4880.02
464.59	4851.93
464.78	4971.30
464.96	4849.59
465.14	4847.25
465.32	4943.21
465.50	5015.77
465.69	5144.50
465.87	4929.17
466.05	4943.21
466.23	5022.79
466.41	5004.07
466.60	5174.92
466.78	5053.22
466.96	5146.84
467.14	4910.44
467.32	5069.60
467.51	5081.30
467.69	4980.66
467.87	4975.98
468.05	5008.75
468.23	4978.32
468.41	5104.71
468.60	5160.88
468.78	5256.84
468.96	5167.90
469.14	5165.56
469.32	5298.97
469.50	5109.39
469.69	5380.89
469.87	5273.23
470.05	5373.87
470.23	5301.31
470.41	5298.97
470.59	5355.15
470.77	5376.21
470.95	5418.34
471.14	5631.33
471.32	5359.83
471.50	5734.31
471.68	5636.01
471.86	5511.96
472.04	5687.50
472.22	5930.92
472.40	5570.48
472.58	5687.50
472.77	5783.46
472.95	5774.10
473.13	5980.07
473.31	5720.27
473.49	5806.87
473.67	5825.59
473.85	5961.34
474.03	6141.57
474.21	6033.90
474.39	6150.93
474.57	6092.41
474.75	6099.44
474.93	6195.40
475.12	6118.16
475.30	6057.31
475.48	6127.52
475.66	6249.23
475.84	6197.74
476.02	6359.24
476.20	6324.13
476.38	6438.81
476.56	6406.05
476.74	6497.33
476.92	6567.54
477.10	6595.63
477.28	6628.40
477.46	6579.25
477.64	6724.36
477.82	6633.08
478.00	7030.97
478.18	6853.09
478.36	6946.71
478.54	6986.50
478.72	7009.90
478.90	7091.82
479.08	7162.04
479.26	7159.70
479.44	7192.47
479.62	7220.55
479.80	7384.39
479.98	7485.03
480.16	7426.52
480.34	7325.88
480.52	7700.36
480.70	7674.62
480.88	7627.81
481.06	7658.23
481.24	7571.63
481.41	7630.15
481.59	7983.57
481.77	7824.41
481.95	7999.95
482.13	8035.06
482.31	7941.44
482.49	8280.82
482.67	8215.28
482.85	8112.30
483.03	8482.10
483.21	8477.42
483.39	8461.04
483.57	8505.51
483.74	8575.72
483.92	8697.43
484.10	8650.62
484.28	8730.20
484.46	8943.19
484.64	9076.60
484.82	8898.72
485.00	8898.72
485.18	9200.65
485.35	9437.04
485.53	9490.87
485.71	9369.16
485.89	9738.97
486.07	9554.07
486.25	9628.96
486.43	9633.64
486.61	9607.90
486.78	9760.03
486.96	9825.57
487.14	9977.70
487.32	9745.99
487.50	10036.22
487.68	10146.22
487.85	10216.44
488.03	10396.66
488.21	10509.01
488.39	10422.41
488.57	10576.88
488.75	10721.99
488.92	10747.74
489.10	10689.23
489.28	10857.75
489.46	10988.82
489.64	10768.80
489.81	11171.38
489.99	11108.18
490.17	11056.69
490.35	11349.26
490.53	11363.30
490.70	11508.41
490.88	11417.13
491.06	11470.97
491.24	11714.38
491.41	11733.11
491.59	11810.34
491.77	11920.35
491.95	11936.73
492.13	12189.51
492.30	12184.83
492.48	12322.92
492.66	12189.51
492.84	12498.46
493.01	12610.81
493.19	12418.88
493.37	12610.81
493.54	12716.13
493.72	12821.45
493.90	12725.49
494.08	12982.95
494.25	12915.08
494.43	13156.15
494.61	13174.88
494.79	13219.35
494.96	13165.51
495.14	13153.81
495.32	13603.19
495.49	13270.84
495.67	13654.69
495.85	13612.56
496.02	13769.37
496.20	13652.34
496.38	13823.20
496.55	13980.02
496.73	14178.97
496.91	13907.46
497.09	14193.01
497.26	14417.70
497.44	14410.68
497.62	14310.04
497.79	14516.00
497.97	14436.42
498.14	14530.05
498.32	14658.78
498.50	14607.28
498.67	14988.79
498.85	14906.87
499.03	15068.37
499.20	14974.75
499.38	14991.13
499.56	15295.40
499.73	15344.55
499.91	15236.89
500.08	15412.43
500.26	15173.69
500.44	15407.75
500.61	15353.91
500.79	15204.12
500.97	15683.93
501.14	15688.61
501.32	15597.33
501.49	15555.20
501.67	15857.13
501.84	15583.29
502.02	15850.11
502.20	16037.35
502.37	16006.92
502.55	16152.04
502.72	15943.73
502.90	16224.59
503.07	16072.46
503.25	15925.00
503.43	16093.52
503.60	16243.32
503.78	16367.37
503.95	16336.94
504.13	16589.72
504.30	16451.63
504.48	16489.07
504.65	16566.31
504.83	16840.15
505.01	16868.24
505.18	16886.97
505.36	17284.86
505.53	17088.25
505.71	17092.93
505.88	16945.48
506.06	16753.55
506.23	17364.43
506.41	16978.25
506.58	17387.84
506.76	17383.16
506.93	17231.02
507.11	17298.90
507.28	17338.69
507.46	17432.31
507.63	17303.58
507.81	17792.75
507.98	17591.47
508.16	17444.01
508.33	17544.66
508.50	17781.05
508.68	17816.16
508.85	18120.43
509.03	17970.63
509.20	18012.76
509.38	18038.51
509.55	18169.58
509.73	18415.34
509.90	18319.37
510.08	18207.03
510.25	18279.58
510.42	18317.03
510.60	18520.66
510.77	18892.80
510.95	18658.75
511.12	18499.59
511.30	18342.78
511.47	18890.46
511.64	18920.89
511.82	18728.97
511.99	18508.96
512.17	19124.52
512.34	18930.25
512.51	19056.64
512.69	18948.98
512.86	19150.26
513.04	19281.33
513.21	19250.91
513.38	19337.51
513.56	19321.12
513.73	19218.14
513.90	19286.01
514.08	19098.77
514.25	19639.44
514.43	19941.36
514.60	19580.92
514.77	19452.19
514.95	19648.80
515.12	19585.60
515.29	19604.33
515.47	19906.26
515.64	20034.99
515.81	19833.70
515.99	19894.55
516.16	19917.96
516.33	19967.11
516.51	20147.33
516.68	20077.12
516.85	20032.65
517.03	20198.82
517.20	20552.24
517.37	20365.00
517.54	20638.84
517.72	20472.67
517.89	20566.29
518.06	20411.81
518.24	20444.58
518.41	20402.45
518.58	20517.14
518.75	20486.71
518.93	20879.92
519.10	21088.23
519.27	20769.91
519.45	20774.60
519.62	21177.17
519.79	20535.86
519.96	21092.91
520.14	21214.62
520.31	20971.20
520.48	21020.35
520.65	21057.80
520.83	21345.69
521.00	21343.35
521.17	21362.07
521.34	21221.64
521.52	21579.74
521.69	21298.88
521.86	21715.49
522.03	21556.33
522.20	22019.76
522.38	21656.98
522.55	21738.90
522.72	21565.70
522.89	21635.91
523.07	22237.43
523.24	21986.99
523.41	22097.00
523.58	22043.17
523.75	21937.84
523.92	22153.17
524.10	21982.31
524.27	21926.14
524.44	22197.64
524.61	22487.87
524.78	22548.72
524.96	22370.84
525.13	22302.96
525.30	22291.26
525.47	22419.99
525.64	22354.46
525.81	22494.89
525.98	22422.33
526.16	22651.70
526.33	22560.42
526.50	22693.83
526.67	22450.42
526.84	22897.46
527.01	22331.05
527.18	22700.86
527.36	23161.94
527.53	23140.88
527.70	23264.92
527.87	23239.18
528.04	22991.08
528.21	23349.18
528.38	22960.66
528.55	23119.81
528.72	23243.86
528.89	23323.44
529.07	22789.80
529.24	23288.33
529.41	23419.40
529.58	23346.84
529.75	23274.29
529.92	23365.57
530.09	23426.42
530.26	23438.12
530.43	23882.83
530.60	23119.81
530.77	23421.74
530.94	23466.21
531.11	23468.55
531.28	23426.42
531.46	23655.79
531.63	23606.64
531.80	23875.80
531.97	23796.23
532.14	23931.98
532.31	24037.30
532.48	24210.50
532.65	24081.77
532.82	23927.30
532.99	24226.89
533.16	23749.42
533.33	24294.76
533.50	24276.04
533.67	24325.19
533.84	23894.53
534.01	24168.37
534.18	24325.19
534.35	24259.65
534.52	24074.75
534.69	24437.53
534.86	24608.39
535.03	24320.51
535.20	24390.72
535.37	24442.21
535.54	24453.92
535.71	24566.26
535.88	24460.94
536.05	24545.20
536.22	24917.34
536.38	24608.39
536.55	24601.37
536.72	24790.95
536.89	24720.74
537.06	24526.47
537.23	24996.92
537.40	25010.96
537.57	24730.10
537.74	24879.89
537.91	25055.43
538.08	24966.49
538.25	24952.45
538.42	25319.92
538.59	25177.14
538.75	24821.38
538.92	24854.15
539.09	25329.28
539.26	24950.11
539.43	25404.17
539.60	25380.77
539.77	25319.92
539.94	25839.51
540.11	25530.56
540.28	25144.38
540.44	25483.75
540.61	25163.10
540.78	25362.04
540.95	25497.80
541.12	25366.73
541.29	25781.00
541.46	25291.83
541.62	25628.87
541.79	25589.08
541.96	25376.09
542.13	25490.77
542.30	25769.30
542.47	25898.03
542.63	25717.81
542.80	26192.94
542.97	26190.59
543.14	26265.49
543.31	26373.16
543.48	26003.35
543.64	26494.86
543.81	26223.36
543.98	26356.77
544.15	26040.80
544.32	26176.55
544.48	26040.80
544.65	26157.83
544.82	26340.39
544.99	26230.38
545.16	26464.44
545.32	26394.22
545.49	26604.87
545.66	26520.61
545.83	26911.48
546.00	26572.10
546.16	26471.46
546.33	26368.48
546.50	26316.98
546.67	27026.17
546.83	26139.10
547.00	26513.59
547.17	26656.36
547.34	26529.97
547.50	26448.05
547.67	26927.86
547.84	26267.83
548.00	26885.73
548.17	27206.39
548.34	26754.66
548.51	26850.63
548.67	26923.18
548.84	26885.73
549.01	27356.18
549.18	26951.27
549.34	26962.97
549.51	26979.36
549.68	27087.02
549.84	26778.07
550.01	27260.22
550.18	27119.79
550.34	26794.45
550.51	27388.95
550.68	27505.98
550.84	27358.52
551.01	27197.02
551.18	27204.05
551.34	27143.19
551.51	27309.37
551.68	27307.03
551.84	27211.07
552.01	27559.81
552.18	27482.57
552.34	27468.53
552.51	27988.13
552.68	27470.87
552.84	27463.85
553.01	27318.73
553.18	27625.34
553.34	28046.64
553.51	27707.26
553.67	27545.76
553.84	27796.20
554.01	27744.71
554.17	27943.66
554.34	27791.52
554.51	27922.59
554.67	27978.76
554.84	28009.19
555.00	28030.26
555.17	27831.31
555.33	27913.23
555.50	28140.26
555.67	28306.44
555.83	27681.52
556.00	27850.03
556.16	28224.52
556.33	27789.18
556.50	27758.75
556.66	28109.83
556.83	27786.84
556.99	28360.27
557.16	28439.85
557.32	28374.31
557.49	28472.62
557.65	27803.22
557.82	28390.70
557.98	27878.12
558.15	28268.99
558.32	28156.64
558.48	28140.26
558.65	28449.21
558.81	28013.87
558.98	28259.63
559.14	28458.57
559.31	28002.17
559.47	28584.96
559.64	28006.85
559.80	28346.23
559.97	28465.60
560.13	28545.17
560.30	28730.08
560.46	28390.70
560.63	28685.61
560.79	28458.57
560.96	28701.99
561.12	28603.69
561.29	28229.20
561.45	28783.91
561.61	28898.59
561.78	28823.70
561.94	28914.98
562.11	28802.63
562.27	28645.82
562.44	28870.51
562.60	29008.60
562.77	28673.90
562.93	28591.98
563.10	28929.02
563.26	28332.18
563.42	29134.99
563.59	29184.14
563.75	28767.52
563.92	28477.30
564.08	28905.62
564.24	28837.74
564.41	28662.20
564.57	28627.09
564.74	28788.59
564.90	29120.95
565.07	29188.82
565.23	28975.83
565.39	28676.24
565.56	29039.03
565.72	28985.19
565.88	29064.77
566.05	28877.53
566.21	28896.25
566.38	29184.14
566.54	28856.46
566.70	29209.89
566.87	28926.68
567.03	29200.52
567.19	29167.76
567.36	28779.23
567.52	28959.45
567.68	29280.10
567.85	29106.90
568.01	28795.61
568.17	29053.07
568.34	29415.85
568.50	28849.44
568.66	29200.52
568.83	29071.79
568.99	29097.54
569.15	29385.43
569.32	29329.25
569.48	28617.73
569.64	29530.54
569.81	29404.15
569.97	29186.48
570.13	29137.33
570.30	29219.25
570.46	29287.12
570.62	29064.77
570.78	29181.80
570.95	29191.16
571.11	29247.33
571.27	29242.65
571.43	29104.56
571.60	29301.17
571.76	29095.20
571.92	29273.08
572.09	29371.38
572.25	29420.53
572.41	29301.17
572.57	29125.63
572.74	29500.11
572.90	29226.27
573.06	29202.86
573.22	29415.85
573.38	29476.71
573.55	29193.50
573.71	29385.43
573.87	29441.60
574.03	29563.31
574.20	29635.86
574.36	29820.77
574.52	29329.25
574.68	29317.55
574.84	29109.24
575.01	29247.33
575.17	29516.50
575.33	29722.46
575.49	29406.49
575.65	29181.80
575.82	29631.18
575.98	29457.98
576.14	29429.90
576.30	29596.07
576.46	29605.44
576.62	29296.49
576.79	29661.61
576.95	29387.77
577.11	29717.78
577.27	29579.69
577.43	29418.19
577.59	29472.03
577.75	29530.54
577.92	29685.01
578.08	29092.86
578.24	29448.62
578.40	29696.72
578.56	29790.34
578.72	29682.67
578.88	29895.66
579.04	29223.93
579.21	29528.20
579.37	29369.04
579.53	29504.79
579.69	29525.86
579.85	29624.16
580.01	29514.16
580.17	29446.28
580.33	29153.71
580.49	29326.91
580.65	29530.54
580.82	29586.71
580.98	29633.52
581.14	29589.05
581.30	29759.91
581.46	29593.73
581.62	29338.62
581.78	29340.96
581.94	29720.12
582.10	29230.95
582.26	29827.79
582.42	29563.31
582.58	29572.67
582.74	29633.52
582.90	29750.55
583.06	29851.19
583.22	29577.35
583.38	29490.75
583.54	29603.10
583.70	29467.34
583.86	29504.79
584.02	29582.03
584.18	29717.78
584.34	29745.87
584.50	29947.15
584.66	29448.62
584.82	29252.02
584.98	29371.38
585.14	29453.30
585.30	29186.48
585.46	29575.01
585.62	29610.12
585.78	29982.26
585.94	29322.23
586.10	29668.63
586.26	29905.02
586.42	29872.26
586.58	29940.13
586.74	29436.92
586.90	30003.33
587.06	29570.33
587.22	29706.08
587.38	29553.94
587.54	29750.55
587.70	29975.24
587.86	29633.52
588.02	30349.73
588.18	30213.98
588.34	29692.04
588.49	29748.21
588.65	29661.61
588.81	29373.72
588.97	29865.24
589.13	29958.86
589.29	29413.51
589.45	29567.99
589.61	29844.17
589.77	30155.46
589.93	30188.23
590.08	29930.77
590.24	30263.13
590.40	29979.92
590.56	30256.11
590.72	29642.88
590.88	29862.90
591.04	29982.26
591.20	30108.65
591.35	29799.70
591.51	30331.00
591.67	30036.09
591.83	30022.05
591.99	29986.94
