SpectraSuite Data File
++++++++++++++++++++++++++++++++++++
Date: Fri Oct 18 13:58:38 GMT-05:00 2013
User: bianchi
Dark Spectrum Present: No
Reference Spectrum Present: No
Number of Sampled Component Spectra: 1
Spectrometers: USB2+H05261
Integration Time (usec): 50000 (USB2+H05261)
Spectra Averaged: 1 (USB2+H05261)
Boxcar Smoothing: 0 (USB2+H05261)
Correct for Electrical Dark: No (USB2+H05261)
Strobe/Lamp Enabled: No (USB2+H05261)
Correct for Detector Non-linearity: No (USB2+H05261)
Correct for Stray Light: No (USB2+H05261)
Number of Pixels in Processed Spectrum: 2048
>>>>>Begin Processed Spectral Data<<<<<
365.73	0.00
365.92	0.00
366.12	0.00
366.32	0.00
366.52	0.00
366.72	0.00
366.91	0.00
367.11	0.00
367.31	0.00
367.51	0.00
367.70	0.00
367.90	0.00
368.10	0.00
368.30	0.00
368.49	0.00
368.69	0.00
368.89	0.00
369.09	0.00
369.28	0.00
369.48	0.00
369.68	0.00
369.87	0.00
370.07	0.00
370.27	0.00
370.47	0.00
370.66	60.85
370.86	74.90
371.06	135.75
371.25	86.60
371.45	161.50
371.65	177.88
371.84	100.64
372.04	100.64
372.24	110.01
372.44	238.73
372.63	222.35
372.83	170.86
373.03	201.29
373.22	166.18
373.42	196.60
373.62	191.92
373.81	196.60
374.01	252.78
374.21	229.37
374.40	208.31
374.60	220.01
374.79	243.42
374.99	191.92
375.19	189.58
375.38	210.65
375.58	152.13
375.78	276.18
375.97	229.37
376.17	257.46
376.37	191.92
376.56	276.18
376.76	208.31
376.95	264.48
377.15	175.54
377.35	299.59
377.54	297.25
377.74	191.92
377.93	308.95
378.13	308.95
378.33	215.33
378.52	229.37
378.72	250.44
378.91	280.86
379.11	320.65
379.31	224.69
379.50	304.27
379.70	227.03
379.89	297.25
380.09	224.69
380.28	229.37
380.48	278.52
380.68	297.25
380.87	269.16
381.07	358.10
381.26	325.33
381.46	327.68
381.65	388.53
381.85	269.16
382.04	301.93
382.24	400.23
382.43	322.99
382.63	337.04
382.83	313.63
383.02	262.14
383.22	348.74
383.41	322.99
383.61	344.06
383.80	409.59
384.00	341.72
384.19	400.23
384.39	365.12
384.58	339.38
384.78	447.04
384.97	369.80
385.17	428.32
385.36	376.83
385.56	337.04
385.75	334.70
385.95	425.98
386.14	395.55
386.34	369.80
386.53	353.42
386.72	407.25
386.92	458.74
387.11	489.17
387.31	390.87
387.50	451.72
387.70	395.55
387.89	402.57
388.09	433.00
388.28	484.49
388.48	475.13
388.67	437.68
388.86	381.51
389.06	463.43
389.25	430.66
389.45	500.87
389.64	510.24
389.84	491.51
390.03	479.81
390.22	519.60
390.42	447.04
390.61	500.87
390.81	451.72
391.00	503.22
391.19	547.69
391.39	479.81
391.58	559.39
391.78	550.03
391.97	519.60
392.16	533.64
392.36	479.81
392.55	585.13
392.75	557.05
392.94	456.40
393.13	634.29
393.33	554.71
393.52	489.17
393.71	547.69
393.91	484.49
394.10	566.41
394.29	456.40
394.49	568.75
394.68	613.22
394.88	653.01
395.07	608.54
395.26	545.34
395.46	533.64
395.65	526.62
395.84	615.56
396.04	603.86
396.23	643.65
396.42	564.07
396.62	727.91
396.81	704.50
397.00	606.20
397.19	716.20
397.39	615.56
397.58	580.45
397.77	692.80
397.97	664.71
398.16	702.16
398.35	713.86
398.55	636.63
398.74	713.86
398.93	692.80
399.12	695.14
399.32	660.03
399.51	685.78
399.70	751.31
399.90	809.83
400.09	781.74
400.28	741.95
400.47	734.93
400.67	702.16
400.86	739.61
401.05	763.01
401.24	828.55
401.44	748.97
401.63	788.76
401.82	814.51
402.01	671.73
402.21	919.83
402.40	814.51
402.59	851.96
402.78	898.77
402.97	903.45
403.17	866.00
403.36	896.43
403.55	772.38
403.74	954.94
403.93	947.92
404.13	894.08
404.32	875.36
404.51	950.26
404.70	910.47
404.89	851.96
405.09	931.53
405.28	889.40
405.47	877.70
405.66	992.39
405.85	933.87
406.05	894.08
406.24	894.08
406.43	968.98
406.62	1109.41
406.81	1060.26
407.00	1001.75
407.20	994.73
407.39	1022.81
407.58	1043.88
407.77	1107.07
407.96	1128.14
408.15	1114.10
408.34	1071.97
408.54	1163.25
408.73	1130.48
408.92	1095.37
409.11	1060.26
409.30	1104.73
409.49	1193.67
409.68	1102.39
409.87	1158.57
410.07	1121.12
410.26	1156.22
410.45	1100.05
410.64	1125.80
410.83	1224.10
411.02	1207.72
411.21	1261.55
411.40	1179.63
411.59	1233.46
411.78	1261.55
411.98	1179.63
412.17	1203.04
412.36	1252.19
412.55	1245.16
412.74	1371.55
412.93	1383.26
413.12	1378.58
413.31	1406.66
413.50	1329.42
413.69	1329.42
413.88	1397.30
414.07	1390.28
414.26	1383.26
414.45	1493.26
414.64	1446.45
414.83	1509.65
415.02	1579.86
415.22	1558.80
415.41	1565.82
415.60	1423.05
415.79	1467.52
415.98	1540.07
416.17	1614.97
416.36	1636.03
416.55	1603.27
416.74	1607.95
416.93	1551.78
417.12	1689.87
417.31	1631.35
417.50	1678.16
417.69	1689.87
417.88	1650.08
418.07	1575.18
418.26	1687.53
418.45	1722.63
418.64	1724.97
418.83	1692.21
419.02	1799.87
419.21	1792.85
419.39	1853.70
419.58	1764.76
419.77	1769.44
419.96	1806.89
420.15	1823.28
420.34	1806.89
420.53	1853.70
420.72	1926.26
420.91	1923.92
421.10	1947.33
421.29	1961.37
421.48	1902.86
421.67	2047.97
421.86	1926.26
422.05	1895.83
422.24	1895.83
422.43	1858.39
422.61	1937.96
422.80	2022.22
422.99	1963.71
423.18	1933.28
423.37	1977.75
423.56	1966.05
423.75	1963.71
423.94	1975.41
424.13	1830.30
424.32	1942.64
424.50	1996.48
424.69	2146.27
424.88	2045.63
425.07	2057.33
425.26	2003.50
425.45	1989.46
425.64	2040.95
425.83	2026.90
426.01	2026.90
426.20	2078.40
426.39	1977.75
426.58	1980.09
426.77	2113.50
426.96	2160.31
427.15	2160.31
427.33	2024.56
427.52	2186.06
427.71	2120.53
427.90	2146.27
428.09	2204.78
428.28	2190.74
428.46	2162.66
428.65	2188.40
428.84	2232.87
429.03	2258.62
429.22	2150.95
429.40	2165.00
429.59	2300.75
429.78	2099.46
429.97	2125.21
430.16	2165.00
430.34	2319.47
430.53	2286.70
430.72	2256.28
430.91	2317.13
431.10	2246.91
431.28	2314.79
431.47	2413.09
431.66	2380.32
431.85	2324.15
432.03	2361.60
432.22	2424.80
432.41	2429.48
432.60	2417.77
432.79	2476.29
432.97	2408.41
433.16	2448.20
433.35	2387.35
433.54	2441.18
433.72	2436.50
433.91	2509.05
434.10	2399.05
434.28	2429.48
434.47	2466.92
434.66	2548.84
434.85	2537.14
435.03	2579.27
435.22	2574.59
435.41	2565.23
435.59	2551.18
435.78	2658.85
435.97	2668.21
436.16	2586.29
436.34	2607.36
436.53	2502.03
436.72	2715.02
436.90	2600.34
437.09	2658.85
437.28	2700.98
437.46	2736.09
437.65	2733.75
437.84	2771.19
438.02	2722.04
438.21	2806.30
438.40	2729.06
438.58	2827.37
438.77	2909.29
438.96	2808.64
439.14	2878.86
439.33	2885.88
439.52	2899.92
439.70	3028.65
439.89	3045.04
440.08	3049.72
440.26	3063.76
440.45	3052.06
440.63	2995.89
440.82	3129.30
441.01	3098.87
441.19	3091.85
441.38	3026.31
441.57	3145.68
441.75	3239.30
441.94	3187.81
442.12	3197.17
442.31	3243.98
442.50	3185.47
442.68	3215.90
442.87	3293.13
443.05	3372.71
443.24	3442.93
443.43	3201.85
443.61	3438.25
443.80	3480.38
443.98	3220.58
444.17	3293.13
444.35	3293.13
444.54	3410.16
444.73	3538.89
444.91	3314.20
445.10	3318.88
445.28	3372.71
445.47	3463.99
445.65	3407.82
445.84	3304.84
446.02	3524.85
446.21	3403.14
446.39	3475.70
446.58	3531.87
446.77	3508.46
446.95	3412.50
447.14	3623.15
447.32	3576.34
447.51	3496.76
447.69	3459.31
447.88	3602.08
448.06	3471.01
448.25	3463.99
448.43	3435.91
448.62	3552.93
448.80	3517.83
448.99	3480.38
449.17	3583.36
449.36	3482.72
449.54	3581.02
449.73	3545.91
449.91	3824.44
450.10	3772.94
450.28	3756.56
450.46	3604.42
450.65	3768.26
450.83	3887.63
451.02	3655.92
451.20	3716.77
451.39	3733.15
451.57	3658.26
451.76	3719.11
451.94	3796.35
452.13	3981.25
452.31	3847.84
452.49	3604.42
452.68	3740.18
452.86	3852.52
453.05	4044.45
453.23	4007.00
453.42	3794.01
453.60	3786.99
453.78	3705.07
453.97	3815.07
454.15	3737.84
454.34	3843.16
454.52	3908.69
454.70	3819.75
454.89	3889.97
455.07	4021.04
455.26	3962.53
455.44	4114.66
455.62	4072.53
455.81	3955.51
455.99	4025.72
456.17	4140.41
456.36	4145.09
456.54	4093.60
456.73	4224.67
456.91	4294.88
457.09	4227.01
457.28	4425.95
457.46	4077.21
457.64	4367.44
457.83	4257.43
458.01	4238.71
458.19	4257.43
458.38	4189.56
458.56	4360.42
458.74	4358.08
458.93	4196.58
459.11	4344.03
459.29	4397.87
459.48	4414.25
459.66	4440.00
459.84	4334.67
460.03	4578.09
460.21	4559.36
460.39	4500.85
460.57	4348.72
460.76	4498.51
460.94	4629.58
461.12	4573.41
461.31	4521.92
461.49	4507.87
461.67	4629.58
461.85	4557.02
462.04	4624.90
462.22	4683.41
462.40	4585.11
462.59	4620.22
462.77	4664.69
462.95	4770.01
463.13	4781.71
463.32	4681.07
463.50	4898.74
463.68	4774.69
463.86	4793.42
464.05	4678.73
464.23	4669.37
464.41	4800.44
464.59	4755.97
464.78	4807.46
464.96	4816.82
465.14	4732.56
465.32	4933.85
465.50	5025.13
465.69	4954.91
465.87	4840.23
466.05	4875.34
466.23	5008.75
466.41	4865.97
466.60	5146.84
466.78	4912.78
466.96	5015.77
467.14	4975.98
467.32	5050.88
467.51	5123.43
467.69	4929.17
467.87	4959.60
468.05	5097.69
468.23	5151.52
468.41	4983.00
468.60	5191.31
468.78	5198.33
468.96	5078.96
469.14	5233.44
469.32	5207.69
469.50	5025.13
469.69	5261.52
469.87	5233.44
470.05	5305.99
470.23	5273.23
470.41	5355.15
470.59	5364.51
470.77	5301.31
470.95	5467.49
471.14	5533.03
471.32	5401.96
471.50	5575.16
471.68	5425.36
471.86	5427.70
472.04	5736.65
472.22	5497.92
472.40	5476.85
472.58	5757.72
472.77	5774.10
472.95	5668.78
473.13	5734.31
473.31	5778.78
473.49	5809.21
473.67	5785.80
473.85	5944.96
474.03	5818.57
474.21	5907.51
474.39	6038.58
474.57	5970.71
474.75	6139.23
474.93	6059.65
475.12	6097.10
475.30	6054.97
475.48	6132.20
475.66	6120.50
475.84	6129.86
476.02	6424.77
476.20	6200.08
476.38	6164.97
476.56	6431.79
476.74	6413.07
476.92	6307.74
477.10	6366.26
477.28	6572.22
477.46	6635.42
477.64	6738.40
477.82	6738.40
478.00	6787.55
478.18	6806.28
478.36	6881.18
478.54	7075.44
478.72	6939.69
478.90	6895.22
479.08	7227.57
479.26	6949.05
479.44	7232.26
479.62	7248.64
479.80	7431.20
479.98	7339.92
480.16	7426.52
480.34	7342.26
480.52	7672.28
480.70	7566.95
480.88	7447.58
481.06	7618.44
481.24	7691.00
481.41	7573.97
481.59	7822.07
481.77	7887.61
481.95	8060.80
482.13	7964.84
482.31	8173.15
482.49	8166.13
482.67	8161.45
482.85	8372.10
483.03	8439.97
483.21	8430.61
483.39	8500.83
483.57	8465.72
483.74	8578.06
483.92	8692.75
484.10	8636.58
484.28	8898.72
484.46	8819.14
484.64	8915.10
484.82	8854.25
485.00	9018.08
485.18	9217.03
485.35	9270.86
485.53	9303.63
485.71	9296.61
485.89	9324.69
486.07	9493.21
486.25	9350.44
486.43	9514.28
486.61	9820.89
486.78	9668.75
486.96	9928.55
487.14	10076.01
487.32	9907.49
487.50	10106.43
487.68	9968.34
487.85	9947.28
488.03	10300.70
488.21	10513.69
488.39	10485.60
488.57	10441.13
488.75	10480.92
488.92	10911.58
489.10	10700.93
489.28	10714.97
489.46	10923.28
489.64	10897.53
489.81	11157.33
489.99	11052.01
490.17	11108.18
490.35	11335.21
490.53	11213.51
490.70	11623.10
490.88	11775.24
491.06	11489.69
491.24	11536.50
491.41	11562.25
491.59	11564.59
491.77	11590.33
491.95	11974.18
492.13	12030.35
492.30	12112.27
492.48	12126.32
492.66	12205.89
492.84	12046.74
493.01	12507.82
493.19	12343.99
493.37	12542.93
493.54	12538.25
493.72	12734.85
493.90	12631.87
494.08	12809.75
494.25	12821.45
494.43	12975.93
494.61	13067.21
494.79	13305.95
494.96	13352.76
495.14	13338.71
495.32	13207.64
495.49	13221.69
495.67	13472.12
495.85	13614.90
496.02	13624.26
496.20	13823.20
496.38	13947.25
496.55	13832.57
496.73	14066.62
496.91	14115.77
497.09	14129.81
497.26	14204.71
497.44	14288.97
497.62	14429.40
497.79	14551.11
497.97	14492.60
498.14	14328.76
498.32	14630.69
498.50	14621.33
498.67	14761.76
498.85	14700.90
499.03	14930.28
499.20	15002.83
499.38	15063.69
499.56	14897.51
499.73	14906.87
499.91	15183.06
500.08	15276.68
500.26	15169.01
500.44	15000.49
500.61	15407.75
500.79	15428.81
500.97	15494.35
501.14	15644.14
501.32	15660.52
501.49	15641.80
501.67	15861.81
501.84	15747.12
502.02	15829.04
502.20	15868.83
502.37	15967.13
502.55	15822.02
502.72	15915.64
502.90	16081.82
503.07	16027.99
503.25	16222.25
503.43	16170.76
503.60	16360.34
503.78	16482.05
503.95	16346.30
504.13	16465.67
504.30	16718.45
504.48	16332.26
504.65	16507.80
504.83	16751.21
505.01	16901.01
505.18	16695.04
505.36	16952.50
505.53	16695.04
505.71	16882.28
505.88	16821.43
506.06	17254.43
506.23	17326.99
506.41	16748.87
506.58	17081.23
506.76	16945.48
506.93	17308.26
507.11	17188.89
507.28	17343.37
507.46	17319.96
507.63	17214.64
507.81	17898.08
507.98	17547.00
508.16	17610.19
508.33	17558.70
508.50	17916.80
508.68	17767.01
508.85	17846.58
509.03	17738.92
509.20	17951.91
509.38	18141.49
509.55	18059.57
509.73	18115.75
509.90	18253.84
510.08	18197.67
510.25	18082.98
510.42	18195.32
510.60	18251.50
510.77	18628.32
510.95	18452.78
511.12	18420.02
511.30	18665.77
511.47	19023.87
511.64	18642.37
511.82	18757.05
511.99	18958.34
512.17	19012.17
512.34	18611.94
512.51	18485.55
512.69	18878.76
512.86	19117.50
513.04	19250.91
513.21	19164.31
513.38	19012.17
513.56	19154.94
513.73	19143.24
513.90	19119.84
514.08	19433.47
514.25	19431.13
514.43	19854.76
514.60	19482.62
514.77	19632.41
514.95	19599.65
515.12	19564.54
515.29	19445.17
515.47	19854.76
515.64	19601.99
515.81	19655.82
515.99	20004.56
516.16	20252.66
516.33	20077.12
516.51	20257.34
516.68	20030.30
516.85	20072.43
517.03	20287.76
517.20	20423.51
517.37	20051.37
517.54	20404.79
517.72	20568.63
517.89	20386.07
518.06	20229.25
518.24	20444.58
518.41	20231.59
518.58	20458.62
518.75	20231.59
518.93	20662.25
519.10	20809.70
519.27	20613.10
519.45	20926.73
519.62	20800.34
519.79	20627.14
519.96	20912.69
520.14	21064.82
520.31	21027.37
520.48	20790.98
520.65	20821.41
520.83	21341.00
521.00	20882.26
521.17	21125.68
521.34	21259.09
521.52	20992.26
521.69	21422.92
521.86	21621.87
522.03	21497.82
522.20	21785.71
522.38	21582.08
522.55	21589.10
522.72	21584.42
522.89	21607.83
523.07	21921.46
523.24	21673.36
523.41	22033.80
523.58	21745.92
523.75	22169.55
523.92	21731.87
524.10	21872.31
524.27	21986.99
524.44	22162.53
524.61	22017.42
524.78	22242.11
524.96	22216.36
525.13	22183.60
525.30	22286.58
525.47	22235.09
525.64	22153.17
525.81	22424.67
525.98	22436.38
526.16	22345.09
526.33	22223.39
526.50	22462.12
526.67	22436.38
526.84	22742.99
527.01	22686.81
527.18	22984.06
527.36	22754.69
527.53	22768.73
527.70	22986.40
527.87	22993.42
528.04	23229.82
528.21	22930.23
528.38	23049.60
528.55	22845.97
528.72	23115.13
528.89	22871.72
529.07	23283.65
529.24	23007.47
529.41	23337.48
529.58	22918.53
529.75	23087.04
529.92	23206.41
530.09	23206.41
530.26	23054.28
530.43	23379.61
530.60	23349.18
530.77	23407.70
530.94	23775.16
531.11	23250.88
531.28	23599.62
531.46	23789.20
531.63	23515.36
531.80	23604.30
531.97	24247.95
532.14	23461.53
532.31	23840.70
532.48	23662.82
532.65	23864.10
532.82	23758.78
532.99	23915.59
533.16	23983.47
533.33	24121.56
533.50	23934.32
533.67	24325.19
533.84	23772.82
534.01	23836.02
534.18	24086.45
534.35	24194.12
534.52	24044.32
534.69	24224.54
534.86	24439.87
535.03	24276.04
535.20	24116.88
535.37	24224.54
535.54	24465.62
535.71	24376.68
535.88	24741.80
536.05	24334.55
536.22	24219.86
536.38	24659.88
536.55	24849.47
536.72	24542.86
536.89	24463.28
537.06	24479.66
537.23	24751.17
537.40	24655.20
537.57	24727.76
537.74	25085.86
537.91	25156.08
538.08	25062.46
538.25	24627.12
538.42	24980.54
538.59	25348.00
538.75	24933.73
538.92	24929.05
539.09	24954.79
539.26	25200.55
539.43	25259.06
539.60	25230.98
539.77	25153.74
539.94	25408.86
540.11	25062.46
540.28	25230.98
540.44	25378.43
540.61	25331.62
540.78	24924.36
540.95	25443.96
541.12	25553.97
541.29	25287.15
541.46	25039.05
541.62	25458.01
541.79	25603.12
541.96	25132.67
542.13	25355.02
542.30	25535.24
542.47	25689.72
542.63	25954.20
542.80	26155.49
542.97	26099.31
543.14	26094.63
543.31	25773.98
543.48	25778.66
543.64	26108.68
543.81	26309.96
543.98	26080.59
544.15	26192.94
544.32	26160.17
544.48	26850.63
544.65	25998.67
544.82	26073.57
544.99	25977.61
545.16	26408.26
545.32	26511.25
545.49	26462.10
545.66	26611.89
545.83	26490.18
546.00	26522.95
546.16	26324.01
546.33	26536.99
546.50	26284.22
546.67	26438.69
546.83	26033.78
547.00	26742.96
547.17	26469.12
547.34	26902.12
547.50	26595.51
547.67	27161.92
547.84	26691.47
548.00	26771.05
548.17	26658.70
548.34	27147.87
548.51	26969.99
548.67	26328.69
548.84	27087.02
549.01	26555.72
549.18	26874.03
549.34	26747.64
549.51	27264.90
549.68	26618.91
549.84	27002.76
550.01	27154.90
550.18	26855.31
550.34	27119.79
550.51	27257.88
550.68	27173.62
550.84	26993.40
551.01	27161.92
551.18	26953.61
551.34	27049.57
551.51	26871.69
551.68	27342.14
551.84	27295.33
552.01	27435.76
552.18	27496.61
552.34	27133.83
552.51	27405.33
552.68	27054.25
552.84	27473.21
553.01	27665.13
553.18	27438.10
553.34	27503.64
553.51	27391.29
553.67	27545.76
553.84	27501.29
554.01	27779.82
554.17	27627.68
554.34	27775.14
554.51	27606.62
554.67	27749.39
554.84	27735.35
555.00	27583.21
555.17	27772.80
555.33	27938.97
555.50	27960.04
555.67	27711.94
555.83	27679.18
556.00	27552.79
556.16	27967.06
556.33	27772.80
556.50	27737.69
556.66	27875.78
556.83	28084.09
556.99	28430.49
557.16	28077.07
557.32	28079.41
557.49	28168.35
557.65	27784.50
557.82	28063.02
557.98	27861.74
558.15	27992.81
558.32	28231.54
558.48	27948.34
558.65	28416.44
558.81	28203.46
558.98	28210.48
559.14	28032.60
559.31	28020.89
559.47	28371.97
559.64	28430.49
559.80	28470.28
559.97	28051.32
560.13	28217.50
560.30	28163.67
560.46	28627.09
560.63	28360.27
560.79	28325.16
560.96	28371.97
561.12	28477.30
561.29	28046.64
561.45	27983.44
561.61	28531.13
561.78	28833.06
561.94	28533.47
562.11	28753.48
562.27	28664.54
562.44	28119.20
562.60	28634.11
562.77	28294.74
562.93	28627.09
563.10	28753.48
563.26	28694.97
563.42	28769.86
563.59	28451.55
563.75	28730.08
563.92	28786.25
564.08	28552.20
564.24	28737.10
564.41	28673.90
564.57	28594.32
564.74	28828.38
564.90	28844.76
565.07	28886.89
565.23	29046.05
565.39	28737.10
565.56	28664.54
565.72	28559.22
565.88	28797.95
566.05	28833.06
566.21	28510.07
566.38	28641.14
566.54	28844.76
566.70	28943.06
566.87	29102.22
567.03	28912.64
567.19	29198.18
567.36	28985.19
567.52	28606.03
567.68	28751.14
567.85	29102.22
568.01	28922.00
568.17	28559.22
568.34	28900.94
568.50	28758.16
568.66	29233.29
568.83	29268.40
568.99	29074.13
569.15	29219.25
569.32	28779.23
569.48	29046.05
569.64	29003.92
569.81	29240.31
569.97	29069.45
570.13	29216.91
570.30	29142.01
570.46	29270.74
570.62	29394.79
570.78	28861.15
570.95	28858.81
571.11	29102.22
571.27	28919.66
571.43	28615.39
571.60	29095.20
571.76	29399.47
571.92	29301.17
572.09	29331.59
572.25	29092.86
572.41	29284.78
572.57	29373.72
572.74	29214.57
572.90	28961.79
573.06	29296.49
573.22	29525.86
573.38	29139.67
573.55	29029.66
573.71	29633.52
573.87	29027.32
574.03	29500.11
574.20	29209.89
574.36	29039.03
574.52	29355.00
574.68	29179.46
574.84	29191.16
575.01	29291.80
575.17	29553.94
575.33	29090.52
575.49	29310.53
575.65	29294.14
575.82	29230.95
575.98	29446.28
576.14	29563.31
576.30	29575.01
576.46	28954.77
576.62	29303.51
576.79	29357.34
576.95	29053.07
577.11	29479.05
577.27	29443.94
577.43	29277.76
577.59	29600.76
577.75	29560.97
577.92	29266.06
578.08	28903.28
578.24	29378.40
578.40	29406.49
578.56	29425.22
578.72	29511.81
578.88	29542.24
579.04	29546.92
579.21	29134.99
579.37	29380.74
579.53	29584.37
579.69	29553.94
579.85	29364.36
580.01	29378.40
580.17	29142.01
580.33	29376.06
580.49	29457.98
580.65	29376.06
580.82	29624.16
580.98	29535.22
581.14	29413.51
581.30	29364.36
581.46	29654.59
581.62	29280.10
581.78	29399.47
581.94	29301.17
582.10	29525.86
582.26	29067.11
582.42	29685.01
582.58	29546.92
582.74	29607.78
582.90	29221.59
583.06	29605.44
583.22	29151.37
583.38	29209.89
583.54	29102.22
583.70	29252.02
583.86	29277.76
584.02	29483.73
584.18	29546.92
584.34	29493.09
584.50	29893.32
584.66	29362.02
584.82	29560.97
584.98	29563.31
585.14	29535.22
585.30	29198.18
585.46	29003.92
585.62	29254.36
585.78	29256.70
585.94	29488.41
586.10	29743.53
586.26	29598.41
586.42	29633.52
586.58	29703.74
586.74	29252.02
586.90	29474.37
587.06	29165.42
587.22	29488.41
587.38	29294.14
587.54	29841.83
587.70	29865.24
587.86	29619.48
588.02	29841.83
588.18	29553.94
588.34	29811.40
588.49	29673.31
588.65	29441.60
588.81	29275.42
588.97	29640.54
589.13	29551.60
589.29	29511.81
589.45	29771.61
589.61	29673.31
589.77	29867.58
589.93	29769.27
590.08	29963.54
590.24	29972.90
590.40	29912.05
590.56	29869.92
590.72	29722.46
590.88	30080.56
591.04	29399.47
591.20	29759.91
591.35	29738.85
591.51	29989.28
591.67	29949.50
591.83	29851.19
591.99	29912.05
