SpectraSuite Data File
++++++++++++++++++++++++++++++++++++
Date: Fri Oct 18 13:57:53 GMT-05:00 2013
User: bianchi
Dark Spectrum Present: No
Reference Spectrum Present: No
Number of Sampled Component Spectra: 1
Spectrometers: USB2+H05261
Integration Time (usec): 50000 (USB2+H05261)
Spectra Averaged: 1 (USB2+H05261)
Boxcar Smoothing: 0 (USB2+H05261)
Correct for Electrical Dark: No (USB2+H05261)
Strobe/Lamp Enabled: No (USB2+H05261)
Correct for Detector Non-linearity: No (USB2+H05261)
Correct for Stray Light: No (USB2+H05261)
Number of Pixels in Processed Spectrum: 2048
>>>>>Begin Processed Spectral Data<<<<<
365.73	0.00
365.92	0.00
366.12	0.00
366.32	0.00
366.52	0.00
366.72	0.00
366.91	0.00
367.11	0.00
367.31	0.00
367.51	0.00
367.70	0.00
367.90	0.00
368.10	0.00
368.30	0.00
368.49	0.00
368.69	0.00
368.89	0.00
369.09	0.00
369.28	0.00
369.48	0.00
369.68	0.00
369.87	0.00
370.07	0.00
370.27	0.00
370.47	0.00
370.66	23.41
370.86	88.94
371.06	114.69
371.25	163.84
371.45	114.69
371.65	180.22
371.84	175.54
372.04	177.88
372.24	163.84
372.44	187.24
372.63	290.23
372.83	236.39
373.03	194.26
373.22	285.55
373.42	168.52
373.62	187.24
373.81	224.69
374.01	191.92
374.21	210.65
374.40	271.50
374.60	196.60
374.79	313.63
374.99	234.05
375.19	278.52
375.38	205.97
375.58	161.50
375.78	241.08
375.97	252.78
376.17	264.48
376.37	287.89
376.56	196.60
376.76	308.95
376.95	227.03
377.15	294.91
377.35	330.02
377.54	266.82
377.74	208.31
377.93	334.70
378.13	271.50
378.33	248.10
378.52	264.48
378.72	287.89
378.91	210.65
379.11	271.50
379.31	264.48
379.50	196.60
379.70	330.02
379.89	313.63
380.09	231.71
380.28	311.29
380.48	355.76
380.68	287.89
380.87	301.93
381.07	311.29
381.26	283.20
381.46	278.52
381.65	330.02
381.85	259.80
382.04	283.20
382.24	362.78
382.43	334.70
382.63	351.08
382.83	332.36
383.02	353.42
383.22	351.08
383.41	430.66
383.61	409.59
383.80	374.49
384.00	390.87
384.19	374.49
384.39	353.42
384.58	386.19
384.78	402.57
384.97	332.36
385.17	353.42
385.36	465.77
385.56	383.85
385.75	409.59
385.95	411.93
386.14	376.83
386.34	397.89
386.53	416.62
386.72	383.85
386.92	528.96
387.11	447.04
387.31	367.46
387.50	388.53
387.70	337.04
387.89	482.15
388.09	416.62
388.28	514.92
388.48	447.04
388.67	517.26
388.86	468.11
389.06	294.91
389.25	454.06
389.45	463.43
389.64	512.58
389.84	435.34
390.03	496.19
390.22	493.85
390.42	416.62
390.61	500.87
390.81	477.47
391.00	547.69
391.19	482.15
391.39	517.26
391.58	461.09
391.78	486.83
391.97	533.64
392.16	507.90
392.36	617.90
392.55	519.60
392.75	554.71
392.94	566.41
393.13	552.37
393.33	554.71
393.52	557.05
393.71	582.79
393.91	585.13
394.10	543.00
394.29	688.12
394.49	507.90
394.68	543.00
394.88	606.20
395.07	582.79
395.26	615.56
395.46	676.41
395.65	634.29
395.84	674.07
396.04	660.03
396.23	594.50
396.42	706.84
396.62	667.05
396.81	620.24
397.00	674.07
397.19	669.39
397.39	704.50
397.58	706.84
397.77	678.76
397.97	653.01
398.16	667.05
398.35	748.97
398.55	720.88
398.74	716.20
398.93	784.08
399.12	683.44
399.32	676.41
399.51	727.91
399.70	800.46
399.90	744.29
400.09	730.25
400.28	812.17
400.47	763.01
400.67	744.29
400.86	751.31
401.05	828.55
401.24	760.67
401.44	870.68
401.63	788.76
401.82	889.40
402.01	800.46
402.21	739.61
402.40	861.32
402.59	840.25
402.78	849.61
402.97	791.10
403.17	873.02
403.36	847.27
403.55	978.34
403.74	924.51
403.93	889.40
404.13	924.51
404.32	922.17
404.51	1022.81
404.70	936.21
404.89	964.30
405.09	952.60
405.28	910.47
405.47	964.30
405.66	985.37
405.85	884.72
406.05	990.05
406.24	964.30
406.43	924.51
406.62	1015.79
406.81	1032.18
407.00	1055.58
407.20	990.05
407.39	1034.52
407.58	1114.10
407.77	1074.31
407.96	1153.88
408.15	1067.28
408.34	1081.33
408.54	1076.65
408.73	1128.14
408.92	1142.18
409.11	1153.88
409.30	1121.12
409.49	1109.41
409.68	1132.82
409.87	1142.18
410.07	1177.29
410.26	1153.88
410.45	1151.54
410.64	1207.72
410.83	1193.67
411.02	1160.91
411.21	1181.97
411.40	1228.78
411.59	1231.12
411.78	1240.48
411.98	1296.66
412.17	1275.59
412.36	1313.04
412.55	1434.75
412.74	1341.13
412.93	1313.04
413.12	1331.76
413.31	1329.42
413.50	1301.34
413.69	1397.30
413.88	1301.34
414.07	1451.13
414.26	1493.26
414.45	1612.63
414.64	1511.99
414.83	1504.96
415.02	1476.88
415.22	1469.86
415.41	1570.50
415.60	1420.71
415.79	1591.56
415.98	1603.27
416.17	1577.52
416.36	1617.31
416.55	1654.76
416.74	1605.61
416.93	1647.74
417.12	1636.03
417.31	1659.44
417.50	1692.21
417.69	1781.15
417.88	1706.25
418.07	1781.15
418.26	1776.47
418.45	1769.44
418.64	1722.63
418.83	1818.60
419.02	1792.85
419.21	1839.66
419.39	1858.39
419.58	1750.72
419.77	1820.94
419.96	1781.15
420.15	1921.58
420.34	1877.11
420.53	1867.75
420.72	1898.17
420.91	1944.99
421.10	1921.58
421.29	1963.71
421.48	1926.26
421.67	2015.20
421.86	1937.96
422.05	1977.75
422.24	2024.56
422.43	1982.43
422.61	2045.63
422.80	1987.11
422.99	2015.20
423.18	2059.67
423.37	1968.39
423.56	1980.09
423.75	1930.94
423.94	2026.90
424.13	1877.11
424.32	1921.58
424.50	2026.90
424.69	2097.12
424.88	2127.55
425.07	1898.17
425.26	1975.41
425.45	2076.06
425.64	1984.77
425.83	1984.77
426.01	2120.53
426.20	1970.73
426.39	2069.03
426.58	1980.09
426.77	2111.16
426.96	2104.14
427.15	2047.97
427.33	2146.27
427.52	2146.27
427.71	2172.02
427.90	2211.81
428.09	2249.25
428.28	2202.44
428.46	2293.72
428.65	2148.61
428.84	2209.47
429.03	2284.36
429.22	2190.74
429.40	2279.68
429.59	2286.70
429.78	2132.23
429.97	2186.06
430.16	2244.57
430.34	2310.11
430.53	2415.43
430.72	2314.79
430.91	2417.77
431.10	2450.54
431.28	2349.90
431.47	2401.39
431.66	2406.07
431.85	2354.58
432.03	2375.64
432.22	2441.18
432.41	2370.96
432.60	2530.12
432.79	2389.69
432.97	2487.99
433.16	2516.08
433.35	2569.91
433.54	2408.41
433.72	2621.40
433.91	2595.65
434.10	2560.55
434.28	2555.86
434.47	2588.63
434.66	2513.74
434.85	2499.69
435.03	2581.61
435.22	2597.99
435.41	2677.57
435.59	2663.53
435.78	2717.36
435.97	2651.83
436.16	2665.87
436.34	2675.23
436.53	2722.04
436.72	2752.47
436.90	2745.45
437.09	2747.79
437.28	2686.94
437.46	2722.04
437.65	2747.79
437.84	2843.75
438.02	2806.30
438.21	2820.35
438.40	2796.94
438.58	2878.86
438.77	3059.08
438.96	2857.79
439.14	2958.44
439.33	2836.73
439.52	2951.42
439.70	3023.97
439.89	3066.10
440.08	3038.02
440.26	3038.02
440.45	3030.99
440.63	3094.19
440.82	3098.87
441.01	3199.51
441.19	3126.96
441.38	3159.72
441.57	3251.00
441.75	3152.70
441.94	3274.41
442.12	3293.13
442.31	3344.63
442.50	3239.30
442.68	3328.24
442.87	3337.60
443.05	3332.92
443.24	3316.54
443.43	3496.76
443.61	3358.67
443.80	3520.17
443.98	3335.26
444.17	3283.77
444.35	3501.44
444.54	3475.70
444.73	3489.74
444.91	3431.23
445.10	3412.50
445.28	3466.33
445.47	3297.81
445.65	3461.65
445.84	3426.54
446.02	3449.95
446.21	3550.59
446.39	3421.86
446.58	3576.34
446.77	3550.59
446.95	3536.55
447.14	3461.65
447.32	3531.87
447.51	3389.10
447.69	3555.27
447.88	3700.39
448.06	3501.44
448.25	3616.13
448.43	3487.40
448.62	3585.70
448.80	3637.19
448.99	3655.92
449.17	3674.64
449.36	3604.42
449.54	3702.73
449.73	3686.34
449.91	3777.62
450.10	3859.54
450.28	3681.66
450.46	3744.86
450.65	3714.43
450.83	3786.99
451.02	3756.56
451.20	3801.03
451.39	3953.16
451.57	3911.04
451.76	3859.54
451.94	3815.07
452.13	3941.46
452.31	3946.14
452.49	3826.78
452.68	3915.72
452.86	3960.19
453.05	3941.46
453.23	3964.87
453.42	3878.27
453.60	4056.15
453.78	4035.08
453.97	3894.65
454.15	3854.86
454.34	3899.33
454.52	4063.17
454.70	3955.51
454.89	4086.58
455.07	4133.39
455.26	4128.70
455.44	4051.47
455.62	4021.04
455.81	4119.34
455.99	4051.47
456.17	4154.45
456.36	4166.15
456.54	4231.69
456.73	4189.56
456.91	4297.22
457.09	4430.63
457.28	4285.52
457.46	4332.33
457.64	4290.20
457.83	4418.93
458.01	4425.95
458.19	4482.13
458.38	4461.06
458.56	4437.66
458.74	4432.97
458.93	4550.00
459.11	4451.70
459.29	4561.70
459.48	4535.96
459.66	4526.60
459.84	4652.98
460.03	4641.28
460.21	4496.17
460.39	4545.32
460.57	4437.66
460.76	4601.49
460.94	4704.48
461.12	4648.30
461.31	4741.93
461.49	4634.26
461.67	4578.09
461.85	4816.82
462.04	4695.11
462.22	5006.41
462.40	4823.84
462.59	4826.18
462.77	4667.03
462.95	4884.70
463.13	4863.63
463.32	4905.76
463.50	4748.95
463.68	4800.44
463.86	4961.94
464.05	4868.31
464.23	4858.95
464.41	4901.08
464.59	4868.31
464.78	5034.49
464.96	5048.54
465.14	4901.08
465.32	5078.96
465.50	5020.45
465.69	5076.62
465.87	4968.96
466.05	4929.17
466.23	5050.88
466.41	5224.08
466.60	5142.16
466.78	5200.67
466.96	5144.50
467.14	4961.94
467.32	5181.95
467.51	5301.31
467.69	5100.03
467.87	5125.77
468.05	5200.67
468.23	5097.69
468.41	5296.63
468.60	5151.52
468.78	5233.44
468.96	5181.95
469.14	5432.38
469.32	5350.46
469.50	5212.37
469.69	5350.46
469.87	5465.15
470.05	5591.54
470.23	5469.83
470.41	5488.56
470.59	5518.98
470.77	5488.56
470.95	5575.16
471.14	5591.54
471.32	5631.33
471.50	5542.39
471.68	5619.63
471.86	5689.84
472.04	5673.46
472.22	5743.67
472.40	5708.57
472.58	5858.36
472.77	5802.19
472.95	5966.03
473.13	6047.94
473.31	5921.56
473.49	5839.64
473.67	5937.94
473.85	5872.40
474.03	6017.52
474.21	6015.18
474.39	6005.81
474.57	6087.73
474.75	6232.85
474.93	6370.94
475.12	6176.67
475.30	6232.85
475.48	6349.87
475.66	6443.49
475.84	6331.15
476.02	6342.85
476.20	6558.18
476.38	6558.18
476.56	6677.55
476.74	6530.09
476.92	6581.59
477.10	6614.35
477.28	6867.13
477.46	6740.74
477.64	6902.24
477.82	6782.87
478.00	7183.10
478.18	7063.74
478.36	7026.29
478.54	7131.61
478.72	7115.23
478.90	7379.71
479.08	7297.79
479.26	7241.62
479.44	7407.80
479.62	7302.47
479.80	7517.80
479.98	7513.12
480.16	7529.50
480.34	7604.40
480.52	7672.28
480.70	7611.42
480.88	7620.78
481.06	7733.13
481.24	7693.34
481.41	7737.81
481.59	7990.59
481.77	8065.49
481.95	8004.63
482.13	8255.07
482.31	8018.68
482.49	8351.03
482.67	8287.84
482.85	8542.96
483.03	8418.91
483.21	8641.26
483.39	8835.52
483.57	8688.07
483.74	8545.30
483.92	8779.35
484.10	8580.40
484.28	9074.26
484.46	9245.12
484.64	9266.18
484.82	9205.33
485.00	9167.88
485.18	9455.76
485.35	9472.15
485.53	9371.50
485.71	9427.68
485.89	9680.46
486.07	9640.67
486.25	9652.37
486.43	9881.74
486.61	9853.66
486.78	10047.92
486.96	9973.02
487.14	10347.51
487.32	10111.11
487.50	10148.56
487.68	10352.19
487.85	10391.98
488.03	10635.39
488.21	10588.58
488.39	10656.46
488.57	10794.55
488.75	10824.98
488.92	11073.07
489.10	11014.56
489.28	11166.70
489.46	11304.79
489.64	11138.61
489.81	11412.45
489.99	11208.83
490.17	11424.15
490.35	11536.50
490.53	11812.68
490.70	11648.85
490.88	11541.18
491.06	11983.54
491.24	11929.71
491.41	12018.65
491.59	11950.78
491.77	12049.08
491.95	12079.50
492.13	12446.97
492.30	12343.99
492.48	12435.27
492.66	12175.47
492.84	12549.95
493.01	12690.38
493.19	12968.91
493.37	12685.70
493.54	12800.39
493.72	12858.90
493.90	13050.83
494.08	13228.71
494.25	13202.96
494.43	13357.44
494.61	13605.53
494.79	13458.08
494.96	13371.48
495.14	13296.58
495.32	13495.53
495.49	13764.69
495.67	13867.67
495.85	13954.27
496.02	14078.32
496.20	14134.50
496.38	14010.45
496.55	13991.72
496.73	14389.61
496.91	14202.37
497.09	14303.01
497.26	14635.37
497.44	14469.19
497.62	14609.62
497.79	14705.59
497.97	14703.25
498.14	14836.66
498.32	14951.34
498.50	15002.83
498.67	15389.02
498.85	15056.67
499.03	15211.14
499.20	15030.92
499.38	15494.35
499.56	15272.00
499.73	15393.70
499.91	15611.37
500.08	15779.89
500.26	15686.27
500.44	15447.54
500.61	15641.80
500.79	15866.49
500.97	15796.28
501.14	16114.59
501.32	15981.18
501.49	16283.11
501.67	16079.48
501.84	16367.37
502.02	16107.57
502.20	16100.55
502.37	16460.99
502.55	16219.91
502.72	16493.76
502.90	16531.20
503.07	16030.33
503.25	16556.95
503.43	16545.25
503.60	16606.10
503.78	16669.30
503.95	16908.03
504.13	16966.54
504.30	16805.05
504.48	16697.38
504.65	16854.20
504.83	17170.17
505.01	17085.91
505.18	17015.69
505.36	17563.38
505.53	17331.67
505.71	17249.75
505.88	17394.86
506.06	17216.98
506.23	17682.75
506.41	17444.01
506.58	17563.38
506.76	17617.21
506.93	17568.06
507.11	17308.26
507.28	17877.01
507.46	18003.40
507.63	17968.29
507.81	18157.88
507.98	17947.23
508.16	17860.63
508.33	18038.51
508.50	18029.15
508.68	18129.79
508.85	18277.24
509.03	18504.28
509.20	18597.90
509.38	18501.93
509.55	18623.64
509.73	18511.30
509.90	18469.17
510.08	18661.09
510.25	18789.82
510.42	18750.03
510.60	19000.47
510.77	18951.32
510.95	19133.88
511.12	19066.00
511.30	18923.23
511.47	18810.89
511.64	18986.43
511.82	19332.82
511.99	19351.55
512.17	19304.74
512.34	18972.38
512.51	19634.75
512.69	19527.09
512.86	19496.66
513.04	19882.85
513.21	19660.50
513.38	19719.01
513.56	19674.54
513.73	19616.03
513.90	19391.34
514.08	19627.73
514.25	19857.10
514.43	19826.68
514.60	20023.28
514.77	20133.29
514.95	20273.72
515.12	20130.95
515.29	19967.11
515.47	20086.48
515.64	20243.29
515.81	20444.58
515.99	20362.66
516.16	20622.46
516.33	20954.82
516.51	20512.46
516.68	20561.61
516.85	20669.27
517.03	20617.78
517.20	20767.57
517.37	20641.18
517.54	20725.44
517.72	20601.40
517.89	20741.83
518.06	20954.82
518.24	20943.11
518.41	20863.54
518.58	21078.86
518.75	21233.34
518.93	20917.37
519.10	21039.08
519.27	21174.83
519.45	21083.55
519.62	21507.18
519.79	21270.79
519.96	21195.89
520.14	21455.69
520.31	21357.39
520.48	21425.26
520.65	21305.90
520.83	21834.86
521.00	21561.02
521.17	21563.36
521.34	21734.21
521.52	21797.41
521.69	21736.56
521.86	22155.51
522.03	21933.16
522.20	21603.14
522.38	21928.48
522.55	22026.78
522.72	22127.42
522.89	22244.45
523.07	22508.93
523.24	22202.32
523.41	22527.66
523.58	22157.85
523.75	22281.90
523.92	22331.05
524.10	22703.20
524.27	22340.41
524.44	22780.43
524.61	22698.52
524.78	22869.37
524.96	22977.04
525.13	22642.34
525.30	22352.12
525.47	23063.64
525.64	22705.54
525.81	22874.06
525.98	23405.36
526.16	23094.07
526.33	23087.04
526.50	23288.33
526.67	23161.94
526.84	23353.87
527.01	22986.40
527.18	22801.50
527.36	23260.24
527.53	23461.53
527.70	23300.03
527.87	23726.01
528.04	23365.57
528.21	23606.64
528.38	23466.21
528.55	23601.96
528.72	23723.67
528.89	23903.89
529.07	23873.46
529.24	23662.82
529.41	23836.02
529.58	23637.07
529.75	23473.23
529.92	23903.89
530.09	23700.26
530.26	23709.63
530.43	24020.92
530.60	23803.25
530.77	23805.59
530.94	24063.05
531.11	24060.71
531.28	24133.26
531.46	24231.57
531.63	24081.77
531.80	24374.34
531.97	24477.32
532.14	24587.33
532.31	24493.71
532.48	24182.42
532.65	24432.85
532.82	24100.50
532.99	24308.80
533.16	24456.26
533.33	24676.27
533.50	24879.89
533.67	25254.38
533.84	24664.57
534.01	24680.95
534.18	24416.47
534.35	24563.92
534.52	24432.85
534.69	25017.99
534.86	25151.40
535.03	24748.82
535.20	24875.21
535.37	24954.79
535.54	25083.52
535.71	24699.67
535.88	24973.52
536.05	25069.48
536.22	25216.93
536.38	25399.49
536.55	25366.73
536.72	25062.46
536.89	25170.12
537.06	25408.86
537.23	25170.12
537.40	25282.47
537.57	25579.71
537.74	25509.50
537.91	26101.65
538.08	25876.96
538.25	25535.24
538.42	25631.21
538.59	25656.95
538.75	25359.70
538.92	25631.21
539.09	25568.01
539.26	25806.75
539.43	25626.53
539.60	25839.51
539.77	25736.53
539.94	25844.20
540.11	25610.14
540.28	26096.97
540.44	25979.95
540.61	25883.98
540.78	25720.15
540.95	26260.81
541.12	26075.91
541.29	25996.33
541.46	26424.65
541.62	25834.83
541.79	26253.79
541.96	25982.29
542.13	26314.64
542.30	26480.82
542.47	26274.85
542.63	26700.83
542.80	26508.91
542.97	26691.47
543.14	26534.65
543.31	26647.00
543.48	26553.38
543.64	26876.37
543.81	26850.63
543.98	26780.41
544.15	26885.73
544.32	26806.16
544.48	27288.31
544.65	26808.50
544.82	26773.39
544.99	26897.44
545.16	26909.14
545.32	26808.50
545.49	26878.71
545.66	27140.85
545.83	27356.18
546.00	27513.00
546.16	27058.93
546.33	26703.17
546.50	26654.02
546.67	27115.11
546.83	26768.71
547.00	27236.81
547.17	27377.25
547.34	27103.40
547.50	27337.46
547.67	28238.56
547.84	27590.24
548.00	27344.48
548.17	27459.16
548.34	27835.99
548.51	27871.10
548.67	27704.92
548.84	27782.16
549.01	28034.94
549.18	27421.72
549.34	27552.79
549.51	27679.18
549.68	27840.67
549.84	27765.78
550.01	27864.08
550.18	27587.89
550.34	27878.12
550.51	27882.80
550.68	28114.52
550.84	27941.32
551.01	27826.63
551.18	27604.28
551.34	27690.88
551.51	28091.11
551.68	28109.83
551.84	28322.82
552.01	27936.63
552.18	28322.82
552.34	28114.52
552.51	27885.14
552.68	27885.14
552.84	28245.58
553.01	28481.98
553.18	28173.03
553.34	28067.70
553.51	28725.39
553.67	28346.23
553.84	28240.90
554.01	28669.22
554.17	28678.58
554.34	28531.13
554.51	28421.13
554.67	28439.85
554.84	28601.35
555.00	28336.87
555.17	28886.89
555.33	28828.38
555.50	28046.64
555.67	28472.62
555.83	28989.88
556.00	28620.07
556.16	28898.59
556.33	28659.86
556.50	28896.25
556.66	29116.26
556.83	28657.52
556.99	28886.89
557.16	29060.09
557.32	29092.86
557.49	28992.22
557.65	28938.38
557.82	28732.42
557.98	28816.68
558.15	28959.45
558.32	28854.12
558.48	29174.78
558.65	28922.00
558.81	29043.71
558.98	28809.65
559.14	29230.95
559.31	29017.96
559.47	28931.36
559.64	28978.17
559.80	28961.79
559.97	29455.64
560.13	29083.50
560.30	28989.88
560.46	29179.46
560.63	28978.17
560.79	29163.08
560.96	28903.28
561.12	29064.77
561.29	29418.19
561.45	29184.14
561.61	29193.50
561.78	29294.14
561.94	29373.72
562.11	29694.38
562.27	29198.18
562.44	29392.45
562.60	28741.78
562.77	29235.63
562.93	29188.82
563.10	29818.42
563.26	29493.09
563.42	29766.93
563.59	29682.67
563.75	29694.38
563.92	29633.52
564.08	29401.81
564.24	29359.68
564.41	29350.32
564.57	29088.18
564.74	29523.52
564.90	29560.97
565.07	29495.43
565.23	29516.50
565.39	29481.39
565.56	29614.80
565.72	29591.39
565.88	29556.28
566.05	29596.07
566.21	29605.44
566.38	29680.33
566.54	29406.49
566.70	29577.35
566.87	30356.75
567.03	29776.30
567.19	29872.26
567.36	29717.78
567.52	29745.87
567.68	29930.77
567.85	29783.32
568.01	29956.52
568.17	29731.83
568.34	29989.28
568.50	30157.80
568.66	30040.78
568.83	29841.83
568.99	29724.80
569.15	29982.26
569.32	29879.28
569.48	29579.69
569.64	30080.56
569.81	29797.36
569.97	29675.65
570.13	30012.69
570.30	29661.61
570.46	30008.01
570.62	29989.28
570.78	29956.52
570.95	30122.69
571.11	29947.15
571.27	29888.64
571.43	29996.31
571.60	30204.61
571.76	29879.28
571.92	30190.57
572.09	30094.61
572.25	30321.64
572.41	30080.56
572.57	30167.16
572.74	29986.94
572.90	29900.34
573.06	30204.61
573.22	30047.80
573.38	29912.05
573.55	30368.45
573.71	30230.36
573.87	30284.19
574.03	29956.52
574.20	30106.31
574.36	30129.72
574.52	30424.62
574.68	30029.07
574.84	30412.92
575.01	30253.76
575.17	30281.85
575.33	29909.71
575.49	30015.03
575.65	30279.51
575.82	30361.43
575.98	30328.66
576.14	30316.96
576.30	30415.26
576.46	30429.30
576.62	29883.96
576.79	30312.28
576.95	30139.08
577.11	30534.63
577.27	30181.21
577.43	30569.74
577.59	30099.29
577.75	30176.53
577.92	29764.59
578.08	30223.34
578.24	29846.51
578.40	30213.98
578.56	30293.55
578.72	30501.86
578.88	30534.63
579.04	30129.72
579.21	30342.70
579.37	30419.94
579.53	30099.29
579.69	30382.49
579.85	30040.78
580.01	30347.39
580.17	30129.72
580.33	30110.99
580.49	30401.22
580.65	30459.73
580.82	30637.61
580.98	30478.46
581.14	30405.90
581.30	30342.70
581.46	30356.75
581.62	30342.70
581.78	30169.51
581.94	30419.94
582.10	30122.69
582.26	30312.28
582.42	30295.89
582.58	30614.21
582.74	30366.11
582.90	30485.48
583.06	30497.18
583.22	30593.14
583.38	30953.58
583.54	30904.43
583.70	30216.32
583.86	30410.58
584.02	30331.00
584.18	30768.68
584.34	30323.98
584.50	30625.91
584.66	30656.34
584.82	30387.18
584.98	30637.61
585.14	30258.45
585.30	30546.33
585.46	29879.28
585.62	30466.75
585.78	30382.49
585.94	30125.04
586.10	30361.43
586.26	30263.13
586.42	31182.96
586.58	30614.21
586.74	30375.47
586.90	30466.75
587.06	30204.61
587.22	30698.47
587.38	30377.81
587.54	30382.49
587.70	30705.49
587.86	30775.70
588.02	30859.96
588.18	31087.00
588.34	30483.14
588.49	30796.77
588.65	30621.23
588.81	30476.12
588.97	30993.37
589.13	30410.58
589.29	30932.52
589.45	30511.22
589.61	31131.47
589.77	30897.41
589.93	30878.69
590.08	30909.11
590.24	30888.05
590.40	30590.80
590.56	30881.03
590.72	30665.70
590.88	30396.54
591.04	30618.89
591.20	31117.42
591.35	30567.40
591.51	31189.98
591.67	30934.86
591.83	31058.91
591.99	31119.76
