SpectraSuite Data File
++++++++++++++++++++++++++++++++++++
Date: Fri Oct 18 13:58:33 GMT-05:00 2013
User: bianchi
Dark Spectrum Present: No
Reference Spectrum Present: No
Number of Sampled Component Spectra: 1
Spectrometers: USB2+H05261
Integration Time (usec): 50000 (USB2+H05261)
Spectra Averaged: 1 (USB2+H05261)
Boxcar Smoothing: 0 (USB2+H05261)
Correct for Electrical Dark: No (USB2+H05261)
Strobe/Lamp Enabled: No (USB2+H05261)
Correct for Detector Non-linearity: No (USB2+H05261)
Correct for Stray Light: No (USB2+H05261)
Number of Pixels in Processed Spectrum: 2048
>>>>>Begin Processed Spectral Data<<<<<
365.73	0.00
365.92	0.00
366.12	0.00
366.32	0.00
366.52	0.00
366.72	0.00
366.91	0.00
367.11	0.00
367.31	0.00
367.51	0.00
367.70	0.00
367.90	0.00
368.10	0.00
368.30	0.00
368.49	0.00
368.69	0.00
368.89	0.00
369.09	0.00
369.28	0.00
369.48	0.00
369.68	0.00
369.87	0.00
370.07	0.00
370.27	0.00
370.47	0.00
370.66	110.01
370.86	182.56
371.06	98.30
371.25	145.11
371.45	112.35
371.65	168.52
371.84	107.66
372.04	98.30
372.24	156.82
372.44	231.71
372.63	135.75
372.83	166.18
373.03	224.69
373.22	264.48
373.42	161.50
373.62	212.99
373.81	131.07
374.01	250.44
374.21	264.48
374.40	224.69
374.60	224.69
374.79	210.65
374.99	182.56
375.19	294.91
375.38	301.93
375.58	210.65
375.78	280.86
375.97	250.44
376.17	334.70
376.37	320.65
376.56	257.46
376.76	252.78
376.95	290.23
377.15	234.05
377.35	276.18
377.54	344.06
377.74	177.88
377.93	287.89
378.13	351.08
378.33	250.44
378.52	215.33
378.72	339.38
378.91	177.88
379.11	278.52
379.31	231.71
379.50	259.80
379.70	278.52
379.89	313.63
380.09	313.63
380.28	299.59
380.48	269.16
380.68	325.33
380.87	325.33
381.07	320.65
381.26	365.12
381.46	301.93
381.65	372.15
381.85	369.80
382.04	306.61
382.24	301.93
382.43	301.93
382.63	276.18
382.83	355.76
383.02	315.97
383.22	351.08
383.41	381.51
383.61	358.10
383.80	428.32
384.00	304.27
384.19	379.17
384.39	346.40
384.58	318.31
384.78	400.23
384.97	334.70
385.17	341.72
385.36	397.89
385.56	346.40
385.75	320.65
385.95	318.31
386.14	461.09
386.34	376.83
386.53	411.93
386.72	395.55
386.92	428.32
387.11	435.34
387.31	388.53
387.50	411.93
387.70	381.51
387.89	372.15
388.09	393.21
388.28	388.53
388.48	491.51
388.67	465.77
388.86	468.11
389.06	482.15
389.25	470.45
389.45	451.72
389.64	444.70
389.84	416.62
390.03	451.72
390.22	367.46
390.42	409.59
390.61	444.70
390.81	484.49
391.00	514.92
391.19	493.85
391.39	503.22
391.58	447.04
391.78	454.06
391.97	425.98
392.16	573.43
392.36	552.37
392.55	540.66
392.75	559.39
392.94	503.22
393.13	493.85
393.33	498.53
393.52	486.83
393.71	622.58
393.91	615.56
394.10	472.79
394.29	543.00
394.49	585.13
394.68	519.60
394.88	580.45
395.07	629.60
395.26	594.50
395.46	610.88
395.65	664.71
395.84	662.37
396.04	692.80
396.23	699.82
396.42	657.69
396.62	592.16
396.81	692.80
397.00	571.09
397.19	664.71
397.39	627.26
397.58	662.37
397.77	669.39
397.97	657.69
398.16	704.50
398.35	662.37
398.55	627.26
398.74	631.94
398.93	683.44
399.12	706.84
399.32	746.63
399.51	716.20
399.70	697.48
399.90	725.57
400.09	800.46
400.28	753.65
400.47	737.27
400.67	793.44
400.86	774.72
401.05	753.65
401.24	791.10
401.44	842.59
401.63	767.70
401.82	849.61
402.01	779.40
402.21	814.51
402.40	734.93
402.59	795.78
402.78	802.80
402.97	851.96
403.17	791.10
403.36	891.74
403.55	835.57
403.74	861.32
403.93	858.98
404.13	936.21
404.32	954.94
404.51	898.77
404.70	1008.77
404.89	891.74
405.09	1025.15
405.28	966.64
405.47	847.27
405.66	940.90
405.85	1104.73
406.05	945.58
406.24	882.38
406.43	1013.45
406.62	961.96
406.81	1086.01
407.00	1046.22
407.20	1029.84
407.39	1062.60
407.58	1090.69
407.77	1076.65
407.96	1048.56
408.15	1062.60
408.34	1036.86
408.54	1210.06
408.73	1034.52
408.92	1107.07
409.11	997.07
409.30	1174.95
409.49	1135.16
409.68	1153.88
409.87	1071.97
410.07	1177.29
410.26	1273.25
410.45	1172.61
410.64	1160.91
410.83	1196.01
411.02	1177.29
411.21	1219.42
411.40	1224.10
411.59	1249.85
411.78	1310.70
411.98	1247.51
412.17	1238.14
412.36	1284.95
412.55	1233.46
412.74	1313.04
412.93	1317.72
413.12	1329.42
413.31	1420.71
413.50	1427.73
413.69	1394.96
413.88	1406.66
414.07	1507.30
414.26	1397.30
414.45	1383.26
414.64	1383.26
414.83	1467.52
415.02	1511.99
415.22	1563.48
415.41	1547.09
415.60	1502.62
415.79	1458.15
415.98	1636.03
416.17	1582.20
416.36	1497.94
416.55	1551.78
416.74	1689.87
416.93	1629.01
417.12	1621.99
417.31	1736.68
417.50	1689.87
417.69	1720.29
417.88	1652.42
418.07	1795.19
418.26	1741.36
418.45	1699.23
418.64	1792.85
418.83	1736.68
419.02	1699.23
419.21	1884.13
419.39	1818.60
419.58	1865.41
419.77	1783.49
419.96	1881.79
420.15	1881.79
420.34	1820.94
420.53	1956.69
420.72	1909.88
420.91	1856.04
421.10	1966.05
421.29	1942.64
421.48	1860.73
421.67	1867.75
421.86	1865.41
422.05	2026.90
422.24	1989.46
422.43	1891.15
422.61	1973.07
422.80	1998.82
422.99	1963.71
423.18	1963.71
423.37	2054.99
423.56	2045.63
423.75	1963.71
423.94	1860.73
424.13	1830.30
424.32	1849.02
424.50	1842.00
424.69	2076.06
424.88	2003.50
425.07	1949.67
425.26	1867.75
425.45	2076.06
425.64	2076.06
425.83	2026.90
426.01	2029.24
426.20	1975.41
426.39	2097.12
426.58	2019.88
426.77	2043.29
426.96	2083.08
427.15	2040.95
427.33	2104.14
427.52	2148.61
427.71	2094.78
427.90	2113.50
428.09	2097.12
428.28	2237.55
428.46	2157.97
428.65	2232.87
428.84	2195.42
429.03	2246.91
429.22	2181.38
429.40	2275.00
429.59	2291.38
429.78	2127.55
429.97	2183.72
430.16	2263.30
430.34	2380.32
430.53	2335.85
430.72	2389.69
430.91	2356.92
431.10	2195.42
431.28	2427.14
431.47	2363.94
431.66	2263.30
431.85	2389.69
432.03	2373.30
432.22	2495.01
432.41	2408.41
432.60	2361.60
432.79	2401.39
432.97	2530.12
433.16	2438.84
433.35	2427.14
433.54	2532.46
433.72	2434.16
433.91	2520.76
434.10	2527.78
434.28	2530.12
434.47	2476.29
434.66	2586.29
434.85	2565.23
435.03	2597.99
435.22	2403.73
435.41	2733.75
435.59	2686.94
435.78	2490.33
435.97	2623.74
436.16	2579.27
436.34	2588.63
436.53	2661.19
436.72	2684.59
436.90	2637.78
437.09	2647.15
437.28	2700.98
437.46	2586.29
437.65	2705.66
437.84	2808.64
438.02	2747.79
438.21	2722.04
438.40	2775.88
438.58	2918.65
438.77	2848.43
438.96	2778.22
439.14	2839.07
439.33	2928.01
439.52	2881.20
439.70	2939.71
439.89	2899.92
440.08	3030.99
440.26	2956.10
440.45	2981.84
440.63	3000.57
440.82	3131.64
441.01	3173.77
441.19	2977.16
441.38	3019.29
441.57	3101.21
441.75	3185.47
441.94	3227.60
442.12	3190.15
442.31	3349.31
442.50	3323.56
442.68	3253.34
442.87	3283.77
443.05	3332.92
443.24	3368.03
443.43	3344.63
443.61	3377.39
443.80	3454.63
443.98	3363.35
444.17	3225.26
444.35	3342.28
444.54	3447.61
444.73	3349.31
444.91	3361.01
445.10	3372.71
445.28	3342.28
445.47	3445.27
445.65	3403.14
445.84	3452.29
446.02	3463.99
446.21	3492.08
446.39	3447.61
446.58	3396.12
446.77	3478.04
446.95	3356.33
447.14	3592.72
447.32	3471.01
447.51	3335.26
447.69	3461.65
447.88	3599.74
448.06	3492.08
448.25	3508.46
448.43	3503.78
448.62	3478.04
448.80	3459.31
448.99	3515.48
449.17	3599.74
449.36	3588.04
449.54	3688.68
449.73	3733.15
449.91	3616.13
450.10	3625.49
450.28	3662.94
450.46	3698.05
450.65	3611.45
450.83	3695.71
451.02	3798.69
451.20	3845.50
451.39	3728.47
451.57	3808.05
451.76	3775.28
451.94	3749.54
452.13	3843.16
452.31	3932.10
452.49	3761.24
452.68	3861.88
452.86	3684.00
453.05	3899.33
453.23	3927.42
453.42	3913.38
453.60	3744.86
453.78	3955.51
453.97	3782.31
454.15	3854.86
454.34	3927.42
454.52	3894.65
454.70	3852.52
454.89	3913.38
455.07	3974.23
455.26	4009.34
455.44	4025.72
455.62	4114.66
455.81	3969.55
455.99	4042.11
456.17	4198.92
456.36	4217.65
456.54	4086.58
456.73	4149.77
456.91	4329.99
457.09	4297.22
457.28	4421.27
457.46	4196.58
457.64	4404.89
457.83	4388.50
458.01	4140.41
458.19	4271.48
458.38	4299.56
458.56	4421.27
458.74	4465.74
458.93	4339.35
459.11	4395.53
459.29	4341.69
459.48	4514.89
459.66	4475.10
459.84	4505.53
460.03	4456.38
460.21	4498.51
460.39	4463.40
460.57	4376.80
460.76	4472.76
460.94	4477.44
461.12	4554.68
461.31	4645.96
461.49	4503.19
461.67	4580.43
461.85	4674.05
462.04	4652.98
462.22	4713.84
462.40	4777.03
462.59	4664.69
462.77	4662.35
462.95	4629.58
463.13	4542.98
463.32	4821.50
463.50	4734.90
463.68	4812.14
463.86	4671.71
464.05	4840.23
464.23	4685.75
464.41	4779.37
464.59	4706.82
464.78	4884.70
464.96	4744.27
465.14	4896.40
465.32	4945.55
465.50	4842.57
465.69	4912.78
465.87	4833.21
466.05	5064.92
466.23	4870.65
466.41	5100.03
466.60	5132.79
466.78	4940.87
466.96	4837.89
467.14	5020.45
467.32	5137.48
467.51	4994.70
467.69	5001.72
467.87	4975.98
468.05	5111.73
468.23	5081.30
468.41	5004.07
468.60	5371.53
468.78	5298.97
468.96	5083.64
469.14	5252.16
469.32	5338.76
469.50	5167.90
469.69	5322.38
469.87	5245.14
470.05	5327.06
470.23	5521.32
470.41	5387.91
470.59	5439.40
470.77	5427.70
470.95	5298.97
471.14	5502.60
471.32	5425.36
471.50	5558.77
471.68	5668.78
471.86	5497.92
472.04	5657.07
472.22	5687.50
472.40	5514.30
472.58	5865.38
472.77	5577.50
472.95	5792.83
473.13	5937.94
473.31	5879.43
473.49	5717.93
473.67	5923.90
473.85	5682.82
474.03	6026.88
474.21	5781.12
474.39	5970.71
474.57	6061.99
474.75	5989.43
474.93	6143.91
475.12	6183.70
475.30	6120.50
475.48	6008.16
475.66	6083.05
475.84	6230.51
476.02	6291.36
476.20	6352.21
476.38	6656.48
476.56	6581.59
476.74	6211.78
476.92	6445.84
477.10	6415.41
477.28	6696.27
477.46	6520.73
477.64	6588.61
477.82	6619.04
478.00	6712.66
478.18	6860.11
478.36	6890.54
478.54	6935.01
478.72	7063.74
478.90	7012.24
479.08	7002.88
479.26	7150.34
479.44	7239.28
479.62	7321.20
479.80	7246.30
479.98	7506.10
480.16	7386.73
480.34	7311.83
480.52	7449.93
480.70	7676.96
480.88	7501.42
481.06	7550.57
481.24	7676.96
481.41	7740.15
481.59	7824.41
481.77	7889.95
481.95	8119.32
482.13	8023.36
482.31	7882.92
482.49	8325.29
482.67	8182.51
482.85	8346.35
483.03	8503.17
483.21	8386.14
483.39	8528.91
483.57	8650.62
483.74	8650.62
483.92	8648.28
484.10	8699.77
484.28	8828.50
484.46	8961.91
484.64	8990.00
484.82	8964.25
485.00	9219.37
485.18	9170.22
485.35	9458.10
485.53	9121.07
485.71	9511.94
485.89	9547.05
486.07	9504.92
486.25	9760.03
486.43	9540.02
486.61	9479.17
486.78	9886.42
486.96	9708.54
487.14	10104.09
487.32	10024.51
487.50	10153.24
487.68	10080.69
487.85	10242.18
488.03	10377.94
488.21	10462.19
488.39	10586.24
488.57	10562.84
488.75	10476.24
488.92	10829.66
489.10	11021.58
489.28	10824.98
489.46	10764.12
489.64	11035.63
489.81	11061.37
489.99	11276.70
490.17	11311.81
490.35	11222.87
490.53	11569.27
490.70	11489.69
490.88	11543.52
491.06	11854.81
491.24	11391.39
491.41	11740.13
491.59	11866.52
491.77	12088.87
491.95	12051.42
492.13	11974.18
492.30	12126.32
492.48	12276.11
492.66	12329.94
492.84	12332.28
493.01	12273.77
493.19	12243.34
493.37	12549.95
493.54	12774.64
493.72	12730.17
493.90	12727.83
494.08	12690.38
494.25	13053.17
494.43	13202.96
494.61	13050.83
494.79	13060.19
494.96	13411.27
495.14	13268.50
495.32	13444.04
495.49	13097.64
495.67	13579.79
495.85	13570.43
496.02	14104.07
496.20	13858.31
496.38	13851.29
496.55	13825.54
496.73	14178.97
496.91	14160.24
497.09	13837.25
497.26	14111.09
497.44	14281.95
497.62	14391.95
497.79	14303.01
497.97	14387.27
498.14	14623.67
498.32	14670.48
498.50	14558.13
498.67	14920.92
498.85	14927.94
499.03	14778.14
499.20	14843.68
499.38	14846.02
499.56	15068.37
499.73	15201.78
499.91	15033.26
500.08	15211.14
500.26	15199.44
500.44	15169.01
500.61	15353.91
500.79	15211.14
500.97	15494.35
501.14	15747.12
501.32	15606.69
501.49	15784.57
501.67	15644.14
501.84	15583.29
502.02	15733.08
502.20	16067.78
502.37	16032.67
502.55	15915.64
502.72	16074.80
502.90	15976.50
503.07	15850.11
503.25	16175.44
503.43	16453.97
503.60	16306.51
503.78	16421.20
503.95	16343.96
504.13	16388.43
504.30	16538.23
504.48	16285.45
504.65	16615.46
504.83	16489.07
505.01	16758.24
505.18	17039.10
505.36	16996.97
505.53	16697.38
505.71	16985.27
505.88	17085.91
506.06	16641.21
506.23	16896.33
506.41	17191.23
506.58	17317.62
506.76	17495.50
506.93	17530.61
507.11	17249.75
507.28	17521.25
507.46	17301.24
507.63	17734.24
507.81	17692.11
507.98	17479.12
508.16	17549.34
508.33	17680.41
508.50	17797.43
508.68	17905.10
508.85	18090.00
509.03	17989.36
509.20	17921.48
509.38	18349.80
509.55	18438.74
509.73	17994.04
509.90	18403.63
510.08	18298.31
510.25	18036.17
510.42	18017.44
510.60	18487.89
510.77	18405.97
510.95	18764.07
511.12	18391.93
511.30	18586.19
511.47	18551.09
511.64	18698.54
511.82	19061.32
511.99	18977.06
512.17	18937.27
512.34	19061.32
512.51	18766.42
512.69	19180.69
512.86	19073.03
513.04	19150.26
513.21	19178.35
513.38	19241.54
513.56	19257.93
513.73	19176.01
513.90	19157.28
514.08	19250.91
514.25	19440.49
514.43	19859.45
514.60	19871.15
514.77	19459.21
514.95	19601.99
515.12	19538.79
515.29	19798.59
515.47	19714.33
515.64	19810.29
515.81	19726.04
515.99	19793.91
516.16	20196.48
516.33	19978.81
516.51	20367.34
516.68	19995.20
516.85	20301.81
517.03	19917.96
517.20	20247.97
517.37	20472.67
517.54	20549.90
517.72	20568.63
517.89	20592.03
518.06	20322.87
518.24	20533.52
518.41	20357.98
518.58	20217.55
518.75	20496.07
518.93	20482.03
519.10	20716.08
519.27	20802.68
519.45	20919.71
519.62	20917.37
519.79	21160.78
519.96	20945.45
520.14	21120.99
520.31	20943.11
520.48	21343.35
520.65	20875.24
520.83	21249.72
521.00	21319.94
521.17	21088.23
521.34	21118.65
521.52	21284.83
521.69	21305.90
521.86	21525.91
522.03	21825.50
522.20	21579.74
522.38	21729.53
522.55	21305.90
522.72	21654.64
522.89	22012.74
523.07	22043.17
523.24	21963.59
523.41	22043.17
523.58	21839.54
523.75	22089.98
523.92	22132.11
524.10	22101.68
524.27	22043.17
524.44	22125.08
524.61	22670.43
524.78	22054.87
524.96	22321.69
525.13	22134.45
525.30	22349.78
525.47	21984.65
525.64	22490.21
525.81	22443.40
525.98	22740.64
526.16	22443.40
526.33	22207.00
526.50	22881.08
526.67	22459.78
526.84	22314.67
527.01	22508.93
527.18	22937.25
527.36	22902.14
527.53	22867.03
527.70	23370.25
527.87	22970.02
528.04	22970.02
528.21	22897.46
528.38	23023.85
528.55	23161.94
528.72	23234.50
528.89	23356.21
529.07	23180.67
529.24	23131.51
529.41	23494.30
529.58	23391.31
529.75	23421.74
529.92	23129.17
530.09	23262.58
530.26	23302.37
530.43	23452.17
530.60	23421.74
530.77	23108.11
530.94	23463.87
531.11	23569.19
531.28	23847.72
531.46	23805.59
531.63	23782.18
531.80	23826.65
531.97	23608.98
532.14	24142.63
532.31	24116.88
532.48	23896.87
532.65	23831.33
532.82	23637.07
532.99	24051.34
533.16	24182.42
533.33	24297.10
533.50	24163.69
533.67	24325.19
533.84	23824.31
534.01	24056.03
534.18	23908.57
534.35	24503.07
534.52	24116.88
534.69	24788.61
534.86	24498.39
535.03	24486.68
535.20	24603.71
535.37	24411.79
535.54	24753.51
535.71	24439.87
535.88	24271.36
536.05	24577.97
536.22	24713.72
536.38	25062.46
536.55	24503.07
536.72	24833.08
536.89	24727.76
537.06	24659.88
537.23	25078.84
537.40	24638.82
537.57	24765.21
537.74	24498.39
537.91	25191.19
538.08	25263.74
538.25	25022.67
538.42	24807.34
538.59	25362.04
538.75	25186.50
538.92	25163.10
539.09	25495.46
539.26	25130.33
539.43	25366.73
539.60	25336.30
539.77	25392.47
539.94	25326.94
540.11	25137.35
540.28	25373.75
540.44	25130.33
540.61	25268.42
540.78	25301.19
540.95	25462.69
541.12	25371.41
541.29	25474.39
541.46	25509.50
541.62	25256.72
541.79	25717.81
541.96	25242.68
542.13	25312.89
542.30	25539.93
542.47	25696.74
542.63	25832.49
542.80	26017.40
542.97	26059.52
543.14	26012.71
543.31	26148.46
543.48	25851.22
543.64	26181.23
543.81	26106.34
543.98	26209.32
544.15	26106.34
544.32	26316.98
544.48	26408.26
544.65	26562.74
544.82	26448.05
544.99	26092.29
545.16	26363.79
545.32	26326.35
545.49	26501.89
545.66	26326.35
545.83	26377.84
546.00	26920.84
546.16	26544.02
546.33	26295.92
546.50	26061.87
546.67	26759.34
546.83	26319.32
547.00	26623.59
547.17	26445.71
547.34	26588.49
547.50	27044.89
547.67	26834.24
547.84	26679.77
548.00	26876.37
548.17	27070.64
548.34	26513.59
548.51	26988.72
548.67	26991.06
548.84	26717.22
549.01	26628.27
549.18	27215.75
549.34	26890.41
549.51	26918.50
549.68	27014.46
549.84	26850.63
550.01	27143.19
550.18	27065.96
550.34	27119.79
550.51	27295.33
550.68	26895.10
550.84	27281.28
551.01	27168.94
551.18	27295.33
551.34	27042.55
551.51	27438.10
551.68	27625.34
551.84	27147.87
552.01	27269.58
552.18	27679.18
552.34	27356.18
552.51	27564.49
552.68	27681.52
552.84	27625.34
553.01	27374.91
553.18	27285.97
553.34	27618.32
553.51	27665.13
553.67	27620.66
553.84	27835.99
554.01	27674.49
554.17	27248.52
554.34	27924.93
554.51	27658.11
554.67	27623.00
554.84	27955.36
555.00	27559.81
555.17	27587.89
555.33	27887.48
555.50	27625.34
555.67	27768.12
555.83	28105.15
556.00	27985.79
556.16	28233.88
556.33	27644.07
556.50	27999.83
556.66	28219.84
556.83	28126.22
556.99	28290.06
557.16	28217.50
557.32	28198.77
557.49	28416.44
557.65	28168.35
557.82	27997.49
557.98	28147.28
558.15	28161.33
558.32	28168.35
558.48	28123.88
558.65	28102.81
558.81	28304.10
558.98	28137.92
559.14	28498.36
559.31	27997.49
559.47	28158.99
559.64	28591.98
559.80	28439.85
559.97	28491.34
560.13	28250.27
560.30	28671.56
560.46	28503.04
560.63	28606.03
560.79	28311.12
560.96	28496.02
561.12	28514.75
561.29	28718.37
561.45	28559.22
561.61	28556.88
561.78	28521.77
561.94	28903.28
562.11	28809.65
562.27	28779.23
562.44	28954.77
562.60	28959.45
562.77	28767.52
562.93	28603.69
563.10	28772.21
563.26	28699.65
563.42	28833.06
563.59	28549.85
563.75	28826.04
563.92	28393.04
564.08	28547.51
564.24	28261.97
564.41	28751.14
564.57	28966.47
564.74	29104.56
564.90	28989.88
565.07	28772.21
565.23	28849.44
565.39	28938.38
565.56	29083.50
565.72	28683.27
565.88	28774.55
566.05	28521.77
566.21	28797.95
566.38	28615.39
566.54	29069.45
566.70	28978.17
566.87	29090.52
567.03	28563.90
567.19	29244.99
567.36	28999.24
567.52	29200.52
567.68	29134.99
567.85	28779.23
568.01	29116.26
568.17	28795.61
568.34	29200.52
568.50	29158.39
568.66	29083.50
568.83	29378.40
568.99	29294.14
569.15	29277.76
569.32	29259.04
569.48	29095.20
569.64	29214.57
569.81	29280.10
569.97	29233.29
570.13	29287.12
570.30	28870.51
570.46	29259.04
570.62	28907.96
570.78	28804.97
570.95	29099.88
571.11	29406.49
571.27	28765.18
571.43	28954.77
571.60	29486.07
571.76	29125.63
571.92	29490.75
572.09	29612.46
572.25	29111.58
572.41	29390.11
572.57	29076.48
572.74	29432.24
572.90	29001.58
573.06	29053.07
573.22	29156.05
573.38	29486.07
573.55	29088.18
573.71	29074.13
573.87	29429.90
574.03	29259.04
574.20	29448.62
574.36	29420.53
574.52	29570.33
574.68	29277.76
574.84	29153.71
575.01	29490.75
575.17	29507.13
575.33	28910.30
575.49	29085.84
575.65	29436.92
575.82	29502.45
575.98	29275.42
576.14	29413.51
576.30	29495.43
576.46	29214.57
576.62	29380.74
576.79	29551.60
576.95	29142.01
577.11	29457.98
577.27	29846.51
577.43	29322.23
577.59	29315.21
577.75	29539.90
577.92	29149.03
578.08	29118.60
578.24	29048.39
578.40	29006.26
578.56	29553.94
578.72	29280.10
578.88	29795.02
579.04	29802.04
579.21	29345.64
579.37	29413.51
579.53	29481.39
579.69	29392.45
579.85	29270.74
580.01	29289.46
580.17	29244.99
580.33	28952.43
580.49	29172.44
580.65	29546.92
580.82	29549.26
580.98	29596.07
581.14	29355.00
581.30	29656.93
581.46	29298.83
581.62	29394.79
581.78	29125.63
581.94	29610.12
582.10	29268.40
582.26	29443.94
582.42	29668.63
582.58	29376.06
582.74	29872.26
582.90	29607.78
583.06	29853.53
583.22	29811.40
583.38	29378.40
583.54	29249.67
583.70	29563.31
583.86	29420.53
584.02	29570.33
584.18	30178.87
584.34	29666.29
584.50	29624.16
584.66	29621.82
584.82	29411.17
584.98	29635.86
585.14	29734.17
585.30	29495.43
585.46	29570.33
585.62	29383.09
585.78	29640.54
585.94	29528.20
586.10	29738.85
586.26	29846.51
586.42	29855.87
586.58	29813.74
586.74	29399.47
586.90	29420.53
587.06	29717.78
587.22	29338.62
587.38	29472.03
587.54	29619.48
587.70	29795.02
587.86	30022.05
588.02	30087.59
588.18	30230.36
588.34	29968.22
588.49	29525.86
588.65	29762.25
588.81	29563.31
588.97	29958.86
589.13	29261.38
589.29	29778.64
589.45	29612.46
589.61	29830.13
589.77	29905.02
589.93	29745.87
590.08	29951.84
590.24	30293.55
590.40	30143.76
590.56	29855.87
590.72	29673.31
590.88	29556.28
591.04	30096.95
591.20	30045.46
591.35	29731.83
591.51	29886.30
591.67	30258.45
591.83	30026.73
591.99	29919.07
