SpectraSuite Data File
++++++++++++++++++++++++++++++++++++
Date: Fri Oct 18 13:58:03 GMT-05:00 2013
User: bianchi
Dark Spectrum Present: No
Reference Spectrum Present: No
Number of Sampled Component Spectra: 1
Spectrometers: USB2+H05261
Integration Time (usec): 50000 (USB2+H05261)
Spectra Averaged: 1 (USB2+H05261)
Boxcar Smoothing: 0 (USB2+H05261)
Correct for Electrical Dark: No (USB2+H05261)
Strobe/Lamp Enabled: No (USB2+H05261)
Correct for Detector Non-linearity: No (USB2+H05261)
Correct for Stray Light: No (USB2+H05261)
Number of Pixels in Processed Spectrum: 2048
>>>>>Begin Processed Spectral Data<<<<<
365.73	0.00
365.92	0.00
366.12	0.00
366.32	0.00
366.52	0.00
366.72	0.00
366.91	0.00
367.11	0.00
367.31	0.00
367.51	0.00
367.70	0.00
367.90	0.00
368.10	0.00
368.30	0.00
368.49	0.00
368.69	0.00
368.89	0.00
369.09	0.00
369.28	0.00
369.48	0.00
369.68	0.00
369.87	0.00
370.07	0.00
370.27	0.00
370.47	0.00
370.66	105.32
370.86	98.30
371.06	156.82
371.25	166.18
371.45	42.13
371.65	93.62
371.84	135.75
372.04	196.60
372.24	110.01
372.44	210.65
372.63	243.42
372.83	287.89
373.03	194.26
373.22	227.03
373.42	210.65
373.62	248.10
373.81	152.13
374.01	229.37
374.21	231.71
374.40	177.88
374.60	187.24
374.79	227.03
374.99	245.76
375.19	283.20
375.38	273.84
375.58	220.01
375.78	205.97
375.97	273.84
376.17	236.39
376.37	257.46
376.56	273.84
376.76	241.08
376.95	294.91
377.15	283.20
377.35	255.12
377.54	198.95
377.74	287.89
377.93	327.68
378.13	334.70
378.33	273.84
378.52	285.55
378.72	273.84
378.91	201.29
379.11	315.97
379.31	250.44
379.50	252.78
379.70	318.31
379.89	353.42
380.09	252.78
380.28	383.85
380.48	285.55
380.68	259.80
380.87	327.68
381.07	259.80
381.26	358.10
381.46	353.42
381.65	351.08
381.85	355.76
382.04	334.70
382.24	313.63
382.43	414.27
382.63	294.91
382.83	259.80
383.02	311.29
383.22	400.23
383.41	320.65
383.61	337.04
383.80	437.68
384.00	313.63
384.19	379.17
384.39	362.78
384.58	369.80
384.78	346.40
384.97	372.15
385.17	388.53
385.36	449.38
385.56	386.19
385.75	362.78
385.95	435.34
386.14	400.23
386.34	418.96
386.53	379.17
386.72	400.23
386.92	510.24
387.11	390.87
387.31	421.30
387.50	449.38
387.70	449.38
387.89	482.15
388.09	461.09
388.28	461.09
388.48	430.66
388.67	442.36
388.86	470.45
389.06	507.90
389.25	498.53
389.45	545.34
389.64	418.96
389.84	484.49
390.03	498.53
390.22	430.66
390.42	428.32
390.61	477.47
390.81	496.19
391.00	447.04
391.19	500.87
391.39	472.79
391.58	496.19
391.78	557.05
391.97	482.15
392.16	564.07
392.36	486.83
392.55	589.82
392.75	545.34
392.94	507.90
393.13	547.69
393.33	521.94
393.52	578.11
393.71	671.73
393.91	622.58
394.10	552.37
394.29	526.62
394.49	585.13
394.68	543.00
394.88	615.56
395.07	582.79
395.26	610.88
395.46	531.30
395.65	568.75
395.84	580.45
396.04	676.41
396.23	725.57
396.42	608.54
396.62	582.79
396.81	667.05
397.00	697.48
397.19	627.26
397.39	660.03
397.58	667.05
397.77	702.16
397.97	699.82
398.16	674.07
398.35	669.39
398.55	751.31
398.74	760.67
398.93	671.73
399.12	758.33
399.32	732.59
399.51	753.65
399.70	821.53
399.90	692.80
400.09	739.61
400.28	805.14
400.47	772.38
400.67	758.33
400.86	807.48
401.05	765.36
401.24	774.72
401.44	795.78
401.63	798.12
401.82	800.46
402.01	770.04
402.21	828.55
402.40	830.89
402.59	896.43
402.78	844.93
402.97	830.89
403.17	821.53
403.36	933.87
403.55	861.32
403.74	894.08
403.93	882.38
404.13	891.74
404.32	926.85
404.51	898.77
404.70	985.37
404.89	896.43
405.09	952.60
405.28	898.77
405.47	968.98
405.66	1039.20
405.85	987.71
406.05	985.37
406.24	1071.97
406.43	999.41
406.62	1036.86
406.81	1088.35
407.00	1050.90
407.20	968.98
407.39	1027.50
407.58	990.05
407.77	994.73
407.96	1043.88
408.15	1020.47
408.34	1057.92
408.54	1025.15
408.73	1170.27
408.92	1081.33
409.11	1177.29
409.30	1116.44
409.49	1081.33
409.68	1172.61
409.87	1203.04
410.07	1146.86
410.26	1205.38
410.45	1224.10
410.64	1118.78
410.83	1179.63
411.02	1214.74
411.21	1245.16
411.40	1217.08
411.59	1259.21
411.78	1277.93
411.98	1289.64
412.17	1355.17
412.36	1331.76
412.55	1263.89
412.74	1256.87
412.93	1289.64
413.12	1320.06
413.31	1338.79
413.50	1401.98
413.69	1380.92
413.88	1533.05
414.07	1423.05
414.26	1446.45
414.45	1507.30
414.64	1401.98
414.83	1528.37
415.02	1434.75
415.22	1488.58
415.41	1533.05
415.60	1521.35
415.79	1521.35
415.98	1612.63
416.17	1516.67
416.36	1561.14
416.55	1694.55
416.74	1729.66
416.93	1671.14
417.12	1722.63
417.31	1727.32
417.50	1708.59
417.69	1816.26
417.88	1724.97
418.07	1774.13
418.26	1804.55
418.45	1842.00
418.64	1914.56
418.83	1823.28
419.02	1795.19
419.21	1783.49
419.39	1891.15
419.58	1785.83
419.77	1785.83
419.96	1966.05
420.15	1853.70
420.34	1865.41
420.53	1970.73
420.72	1865.41
420.91	2005.84
421.10	1893.49
421.29	1989.46
421.48	1867.75
421.67	1900.52
421.86	2019.88
422.05	1923.92
422.24	2054.99
422.43	2010.52
422.61	1923.92
422.80	2047.97
422.99	1980.09
423.18	2113.50
423.37	2038.61
423.56	2097.12
423.75	2115.84
423.94	2057.33
424.13	1834.98
424.32	1886.47
424.50	1968.39
424.69	2148.61
424.88	2118.18
425.07	2057.33
425.26	2120.53
425.45	2127.55
425.64	2064.35
425.83	1966.05
426.01	2087.76
426.20	2029.24
426.39	2062.01
426.58	1905.20
426.77	2073.71
426.96	2188.40
427.15	2024.56
427.33	2207.13
427.52	2132.23
427.71	2214.15
427.90	2139.25
428.09	2186.06
428.28	2172.02
428.46	2284.36
428.65	2335.85
428.84	2349.90
429.03	2303.09
429.22	2150.95
429.40	2214.15
429.59	2179.04
429.78	2136.91
429.97	2277.34
430.16	2183.72
430.34	2286.70
430.53	2401.39
430.72	2532.46
430.91	2202.44
431.10	2073.71
431.28	2291.38
431.47	2434.16
431.66	2345.22
431.85	2286.70
432.03	2466.92
432.22	2349.90
432.41	2438.84
432.60	2434.16
432.79	2530.12
432.97	2410.75
433.16	2385.01
433.35	2495.01
433.54	2457.56
433.72	2527.78
433.91	2574.59
434.10	2424.80
434.28	2572.25
434.47	2576.93
434.66	2546.50
434.85	2558.21
435.03	2656.51
435.22	2658.85
435.41	2682.25
435.59	2616.72
435.78	2661.19
435.97	2619.06
436.16	2773.53
436.34	2668.21
436.53	2630.76
436.72	2810.98
436.90	2703.32
437.09	2829.71
437.28	2621.40
437.46	2710.34
437.65	2658.85
437.84	2733.75
438.02	2818.00
438.21	2792.26
438.40	2712.68
438.58	2979.50
438.77	2995.89
438.96	2864.82
439.14	2899.92
439.33	2923.33
439.52	3016.95
439.70	3061.42
439.89	3063.76
440.08	2946.73
440.26	3187.81
440.45	3187.81
440.63	3112.91
440.82	3199.51
441.01	3141.00
441.19	3314.20
441.38	3208.87
441.57	3246.32
441.75	3307.18
441.94	3300.16
442.12	3314.20
442.31	3290.79
442.50	3311.86
442.68	3330.58
442.87	3391.44
443.05	3410.16
443.24	3433.57
443.43	3410.16
443.61	3393.78
443.80	3386.76
443.98	3281.43
444.17	3218.24
444.35	3361.01
444.54	3466.33
444.73	3447.61
444.91	3531.87
445.10	3534.21
445.28	3421.86
445.47	3435.91
445.65	3496.76
445.84	3361.01
446.02	3609.11
446.21	3424.20
446.39	3520.17
446.58	3482.72
446.77	3616.13
446.95	3550.59
447.14	3398.46
447.32	3552.93
447.51	3606.77
447.69	3555.27
447.88	3475.70
448.06	3510.80
448.25	3557.61
448.43	3590.38
448.62	3517.83
448.80	3550.59
448.99	3653.58
449.17	3627.83
449.36	3536.55
449.54	3599.74
449.73	3733.15
449.91	3693.37
450.10	3702.73
450.28	3772.94
450.46	3669.96
450.65	3707.41
450.83	3756.56
451.02	3758.90
451.20	3927.42
451.39	3751.88
451.57	3716.77
451.76	3815.07
451.94	3852.52
452.13	4063.17
452.31	3885.29
452.49	3779.97
452.68	3882.95
452.86	3801.03
453.05	3913.38
453.23	3969.55
453.42	3812.73
453.60	3932.10
453.78	3955.51
453.97	3857.20
454.15	4086.58
454.34	3946.14
454.52	4016.36
454.70	4086.58
454.89	3925.08
455.07	4063.17
455.26	3988.27
455.44	4138.07
455.62	4018.70
455.81	4128.70
455.99	4205.94
456.17	4245.73
456.36	4325.31
456.54	4320.63
456.73	4327.65
456.91	4334.67
457.09	4397.87
457.28	4416.59
457.46	4250.41
457.64	4404.89
457.83	4418.93
458.01	4404.89
458.19	4533.62
458.38	4437.66
458.56	4362.76
458.74	4353.40
458.93	4432.97
459.11	4423.61
459.29	4519.57
459.48	4514.89
459.66	4435.32
459.84	4627.24
460.03	4582.77
460.21	4507.87
460.39	4475.10
460.57	4641.28
460.76	4744.27
460.94	4727.88
461.12	4617.88
461.31	4580.43
461.49	4564.04
461.67	4690.43
461.85	4856.61
462.04	4772.35
462.22	5064.92
462.40	4779.37
462.59	4837.89
462.77	4660.01
462.95	4755.97
463.13	4802.78
463.32	4961.94
463.50	4821.50
463.68	4957.25
463.86	4819.16
464.05	4828.53
464.23	4898.74
464.41	4936.19
464.59	4807.46
464.78	5020.45
464.96	4788.74
465.14	4896.40
465.32	4978.32
465.50	5125.77
465.69	5057.90
465.87	5135.14
466.05	4887.04
466.23	5093.01
466.41	4940.87
466.60	5078.96
466.78	5055.56
466.96	5151.52
467.14	4968.96
467.32	5284.93
467.51	5210.03
467.69	5088.32
467.87	5177.26
468.05	5308.34
468.23	5090.67
468.41	5116.41
468.60	5252.16
468.78	5350.46
468.96	5128.11
469.14	5240.46
469.32	5430.04
469.50	5273.23
469.69	5376.21
469.87	5373.87
470.05	5434.72
470.23	5383.23
470.41	5568.13
470.59	5493.24
470.77	5467.49
470.95	5526.00
471.14	5603.24
471.32	5483.88
471.50	5570.48
471.68	5694.52
471.86	5771.76
472.04	5753.04
472.22	5813.89
472.40	5771.76
472.58	5710.91
472.77	5638.35
472.95	5928.58
473.13	6031.56
473.31	5753.04
473.49	5900.49
473.67	5832.62
473.85	5895.81
474.03	6083.05
474.21	5909.85
474.39	6104.12
474.57	6040.92
474.75	6085.39
474.93	6223.48
475.12	6258.59
475.30	6129.86
475.48	6265.61
475.66	6106.46
475.84	6366.26
476.02	6415.41
476.20	6427.11
476.38	6562.86
476.56	6630.74
476.74	6551.16
476.92	6506.69
477.10	6607.33
477.28	6511.37
477.46	6588.61
477.64	6707.98
477.82	7005.22
478.00	6918.62
478.18	6906.92
478.36	6965.43
478.54	6939.69
478.72	7073.10
478.90	7197.15
479.08	7009.90
479.26	7311.83
479.44	7337.58
479.62	7351.62
479.80	7438.22
479.98	7632.49
480.16	7604.40
480.34	7482.69
480.52	7728.45
480.70	7613.76
480.88	7772.92
481.06	7789.30
481.24	7789.30
481.41	7749.51
481.59	7981.23
481.77	7925.05
481.95	8140.38
482.13	8217.62
482.31	8285.50
482.49	8128.68
482.67	8451.67
482.85	8425.93
483.03	8348.69
483.21	8575.72
483.39	8659.98
483.57	8538.27
483.74	8620.19
483.92	8737.22
484.10	8809.78
484.28	8713.81
484.46	9359.80
484.64	9170.22
484.82	9186.60
485.00	9252.14
485.18	9266.18
485.35	9245.12
485.53	9392.57
485.71	9563.43
485.89	9621.94
486.07	9430.02
486.25	9823.23
486.43	9841.95
486.61	9877.06
486.78	9891.10
486.96	9956.64
487.14	10237.50
487.32	10193.03
487.50	10289.00
487.68	10420.06
487.85	10363.89
488.03	10525.39
488.21	10679.86
488.39	10621.35
488.57	10686.89
488.75	10572.20
488.92	10939.66
489.10	11140.95
489.28	10979.45
489.46	11157.33
489.64	11082.44
489.81	11440.54
489.99	11410.11
490.17	11477.99
490.35	11410.11
490.53	11658.21
490.70	11712.04
490.88	11726.08
491.06	11864.18
491.24	11702.68
491.41	11962.48
491.59	12229.30
491.77	11800.98
491.95	12376.75
492.13	12159.08
492.30	12329.94
492.48	12276.11
492.66	12510.16
492.84	12411.86
493.01	12681.02
493.19	12573.36
493.37	12910.40
493.54	12964.23
493.72	12971.25
493.90	13123.38
494.08	12776.98
494.25	13195.94
494.43	13294.24
494.61	13319.99
494.79	13214.66
494.96	13486.17
495.14	13516.59
495.32	13727.24
495.49	13525.96
495.67	13647.66
495.85	13982.36
496.02	14083.00
496.20	14005.77
496.38	14045.55
496.55	14113.43
496.73	14291.31
496.91	14181.31
497.09	14284.29
497.26	14679.84
497.44	14764.10
497.62	14354.51
497.79	14764.10
497.97	14677.50
498.14	14682.18
498.32	14766.44
498.50	15220.50
498.67	15087.09
498.85	15400.72
499.03	15309.44
499.20	15082.41
499.38	15403.07
499.56	15239.23
499.73	15389.02
499.91	15550.52
500.08	15447.54
500.26	15379.66
500.44	15517.75
500.61	15719.04
500.79	15606.69
500.97	15833.72
501.14	15894.58
501.32	16060.76
501.49	15917.98
501.67	15758.83
501.84	16123.95
502.02	16245.66
502.20	16145.02
502.37	16205.87
502.55	16402.47
502.72	16400.13
502.90	16734.83
503.07	16215.23
503.25	16365.03
503.43	16479.71
503.60	16676.32
503.78	16830.79
503.95	16437.58
504.13	16496.10
504.30	16587.38
504.48	16671.64
504.65	16861.22
504.83	17060.16
505.01	17062.51
505.18	17191.23
505.36	17467.42
505.53	16994.63
505.71	16982.93
505.88	17198.26
506.06	17132.72
506.23	17439.33
506.41	17818.50
506.58	17668.70
506.76	17813.82
506.93	17490.82
507.11	17530.61
507.28	17795.09
507.46	17806.80
507.63	17858.29
507.81	17972.97
507.98	17771.69
508.16	17872.33
508.33	17734.24
508.50	17830.20
508.68	18012.76
508.85	18391.93
509.03	18043.19
509.20	18223.41
509.38	18515.98
509.55	18459.81
509.73	18754.71
509.90	18438.74
510.08	18469.17
510.25	18721.95
510.42	18590.88
510.60	18623.64
510.77	18974.72
510.95	19164.31
511.12	18438.74
511.30	18874.08
511.47	18897.49
511.64	18890.46
511.82	19384.32
511.99	19023.87
512.17	19393.68
512.34	19255.59
512.51	19232.18
512.69	19192.39
512.86	19110.47
513.04	19508.37
513.21	19604.33
513.38	19616.03
513.56	19606.67
513.73	19295.38
513.90	19400.70
514.08	19424.11
514.25	20032.65
514.43	19681.56
514.60	20231.59
514.77	19756.46
514.95	20217.55
515.12	19943.70
515.29	19995.20
515.47	20191.80
515.64	20065.41
515.81	20170.74
515.99	20144.99
516.16	20428.20
516.33	20498.41
516.51	20718.42
516.68	20486.71
516.85	20460.96
517.03	20615.44
517.20	20657.57
517.37	20692.68
517.54	20730.12
517.72	20790.98
517.89	20664.59
518.06	20727.78
518.24	20870.56
518.41	20840.13
518.58	20915.03
518.75	20760.55
518.93	21212.28
519.10	21282.49
519.27	20994.61
519.45	21057.80
519.62	21324.62
519.79	21240.36
519.96	21565.70
520.14	21745.92
520.31	21586.76
520.48	21551.65
520.65	21406.54
520.83	21497.82
521.00	21553.99
521.17	21528.25
521.34	21720.17
521.52	21776.34
521.69	21757.62
521.86	21979.97
522.03	22354.46
522.20	22082.95
522.38	22022.10
522.55	22024.44
522.72	22127.42
522.89	22405.95
523.07	22455.10
523.24	22534.68
523.41	22473.82
523.58	22354.46
523.75	22382.54
523.92	22111.04
524.10	22291.26
524.27	22581.49
524.44	22651.70
524.61	22757.03
524.78	22623.62
524.96	22541.70
525.13	22923.21
525.30	22675.11
525.47	22944.27
525.64	22897.46
525.81	22703.20
525.98	23136.20
526.16	22794.48
526.33	23161.94
526.50	23183.01
526.67	22560.42
526.84	23199.39
527.01	22831.93
527.18	23103.43
527.36	23276.63
527.53	23381.95
527.70	23639.41
527.87	23590.26
528.04	23548.13
528.21	23374.93
528.38	23590.26
528.55	23367.91
528.72	23360.89
528.89	23426.42
529.07	23487.28
529.24	23665.16
529.41	23747.08
529.58	23707.29
529.75	23833.68
529.92	23864.10
530.09	23843.04
530.26	23882.83
530.43	24060.71
530.60	23438.12
530.77	23744.73
530.94	23660.48
531.11	23782.18
531.28	23749.42
531.46	23854.74
531.63	23775.16
531.80	24144.97
531.97	24203.48
532.14	24655.20
532.31	24215.18
532.48	24381.36
532.65	24018.58
532.82	24196.46
532.99	24409.45
533.16	24451.58
533.33	24599.03
533.50	24687.97
533.67	24606.05
533.84	24486.68
534.01	24287.74
534.18	24573.28
534.35	25085.86
534.52	24603.71
534.69	25118.63
534.86	24676.27
535.03	24512.43
535.20	24362.64
535.37	25083.52
535.54	25263.74
535.71	24786.27
535.88	25008.62
536.05	24926.71
536.22	25214.59
536.38	25181.82
536.55	25406.52
536.72	25261.40
536.89	25118.63
537.06	25151.40
537.23	25216.93
537.40	25256.72
537.57	25364.39
537.74	25486.09
537.91	25755.26
538.08	25525.88
538.25	25549.29
538.42	25280.13
538.59	25745.89
538.75	25450.99
538.92	25343.32
539.09	25713.13
539.26	25553.97
539.43	25429.92
539.60	25865.26
539.77	25738.87
539.94	25872.28
540.11	26148.46
540.28	25848.88
540.44	25954.20
540.61	25865.26
540.78	25617.16
540.95	25923.77
541.12	25923.77
541.29	25979.95
541.46	25872.28
541.62	26059.52
541.79	25921.43
541.96	25933.14
542.13	25848.88
542.30	26293.58
542.47	26256.13
542.63	26347.41
542.80	26520.61
542.97	26597.85
543.14	26536.99
543.31	26600.19
543.48	26635.30
543.64	26473.80
543.81	26815.52
543.98	26916.16
544.15	27028.51
544.32	26874.03
544.48	26923.18
544.65	26749.98
544.82	26616.57
544.99	26920.84
545.16	26679.77
545.32	26731.26
545.49	26822.54
545.66	27180.64
545.83	27159.58
546.00	27164.26
546.16	27091.70
546.33	26654.02
546.50	26904.46
546.67	27328.10
546.83	26838.92
547.00	27309.37
547.17	27019.14
547.34	27014.46
547.50	27346.82
547.67	27491.93
547.84	27049.57
548.00	27199.37
548.17	27206.39
548.34	27222.77
548.51	27243.84
548.67	27562.15
548.84	27264.90
549.01	27529.38
549.18	27505.98
549.34	27498.95
549.51	27491.93
549.68	27585.55
549.84	27749.39
550.01	28004.51
550.18	27962.38
550.34	27723.65
550.51	27770.46
550.68	28081.75
550.84	27833.65
551.01	27761.09
551.18	27662.79
551.34	27819.61
551.51	28109.83
551.68	27756.41
551.84	28215.16
552.01	27894.50
552.18	28177.71
552.34	27828.97
552.51	28116.86
552.68	27859.40
552.84	28343.89
553.01	28168.35
553.18	27931.95
553.34	28233.88
553.51	28081.75
553.67	28409.42
553.84	28250.27
554.01	28105.15
554.17	28081.75
554.34	28226.86
554.51	28236.22
554.67	28510.07
554.84	28369.63
555.00	28208.14
555.17	28205.80
555.33	28175.37
555.50	28594.32
555.67	28725.39
555.83	28489.00
556.00	28716.03
556.16	28491.34
556.33	28795.61
556.50	28584.96
556.66	28713.69
556.83	28783.91
556.99	29146.69
557.16	28968.81
557.32	28994.56
557.49	29266.06
557.65	28666.88
557.82	28357.93
557.98	28360.27
558.15	28835.40
558.32	29085.84
558.48	28620.07
558.65	28723.05
558.81	29130.31
558.98	29273.08
559.14	28819.02
559.31	28926.68
559.47	28769.86
559.64	28879.87
559.80	29006.26
559.97	29198.18
560.13	29010.94
560.30	29095.20
560.46	29221.59
560.63	29046.05
560.79	29022.64
560.96	28989.88
561.12	28931.36
561.29	28929.02
561.45	29092.86
561.61	29069.45
561.78	29081.16
561.94	29139.67
562.11	29336.27
562.27	29296.49
562.44	29163.08
562.60	29090.52
562.77	28779.23
562.93	29067.11
563.10	29429.90
563.26	29558.63
563.42	29432.24
563.59	29479.05
563.75	29591.39
563.92	29502.45
564.08	29411.17
564.24	29048.39
564.41	29357.34
564.57	29205.20
564.74	29619.48
564.90	29572.67
565.07	29706.08
565.23	29553.94
565.39	29521.18
565.56	29743.53
565.72	29521.18
565.88	29392.45
566.05	29493.09
566.21	29443.94
566.38	29415.85
566.54	29701.40
566.70	29802.04
566.87	29858.21
567.03	29493.09
567.19	29940.13
567.36	29961.20
567.52	29792.68
567.68	29869.92
567.85	29390.11
568.01	29851.19
568.17	29490.75
568.34	29914.39
568.50	29834.81
568.66	29830.13
568.83	29778.64
568.99	29352.66
569.15	29813.74
569.32	29668.63
569.48	29118.60
569.64	29617.14
569.81	29511.81
569.97	29673.31
570.13	30073.54
570.30	29921.41
570.46	30052.48
570.62	29841.83
570.78	29645.23
570.95	29586.71
571.11	29689.70
571.27	29834.81
571.43	29633.52
571.60	29830.13
571.76	29776.30
571.92	30155.46
572.09	29951.84
572.25	29905.02
572.41	29855.87
572.57	30082.91
572.74	29743.53
572.90	29944.81
573.06	29584.37
573.22	29996.31
573.38	30101.63
573.55	29790.34
573.71	30092.27
573.87	29813.74
574.03	30047.80
574.20	29741.19
574.36	29865.24
574.52	30033.75
574.68	30054.82
574.84	29944.81
575.01	30101.63
575.17	29766.93
575.33	29928.43
575.49	29935.45
575.65	30260.79
575.82	29993.97
575.98	30071.20
576.14	30031.41
576.30	29895.66
576.46	29661.61
576.62	29830.13
576.79	29949.50
576.95	29942.47
577.11	30235.04
577.27	30101.63
577.43	30380.15
577.59	30410.58
577.75	30242.06
577.92	30015.03
578.08	29998.65
578.24	30022.05
578.40	30213.98
578.56	30164.82
578.72	30043.12
578.88	30202.27
579.04	30274.83
579.21	30052.48
579.37	30228.02
579.53	30085.25
579.69	29940.13
579.85	29867.58
580.01	29869.92
580.17	30110.99
580.33	30213.98
580.49	30525.27
580.65	30136.74
580.82	30272.49
580.98	30326.32
581.14	30106.31
581.30	30560.37
581.46	30298.23
581.62	30073.54
581.78	30054.82
581.94	30110.99
582.10	29993.97
582.26	30396.54
582.42	30326.32
582.58	30181.21
582.74	30562.72
582.90	30583.78
583.06	30501.86
583.22	30015.03
583.38	30218.66
583.54	30136.74
583.70	30560.37
583.86	30347.39
584.02	29837.15
584.18	30749.96
584.34	30260.79
584.50	30239.72
584.66	30185.89
584.82	30185.89
584.98	30134.40
585.14	30277.17
585.30	29907.37
585.46	30506.54
585.62	29846.51
585.78	30478.46
585.94	30335.68
586.10	30300.58
586.26	30342.70
586.42	30457.39
586.58	30480.80
586.74	30249.08
586.90	30410.58
587.06	30087.59
587.22	30391.86
587.38	30349.73
587.54	30452.71
587.70	30270.15
587.86	30492.50
588.02	30696.13
588.18	30565.06
588.34	30525.27
588.49	30211.64
588.65	30338.02
588.81	30377.81
588.97	30628.25
589.13	30309.94
589.29	30211.64
589.45	30829.54
589.61	30579.10
589.77	30761.66
589.93	30370.79
590.08	30466.75
590.24	30604.84
590.40	30675.06
590.56	30555.69
590.72	30813.15
590.88	30323.98
591.04	30359.09
591.20	30670.38
591.35	30754.64
591.51	30998.06
591.67	30939.54
591.83	31194.66
591.99	30607.19
