SpectraSuite Data File
++++++++++++++++++++++++++++++++++++
Date: Fri Oct 18 13:57:53 GMT-05:00 2013
User: bianchi
Dark Spectrum Present: No
Reference Spectrum Present: No
Number of Sampled Component Spectra: 1
Spectrometers: USB2+H05261
Integration Time (usec): 50000 (USB2+H05261)
Spectra Averaged: 1 (USB2+H05261)
Boxcar Smoothing: 0 (USB2+H05261)
Correct for Electrical Dark: No (USB2+H05261)
Strobe/Lamp Enabled: No (USB2+H05261)
Correct for Detector Non-linearity: No (USB2+H05261)
Correct for Stray Light: No (USB2+H05261)
Number of Pixels in Processed Spectrum: 2048
>>>>>Begin Processed Spectral Data<<<<<
365.73	0.00
365.92	0.00
366.12	0.00
366.32	0.00
366.52	0.00
366.72	0.00
366.91	0.00
367.11	0.00
367.31	0.00
367.51	0.00
367.70	0.00
367.90	0.00
368.10	0.00
368.30	0.00
368.49	0.00
368.69	0.00
368.89	0.00
369.09	0.00
369.28	0.00
369.48	0.00
369.68	0.00
369.87	0.00
370.07	0.00
370.27	0.00
370.47	35.11
370.66	42.13
370.86	159.16
371.06	173.20
371.25	110.01
371.45	124.05
371.65	177.88
371.84	142.77
372.04	147.45
372.24	241.08
372.44	191.92
372.63	203.63
372.83	152.13
373.03	259.80
373.22	245.76
373.42	231.71
373.62	133.41
373.81	229.37
374.01	271.50
374.21	245.76
374.40	238.73
374.60	248.10
374.79	222.35
374.99	250.44
375.19	297.25
375.38	313.63
375.58	224.69
375.78	304.27
375.97	262.14
376.17	278.52
376.37	287.89
376.56	285.55
376.76	353.42
376.95	194.26
377.15	313.63
377.35	308.95
377.54	283.20
377.74	166.18
377.93	290.23
378.13	227.03
378.33	220.01
378.52	313.63
378.72	255.12
378.91	250.44
379.11	304.27
379.31	341.72
379.50	266.82
379.70	367.46
379.89	318.31
380.09	369.80
380.28	294.91
380.48	297.25
380.68	283.20
380.87	322.99
381.07	297.25
381.26	367.46
381.46	397.89
381.65	388.53
381.85	250.44
382.04	348.74
382.24	346.40
382.43	276.18
382.63	397.89
382.83	299.59
383.02	301.93
383.22	315.97
383.41	315.97
383.61	367.46
383.80	351.08
384.00	348.74
384.19	454.06
384.39	402.57
384.58	362.78
384.78	425.98
384.97	388.53
385.17	428.32
385.36	425.98
385.56	390.87
385.75	353.42
385.95	332.36
386.14	386.19
386.34	358.10
386.53	393.21
386.72	493.85
386.92	514.92
387.11	423.64
387.31	458.74
387.50	360.44
387.70	362.78
387.89	430.66
388.09	498.53
388.28	498.53
388.48	475.13
388.67	451.72
388.86	456.40
389.06	397.89
389.25	535.98
389.45	496.19
389.64	388.53
389.84	472.79
390.03	395.55
390.22	533.64
390.42	409.59
390.61	437.68
390.81	521.94
391.00	505.56
391.19	585.13
391.39	498.53
391.58	496.19
391.78	533.64
391.97	535.98
392.16	524.28
392.36	559.39
392.55	498.53
392.75	528.96
392.94	550.03
393.13	578.11
393.33	540.66
393.52	573.43
393.71	620.24
393.91	575.77
394.10	533.64
394.29	571.09
394.49	571.09
394.68	613.22
394.88	650.67
395.07	533.64
395.26	573.43
395.46	606.20
395.65	702.16
395.84	631.94
396.04	706.84
396.23	692.80
396.42	711.52
396.62	685.78
396.81	674.07
397.00	674.07
397.19	627.26
397.39	678.76
397.58	669.39
397.77	765.36
397.97	678.76
398.16	667.05
398.35	732.59
398.55	744.29
398.74	699.82
398.93	737.27
399.12	676.41
399.32	706.84
399.51	697.48
399.70	767.70
399.90	774.72
400.09	807.48
400.28	751.31
400.47	737.27
400.67	854.30
400.86	805.14
401.05	870.68
401.24	842.59
401.44	837.91
401.63	849.61
401.82	823.87
402.01	798.12
402.21	814.51
402.40	840.25
402.59	894.08
402.78	898.77
402.97	894.08
403.17	847.27
403.36	912.81
403.55	873.02
403.74	870.68
403.93	929.19
404.13	919.83
404.32	908.13
404.51	891.74
404.70	992.39
404.89	1015.79
405.09	933.87
405.28	987.71
405.47	1048.56
405.66	929.19
405.85	959.62
406.05	987.71
406.24	1013.45
406.43	1048.56
406.62	1041.54
406.81	1142.18
407.00	1064.94
407.20	999.41
407.39	978.34
407.58	1064.94
407.77	1125.80
407.96	1097.71
408.15	1149.20
408.34	1013.45
408.54	1125.80
408.73	1228.78
408.92	1179.63
409.11	1203.04
409.30	1196.01
409.49	1086.01
409.68	1032.18
409.87	1153.88
410.07	1088.35
410.26	1181.97
410.45	1181.97
410.64	1266.23
410.83	1170.27
411.02	1275.59
411.21	1277.93
411.40	1317.72
411.59	1235.80
411.78	1387.94
411.98	1380.92
412.17	1308.36
412.36	1263.89
412.55	1263.89
412.74	1273.25
412.93	1455.81
413.12	1284.95
413.31	1406.66
413.50	1399.64
413.69	1385.60
413.88	1348.15
414.07	1369.21
414.26	1434.75
414.45	1465.18
414.64	1526.03
414.83	1380.92
415.02	1493.26
415.22	1610.29
415.41	1671.14
415.60	1621.99
415.79	1479.22
415.98	1558.80
416.17	1661.78
416.36	1584.54
416.55	1577.52
416.74	1713.27
416.93	1598.59
417.12	1696.89
417.31	1591.56
417.50	1736.68
417.69	1760.08
417.88	1792.85
418.07	1776.47
418.26	1776.47
418.45	1792.85
418.64	1804.55
418.83	1863.07
419.02	1818.60
419.21	1778.81
419.39	1944.99
419.58	1839.66
419.77	1837.32
419.96	1907.54
420.15	1900.52
420.34	1881.79
420.53	1905.20
420.72	1923.92
420.91	1902.86
421.10	1912.22
421.29	1849.02
421.48	1912.22
421.67	2033.93
421.86	1987.11
422.05	1947.33
422.24	1949.67
422.43	1996.48
422.61	1961.37
422.80	2003.50
422.99	1961.37
423.18	2057.33
423.37	2113.50
423.56	2033.93
423.75	2118.18
423.94	1973.07
424.13	1888.81
424.32	1956.69
424.50	2045.63
424.69	2083.08
424.88	2108.82
425.07	2010.52
425.26	2059.67
425.45	2111.16
425.64	2101.80
425.83	2024.56
426.01	2162.66
426.20	2052.65
426.39	2036.27
426.58	2136.91
426.77	2134.57
426.96	2120.53
427.15	2115.84
427.33	2076.06
427.52	2078.40
427.71	2113.50
427.90	2104.14
428.09	2279.68
428.28	2167.34
428.46	2209.47
428.65	2120.53
428.84	2263.30
429.03	2387.35
429.22	2214.15
429.40	2230.53
429.59	2277.34
429.78	2244.57
429.97	2146.27
430.16	2375.64
430.34	2214.15
430.53	2319.47
430.72	2345.22
430.91	2317.13
431.10	2375.64
431.28	2319.47
431.47	2436.50
431.66	2445.86
431.85	2380.32
432.03	2455.22
432.22	2436.50
432.41	2445.86
432.60	2473.95
432.79	2443.52
432.97	2605.02
433.16	2513.74
433.35	2576.93
433.54	2609.70
433.72	2670.55
433.91	2490.33
434.10	2595.65
434.28	2607.36
434.47	2562.89
434.66	2633.10
434.85	2597.99
435.03	2555.86
435.22	2698.64
435.41	2698.64
435.59	2605.02
435.78	2815.66
435.97	2649.49
436.16	2712.68
436.34	2654.17
436.53	2626.08
436.72	2717.36
436.90	2705.66
437.09	2764.17
437.28	2789.92
437.46	2815.66
437.65	2782.90
437.84	2801.62
438.02	2855.45
438.21	2832.05
438.40	2834.39
438.58	2850.77
438.77	2913.97
438.96	2935.03
439.14	2981.84
439.33	2911.63
439.52	3049.72
439.70	3112.91
439.89	3045.04
440.08	3026.31
440.26	3126.96
440.45	3117.59
440.63	3119.93
440.82	3201.85
441.01	3157.38
441.19	3295.47
441.38	3251.00
441.57	3382.07
441.75	3157.38
441.94	3353.99
442.12	3339.94
442.31	3162.06
442.50	3487.40
442.68	3487.40
442.87	3342.28
443.05	3335.26
443.24	3449.95
443.43	3396.12
443.61	3456.97
443.80	3602.08
443.98	3323.56
444.17	3344.63
444.35	3485.06
444.54	3426.54
444.73	3442.93
444.91	3396.12
445.10	3501.44
445.28	3393.78
445.47	3440.59
445.65	3550.59
445.84	3543.57
446.02	3585.70
446.21	3494.42
446.39	3424.20
446.58	3494.42
446.77	3611.45
446.95	3482.72
447.14	3536.55
447.32	3550.59
447.51	3510.80
447.69	3625.49
447.88	3698.05
448.06	3641.87
448.25	3625.49
448.43	3693.37
448.62	3562.30
448.80	3527.19
448.99	3571.66
449.17	3695.71
449.36	3676.98
449.54	3719.11
449.73	3705.07
449.91	3768.26
450.10	3735.50
450.28	3913.38
450.46	3655.92
450.65	3730.81
450.83	3847.84
451.02	3810.39
451.20	3824.44
451.39	3871.25
451.57	3974.23
451.76	3812.73
451.94	3885.29
452.13	4002.32
452.31	3911.04
452.49	3854.86
452.68	3838.48
452.86	3922.74
453.05	3995.29
453.23	4063.17
453.42	3873.59
453.60	3871.25
453.78	4194.24
453.97	3981.25
454.15	4044.45
454.34	4007.00
454.52	3988.27
454.70	3941.46
454.89	4107.64
455.07	4142.75
455.26	4234.03
455.44	4102.96
455.62	4088.92
455.81	4147.43
455.99	4044.45
456.17	4224.67
456.36	4266.80
456.54	4322.97
456.73	4287.86
456.91	4358.08
457.09	4217.65
457.28	4416.59
457.46	4348.72
457.64	4458.72
457.83	4374.46
458.01	4430.63
458.19	4435.32
458.38	4362.76
458.56	4491.49
458.74	4493.83
458.93	4578.09
459.11	4580.43
459.29	4395.53
459.48	4566.39
459.66	4615.54
459.84	4660.01
460.03	4477.44
460.21	4573.41
460.39	4662.35
460.57	4533.62
460.76	4667.03
460.94	4770.01
461.12	4636.60
461.31	4662.35
461.49	4720.86
461.67	4725.54
461.85	4737.24
462.04	4812.14
462.22	5001.72
462.40	4788.74
462.59	4814.48
462.77	4718.52
462.95	4896.40
463.13	4870.65
463.32	4990.02
463.50	4863.63
463.68	4903.42
463.86	4912.78
464.05	4894.06
464.23	5032.15
464.41	5107.05
464.59	4760.65
464.78	5195.99
464.96	4954.91
465.14	5034.49
465.32	4975.98
465.50	5200.67
465.69	5093.01
465.87	5203.01
466.05	4983.00
466.23	5167.90
466.41	5064.92
466.60	5441.75
466.78	5107.05
466.96	5029.81
467.14	5221.74
467.32	4992.36
467.51	5289.61
467.69	5273.23
467.87	5170.24
468.05	5329.40
468.23	5191.31
468.41	5313.02
468.60	5177.26
468.78	5518.98
468.96	5320.04
469.14	5348.12
469.32	5439.40
469.50	5418.34
469.69	5526.00
469.87	5680.48
470.05	5673.46
470.23	5432.38
470.41	5596.22
470.59	5561.11
470.77	5518.98
470.95	5568.13
471.14	5476.85
471.32	5650.05
471.50	5668.78
471.68	5645.37
471.86	5743.67
472.04	5687.50
472.22	5811.55
472.40	5858.36
472.58	5921.56
472.77	5795.17
472.95	5682.82
473.13	5940.28
473.31	5881.77
473.49	5959.00
473.67	6029.22
473.85	6047.94
474.03	6087.73
474.21	6108.80
474.39	6097.10
474.57	6209.44
474.75	6317.11
474.93	6125.18
475.12	6342.85
475.30	6375.62
475.48	6368.60
475.66	6244.55
475.84	6291.36
476.02	6436.47
476.20	6558.18
476.38	6410.73
476.56	6686.91
476.74	6686.91
476.92	6654.14
477.10	6626.06
477.28	6677.55
477.46	6626.06
477.64	6665.85
477.82	6752.45
478.00	6991.18
478.18	7047.35
478.36	7119.91
478.54	7302.47
478.72	7089.48
478.90	7368.01
479.08	7304.81
479.26	7304.81
479.44	7585.68
479.62	7407.80
479.80	7452.27
479.98	7702.70
480.16	7585.68
480.34	7826.75
480.52	7655.89
480.70	7815.05
480.88	7911.01
481.06	7976.55
481.24	7913.35
481.41	7894.63
481.59	8116.98
481.77	7974.21
481.95	8191.88
482.13	8245.71
482.31	8145.06
482.49	8306.56
482.67	8348.69
482.85	8681.05
483.03	8599.13
483.21	8655.30
483.39	8814.46
483.57	8699.77
483.74	8676.37
483.92	8748.92
484.10	9053.19
484.28	8964.25
484.46	9245.12
484.64	9355.12
484.82	9268.52
485.00	9226.39
485.18	9348.10
485.35	9610.24
485.53	9341.08
485.71	9572.79
485.89	9678.12
486.07	9729.61
486.25	9816.21
486.43	9823.23
486.61	10040.90
486.78	10169.63
486.96	10291.34
487.14	10122.82
487.32	10310.06
487.50	10455.17
487.68	10300.70
487.85	10679.86
488.03	10628.37
488.21	10803.91
488.39	10806.25
488.57	10712.63
488.75	10780.51
488.92	11000.52
489.10	11283.72
489.28	11073.07
489.46	11403.09
489.64	11239.25
489.81	11459.26
489.99	11571.61
490.17	11557.57
490.35	11676.93
490.53	11616.08
490.70	11793.96
490.88	11779.92
491.06	11831.41
491.24	12053.76
491.41	11946.09
491.59	12081.85
491.77	12210.57
491.95	12290.15
492.13	12421.22
492.30	12549.95
492.48	12645.91
492.66	12449.31
492.84	12575.70
493.01	12596.76
493.19	12734.85
493.37	13046.15
493.54	13046.15
493.72	13160.83
493.90	12947.84
494.08	13289.56
494.25	13497.87
494.43	13453.40
494.61	13647.66
494.79	13525.96
494.96	13661.71
495.14	13504.89
495.32	13811.50
495.49	13703.84
495.67	13874.70
495.85	13975.34
496.02	14422.38
496.20	13926.19
496.38	14265.57
496.55	13914.48
496.73	14626.01
496.91	14377.91
497.09	14387.27
497.26	14583.88
497.44	14544.09
497.62	14771.12
497.79	14913.89
497.97	14829.63
498.14	15300.08
498.32	15262.63
498.50	15007.52
498.67	15351.57
498.85	15255.61
499.03	15403.07
499.20	15477.96
499.38	15342.21
499.56	15452.22
499.73	15655.84
499.91	15733.08
500.08	15754.15
500.26	15503.71
500.44	15618.39
500.61	16016.29
500.79	16105.23
500.97	15829.04
501.14	16126.29
501.32	16119.27
501.49	16126.29
501.67	16208.21
501.84	16222.25
502.02	16191.83
502.20	16386.09
502.37	16409.50
502.55	16423.54
502.72	16706.74
502.90	16444.60
503.07	16641.21
503.25	16746.53
503.43	16589.72
503.60	17188.89
503.78	17207.62
503.95	17095.27
504.13	16879.94
504.30	17172.51
504.48	16812.07
504.65	17226.34
504.83	16917.39
505.01	17153.79
505.18	17350.39
505.36	17713.17
505.53	17348.05
505.71	17774.03
505.88	17483.80
506.06	17589.13
506.23	17783.39
506.41	17767.01
506.58	17790.41
506.76	17788.07
506.93	17996.38
507.11	17668.70
507.28	17900.42
507.46	18040.85
507.63	17937.87
507.81	18216.39
507.98	18228.09
508.16	17921.48
508.33	18239.79
508.50	18118.09
508.68	18171.92
508.85	18532.36
509.03	18335.76
509.20	18511.30
509.38	18799.18
509.55	18721.95
509.73	18649.39
509.90	18611.94
510.08	18766.42
510.25	18661.09
510.42	19112.81
510.60	19094.09
510.77	19094.09
510.95	19145.58
511.12	19105.79
511.30	19133.88
511.47	19171.33
511.64	19243.88
511.82	19431.13
511.99	19370.27
512.17	19381.98
512.34	19417.08
512.51	19578.58
512.69	19674.54
512.86	19311.76
513.04	19611.35
513.21	19906.26
513.38	20016.26
513.56	20163.72
513.73	19484.96
513.90	19674.54
514.08	19728.38
514.25	19892.21
514.43	19920.30
514.60	20126.27
514.77	20442.24
514.95	20486.71
515.12	20404.79
515.29	20250.32
515.47	20416.49
515.64	20407.13
515.81	20386.07
515.99	20713.74
516.16	20634.16
516.33	20933.75
516.51	21125.68
516.68	20929.07
516.85	20573.31
517.03	20769.91
517.20	21240.36
517.37	21120.99
517.54	21163.12
517.72	20985.24
517.89	20835.45
518.06	20943.11
518.24	21153.76
518.41	21125.68
518.58	21111.63
518.75	21329.30
518.93	21408.88
519.10	21235.68
519.27	21647.61
519.45	21458.03
519.62	21610.17
519.79	21245.04
519.96	21427.60
520.14	21738.90
520.31	21741.24
520.48	21954.22
520.65	21895.71
520.83	22057.21
521.00	21752.94
521.17	21668.68
521.34	21715.49
521.52	21642.93
521.69	22204.66
521.86	22256.15
522.03	22176.58
522.20	22504.25
522.38	22167.21
522.55	22391.91
522.72	22593.19
522.89	22321.69
523.07	22668.09
523.24	22419.99
523.41	22867.03
523.58	22735.96
523.75	22658.73
523.92	22382.54
524.10	22761.71
524.27	23234.50
524.44	23056.62
524.61	22904.48
524.78	22792.14
524.96	23129.17
525.13	23061.30
525.30	22834.27
525.47	22948.95
525.64	23042.57
525.81	22761.71
525.98	23433.44
526.16	23274.29
526.33	23101.09
526.50	23330.46
526.67	23143.22
526.84	23351.52
527.01	23225.14
527.18	23435.78
527.36	23658.14
527.53	23896.87
527.70	23789.20
527.87	23779.84
528.04	23721.33
528.21	23749.42
528.38	23489.62
528.55	23786.86
528.72	23550.47
528.89	23798.57
529.07	23744.73
529.24	24102.84
529.41	23934.32
529.58	23828.99
529.75	23990.49
529.92	24163.69
530.09	24018.58
530.26	24271.36
530.43	24208.16
530.60	24236.25
530.77	24006.87
530.94	24400.08
531.11	24236.25
531.28	24247.95
531.46	24463.28
531.63	24711.38
531.80	24601.37
531.97	24521.79
532.14	24643.50
532.31	25053.09
532.48	24379.02
532.65	24594.35
532.82	24472.64
532.99	24596.69
533.16	24797.98
533.33	24858.83
533.50	24861.17
533.67	24994.58
533.84	24816.70
534.01	24741.80
534.18	24917.34
534.35	24910.32
534.52	24877.55
534.69	25090.54
534.86	25205.23
535.03	25104.59
535.20	25429.92
535.37	25256.72
535.54	25289.49
535.71	25336.30
535.88	25408.86
536.05	25404.17
536.22	25364.39
536.38	25820.79
536.55	25455.67
536.72	25383.11
536.89	25392.47
537.06	25465.03
537.23	25450.99
537.40	25568.01
537.57	25610.14
537.74	25734.19
537.91	25930.80
538.08	25804.41
538.25	25612.48
538.42	25895.69
538.59	26001.01
538.75	25355.02
538.92	25881.64
539.09	25685.04
539.26	25919.09
539.43	25675.68
539.60	25816.11
539.77	25909.73
539.94	25799.73
540.11	26057.18
540.28	25895.69
540.44	26001.01
540.61	26094.63
540.78	26305.28
540.95	26487.84
541.12	25853.56
541.29	26284.22
541.46	26579.12
541.62	26335.71
541.79	26101.65
541.96	26017.40
542.13	26195.28
542.30	26567.42
542.47	26316.98
542.63	26602.53
542.80	26773.39
542.97	27246.18
543.14	26815.52
543.31	27061.27
543.48	26712.53
543.64	27187.66
543.81	26934.88
543.98	27133.83
544.15	27054.25
544.32	27098.72
544.48	27679.18
544.65	26962.97
544.82	27178.30
544.99	26984.04
545.16	27110.43
545.32	26965.31
545.49	27672.15
545.66	27604.28
545.83	27452.14
546.00	27803.22
546.16	27211.07
546.33	27435.76
546.50	26740.62
546.67	27339.80
546.83	27143.19
547.00	27538.74
547.17	27541.08
547.34	27470.87
547.50	27765.78
547.67	27974.08
547.84	27644.07
548.00	27854.72
548.17	27798.54
548.34	27356.18
548.51	28002.17
548.67	27737.69
548.84	28133.24
549.01	27927.27
549.18	27634.71
549.34	28222.18
549.51	27800.88
549.68	28231.54
549.84	27569.17
550.01	27981.10
550.18	27943.66
550.34	28205.80
550.51	27934.29
550.68	28379.00
550.84	28147.28
551.01	27913.23
551.18	27843.01
551.34	27688.54
551.51	27896.85
551.68	28589.64
551.84	28411.76
552.01	28238.56
552.18	28283.03
552.34	28446.87
552.51	28343.89
552.68	28250.27
552.84	28350.91
553.01	28081.75
553.18	28467.94
553.34	28374.31
553.51	28453.89
553.67	28402.40
553.84	28833.06
554.01	28821.36
554.17	28374.31
554.34	28769.86
554.51	28699.65
554.67	28645.82
554.84	28617.73
555.00	28584.96
555.17	28961.79
555.33	28716.03
555.50	28573.26
555.67	28570.92
555.83	28971.15
556.00	28751.14
556.16	29092.86
556.33	28868.17
556.50	28802.63
556.66	29165.42
556.83	28992.22
556.99	29376.06
557.16	29088.18
557.32	29191.16
557.49	29291.80
557.65	28669.22
557.82	28952.43
557.98	28924.34
558.15	28912.64
558.32	29345.64
558.48	29525.86
558.65	29778.64
558.81	29015.62
558.98	29256.70
559.14	29287.12
559.31	29233.29
559.47	29326.91
559.64	29570.33
559.80	29364.36
559.97	29755.23
560.13	29216.91
560.30	29507.13
560.46	29837.15
560.63	29645.23
560.79	29364.36
560.96	29443.94
561.12	29427.56
561.29	29312.87
561.45	29350.32
561.61	29795.02
561.78	29434.58
561.94	29289.46
562.11	30040.78
562.27	29560.97
562.44	29497.77
562.60	29502.45
562.77	29553.94
562.93	29734.17
563.10	30068.86
563.26	29687.36
563.42	29923.75
563.59	30064.18
563.75	29469.69
563.92	29984.60
564.08	29551.60
564.24	29816.08
564.41	29813.74
564.57	29565.65
564.74	29720.12
564.90	30113.33
565.07	30118.01
565.23	30143.76
565.39	29729.48
565.56	29790.34
565.72	29750.55
565.88	29956.52
566.05	29563.31
566.21	29813.74
566.38	29586.71
566.54	29626.50
566.70	30183.55
566.87	30082.91
567.03	29977.58
567.19	30361.43
567.36	30316.96
567.52	30302.92
567.68	29804.38
567.85	29710.76
568.01	30181.21
568.17	30036.09
568.34	30298.23
568.50	29858.21
568.66	30314.62
568.83	30258.45
568.99	30148.44
569.15	30258.45
569.32	30387.18
569.48	30052.48
569.64	30141.42
569.81	29949.50
569.97	30171.85
570.13	30003.33
570.30	30274.83
570.46	30410.58
570.62	30401.22
570.78	30424.62
570.95	30139.08
571.11	30190.57
571.27	30345.05
571.43	29912.05
571.60	30092.27
571.76	30073.54
571.92	30333.34
572.09	30312.28
572.25	30731.23
572.41	30265.47
572.57	30291.21
572.74	30146.10
572.90	30249.08
573.06	30237.38
573.22	30288.87
573.38	29937.79
573.55	30429.30
573.71	30991.03
573.87	30656.34
574.03	30274.83
574.20	30115.67
574.36	30302.92
574.52	30455.05
574.68	30593.14
574.84	30356.75
575.01	30373.13
575.17	30125.04
575.33	30401.22
575.49	30705.49
575.65	30794.43
575.82	30555.69
575.98	30700.81
576.14	30632.93
576.30	30703.15
576.46	30326.32
576.62	30321.64
576.79	30272.49
576.95	30323.98
577.11	30637.61
577.27	30668.04
577.43	30560.37
577.59	30567.40
577.75	30728.89
577.92	30211.64
578.08	29982.26
578.24	30845.92
578.40	30408.24
578.56	30281.85
578.72	30555.69
578.88	30614.21
579.04	30724.21
579.21	30312.28
579.37	30759.32
579.53	30679.74
579.69	30487.82
579.85	30436.33
580.01	30630.59
580.17	30380.15
580.33	30522.93
580.49	30560.37
580.65	30604.84
580.82	30607.19
580.98	30595.48
581.14	30464.41
581.30	30808.47
581.46	30618.89
581.62	30281.85
581.78	30445.69
581.94	30621.23
582.10	30410.58
582.26	30824.86
582.42	30560.37
582.58	30604.84
582.74	30586.12
582.90	30087.59
583.06	30820.17
583.22	30478.46
583.38	30504.20
583.54	30604.84
583.70	30485.48
583.86	30635.27
584.02	30562.72
584.18	30682.08
584.34	30974.65
584.50	30745.28
584.66	31077.63
584.82	30579.10
584.98	30426.96
585.14	30639.95
585.30	30167.16
585.46	30333.34
585.62	30632.93
585.78	30742.94
585.94	30850.60
586.10	30953.58
586.26	30754.64
586.42	30771.02
586.58	31161.89
586.74	30611.87
586.90	30728.89
587.06	30394.20
587.22	30876.35
587.38	30789.75
587.54	30576.76
587.70	30995.71
587.86	30911.46
588.02	31044.87
588.18	30801.45
588.34	30960.61
588.49	30808.47
588.65	30787.41
588.81	30787.41
588.97	30888.05
589.13	30649.32
589.29	30815.49
589.45	30955.93
589.61	30815.49
589.77	31145.51
589.93	31077.63
590.08	31157.21
590.24	31124.44
590.40	31517.65
590.56	31304.67
590.72	30632.93
590.88	30918.48
591.04	30668.04
591.20	31299.98
591.35	31405.31
591.51	31517.65
591.67	30799.11
591.83	31763.41
