SpectraSuite Data File
++++++++++++++++++++++++++++++++++++
Date: Fri Oct 18 13:58:11 GMT-05:00 2013
User: bianchi
Dark Spectrum Present: No
Reference Spectrum Present: No
Number of Sampled Component Spectra: 1
Spectrometers: USB2+H05261
Integration Time (usec): 50000 (USB2+H05261)
Spectra Averaged: 1 (USB2+H05261)
Boxcar Smoothing: 0 (USB2+H05261)
Correct for Electrical Dark: No (USB2+H05261)
Strobe/Lamp Enabled: No (USB2+H05261)
Correct for Detector Non-linearity: No (USB2+H05261)
Correct for Stray Light: No (USB2+H05261)
Number of Pixels in Processed Spectrum: 2048
>>>>>Begin Processed Spectral Data<<<<<
365.73	0.00
365.92	0.00
366.12	0.00
366.32	0.00
366.52	0.00
366.72	0.00
366.91	0.00
367.11	0.00
367.31	0.00
367.51	0.00
367.70	0.00
367.90	0.00
368.10	0.00
368.30	0.00
368.49	0.00
368.69	0.00
368.89	0.00
369.09	0.00
369.28	0.00
369.48	0.00
369.68	0.00
369.87	0.00
370.07	0.00
370.27	0.00
370.47	0.00
370.66	152.13
370.86	63.19
371.06	140.43
371.25	154.48
371.45	198.95
371.65	133.41
371.84	135.75
372.04	117.03
372.24	112.35
372.44	107.66
372.63	140.43
372.83	205.97
373.03	236.39
373.22	220.01
373.42	208.31
373.62	182.56
373.81	187.24
374.01	243.42
374.21	308.95
374.40	212.99
374.60	229.37
374.79	138.09
374.99	257.46
375.19	177.88
375.38	205.97
375.58	201.29
375.78	264.48
375.97	322.99
376.17	334.70
376.37	241.08
376.56	266.82
376.76	367.46
376.95	313.63
377.15	280.86
377.35	348.74
377.54	313.63
377.74	320.65
377.93	311.29
378.13	318.31
378.33	348.74
378.52	290.23
378.72	318.31
378.91	285.55
379.11	318.31
379.31	229.37
379.50	205.97
379.70	187.24
379.89	294.91
380.09	337.04
380.28	266.82
380.48	411.93
380.68	381.51
380.87	283.20
381.07	304.27
381.26	367.46
381.46	262.14
381.65	292.57
381.85	330.02
382.04	320.65
382.24	358.10
382.43	257.46
382.63	297.25
382.83	325.33
383.02	447.04
383.22	386.19
383.41	353.42
383.61	311.29
383.80	325.33
384.00	386.19
384.19	355.76
384.39	320.65
384.58	348.74
384.78	358.10
384.97	346.40
385.17	454.06
385.36	381.51
385.56	416.62
385.75	301.93
385.95	320.65
386.14	355.76
386.34	358.10
386.53	339.38
386.72	372.15
386.92	416.62
387.11	435.34
387.31	428.32
387.50	447.04
387.70	421.30
387.89	421.30
388.09	425.98
388.28	400.23
388.48	400.23
388.67	458.74
388.86	416.62
389.06	442.36
389.25	437.68
389.45	498.53
389.64	531.30
389.84	496.19
390.03	517.26
390.22	470.45
390.42	465.77
390.61	519.60
390.81	503.22
391.00	571.09
391.19	437.68
391.39	575.77
391.58	566.41
391.78	543.00
391.97	545.34
392.16	538.32
392.36	674.07
392.55	496.19
392.75	608.54
392.94	468.11
393.13	550.03
393.33	514.92
393.52	596.84
393.71	617.90
393.91	582.79
394.10	578.11
394.29	561.73
394.49	498.53
394.68	592.16
394.88	669.39
395.07	617.90
395.26	683.44
395.46	535.98
395.65	592.16
395.84	662.37
396.04	676.41
396.23	704.50
396.42	692.80
396.62	655.35
396.81	645.99
397.00	744.29
397.19	713.86
397.39	688.12
397.58	688.12
397.77	671.73
397.97	727.91
398.16	620.24
398.35	819.19
398.55	692.80
398.74	662.37
398.93	674.07
399.12	755.99
399.32	660.03
399.51	791.10
399.70	844.93
399.90	805.14
400.09	835.57
400.28	880.04
400.47	779.40
400.67	826.21
400.86	720.88
401.05	807.48
401.24	816.85
401.44	940.90
401.63	851.96
401.82	840.25
402.01	844.93
402.21	910.47
402.40	826.21
402.59	758.33
402.78	791.10
402.97	936.21
403.17	844.93
403.36	894.08
403.55	912.81
403.74	947.92
403.93	915.15
404.13	1015.79
404.32	882.38
404.51	905.79
404.70	980.68
404.89	828.55
405.09	959.62
405.28	1001.75
405.47	931.53
405.66	1053.24
405.85	990.05
406.05	833.23
406.24	1006.43
406.43	1015.79
406.62	1022.81
406.81	1064.94
407.00	1088.35
407.20	1048.56
407.39	985.37
407.58	1067.28
407.77	1130.48
407.96	1118.78
408.15	1060.26
408.34	1090.69
408.54	1095.37
408.73	1062.60
408.92	1041.54
409.11	1256.87
409.30	1160.91
409.49	1151.54
409.68	1151.54
409.87	1137.50
410.07	1203.04
410.26	1224.10
410.45	1179.63
410.64	1214.74
410.83	1146.86
411.02	1247.51
411.21	1263.89
411.40	1165.59
411.59	1188.99
411.78	1376.24
411.98	1221.76
412.17	1327.08
412.36	1308.36
412.55	1432.41
412.74	1317.72
412.93	1275.59
413.12	1373.89
413.31	1448.79
413.50	1411.34
413.69	1444.11
413.88	1441.77
414.07	1366.87
414.26	1434.75
414.45	1465.18
414.64	1528.37
414.83	1535.39
415.02	1526.03
415.22	1568.16
415.41	1607.95
415.60	1535.39
415.79	1598.59
415.98	1607.95
416.17	1579.86
416.36	1579.86
416.55	1563.48
416.74	1614.97
416.93	1727.32
417.12	1757.74
417.31	1678.16
417.50	1710.93
417.69	1783.49
417.88	1844.34
418.07	1816.26
418.26	1846.68
418.45	1760.08
418.64	1914.56
418.83	1867.75
419.02	1825.62
419.21	1764.76
419.39	1830.30
419.58	1853.70
419.77	1806.89
419.96	1877.11
420.15	1853.70
420.34	1849.02
420.53	1886.47
420.72	2008.18
420.91	1916.90
421.10	1921.58
421.29	1921.58
421.48	1842.00
421.67	2019.88
421.86	2057.33
422.05	1966.05
422.24	2038.61
422.43	2005.84
422.61	1968.39
422.80	2054.99
422.99	2050.31
423.18	2188.40
423.37	2080.74
423.56	2097.12
423.75	2012.86
423.94	1961.37
424.13	1820.94
424.32	2083.08
424.50	2228.19
424.69	2143.93
424.88	2129.89
425.07	2108.82
425.26	1980.09
425.45	2094.78
425.64	2064.35
425.83	2101.80
426.01	2209.47
426.20	2064.35
426.39	2031.58
426.58	2047.97
426.77	2024.56
426.96	2150.95
427.15	2228.19
427.33	2026.90
427.52	2155.63
427.71	2190.74
427.90	2197.76
428.09	2307.77
428.28	2267.98
428.46	2286.70
428.65	2267.98
428.84	2342.88
429.03	2389.69
429.22	2263.30
429.40	2310.11
429.59	2422.45
429.78	2176.70
429.97	2150.95
430.16	2326.49
430.34	2361.60
430.53	2385.01
430.72	2464.58
430.91	2370.96
431.10	2293.72
431.28	2422.45
431.47	2518.42
431.66	2483.31
431.85	2473.95
432.03	2565.23
432.22	2506.71
432.41	2520.76
432.60	2513.74
432.79	2370.96
432.97	2462.24
433.16	2534.80
433.35	2455.22
433.54	2548.84
433.72	2590.97
433.91	2473.95
434.10	2452.88
434.28	2609.70
434.47	2583.95
434.66	2541.82
434.85	2614.38
435.03	2647.15
435.22	2558.21
435.41	2677.57
435.59	2562.89
435.78	2565.23
435.97	2665.87
436.16	2771.19
436.34	2768.85
436.53	2700.98
436.72	2920.99
436.90	2717.36
437.09	2909.29
437.28	2649.49
437.46	2693.96
437.65	2759.49
437.84	2920.99
438.02	2808.64
438.21	2857.79
438.40	2855.45
438.58	2939.71
438.77	3068.44
438.96	2932.69
439.14	2993.55
439.33	2932.69
439.52	2974.82
439.70	3098.87
439.89	3054.40
440.08	3082.49
440.26	3014.61
440.45	3042.70
440.63	3239.30
440.82	3279.09
441.01	3246.32
441.19	3260.37
441.38	3332.92
441.57	3183.13
441.75	3361.01
441.94	3344.63
442.12	3225.26
442.31	3478.04
442.50	3375.05
442.68	3398.46
442.87	3246.32
443.05	3276.75
443.24	3421.86
443.43	3433.57
443.61	3480.38
443.80	3487.40
443.98	3431.23
444.17	3307.18
444.35	3456.97
444.54	3576.34
444.73	3550.59
444.91	3485.06
445.10	3466.33
445.28	3623.15
445.47	3562.30
445.65	3487.40
445.84	3527.19
446.02	3592.72
446.21	3574.00
446.39	3733.15
446.58	3550.59
446.77	3627.83
446.95	3346.97
447.14	3585.70
447.32	3503.78
447.51	3581.02
447.69	3571.66
447.88	3592.72
448.06	3543.57
448.25	3564.64
448.43	3515.48
448.62	3653.58
448.80	3733.15
448.99	3524.85
449.17	3660.60
449.36	3564.64
449.54	3824.44
449.73	3730.81
449.91	3754.22
450.10	3779.97
450.28	3847.84
450.46	3882.95
450.65	3784.65
450.83	3857.20
451.02	3730.81
451.20	3894.65
451.39	3819.75
451.57	3803.37
451.76	3894.65
451.94	3974.23
452.13	3927.42
452.31	3901.67
452.49	3932.10
452.68	3948.48
452.86	3911.04
453.05	3943.80
453.23	4016.36
453.42	4035.08
453.60	3948.48
453.78	3976.57
453.97	3967.21
454.15	3847.84
454.34	4077.21
454.52	4138.07
454.70	4030.40
454.89	4149.77
455.07	4079.55
455.26	4044.45
455.44	4222.33
455.62	4285.52
455.81	4163.81
455.99	4287.86
456.17	4252.75
456.36	4266.80
456.54	4325.31
456.73	4381.48
456.91	4344.03
457.09	4421.27
457.28	4447.02
457.46	4292.54
457.64	4458.72
457.83	4273.82
458.01	4353.40
458.19	4486.81
458.38	4325.31
458.56	4627.24
458.74	4545.32
458.93	4547.66
459.11	4507.87
459.29	4566.39
459.48	4578.09
459.66	4540.64
459.84	4606.17
460.03	4727.88
460.21	4732.56
460.39	4552.34
460.57	4669.37
460.76	4690.43
460.94	4751.29
461.12	4753.63
461.31	4709.16
461.49	4648.30
461.67	4678.73
461.85	4826.18
462.04	4669.37
462.22	5102.37
462.40	4898.74
462.59	4954.91
462.77	4856.61
462.95	4814.48
463.13	4924.49
463.32	4896.40
463.50	4940.87
463.68	5055.56
463.86	4828.53
464.05	4880.02
464.23	4950.23
464.41	4957.25
464.59	4856.61
464.78	5041.51
464.96	5088.32
465.14	4959.60
465.32	4891.72
465.50	5095.35
465.69	5193.65
465.87	5135.14
466.05	5078.96
466.23	5109.39
466.41	5177.26
466.60	5217.05
466.78	5071.94
466.96	4999.38
467.14	5128.11
467.32	5254.50
467.51	5296.63
467.69	5268.55
467.87	5125.77
468.05	5275.57
468.23	5195.99
468.41	5210.03
468.60	5203.01
468.78	5397.28
468.96	5401.96
469.14	5472.17
469.32	5416.00
469.50	5301.31
469.69	5495.58
469.87	5640.69
470.05	5502.60
470.23	5551.75
470.41	5554.09
470.59	5418.34
470.77	5479.19
470.95	5493.24
471.14	5652.39
471.32	5502.60
471.50	5825.59
471.68	5509.62
471.86	5652.39
472.04	5755.38
472.22	5849.00
472.40	5724.95
472.58	5982.41
472.77	5959.00
472.95	5970.71
473.13	6078.37
473.31	5977.73
473.49	5898.15
473.67	5797.51
473.85	5959.00
474.03	6125.18
474.21	6171.99
474.39	6111.14
474.57	6263.27
474.75	6317.11
474.93	6424.77
475.12	6148.59
475.30	6169.65
475.48	6141.57
475.66	6354.55
475.84	6424.77
476.02	6389.66
476.20	6401.37
476.38	6595.63
476.56	6729.04
476.74	6373.28
476.92	6644.78
477.10	6771.17
477.28	6707.98
477.46	6897.56
477.64	6860.11
477.82	6946.71
478.00	7056.72
478.18	7047.35
478.36	7304.81
478.54	7119.91
478.72	7262.68
478.90	7084.80
479.08	7250.98
479.26	7426.52
479.44	7386.73
479.62	7485.03
479.80	7723.77
479.98	7545.89
480.16	7559.93
480.34	7665.25
480.52	8025.70
480.70	7868.88
480.88	7763.56
481.06	7798.66
481.24	7826.75
481.41	8042.08
481.59	8135.70
481.77	8145.06
481.95	8021.02
482.13	8318.26
482.31	8386.14
482.49	8456.36
482.67	8500.83
482.85	8571.04
483.03	8695.09
483.21	8741.90
483.39	8702.11
483.57	8730.20
483.74	8875.31
483.92	8964.25
484.10	8851.91
484.28	9022.77
484.46	9385.55
484.64	9261.50
484.82	9207.67
485.00	9352.78
485.18	9584.49
485.35	9537.68
485.53	9493.21
485.71	9572.79
485.89	9895.78
486.07	9797.48
486.25	9893.44
486.43	10094.73
486.61	10106.43
486.78	10001.11
486.96	10024.51
487.14	10436.45
487.32	10448.15
487.50	10249.21
487.68	10300.70
487.85	10621.35
488.03	10473.90
488.21	10934.98
488.39	11035.63
488.57	10876.47
488.75	10944.34
488.92	11115.20
489.10	11084.78
489.28	11131.59
489.46	11321.17
489.64	11257.98
489.81	11466.28
489.99	11613.74
490.17	11501.39
490.35	11712.04
490.53	11747.15
490.70	11974.18
490.88	11761.19
491.06	12025.67
491.24	11943.75
491.41	12079.50
491.59	12018.65
491.77	12435.27
491.95	12437.61
492.13	12292.49
492.30	12629.53
492.48	12414.20
492.66	12535.91
492.84	12648.26
493.01	12615.49
493.19	12847.20
493.37	12938.48
493.54	12999.34
493.72	13214.66
493.90	13500.21
494.08	13153.81
494.25	13256.79
494.43	13317.65
494.61	13434.68
494.79	13743.63
494.96	13699.16
495.14	13626.60
495.32	13886.40
495.49	13568.09
495.67	13944.91
495.85	14204.71
496.02	14408.34
496.20	14185.99
496.38	14211.73
496.55	14501.96
496.73	14780.48
496.91	14410.68
497.09	14700.90
497.26	14623.67
497.44	14906.87
497.62	14946.66
497.79	15082.41
497.97	15016.88
498.14	14949.00
498.32	15171.35
498.50	15173.69
498.67	15159.65
498.85	15295.40
499.03	15304.76
499.20	15466.26
499.38	15344.55
499.56	15384.34
499.73	15957.77
499.91	15653.50
500.08	15728.40
500.26	15634.78
500.44	15836.06
500.61	15943.73
500.79	15602.01
500.97	16088.84
501.14	16079.48
501.32	16191.83
501.49	16266.72
501.67	16168.42
501.84	16276.09
502.02	16343.96
502.20	16402.47
502.37	16926.75
502.55	16482.05
502.72	16563.97
502.90	16549.93
503.07	16730.15
503.25	16711.42
503.43	16545.25
503.60	16776.96
503.78	16964.20
503.95	16723.13
504.13	16868.24
504.30	17163.15
504.48	16999.31
504.65	16868.24
504.83	17425.29
505.01	17584.44
505.18	17088.25
505.36	17488.48
505.53	17238.05
505.71	17778.71
505.88	17589.13
506.06	17647.64
506.23	17748.28
506.41	17675.73
506.58	17757.64
506.76	17432.31
506.93	17692.11
507.11	17748.28
507.28	17968.29
507.46	17984.68
507.63	17956.59
507.81	18302.99
507.98	18108.72
508.16	18211.71
508.33	18106.38
508.50	18263.20
508.68	18033.83
508.85	18679.82
509.03	18616.62
509.20	18712.58
509.38	18562.79
509.55	18824.93
509.73	18923.23
509.90	18764.07
510.08	18981.74
510.25	18427.04
510.42	18869.40
510.60	19293.04
510.77	19091.75
510.95	19199.41
511.12	19033.24
511.30	19005.15
511.47	19405.38
511.64	19159.63
511.82	19321.12
511.99	19552.84
512.17	19543.47
512.34	19522.41
512.51	19623.05
512.69	19866.47
512.86	19623.05
513.04	19840.72
513.21	19927.32
513.38	20210.53
513.56	20114.56
513.73	20114.56
513.90	19873.49
514.08	20088.82
514.25	20238.61
514.43	19981.15
514.60	20219.89
514.77	20095.84
514.95	20313.51
515.12	20233.93
515.29	20044.35
515.47	20327.55
515.64	20446.92
515.81	20753.53
515.99	20622.46
516.16	20959.50
516.33	20985.24
516.51	20959.50
516.68	20629.48
516.85	20982.90
517.03	21008.65
517.20	20875.24
517.37	21039.08
517.54	20795.66
517.72	20950.14
517.89	21090.57
518.06	20975.88
518.24	21104.61
518.41	20858.85
518.58	21446.33
518.75	21305.90
518.93	21495.48
519.10	21355.05
519.27	21706.13
519.45	21535.27
519.62	21397.18
519.79	21425.26
519.96	21502.50
520.14	21888.69
520.31	21804.43
520.48	21879.33
520.65	22085.30
520.83	21935.50
521.00	21951.88
521.17	21986.99
521.34	22036.14
521.52	22066.57
521.69	22270.20
521.86	22183.60
522.03	22532.34
522.20	22256.15
522.38	22689.15
522.55	22539.36
522.72	22324.03
522.89	22537.02
523.07	22696.17
523.24	22532.34
523.41	22712.56
523.58	22553.40
523.75	22766.39
523.92	22740.64
524.10	22909.16
524.27	22794.48
524.44	22995.76
524.61	23173.64
524.78	23168.96
524.96	22710.22
525.13	23143.22
525.30	22948.95
525.47	23178.33
525.64	22991.08
525.81	23084.70
525.98	23585.58
526.16	23185.35
526.33	23185.35
526.50	23569.19
526.67	23400.68
526.84	23566.85
527.01	23262.58
527.18	23681.54
527.36	23683.88
527.53	23597.28
527.70	24112.20
527.87	23648.77
528.04	23660.48
528.21	23782.18
528.38	23779.84
528.55	24034.96
528.72	23758.78
528.89	24102.84
529.07	24105.18
529.24	23850.06
529.41	24133.26
529.58	24318.17
529.75	24107.52
529.92	23946.02
530.09	23667.50
530.26	24416.47
530.43	24198.80
530.60	24306.46
530.77	24315.83
530.94	24313.48
531.11	24088.79
531.28	24098.16
531.46	24442.21
531.63	24287.74
531.80	24634.14
531.97	24489.03
532.14	24655.20
532.31	24671.59
532.48	24500.73
532.65	24802.66
532.82	24444.56
532.99	24737.12
533.16	24519.45
533.33	24788.61
533.50	24889.26
533.67	25097.56
533.84	24940.75
534.01	25165.44
534.18	24886.92
534.35	24947.77
534.52	24980.54
534.69	25483.75
534.86	25282.47
535.03	25635.89
535.20	25364.39
535.37	25488.43
535.54	25392.47
535.71	25446.30
535.88	25621.84
536.05	25675.68
536.22	25612.48
536.38	25530.56
536.55	25827.81
536.72	25680.36
536.89	25888.67
537.06	25465.03
537.23	25830.15
537.40	25724.83
537.57	25521.20
537.74	25638.23
537.91	25883.98
538.08	25965.90
538.25	25568.01
538.42	25923.77
538.59	25752.91
538.75	25642.91
538.92	25699.08
539.09	26047.82
539.26	26279.54
539.43	26099.31
539.60	26274.85
539.77	26043.14
539.94	26033.78
540.11	26214.00
540.28	26464.44
540.44	26466.78
540.61	26370.82
540.78	26103.99
540.95	26267.83
541.12	26363.79
541.29	26373.16
541.46	26340.39
541.62	26595.51
541.79	26497.20
541.96	26239.75
542.13	26567.42
542.30	26384.86
542.47	26745.30
542.63	26979.36
542.80	26752.32
542.97	26845.94
543.14	27035.53
543.31	26572.10
543.48	27033.19
543.64	27129.15
543.81	27096.38
543.98	27204.05
544.15	27395.97
544.32	27124.47
544.48	27751.73
544.65	27388.95
544.82	27161.92
544.99	27159.58
545.16	27140.85
545.32	27131.49
545.49	27583.21
545.66	27639.39
545.83	27644.07
546.00	27709.60
546.16	27555.13
546.33	27278.94
546.50	27168.94
546.67	27587.89
546.83	27587.89
547.00	27840.67
547.17	27817.27
547.34	27772.80
547.50	27756.41
547.67	28116.86
547.84	27552.79
548.00	27906.21
548.17	27758.75
548.34	27693.22
548.51	27962.38
548.67	28070.04
548.84	27845.35
549.01	28112.17
549.18	27747.05
549.34	28109.83
549.51	28077.07
549.68	28081.75
549.84	28009.19
550.01	28252.61
550.18	28561.56
550.34	28060.68
550.51	28060.68
550.68	28634.11
550.84	28205.80
551.01	28034.94
551.18	27976.42
551.34	28294.74
551.51	28498.36
551.68	28222.18
551.84	28638.80
552.01	28215.16
552.18	28603.69
552.34	28694.97
552.51	28533.47
552.68	28271.33
552.84	28704.33
553.01	28886.89
553.18	28652.84
553.34	28833.06
553.51	28723.05
553.67	29174.78
553.84	29062.43
554.01	29074.13
554.17	28432.83
554.34	28739.44
554.51	28484.32
554.67	28910.30
554.84	28914.98
555.00	28739.44
555.17	28662.20
555.33	28847.10
555.50	29111.58
555.67	28755.82
555.83	28992.22
556.00	28952.43
556.16	29563.31
556.33	29266.06
556.50	29053.07
556.66	29088.18
556.83	29450.96
556.99	29230.95
557.16	29202.86
557.32	29565.65
557.49	29394.79
557.65	29013.28
557.82	29301.17
557.98	29153.71
558.15	29242.65
558.32	29546.92
558.48	29177.12
558.65	29537.56
558.81	29474.37
558.98	29090.52
559.14	29221.59
559.31	29324.57
559.47	29259.04
559.64	29647.57
559.80	29556.28
559.97	29738.85
560.13	29486.07
560.30	29731.83
560.46	29439.26
560.63	29493.09
560.79	29467.34
560.96	29785.66
561.12	29376.06
561.29	29544.58
561.45	29759.91
561.61	29874.60
561.78	29841.83
561.94	29834.81
562.11	29736.51
562.27	29617.14
562.44	29612.46
562.60	29598.41
562.77	29813.74
562.93	29214.57
563.10	30017.37
563.26	29722.46
563.42	29993.97
563.59	29811.40
563.75	30169.51
563.92	30206.95
564.08	29780.98
564.24	29886.30
564.41	29748.21
564.57	29834.81
564.74	29893.32
564.90	29898.00
565.07	29855.87
565.23	30033.75
565.39	29984.60
565.56	30417.60
565.72	30213.98
565.88	30054.82
566.05	30008.01
566.21	29509.47
566.38	29827.79
566.54	29958.86
566.70	30462.07
566.87	30527.61
567.03	30199.93
567.19	30780.39
567.36	30274.83
567.52	30050.14
567.68	30312.28
567.85	30026.73
568.01	30005.67
568.17	30394.20
568.34	30260.79
568.50	30405.90
568.66	30176.53
568.83	30845.92
568.99	30352.07
569.15	30157.80
569.32	30232.70
569.48	30190.57
569.64	30405.90
569.81	30747.62
569.97	30459.73
570.13	30391.86
570.30	30017.37
570.46	30071.20
570.62	30408.24
570.78	30321.64
570.95	30197.59
571.11	30595.48
571.27	30223.34
571.43	30110.99
571.60	30728.89
571.76	30457.39
571.92	30625.91
572.09	30281.85
572.25	30721.87
572.41	30630.59
572.57	30424.62
572.74	30546.33
572.90	30471.43
573.06	30338.02
573.22	30155.46
573.38	30340.36
573.55	30340.36
573.71	30593.14
573.87	30277.17
574.03	30534.63
574.20	30707.83
574.36	30457.39
574.52	30654.00
574.68	30462.07
574.84	30445.69
575.01	30642.29
575.17	30625.91
575.33	30691.44
575.49	30623.57
575.65	30890.39
575.82	30675.06
575.98	30464.41
576.14	30899.75
576.30	30555.69
576.46	30714.85
576.62	30548.67
576.79	30192.91
576.95	30532.29
577.11	30639.95
577.27	30553.35
577.43	30600.16
577.59	30897.41
577.75	30782.73
577.92	30478.46
578.08	30188.23
578.24	30494.84
578.40	30831.88
578.56	30113.33
578.72	30632.93
578.88	31131.47
579.04	30778.04
579.21	30703.15
579.37	30574.42
579.53	30771.02
579.69	30614.21
579.85	30911.46
580.01	30611.87
580.17	30298.23
580.33	30801.45
580.49	30691.44
580.65	30642.29
580.82	30651.66
580.98	30829.54
581.14	30726.55
581.30	30829.54
581.46	30525.27
581.62	30504.20
581.78	30703.15
581.94	30593.14
582.10	30314.62
582.26	30558.03
582.42	30710.17
582.58	31243.81
582.74	31023.80
582.90	30869.33
583.06	30857.62
583.22	30862.30
583.38	30885.71
583.54	30937.20
583.70	30764.00
583.86	30574.42
584.02	30565.06
584.18	30808.47
584.34	30948.90
584.50	30773.36
584.66	31213.38
584.82	30649.32
584.98	30654.00
585.14	31005.08
585.30	30684.42
585.46	30885.71
585.62	30976.99
585.78	30682.08
585.94	30764.00
586.10	30841.24
586.26	30911.46
586.42	30995.71
586.58	31508.29
586.74	30871.67
586.90	30874.01
587.06	30309.94
587.22	30869.33
587.38	31000.40
587.54	31417.01
587.70	30991.03
587.86	31096.36
588.02	31150.19
588.18	30866.98
588.34	31232.11
588.49	31468.50
588.65	30621.23
588.81	30913.80
588.97	31288.28
589.13	30845.92
589.29	30328.66
589.45	30843.58
589.61	31236.79
589.77	31096.36
589.93	31417.01
590.08	31311.69
590.24	31129.12
590.40	31374.88
590.56	31512.97
590.72	31239.13
590.88	31061.25
591.04	31117.42
591.20	31243.81
591.35	31159.55
591.51	31440.42
591.67	31246.15
591.83	31828.95
