SpectraSuite Data File
++++++++++++++++++++++++++++++++++++
Date: Fri Oct 18 13:58:21 GMT-05:00 2013
User: bianchi
Dark Spectrum Present: No
Reference Spectrum Present: No
Number of Sampled Component Spectra: 1
Spectrometers: USB2+H05261
Integration Time (usec): 50000 (USB2+H05261)
Spectra Averaged: 1 (USB2+H05261)
Boxcar Smoothing: 0 (USB2+H05261)
Correct for Electrical Dark: No (USB2+H05261)
Strobe/Lamp Enabled: No (USB2+H05261)
Correct for Detector Non-linearity: No (USB2+H05261)
Correct for Stray Light: No (USB2+H05261)
Number of Pixels in Processed Spectrum: 2048
>>>>>Begin Processed Spectral Data<<<<<
365.73	0.00
365.92	0.00
366.12	0.00
366.32	0.00
366.52	0.00
366.72	0.00
366.91	0.00
367.11	0.00
367.31	0.00
367.51	0.00
367.70	0.00
367.90	0.00
368.10	0.00
368.30	0.00
368.49	0.00
368.69	0.00
368.89	0.00
369.09	0.00
369.28	0.00
369.48	0.00
369.68	0.00
369.87	0.00
370.07	0.00
370.27	0.00
370.47	0.00
370.66	72.56
370.86	105.32
371.06	35.11
371.25	142.77
371.45	67.88
371.65	107.66
371.84	180.22
372.04	180.22
372.24	128.73
372.44	252.78
372.63	187.24
372.83	177.88
373.03	210.65
373.22	124.05
373.42	205.97
373.62	191.92
373.81	248.10
374.01	259.80
374.21	262.14
374.40	203.63
374.60	215.33
374.79	205.97
374.99	278.52
375.19	278.52
375.38	238.73
375.58	133.41
375.78	262.14
375.97	234.05
376.17	313.63
376.37	248.10
376.56	290.23
376.76	285.55
376.95	231.71
377.15	299.59
377.35	220.01
377.54	252.78
377.74	308.95
377.93	266.82
378.13	159.16
378.33	304.27
378.52	299.59
378.72	231.71
378.91	292.57
379.11	269.16
379.31	259.80
379.50	283.20
379.70	248.10
379.89	372.15
380.09	283.20
380.28	327.68
380.48	266.82
380.68	278.52
380.87	339.38
381.07	318.31
381.26	320.65
381.46	250.44
381.65	355.76
381.85	283.20
382.04	397.89
382.24	400.23
382.43	318.31
382.63	418.96
382.83	344.06
383.02	315.97
383.22	414.27
383.41	379.17
383.61	435.34
383.80	358.10
384.00	341.72
384.19	297.25
384.39	411.93
384.58	390.87
384.78	367.46
384.97	383.85
385.17	400.23
385.36	376.83
385.56	339.38
385.75	362.78
385.95	390.87
386.14	447.04
386.34	318.31
386.53	320.65
386.72	395.55
386.92	407.25
387.11	365.12
387.31	416.62
387.50	367.46
387.70	376.83
387.89	397.89
388.09	400.23
388.28	468.11
388.48	425.98
388.67	433.00
388.86	409.59
389.06	360.44
389.25	493.85
389.45	425.98
389.64	414.27
389.84	493.85
390.03	468.11
390.22	447.04
390.42	472.79
390.61	395.55
390.81	454.06
391.00	482.15
391.19	568.75
391.39	472.79
391.58	486.83
391.78	463.43
391.97	514.92
392.16	533.64
392.36	587.47
392.55	496.19
392.75	528.96
392.94	582.79
393.13	538.32
393.33	440.02
393.52	580.45
393.71	543.00
393.91	629.60
394.10	559.39
394.29	521.94
394.49	636.63
394.68	528.96
394.88	587.47
395.07	571.09
395.26	554.71
395.46	484.49
395.65	557.05
395.84	624.92
396.04	669.39
396.23	627.26
396.42	566.41
396.62	704.50
396.81	688.12
397.00	683.44
397.19	688.12
397.39	664.71
397.58	704.50
397.77	683.44
397.97	667.05
398.16	674.07
398.35	777.06
398.55	678.76
398.74	692.80
398.93	711.52
399.12	711.52
399.32	716.20
399.51	711.52
399.70	835.57
399.90	798.12
400.09	774.72
400.28	723.23
400.47	727.91
400.67	847.27
400.86	779.40
401.05	793.44
401.24	765.36
401.44	833.23
401.63	805.14
401.82	758.33
402.01	807.48
402.21	901.11
402.40	823.87
402.59	842.59
402.78	894.08
402.97	840.25
403.17	858.98
403.36	866.00
403.55	844.93
403.74	875.36
403.93	938.55
404.13	976.00
404.32	924.51
404.51	959.62
404.70	905.79
404.89	844.93
405.09	912.81
405.28	917.49
405.47	1001.75
405.66	931.53
405.85	987.71
406.05	1015.79
406.24	891.74
406.43	938.55
406.62	1034.52
406.81	1050.90
407.00	936.21
407.20	973.66
407.39	1001.75
407.58	1104.73
407.77	1121.12
407.96	1151.54
408.15	1029.84
408.34	1088.35
408.54	1008.77
408.73	1034.52
408.92	1132.82
409.11	1107.07
409.30	1149.20
409.49	1095.37
409.68	1130.48
409.87	1203.04
410.07	1135.16
410.26	1261.55
410.45	1053.24
410.64	1174.95
410.83	1207.72
411.02	1123.46
411.21	1261.55
411.40	1261.55
411.59	1301.34
411.78	1252.19
411.98	1261.55
412.17	1254.53
412.36	1256.87
412.55	1270.91
412.74	1357.51
412.93	1331.76
413.12	1301.34
413.31	1476.88
413.50	1366.87
413.69	1301.34
413.88	1387.94
414.07	1273.25
414.26	1425.39
414.45	1444.11
414.64	1533.05
414.83	1563.48
415.02	1544.75
415.22	1659.44
415.41	1563.48
415.60	1570.50
415.79	1549.43
415.98	1584.54
416.17	1577.52
416.36	1572.84
416.55	1596.25
416.74	1547.09
416.93	1624.33
417.12	1593.90
417.31	1600.93
417.50	1743.70
417.69	1715.61
417.88	1762.42
418.07	1675.82
418.26	1638.38
418.45	1734.34
418.64	1802.21
418.83	1785.83
419.02	1741.36
419.21	1769.44
419.39	1774.13
419.58	1771.79
419.77	1830.30
419.96	1884.13
420.15	1893.49
420.34	1902.86
420.53	1858.39
420.72	1863.07
420.91	1926.26
421.10	1928.60
421.29	1954.35
421.48	1870.09
421.67	2026.90
421.86	1982.43
422.05	1802.21
422.24	1907.54
422.43	1916.90
422.61	1989.46
422.80	1898.17
422.99	2005.84
423.18	1963.71
423.37	1989.46
423.56	1989.46
423.75	1975.41
423.94	2012.86
424.13	1905.20
424.32	1994.14
424.50	1952.01
424.69	2008.18
424.88	2111.16
425.07	1907.54
425.26	1991.80
425.45	1942.64
425.64	2024.56
425.83	2132.23
426.01	2047.97
426.20	2094.78
426.39	2052.65
426.58	2043.29
426.77	2069.03
426.96	2174.36
427.15	2256.28
427.33	2174.36
427.52	2087.76
427.71	2125.21
427.90	2101.80
428.09	2052.65
428.28	2139.25
428.46	2190.74
428.65	2235.21
428.84	2181.38
429.03	2211.81
429.22	2190.74
429.40	2251.60
429.59	2211.81
429.78	2193.08
429.97	2076.06
430.16	2197.76
430.34	2249.25
430.53	2310.11
430.72	2267.98
430.91	2300.75
431.10	2289.04
431.28	2363.94
431.47	2321.81
431.66	2370.96
431.85	2338.20
432.03	2417.77
432.22	2534.80
432.41	2345.22
432.60	2424.80
432.79	2422.45
432.97	2490.33
433.16	2413.09
433.35	2408.41
433.54	2464.58
433.72	2513.74
433.91	2399.05
434.10	2366.28
434.28	2490.33
434.47	2478.63
434.66	2607.36
434.85	2541.82
435.03	2597.99
435.22	2462.24
435.41	2605.02
435.59	2628.42
435.78	2583.95
435.97	2778.22
436.16	2583.95
436.34	2607.36
436.53	2710.34
436.72	2602.68
436.90	2698.64
437.09	2698.64
437.28	2640.12
437.46	2703.32
437.65	2806.30
437.84	2712.68
438.02	2705.66
438.21	2754.81
438.40	2700.98
438.58	2794.60
438.77	2890.56
438.96	2775.88
439.14	2799.28
439.33	2923.33
439.52	2930.35
439.70	2946.73
439.89	3016.95
440.08	2932.69
440.26	3030.99
440.45	3033.33
440.63	2981.84
440.82	3103.55
441.01	3138.66
441.19	3084.83
441.38	3246.32
441.57	3227.60
441.75	3215.90
441.94	3253.34
442.12	3276.75
442.31	3389.10
442.50	3265.05
442.68	3274.41
442.87	3344.63
443.05	3346.97
443.24	3361.01
443.43	3400.80
443.61	3276.75
443.80	3475.70
443.98	3337.60
444.17	3258.03
444.35	3302.50
444.54	3522.51
444.73	3386.76
444.91	3337.60
445.10	3442.93
445.28	3363.35
445.47	3328.24
445.65	3473.36
445.84	3506.12
446.02	3555.27
446.21	3461.65
446.39	3382.07
446.58	3494.42
446.77	3482.72
446.95	3361.01
447.14	3478.04
447.32	3503.78
447.51	3424.20
447.69	3361.01
447.88	3552.93
448.06	3487.40
448.25	3459.31
448.43	3492.08
448.62	3449.95
448.80	3396.12
448.99	3489.74
449.17	3538.89
449.36	3667.62
449.54	3705.07
449.73	3571.66
449.91	3637.19
450.10	3691.02
450.28	3693.37
450.46	3611.45
450.65	3817.41
450.83	3723.79
451.02	3805.71
451.20	3733.15
451.39	3819.75
451.57	3693.37
451.76	3709.75
451.94	3798.69
452.13	3850.18
452.31	3878.27
452.49	3768.26
452.68	3889.97
452.86	3707.41
453.05	3803.37
453.23	3812.73
453.42	3826.78
453.60	3957.85
453.78	3878.27
453.97	3868.91
454.15	4030.40
454.34	3941.46
454.52	4100.62
454.70	3985.93
454.89	3929.76
455.07	3988.27
455.26	4077.21
455.44	4133.39
455.62	4046.79
455.81	4081.89
455.99	4100.62
456.17	4077.21
456.36	4166.15
456.54	4217.65
456.73	4177.86
456.91	4264.46
457.09	4344.03
457.28	4458.72
457.46	4283.18
457.64	4327.65
457.83	4250.41
458.01	4245.73
458.19	4505.53
458.38	4287.86
458.56	4416.59
458.74	4362.76
458.93	4432.97
459.11	4290.20
459.29	4528.94
459.48	4622.56
459.66	4344.03
459.84	4557.02
460.03	4535.96
460.21	4538.30
460.39	4578.09
460.57	4397.87
460.76	4442.34
460.94	4606.17
461.12	4580.43
461.31	4601.49
461.49	4449.36
461.67	4641.28
461.85	4664.69
462.04	4716.18
462.22	4667.03
462.40	4748.95
462.59	4678.73
462.77	4758.31
462.95	4725.54
463.13	4725.54
463.32	4671.71
463.50	4833.21
463.68	4945.55
463.86	4681.07
464.05	4727.88
464.23	4788.74
464.41	4856.61
464.59	4835.55
464.78	4851.93
464.96	4919.81
465.14	4880.02
465.32	4868.31
465.50	4947.89
465.69	5090.67
465.87	4863.63
466.05	4961.94
466.23	4959.60
466.41	4940.87
466.60	5097.69
466.78	5062.58
466.96	4999.38
467.14	5034.49
467.32	4950.23
467.51	5137.48
467.69	4992.36
467.87	5071.94
468.05	5020.45
468.23	4999.38
468.41	5090.67
468.60	5158.54
468.78	5177.26
468.96	5179.61
469.14	5305.99
469.32	5245.14
469.50	5198.33
469.69	5362.17
469.87	5228.76
470.05	5420.68
470.23	5434.72
470.41	5355.15
470.59	5427.70
470.77	5481.53
470.95	5465.15
471.14	5544.73
471.32	5490.90
471.50	5631.33
471.68	5556.43
471.86	5446.43
472.04	5586.86
472.22	5886.45
472.40	5570.48
472.58	5717.93
472.77	5729.63
472.95	5734.31
473.13	5944.96
473.31	5977.73
473.49	5776.44
473.67	5689.84
473.85	5825.59
474.03	5937.94
474.21	5991.77
474.39	6090.07
474.57	6005.81
474.75	6101.78
474.93	6188.38
475.12	6106.46
475.30	6122.84
475.48	6036.24
475.66	6143.91
475.84	6052.63
476.02	6375.62
476.20	6300.72
476.38	6394.34
476.56	6485.62
476.74	6476.26
476.92	6509.03
477.10	6595.63
477.28	6757.13
477.46	6640.10
477.64	6663.51
477.82	6619.04
478.00	6860.11
478.18	6825.00
478.36	6815.64
478.54	7005.22
478.72	7061.40
478.90	7045.01
479.08	6953.73
479.26	7288.43
479.44	7206.51
479.62	7396.09
479.80	7466.31
479.98	7321.20
480.16	7442.90
480.34	7328.22
480.52	7691.00
480.70	7665.25
480.88	7538.87
481.06	7634.83
481.24	7751.85
481.41	7784.62
481.59	8006.97
481.77	7981.23
481.95	7894.63
482.13	8098.25
482.31	8126.34
482.49	8313.58
482.67	8187.19
482.85	8542.96
483.03	8304.22
483.21	8667.00
483.39	8641.26
483.57	8606.15
483.74	8608.49
483.92	8968.93
484.10	8568.70
484.28	8795.73
484.46	8978.30
484.64	9032.13
484.82	8999.36
485.00	9074.26
485.18	9146.81
485.35	9198.31
485.53	9114.05
485.71	9195.96
485.89	9675.77
486.07	9376.19
486.25	9472.15
486.43	9753.01
486.61	9572.79
486.78	9942.60
486.96	9692.16
487.14	9893.44
487.32	9994.09
487.50	9823.23
487.68	10101.75
487.85	10115.80
488.03	10377.94
488.21	10497.30
488.39	10679.86
488.57	10626.03
488.75	10363.89
488.92	10675.18
489.10	10991.16
489.28	10787.53
489.46	11061.37
489.64	10991.16
489.81	11169.04
489.99	11265.00
490.17	11384.37
490.35	11288.40
490.53	11204.14
490.70	11449.90
490.88	11700.34
491.06	11953.12
491.24	11592.67
491.41	11676.93
491.59	11934.39
491.77	11765.87
491.95	11887.58
492.13	12049.08
492.30	12304.20
492.48	12210.57
492.66	12407.18
492.84	12194.19
493.01	12430.59
493.19	12297.17
493.37	12578.04
493.54	12545.27
493.72	12844.86
493.90	12706.77
494.08	12830.82
494.25	13177.22
494.43	13081.25
494.61	13144.45
494.79	13128.06
494.96	13179.56
495.14	13191.26
495.32	13296.58
495.49	13327.01
495.67	13516.59
495.85	13640.64
496.02	13547.02
496.20	13666.39
496.38	13839.59
496.55	13881.72
496.73	14087.68
496.91	14047.90
497.09	14232.80
497.26	14066.62
497.44	14150.88
497.62	14066.62
497.79	14492.60
497.97	14441.11
498.14	14689.20
498.32	14661.12
498.50	14782.82
498.67	14623.67
498.85	14841.34
499.03	15009.86
499.20	14822.61
499.38	14682.18
499.56	14904.53
499.73	15190.08
499.91	15164.33
500.08	15243.91
500.26	15126.88
500.44	15548.18
500.61	15133.90
500.79	15515.41
500.97	15789.25
501.14	15838.41
501.32	15531.80
501.49	15824.36
501.67	15756.49
501.84	15831.38
502.02	15630.10
502.20	15985.86
502.37	16035.01
502.55	16004.58
502.72	16170.76
502.90	16060.76
503.07	15943.73
503.25	16091.18
503.43	16098.20
503.60	16257.36
503.78	16533.54
503.95	16556.95
504.13	16594.40
504.30	16386.09
504.48	16400.13
504.65	16552.27
504.83	16713.77
505.01	16786.32
505.18	17013.35
505.36	16842.50
505.53	16903.35
505.71	16851.86
505.88	17008.67
506.06	16741.85
506.23	17071.87
506.41	17252.09
506.58	17216.98
506.76	17088.25
506.93	17535.29
507.11	17053.14
507.28	17181.87
507.46	17479.12
507.63	17401.88
507.81	17781.05
507.98	17476.78
508.16	17659.34
508.33	17820.84
508.50	17638.28
508.68	17769.35
508.85	18153.20
509.03	17820.84
509.20	18202.35
509.38	18265.54
509.55	18366.18
509.73	18111.07
509.90	18094.68
510.08	18218.73
510.25	18377.89
510.42	18249.16
510.60	18501.93
510.77	18647.05
510.95	18677.48
511.12	18764.07
511.30	18726.63
511.47	18862.38
511.64	18799.18
511.82	18820.25
511.99	18972.38
512.17	18827.27
512.34	18988.77
512.51	18963.02
512.69	19178.35
512.86	19119.84
513.04	19452.19
513.21	19330.48
513.38	19491.98
513.56	19084.73
513.73	19089.41
513.90	19667.52
514.08	19611.35
514.25	19529.43
514.43	19459.21
514.60	19534.11
514.77	19690.93
514.95	19515.39
515.12	19604.33
515.29	19503.68
515.47	19936.68
515.64	19606.67
515.81	19997.54
515.99	20149.67
516.16	20102.86
516.33	20297.13
516.51	20154.35
516.68	19932.00
516.85	19903.92
517.03	20360.32
517.20	20257.34
517.37	20219.89
517.54	20531.18
517.72	20470.33
517.89	20409.47
518.06	20538.20
518.24	20418.83
518.41	20453.94
518.58	20613.10
518.75	20685.65
518.93	21015.67
519.10	20587.35
519.27	21001.63
519.45	20898.64
519.62	20793.32
519.79	20908.01
519.96	20884.60
520.14	21130.36
520.31	20910.35
520.48	21015.67
520.65	21118.65
520.83	21308.24
521.00	21083.55
521.17	21451.01
521.34	21266.11
521.52	21329.30
521.69	21336.32
521.86	21341.00
522.03	21607.83
522.20	21628.89
522.38	21668.68
522.55	21954.22
522.72	21783.37
522.89	21605.49
523.07	21907.41
523.24	21879.33
523.41	21673.36
523.58	21603.14
523.75	21944.86
523.92	21891.03
524.10	22115.72
524.27	22054.87
524.44	21708.47
524.61	22284.24
524.78	22417.65
524.96	22176.58
525.13	22551.06
525.30	22370.84
525.47	22148.49
525.64	22473.82
525.81	22401.27
525.98	22511.27
526.16	22881.08
526.33	22579.15
526.50	22824.90
526.67	22705.54
526.84	22761.71
527.01	22778.09
527.18	23014.49
527.36	23056.62
527.53	23201.73
527.70	22852.99
527.87	22960.66
528.04	23040.23
528.21	22843.63
528.38	23293.01
528.55	23379.61
528.72	23171.30
528.89	23246.20
529.07	23150.24
529.24	23300.03
529.41	23377.27
529.58	23267.27
529.75	23166.62
529.92	23363.23
530.09	23388.97
530.26	23513.02
530.43	23557.49
530.60	23501.32
530.77	23473.23
530.94	23454.51
531.11	23669.84
531.28	23632.39
531.46	23817.29
531.63	23583.24
531.80	23604.30
531.97	23917.93
532.14	24041.98
532.31	23632.39
532.48	24004.53
532.65	23744.73
532.82	23997.51
532.99	23981.13
533.16	23992.83
533.33	24081.77
533.50	24662.22
533.67	24421.15
533.84	24109.86
534.01	24063.05
534.18	24086.45
534.35	24519.45
534.52	24261.99
534.69	24315.83
534.86	24538.18
535.03	24156.67
535.20	24219.86
535.37	24510.09
535.54	24524.13
535.71	24208.16
535.88	24540.52
536.05	24673.93
536.22	24634.14
536.38	24980.54
536.55	24840.11
536.72	24556.90
536.89	24577.97
537.06	24884.58
537.23	24329.87
537.40	24996.92
537.57	24645.84
537.74	24964.15
537.91	25118.63
538.08	25013.31
538.25	25092.88
538.42	24704.35
538.59	25062.46
538.75	24994.58
538.92	25053.09
539.09	25195.87
539.26	25071.82
539.43	25357.36
539.60	25340.98
539.77	25376.09
539.94	25095.22
540.11	25350.34
540.28	25270.76
540.44	25443.96
540.61	25238.00
540.78	25479.07
540.95	25483.75
541.12	25458.01
541.29	25582.06
541.46	25603.12
541.62	25296.51
541.79	25682.70
541.96	25621.84
542.13	25364.39
542.30	25996.33
542.47	26089.95
542.63	25851.22
542.80	25963.56
542.97	25968.24
543.14	26199.96
543.31	26085.27
543.48	25961.22
543.64	26298.26
543.81	26218.68
543.98	26302.94
544.15	26153.15
544.32	26218.68
544.48	26714.87
544.65	26082.93
544.82	26225.70
544.99	26106.34
545.16	26422.31
545.32	26441.03
545.49	26583.80
545.66	26647.00
545.83	26464.44
546.00	26644.66
546.16	26534.65
546.33	26335.71
546.50	26389.54
546.67	26536.99
546.83	26242.09
547.00	26316.98
547.17	26647.00
547.34	26483.16
547.50	26785.09
547.67	26920.84
547.84	26869.35
548.00	26852.97
548.17	26991.06
548.34	26700.83
548.51	27119.79
548.67	26836.58
548.84	27000.42
549.01	26766.37
549.18	27072.98
549.34	27255.54
549.51	26941.91
549.68	26607.21
549.84	26995.74
550.01	27311.71
550.18	26991.06
550.34	27655.77
550.51	27541.08
550.68	27475.55
550.84	26986.38
551.01	26913.82
551.18	27323.41
551.34	27428.74
551.51	27534.06
551.68	27042.55
551.84	27449.80
552.01	27524.70
552.18	27861.74
552.34	27454.48
552.51	27587.89
552.68	27407.67
552.84	27047.23
553.01	27866.42
553.18	27513.00
553.34	27908.55
553.51	27543.42
553.67	27953.02
553.84	28311.12
554.01	28074.73
554.17	27683.86
554.34	27695.56
554.51	27688.54
554.67	28037.28
554.84	28009.19
555.00	27917.91
555.17	28208.14
555.33	27807.90
555.50	27962.38
555.67	27765.78
555.83	27803.22
556.00	27854.72
556.16	28144.94
556.33	28229.20
556.50	28451.55
556.66	28250.27
556.83	27934.29
556.99	28453.89
557.16	28364.95
557.32	28311.12
557.49	28107.49
557.65	27838.33
557.82	27936.63
557.98	28137.92
558.15	28177.71
558.32	28388.36
558.48	27899.19
558.65	28486.66
558.81	28151.96
558.98	28247.93
559.14	28229.20
559.31	28243.24
559.47	28400.06
559.64	28098.13
559.80	28463.25
559.97	28599.01
560.13	28292.40
560.30	28449.21
560.46	28617.73
560.63	28657.52
560.79	28364.95
560.96	28879.87
561.12	28435.17
561.29	28439.85
561.45	28449.21
561.61	29043.71
561.78	28900.94
561.94	28800.29
562.11	28491.34
562.27	28641.14
562.44	28687.95
562.60	28856.46
562.77	28313.46
562.93	28657.52
563.10	28613.05
563.26	28615.39
563.42	28716.03
563.59	28954.77
563.75	28772.21
563.92	28912.64
564.08	28664.54
564.24	28971.15
564.41	28631.77
564.57	28863.49
564.74	28823.70
564.90	28800.29
565.07	29017.96
565.23	29174.78
565.39	28994.56
565.56	28936.04
565.72	28760.50
565.88	28849.44
566.05	28807.31
566.21	28807.31
566.38	28903.28
566.54	28900.94
566.70	29565.65
566.87	29333.93
567.03	28711.35
567.19	29163.08
567.36	29371.38
567.52	28816.68
567.68	29179.46
567.85	28912.64
568.01	29319.89
568.17	29153.71
568.34	29254.36
568.50	29013.28
568.66	29127.97
568.83	29092.86
568.99	29003.92
569.15	28802.63
569.32	28914.98
569.48	29022.64
569.64	29457.98
569.81	29263.72
569.97	28741.78
570.13	29355.00
570.30	29116.26
570.46	29020.30
570.62	29425.22
570.78	28987.53
570.95	28765.18
571.11	29174.78
571.27	29120.95
571.43	28957.11
571.60	29209.89
571.76	29043.71
571.92	29055.41
572.09	29266.06
572.25	29057.75
572.41	29228.61
572.57	29575.01
572.74	29406.49
572.90	28884.55
573.06	29322.23
573.22	29439.26
573.38	29673.31
573.55	29322.23
573.71	29429.90
573.87	29612.46
574.03	29530.54
574.20	29256.70
574.36	29315.21
574.52	29369.04
574.68	29448.62
574.84	29486.07
575.01	29355.00
575.17	29701.40
575.33	29432.24
575.49	29331.59
575.65	29502.45
575.82	29305.85
575.98	29757.57
576.14	29298.83
576.30	29635.86
576.46	29270.74
576.62	29649.91
576.79	29727.14
576.95	29228.61
577.11	29727.14
577.27	29406.49
577.43	29500.11
577.59	29544.58
577.75	29556.28
577.92	29713.10
578.08	29390.11
578.24	29113.92
578.40	29652.25
578.56	29582.03
578.72	29326.91
578.88	29963.54
579.04	29776.30
579.21	29460.32
579.37	29769.27
579.53	29408.83
579.69	29336.27
579.85	29383.09
580.01	29392.45
580.17	29240.31
580.33	29198.18
580.49	29298.83
580.65	29631.18
580.82	29666.29
580.98	29497.77
581.14	29493.09
581.30	29670.97
581.46	29465.00
581.62	29773.95
581.78	29301.17
581.94	29521.18
582.10	29198.18
582.26	29575.01
582.42	29860.55
582.58	29553.94
582.74	29537.56
582.90	29500.11
583.06	29610.12
583.22	29853.53
583.38	29804.38
583.54	29687.36
583.70	29773.95
583.86	29640.54
584.02	29371.38
584.18	29907.37
584.34	30010.35
584.50	29888.64
584.66	29486.07
584.82	29479.05
584.98	29837.15
585.14	29640.54
585.30	29504.79
585.46	29614.80
585.62	29329.25
585.78	29893.32
585.94	29972.90
586.10	29603.10
586.26	29853.53
586.42	29752.89
586.58	30080.56
586.74	29460.32
586.90	29734.17
587.06	29663.95
587.22	29539.90
587.38	29984.60
587.54	30000.99
587.70	29752.89
587.86	29619.48
588.02	30115.67
588.18	29867.58
588.34	30005.67
588.49	29577.35
588.65	29572.67
588.81	29645.23
588.97	29883.96
589.13	29832.47
589.29	29734.17
589.45	30019.71
589.61	29799.70
589.77	29883.96
589.93	30139.08
590.08	29930.77
590.24	30113.33
590.40	30209.29
590.56	30003.33
590.72	29825.45
590.88	29589.05
591.04	29741.19
591.20	30228.02
591.35	30213.98
591.51	30525.27
591.67	30141.42
591.83	30607.19
591.99	30469.09
