SpectraSuite Data File
++++++++++++++++++++++++++++++++++++
Date: Fri Oct 18 13:58:27 GMT-05:00 2013
User: bianchi
Dark Spectrum Present: No
Reference Spectrum Present: No
Number of Sampled Component Spectra: 1
Spectrometers: USB2+H05261
Integration Time (usec): 50000 (USB2+H05261)
Spectra Averaged: 1 (USB2+H05261)
Boxcar Smoothing: 0 (USB2+H05261)
Correct for Electrical Dark: No (USB2+H05261)
Strobe/Lamp Enabled: No (USB2+H05261)
Correct for Detector Non-linearity: No (USB2+H05261)
Correct for Stray Light: No (USB2+H05261)
Number of Pixels in Processed Spectrum: 2048
>>>>>Begin Processed Spectral Data<<<<<
365.73	0.00
365.92	0.00
366.12	0.00
366.32	0.00
366.52	0.00
366.72	0.00
366.91	0.00
367.11	0.00
367.31	0.00
367.51	0.00
367.70	0.00
367.90	0.00
368.10	0.00
368.30	0.00
368.49	0.00
368.69	0.00
368.89	0.00
369.09	0.00
369.28	0.00
369.48	0.00
369.68	0.00
369.87	0.00
370.07	0.00
370.27	0.00
370.47	0.00
370.66	70.22
370.86	128.73
371.06	70.22
371.25	166.18
371.45	110.01
371.65	149.79
371.84	119.37
372.04	133.41
372.24	180.22
372.44	180.22
372.63	173.20
372.83	105.32
373.03	229.37
373.22	201.29
373.42	156.82
373.62	217.67
373.81	229.37
374.01	236.39
374.21	241.08
374.40	196.60
374.60	257.46
374.79	257.46
374.99	203.63
375.19	320.65
375.38	243.42
375.58	170.86
375.78	243.42
375.97	182.56
376.17	262.14
376.37	269.16
376.56	215.33
376.76	266.82
376.95	194.26
377.15	245.76
377.35	285.55
377.54	191.92
377.74	234.05
377.93	271.50
378.13	243.42
378.33	287.89
378.52	304.27
378.72	355.76
378.91	299.59
379.11	245.76
379.31	262.14
379.50	280.86
379.70	243.42
379.89	290.23
380.09	290.23
380.28	280.86
380.48	280.86
380.68	208.31
380.87	194.26
381.07	285.55
381.26	313.63
381.46	379.17
381.65	285.55
381.85	191.92
382.04	264.48
382.24	418.96
382.43	264.48
382.63	360.44
382.83	315.97
383.02	231.71
383.22	393.21
383.41	372.15
383.61	433.00
383.80	414.27
384.00	362.78
384.19	367.46
384.39	262.14
384.58	346.40
384.78	486.83
384.97	367.46
385.17	311.29
385.36	470.45
385.56	297.25
385.75	341.72
385.95	325.33
386.14	365.12
386.34	383.85
386.53	369.80
386.72	379.17
386.92	381.51
387.11	416.62
387.31	414.27
387.50	430.66
387.70	468.11
387.89	496.19
388.09	407.25
388.28	390.87
388.48	374.49
388.67	465.77
388.86	531.30
389.06	409.59
389.25	482.15
389.45	505.56
389.64	484.49
389.84	496.19
390.03	503.22
390.22	475.13
390.42	461.09
390.61	435.34
390.81	482.15
391.00	498.53
391.19	507.90
391.39	493.85
391.58	484.49
391.78	451.72
391.97	416.62
392.16	486.83
392.36	557.05
392.55	517.26
392.75	491.51
392.94	587.47
393.13	540.66
393.33	517.26
393.52	608.54
393.71	507.90
393.91	613.22
394.10	582.79
394.29	535.98
394.49	568.75
394.68	571.09
394.88	561.73
395.07	561.73
395.26	512.58
395.46	615.56
395.65	608.54
395.84	608.54
396.04	564.07
396.23	615.56
396.42	573.43
396.62	575.77
396.81	589.82
397.00	636.63
397.19	671.73
397.39	660.03
397.58	678.76
397.77	582.79
397.97	669.39
398.16	622.58
398.35	650.67
398.55	669.39
398.74	622.58
398.93	709.18
399.12	800.46
399.32	664.71
399.51	629.60
399.70	662.37
399.90	746.63
400.09	739.61
400.28	765.36
400.47	716.20
400.67	800.46
400.86	723.23
401.05	765.36
401.24	779.40
401.44	779.40
401.63	795.78
401.82	830.89
402.01	819.19
402.21	807.48
402.40	809.83
402.59	835.57
402.78	725.57
402.97	802.80
403.17	863.66
403.36	833.23
403.55	781.74
403.74	765.36
403.93	994.73
404.13	880.04
404.32	882.38
404.51	922.17
404.70	875.36
404.89	957.28
405.09	1015.79
405.28	915.15
405.47	926.85
405.66	1018.13
405.85	938.55
406.05	917.49
406.24	971.32
406.43	985.37
406.62	990.05
406.81	1074.31
407.00	1013.45
407.20	1011.11
407.39	994.73
407.58	1069.62
407.77	973.66
407.96	1043.88
408.15	1029.84
408.34	1029.84
408.54	1102.39
408.73	1013.45
408.92	1086.01
409.11	1076.65
409.30	1020.47
409.49	1029.84
409.68	1060.26
409.87	1100.05
410.07	1188.99
410.26	1158.57
410.45	1191.33
410.64	1114.10
410.83	1170.27
411.02	1083.67
411.21	1259.21
411.40	1268.57
411.59	1252.19
411.78	1181.97
411.98	1200.69
412.17	1198.35
412.36	1266.23
412.55	1245.16
412.74	1261.55
412.93	1355.17
413.12	1401.98
413.31	1362.19
413.50	1249.85
413.69	1338.79
413.88	1420.71
414.07	1469.86
414.26	1430.07
414.45	1329.42
414.64	1439.43
414.83	1483.90
415.02	1488.58
415.22	1563.48
415.41	1659.44
415.60	1490.92
415.79	1579.86
415.98	1584.54
416.17	1544.75
416.36	1572.84
416.55	1689.87
416.74	1561.14
416.93	1572.84
417.12	1671.14
417.31	1626.67
417.50	1809.23
417.69	1727.32
417.88	1633.69
418.07	1760.08
418.26	1612.63
418.45	1797.53
418.64	1788.17
418.83	1724.97
419.02	1783.49
419.21	1792.85
419.39	1792.85
419.58	1762.42
419.77	1680.50
419.96	1741.36
420.15	1813.92
420.34	1888.81
420.53	1816.26
420.72	2012.86
420.91	1994.14
421.10	1973.07
421.29	2029.24
421.48	1867.75
421.67	1888.81
421.86	1944.99
422.05	1933.28
422.24	1895.83
422.43	2019.88
422.61	1947.33
422.80	1909.88
422.99	1926.26
423.18	1959.03
423.37	1984.77
423.56	1937.96
423.75	1902.86
423.94	1996.48
424.13	1865.41
424.32	1916.90
424.50	1902.86
424.69	2066.69
424.88	2017.54
425.07	1914.56
425.26	1921.58
425.45	2052.65
425.64	1973.07
425.83	1966.05
426.01	1954.35
426.20	2026.90
426.39	1998.82
426.58	2008.18
426.77	2113.50
426.96	2019.88
427.15	1984.77
427.33	2097.12
427.52	2050.31
427.71	2218.83
427.90	2066.69
428.09	2090.10
428.28	2094.78
428.46	2242.23
428.65	2167.34
428.84	2162.66
429.03	2312.45
429.22	2235.21
429.40	2167.34
429.59	2207.13
429.78	2092.44
429.97	2099.46
430.16	2186.06
430.34	2340.54
430.53	2324.15
430.72	2204.78
430.91	2317.13
431.10	2244.57
431.28	2249.25
431.47	2331.17
431.66	2380.32
431.85	2424.80
432.03	2392.03
432.22	2469.27
432.41	2478.63
432.60	2420.11
432.79	2361.60
432.97	2420.11
433.16	2539.48
433.35	2375.64
433.54	2382.67
433.72	2523.10
433.91	2520.76
434.10	2459.90
434.28	2420.11
434.47	2487.99
434.66	2497.35
434.85	2523.10
435.03	2520.76
435.22	2616.72
435.41	2665.87
435.59	2602.68
435.78	2658.85
435.97	2672.89
436.16	2637.78
436.34	2726.72
436.53	2544.16
436.72	2693.96
436.90	2668.21
437.09	2689.28
437.28	2588.63
437.46	2640.12
437.65	2642.46
437.84	2818.00
438.02	2677.57
438.21	2843.75
438.40	2661.19
438.58	2789.92
438.77	2850.77
438.96	2904.60
439.14	3049.72
439.33	2869.50
439.52	2808.64
439.70	2883.54
439.89	2988.86
440.08	2998.23
440.26	2925.67
440.45	3033.33
440.63	3131.64
440.82	3035.67
441.01	3056.74
441.19	3038.02
441.38	3110.57
441.57	3192.49
441.75	3192.49
441.94	3225.26
442.12	3190.15
442.31	3274.41
442.50	3456.97
442.68	3260.37
442.87	3279.09
443.05	3339.94
443.24	3323.56
443.43	3204.19
443.61	3332.92
443.80	3496.76
443.98	3302.50
444.17	3295.47
444.35	3370.37
444.54	3489.74
444.73	3431.23
444.91	3389.10
445.10	3403.14
445.28	3454.63
445.47	3382.07
445.65	3449.95
445.84	3330.58
446.02	3440.59
446.21	3480.38
446.39	3330.58
446.58	3454.63
446.77	3501.44
446.95	3442.93
447.14	3393.78
447.32	3440.59
447.51	3424.20
447.69	3449.95
447.88	3576.34
448.06	3480.38
448.25	3475.70
448.43	3428.88
448.62	3520.17
448.80	3550.59
448.99	3480.38
449.17	3623.15
449.36	3648.90
449.54	3627.83
449.73	3520.17
449.91	3597.40
450.10	3674.64
450.28	3662.94
450.46	3644.21
450.65	3662.94
450.83	3693.37
451.02	3676.98
451.20	3744.86
451.39	3716.77
451.57	3838.48
451.76	3691.02
451.94	3889.97
452.13	3817.41
452.31	3751.88
452.49	3920.40
452.68	3758.90
452.86	3702.73
453.05	3960.19
453.23	3859.54
453.42	3861.88
453.60	3786.99
453.78	3843.16
453.97	3819.75
454.15	3894.65
454.34	3854.86
454.52	3875.93
454.70	3882.95
454.89	3953.16
455.07	3845.50
455.26	3932.10
455.44	4030.40
455.62	4032.74
455.81	4074.87
455.99	4173.18
456.17	4046.79
456.36	4077.21
456.54	4168.49
456.73	4255.09
456.91	4170.83
457.09	4142.75
457.28	4269.14
457.46	4257.43
457.64	4217.65
457.83	4264.46
458.01	4217.65
458.19	4337.01
458.38	4210.62
458.56	4388.50
458.74	4273.82
458.93	4397.87
459.11	4294.88
459.29	4374.46
459.48	4409.57
459.66	4362.76
459.84	4475.10
460.03	4552.34
460.21	4411.91
460.39	4751.29
460.57	4634.26
460.76	4585.11
460.94	4601.49
461.12	4416.59
461.31	4435.32
461.49	4510.21
461.67	4493.83
461.85	4713.84
462.04	4704.48
462.22	4798.10
462.40	4678.73
462.59	4774.69
462.77	4540.64
462.95	4868.31
463.13	4690.43
463.32	4699.80
463.50	4739.58
463.68	4748.95
463.86	4699.80
464.05	4643.62
464.23	4800.44
464.41	4774.69
464.59	4695.11
464.78	4884.70
464.96	4837.89
465.14	4894.06
465.32	4805.12
465.50	4987.68
465.69	4957.25
465.87	4882.36
466.05	4983.00
466.23	4983.00
466.41	5093.01
466.60	5149.18
466.78	4975.98
466.96	4931.51
467.14	5001.72
467.32	4891.72
467.51	5121.09
467.69	5097.69
467.87	5186.63
468.05	5116.41
468.23	4983.00
468.41	5174.92
468.60	5132.79
468.78	5153.86
468.96	4947.89
469.14	5238.12
469.32	5263.86
469.50	5228.76
469.69	5233.44
469.87	5392.59
470.05	5296.63
470.23	5341.10
470.41	5331.74
470.59	5350.46
470.77	5444.09
470.95	5413.66
471.14	5441.75
471.32	5296.63
471.50	5511.96
471.68	5596.22
471.86	5610.26
472.04	5685.16
472.22	5633.67
472.40	5640.69
472.58	5631.33
472.77	5619.63
472.95	5853.68
473.13	5942.62
473.31	5664.10
473.49	5806.87
473.67	5767.08
473.85	5802.19
474.03	5970.71
474.21	5825.59
474.39	5935.60
474.57	6071.35
474.75	6085.39
474.93	6129.86
475.12	6080.71
475.30	6118.16
475.48	6164.97
475.66	6139.23
475.84	6169.65
476.02	6321.79
476.20	6216.46
476.38	6392.00
476.56	6597.97
476.74	6527.75
476.92	6506.69
477.10	6553.50
477.28	6534.78
477.46	6487.96
477.64	6651.80
477.82	6654.14
478.00	6967.77
478.18	6904.58
478.36	6988.84
478.54	6890.54
478.72	6881.18
478.90	7054.37
479.08	7201.83
479.26	7190.13
479.44	7225.23
479.62	7290.77
479.80	7222.89
479.98	7302.47
480.16	7508.44
480.34	7412.48
480.52	7609.08
480.70	7501.42
480.88	7473.33
481.06	7470.99
481.24	7564.61
481.41	7873.56
481.59	7889.95
481.77	7997.61
481.95	8039.74
482.13	7852.50
482.31	8098.25
482.49	7953.14
482.67	8238.69
482.85	8355.71
483.03	8297.20
483.21	8386.14
483.39	8439.97
483.57	8418.91
483.74	8617.85
483.92	8716.16
484.10	8657.64
484.28	8571.04
484.46	8767.65
484.64	9032.13
484.82	8933.82
485.00	8959.57
485.18	9158.52
485.35	9125.75
485.53	9160.86
485.71	9322.35
485.89	9502.58
486.07	9287.25
486.25	9547.05
486.43	9720.24
486.61	9509.60
486.78	9638.33
486.96	9858.34
487.14	10157.92
487.32	10078.35
487.50	10127.50
487.68	9734.29
487.85	9984.73
488.03	10008.13
488.21	10424.75
488.39	10501.98
488.57	10579.22
488.75	10429.43
488.92	10691.57
489.10	10714.97
489.28	10642.42
489.46	11063.71
489.64	10876.47
489.81	11199.46
489.99	10956.05
490.17	11267.34
490.35	11283.72
490.53	11398.41
490.70	11309.47
490.88	11316.49
491.06	11800.98
491.24	11676.93
491.41	11843.11
491.59	11602.04
491.77	11822.05
491.95	12037.38
492.13	11925.03
492.30	12149.72
492.48	12016.31
492.66	12051.42
492.84	12383.77
493.01	12552.29
493.19	12362.71
493.37	12638.89
493.54	12568.68
493.72	12585.06
493.90	12683.36
494.08	12690.38
494.25	12936.14
494.43	12819.11
494.61	13142.11
494.79	13301.26
494.96	13102.32
495.14	13046.15
495.32	13088.28
495.49	13415.95
495.67	13542.34
495.85	13568.09
496.02	13682.77
496.20	13944.91
496.38	13645.32
496.55	13804.48
496.73	13956.61
496.91	13820.86
497.09	14115.77
497.26	14319.40
497.44	13973.00
497.62	14003.43
497.79	14347.48
497.97	14190.67
498.14	14508.98
498.32	14752.40
498.50	14754.74
498.67	14661.12
498.85	14569.83
499.03	14911.55
499.20	14686.86
499.38	14855.38
499.56	14874.10
499.73	15241.57
499.91	15349.23
500.08	15360.94
500.26	15122.20
500.44	15138.58
500.61	15037.94
500.79	15288.38
500.97	15456.90
501.14	15700.31
501.32	15552.86
501.49	15765.85
501.67	15421.79
501.84	15489.67
502.02	15695.63
502.20	15772.87
502.37	16011.60
502.55	16011.60
502.72	16133.31
502.90	16004.58
503.07	15772.87
503.25	16175.44
503.43	15868.83
503.60	16372.05
503.78	16294.81
503.95	16332.26
504.13	16262.04
504.30	16348.64
504.48	16072.46
504.65	16477.37
504.83	16580.36
505.01	16669.30
505.18	16905.69
505.36	16781.64
505.53	17046.12
505.71	16727.81
505.88	17055.48
506.06	16655.25
506.23	16802.71
506.41	16861.22
506.58	17308.26
506.76	16886.97
506.93	17043.78
507.11	17015.69
507.28	17259.11
507.46	17469.76
507.63	17561.04
507.81	17319.96
507.98	17603.17
508.16	17811.48
508.33	17392.52
508.50	17514.23
508.68	17671.04
508.85	17823.18
509.03	17900.42
509.20	17879.35
509.38	18167.24
509.55	18024.47
509.73	17914.46
509.90	18139.15
510.08	18125.11
510.25	18005.74
510.42	18335.76
510.60	18380.23
510.77	18539.38
510.95	18434.06
511.12	18415.34
511.30	18415.34
511.47	18815.57
511.64	18705.56
511.82	18656.41
511.99	18581.51
512.17	18944.30
512.34	19075.37
512.51	19112.81
512.69	19007.49
512.86	18878.76
513.04	18909.19
513.21	18895.14
513.38	18965.36
513.56	19168.99
513.73	19058.98
513.90	19243.88
514.08	19101.11
514.25	19321.12
514.43	19374.95
514.60	19686.25
514.77	19538.79
514.95	19566.88
515.12	19580.92
515.29	19475.60
515.47	19786.89
515.64	19978.81
515.81	19627.73
515.99	19658.16
516.16	19889.87
516.33	19875.83
516.51	19955.41
516.68	19833.70
516.85	19728.38
517.03	20079.46
517.20	20215.21
517.37	20058.39
517.54	20325.21
517.72	20107.54
517.89	20240.95
518.06	20184.78
518.24	20299.47
518.41	20187.12
518.58	20348.62
518.75	20456.28
518.93	20816.72
519.10	20475.01
519.27	20767.57
519.45	20697.36
519.62	20828.43
519.79	20828.43
519.96	20919.71
520.14	21013.33
520.31	21027.37
520.48	21156.10
520.65	20854.17
520.83	21184.19
521.00	20903.32
521.17	21106.95
521.34	21142.06
521.52	20772.25
521.69	21174.83
521.86	21156.10
522.03	21488.46
522.20	21371.43
522.38	21521.23
522.55	21336.32
522.72	21649.96
522.89	21708.47
523.07	21656.98
523.24	21558.67
523.41	21736.56
523.58	21703.79
523.75	21710.81
523.92	21876.99
524.10	21799.75
524.27	21970.61
524.44	21905.07
524.61	22394.25
524.78	22052.53
524.96	22099.34
525.13	22010.40
525.30	22125.08
525.47	22279.56
525.64	22064.23
525.81	22366.16
525.98	22391.91
526.16	22235.09
526.33	22539.36
526.50	22677.45
526.67	22244.45
526.84	22382.54
527.01	22106.36
527.18	22532.34
527.36	22106.36
527.53	22864.69
527.70	22792.14
527.87	22885.76
528.04	22752.35
528.21	22752.35
528.38	22551.06
528.55	23185.35
528.72	22883.42
528.89	23040.23
529.07	22986.40
529.24	22991.08
529.41	23288.33
529.58	23246.20
529.75	22988.74
529.92	23175.98
530.09	22897.46
530.26	23295.35
530.43	23438.12
530.60	22991.08
530.77	23304.71
530.94	23386.63
531.11	23372.59
531.28	23035.55
531.46	23506.00
531.63	23545.79
531.80	23573.88
531.97	23782.18
532.14	23833.68
532.31	23819.63
532.48	23681.54
532.65	23807.93
532.82	24006.87
532.99	23557.49
533.16	23606.64
533.33	24287.74
533.50	24264.33
533.67	23896.87
533.84	23913.25
534.01	24065.39
534.18	24023.26
534.35	24182.42
534.52	24247.95
534.69	24524.13
534.86	24159.01
535.03	24210.50
535.20	24269.01
535.37	24332.21
535.54	24482.00
535.71	23899.21
535.88	24496.05
536.05	24290.08
536.22	24631.80
536.38	24666.91
536.55	24390.72
536.72	24779.25
536.89	24210.50
537.06	24470.30
537.23	24952.45
537.40	24690.31
537.57	24699.67
537.74	24547.54
537.91	24680.95
538.08	25109.27
538.25	24821.38
538.42	24903.30
538.59	24826.06
538.75	24685.63
538.92	24975.86
539.09	25062.46
539.26	25193.53
539.43	24919.68
539.60	25158.42
539.77	25181.82
539.94	25254.38
540.11	25179.48
540.28	25261.40
540.44	25127.99
540.61	25273.10
540.78	25032.03
540.95	25378.43
541.12	25249.70
541.29	25158.42
541.46	25123.31
541.62	25198.21
541.79	25399.49
541.96	25003.94
542.13	25333.96
542.30	25551.63
542.47	25418.22
542.63	25895.69
542.80	25790.36
542.97	25729.51
543.14	25778.66
543.31	25682.70
543.48	25940.16
543.64	26295.92
543.81	25874.62
543.98	26331.03
544.15	25781.00
544.32	25982.29
544.48	26164.85
544.65	25879.30
544.82	25912.07
544.99	25979.95
545.16	25844.20
545.32	26094.63
545.49	26532.31
545.66	26338.05
545.83	26169.53
546.00	26448.05
546.16	26497.20
546.33	25907.39
546.50	25930.80
546.67	26071.23
546.83	26033.78
547.00	26363.79
547.17	26192.94
547.34	26529.97
547.50	26663.38
547.67	26813.18
547.84	26464.44
548.00	26691.47
548.17	26485.50
548.34	26654.02
548.51	26878.71
548.67	27070.64
548.84	26700.83
549.01	26852.97
549.18	26714.87
549.34	26604.87
549.51	26590.83
549.68	27147.87
549.84	26829.56
550.01	27115.11
550.18	26668.06
550.34	27040.21
550.51	26705.51
550.68	27065.96
550.84	26721.90
551.01	26988.72
551.18	26771.05
551.34	27292.99
551.51	26892.76
551.68	27300.01
551.84	27330.44
552.01	27505.98
552.18	27534.06
552.34	27342.14
552.51	27276.60
552.68	27342.14
552.84	27014.46
553.01	27332.78
553.18	27335.12
553.34	27653.43
553.51	27182.98
553.67	27646.41
553.84	27604.28
554.01	27321.07
554.17	27365.54
554.34	27466.19
554.51	27328.10
554.67	27770.46
554.84	27548.11
555.00	27559.81
555.17	27639.39
555.33	27407.67
555.50	27772.80
555.67	27805.56
555.83	27618.32
556.00	27819.61
556.16	28212.82
556.33	27819.61
556.50	27882.80
556.66	27742.37
556.83	27737.69
556.99	28196.43
557.16	28158.99
557.32	27871.10
557.49	28093.45
557.65	27501.29
557.82	27564.49
557.98	28093.45
558.15	27721.30
558.32	27882.80
558.48	27585.55
558.65	28046.64
558.81	28161.33
558.98	28247.93
559.14	28346.23
559.31	28079.41
559.47	27875.78
559.64	28041.96
559.80	28217.50
559.97	28456.23
560.13	28421.13
560.30	28231.54
560.46	28395.38
560.63	28072.39
560.79	28212.82
560.96	28797.95
561.12	27946.00
561.29	28051.32
561.45	28034.94
561.61	28264.31
561.78	28306.44
561.94	28842.42
562.11	28453.89
562.27	28456.23
562.44	28313.46
562.60	28257.29
562.77	28198.77
562.93	28053.66
563.10	28549.85
563.26	28496.02
563.42	28779.23
563.59	28533.47
563.75	28751.14
563.92	28872.85
564.08	28252.61
564.24	28683.27
564.41	28776.89
564.57	28407.08
564.74	28421.13
564.90	28730.08
565.07	28720.71
565.23	28573.26
565.39	28456.23
565.56	28725.39
565.72	28978.17
565.88	28561.56
566.05	28437.51
566.21	28425.81
566.38	28491.34
566.54	28704.33
566.70	28964.13
566.87	28816.68
567.03	28957.11
567.19	29223.93
567.36	28961.79
567.52	28779.23
567.68	28620.07
567.85	28664.54
568.01	28753.48
568.17	28936.04
568.34	29284.78
568.50	29027.32
568.66	28863.49
568.83	28748.80
568.99	29071.79
569.15	28833.06
569.32	28830.72
569.48	28273.67
569.64	28877.53
569.81	28936.04
569.97	28599.01
570.13	28996.90
570.30	29142.01
570.46	29069.45
570.62	28837.74
570.78	28760.50
570.95	28893.91
571.11	29221.59
571.27	28851.78
571.43	29156.05
571.60	29111.58
571.76	29085.84
571.92	29043.71
572.09	29289.46
572.25	29352.66
572.41	28910.30
572.57	29317.55
572.74	29240.31
572.90	29174.78
573.06	29062.43
573.22	28917.32
573.38	29289.46
573.55	29305.85
573.71	29090.52
573.87	29191.16
574.03	28971.15
574.20	29090.52
574.36	28720.71
574.52	29062.43
574.68	29008.60
574.84	29125.63
575.01	29130.31
575.17	29460.32
575.33	29067.11
575.49	29106.90
575.65	29050.73
575.82	29535.22
575.98	29085.84
576.14	29734.17
576.30	29233.29
576.46	29228.61
576.62	29111.58
576.79	29041.37
576.95	28982.85
577.11	29448.62
577.27	29310.53
577.43	29186.48
577.59	29113.92
577.75	28896.25
577.92	29041.37
578.08	28957.11
578.24	28886.89
578.40	29373.72
578.56	28989.88
578.72	29156.05
578.88	29748.21
579.04	29635.86
579.21	29453.30
579.37	29345.64
579.53	29448.62
579.69	28835.40
579.85	29214.57
580.01	28772.21
580.17	29027.32
580.33	29118.60
580.49	29172.44
580.65	29610.12
580.82	29666.29
580.98	29305.85
581.14	29378.40
581.30	29378.40
581.46	29317.55
581.62	29219.25
581.78	29156.05
581.94	29439.26
582.10	29085.84
582.26	29315.21
582.42	29202.86
582.58	29167.76
582.74	29434.58
582.90	29350.32
583.06	29404.15
583.22	29163.08
583.38	29429.90
583.54	29385.43
583.70	29198.18
583.86	29504.79
584.02	29408.83
584.18	29249.67
584.34	29703.74
584.50	29333.93
584.66	29008.60
584.82	29111.58
584.98	29256.70
585.14	29268.40
585.30	29111.58
585.46	29429.90
585.62	29418.19
585.78	29387.77
585.94	28957.11
586.10	29312.87
586.26	29387.77
586.42	29551.60
586.58	29811.40
586.74	29317.55
586.90	28875.19
587.06	29556.28
587.22	29603.10
587.38	29455.64
587.54	29888.64
587.70	29352.66
587.86	29656.93
588.02	29500.11
588.18	29689.70
588.34	29961.20
588.49	29202.86
588.65	29214.57
588.81	29078.82
588.97	29607.78
589.13	29523.52
589.29	29347.98
589.45	29535.22
589.61	29839.49
589.77	29593.73
589.93	30000.99
590.08	29514.16
590.24	29799.70
590.40	29614.80
590.56	29818.42
590.72	29572.67
590.88	29621.82
591.04	29797.36
591.20	29727.14
591.35	29862.90
591.51	30015.03
591.67	29970.56
591.83	29806.72
591.99	29886.30
