SpectraSuite Data File
++++++++++++++++++++++++++++++++++++
Date: Fri Oct 18 13:58:29 GMT-05:00 2013
User: bianchi
Dark Spectrum Present: No
Reference Spectrum Present: No
Number of Sampled Component Spectra: 1
Spectrometers: USB2+H05261
Integration Time (usec): 50000 (USB2+H05261)
Spectra Averaged: 1 (USB2+H05261)
Boxcar Smoothing: 0 (USB2+H05261)
Correct for Electrical Dark: No (USB2+H05261)
Strobe/Lamp Enabled: No (USB2+H05261)
Correct for Detector Non-linearity: No (USB2+H05261)
Correct for Stray Light: No (USB2+H05261)
Number of Pixels in Processed Spectrum: 2048
>>>>>Begin Processed Spectral Data<<<<<
365.73	0.00
365.92	0.00
366.12	0.00
366.32	0.00
366.52	0.00
366.72	0.00
366.91	0.00
367.11	0.00
367.31	0.00
367.51	0.00
367.70	0.00
367.90	0.00
368.10	0.00
368.30	0.00
368.49	0.00
368.69	0.00
368.89	0.00
369.09	0.00
369.28	0.00
369.48	0.00
369.68	0.00
369.87	0.00
370.07	0.00
370.27	0.00
370.47	0.00
370.66	107.66
370.86	156.82
371.06	161.50
371.25	182.56
371.45	91.28
371.65	175.54
371.84	152.13
372.04	149.79
372.24	201.29
372.44	180.22
372.63	196.60
372.83	173.20
373.03	88.94
373.22	212.99
373.42	184.90
373.62	262.14
373.81	191.92
374.01	161.50
374.21	320.65
374.40	194.26
374.60	269.16
374.79	227.03
374.99	212.99
375.19	276.18
375.38	276.18
375.58	241.08
375.78	287.89
375.97	299.59
376.17	222.35
376.37	280.86
376.56	212.99
376.76	210.65
376.95	210.65
377.15	332.36
377.35	227.03
377.54	325.33
377.74	238.73
377.93	234.05
378.13	255.12
378.33	285.55
378.52	278.52
378.72	320.65
378.91	322.99
379.11	243.42
379.31	287.89
379.50	311.29
379.70	294.91
379.89	262.14
380.09	325.33
380.28	362.78
380.48	276.18
380.68	311.29
380.87	360.44
381.07	402.57
381.26	344.06
381.46	348.74
381.65	374.49
381.85	306.61
382.04	294.91
382.24	369.80
382.43	341.72
382.63	381.51
382.83	362.78
383.02	294.91
383.22	341.72
383.41	411.93
383.61	386.19
383.80	362.78
384.00	416.62
384.19	334.70
384.39	353.42
384.58	365.12
384.78	362.78
384.97	388.53
385.17	400.23
385.36	386.19
385.56	330.02
385.75	351.08
385.95	318.31
386.14	360.44
386.34	379.17
386.53	379.17
386.72	330.02
386.92	428.32
387.11	451.72
387.31	376.83
387.50	397.89
387.70	444.70
387.89	451.72
388.09	447.04
388.28	393.21
388.48	447.04
388.67	381.51
388.86	493.85
389.06	381.51
389.25	465.77
389.45	489.17
389.64	472.79
389.84	477.47
390.03	489.17
390.22	479.81
390.42	550.03
390.61	479.81
390.81	423.64
391.00	404.91
391.19	477.47
391.39	484.49
391.58	521.94
391.78	498.53
391.97	592.16
392.16	528.96
392.36	582.79
392.55	561.73
392.75	564.07
392.94	528.96
393.13	538.32
393.33	554.71
393.52	493.85
393.71	538.32
393.91	587.47
394.10	596.84
394.29	571.09
394.49	514.92
394.68	578.11
394.88	589.82
395.07	596.84
395.26	683.44
395.46	667.05
395.65	575.77
395.84	585.13
396.04	678.76
396.23	638.97
396.42	624.92
396.62	709.18
396.81	624.92
397.00	681.10
397.19	653.01
397.39	688.12
397.58	695.14
397.77	697.48
397.97	638.97
398.16	772.38
398.35	706.84
398.55	627.26
398.74	697.48
398.93	683.44
399.12	755.99
399.32	718.54
399.51	683.44
399.70	695.14
399.90	774.72
400.09	828.55
400.28	737.27
400.47	692.80
400.67	802.80
400.86	758.33
401.05	753.65
401.24	795.78
401.44	842.59
401.63	814.51
401.82	800.46
402.01	866.00
402.21	877.70
402.40	875.36
402.59	875.36
402.78	814.51
402.97	842.59
403.17	730.25
403.36	795.78
403.55	837.91
403.74	837.91
403.93	908.13
404.13	919.83
404.32	889.40
404.51	966.64
404.70	903.45
404.89	1004.09
405.09	919.83
405.28	873.02
405.47	957.28
405.66	947.92
405.85	959.62
406.05	983.02
406.24	933.87
406.43	957.28
406.62	971.32
406.81	1083.67
407.00	978.34
407.20	961.96
407.39	999.41
407.58	997.07
407.77	1090.69
407.96	1039.20
408.15	1071.97
408.34	1114.10
408.54	1078.99
408.73	1050.90
408.92	1057.92
409.11	1078.99
409.30	1135.16
409.49	1046.22
409.68	1259.21
409.87	1198.35
410.07	1151.54
410.26	1151.54
410.45	1135.16
410.64	1102.39
410.83	1228.78
411.02	1210.06
411.21	1313.04
411.40	1167.93
411.59	1144.52
411.78	1184.31
411.98	1289.64
412.17	1210.06
412.36	1345.81
412.55	1329.42
412.74	1416.02
412.93	1320.06
413.12	1296.66
413.31	1399.64
413.50	1390.28
413.69	1385.60
413.88	1437.09
414.07	1540.07
414.26	1535.39
414.45	1547.09
414.64	1490.92
414.83	1397.30
415.02	1547.09
415.22	1483.90
415.41	1591.56
415.60	1584.54
415.79	1624.33
415.98	1472.20
416.17	1565.82
416.36	1631.35
416.55	1633.69
416.74	1584.54
416.93	1554.12
417.12	1617.31
417.31	1645.40
417.50	1750.72
417.69	1687.53
417.88	1668.80
418.07	1710.93
418.26	1741.36
418.45	1799.87
418.64	1781.15
418.83	1727.32
419.02	1764.76
419.21	1844.34
419.39	1706.25
419.58	1764.76
419.77	1811.57
419.96	1804.55
420.15	1778.81
420.34	1886.47
420.53	1816.26
420.72	1863.07
420.91	2036.27
421.10	1961.37
421.29	1909.88
421.48	1792.85
421.67	1980.09
421.86	1947.33
422.05	2005.84
422.24	2017.54
422.43	1980.09
422.61	2071.37
422.80	2015.20
422.99	2043.29
423.18	2050.31
423.37	2033.93
423.56	1935.62
423.75	2083.08
423.94	1935.62
424.13	1802.21
424.32	1944.99
424.50	2073.71
424.69	1994.14
424.88	2087.76
425.07	2090.10
425.26	1970.73
425.45	1949.67
425.64	1973.07
425.83	2090.10
426.01	1987.11
426.20	1982.43
426.39	2010.52
426.58	2043.29
426.77	2036.27
426.96	2099.46
427.15	2157.97
427.33	2059.67
427.52	2155.63
427.71	2167.34
427.90	2090.10
428.09	2179.04
428.28	2169.68
428.46	2125.21
428.65	2256.28
428.84	2354.58
429.03	2174.36
429.22	2078.40
429.40	2319.47
429.59	2335.85
429.78	2263.30
429.97	2146.27
430.16	2172.02
430.34	2298.41
430.53	2286.70
430.72	2286.70
430.91	2209.47
431.10	2197.76
431.28	2438.84
431.47	2307.77
431.66	2420.11
431.85	2361.60
432.03	2300.75
432.22	2417.77
432.41	2373.30
432.60	2422.45
432.79	2422.45
432.97	2572.25
433.16	2403.73
433.35	2413.09
433.54	2530.12
433.72	2574.59
433.91	2548.84
434.10	2576.93
434.28	2572.25
434.47	2637.78
434.66	2548.84
434.85	2581.61
435.03	2612.04
435.22	2579.27
435.41	2775.88
435.59	2534.80
435.78	2654.17
435.97	2595.65
436.16	2703.32
436.34	2642.46
436.53	2803.96
436.72	2726.72
436.90	2614.38
437.09	2679.91
437.28	2600.34
437.46	2738.43
437.65	2806.30
437.84	2832.05
438.02	2782.90
438.21	2743.11
438.40	2801.62
438.58	2930.35
438.77	2897.58
438.96	2928.01
439.14	2878.86
439.33	2979.50
439.52	3038.02
439.70	3077.80
439.89	2977.16
440.08	2967.80
440.26	3023.97
440.45	3157.38
440.63	3094.19
440.82	3251.00
441.01	3169.09
441.19	3131.64
441.38	3169.09
441.57	3169.09
441.75	3248.66
441.94	3311.86
442.12	3241.64
442.31	3323.56
442.50	3421.86
442.68	3208.87
442.87	3183.13
443.05	3225.26
443.24	3398.46
443.43	3393.78
443.61	3272.07
443.80	3405.48
443.98	3276.75
444.17	3389.10
444.35	3468.67
444.54	3454.63
444.73	3445.27
444.91	3318.88
445.10	3428.88
445.28	3318.88
445.47	3339.94
445.65	3517.83
445.84	3456.97
446.02	3459.31
446.21	3419.52
446.39	3379.73
446.58	3620.81
446.77	3606.77
446.95	3407.82
447.14	3541.23
447.32	3421.86
447.51	3452.29
447.69	3508.46
447.88	3597.40
448.06	3529.53
448.25	3534.21
448.43	3403.14
448.62	3515.48
448.80	3440.59
448.99	3508.46
449.17	3515.48
449.36	3543.57
449.54	3653.58
449.73	3637.19
449.91	3639.53
450.10	3599.74
450.28	3592.72
450.46	3740.18
450.65	3716.77
450.83	3861.88
451.02	3595.06
451.20	3749.54
451.39	3698.05
451.57	3728.47
451.76	3796.35
451.94	3712.09
452.13	3899.33
452.31	3756.56
452.49	3651.24
452.68	3901.67
452.86	3878.27
453.05	3976.57
453.23	3932.10
453.42	3871.25
453.60	3850.18
453.78	3777.62
453.97	3838.48
454.15	3934.44
454.34	3789.33
454.52	3922.74
454.70	3847.84
454.89	4072.53
455.07	3962.53
455.26	4056.15
455.44	4004.66
455.62	4060.83
455.81	4173.18
455.99	4007.00
456.17	4088.92
456.36	4224.67
456.54	4194.24
456.73	4079.55
456.91	4222.33
457.09	4241.05
457.28	4369.78
457.46	4269.14
457.64	4266.80
457.83	4163.81
458.01	4243.39
458.19	4346.37
458.38	4449.36
458.56	4435.32
458.74	4292.54
458.93	4355.74
459.11	4348.72
459.29	4517.23
459.48	4484.47
459.66	4505.53
459.84	4557.02
460.03	4538.30
460.21	4472.76
460.39	4496.17
460.57	4250.41
460.76	4685.75
460.94	4610.86
461.12	4535.96
461.31	4657.67
461.49	4645.96
461.67	4484.47
461.85	4725.54
462.04	4671.71
462.22	4723.20
462.40	4819.16
462.59	4737.24
462.77	4842.57
462.95	4819.16
463.13	4833.21
463.32	4863.63
463.50	4926.83
463.68	4800.44
463.86	4844.91
464.05	4770.01
464.23	4835.55
464.41	4868.31
464.59	4786.40
464.78	4737.24
464.96	4858.95
465.14	4858.95
465.32	4954.91
465.50	4912.78
465.69	4903.42
465.87	4863.63
466.05	4990.02
466.23	4975.98
466.41	5041.51
466.60	5294.29
466.78	5310.68
466.96	5013.43
467.14	5055.56
467.32	5104.71
467.51	5242.80
467.69	5118.75
467.87	5135.14
468.05	5139.82
468.23	5144.50
468.41	5118.75
468.60	5235.78
468.78	5317.70
468.96	5132.79
469.14	5273.23
469.32	5336.42
469.50	5032.15
469.69	5310.68
469.87	5362.17
470.05	5357.49
470.23	5434.72
470.41	5266.21
470.59	5413.66
470.77	5392.59
470.95	5460.47
471.14	5479.19
471.32	5341.10
471.50	5612.60
471.68	5633.67
471.86	5650.05
472.04	5568.13
472.22	5687.50
472.40	5582.18
472.58	5675.80
472.77	5584.52
472.95	5795.17
473.13	5991.77
473.31	5753.04
473.49	5748.36
473.67	5762.40
473.85	5874.74
474.03	5963.68
474.21	6010.50
474.39	6017.52
474.57	5968.37
474.75	6167.31
474.93	6141.57
475.12	5944.96
475.30	6153.27
475.48	6045.60
475.66	6101.78
475.84	6296.04
476.02	6415.41
476.20	6221.14
476.38	6333.49
476.56	6595.63
476.74	6548.82
476.92	6534.78
477.10	6534.78
477.28	6473.92
477.46	6476.26
477.64	6682.23
477.82	6628.40
478.00	6932.67
478.18	6998.20
478.36	6958.41
478.54	6927.99
478.72	6874.15
478.90	7016.93
479.08	7042.67
479.26	7129.27
479.44	7330.56
479.62	7204.17
479.80	7295.45
479.98	7335.24
480.16	7503.76
480.34	7222.89
480.52	7506.10
480.70	7585.68
480.88	7625.47
481.06	7693.34
481.24	7728.45
481.41	7784.62
481.59	7854.84
481.77	8028.04
481.95	7911.01
482.13	7885.26
482.31	8049.10
482.49	8138.04
482.67	8245.71
482.85	8285.50
483.03	8449.33
483.21	8322.94
483.39	8524.23
483.57	8528.91
483.74	8575.72
483.92	8582.74
484.10	8641.26
484.28	8781.69
484.46	8957.23
484.64	9064.89
484.82	8882.33
485.00	8924.46
485.18	9357.46
485.35	9298.95
485.53	9451.08
485.71	9427.68
485.89	9504.92
486.07	9397.25
486.25	9455.76
486.43	9591.52
486.61	9738.97
486.78	9893.44
486.96	9891.10
487.14	10207.08
487.32	10026.86
487.50	10001.11
487.68	10045.58
487.85	10356.87
488.03	10361.55
488.21	10347.51
488.39	10647.10
488.57	10513.69
488.75	10490.28
488.92	10780.51
489.10	10740.72
489.28	10827.32
489.46	11077.76
489.64	10953.71
489.81	11384.37
489.99	11255.64
490.17	11129.25
490.35	11665.23
490.53	11501.39
490.70	11627.78
490.88	11370.32
491.06	11620.76
491.24	11627.78
491.41	11686.29
491.59	11824.39
491.77	11751.83
491.95	12215.26
492.13	11925.03
492.30	12243.34
492.48	12297.17
492.66	11974.18
492.84	12238.66
493.01	12535.91
493.19	12285.47
493.37	12842.52
493.54	12585.06
493.72	12889.33
493.90	13097.64
494.08	12840.18
494.25	13097.64
494.43	12964.23
494.61	13268.50
494.79	13095.30
494.96	13214.66
495.14	13231.05
495.32	13549.36
495.49	13540.00
495.67	13462.76
495.85	13802.14
496.02	13701.50
496.20	13830.23
496.38	13547.02
496.55	14019.81
496.73	14473.87
496.91	14059.60
497.09	14291.31
497.26	14005.77
497.44	14155.56
497.62	14258.54
497.79	14576.86
497.97	14293.65
498.14	14731.33
498.32	14595.58
498.50	14630.69
498.67	14775.80
498.85	14902.19
499.03	14836.66
499.20	14836.66
499.38	14789.85
499.56	14909.21
499.73	15227.53
499.91	15208.80
500.08	15239.23
500.26	15421.79
500.44	14958.36
500.61	15398.38
500.79	15260.29
500.97	15513.07
501.14	15807.98
501.32	15906.28
501.49	15585.63
501.67	15880.53
501.84	15817.34
502.02	15857.13
502.20	15995.22
502.37	16112.25
502.55	16299.49
502.72	16163.74
502.90	16112.25
503.07	16276.09
503.25	16149.70
503.43	16266.72
503.60	16257.36
503.78	16620.14
503.95	16444.60
504.13	16423.54
504.30	16566.31
504.48	16376.73
504.65	16589.72
504.83	16755.90
505.01	17039.10
505.18	17013.35
505.36	16664.61
505.53	16631.85
505.71	17099.95
505.88	17060.16
506.06	17022.72
506.23	16966.54
506.41	17114.00
506.58	17121.02
506.76	17366.78
506.93	17572.74
507.11	17149.11
507.28	17383.16
507.46	17551.68
507.63	17626.57
507.81	17769.35
507.98	17556.36
508.16	17579.76
508.33	17706.15
508.50	17909.78
508.68	18066.60
508.85	18008.08
509.03	18015.10
509.20	18136.81
509.38	18115.75
509.55	18370.86
509.73	18338.10
509.90	18099.36
510.08	18314.69
510.25	18483.21
510.42	18394.27
510.60	18501.93
510.77	18476.19
510.95	18808.54
511.12	18394.27
511.30	18441.08
511.47	18754.71
511.64	18906.85
511.82	18951.32
511.99	18731.31
512.17	18946.64
512.34	18815.57
512.51	18930.25
512.69	18979.40
512.86	19012.17
513.04	19417.08
513.21	19679.22
513.38	19304.74
513.56	19487.30
513.73	19419.42
513.90	19271.97
514.08	19204.10
514.25	19393.68
514.43	19466.24
514.60	19749.44
514.77	19576.24
514.95	19950.73
515.12	19473.26
515.29	19875.83
515.47	19852.42
515.64	20140.31
515.81	19871.15
515.99	20156.69
516.16	20051.37
516.33	19950.73
516.51	20229.25
516.68	19981.15
516.85	20107.54
517.03	20423.51
517.20	20301.81
517.37	20004.56
517.54	20381.38
517.72	20507.77
517.89	20182.44
518.06	20645.87
518.24	20482.03
518.41	20659.91
518.58	20669.27
518.75	20596.71
518.93	20760.55
519.10	20744.17
519.27	20926.73
519.45	20816.72
519.62	20847.15
519.79	20828.43
519.96	20833.11
520.14	20957.16
520.31	20915.03
520.48	21249.72
520.65	21219.30
520.83	21294.19
521.00	21186.53
521.17	21216.96
521.34	21390.16
521.52	21481.44
521.69	21631.23
521.86	21287.17
522.03	21537.61
522.20	21537.61
522.38	21699.11
522.55	21577.40
522.72	21921.46
522.89	21984.65
523.07	21928.48
523.24	21994.01
523.41	22031.46
523.58	21884.01
523.75	21649.96
523.92	21989.33
524.10	21781.03
524.27	22052.53
524.44	22232.75
524.61	22455.10
524.78	22270.20
524.96	22368.50
525.13	22473.82
525.30	22427.01
525.47	22300.62
525.64	21994.01
525.81	22188.28
525.98	22789.80
526.16	22623.62
526.33	22476.16
526.50	22932.57
526.67	22691.49
526.84	22661.07
527.01	22771.07
527.18	22647.02
527.36	22782.77
527.53	22979.38
527.70	23051.94
527.87	23040.23
528.04	23026.19
528.21	22944.27
528.38	22967.68
528.55	23047.26
528.72	23117.47
528.89	22946.61
529.07	23187.69
529.24	23262.58
529.41	23325.78
529.58	23335.14
529.75	23620.69
529.92	23302.37
530.09	23648.77
530.26	23384.29
530.43	23559.83
530.60	23131.51
530.77	23257.90
530.94	23475.57
531.11	23386.63
531.28	23585.58
531.46	23653.45
531.63	23524.72
531.80	23735.37
531.97	23997.51
532.14	23857.08
532.31	23899.21
532.48	24112.20
532.65	24039.64
532.82	23618.35
532.99	23850.06
533.16	24020.92
533.33	23875.80
533.50	24577.97
533.67	24444.56
533.84	24102.84
534.01	24383.70
534.18	24173.05
534.35	24245.61
534.52	24362.64
534.69	24491.37
534.86	24765.21
535.03	24383.70
535.20	24226.89
535.37	24634.14
535.54	24542.86
535.71	24552.22
535.88	24711.38
536.05	24414.13
536.22	24854.15
536.38	24907.98
536.55	24912.66
536.72	24933.73
536.89	24732.44
537.06	24837.76
537.23	24713.72
537.40	24730.10
537.57	25085.86
537.74	24936.07
537.91	25277.79
538.08	25025.01
538.25	24900.96
538.42	25083.52
538.59	25338.64
538.75	24828.40
538.92	25085.86
539.09	25296.51
539.26	25135.01
539.43	25399.49
539.60	25392.47
539.77	25418.22
539.94	25565.67
540.11	25319.92
540.28	25366.73
540.44	25057.78
540.61	25160.76
540.78	25268.42
540.95	25422.90
541.12	25394.81
541.29	25549.29
541.46	25722.49
541.62	25579.71
541.79	25394.81
541.96	25294.17
542.13	25560.99
542.30	25661.63
542.47	26036.12
542.63	26045.48
542.80	25757.60
542.97	26309.96
543.14	25942.50
543.31	26019.74
543.48	26106.34
543.64	26244.43
543.81	26010.37
543.98	26735.94
544.15	26342.73
544.32	26272.51
544.48	26871.69
544.65	26118.04
544.82	26167.19
544.99	26150.81
545.16	26237.41
545.32	26094.63
545.49	26661.04
545.66	26511.25
545.83	26623.59
546.00	26824.88
546.16	26412.95
546.33	26703.17
546.50	26129.74
546.67	26506.57
546.83	26040.80
547.00	26508.91
547.17	26682.11
547.34	26686.79
547.50	26656.36
547.67	26904.46
547.84	27302.35
548.00	26700.83
548.17	26813.18
548.34	26536.99
548.51	27206.39
548.67	27538.74
548.84	27040.21
549.01	26955.95
549.18	27185.32
549.34	26979.36
549.51	26988.72
549.68	26883.39
549.84	27285.97
550.01	27171.28
550.18	27356.18
550.34	27204.05
550.51	27578.53
550.68	27065.96
550.84	27271.92
551.01	27316.39
551.18	27248.52
551.34	27009.78
551.51	27407.67
551.68	27297.67
551.84	27129.15
552.01	27501.29
552.18	27505.98
552.34	27412.35
552.51	27377.25
552.68	27583.21
552.84	27463.85
553.01	27718.96
553.18	27534.06
553.34	27562.15
553.51	27529.38
553.67	27765.78
553.84	27740.03
554.01	28039.62
554.17	27791.52
554.34	27913.23
554.51	27845.35
554.67	27704.92
554.84	27878.12
555.00	27915.57
555.17	28023.23
555.33	27683.86
555.50	27854.72
555.67	28177.71
555.83	27992.81
556.00	28002.17
556.16	28163.67
556.33	27779.82
556.50	28009.19
556.66	28182.39
556.83	28086.43
556.99	28151.96
557.16	28496.02
557.32	28364.95
557.49	28549.85
557.65	27920.25
557.82	27957.70
557.98	28072.39
558.15	28149.62
558.32	28470.28
558.48	28517.09
558.65	28166.01
558.81	28404.74
558.98	28353.25
559.14	28158.99
559.31	28383.68
559.47	28182.39
559.64	28350.91
559.80	28158.99
559.97	28437.51
560.13	28608.37
560.30	28807.31
560.46	28453.89
560.63	28428.15
560.79	28428.15
560.96	28617.73
561.12	28334.53
561.29	28224.52
561.45	28254.95
561.61	28444.53
561.78	28716.03
561.94	28730.08
562.11	29095.20
562.27	29207.55
562.44	28608.37
562.60	28807.31
562.77	29174.78
562.93	28334.53
563.10	28971.15
563.26	29064.77
563.42	29219.25
563.59	28884.55
563.75	28929.02
563.92	28931.36
564.08	28821.36
564.24	28404.74
564.41	28458.57
564.57	29013.28
564.74	28795.61
564.90	28814.34
565.07	28833.06
565.23	29053.07
565.39	28807.31
565.56	28903.28
565.72	28746.46
565.88	29053.07
566.05	28875.19
566.21	28809.65
566.38	28933.70
566.54	28718.37
566.70	29331.59
566.87	29134.99
567.03	28938.38
567.19	29457.98
567.36	29551.60
567.52	28786.25
567.68	29151.37
567.85	28924.34
568.01	29081.16
568.17	28884.55
568.34	29111.58
568.50	29149.03
568.66	29104.56
568.83	29483.73
568.99	29455.64
569.15	29282.44
569.32	29083.50
569.48	28952.43
569.64	29118.60
569.81	29385.43
569.97	28900.94
570.13	29387.77
570.30	29032.00
570.46	29074.13
570.62	29408.83
570.78	29301.17
570.95	29043.71
571.11	29104.56
571.27	28800.29
571.43	29322.23
571.60	29244.99
571.76	29338.62
571.92	29392.45
572.09	29111.58
572.25	29303.51
572.41	29156.05
572.57	29326.91
572.74	29483.73
572.90	29170.10
573.06	29345.64
573.22	29219.25
573.38	29259.04
573.55	29525.86
573.71	29535.22
573.87	29792.68
574.03	29252.02
574.20	29567.99
574.36	29242.65
574.52	29479.05
574.68	29172.44
574.84	29120.95
575.01	29593.73
575.17	30029.07
575.33	29565.65
575.49	29142.01
575.65	29771.61
575.82	29298.83
575.98	29284.78
576.14	29626.50
576.30	29490.75
576.46	29315.21
576.62	29673.31
576.79	29418.19
576.95	29165.42
577.11	29509.47
577.27	29481.39
577.43	29436.92
577.59	29551.60
577.75	29509.47
577.92	29291.80
578.08	29387.77
578.24	29303.51
578.40	29486.07
578.56	29553.94
578.72	29575.01
578.88	29743.53
579.04	29549.26
579.21	29776.30
579.37	29385.43
579.53	29858.21
579.69	29310.53
579.85	29411.17
580.01	29453.30
580.17	29233.29
580.33	29319.89
580.49	29525.86
580.65	29425.22
580.82	29795.02
580.98	29635.86
581.14	29677.99
581.30	29401.81
581.46	29685.01
581.62	29280.10
581.78	29308.19
581.94	29350.32
582.10	29734.17
582.26	29701.40
582.42	29474.37
582.58	29818.42
582.74	29331.59
582.90	29813.74
583.06	29984.60
583.22	29809.06
583.38	29750.55
583.54	29518.84
583.70	29645.23
583.86	29757.57
584.02	29525.86
584.18	29610.12
584.34	30031.41
584.50	29764.59
584.66	29876.94
584.82	29486.07
584.98	29802.04
585.14	29050.73
585.30	29362.02
585.46	29858.21
585.62	29696.72
585.78	29701.40
585.94	29535.22
586.10	29926.09
586.26	29685.01
586.42	30202.27
586.58	29905.02
586.74	29385.43
586.90	29303.51
587.06	29465.00
587.22	29692.04
587.38	29401.81
587.54	29879.28
587.70	29816.08
587.86	29736.51
588.02	30206.95
588.18	29755.23
588.34	29912.05
588.49	30174.19
588.65	29469.69
588.81	29518.84
588.97	29385.43
589.13	29813.74
589.29	29930.77
589.45	29722.46
589.61	30061.84
589.77	30019.71
589.93	29963.54
590.08	30223.34
590.24	30096.95
590.40	30000.99
590.56	29933.11
590.72	29965.88
590.88	29783.32
591.04	29825.45
591.20	29853.53
591.35	30574.42
591.51	30445.69
591.67	29818.42
591.83	30380.15
591.99	29734.17
