SpectraSuite Data File
++++++++++++++++++++++++++++++++++++
Date: Fri Oct 18 13:57:55 GMT-05:00 2013
User: bianchi
Dark Spectrum Present: No
Reference Spectrum Present: No
Number of Sampled Component Spectra: 1
Spectrometers: USB2+H05261
Integration Time (usec): 50000 (USB2+H05261)
Spectra Averaged: 1 (USB2+H05261)
Boxcar Smoothing: 0 (USB2+H05261)
Correct for Electrical Dark: No (USB2+H05261)
Strobe/Lamp Enabled: No (USB2+H05261)
Correct for Detector Non-linearity: No (USB2+H05261)
Correct for Stray Light: No (USB2+H05261)
Number of Pixels in Processed Spectrum: 2048
>>>>>Begin Processed Spectral Data<<<<<
365.73	0.00
365.92	0.00
366.12	0.00
366.32	0.00
366.52	0.00
366.72	0.00
366.91	0.00
367.11	0.00
367.31	0.00
367.51	0.00
367.70	0.00
367.90	0.00
368.10	0.00
368.30	0.00
368.49	0.00
368.69	0.00
368.89	0.00
369.09	0.00
369.28	0.00
369.48	0.00
369.68	0.00
369.87	0.00
370.07	0.00
370.27	0.00
370.47	0.00
370.66	67.88
370.86	121.71
371.06	126.39
371.25	215.33
371.45	102.98
371.65	182.56
371.84	147.45
372.04	142.77
372.24	152.13
372.44	163.84
372.63	152.13
372.83	250.44
373.03	231.71
373.22	170.86
373.42	322.99
373.62	170.86
373.81	184.90
374.01	311.29
374.21	208.31
374.40	231.71
374.60	264.48
374.79	304.27
374.99	301.93
375.19	269.16
375.38	283.20
375.58	287.89
375.78	231.71
375.97	234.05
376.17	306.61
376.37	220.01
376.56	280.86
376.76	257.46
376.95	231.71
377.15	227.03
377.35	243.42
377.54	220.01
377.74	280.86
377.93	271.50
378.13	339.38
378.33	374.49
378.52	292.57
378.72	322.99
378.91	313.63
379.11	292.57
379.31	304.27
379.50	271.50
379.70	311.29
379.89	259.80
380.09	339.38
380.28	280.86
380.48	327.68
380.68	337.04
380.87	276.18
381.07	304.27
381.26	360.44
381.46	365.12
381.65	332.36
381.85	355.76
382.04	339.38
382.24	383.85
382.43	346.40
382.63	379.17
382.83	393.21
383.02	367.46
383.22	425.98
383.41	280.86
383.61	325.33
383.80	411.93
384.00	493.85
384.19	409.59
384.39	348.74
384.58	393.21
384.78	360.44
384.97	451.72
385.17	374.49
385.36	341.72
385.56	348.74
385.75	468.11
385.95	376.83
386.14	451.72
386.34	435.34
386.53	465.77
386.72	407.25
386.92	484.49
387.11	442.36
387.31	491.51
387.50	458.74
387.70	440.02
387.89	430.66
388.09	454.06
388.28	362.78
388.48	407.25
388.67	440.02
388.86	402.57
389.06	414.27
389.25	465.77
389.45	505.56
389.64	526.62
389.84	489.17
390.03	552.37
390.22	564.07
390.42	573.43
390.61	493.85
390.81	582.79
391.00	533.64
391.19	482.15
391.39	456.40
391.58	514.92
391.78	585.13
391.97	489.17
392.16	505.56
392.36	587.47
392.55	606.20
392.75	585.13
392.94	564.07
393.13	571.09
393.33	601.52
393.52	575.77
393.71	578.11
393.91	624.92
394.10	543.00
394.29	564.07
394.49	552.37
394.68	650.67
394.88	664.71
395.07	664.71
395.26	599.18
395.46	688.12
395.65	718.54
395.84	624.92
396.04	662.37
396.23	713.86
396.42	685.78
396.62	655.35
396.81	681.10
397.00	631.94
397.19	702.16
397.39	638.97
397.58	662.37
397.77	699.82
397.97	681.10
398.16	812.17
398.35	683.44
398.55	664.71
398.74	690.46
398.93	734.93
399.12	763.01
399.32	763.01
399.51	802.80
399.70	763.01
399.90	725.57
400.09	816.85
400.28	840.25
400.47	791.10
400.67	814.51
400.86	788.76
401.05	760.67
401.24	821.53
401.44	861.32
401.63	880.04
401.82	847.27
402.01	821.53
402.21	866.00
402.40	870.68
402.59	833.23
402.78	873.02
402.97	842.59
403.17	849.61
403.36	903.45
403.55	891.74
403.74	976.00
403.93	908.13
404.13	959.62
404.32	898.77
404.51	980.68
404.70	1001.75
404.89	926.85
405.09	910.47
405.28	1015.79
405.47	959.62
405.66	1095.37
405.85	1025.15
406.05	961.96
406.24	936.21
406.43	1018.13
406.62	994.73
406.81	1111.75
407.00	968.98
407.20	1048.56
407.39	1034.52
407.58	1090.69
407.77	1121.12
407.96	1032.18
408.15	1130.48
408.34	1109.41
408.54	1095.37
408.73	1177.29
408.92	1095.37
409.11	1181.97
409.30	1146.86
409.49	1238.14
409.68	1118.78
409.87	1156.22
410.07	1130.48
410.26	1172.61
410.45	1170.27
410.64	1158.57
410.83	1233.46
411.02	1270.91
411.21	1261.55
411.40	1224.10
411.59	1334.11
411.78	1259.21
411.98	1254.53
412.17	1359.85
412.36	1341.13
412.55	1425.39
412.74	1446.45
412.93	1474.54
413.12	1394.96
413.31	1462.83
413.50	1406.66
413.69	1411.34
413.88	1540.07
414.07	1542.41
414.26	1479.22
414.45	1490.92
414.64	1502.62
414.83	1654.76
415.02	1621.99
415.22	1565.82
415.41	1490.92
415.60	1530.71
415.79	1568.16
415.98	1636.03
416.17	1671.14
416.36	1643.06
416.55	1687.53
416.74	1722.63
416.93	1614.97
417.12	1736.68
417.31	1708.59
417.50	1783.49
417.69	1877.11
417.88	1804.55
418.07	1750.72
418.26	1795.19
418.45	1839.66
418.64	1823.28
418.83	1764.76
419.02	1956.69
419.21	1813.92
419.39	1816.26
419.58	1849.02
419.77	1865.41
419.96	1963.71
420.15	1909.88
420.34	1884.13
420.53	1881.79
420.72	1980.09
420.91	1886.47
421.10	1926.26
421.29	2059.67
421.48	1916.90
421.67	2029.24
421.86	2059.67
422.05	1984.77
422.24	2001.16
422.43	1994.14
422.61	1937.96
422.80	2050.31
422.99	2085.42
423.18	2200.10
423.37	2246.91
423.56	2052.65
423.75	2090.10
423.94	1989.46
424.13	1991.80
424.32	1949.67
424.50	2033.93
424.69	2115.84
424.88	2176.70
425.07	2120.53
425.26	2071.37
425.45	1956.69
425.64	2064.35
425.83	2134.57
426.01	2134.57
426.20	2097.12
426.39	2143.93
426.58	2108.82
426.77	2104.14
426.96	2036.27
427.15	2197.76
427.33	2150.95
427.52	2057.33
427.71	2275.00
427.90	2223.51
428.09	2244.57
428.28	2291.38
428.46	2246.91
428.65	2326.49
428.84	2314.79
429.03	2363.94
429.22	2279.68
429.40	2331.17
429.59	2326.49
429.78	2305.43
429.97	2228.19
430.16	2352.24
430.34	2324.15
430.53	2286.70
430.72	2417.77
430.91	2326.49
431.10	2356.92
431.28	2471.61
431.47	2473.95
431.66	2401.39
431.85	2445.86
432.03	2490.33
432.22	2572.25
432.41	2579.27
432.60	2623.74
432.79	2410.75
432.97	2389.69
433.16	2597.99
433.35	2471.61
433.54	2665.87
433.72	2558.21
433.91	2548.84
434.10	2520.76
434.28	2492.67
434.47	2583.95
434.66	2548.84
434.85	2588.63
435.03	2630.76
435.22	2672.89
435.41	2731.41
435.59	2759.49
435.78	2787.58
435.97	2719.70
436.16	2719.70
436.34	2661.19
436.53	2729.06
436.72	2846.09
436.90	2703.32
437.09	2864.82
437.28	2724.38
437.46	2860.13
437.65	2806.30
437.84	2846.09
438.02	2754.81
438.21	2925.67
438.40	2794.60
438.58	2995.89
438.77	2977.16
438.96	2988.86
439.14	3054.40
439.33	2923.33
439.52	3007.59
439.70	3126.96
439.89	2953.76
440.08	3019.29
440.26	3173.77
440.45	3164.40
440.63	3110.57
440.82	3098.87
441.01	3253.34
441.19	3206.53
441.38	3262.71
441.57	3169.09
441.75	3246.32
441.94	3349.31
442.12	3389.10
442.31	3377.39
442.50	3449.95
442.68	3389.10
442.87	3325.90
443.05	3302.50
443.24	3609.11
443.43	3524.85
443.61	3414.84
443.80	3576.34
443.98	3370.37
444.17	3389.10
444.35	3524.85
444.54	3557.61
444.73	3513.14
444.91	3508.46
445.10	3618.47
445.28	3468.67
445.47	3503.78
445.65	3452.29
445.84	3524.85
446.02	3471.01
446.21	3426.54
446.39	3377.39
446.58	3686.34
446.77	3606.77
446.95	3454.63
447.14	3611.45
447.32	3648.90
447.51	3569.32
447.69	3384.41
447.88	3569.32
448.06	3459.31
448.25	3543.57
448.43	3522.51
448.62	3630.17
448.80	3632.51
448.99	3613.79
449.17	3728.47
449.36	3735.50
449.54	3667.62
449.73	3784.65
449.91	3854.86
450.10	3768.26
450.28	3875.93
450.46	3854.86
450.65	3779.97
450.83	3899.33
451.02	3887.63
451.20	3896.99
451.39	3915.72
451.57	3850.18
451.76	3864.22
451.94	3826.78
452.13	3985.93
452.31	4032.74
452.49	3892.31
452.68	3936.78
452.86	3927.42
453.05	4119.34
453.23	3974.23
453.42	3978.91
453.60	3934.44
453.78	4044.45
453.97	4168.49
454.15	4126.36
454.34	3995.29
454.52	4070.19
454.70	4098.28
454.89	4091.26
455.07	4205.94
455.26	4219.99
455.44	4201.26
455.62	4189.56
455.81	4154.45
455.99	4276.16
456.17	4222.33
456.36	4182.54
456.54	4339.35
456.73	4339.35
456.91	4496.17
457.09	4440.00
457.28	4613.20
457.46	4348.72
457.64	4458.72
457.83	4437.66
458.01	4468.08
458.19	4547.66
458.38	4463.40
458.56	4573.41
458.74	4648.30
458.93	4507.87
459.11	4545.32
459.29	4585.11
459.48	4526.60
459.66	4620.22
459.84	4641.28
460.03	4711.50
460.21	4596.81
460.39	4568.73
460.57	4580.43
460.76	4566.39
460.94	4636.60
461.12	4688.09
461.31	4652.98
461.49	4842.57
461.67	4652.98
461.85	4873.00
462.04	4865.97
462.22	5069.60
462.40	4887.04
462.59	4802.78
462.77	4706.82
462.95	4765.33
463.13	4823.84
463.32	5071.94
463.50	4985.34
463.68	4910.44
463.86	4938.53
464.05	5011.09
464.23	4849.59
464.41	4994.70
464.59	5018.11
464.78	5184.29
464.96	5142.16
465.14	4917.47
465.32	4968.96
465.50	4997.04
465.69	5266.21
465.87	5146.84
466.05	5151.52
466.23	4931.51
466.41	5139.82
466.60	5233.44
466.78	5149.18
466.96	5071.94
467.14	5200.67
467.32	5158.54
467.51	5376.21
467.69	5186.63
467.87	5207.69
468.05	5235.78
468.23	5376.21
468.41	5310.68
468.60	5130.45
468.78	5430.04
468.96	5303.65
469.14	5582.18
469.32	5528.35
469.50	5355.15
469.69	5462.81
469.87	5481.53
470.05	5554.09
470.23	5479.19
470.41	5593.88
470.59	5666.44
470.77	5537.71
470.95	5558.77
471.14	5799.85
471.32	5640.69
471.50	5736.65
471.68	5893.47
471.86	5839.64
472.04	5767.08
472.22	5909.85
472.40	5834.96
472.58	5912.19
472.77	5895.81
472.95	6101.78
473.13	6120.50
473.31	5907.51
473.49	5921.56
473.67	5907.51
473.85	6190.72
474.03	6282.00
474.21	6171.99
474.39	6179.01
474.57	6272.64
474.75	6237.53
474.93	6420.09
475.12	6235.19
475.30	6424.77
475.48	6263.27
475.66	6162.63
475.84	6401.37
476.02	6459.88
476.20	6502.01
476.38	6626.06
476.56	6754.79
476.74	6656.48
476.92	6836.70
477.10	6682.23
477.28	6832.02
477.46	6815.64
477.64	6960.75
477.82	6780.53
478.00	7089.48
478.18	7213.53
478.36	7089.48
478.54	7283.75
478.72	7204.17
478.90	7297.79
479.08	7503.76
479.26	7372.69
479.44	7548.23
479.62	7583.34
479.80	7669.94
479.98	7571.63
480.16	7618.44
480.34	7672.28
480.52	7805.69
480.70	7723.77
480.88	7875.90
481.06	7988.25
481.24	7754.19
481.41	8088.89
481.59	8154.43
481.77	8142.72
481.95	8147.40
482.13	8528.91
482.31	8304.22
482.49	8477.42
482.67	8486.78
482.85	8758.28
483.03	8610.83
483.21	8716.16
483.39	8592.11
483.57	8835.52
483.74	8812.12
483.92	8950.21
484.10	8978.30
484.28	9186.60
484.46	9329.38
484.64	9310.65
484.82	9343.42
485.00	9504.92
485.18	9568.11
485.35	9577.47
485.53	9661.73
485.71	9802.16
485.89	9631.30
486.07	9715.56
486.25	9745.99
486.43	9844.29
486.61	10050.26
486.78	10052.60
486.96	10066.64
487.14	10457.51
487.32	10480.92
487.50	10342.83
487.68	10640.08
487.85	10644.76
488.03	10824.98
488.21	10953.71
488.39	10911.58
488.57	10993.50
488.75	10984.13
488.92	11129.25
489.10	11293.08
489.28	11384.37
489.46	11311.81
489.64	11342.24
489.81	11353.94
489.99	11435.86
490.17	11585.65
490.35	11859.49
490.53	11971.84
490.70	11882.90
490.88	11728.42
491.06	12287.81
491.24	12285.47
491.41	11964.82
491.59	12294.83
491.77	12283.13
491.95	12315.90
492.13	12545.27
492.30	12573.36
492.48	12475.06
492.66	12652.94
492.84	12762.94
493.01	12784.01
493.19	12837.84
493.37	13046.15
493.54	13130.41
493.72	13102.32
493.90	13268.50
494.08	13364.46
494.25	13575.11
494.43	13647.66
494.61	13600.85
494.79	13654.69
494.96	13631.28
495.14	13848.95
495.32	13848.95
495.49	13788.10
495.67	13991.72
495.85	14242.16
496.02	14111.09
496.20	14106.41
496.38	14384.93
496.55	14317.06
496.73	14614.30
496.91	14590.90
497.09	14623.67
497.26	14934.96
497.44	14792.19
497.62	14885.81
497.79	15117.52
497.97	14899.85
498.14	15096.46
498.32	15227.53
498.50	15309.44
498.67	15822.02
498.85	15199.44
499.03	15672.23
499.20	15367.96
499.38	15342.21
499.56	15798.62
499.73	15587.97
499.91	15737.76
500.08	16004.58
500.26	15749.46
500.44	15894.58
500.61	15999.90
500.79	15737.76
500.97	16107.57
501.14	16128.63
501.32	16414.18
501.49	16292.47
501.67	16355.66
501.84	16418.86
502.02	16304.17
502.20	16472.69
502.37	16711.42
502.55	16533.54
502.72	16692.70
502.90	16685.68
503.07	16783.98
503.25	16858.88
503.43	16734.83
503.60	17062.51
503.78	16910.37
503.95	16992.29
504.13	16985.27
504.30	17282.52
504.48	17259.11
504.65	17011.01
504.83	17135.06
505.01	17549.34
505.18	17324.65
505.36	17547.00
505.53	17465.08
505.71	17605.51
505.88	17570.40
506.06	17542.32
506.23	17678.07
506.41	17724.88
506.58	18066.60
506.76	17855.95
506.93	18017.44
507.11	18094.68
507.28	17994.04
507.46	18274.90
507.63	18202.35
507.81	18403.63
507.98	18342.78
508.16	18319.37
508.33	18537.04
508.50	18686.84
508.68	18614.28
508.85	18813.23
509.03	18609.60
509.20	18754.71
509.38	18977.06
509.55	18768.76
509.73	19007.49
509.90	18527.68
510.08	18937.27
510.25	19035.58
510.42	19204.10
510.60	19133.88
510.77	19246.23
510.95	19321.12
511.12	19501.34
511.30	19583.26
511.47	19178.35
511.64	19482.62
511.82	19742.42
511.99	19468.58
512.17	19882.85
512.34	19613.69
512.51	19758.80
512.69	19517.73
512.86	19363.25
513.04	19892.21
513.21	20077.12
513.38	20074.77
513.56	19920.30
513.73	20095.84
513.90	19922.64
514.08	19866.47
514.25	20201.16
514.43	20308.83
514.60	20489.05
514.77	20669.27
514.95	20624.80
515.12	20367.34
515.29	20400.11
515.47	20556.93
515.64	20587.35
515.81	20634.16
515.99	20507.77
516.16	21156.10
516.33	21223.98
516.51	21088.23
516.68	21188.87
516.85	20987.58
517.03	21053.12
517.20	21067.16
517.37	21139.72
517.54	21486.12
517.72	21163.12
517.89	21385.47
518.06	21216.96
518.24	21195.89
518.41	21069.50
518.58	21443.99
518.75	21291.85
518.93	21781.03
519.10	21425.26
519.27	21656.98
519.45	21427.60
519.62	21699.11
519.79	21387.82
519.96	21710.81
520.14	21633.57
520.31	21884.01
520.48	21935.50
520.65	21994.01
520.83	21930.82
521.00	22064.23
521.17	22068.91
521.34	22071.25
521.52	22347.44
521.69	22122.74
521.86	22459.78
522.03	22590.85
522.20	22441.06
522.38	22478.50
522.55	22569.79
522.72	22270.20
522.89	22684.47
523.07	22728.94
523.24	22867.03
523.41	22970.02
523.58	22831.93
523.75	22745.33
523.92	22457.44
524.10	22824.90
524.27	23047.26
524.44	23171.30
524.61	23393.65
524.78	23192.37
524.96	23293.01
525.13	23140.88
525.30	22981.72
525.47	22960.66
525.64	23271.95
525.81	23754.10
525.98	23470.89
526.16	23754.10
526.33	23328.12
526.50	23498.98
526.67	23260.24
526.84	23524.72
527.01	23707.29
527.18	23597.28
527.36	23711.97
527.53	23880.49
527.70	23889.85
527.87	24002.19
528.04	23751.76
528.21	23807.93
528.38	23784.52
528.55	24144.97
528.72	23971.77
528.89	24393.06
529.07	23941.34
529.24	23882.83
529.41	24151.99
529.58	23887.51
529.75	24116.88
529.92	24292.42
530.09	24212.84
530.26	24545.20
530.43	24664.57
530.60	24350.93
530.77	24388.38
530.94	24606.05
531.11	24669.25
531.28	24432.85
531.46	24613.07
531.63	24847.13
531.80	24725.42
531.97	24980.54
532.14	24758.19
532.31	24582.65
532.48	24549.88
532.65	25034.37
532.82	24606.05
532.99	24809.68
533.16	24737.12
533.33	25151.40
533.50	24943.09
533.67	25277.79
533.84	25146.72
534.01	25153.74
534.18	24816.70
534.35	25106.93
534.52	25123.31
534.69	25418.22
534.86	25586.74
535.03	25291.83
535.20	25039.05
535.37	25523.54
535.54	25626.53
535.71	25254.38
535.88	25488.43
536.05	25357.36
536.22	25799.73
536.38	25839.51
536.55	25844.20
536.72	25752.91
536.89	25544.61
537.06	26068.89
537.23	25825.47
537.40	25729.51
537.57	25706.10
537.74	25972.92
537.91	25886.32
538.08	26092.29
538.25	25954.20
538.42	26274.85
538.59	26108.68
538.75	25666.31
538.92	26043.14
539.09	26324.01
539.26	26171.87
539.43	26354.43
539.60	26380.18
539.77	26136.76
539.94	26438.69
540.11	26412.95
540.28	26569.76
540.44	26012.71
540.61	26153.15
540.78	26370.82
540.95	26384.86
541.12	26590.83
541.29	26384.86
541.46	26487.84
541.62	26637.64
541.79	26600.19
541.96	26253.79
542.13	26277.19
542.30	26424.65
542.47	26782.75
542.63	26913.82
542.80	26780.41
542.97	27321.07
543.14	27150.21
543.31	27089.36
543.48	27178.30
543.64	27484.91
543.81	27154.90
543.98	27461.51
544.15	27618.32
544.32	27538.74
544.48	27419.38
544.65	27393.63
544.82	27208.73
544.99	27381.93
545.16	26717.22
545.32	27372.57
545.49	27756.41
545.66	27407.67
545.83	27875.78
546.00	27896.85
546.16	27550.45
546.33	27646.41
546.50	27344.48
546.67	27651.09
546.83	27665.13
547.00	27627.68
547.17	28112.17
547.34	27826.63
547.50	27880.46
547.67	28175.37
547.84	27978.76
548.00	28053.66
548.17	28582.62
548.34	27716.62
548.51	27992.81
548.67	28025.57
548.84	28290.06
549.01	28173.03
549.18	28112.17
549.34	28397.72
549.51	28170.69
549.68	27817.27
549.84	28456.23
550.01	28088.77
550.18	27967.06
550.34	28343.89
550.51	28432.83
550.68	28657.52
550.84	28299.42
551.01	28376.66
551.18	28301.76
551.34	27901.53
551.51	28554.54
551.68	28587.30
551.84	28886.89
552.01	28369.63
552.18	28842.42
552.34	28524.11
552.51	28376.66
552.68	28507.72
552.84	28517.09
553.01	28713.69
553.18	28629.43
553.34	28884.55
553.51	28790.93
553.67	28804.97
553.84	28945.41
554.01	29268.40
554.17	29029.66
554.34	28994.56
554.51	28936.04
554.67	29027.32
554.84	28978.17
555.00	28814.34
555.17	28957.11
555.33	29413.51
555.50	28989.88
555.67	29172.44
555.83	29137.33
556.00	29450.96
556.16	29097.54
556.33	29123.29
556.50	29172.44
556.66	29420.53
556.83	29436.92
556.99	29610.12
557.16	29146.69
557.32	29460.32
557.49	29589.05
557.65	29099.88
557.82	29308.19
557.98	29298.83
558.15	29282.44
558.32	29378.40
558.48	29467.34
558.65	29502.45
558.81	29621.82
558.98	29069.45
559.14	29867.58
559.31	29385.43
559.47	29701.40
559.64	29841.83
559.80	29631.18
559.97	29628.84
560.13	29472.03
560.30	29495.43
560.46	29448.62
560.63	29685.01
560.79	29593.73
560.96	29495.43
561.12	30017.37
561.29	29418.19
561.45	29551.60
561.61	29783.32
561.78	29996.31
561.94	29902.68
562.11	29776.30
562.27	29539.90
562.44	30033.75
562.60	29874.60
562.77	29523.52
562.93	29656.93
563.10	30038.44
563.26	30003.33
563.42	30108.65
563.59	30270.15
563.75	30429.30
563.92	30115.67
564.08	29701.40
564.24	30022.05
564.41	30136.74
564.57	30066.52
564.74	30075.88
564.90	30211.64
565.07	30146.10
565.23	30281.85
565.39	30092.27
565.56	30202.27
565.72	30110.99
565.88	30197.59
566.05	30064.18
566.21	29940.13
566.38	29741.19
566.54	30438.67
566.70	30553.35
566.87	30277.17
567.03	30567.40
567.19	30572.08
567.36	30225.68
567.52	30328.66
567.68	30342.70
567.85	30319.30
568.01	30532.29
568.17	30291.21
568.34	30216.32
568.50	30394.20
568.66	30359.09
568.83	30614.21
568.99	30506.54
569.15	30630.59
569.32	30171.85
569.48	30085.25
569.64	30340.36
569.81	30338.02
569.97	30602.50
570.13	30342.70
570.30	30338.02
570.46	30703.15
570.62	30621.23
570.78	30490.16
570.95	30375.47
571.11	30831.88
571.27	30824.86
571.43	30522.93
571.60	30164.82
571.76	30764.00
571.92	30649.32
572.09	30476.12
572.25	30588.46
572.41	30759.32
572.57	31007.42
572.74	30782.73
572.90	30082.91
573.06	30649.32
573.22	30494.84
573.38	30682.08
573.55	30841.24
573.71	30771.02
573.87	30691.44
574.03	31138.49
574.20	30450.37
574.36	30305.26
574.52	30569.74
574.68	30309.94
574.84	30494.84
575.01	30923.16
575.17	30726.55
575.33	30649.32
575.49	30822.51
575.65	30923.16
575.82	30686.76
575.98	30981.67
576.14	30944.22
576.30	30668.04
576.46	30595.48
576.62	30735.92
576.79	30628.25
576.95	30621.23
577.11	30834.22
577.27	30953.58
577.43	30623.57
577.59	30691.44
577.75	31136.15
577.92	30572.08
578.08	30806.13
578.24	30525.27
578.40	30937.20
578.56	31510.63
578.72	31166.57
578.88	30998.06
579.04	31253.17
579.21	30866.98
579.37	30909.11
579.53	31054.23
579.69	31098.70
579.85	30745.28
580.01	30794.43
580.17	30515.90
580.33	30904.43
580.49	30782.73
580.65	30759.32
580.82	31108.06
580.98	30934.86
581.14	31353.82
581.30	30794.43
581.46	30719.53
581.62	31082.31
581.78	30504.20
581.94	31028.48
582.10	30941.88
582.26	30937.20
582.42	31000.40
582.58	30866.98
582.74	30551.01
582.90	30993.37
583.06	31459.14
583.22	30888.05
583.38	31108.06
583.54	30824.86
583.70	30785.07
583.86	30764.00
584.02	30773.36
584.18	31110.40
584.34	31353.82
584.50	31452.12
584.66	30974.65
584.82	30965.29
584.98	31159.55
585.14	31005.08
585.30	30581.44
585.46	30951.24
585.62	31042.53
585.78	30469.09
585.94	30869.33
586.10	30813.15
586.26	31199.34
586.42	31452.12
586.58	31147.85
586.74	30813.15
586.90	30920.82
587.06	31157.21
587.22	31295.30
587.38	30859.96
587.54	31019.12
587.70	31391.26
587.86	31344.45
588.02	31438.08
588.18	31438.08
588.34	31225.09
588.49	31033.16
588.65	31021.46
588.81	31094.02
588.97	31227.43
589.13	30944.22
589.29	30749.96
589.45	31077.63
589.61	31517.65
589.77	31402.97
589.93	31175.94
590.08	31590.21
590.24	31344.45
590.40	31208.70
590.56	31349.14
590.72	31421.69
590.88	31234.45
591.04	31173.60
591.20	31601.91
591.35	31779.79
591.51	31704.90
591.67	31641.70
591.83	31555.10
