SpectraSuite Data File
++++++++++++++++++++++++++++++++++++
Date: Fri Oct 18 13:58:24 GMT-05:00 2013
User: bianchi
Dark Spectrum Present: No
Reference Spectrum Present: No
Number of Sampled Component Spectra: 1
Spectrometers: USB2+H05261
Integration Time (usec): 50000 (USB2+H05261)
Spectra Averaged: 1 (USB2+H05261)
Boxcar Smoothing: 0 (USB2+H05261)
Correct for Electrical Dark: No (USB2+H05261)
Strobe/Lamp Enabled: No (USB2+H05261)
Correct for Detector Non-linearity: No (USB2+H05261)
Correct for Stray Light: No (USB2+H05261)
Number of Pixels in Processed Spectrum: 2048
>>>>>Begin Processed Spectral Data<<<<<
365.73	16.38
365.92	16.38
366.12	16.38
366.32	0.00
366.52	0.00
366.72	0.00
366.91	0.00
367.11	0.00
367.31	0.00
367.51	0.00
367.70	0.00
367.90	0.00
368.10	0.00
368.30	0.00
368.49	0.00
368.69	0.00
368.89	0.00
369.09	0.00
369.28	0.00
369.48	0.00
369.68	0.00
369.87	0.00
370.07	0.00
370.27	0.00
370.47	0.00
370.66	42.13
370.86	128.73
371.06	154.48
371.25	110.01
371.45	173.20
371.65	180.22
371.84	98.30
372.04	222.35
372.24	215.33
372.44	175.54
372.63	191.92
372.83	224.69
373.03	189.58
373.22	264.48
373.42	217.67
373.62	248.10
373.81	257.46
374.01	299.59
374.21	177.88
374.40	149.79
374.60	248.10
374.79	231.71
374.99	276.18
375.19	205.97
375.38	255.12
375.58	290.23
375.78	294.91
375.97	220.01
376.17	332.36
376.37	238.73
376.56	283.20
376.76	259.80
376.95	208.31
377.15	238.73
377.35	266.82
377.54	353.42
377.74	290.23
377.93	273.84
378.13	322.99
378.33	301.93
378.52	243.42
378.72	294.91
378.91	315.97
379.11	299.59
379.31	313.63
379.50	262.14
379.70	234.05
379.89	318.31
380.09	304.27
380.28	292.57
380.48	348.74
380.68	290.23
380.87	217.67
381.07	334.70
381.26	252.78
381.46	383.85
381.65	376.83
381.85	367.46
382.04	344.06
382.24	308.95
382.43	290.23
382.63	264.48
382.83	341.72
383.02	301.93
383.22	337.04
383.41	379.17
383.61	283.20
383.80	266.82
384.00	318.31
384.19	355.76
384.39	367.46
384.58	306.61
384.78	421.30
384.97	414.27
385.17	395.55
385.36	341.72
385.56	334.70
385.75	355.76
385.95	447.04
386.14	332.36
386.34	397.89
386.53	407.25
386.72	461.09
386.92	451.72
387.11	421.30
387.31	379.17
387.50	440.02
387.70	409.59
387.89	428.32
388.09	454.06
388.28	409.59
388.48	346.40
388.67	433.00
388.86	482.15
389.06	402.57
389.25	395.55
389.45	409.59
389.64	491.51
389.84	386.19
390.03	421.30
390.22	496.19
390.42	463.43
390.61	468.11
390.81	491.51
391.00	500.87
391.19	512.58
391.39	486.83
391.58	545.34
391.78	470.45
391.97	510.24
392.16	554.71
392.36	566.41
392.55	533.64
392.75	550.03
392.94	489.17
393.13	493.85
393.33	547.69
393.52	589.82
393.71	599.18
393.91	573.43
394.10	528.96
394.29	617.90
394.49	622.58
394.68	535.98
394.88	587.47
395.07	608.54
395.26	667.05
395.46	587.47
395.65	690.46
395.84	753.65
396.04	620.24
396.23	582.79
396.42	638.97
396.62	660.03
396.81	608.54
397.00	629.60
397.19	617.90
397.39	615.56
397.58	699.82
397.77	634.29
397.97	669.39
398.16	702.16
398.35	688.12
398.55	734.93
398.74	669.39
398.93	734.93
399.12	709.18
399.32	763.01
399.51	774.72
399.70	816.85
399.90	741.95
400.09	814.51
400.28	763.01
400.47	681.10
400.67	842.59
400.86	763.01
401.05	770.04
401.24	779.40
401.44	788.76
401.63	821.53
401.82	826.21
402.01	748.97
402.21	777.06
402.40	781.74
402.59	816.85
402.78	863.66
402.97	835.57
403.17	917.49
403.36	882.38
403.55	884.72
403.74	968.98
403.93	844.93
404.13	898.77
404.32	823.87
404.51	887.06
404.70	931.53
404.89	868.34
405.09	898.77
405.28	901.11
405.47	959.62
405.66	924.51
405.85	1020.47
406.05	985.37
406.24	1018.13
406.43	968.98
406.62	1013.45
406.81	997.07
407.00	931.53
407.20	933.87
407.39	1006.43
407.58	1006.43
407.77	1020.47
407.96	1001.75
408.15	966.64
408.34	966.64
408.54	1074.31
408.73	1144.52
408.92	1078.99
409.11	1067.28
409.30	1142.18
409.49	1177.29
409.68	1224.10
409.87	1165.59
410.07	1057.92
410.26	1163.25
410.45	1172.61
410.64	1219.42
410.83	1249.85
411.02	1158.57
411.21	1188.99
411.40	1151.54
411.59	1165.59
411.78	1252.19
411.98	1212.40
412.17	1238.14
412.36	1282.61
412.55	1303.68
412.74	1308.36
412.93	1240.48
413.12	1184.31
413.31	1434.75
413.50	1444.11
413.69	1373.89
413.88	1446.45
414.07	1401.98
414.26	1490.92
414.45	1448.79
414.64	1523.69
414.83	1551.78
415.02	1514.33
415.22	1568.16
415.41	1554.12
415.60	1535.39
415.79	1526.03
415.98	1636.03
416.17	1575.18
416.36	1572.84
416.55	1528.37
416.74	1682.85
416.93	1600.93
417.12	1694.55
417.31	1689.87
417.50	1631.35
417.69	1769.44
417.88	1732.00
418.07	1804.55
418.26	1781.15
418.45	1783.49
418.64	1823.28
418.83	1708.59
419.02	1774.13
419.21	1860.73
419.39	1844.34
419.58	1813.92
419.77	1790.51
419.96	1996.48
420.15	1893.49
420.34	1867.75
420.53	1863.07
420.72	1767.10
420.91	1926.26
421.10	1856.04
421.29	2031.58
421.48	1823.28
421.67	1968.39
421.86	1909.88
422.05	1952.01
422.24	2022.22
422.43	2057.33
422.61	1921.58
422.80	2050.31
422.99	1998.82
423.18	2001.16
423.37	1977.75
423.56	1980.09
423.75	2057.33
423.94	1963.71
424.13	1914.56
424.32	1935.62
424.50	1956.69
424.69	2155.63
424.88	2115.84
425.07	2001.16
425.26	2083.08
425.45	2040.95
425.64	2033.93
425.83	2026.90
426.01	2024.56
426.20	2008.18
426.39	2001.16
426.58	1996.48
426.77	1996.48
426.96	2040.95
427.15	2031.58
427.33	2146.27
427.52	2062.01
427.71	2127.55
427.90	2040.95
428.09	2043.29
428.28	2148.61
428.46	2225.85
428.65	2143.93
428.84	2186.06
429.03	2235.21
429.22	2132.23
429.40	2195.42
429.59	2207.13
429.78	2188.40
429.97	2162.66
430.16	2106.48
430.34	2246.91
430.53	2225.85
430.72	2333.51
430.91	2317.13
431.10	2265.64
431.28	2363.94
431.47	2342.88
431.66	2431.82
431.85	2354.58
432.03	2399.05
432.22	2284.36
432.41	2321.81
432.60	2523.10
432.79	2361.60
432.97	2401.39
433.16	2420.11
433.35	2415.43
433.54	2464.58
433.72	2523.10
433.91	2413.09
434.10	2668.21
434.28	2546.50
434.47	2487.99
434.66	2576.93
434.85	2602.68
435.03	2546.50
435.22	2590.97
435.41	2511.39
435.59	2726.72
435.78	2560.55
435.97	2530.12
436.16	2588.63
436.34	2649.49
436.53	2661.19
436.72	2745.45
436.90	2651.83
437.09	2703.32
437.28	2691.62
437.46	2736.09
437.65	2693.96
437.84	2827.37
438.02	2757.15
438.21	2813.32
438.40	2764.17
438.58	2796.94
438.77	2937.37
438.96	2925.67
439.14	2904.60
439.33	2860.13
439.52	2836.73
439.70	2796.94
439.89	3038.02
440.08	3052.06
440.26	3126.96
440.45	2932.69
440.63	3014.61
440.82	3199.51
441.01	3033.33
441.19	3105.89
441.38	3173.77
441.57	3171.43
441.75	3218.24
441.94	3274.41
442.12	3286.11
442.31	3325.90
442.50	3356.33
442.68	3243.98
442.87	3356.33
443.05	3377.39
443.24	3370.37
443.43	3398.46
443.61	3379.73
443.80	3480.38
443.98	3225.26
444.17	3253.34
444.35	3400.80
444.54	3424.20
444.73	3438.25
444.91	3283.77
445.10	3538.89
445.28	3314.20
445.47	3372.71
445.65	3438.25
445.84	3435.91
446.02	3578.68
446.21	3513.14
446.39	3407.82
446.58	3468.67
446.77	3538.89
446.95	3304.84
447.14	3426.54
447.32	3569.32
447.51	3585.70
447.69	3393.78
447.88	3459.31
448.06	3478.04
448.25	3515.48
448.43	3433.57
448.62	3595.06
448.80	3386.76
448.99	3552.93
449.17	3513.14
449.36	3538.89
449.54	3581.02
449.73	3630.17
449.91	3693.37
450.10	3653.58
450.28	3669.96
450.46	3688.68
450.65	3681.66
450.83	3749.54
451.02	3662.94
451.20	3866.56
451.39	3730.81
451.57	3791.67
451.76	3695.71
451.94	3775.28
452.13	3875.93
452.31	3761.24
452.49	3756.56
452.68	3786.99
452.86	3772.94
453.05	3852.52
453.23	3861.88
453.42	3833.80
453.60	3758.90
453.78	3925.08
453.97	3946.14
454.15	3730.81
454.34	3868.91
454.52	3829.12
454.70	4182.54
454.89	4088.92
455.07	3946.14
455.26	4077.21
455.44	4159.13
455.62	4011.68
455.81	4009.34
455.99	4102.96
456.17	4095.94
456.36	4198.92
456.54	4189.56
456.73	4292.54
456.91	4351.06
457.09	4334.67
457.28	4283.18
457.46	4395.53
457.64	4147.43
457.83	4334.67
458.01	4367.44
458.19	4360.42
458.38	4269.14
458.56	4381.48
458.74	4463.40
458.93	4465.74
459.11	4484.47
459.29	4304.25
459.48	4493.83
459.66	4521.92
459.84	4559.36
460.03	4709.16
460.21	4524.26
460.39	4561.70
460.57	4402.55
460.76	4482.13
460.94	4678.73
461.12	4514.89
461.31	4641.28
461.49	4578.09
461.67	4627.24
461.85	4671.71
462.04	4566.39
462.22	4699.80
462.40	4660.01
462.59	4774.69
462.77	4667.03
462.95	4720.86
463.13	4716.18
463.32	4753.63
463.50	4812.14
463.68	4947.89
463.86	4767.67
464.05	4819.16
464.23	4863.63
464.41	4933.85
464.59	4777.03
464.78	4917.47
464.96	4833.21
465.14	4748.95
465.32	5142.16
465.50	5004.07
465.69	4908.10
465.87	4971.30
466.05	4968.96
466.23	5001.72
466.41	4905.76
466.60	5121.09
466.78	4924.49
466.96	4931.51
467.14	5039.17
467.32	5036.83
467.51	5153.86
467.69	5095.35
467.87	5294.29
468.05	5228.76
468.23	5116.41
468.41	5205.35
468.60	5102.37
468.78	5221.74
468.96	5095.35
469.14	5284.93
469.32	5327.06
469.50	5135.14
469.69	5387.91
469.87	5214.71
470.05	5343.44
470.23	5432.38
470.41	5350.46
470.59	5516.64
470.77	5390.25
470.95	5327.06
471.14	5556.43
471.32	5511.96
471.50	5746.02
471.68	5460.47
471.86	5462.81
472.04	5556.43
472.22	5692.18
472.40	5493.24
472.58	5605.58
472.77	5640.69
472.95	5736.65
473.13	5951.98
473.31	5731.97
473.49	5713.25
473.67	5916.87
473.85	5738.99
474.03	5799.85
474.21	6162.63
474.39	6045.60
474.57	6195.40
474.75	6087.73
474.93	6118.16
475.12	6183.70
475.30	6211.78
475.48	6190.72
475.66	6153.27
475.84	6363.92
476.02	6282.00
476.20	6530.09
476.38	6244.55
476.56	6537.12
476.74	6424.77
476.92	6303.06
477.10	6450.52
477.28	6668.19
477.46	6370.94
477.64	6665.85
477.82	6775.85
478.00	6876.49
478.18	6876.49
478.36	6874.15
478.54	7126.93
478.72	7023.95
478.90	7023.95
479.08	7358.64
479.26	7190.13
479.44	7377.37
479.62	7393.75
479.80	7286.09
479.98	7386.73
480.16	7414.82
480.34	7543.55
480.52	7573.97
480.70	7559.93
480.88	7573.97
481.06	7658.23
481.24	7576.31
481.41	7683.98
481.59	7840.79
481.77	8077.19
481.95	8051.44
482.13	8044.42
482.31	7971.86
482.49	8126.34
482.67	8060.80
482.85	8304.22
483.03	8315.92
483.21	8608.49
483.39	8475.08
483.57	8472.74
483.74	8538.27
483.92	8573.38
484.10	8631.90
484.28	8891.70
484.46	9069.58
484.64	9231.07
484.82	9029.79
485.00	9165.54
485.18	9076.60
485.35	9521.30
485.53	9263.84
485.71	9385.55
485.89	9439.38
486.07	9535.34
486.25	9561.09
486.43	9572.79
486.61	9556.41
486.78	9893.44
486.96	9928.55
487.14	10033.88
487.32	9907.49
487.50	10204.74
487.68	10059.62
487.85	10195.37
488.03	10422.41
488.21	10583.90
488.39	10511.35
488.57	10902.22
488.75	10677.52
488.92	10855.40
489.10	10918.60
489.28	10963.07
489.46	11304.79
489.64	10885.83
489.81	11393.73
489.99	11211.17
490.17	11267.34
490.35	11393.73
490.53	11723.74
490.70	11623.10
490.88	11686.29
491.06	11740.13
491.24	11426.50
491.41	11810.34
491.59	11927.37
491.77	11885.24
491.95	12170.79
492.13	12198.87
492.30	12243.34
492.48	12217.60
492.66	12142.70
492.84	12262.07
493.01	12435.27
493.19	12650.60
493.37	12816.77
493.54	12493.78
493.72	12676.34
493.90	12816.77
494.08	12601.44
494.25	13071.89
494.43	13245.09
494.61	13020.40
494.79	13397.23
494.96	13050.83
495.14	13319.99
495.32	13593.83
495.49	13507.23
495.67	13523.62
495.85	13839.59
496.02	13736.60
496.20	13928.53
496.38	13879.38
496.55	13827.88
496.73	13919.17
496.91	13958.96
497.09	14022.15
497.26	14403.66
497.44	14188.33
497.62	14494.94
497.79	14719.63
497.97	14497.28
498.14	14768.78
498.32	14726.65
498.50	14719.63
498.67	14881.13
498.85	14633.03
499.03	14944.32
499.20	14965.39
499.38	14932.62
499.56	14949.00
499.73	15281.36
499.91	15264.97
500.08	15599.67
500.26	15410.09
500.44	15218.16
500.61	15513.07
500.79	15377.32
500.97	15482.64
501.14	15726.06
501.32	15908.62
501.49	15789.25
501.67	16039.69
501.84	15859.47
502.02	15955.43
502.20	16135.65
502.37	15903.94
502.55	16100.55
502.72	15859.47
502.90	16156.72
503.07	16123.95
503.25	16091.18
503.43	16297.15
503.60	16376.73
503.78	16425.88
503.95	16465.67
504.13	16578.01
504.30	16365.03
504.48	16311.19
504.65	16575.67
504.83	16751.21
505.01	16641.21
505.18	16835.47
505.36	17104.64
505.53	17132.72
505.71	17097.61
505.88	17315.28
506.06	17104.64
506.23	17184.21
506.41	17062.51
506.58	17415.93
506.76	17544.66
506.93	17062.51
507.11	17224.00
507.28	17287.20
507.46	17582.10
507.63	17706.15
507.81	18031.49
507.98	17558.70
508.16	17664.02
508.33	17736.58
508.50	17898.08
508.68	17558.70
508.85	17935.53
509.03	18022.12
509.20	18405.97
509.38	18221.07
509.55	18291.29
509.73	18288.95
509.90	18230.43
510.08	18064.25
510.25	18429.38
510.42	18345.12
510.60	18583.85
510.77	18422.36
510.95	18670.45
511.12	18396.61
511.30	18743.01
511.47	18583.85
511.64	18838.97
511.82	18834.29
511.99	18801.52
512.17	19269.63
512.34	18974.72
512.51	19138.56
512.69	19417.08
512.86	19063.66
513.04	19337.51
513.21	19321.12
513.38	19087.07
513.56	19426.45
513.73	19365.59
513.90	19222.82
514.08	19058.98
514.25	19658.16
514.43	19506.02
514.60	19407.72
514.77	19494.32
514.95	19880.51
515.12	19681.56
515.29	19644.12
515.47	19758.80
515.64	19990.52
515.81	20182.44
515.99	20107.54
516.16	20470.33
516.33	20098.18
516.51	20144.99
516.68	20077.12
516.85	20486.71
517.03	20673.95
517.20	20292.44
517.37	20671.61
517.54	20095.84
517.72	20458.62
517.89	20538.20
518.06	20695.02
518.24	20486.71
518.41	20430.54
518.58	20580.33
518.75	20758.21
518.93	20868.22
519.10	20865.88
519.27	20973.54
519.45	20669.27
519.62	20875.24
519.79	20905.66
519.96	20858.85
520.14	21422.92
520.31	21535.27
520.48	20987.58
520.65	21238.02
520.83	21015.67
521.00	21184.19
521.17	21160.78
521.34	21495.48
521.52	21521.23
521.69	21453.35
521.86	21785.71
522.03	21628.89
522.20	21706.13
522.38	21710.81
522.55	21823.16
522.72	21603.14
522.89	21696.77
523.07	21884.01
523.24	21762.30
523.41	22047.85
523.58	21865.28
523.75	22087.64
523.92	22066.57
524.10	22590.85
524.27	22031.46
524.44	22209.34
524.61	22286.58
524.78	22106.36
524.96	22466.80
525.13	22508.93
525.30	22410.63
525.47	22544.04
525.64	22621.28
525.81	22459.78
525.98	22473.82
526.16	22815.54
526.33	22553.40
526.50	22735.96
526.67	22101.68
526.84	22888.10
527.01	22562.76
527.18	22686.81
527.36	22778.09
527.53	22824.90
527.70	23159.60
527.87	23229.82
528.04	23321.10
528.21	23077.68
528.38	22862.35
528.55	23126.83
528.72	23407.70
528.89	23302.37
529.07	23105.77
529.24	23337.48
529.41	23290.67
529.58	23194.71
529.75	23225.14
529.92	23536.43
530.09	23204.07
530.26	23676.86
530.43	23262.58
530.60	23594.94
530.77	23396.00
530.94	23721.33
531.11	23365.57
531.28	23651.11
531.46	23901.55
531.63	23536.43
531.80	23906.23
531.97	24414.13
532.14	23868.78
532.31	24187.10
532.48	24137.94
532.65	24247.95
532.82	23709.63
532.99	23880.49
533.16	23950.70
533.33	23976.45
533.50	24388.38
533.67	24369.66
533.84	23992.83
534.01	24376.68
534.18	24100.50
534.35	24657.54
534.52	24411.79
534.69	24652.86
534.86	24648.18
535.03	24545.20
535.20	24503.07
535.37	24673.93
535.54	24407.11
535.71	24531.15
535.88	24432.85
536.05	24641.16
536.22	24678.61
536.38	24393.06
536.55	24835.42
536.72	24816.70
536.89	24680.95
537.06	24538.18
537.23	24849.47
537.40	24685.63
537.57	24933.73
537.74	25120.97
537.91	25282.47
538.08	25184.16
538.25	25095.22
538.42	24730.10
538.59	24926.71
538.75	24980.54
538.92	25296.51
539.09	25458.01
539.26	25170.12
539.43	25563.33
539.60	25245.02
539.77	25186.50
539.94	25434.60
540.11	25259.06
540.28	25689.72
540.44	25371.41
540.61	25521.20
540.78	25083.52
540.95	25603.12
541.12	25317.57
541.29	25319.92
541.46	25781.00
541.62	25404.17
541.79	25418.22
541.96	25635.89
542.13	25649.93
542.30	25795.04
542.47	25722.49
542.63	25986.97
542.80	25731.85
542.97	26073.57
543.14	25881.64
543.31	25909.73
543.48	25898.03
543.64	26279.54
543.81	26504.23
543.98	26160.17
544.15	26513.59
544.32	26546.36
544.48	26696.15
544.65	26492.52
544.82	26169.53
544.99	26249.11
545.16	26380.18
545.32	26544.02
545.49	26408.26
545.66	26937.23
545.83	26721.90
546.00	26541.68
546.16	26363.79
546.33	26295.92
546.50	25919.09
546.67	26698.49
546.83	26319.32
547.00	27016.80
547.17	26738.28
547.34	26897.44
547.50	26934.88
547.67	26824.88
547.84	26885.73
548.00	27033.19
548.17	27063.61
548.34	26623.59
548.51	27218.09
548.67	27161.92
548.84	27257.88
549.01	27026.17
549.18	27061.27
549.34	26897.44
549.51	26944.25
549.68	26953.61
549.84	27410.01
550.01	27475.55
550.18	26897.44
550.34	27253.20
550.51	27197.02
550.68	27454.48
550.84	27278.94
551.01	27835.99
551.18	27344.48
551.34	27133.83
551.51	27056.59
551.68	27246.18
551.84	27686.20
552.01	27459.16
552.18	27550.45
552.34	28016.21
552.51	27957.70
552.68	27630.02
552.84	27728.33
553.01	27747.05
553.18	28072.39
553.34	27742.37
553.51	27601.94
553.67	27749.39
553.84	27770.46
554.01	27922.59
554.17	27938.97
554.34	27489.59
554.51	27651.09
554.67	27873.44
554.84	27824.29
555.00	27798.54
555.17	28374.31
555.33	28236.22
555.50	28060.68
555.67	27976.42
555.83	28091.11
556.00	28156.64
556.16	28102.81
556.33	28006.85
556.50	27950.68
556.66	28563.90
556.83	27953.02
556.99	28704.33
557.16	28364.95
557.32	28634.11
557.49	28526.45
557.65	27871.10
557.82	28170.69
557.98	28063.02
558.15	28535.81
558.32	28676.24
558.48	28613.05
558.65	28582.62
558.81	28510.07
558.98	28507.72
559.14	28479.64
559.31	28467.94
559.47	28479.64
559.64	28599.01
559.80	28568.58
559.97	28746.46
560.13	28353.25
560.30	28620.07
560.46	28830.72
560.63	28404.74
560.79	28554.54
560.96	28999.24
561.12	28371.97
561.29	28577.94
561.45	28643.48
561.61	29027.32
561.78	28795.61
561.94	28781.57
562.11	28514.75
562.27	28959.45
562.44	28662.20
562.60	28388.36
562.77	28790.93
562.93	28795.61
563.10	29116.26
563.26	28903.28
563.42	29055.41
563.59	29127.97
563.75	28828.38
563.92	28795.61
564.08	28613.05
564.24	28823.70
564.41	28547.51
564.57	28641.14
564.74	29036.69
564.90	28929.02
565.07	29209.89
565.23	29020.30
565.39	28856.46
565.56	28879.87
565.72	28907.96
565.88	28393.04
566.05	28952.43
566.21	29060.09
566.38	28989.88
566.54	29071.79
566.70	29460.32
566.87	29366.70
567.03	28975.83
567.19	29469.69
567.36	29095.20
567.52	28896.25
567.68	28826.04
567.85	29184.14
568.01	29399.47
568.17	28898.59
568.34	29462.66
568.50	28938.38
568.66	29209.89
568.83	29549.26
568.99	29427.56
569.15	29310.53
569.32	28898.59
569.48	28936.04
569.64	29333.93
569.81	29565.65
569.97	29563.31
570.13	29387.77
570.30	29235.63
570.46	29116.26
570.62	29467.34
570.78	29483.73
570.95	28968.81
571.11	29497.77
571.27	29156.05
571.43	29151.37
571.60	29422.87
571.76	29116.26
571.92	29144.35
572.09	29198.18
572.25	29432.24
572.41	29113.92
572.57	29076.48
572.74	29448.62
572.90	29069.45
573.06	29408.83
573.22	29268.40
573.38	29364.36
573.55	29277.76
573.71	29460.32
573.87	29366.70
574.03	29518.84
574.20	29457.98
574.36	28954.77
574.52	29237.97
574.68	29104.56
574.84	29460.32
575.01	29928.43
575.17	29469.69
575.33	29699.06
575.49	29385.43
575.65	29539.90
575.82	29418.19
575.98	29518.84
576.14	29273.08
576.30	29439.26
576.46	29614.80
576.62	29340.96
576.79	29544.58
576.95	29315.21
577.11	29649.91
577.27	29364.36
577.43	29682.67
577.59	29834.81
577.75	29467.34
577.92	29570.33
578.08	29230.95
578.24	29179.46
578.40	29663.95
578.56	29886.30
578.72	29181.80
578.88	30024.39
579.04	29970.56
579.21	29575.01
579.37	29624.16
579.53	29635.86
579.69	29209.89
579.85	29476.71
580.01	29298.83
580.17	29560.97
580.33	29656.93
580.49	29488.41
580.65	29713.10
580.82	29532.88
580.98	29528.20
581.14	29457.98
581.30	29905.02
581.46	29237.97
581.62	29771.61
581.78	29624.16
581.94	29797.36
582.10	29474.37
582.26	30195.25
582.42	29818.42
582.58	29965.88
582.74	29577.35
582.90	29628.84
583.06	30068.86
583.22	29895.66
583.38	29965.88
583.54	29797.36
583.70	29813.74
583.86	29446.28
584.02	29385.43
584.18	29469.69
584.34	29802.04
584.50	29982.26
584.66	29713.10
584.82	29766.93
584.98	29521.18
585.14	29858.21
585.30	29486.07
585.46	29780.98
585.62	29628.84
585.78	29628.84
585.94	29610.12
586.10	29874.60
586.26	29909.71
586.42	30361.43
586.58	29956.52
586.74	29663.95
586.90	29701.40
587.06	29586.71
587.22	29963.54
587.38	29612.46
587.54	29977.58
587.70	30139.08
587.86	29619.48
588.02	30061.84
588.18	29696.72
588.34	29949.50
588.49	29919.07
588.65	29706.08
588.81	29888.64
588.97	29947.15
589.13	29731.83
589.29	29692.04
589.45	29841.83
589.61	29886.30
589.77	29965.88
589.93	29993.97
590.08	30061.84
590.24	30019.71
590.40	30267.81
590.56	29940.13
590.72	30008.01
590.88	29703.74
591.04	30101.63
591.20	29898.00
591.35	30043.12
591.51	30265.47
591.67	30190.57
591.83	30462.07
591.99	30139.08
