SpectraSuite Data File
++++++++++++++++++++++++++++++++++++
Date: Fri Oct 18 13:58:10 GMT-05:00 2013
User: bianchi
Dark Spectrum Present: No
Reference Spectrum Present: No
Number of Sampled Component Spectra: 1
Spectrometers: USB2+H05261
Integration Time (usec): 50000 (USB2+H05261)
Spectra Averaged: 1 (USB2+H05261)
Boxcar Smoothing: 0 (USB2+H05261)
Correct for Electrical Dark: No (USB2+H05261)
Strobe/Lamp Enabled: No (USB2+H05261)
Correct for Detector Non-linearity: No (USB2+H05261)
Correct for Stray Light: No (USB2+H05261)
Number of Pixels in Processed Spectrum: 2048
>>>>>Begin Processed Spectral Data<<<<<
365.73	0.00
365.92	0.00
366.12	0.00
366.32	0.00
366.52	0.00
366.72	0.00
366.91	0.00
367.11	0.00
367.31	0.00
367.51	0.00
367.70	0.00
367.90	0.00
368.10	0.00
368.30	0.00
368.49	0.00
368.69	0.00
368.89	0.00
369.09	0.00
369.28	0.00
369.48	0.00
369.68	0.00
369.87	0.00
370.07	0.00
370.27	0.00
370.47	0.00
370.66	70.22
370.86	133.41
371.06	140.43
371.25	170.86
371.45	110.01
371.65	93.62
371.84	126.39
372.04	187.24
372.24	250.44
372.44	173.20
372.63	231.71
372.83	248.10
373.03	184.90
373.22	184.90
373.42	131.07
373.62	250.44
373.81	245.76
374.01	301.93
374.21	231.71
374.40	166.18
374.60	215.33
374.79	189.58
374.99	198.95
375.19	243.42
375.38	231.71
375.58	222.35
375.78	238.73
375.97	301.93
376.17	299.59
376.37	283.20
376.56	238.73
376.76	189.58
376.95	262.14
377.15	245.76
377.35	234.05
377.54	299.59
377.74	191.92
377.93	330.02
378.13	255.12
378.33	306.61
378.52	276.18
378.72	348.74
378.91	290.23
379.11	327.68
379.31	325.33
379.50	306.61
379.70	355.76
379.89	327.68
380.09	308.95
380.28	304.27
380.48	341.72
380.68	276.18
380.87	283.20
381.07	311.29
381.26	372.15
381.46	273.84
381.65	313.63
381.85	332.36
382.04	418.96
382.24	379.17
382.43	379.17
382.63	390.87
382.83	423.64
383.02	348.74
383.22	402.57
383.41	404.91
383.61	360.44
383.80	372.15
384.00	395.55
384.19	407.25
384.39	365.12
384.58	367.46
384.78	393.21
384.97	344.06
385.17	351.08
385.36	435.34
385.56	374.49
385.75	404.91
385.95	416.62
386.14	414.27
386.34	379.17
386.53	358.10
386.72	435.34
386.92	470.45
387.11	339.38
387.31	409.59
387.50	411.93
387.70	379.17
387.89	407.25
388.09	386.19
388.28	521.94
388.48	454.06
388.67	568.75
388.86	489.17
389.06	442.36
389.25	554.71
389.45	468.11
389.64	447.04
389.84	465.77
390.03	543.00
390.22	493.85
390.42	503.22
390.61	470.45
390.81	505.56
391.00	482.15
391.19	514.92
391.39	596.84
391.58	540.66
391.78	489.17
391.97	491.51
392.16	500.87
392.36	617.90
392.55	545.34
392.75	653.01
392.94	540.66
393.13	585.13
393.33	498.53
393.52	498.53
393.71	648.33
393.91	543.00
394.10	606.20
394.29	648.33
394.49	578.11
394.68	608.54
394.88	601.52
395.07	620.24
395.26	575.77
395.46	627.26
395.65	678.76
395.84	599.18
396.04	599.18
396.23	671.73
396.42	629.60
396.62	699.82
396.81	678.76
397.00	655.35
397.19	681.10
397.39	676.41
397.58	704.50
397.77	688.12
397.97	725.57
398.16	699.82
398.35	730.25
398.55	741.95
398.74	748.97
398.93	760.67
399.12	751.31
399.32	739.61
399.51	720.88
399.70	610.88
399.90	730.25
400.09	770.04
400.28	875.36
400.47	758.33
400.67	793.44
400.86	720.88
401.05	807.48
401.24	802.80
401.44	816.85
401.63	772.38
401.82	882.38
402.01	851.96
402.21	805.14
402.40	842.59
402.59	823.87
402.78	912.81
402.97	922.17
403.17	901.11
403.36	854.30
403.55	950.26
403.74	917.49
403.93	933.87
404.13	912.81
404.32	851.96
404.51	954.94
404.70	854.30
404.89	924.51
405.09	938.55
405.28	908.13
405.47	1034.52
405.66	985.37
405.85	1013.45
406.05	1022.81
406.24	1050.90
406.43	950.26
406.62	1008.77
406.81	1144.52
407.00	1057.92
407.20	983.02
407.39	1132.82
407.58	1090.69
407.77	1011.11
407.96	1083.67
408.15	1116.44
408.34	1011.11
408.54	1097.71
408.73	1165.59
408.92	1107.07
409.11	1217.08
409.30	1177.29
409.49	1139.84
409.68	1193.67
409.87	1203.04
410.07	1210.06
410.26	1191.33
410.45	1217.08
410.64	1317.72
410.83	1228.78
411.02	1179.63
411.21	1336.45
411.40	1380.92
411.59	1348.15
411.78	1291.98
411.98	1270.91
412.17	1256.87
412.36	1352.83
412.55	1448.79
412.74	1376.24
412.93	1348.15
413.12	1355.17
413.31	1366.87
413.50	1409.00
413.69	1474.54
413.88	1469.86
414.07	1535.39
414.26	1493.26
414.45	1511.99
414.64	1446.45
414.83	1509.65
415.02	1554.12
415.22	1586.88
415.41	1647.74
415.60	1500.28
415.79	1568.16
415.98	1488.58
416.17	1572.84
416.36	1584.54
416.55	1629.01
416.74	1668.80
416.93	1652.42
417.12	1685.19
417.31	1706.25
417.50	1713.27
417.69	1769.44
417.88	1802.21
418.07	1710.93
418.26	1692.21
418.45	1785.83
418.64	1820.94
418.83	1928.60
419.02	1790.51
419.21	1884.13
419.39	1881.79
419.58	1942.64
419.77	1813.92
419.96	1860.73
420.15	2012.86
420.34	1870.09
420.53	1921.58
420.72	1933.28
420.91	1923.92
421.10	1919.24
421.29	2005.84
421.48	1937.96
421.67	1996.48
421.86	1886.47
422.05	2043.29
422.24	1914.56
422.43	1898.17
422.61	2001.16
422.80	2043.29
422.99	1989.46
423.18	2165.00
423.37	2134.57
423.56	2094.78
423.75	2019.88
423.94	2038.61
424.13	1961.37
424.32	2010.52
424.50	2050.31
424.69	2097.12
424.88	2090.10
425.07	2104.14
425.26	2176.70
425.45	2050.31
425.64	2038.61
425.83	2043.29
426.01	2167.34
426.20	1975.41
426.39	2078.40
426.58	2057.33
426.77	2134.57
426.96	2153.29
427.15	2052.65
427.33	2155.63
427.52	2064.35
427.71	2174.36
427.90	2097.12
428.09	2108.82
428.28	2160.31
428.46	2195.42
428.65	2207.13
428.84	2279.68
429.03	2265.64
429.22	2127.55
429.40	2260.96
429.59	2541.82
429.78	2165.00
429.97	2162.66
430.16	2296.07
430.34	2349.90
430.53	2382.67
430.72	2347.56
430.91	2291.38
431.10	2242.23
431.28	2310.11
431.47	2457.56
431.66	2595.65
431.85	2438.84
432.03	2457.56
432.22	2502.03
432.41	2574.59
432.60	2434.16
432.79	2626.08
432.97	2532.46
433.16	2558.21
433.35	2485.65
433.54	2593.31
433.72	2525.44
433.91	2562.89
434.10	2497.35
434.28	2663.53
434.47	2583.95
434.66	2614.38
434.85	2661.19
435.03	2705.66
435.22	2548.84
435.41	2743.11
435.59	2609.70
435.78	2726.72
435.97	2698.64
436.16	2787.58
436.34	2658.85
436.53	2656.51
436.72	2740.77
436.90	2686.94
437.09	2761.83
437.28	2757.15
437.46	2810.98
437.65	2827.37
437.84	2991.20
438.02	2874.18
438.21	2874.18
438.40	2963.12
438.58	3075.46
438.77	2953.76
438.96	2904.60
439.14	2916.31
439.33	2970.14
439.52	2949.08
439.70	3068.44
439.89	3073.12
440.08	3215.90
440.26	3213.56
440.45	3038.02
440.63	3094.19
440.82	3176.11
441.01	3089.51
441.19	3073.12
441.38	3258.03
441.57	3164.40
441.75	3337.60
441.94	3286.11
442.12	3288.45
442.31	3368.03
442.50	3363.35
442.68	3375.05
442.87	3346.97
443.05	3428.88
443.24	3363.35
443.43	3471.01
443.61	3414.84
443.80	3456.97
443.98	3445.27
444.17	3295.47
444.35	3459.31
444.54	3557.61
444.73	3566.98
444.91	3480.38
445.10	3492.08
445.28	3365.69
445.47	3461.65
445.65	3501.44
445.84	3487.40
446.02	3625.49
446.21	3506.12
446.39	3461.65
446.58	3599.74
446.77	3620.81
446.95	3648.90
447.14	3536.55
447.32	3508.46
447.51	3569.32
447.69	3630.17
447.88	3478.04
448.06	3634.85
448.25	3618.47
448.43	3510.80
448.62	3676.98
448.80	3634.85
448.99	3585.70
449.17	3604.42
449.36	3684.00
449.54	3705.07
449.73	3779.97
449.91	3761.24
450.10	3714.43
450.28	3768.26
450.46	3723.79
450.65	3836.14
450.83	3801.03
451.02	3758.90
451.20	3733.15
451.39	3803.37
451.57	3892.31
451.76	3801.03
451.94	3936.78
452.13	3889.97
452.31	4065.51
452.49	3969.55
452.68	4014.02
452.86	4007.00
453.05	3985.93
453.23	4002.32
453.42	3983.59
453.60	3861.88
453.78	4037.42
453.97	3964.87
454.15	3925.08
454.34	4051.47
454.52	4095.94
454.70	3967.21
454.89	3992.95
455.07	4030.40
455.26	4140.41
455.44	4147.43
455.62	4091.26
455.81	4241.05
455.99	4205.94
456.17	4259.78
456.36	4234.03
456.54	4451.70
456.73	4184.88
456.91	4308.93
457.09	4421.27
457.28	4486.81
457.46	4355.74
457.64	4390.84
457.83	4519.57
458.01	4264.46
458.19	4442.34
458.38	4447.02
458.56	4531.28
458.74	4386.16
458.93	4510.21
459.11	4489.15
459.29	4517.23
459.48	4444.68
459.66	4454.04
459.84	4624.90
460.03	4695.11
460.21	4617.88
460.39	4603.83
460.57	4608.51
460.76	4697.46
460.94	4833.21
461.12	4718.52
461.31	4692.77
461.49	4765.33
461.67	4674.05
461.85	4954.91
462.04	4725.54
462.22	5093.01
462.40	4957.25
462.59	4791.08
462.77	4800.44
462.95	5032.15
463.13	4826.18
463.32	4905.76
463.50	4915.12
463.68	4910.44
463.86	4940.87
464.05	4957.25
464.23	4931.51
464.41	5025.13
464.59	4826.18
464.78	5151.52
464.96	4968.96
465.14	4791.08
465.32	4968.96
465.50	5053.22
465.69	5121.09
465.87	4968.96
466.05	5242.80
466.23	5172.58
466.41	5076.62
466.60	5137.48
466.78	5093.01
466.96	5064.92
467.14	5130.45
467.32	5270.89
467.51	5359.83
467.69	5046.20
467.87	5324.72
468.05	5357.49
468.23	5186.63
468.41	5322.38
468.60	5249.82
468.78	5394.93
468.96	5331.74
469.14	5404.30
469.32	5568.13
469.50	5231.10
469.69	5430.04
469.87	5533.03
470.05	5640.69
470.23	5535.37
470.41	5668.78
470.59	5547.07
470.77	5614.95
470.95	5523.66
471.14	5565.79
471.32	5579.84
471.50	5724.95
471.68	5746.02
471.86	5612.60
472.04	5795.17
472.22	5664.10
472.40	5769.42
472.58	5767.08
472.77	5806.87
472.95	5816.23
473.13	6008.16
473.31	5891.13
473.49	5926.24
473.67	6001.13
473.85	6054.97
474.03	5961.34
474.21	6164.97
474.39	6010.50
474.57	6340.51
474.75	6279.66
474.93	6282.00
475.12	6289.02
475.30	6417.75
475.48	6335.83
475.66	6347.53
475.84	6305.40
476.02	6490.31
476.20	6494.99
476.38	6576.91
476.56	6764.15
476.74	6574.56
476.92	6715.00
477.10	6658.82
477.28	6607.33
477.46	6801.60
477.64	6993.52
477.82	6977.14
478.00	7037.99
478.18	7061.40
478.36	6995.86
478.54	7220.55
478.72	7187.79
478.90	7398.43
479.08	7265.02
479.26	7396.09
479.44	7407.80
479.62	7330.56
479.80	7438.22
479.98	7634.83
480.16	7852.50
480.34	7822.07
480.52	7660.57
480.70	7683.98
480.88	7892.29
481.06	7817.39
481.24	7843.14
481.41	7892.29
481.59	8084.21
481.77	8163.79
481.95	8063.15
482.13	8336.99
482.31	8318.26
482.49	8386.14
482.67	8559.34
482.85	8533.59
483.03	8683.39
483.21	8788.71
483.39	8753.60
483.57	8826.16
483.74	8828.50
483.92	8950.21
484.10	8872.97
484.28	8887.01
484.46	9076.60
484.64	9408.95
484.82	9277.88
485.00	9205.33
485.18	9511.94
485.35	9554.07
485.53	9640.67
485.71	9575.13
485.89	10038.56
486.07	9792.80
486.25	9818.55
486.43	9811.53
486.61	10078.35
486.78	10099.41
486.96	10017.49
487.14	10342.83
487.32	10200.05
487.50	10452.83
487.68	10558.16
487.85	10642.42
488.03	10558.16
488.21	10970.09
488.39	10977.11
488.57	11021.58
488.75	11023.92
488.92	11169.04
489.10	11164.36
489.28	11066.05
489.46	11489.69
489.64	11332.87
489.81	11637.14
489.99	11548.20
490.17	11452.24
490.35	11782.26
490.53	11761.19
490.70	11936.73
490.88	11861.84
491.06	11962.48
491.24	11981.20
491.41	12072.48
491.59	12327.60
491.77	12299.52
491.95	12407.18
492.13	12634.21
492.30	12681.02
492.48	12636.55
492.66	12439.95
492.84	12477.40
493.01	12702.09
493.19	13057.85
493.37	13167.85
493.54	12922.10
493.72	13137.43
493.90	13186.58
494.08	13151.47
494.25	13334.03
494.43	13392.55
494.61	13764.69
494.79	13348.08
494.96	13668.73
495.14	13551.70
495.32	13886.40
495.49	13958.96
495.67	13802.14
495.85	14045.55
496.02	14260.88
496.20	14403.66
496.38	14263.22
496.55	14235.14
496.73	14644.73
496.91	14530.05
497.09	14593.24
497.26	14965.39
497.44	14530.05
497.62	14759.42
497.79	14951.34
497.97	14801.55
498.14	15213.48
498.32	15260.29
498.50	15021.56
498.67	15274.34
498.85	15304.76
499.03	15145.61
499.20	15417.11
499.38	15227.53
499.56	15709.68
499.73	15688.61
499.91	15445.20
500.08	15728.40
500.26	15438.17
500.44	15686.27
500.61	15866.49
500.79	15962.45
500.97	15903.94
501.14	16238.64
501.32	16194.17
501.49	16093.52
501.67	16070.12
501.84	16105.23
502.02	16512.48
502.20	16332.26
502.37	16418.86
502.55	16430.56
502.72	16528.86
502.90	16800.37
503.07	16500.78
503.25	16893.99
503.43	16830.79
503.60	16601.42
503.78	16975.91
503.95	17034.42
504.13	16987.61
504.30	16828.45
504.48	16823.77
504.65	17436.99
504.83	17149.11
505.01	17607.85
505.18	17401.88
505.36	17671.04
505.53	17193.58
505.71	17432.31
505.88	17811.48
506.06	17619.55
506.23	17834.88
506.41	17781.05
506.58	17685.09
506.76	17734.24
506.93	17841.90
507.11	17743.60
507.28	17788.07
507.46	17860.63
507.63	17905.10
507.81	17942.55
507.98	18157.88
508.16	18148.51
508.33	17994.04
508.50	18541.72
508.68	18427.04
508.85	18551.09
509.03	18579.17
509.20	18597.90
509.38	18593.22
509.55	18586.19
509.73	19014.51
509.90	19131.54
510.08	19159.63
510.25	18904.51
510.42	19187.71
510.60	19323.46
510.77	19243.88
510.95	19463.90
511.12	19159.63
511.30	19058.98
511.47	19314.10
511.64	19578.58
511.82	19246.23
511.99	19412.40
512.17	19796.25
512.34	19412.40
512.51	19634.75
512.69	19653.48
512.86	19756.46
513.04	19990.52
513.21	19939.02
513.38	20105.20
513.56	19798.59
513.73	19557.52
513.90	20091.16
514.08	19838.38
514.25	20114.56
514.43	20189.46
514.60	20297.13
514.77	20137.97
514.95	20648.21
515.12	20603.74
515.29	20278.40
515.47	20910.35
515.64	20393.09
515.81	20524.16
515.99	20805.02
516.16	20783.96
516.33	20889.28
516.51	20751.19
516.68	20566.29
516.85	20688.00
517.03	20671.61
517.20	20741.83
517.37	20905.66
517.54	21095.25
517.72	21144.40
517.89	20973.54
518.06	21231.00
518.24	20924.39
518.41	21245.04
518.58	21371.43
518.75	21259.09
518.93	21404.20
519.10	21518.89
519.27	21820.81
519.45	21380.79
519.62	21451.01
519.79	21729.53
519.96	21406.54
520.14	21701.45
520.31	21778.68
520.48	21851.24
520.65	21949.54
520.83	21965.93
521.00	21631.23
521.17	21631.23
521.34	22040.82
521.52	22050.19
521.69	22157.85
521.86	22073.59
522.03	22384.88
522.20	22160.19
522.38	22504.25
522.55	22321.69
522.72	22207.00
522.89	22504.25
523.07	22700.86
523.24	22302.96
523.41	22857.67
523.58	22434.03
523.75	22576.81
523.92	22525.32
524.10	22628.30
524.27	22899.80
524.44	22649.36
524.61	22848.31
524.78	23042.57
524.96	22869.37
525.13	23021.51
525.30	23300.03
525.47	23241.52
525.64	23243.86
525.81	23307.05
525.98	23426.42
526.16	23288.33
526.33	23201.73
526.50	23627.71
526.67	23400.68
526.84	23096.41
527.01	23281.31
527.18	23473.23
527.36	23606.64
527.53	23641.75
527.70	24011.56
527.87	23885.17
528.04	23494.30
528.21	23864.10
528.38	23821.97
528.55	23810.27
528.72	23674.52
528.89	23896.87
529.07	24194.12
529.24	24049.00
529.41	24126.24
529.58	24011.56
529.75	24126.24
529.92	24116.88
530.09	24041.98
530.26	24240.93
530.43	24451.58
530.60	24341.57
530.77	24151.99
530.94	24294.76
531.11	24435.19
531.28	24011.56
531.46	24229.23
531.63	24659.88
531.80	25081.18
531.97	24926.71
532.14	24584.99
532.31	24519.45
532.48	24418.81
532.65	24608.39
532.82	24819.04
532.99	24943.09
533.16	24783.93
533.33	24994.58
533.50	25502.48
533.67	24854.15
533.84	24706.70
534.01	24929.05
534.18	24929.05
534.35	25034.37
534.52	25043.73
534.69	25200.55
534.86	25432.26
535.03	25179.48
535.20	25216.93
535.37	25226.29
535.54	25458.01
535.71	25481.41
535.88	25130.33
536.05	25111.61
536.22	25289.49
536.38	25771.64
536.55	25579.71
536.72	25481.41
536.89	25350.34
537.06	25624.18
537.23	25612.48
537.40	26127.40
537.57	25710.78
537.74	25876.96
537.91	26033.78
538.08	26178.89
538.25	25598.44
538.42	25535.24
538.59	26101.65
538.75	25905.05
538.92	25865.26
539.09	26181.23
539.26	25977.61
539.43	26300.60
539.60	26057.18
539.77	26096.97
539.94	26127.40
540.11	26127.40
540.28	26328.69
540.44	26157.83
540.61	26199.96
540.78	26017.40
540.95	26703.17
541.12	26532.31
541.29	26094.63
541.46	26534.65
541.62	26511.25
541.79	26059.52
541.96	26197.62
542.13	26466.78
542.30	26757.00
542.47	26754.66
542.63	26677.43
542.80	26792.11
542.97	27204.05
543.14	26689.13
543.31	27442.78
543.48	26969.99
543.64	26789.77
543.81	27112.77
543.98	27227.45
544.15	26874.03
544.32	27152.55
544.48	27129.15
544.65	27110.43
544.82	27295.33
544.99	26829.56
545.16	26991.06
545.32	26838.92
545.49	27946.00
545.66	27747.05
545.83	27580.87
546.00	27555.13
546.16	27014.46
546.33	27566.83
546.50	27070.64
546.67	27405.33
546.83	27227.45
547.00	27316.39
547.17	27548.11
547.34	27885.14
547.50	27892.16
547.67	28058.34
547.84	27527.04
548.00	27955.36
548.17	28088.77
548.34	27623.00
548.51	27672.15
548.67	27938.97
548.84	27828.97
549.01	28034.94
549.18	27721.30
549.34	27812.59
549.51	27744.71
549.68	27777.48
549.84	27892.16
550.01	28332.18
550.18	28105.15
550.34	27899.19
550.51	28261.97
550.68	28402.40
550.84	27922.59
551.01	28032.60
551.18	27943.66
551.34	27920.25
551.51	28580.28
551.68	28144.94
551.84	28521.77
552.01	28180.05
552.18	28985.19
552.34	28100.47
552.51	28276.01
552.68	28622.41
552.84	28716.03
553.01	28816.68
553.18	28882.21
553.34	28584.96
553.51	28498.36
553.67	28917.32
553.84	28987.53
554.01	29048.39
554.17	28711.35
554.34	28631.77
554.51	28900.94
554.67	28886.89
554.84	28947.75
555.00	28882.21
555.17	28498.36
555.33	28999.24
555.50	29149.03
555.67	28804.97
555.83	29029.66
556.00	28959.45
556.16	28968.81
556.33	28985.19
556.50	28725.39
556.66	29165.42
556.83	29071.79
556.99	29465.00
557.16	29032.00
557.32	28624.75
557.49	29366.70
557.65	28985.19
557.82	28861.15
557.98	28989.88
558.15	29057.75
558.32	29465.00
558.48	29240.31
558.65	29497.77
558.81	29289.46
558.98	29614.80
559.14	29727.14
559.31	29284.78
559.47	29165.42
559.64	29240.31
559.80	29167.76
559.97	29624.16
560.13	29369.04
560.30	29319.89
560.46	29497.77
560.63	29795.02
560.79	29525.86
560.96	29357.34
561.12	29289.46
561.29	29558.63
561.45	29682.67
561.61	29757.57
561.78	29813.74
561.94	29912.05
562.11	29638.20
562.27	29041.37
562.44	29677.99
562.60	29867.58
562.77	29427.56
562.93	29752.89
563.10	30309.94
563.26	29663.95
563.42	29975.24
563.59	29780.98
563.75	29713.10
563.92	30171.85
564.08	29902.68
564.24	30022.05
564.41	29509.47
564.57	29600.76
564.74	29825.45
564.90	30132.06
565.07	29553.94
565.23	30139.08
565.39	29724.80
565.56	30195.25
565.72	29713.10
565.88	30082.91
566.05	29942.47
566.21	29846.51
566.38	30026.73
566.54	29928.43
566.70	30146.10
566.87	30581.44
567.03	30064.18
567.19	30600.16
567.36	30237.38
567.52	29916.73
567.68	30036.09
567.85	30094.61
568.01	29724.80
568.17	30033.75
568.34	30279.51
568.50	30244.40
568.66	29919.07
568.83	30607.19
568.99	30288.87
569.15	30256.11
569.32	30061.84
569.48	29855.87
569.64	30487.82
569.81	30075.88
569.97	30197.59
570.13	30206.95
570.30	30171.85
570.46	30389.52
570.62	30595.48
570.78	30038.44
570.95	30110.99
571.11	30129.72
571.27	30185.89
571.43	30333.34
571.60	30356.75
571.76	30106.31
571.92	30307.60
572.09	30469.09
572.25	30457.39
572.41	30595.48
572.57	30649.32
572.74	30506.54
572.90	30340.36
573.06	30590.80
573.22	30235.04
573.38	30565.06
573.55	30492.50
573.71	30878.69
573.87	30771.02
574.03	30546.33
574.20	30396.54
574.36	29949.50
574.52	30459.73
574.68	30480.80
574.84	30480.80
575.01	30618.89
575.17	30567.40
575.33	30373.13
575.49	30183.55
575.65	30361.43
575.82	30277.17
575.98	30221.00
576.14	30679.74
576.30	30525.27
576.46	30581.44
576.62	30195.25
576.79	30398.88
576.95	30178.87
577.11	30384.83
577.27	30780.39
577.43	30572.08
577.59	30558.03
577.75	30396.54
577.92	30155.46
578.08	30487.82
578.24	30258.45
578.40	30700.81
578.56	30703.15
578.72	30984.01
578.88	30897.41
579.04	30740.60
579.21	30429.30
579.37	30733.57
579.53	30707.83
579.69	30689.10
579.85	30590.80
580.01	30464.41
580.17	30366.11
580.33	30146.10
580.49	30469.09
580.65	30801.45
580.82	30749.96
580.98	31054.23
581.14	30759.32
581.30	30742.94
581.46	30623.57
581.62	30572.08
581.78	30326.32
581.94	30864.64
582.10	30148.44
582.26	30785.07
582.42	30476.12
582.58	30827.20
582.74	30529.95
582.90	30855.28
583.06	30593.14
583.22	30579.10
583.38	31056.57
583.54	30738.26
583.70	30731.23
583.86	30637.61
584.02	30642.29
584.18	30806.13
584.34	30543.99
584.50	30976.99
584.66	30890.39
584.82	30707.83
584.98	30920.82
585.14	30747.62
585.30	30436.33
585.46	30857.62
585.62	30635.27
585.78	30747.62
585.94	30520.59
586.10	30920.82
586.26	31091.68
586.42	31192.32
586.58	31098.70
586.74	30745.28
586.90	30806.13
587.06	30852.94
587.22	30991.03
587.38	30445.69
587.54	30672.72
587.70	31049.55
587.86	30899.75
588.02	30951.24
588.18	31108.06
588.34	31178.28
588.49	30925.50
588.65	30792.09
588.81	30845.92
588.97	30785.07
589.13	30714.85
589.29	30583.78
589.45	30630.59
589.61	31070.61
589.77	31037.84
589.93	30888.05
590.08	31424.03
590.24	31215.72
590.40	31236.79
590.56	31079.97
590.72	30991.03
590.88	30890.39
591.04	30799.11
591.20	31124.44
591.35	31145.51
591.51	31269.56
591.67	31136.15
591.83	31424.03
