SpectraSuite Data File
++++++++++++++++++++++++++++++++++++
Date: Fri Oct 18 13:58:38 GMT-05:00 2013
User: bianchi
Dark Spectrum Present: No
Reference Spectrum Present: No
Number of Sampled Component Spectra: 1
Spectrometers: USB2+H05261
Integration Time (usec): 50000 (USB2+H05261)
Spectra Averaged: 1 (USB2+H05261)
Boxcar Smoothing: 0 (USB2+H05261)
Correct for Electrical Dark: No (USB2+H05261)
Strobe/Lamp Enabled: No (USB2+H05261)
Correct for Detector Non-linearity: No (USB2+H05261)
Correct for Stray Light: No (USB2+H05261)
Number of Pixels in Processed Spectrum: 2048
>>>>>Begin Processed Spectral Data<<<<<
365.73	28.09
365.92	28.09
366.12	28.09
366.32	0.00
366.52	0.00
366.72	0.00
366.91	0.00
367.11	0.00
367.31	0.00
367.51	0.00
367.70	0.00
367.90	0.00
368.10	0.00
368.30	0.00
368.49	0.00
368.69	0.00
368.89	0.00
369.09	0.00
369.28	0.00
369.48	0.00
369.68	0.00
369.87	0.00
370.07	0.00
370.27	0.00
370.47	0.00
370.66	16.38
370.86	159.16
371.06	112.35
371.25	180.22
371.45	100.64
371.65	245.76
371.84	95.96
372.04	159.16
372.24	98.30
372.44	217.67
372.63	229.37
372.83	222.35
373.03	177.88
373.22	212.99
373.42	264.48
373.62	191.92
373.81	224.69
374.01	250.44
374.21	184.90
374.40	229.37
374.60	234.05
374.79	224.69
374.99	262.14
375.19	241.08
375.38	280.86
375.58	196.60
375.78	332.36
375.97	322.99
376.17	315.97
376.37	290.23
376.56	243.42
376.76	313.63
376.95	212.99
377.15	276.18
377.35	280.86
377.54	238.73
377.74	313.63
377.93	285.55
378.13	245.76
378.33	285.55
378.52	203.63
378.72	292.57
378.91	266.82
379.11	304.27
379.31	264.48
379.50	250.44
379.70	325.33
379.89	304.27
380.09	292.57
380.28	259.80
380.48	262.14
380.68	311.29
380.87	255.12
381.07	306.61
381.26	294.91
381.46	322.99
381.65	388.53
381.85	257.46
382.04	341.72
382.24	344.06
382.43	320.65
382.63	348.74
382.83	365.12
383.02	348.74
383.22	381.51
383.41	334.70
383.61	306.61
383.80	369.80
384.00	308.95
384.19	369.80
384.39	395.55
384.58	386.19
384.78	376.83
384.97	402.57
385.17	411.93
385.36	397.89
385.56	355.76
385.75	351.08
385.95	416.62
386.14	395.55
386.34	337.04
386.53	428.32
386.72	461.09
386.92	521.94
387.11	447.04
387.31	386.19
387.50	423.64
387.70	442.36
387.89	505.56
388.09	447.04
388.28	437.68
388.48	447.04
388.67	517.26
388.86	395.55
389.06	447.04
389.25	512.58
389.45	517.26
389.64	470.45
389.84	423.64
390.03	461.09
390.22	449.38
390.42	479.81
390.61	531.30
390.81	552.37
391.00	468.11
391.19	444.70
391.39	479.81
391.58	484.49
391.78	470.45
391.97	510.24
392.16	468.11
392.36	608.54
392.55	493.85
392.75	533.64
392.94	561.73
393.13	491.51
393.33	538.32
393.52	521.94
393.71	550.03
393.91	578.11
394.10	543.00
394.29	575.77
394.49	606.20
394.68	519.60
394.88	669.39
395.07	603.86
395.26	671.73
395.46	535.98
395.65	592.16
395.84	543.00
396.04	526.62
396.23	676.41
396.42	636.63
396.62	653.01
396.81	613.22
397.00	601.52
397.19	685.78
397.39	730.25
397.58	671.73
397.77	774.72
397.97	711.52
398.16	681.10
398.35	674.07
398.55	688.12
398.74	737.27
398.93	699.82
399.12	695.14
399.32	730.25
399.51	709.18
399.70	676.41
399.90	753.65
400.09	748.97
400.28	720.88
400.47	723.23
400.67	727.91
400.86	739.61
401.05	709.18
401.24	751.31
401.44	851.96
401.63	833.23
401.82	840.25
402.01	809.83
402.21	791.10
402.40	833.23
402.59	861.32
402.78	755.99
402.97	765.36
403.17	819.19
403.36	784.08
403.55	732.59
403.74	882.38
403.93	980.68
404.13	880.04
404.32	877.70
404.51	863.66
404.70	889.40
404.89	870.68
405.09	903.45
405.28	858.98
405.47	985.37
405.66	905.79
405.85	940.90
406.05	880.04
406.24	1018.13
406.43	971.32
406.62	1001.75
406.81	980.68
407.00	1008.77
407.20	1076.65
407.39	999.41
407.58	1069.62
407.77	1022.81
407.96	1109.41
408.15	1111.75
408.34	1018.13
408.54	1060.26
408.73	1071.97
408.92	1097.71
409.11	1144.52
409.30	1006.43
409.49	1095.37
409.68	1104.73
409.87	1219.42
410.07	1196.01
410.26	1188.99
410.45	1132.82
410.64	1184.31
410.83	1095.37
411.02	1137.50
411.21	1205.38
411.40	1254.53
411.59	1207.72
411.78	1289.64
411.98	1301.34
412.17	1261.55
412.36	1320.06
412.55	1299.00
412.74	1289.64
412.93	1301.34
413.12	1341.13
413.31	1425.39
413.50	1378.58
413.69	1364.53
413.88	1416.02
414.07	1348.15
414.26	1469.86
414.45	1511.99
414.64	1401.98
414.83	1474.54
415.02	1418.36
415.22	1568.16
415.41	1556.46
415.60	1479.22
415.79	1460.49
415.98	1490.92
416.17	1636.03
416.36	1696.89
416.55	1558.80
416.74	1692.21
416.93	1650.08
417.12	1734.34
417.31	1668.80
417.50	1652.42
417.69	1600.93
417.88	1727.32
418.07	1739.02
418.26	1724.97
418.45	1792.85
418.64	1785.83
418.83	1732.00
419.02	1802.21
419.21	1902.86
419.39	1781.15
419.58	1732.00
419.77	1755.40
419.96	1816.26
420.15	1837.32
420.34	1769.44
420.53	1834.98
420.72	1942.64
420.91	1926.26
421.10	1914.56
421.29	1949.67
421.48	1858.39
421.67	1933.28
421.86	1832.64
422.05	1952.01
422.24	1973.07
422.43	1961.37
422.61	1963.71
422.80	2015.20
422.99	2038.61
423.18	2010.52
423.37	2017.54
423.56	2026.90
423.75	1982.43
423.94	1865.41
424.13	1912.22
424.32	2010.52
424.50	2104.14
424.69	2113.50
424.88	2064.35
425.07	2026.90
425.26	1895.83
425.45	2062.01
425.64	2008.18
425.83	2073.71
426.01	2059.67
426.20	2015.20
426.39	2127.55
426.58	1963.71
426.77	1914.56
426.96	2129.89
427.15	2200.10
427.33	2120.53
427.52	2017.54
427.71	2087.76
427.90	2139.25
428.09	2097.12
428.28	2134.57
428.46	2115.84
428.65	2167.34
428.84	2207.13
429.03	2296.07
429.22	2104.14
429.40	2326.49
429.59	2167.34
429.78	2106.48
429.97	2160.31
430.16	2165.00
430.34	2265.64
430.53	2289.04
430.72	2317.13
430.91	2218.83
431.10	2289.04
431.28	2298.41
431.47	2277.34
431.66	2345.22
431.85	2296.07
432.03	2462.24
432.22	2495.01
432.41	2459.90
432.60	2443.52
432.79	2480.97
432.97	2478.63
433.16	2518.42
433.35	2448.20
433.54	2513.74
433.72	2441.18
433.91	2485.65
434.10	2509.05
434.28	2532.46
434.47	2476.29
434.66	2490.33
434.85	2586.29
435.03	2551.18
435.22	2525.44
435.41	2612.04
435.59	2513.74
435.78	2509.05
435.97	2609.70
436.16	2579.27
436.34	2602.68
436.53	2602.68
436.72	2696.30
436.90	2747.79
437.09	2656.51
437.28	2626.08
437.46	2672.89
437.65	2719.70
437.84	2705.66
438.02	2796.94
438.21	2677.57
438.40	2843.75
438.58	2888.22
438.77	2832.05
438.96	2928.01
439.14	2888.22
439.33	2991.20
439.52	3014.61
439.70	2998.23
439.89	3133.98
440.08	3080.14
440.26	3101.21
440.45	2890.56
440.63	3063.76
440.82	3047.38
441.01	3141.00
441.19	3199.51
441.38	3143.34
441.57	3166.74
441.75	3267.39
441.94	3131.64
442.12	3222.92
442.31	3346.97
442.50	3342.28
442.68	3183.13
442.87	3279.09
443.05	3276.75
443.24	3438.25
443.43	3307.18
443.61	3290.79
443.80	3431.23
443.98	3375.05
444.17	3178.45
444.35	3487.40
444.54	3435.91
444.73	3405.48
444.91	3368.03
445.10	3379.73
445.28	3276.75
445.47	3480.38
445.65	3379.73
445.84	3463.99
446.02	3515.48
446.21	3344.63
446.39	3520.17
446.58	3471.01
446.77	3496.76
446.95	3513.14
447.14	3529.53
447.32	3585.70
447.51	3571.66
447.69	3346.97
447.88	3506.12
448.06	3489.74
448.25	3599.74
448.43	3517.83
448.62	3627.83
448.80	3531.87
448.99	3658.26
449.17	3489.74
449.36	3471.01
449.54	3655.92
449.73	3672.30
449.91	3630.17
450.10	3562.30
450.28	3901.67
450.46	3679.32
450.65	3772.94
450.83	3726.13
451.02	3684.00
451.20	3609.11
451.39	3789.33
451.57	3693.37
451.76	3768.26
451.94	3681.66
452.13	3770.60
452.31	3880.61
452.49	3817.41
452.68	3845.50
452.86	3691.02
453.05	3859.54
453.23	3936.78
453.42	3829.12
453.60	3744.86
453.78	3960.19
453.97	3723.79
454.15	3932.10
454.34	3819.75
454.52	3880.61
454.70	3922.74
454.89	4021.04
455.07	3960.19
455.26	4004.66
455.44	4105.30
455.62	3974.23
455.81	4046.79
455.99	4107.64
456.17	4133.39
456.36	4079.55
456.54	4079.55
456.73	4205.94
456.91	4255.09
457.09	4477.44
457.28	4306.59
457.46	4372.12
457.64	4283.18
457.83	4344.03
458.01	4449.36
458.19	4404.89
458.38	4156.79
458.56	4397.87
458.74	4290.20
458.93	4411.91
459.11	4524.26
459.29	4252.75
459.48	4482.13
459.66	4486.81
459.84	4414.25
460.03	4629.58
460.21	4678.73
460.39	4428.29
460.57	4468.08
460.76	4524.26
460.94	4454.04
461.12	4465.74
461.31	4449.36
461.49	4535.96
461.67	4458.72
461.85	4805.12
462.04	4660.01
462.22	4770.01
462.40	4641.28
462.59	4578.09
462.77	4816.82
462.95	4683.41
463.13	4800.44
463.32	4851.93
463.50	4847.25
463.68	4840.23
463.86	4891.72
464.05	4781.71
464.23	4865.97
464.41	4826.18
464.59	4758.31
464.78	4868.31
464.96	4870.65
465.14	4781.71
465.32	4915.12
465.50	4994.70
465.69	4847.25
465.87	5039.17
466.05	4919.81
466.23	4961.94
466.41	5029.81
466.60	5139.82
466.78	4959.60
466.96	5034.49
467.14	5125.77
467.32	5118.75
467.51	5172.58
467.69	4751.29
467.87	5153.86
468.05	5109.39
468.23	4964.28
468.41	4931.51
468.60	5097.69
468.78	5195.99
468.96	5132.79
469.14	5203.01
469.32	5310.68
469.50	5118.75
469.69	5284.93
469.87	5359.83
470.05	5474.51
470.23	5392.59
470.41	5394.93
470.59	5530.69
470.77	5357.49
470.95	5652.39
471.14	5488.56
471.32	5483.88
471.50	5444.09
471.68	5504.94
471.86	5507.28
472.04	5598.56
472.22	5743.67
472.40	5722.61
472.58	5764.74
472.77	5804.53
472.95	5916.87
473.13	5996.45
473.31	5664.10
473.49	5827.93
473.67	5853.68
473.85	5905.17
474.03	6022.20
474.21	5998.79
474.39	6029.22
474.57	6050.28
474.75	6141.57
474.93	5949.64
475.12	5987.09
475.30	5994.11
475.48	6054.97
475.66	6188.38
475.84	6244.55
476.02	6307.74
476.20	6305.40
476.38	6333.49
476.56	6359.24
476.74	6628.40
476.92	6523.07
477.10	6537.12
477.28	6387.32
477.46	6644.78
477.64	6616.69
477.82	6782.87
478.00	6839.05
478.18	6860.11
478.36	6743.08
478.54	7080.12
478.72	6820.32
478.90	7054.37
479.08	7026.29
479.26	7073.10
479.44	7187.79
479.62	7276.73
479.80	7169.06
479.98	7227.57
480.16	7609.08
480.34	7417.16
480.52	7581.00
480.70	7581.00
480.88	7573.97
481.06	7744.83
481.24	7470.99
481.41	7691.00
481.59	7826.75
481.77	7995.27
481.95	7798.66
482.13	7950.80
482.31	8210.60
482.49	8049.10
482.67	8095.91
482.85	8278.47
483.03	8461.04
483.21	8301.88
483.39	8351.03
483.57	8521.89
483.74	8526.57
483.92	8613.17
484.10	8503.17
484.28	9135.11
484.46	8940.85
484.64	9123.41
484.82	9114.05
485.00	8933.82
485.18	9102.34
485.35	9336.40
485.53	9193.62
485.71	9406.61
485.89	9617.26
486.07	9441.72
486.25	9432.36
486.43	9509.60
486.61	9495.55
486.78	9715.56
486.96	9970.68
487.14	9848.97
487.32	9921.53
487.50	9954.30
487.68	10298.36
487.85	10153.24
488.03	10345.17
488.21	10420.06
488.39	10520.71
488.57	10555.82
488.75	10738.38
488.92	10738.38
489.10	10848.38
489.28	10806.25
489.46	11047.33
489.64	10864.77
489.81	11190.10
489.99	11386.71
490.17	11300.11
490.35	11293.08
490.53	11447.56
490.70	11552.88
490.88	11433.52
491.06	11719.06
491.24	11747.15
491.41	11672.25
491.59	11777.58
491.77	11824.39
491.95	11946.09
492.13	12334.62
492.30	12114.61
492.48	12290.15
492.66	12311.22
492.84	12437.61
493.01	12688.04
493.19	12482.08
493.37	12758.26
493.54	12566.34
493.72	12741.88
493.90	12659.96
494.08	12868.27
494.25	12901.03
494.43	12924.44
494.61	13158.49
494.79	13338.71
494.96	13341.05
495.14	13371.48
495.32	13319.99
495.49	13549.36
495.67	13214.66
495.85	13722.56
496.02	13514.25
496.20	13888.74
496.38	13764.69
496.55	14024.49
496.73	14260.88
496.91	14136.84
497.09	14267.91
497.26	14506.64
497.44	14024.49
497.62	14310.04
497.79	14609.62
497.97	14455.15
498.14	14534.73
498.32	14672.82
498.50	14654.09
498.67	14759.42
498.85	14871.76
499.03	14871.76
499.20	14888.15
499.38	14476.21
499.56	14981.77
499.73	15098.80
499.91	15152.63
500.08	15283.70
500.26	15049.64
500.44	15562.22
500.61	15187.74
500.79	15564.56
500.97	15440.51
501.14	15967.13
501.32	15463.92
501.49	15592.65
501.67	15730.74
501.84	15733.08
502.02	15903.94
502.20	15929.69
502.37	16175.44
502.55	15946.07
502.72	16269.06
502.90	16081.82
503.07	16189.49
503.25	16023.31
503.43	16409.50
503.60	16482.05
503.78	16137.99
503.95	16376.73
504.13	16650.57
504.30	16477.37
504.48	16369.71
504.65	16606.10
504.83	16931.44
505.01	16882.28
505.18	16730.15
505.36	16734.83
505.53	16713.77
505.71	17195.92
505.88	16971.22
506.06	16861.22
506.23	17216.98
506.41	17095.27
506.58	17076.55
506.76	17336.35
506.93	17291.88
507.11	17404.22
507.28	17305.92
507.46	17514.23
507.63	17504.87
507.81	17678.07
507.98	17319.96
508.16	17259.11
508.33	17781.05
508.50	17530.61
508.68	18115.75
508.85	18068.94
509.03	17790.41
509.20	18094.68
509.38	18125.11
509.55	18197.67
509.73	18228.09
509.90	18485.55
510.08	18429.38
510.25	18328.74
510.42	18441.08
510.60	18513.64
510.77	18597.90
510.95	18703.22
511.12	18466.83
511.30	18668.11
511.47	18675.13
511.64	18647.05
511.82	19096.43
511.99	18712.58
512.17	19365.59
512.34	18930.25
512.51	19103.45
512.69	19164.31
512.86	19222.82
513.04	19183.03
513.21	19356.23
513.38	19494.32
513.56	19800.93
513.73	19227.50
513.90	19400.70
514.08	19662.84
514.25	19477.94
514.43	19459.21
514.60	19665.18
514.77	19667.52
514.95	19594.96
515.12	19599.65
515.29	19681.56
515.47	19819.66
515.64	19929.66
515.81	19487.30
515.99	19845.40
516.16	20376.70
516.33	20290.10
516.51	20297.13
516.68	20107.54
516.85	20152.01
517.03	20285.42
517.20	20201.16
517.37	20432.88
517.54	20203.50
517.72	20542.88
517.89	20435.22
518.06	20435.22
518.24	20549.90
518.41	20437.56
518.58	20943.11
518.75	20760.55
518.93	20533.52
519.10	20849.49
519.27	20755.87
519.45	20659.91
519.62	20854.17
519.79	20814.38
519.96	21102.27
520.14	21172.49
520.31	21172.49
520.48	21219.30
520.65	21249.72
520.83	21193.55
521.00	21275.47
521.17	21308.24
521.34	21090.57
521.52	21455.69
521.69	21397.18
521.86	21862.94
522.03	21638.25
522.20	21603.14
522.38	21785.71
522.55	21710.81
522.72	21617.19
522.89	21600.80
523.07	21881.67
523.24	21717.83
523.41	22054.87
523.58	21879.33
523.75	22022.10
523.92	21628.89
524.10	22024.44
524.27	22017.42
524.44	22122.74
524.61	22546.38
524.78	22342.75
524.96	22115.72
525.13	22431.69
525.30	22199.98
525.47	22532.34
525.64	22518.29
525.81	22361.48
525.98	22405.95
526.16	22721.92
526.33	22551.06
526.50	22609.58
526.67	22754.69
526.84	22799.16
527.01	22520.63
527.18	22981.72
527.36	22930.23
527.53	22878.74
527.70	22965.34
527.87	23044.91
528.04	23087.04
528.21	22946.61
528.38	23138.54
528.55	23239.18
528.72	23040.23
528.89	23431.10
529.07	23297.69
529.24	23250.88
529.41	23159.60
529.58	23255.56
529.75	23225.14
529.92	23220.45
530.09	23145.56
530.26	23330.46
530.43	23620.69
530.60	23424.08
530.77	23367.91
530.94	23611.32
531.11	23744.73
531.28	23473.23
531.46	23798.57
531.63	23754.10
531.80	23740.05
531.97	23578.56
532.14	23648.77
532.31	23864.10
532.48	23751.76
532.65	24058.37
532.82	24116.88
532.99	24126.24
533.16	23777.50
533.33	24369.66
533.50	24360.30
533.67	24348.59
533.84	24196.46
534.01	24013.90
534.18	23908.57
534.35	24231.57
534.52	24161.35
534.69	24297.10
534.86	24863.51
535.03	24657.54
535.20	24435.19
535.37	24542.86
535.54	24467.96
535.71	24500.73
535.88	24240.93
536.05	24390.72
536.22	24940.75
536.38	24755.85
536.55	24418.81
536.72	25195.87
536.89	24973.52
537.06	24615.41
537.23	24805.00
537.40	24959.47
537.57	25090.54
537.74	25020.33
537.91	25104.59
538.08	24870.53
538.25	24982.88
538.42	24966.49
538.59	25223.95
538.75	25123.31
538.92	25177.14
539.09	25083.52
539.26	25226.29
539.43	25371.41
539.60	25254.38
539.77	25158.42
539.94	25364.39
540.11	25338.64
540.28	25057.78
540.44	25191.19
540.61	25369.07
540.78	25170.12
540.95	25598.44
541.12	25572.69
541.29	25359.70
541.46	25788.02
541.62	25488.43
541.79	25603.12
541.96	25659.29
542.13	25617.16
542.30	25654.61
542.47	26017.40
542.63	25883.98
542.80	26087.61
542.97	26391.88
543.14	26061.87
543.31	26050.16
543.48	26106.34
543.64	26136.76
543.81	26441.03
543.98	26551.04
544.15	26316.98
544.32	26185.91
544.48	26370.82
544.65	26469.12
544.82	26434.01
544.99	26066.55
545.16	26768.71
545.32	26256.13
545.49	26541.68
545.66	26583.80
545.83	26525.29
546.00	26703.17
546.16	26817.86
546.33	26424.65
546.50	26001.01
546.67	26518.27
546.83	26469.12
547.00	26529.97
547.17	26909.14
547.34	26576.78
547.50	26843.60
547.67	27021.48
547.84	26965.31
548.00	26618.91
548.17	26792.11
548.34	26822.54
548.51	27009.78
548.67	26822.54
548.84	26815.52
549.01	27030.85
549.18	26862.33
549.34	27049.57
549.51	26661.04
549.68	26948.93
549.84	26967.65
550.01	27042.55
550.18	27281.28
550.34	26923.18
550.51	27065.96
550.68	27421.72
550.84	27213.41
551.01	27342.14
551.18	27323.41
551.34	26878.71
551.51	27175.96
551.68	27379.59
551.84	27335.12
552.01	27468.53
552.18	27260.22
552.34	27513.00
552.51	27693.22
552.68	27072.98
552.84	27379.59
553.01	27620.66
553.18	27578.53
553.34	27578.53
553.51	27470.87
553.67	27608.96
553.84	28109.83
554.01	28098.13
554.17	27908.55
554.34	27859.40
554.51	27606.62
554.67	28004.51
554.84	27854.72
555.00	27704.92
555.17	27702.58
555.33	28051.32
555.50	27770.46
555.67	28039.62
555.83	27688.54
556.00	28308.78
556.16	28137.92
556.33	27805.56
556.50	27981.10
556.66	28100.47
556.83	27997.49
556.99	27967.06
557.16	28423.47
557.32	28121.54
557.49	28503.04
557.65	28032.60
557.82	28142.60
557.98	28093.45
558.15	28217.50
558.32	28229.20
558.48	28458.57
558.65	28379.00
558.81	28266.65
558.98	28521.77
559.14	28599.01
559.31	28414.10
559.47	28414.10
559.64	28533.47
559.80	28589.64
559.97	28540.49
560.13	28203.46
560.30	28547.51
560.46	28367.29
560.63	28505.38
560.79	28847.10
560.96	28811.99
561.12	28353.25
561.29	28353.25
561.45	28591.98
561.61	28737.10
561.78	28498.36
561.94	28718.37
562.11	29123.29
562.27	28596.67
562.44	28730.08
562.60	28547.51
562.77	28683.27
562.93	28542.83
563.10	29055.41
563.26	28889.23
563.42	29085.84
563.59	28807.31
563.75	28542.83
563.92	29102.22
564.08	28910.30
564.24	28989.88
564.41	28849.44
564.57	28636.45
564.74	29036.69
564.90	29170.10
565.07	28933.70
565.23	29275.42
565.39	28704.33
565.56	29385.43
565.72	28652.84
565.88	28914.98
566.05	28807.31
566.21	28893.91
566.38	29078.82
566.54	29057.75
566.70	29322.23
566.87	29153.71
567.03	29120.95
567.19	29418.19
567.36	29483.73
567.52	29443.94
567.68	29053.07
567.85	28985.19
568.01	28994.56
568.17	29022.64
568.34	29413.51
568.50	29259.04
568.66	28980.51
568.83	29036.69
568.99	28954.77
569.15	29039.03
569.32	29165.42
569.48	29209.89
569.64	29308.19
569.81	29130.31
569.97	29240.31
570.13	29441.60
570.30	29039.03
570.46	29181.80
570.62	29420.53
570.78	29177.12
570.95	29090.52
571.11	29476.71
571.27	28936.04
571.43	29191.16
571.60	29371.38
571.76	29563.31
571.92	29336.27
572.09	29350.32
572.25	28971.15
572.41	29252.02
572.57	29383.09
572.74	29575.01
572.90	29284.78
573.06	29104.56
573.22	29336.27
573.38	29280.10
573.55	29109.24
573.71	29567.99
573.87	29677.99
574.03	29237.97
574.20	29886.30
574.36	29237.97
574.52	29132.65
574.68	29317.55
574.84	29738.85
575.01	29692.04
575.17	29535.22
575.33	29406.49
575.49	29457.98
575.65	29542.24
575.82	29474.37
575.98	29635.86
576.14	29521.18
576.30	29280.10
576.46	29649.91
576.62	29465.00
576.79	29467.34
576.95	29397.13
577.11	29069.45
577.27	29209.89
577.43	29387.77
577.59	29612.46
577.75	29560.97
577.92	29181.80
578.08	29301.17
578.24	29336.27
578.40	29462.66
578.56	29448.62
578.72	29443.94
578.88	29479.05
579.04	29834.81
579.21	29413.51
579.37	29766.93
579.53	29947.15
579.69	29788.00
579.85	29390.11
580.01	29177.12
580.17	29277.76
580.33	29390.11
580.49	29275.42
580.65	29434.58
580.82	29888.64
580.98	29603.10
581.14	29769.27
581.30	29752.89
581.46	29345.64
581.62	29687.36
581.78	29397.13
581.94	29722.46
582.10	29677.99
582.26	29668.63
582.42	29848.85
582.58	29802.04
582.74	29617.14
582.90	29483.73
583.06	29706.08
583.22	29841.83
583.38	29689.70
583.54	29404.15
583.70	29432.24
583.86	29748.21
584.02	29406.49
584.18	30148.44
584.34	29832.47
584.50	29795.02
584.66	29663.95
584.82	29668.63
584.98	29738.85
585.14	29401.81
585.30	29586.71
585.46	29521.18
585.62	29701.40
585.78	29551.60
585.94	29369.04
586.10	30024.39
586.26	29766.93
586.42	30235.04
586.58	29685.01
586.74	29645.23
586.90	29694.38
587.06	29406.49
587.22	29682.67
587.38	29600.76
587.54	29942.47
587.70	29750.55
587.86	30066.52
588.02	29413.51
588.18	29806.72
588.34	30113.33
588.49	29535.22
588.65	30050.14
588.81	29851.19
588.97	29914.39
589.13	29453.30
589.29	29900.34
589.45	29563.31
589.61	29806.72
589.77	30139.08
589.93	29844.17
590.08	30354.41
590.24	30424.62
590.40	30284.19
590.56	30050.14
590.72	29855.87
590.88	29701.40
591.04	29717.78
591.20	29956.52
591.35	30333.34
591.51	30459.73
591.67	30164.82
591.83	30637.61
591.99	30167.16
