SpectraSuite Data File
++++++++++++++++++++++++++++++++++++
Date: Fri Oct 18 13:58:33 GMT-05:00 2013
User: bianchi
Dark Spectrum Present: No
Reference Spectrum Present: No
Number of Sampled Component Spectra: 1
Spectrometers: USB2+H05261
Integration Time (usec): 50000 (USB2+H05261)
Spectra Averaged: 1 (USB2+H05261)
Boxcar Smoothing: 0 (USB2+H05261)
Correct for Electrical Dark: No (USB2+H05261)
Strobe/Lamp Enabled: No (USB2+H05261)
Correct for Detector Non-linearity: No (USB2+H05261)
Correct for Stray Light: No (USB2+H05261)
Number of Pixels in Processed Spectrum: 2048
>>>>>Begin Processed Spectral Data<<<<<
365.73	0.00
365.92	0.00
366.12	0.00
366.32	0.00
366.52	0.00
366.72	0.00
366.91	0.00
367.11	0.00
367.31	0.00
367.51	0.00
367.70	0.00
367.90	0.00
368.10	0.00
368.30	0.00
368.49	0.00
368.69	0.00
368.89	0.00
369.09	0.00
369.28	0.00
369.48	0.00
369.68	0.00
369.87	0.00
370.07	0.00
370.27	0.00
370.47	0.00
370.66	7.02
370.86	95.96
371.06	180.22
371.25	133.41
371.45	163.84
371.65	105.32
371.84	107.66
372.04	112.35
372.24	184.90
372.44	220.01
372.63	231.71
372.83	238.73
373.03	191.92
373.22	187.24
373.42	161.50
373.62	156.82
373.81	170.86
374.01	269.16
374.21	283.20
374.40	245.76
374.60	236.39
374.79	264.48
374.99	238.73
375.19	234.05
375.38	280.86
375.58	308.95
375.78	187.24
375.97	175.54
376.17	325.33
376.37	212.99
376.56	250.44
376.76	262.14
376.95	322.99
377.15	241.08
377.35	248.10
377.54	262.14
377.74	229.37
377.93	283.20
378.13	365.12
378.33	252.78
378.52	287.89
378.72	264.48
378.91	306.61
379.11	234.05
379.31	301.93
379.50	278.52
379.70	234.05
379.89	355.76
380.09	234.05
380.28	273.84
380.48	212.99
380.68	313.63
380.87	271.50
381.07	365.12
381.26	346.40
381.46	315.97
381.65	283.20
381.85	245.76
382.04	360.44
382.24	351.08
382.43	362.78
382.63	285.55
382.83	360.44
383.02	351.08
383.22	372.15
383.41	264.48
383.61	332.36
383.80	334.70
384.00	362.78
384.19	444.70
384.39	369.80
384.58	346.40
384.78	365.12
384.97	381.51
385.17	390.87
385.36	414.27
385.56	362.78
385.75	355.76
385.95	484.49
386.14	383.85
386.34	433.00
386.53	449.38
386.72	425.98
386.92	425.98
387.11	404.91
387.31	444.70
387.50	404.91
387.70	465.77
387.89	456.40
388.09	379.17
388.28	428.32
388.48	526.62
388.67	425.98
388.86	421.30
389.06	416.62
389.25	465.77
389.45	418.96
389.64	514.92
389.84	505.56
390.03	496.19
390.22	423.64
390.42	444.70
390.61	456.40
390.81	468.11
391.00	566.41
391.19	526.62
391.39	482.15
391.58	447.04
391.78	428.32
391.97	484.49
392.16	465.77
392.36	650.67
392.55	538.32
392.75	594.50
392.94	503.22
393.13	594.50
393.33	552.37
393.52	533.64
393.71	566.41
393.91	603.86
394.10	648.33
394.29	615.56
394.49	575.77
394.68	550.03
394.88	512.58
395.07	538.32
395.26	587.47
395.46	613.22
395.65	528.96
395.84	650.67
396.04	629.60
396.23	564.07
396.42	617.90
396.62	641.31
396.81	702.16
397.00	704.50
397.19	594.50
397.39	650.67
397.58	744.29
397.77	624.92
397.97	702.16
398.16	636.63
398.35	695.14
398.55	725.57
398.74	636.63
398.93	755.99
399.12	753.65
399.32	741.95
399.51	624.92
399.70	711.52
399.90	763.01
400.09	746.63
400.28	763.01
400.47	760.67
400.67	678.76
400.86	674.07
401.05	765.36
401.24	734.93
401.44	847.27
401.63	774.72
401.82	837.91
402.01	765.36
402.21	730.25
402.40	877.70
402.59	828.55
402.78	887.06
402.97	786.42
403.17	807.48
403.36	868.34
403.55	835.57
403.74	833.23
403.93	898.77
404.13	903.45
404.32	917.49
404.51	905.79
404.70	924.51
404.89	973.66
405.09	950.26
405.28	903.45
405.47	926.85
405.66	1004.09
405.85	1013.45
406.05	961.96
406.24	976.00
406.43	1015.79
406.62	973.66
406.81	1142.18
407.00	884.72
407.20	994.73
407.39	1001.75
407.58	990.05
407.77	1142.18
407.96	1071.97
408.15	1043.88
408.34	1032.18
408.54	1083.67
408.73	1022.81
408.92	1125.80
409.11	1121.12
409.30	1193.67
409.49	1107.07
409.68	1074.31
409.87	1111.75
410.07	1156.22
410.26	1160.91
410.45	1088.35
410.64	1158.57
410.83	1228.78
411.02	1170.27
411.21	1259.21
411.40	1294.32
411.59	1245.16
411.78	1221.76
411.98	1214.74
412.17	1254.53
412.36	1254.53
412.55	1301.34
412.74	1350.49
412.93	1329.42
413.12	1336.45
413.31	1387.94
413.50	1366.87
413.69	1397.30
413.88	1378.58
414.07	1479.22
414.26	1467.52
414.45	1486.24
414.64	1476.88
414.83	1526.03
415.02	1465.18
415.22	1469.86
415.41	1577.52
415.60	1509.65
415.79	1556.46
415.98	1483.90
416.17	1511.99
416.36	1652.42
416.55	1682.85
416.74	1549.43
416.93	1570.50
417.12	1607.95
417.31	1703.91
417.50	1673.48
417.69	1673.48
417.88	1781.15
418.07	1706.25
418.26	1729.66
418.45	1636.03
418.64	1802.21
418.83	1736.68
419.02	1834.98
419.21	1769.44
419.39	1713.27
419.58	1844.34
419.77	1792.85
419.96	1844.34
420.15	1860.73
420.34	1799.87
420.53	1818.60
420.72	1888.81
420.91	1926.26
421.10	1909.88
421.29	1991.80
421.48	1856.04
421.67	1916.90
421.86	2015.20
422.05	1998.82
422.24	1921.58
422.43	1902.86
422.61	2024.56
422.80	1984.77
422.99	1980.09
423.18	1888.81
423.37	1914.56
423.56	1989.46
423.75	1970.73
423.94	1888.81
424.13	1886.47
424.32	1818.60
424.50	2017.54
424.69	2059.67
424.88	1980.09
425.07	2012.86
425.26	1921.58
425.45	2015.20
425.64	2047.97
425.83	2085.42
426.01	2146.27
426.20	2052.65
426.39	2036.27
426.58	1982.43
426.77	2115.84
426.96	2073.71
427.15	1987.11
427.33	2022.22
427.52	2033.93
427.71	2101.80
427.90	2204.78
428.09	2139.25
428.28	2097.12
428.46	2176.70
428.65	2167.34
428.84	2244.57
429.03	2246.91
429.22	2120.53
429.40	2246.91
429.59	2181.38
429.78	2090.10
429.97	2141.59
430.16	2282.02
430.34	2181.38
430.53	2342.88
430.72	2335.85
430.91	2310.11
431.10	2209.47
431.28	2385.01
431.47	2387.35
431.66	2420.11
431.85	2314.79
432.03	2420.11
432.22	2394.37
432.41	2448.20
432.60	2434.16
432.79	2377.98
432.97	2366.28
433.16	2483.31
433.35	2469.27
433.54	2565.23
433.72	2525.44
433.91	2576.93
434.10	2539.48
434.28	2558.21
434.47	2532.46
434.66	2551.18
434.85	2600.34
435.03	2490.33
435.22	2499.69
435.41	2607.36
435.59	2616.72
435.78	2621.40
435.97	2693.96
436.16	2787.58
436.34	2698.64
436.53	2712.68
436.72	2759.49
436.90	2576.93
437.09	2665.87
437.28	2691.62
437.46	2691.62
437.65	2715.02
437.84	2775.88
438.02	2803.96
438.21	2691.62
438.40	2740.77
438.58	2930.35
438.77	2818.00
438.96	2871.84
439.14	3038.02
439.33	2895.24
439.52	2956.10
439.70	3021.63
439.89	2937.37
440.08	3077.80
440.26	2897.58
440.45	3066.10
440.63	3077.80
440.82	3152.70
441.01	3021.63
441.19	3061.42
441.38	3229.94
441.57	3173.77
441.75	3141.00
441.94	3220.58
442.12	3218.24
442.31	3283.77
442.50	3262.71
442.68	3164.40
442.87	3384.41
443.05	3272.07
443.24	3283.77
443.43	3353.99
443.61	3339.94
443.80	3400.80
443.98	3253.34
444.17	3157.38
444.35	3372.71
444.54	3471.01
444.73	3396.12
444.91	3438.25
445.10	3466.33
445.28	3386.76
445.47	3290.79
445.65	3323.56
445.84	3375.05
446.02	3492.08
446.21	3405.48
446.39	3524.85
446.58	3592.72
446.77	3370.37
446.95	3449.95
447.14	3435.91
447.32	3543.57
447.51	3412.50
447.69	3461.65
447.88	3412.50
448.06	3562.30
448.25	3459.31
448.43	3332.92
448.62	3473.36
448.80	3559.95
448.99	3559.95
449.17	3492.08
449.36	3468.67
449.54	3597.40
449.73	3667.62
449.91	3765.92
450.10	3728.47
450.28	3761.24
450.46	3777.62
450.65	3559.95
450.83	3639.53
451.02	3763.58
451.20	3843.16
451.39	3770.60
451.57	3709.75
451.76	3777.62
451.94	3744.86
452.13	3871.25
452.31	3777.62
452.49	3929.76
452.68	3693.37
452.86	3873.59
453.05	3866.56
453.23	3796.35
453.42	3946.14
453.60	3882.95
453.78	3815.07
453.97	3786.99
454.15	3854.86
454.34	3878.27
454.52	3995.29
454.70	3927.42
454.89	3918.06
455.07	3988.27
455.26	3866.56
455.44	3983.59
455.62	4093.60
455.81	4032.74
455.99	4093.60
456.17	4016.36
456.36	4077.21
456.54	4203.60
456.73	4255.09
456.91	4334.67
457.09	4191.90
457.28	4273.82
457.46	4259.78
457.64	4262.12
457.83	4358.08
458.01	4212.96
458.19	4489.15
458.38	4374.46
458.56	4402.55
458.74	4325.31
458.93	4304.25
459.11	4397.87
459.29	4442.34
459.48	4376.80
459.66	4402.55
459.84	4575.75
460.03	4671.71
460.21	4444.68
460.39	4554.68
460.57	4432.97
460.76	4486.81
460.94	4578.09
461.12	4528.94
461.31	4582.77
461.49	4533.62
461.67	4620.22
461.85	4648.30
462.04	4655.33
462.22	4903.42
462.40	4645.96
462.59	4748.95
462.77	4699.80
462.95	4802.78
463.13	4704.48
463.32	4683.41
463.50	4823.84
463.68	4613.20
463.86	4781.71
464.05	4739.58
464.23	4748.95
464.41	4908.10
464.59	4730.22
464.78	5041.51
464.96	4954.91
465.14	4882.36
465.32	4954.91
465.50	5029.81
465.69	5006.41
465.87	4975.98
466.05	4795.76
466.23	4929.17
466.41	5156.20
466.60	5102.37
466.78	5165.56
466.96	4868.31
467.14	4903.42
467.32	5055.56
467.51	5179.61
467.69	4873.00
467.87	4978.32
468.05	5004.07
468.23	5004.07
468.41	5102.37
468.60	5214.71
468.78	5195.99
468.96	5144.50
469.14	5289.61
469.32	5231.10
469.50	5093.01
469.69	5284.93
469.87	5390.25
470.05	5394.93
470.23	5432.38
470.41	5371.53
470.59	5387.91
470.77	5504.94
470.95	5399.62
471.14	5551.75
471.32	5495.58
471.50	5460.47
471.68	5425.36
471.86	5481.53
472.04	5598.56
472.22	5591.54
472.40	5710.91
472.58	5760.06
472.77	5753.04
472.95	5834.96
473.13	5727.29
473.31	5792.83
473.49	5673.46
473.67	5689.84
473.85	5790.49
474.03	6066.67
474.21	6162.63
474.39	6064.33
474.57	5991.77
474.75	6076.03
474.93	6179.01
475.12	6108.80
475.30	6179.01
475.48	6069.01
475.66	6216.46
475.84	6148.59
476.02	6242.21
476.20	6122.84
476.38	6375.62
476.56	6476.26
476.74	6459.88
476.92	6413.07
477.10	6511.37
477.28	6682.23
477.46	6523.07
477.64	6544.14
477.82	6855.43
478.00	6881.18
478.18	6848.41
478.36	6789.89
478.54	6825.00
478.72	6825.00
478.90	7084.80
479.08	7145.66
479.26	7232.26
479.44	7183.10
479.62	7274.38
479.80	7332.90
479.98	7356.30
480.16	7522.48
480.34	7323.54
480.52	7466.31
480.70	7602.06
480.88	7571.63
481.06	7618.44
481.24	7564.61
481.41	7674.62
481.59	7908.67
481.77	8042.08
481.95	7976.55
482.13	8154.43
482.31	8084.21
482.49	8201.24
482.67	8177.83
482.85	8163.79
483.03	8554.66
483.21	8547.64
483.39	8622.53
483.57	8374.44
483.74	8713.81
483.92	8760.63
484.10	8667.00
484.28	8706.79
484.46	8905.74
484.64	9011.06
484.82	8901.06
485.00	8901.06
485.18	9174.90
485.35	9310.65
485.53	9170.22
485.71	9219.37
485.89	9458.10
486.07	9362.14
486.25	9603.22
486.43	9710.88
486.61	9558.75
486.78	9877.06
486.96	9888.76
487.14	9942.60
487.32	10040.90
487.50	10183.67
487.68	10071.33
487.85	10281.97
488.03	10335.81
488.21	10401.34
488.39	10314.74
488.57	10429.43
488.75	10670.50
488.92	10740.72
489.10	10813.28
489.28	11103.50
489.46	11201.80
489.64	10927.96
489.81	11349.26
489.99	11152.65
490.17	11023.92
490.35	11295.43
490.53	11571.61
490.70	11744.81
490.88	11576.29
491.06	11833.75
491.24	11403.09
491.41	11637.14
491.59	11910.99
491.77	11889.92
491.95	12100.57
492.13	12084.19
492.30	12299.52
492.48	12248.02
492.66	12184.83
492.84	12301.86
493.01	12353.35
493.19	12486.76
493.37	12503.14
493.54	12479.74
493.72	12809.75
493.90	12746.56
494.08	12847.20
494.25	13195.94
494.43	12802.73
494.61	13338.71
494.79	13247.43
494.96	13252.11
495.14	13123.38
495.32	13415.95
495.49	13397.23
495.67	13319.99
495.85	13757.67
496.02	13841.93
496.20	13642.98
496.38	13710.86
496.55	13748.31
496.73	14061.94
496.91	14134.50
497.09	14160.24
497.26	14251.52
497.44	14321.74
497.62	14211.73
497.79	14387.27
497.97	14560.47
498.14	14579.20
498.32	14843.68
498.50	14752.40
498.67	15061.35
498.85	14890.49
499.03	14764.10
499.20	14736.01
499.38	15033.26
499.56	15026.24
499.73	15187.74
499.91	15267.31
500.08	15587.97
500.26	14862.40
500.44	15534.14
500.61	15152.63
500.79	15480.30
500.97	15370.30
501.14	15700.31
501.32	15527.11
501.49	15775.21
501.67	15569.24
501.84	15896.92
502.02	15609.03
502.20	15910.96
502.37	16027.99
502.55	15756.49
502.72	16077.14
502.90	15964.79
503.07	15793.94
503.25	16156.72
503.43	16067.78
503.60	16350.98
503.78	16393.11
503.95	16355.66
504.13	16503.12
504.30	16526.52
504.48	16458.65
504.65	16358.00
504.83	16423.54
505.01	17018.04
505.18	16610.78
505.36	16601.42
505.53	16760.58
505.71	16706.74
505.88	16891.65
506.06	16861.22
506.23	16889.31
506.41	16954.84
506.58	17289.54
506.76	17160.81
506.93	17404.22
507.11	17130.38
507.28	17226.34
507.46	17413.59
507.63	17432.31
507.81	17518.91
507.98	17872.33
508.16	17558.70
508.33	17710.83
508.50	17715.51
508.68	17902.76
508.85	18073.62
509.03	18040.85
509.20	17984.68
509.38	18164.90
509.55	18338.10
509.73	18415.34
509.90	17893.40
510.08	18080.64
510.25	18078.30
510.42	18218.73
510.60	18356.82
510.77	18796.84
510.95	18506.62
511.12	18813.23
511.30	18420.02
511.47	18382.57
511.64	18831.95
511.82	18941.96
511.99	18834.29
512.17	19087.07
512.34	18824.93
512.51	18974.72
512.69	19185.37
512.86	18672.79
513.04	19225.16
513.21	19349.21
513.38	19580.92
513.56	19403.04
513.73	19627.73
513.90	19262.61
514.08	19473.26
514.25	19674.54
514.43	19545.81
514.60	19513.05
514.77	19625.39
514.95	19964.77
515.12	19971.79
515.29	19609.01
515.47	19915.62
515.64	20056.05
515.81	20074.77
515.99	20130.95
516.16	20299.47
516.33	19953.07
516.51	20212.87
516.68	20152.01
516.85	20341.60
517.03	20180.10
517.20	20166.06
517.37	20409.47
517.54	20783.96
517.72	20332.23
517.89	20388.41
518.06	20510.11
518.24	20631.82
518.41	20329.89
518.58	20622.46
518.75	20741.83
518.93	20744.17
519.10	20563.95
519.27	20765.23
519.45	20776.94
519.62	20919.71
519.79	21156.10
519.96	20812.04
520.14	21226.32
520.31	20835.45
520.48	21172.49
520.65	21333.98
520.83	21301.22
521.00	21085.89
521.17	21109.29
521.34	21326.96
521.52	21355.05
521.69	21266.11
521.86	21652.30
522.03	21584.42
522.20	21591.44
522.38	21556.33
522.55	21626.55
522.72	21490.80
522.89	21664.00
523.07	21703.79
523.24	21607.83
523.41	21841.88
523.58	21891.03
523.75	21851.24
523.92	21525.91
524.10	21951.88
524.27	22230.41
524.44	22057.21
524.61	22288.92
524.78	22108.70
524.96	22153.17
525.13	22321.69
525.30	22530.00
525.47	22207.00
525.64	22417.65
525.81	22314.67
525.98	22728.94
526.16	22822.56
526.33	22553.40
526.50	22504.25
526.67	22796.82
526.84	22473.82
527.01	22642.34
527.18	22705.54
527.36	22843.63
527.53	23005.13
527.70	23089.38
527.87	23274.29
528.04	22932.57
528.21	23173.64
528.38	23084.70
528.55	23330.46
528.72	23197.05
528.89	23311.74
529.07	22941.93
529.24	23058.96
529.41	23433.44
529.58	23346.84
529.75	23243.86
529.92	23480.25
530.09	23431.10
530.26	23323.44
530.43	23023.85
530.60	23309.40
530.77	23543.45
530.94	23543.45
531.11	23428.76
531.28	23566.85
531.46	23527.06
531.63	23367.91
531.80	23728.35
531.97	23604.30
532.14	23784.52
532.31	23623.03
532.48	24070.07
532.65	23908.57
532.82	23826.65
532.99	23679.20
533.16	23817.29
533.33	24425.83
533.50	24299.44
533.67	24226.89
533.84	24269.01
534.01	24446.90
534.18	23784.52
534.35	24137.94
534.52	24292.42
534.69	24416.47
534.86	24545.20
535.03	24444.56
535.20	24395.40
535.37	24748.82
535.54	24650.52
535.71	24133.26
535.88	24732.44
536.05	24781.59
536.22	24709.04
536.38	24910.32
536.55	24732.44
536.72	24940.75
536.89	24545.20
537.06	24793.29
537.23	24837.76
537.40	24680.95
537.57	24854.15
537.74	25017.99
537.91	25174.80
538.08	25207.57
538.25	25060.12
538.42	25118.63
538.59	24929.05
538.75	25036.71
538.92	25193.53
539.09	25233.32
539.26	25497.80
539.43	25247.36
539.60	25212.25
539.77	25048.41
539.94	25308.21
540.11	25418.22
540.28	25188.85
540.44	25439.28
540.61	25324.60
540.78	25516.52
540.95	25097.56
541.12	25413.54
541.29	25228.63
541.46	25481.41
541.62	25537.59
541.79	25689.72
541.96	25748.23
542.13	25392.47
542.30	25750.57
542.47	25872.28
542.63	25380.77
542.80	25972.92
542.97	26122.72
543.14	26183.57
543.31	25631.21
543.48	26228.04
543.64	26129.74
543.81	26534.65
543.98	26052.50
544.15	26045.48
544.32	26396.56
544.48	26492.52
544.65	26352.09
544.82	26089.95
544.99	25844.20
545.16	26288.90
545.32	26288.90
545.49	26745.30
545.66	26569.76
545.83	26590.83
546.00	26682.11
546.16	26235.06
546.33	26522.95
546.50	26661.04
546.67	26487.84
546.83	26436.35
547.00	26443.37
547.17	26370.82
547.34	26724.24
547.50	26742.96
547.67	26979.36
547.84	26904.46
548.00	26637.64
548.17	27164.26
548.34	27206.39
548.51	26995.74
548.67	27234.47
548.84	27072.98
549.01	27154.90
549.18	26991.06
549.34	27145.53
549.51	27229.79
549.68	27290.65
549.84	26852.97
550.01	27255.54
550.18	26902.12
550.34	27365.54
550.51	27442.78
550.68	27391.29
550.84	26878.71
551.01	27084.68
551.18	26817.86
551.34	26820.20
551.51	27442.78
551.68	27454.48
551.84	27161.92
552.01	27608.96
552.18	27791.52
552.34	27454.48
552.51	27529.38
552.68	27136.17
552.84	27665.13
553.01	27363.20
553.18	27393.63
553.34	27821.95
553.51	27648.75
553.67	27838.33
553.84	27992.81
554.01	27426.40
554.17	27704.92
554.34	27491.93
554.51	27831.31
554.67	27943.66
554.84	27728.33
555.00	27585.55
555.17	27896.85
555.33	27501.29
555.50	27618.32
555.67	27983.44
555.83	27639.39
556.00	27868.76
556.16	28247.93
556.33	28018.55
556.50	27711.94
556.66	27988.13
556.83	27941.32
556.99	28507.72
557.16	27936.63
557.32	28493.68
557.49	28182.39
557.65	28081.75
557.82	28137.92
557.98	28161.33
558.15	28273.67
558.32	28533.47
558.48	28432.83
558.65	28041.96
558.81	28290.06
558.98	28638.80
559.14	28617.73
559.31	27892.16
559.47	28020.89
559.64	28524.11
559.80	28301.76
559.97	28535.81
560.13	27861.74
560.30	28254.95
560.46	28507.72
560.63	28528.79
560.79	28521.77
560.96	28943.06
561.12	28687.95
561.29	28390.70
561.45	28643.48
561.61	28512.41
561.78	28961.79
561.94	28533.47
562.11	29062.43
562.27	28622.41
562.44	28779.23
562.60	28936.04
562.77	28395.38
562.93	28563.90
563.10	28470.28
563.26	28533.47
563.42	29198.18
563.59	28762.84
563.75	28840.08
563.92	28957.11
564.08	28835.40
564.24	28943.06
564.41	28973.49
564.57	28814.34
564.74	28760.50
564.90	28486.66
565.07	29113.92
565.23	28584.96
565.39	28816.68
565.56	28933.70
565.72	28594.32
565.88	28699.65
566.05	28690.29
566.21	29010.94
566.38	28891.57
566.54	28716.03
566.70	28907.96
566.87	29139.67
567.03	29219.25
567.19	29172.44
567.36	29205.20
567.52	28929.02
567.68	29064.77
567.85	29355.00
568.01	29277.76
568.17	29034.35
568.34	28982.85
568.50	29001.58
568.66	29048.39
568.83	29436.92
568.99	29450.96
569.15	28992.22
569.32	29062.43
569.48	28898.59
569.64	29221.59
569.81	29022.64
569.97	28980.51
570.13	29310.53
570.30	29226.27
570.46	29336.27
570.62	29469.69
570.78	28936.04
570.95	29172.44
571.11	29113.92
571.27	28952.43
571.43	28912.64
571.60	28938.38
571.76	29181.80
571.92	29476.71
572.09	29233.29
572.25	29500.11
572.41	29186.48
572.57	29244.99
572.74	29404.15
572.90	29076.48
573.06	29284.78
573.22	29287.12
573.38	29570.33
573.55	29125.63
573.71	29483.73
573.87	29118.60
574.03	29635.86
574.20	28975.83
574.36	29490.75
574.52	29408.83
574.68	29137.33
574.84	29422.87
575.01	29340.96
575.17	29523.52
575.33	29261.38
575.49	29420.53
575.65	29436.92
575.82	29303.51
575.98	29535.22
576.14	29200.52
576.30	29156.05
576.46	29364.36
576.62	29350.32
576.79	29317.55
576.95	29486.07
577.11	29621.82
577.27	29516.50
577.43	29123.29
577.59	29479.05
577.75	29560.97
577.92	29315.21
578.08	29385.43
578.24	29216.91
578.40	29460.32
578.56	29139.67
578.72	29596.07
578.88	29867.58
579.04	29500.11
579.21	29439.26
579.37	29408.83
579.53	29556.28
579.69	29441.60
579.85	29542.24
580.01	29596.07
580.17	29092.86
580.33	29483.73
580.49	29411.17
580.65	29469.69
580.82	29750.55
580.98	29710.76
581.14	29743.53
581.30	29670.97
581.46	29851.19
581.62	29652.25
581.78	29237.97
581.94	29818.42
582.10	29441.60
582.26	29855.87
582.42	29788.00
582.58	29453.30
582.74	29350.32
582.90	29476.71
583.06	29495.43
583.22	29462.66
583.38	29462.66
583.54	29584.37
583.70	29448.62
583.86	29603.10
584.02	29654.59
584.18	29666.29
584.34	29853.53
584.50	29748.21
584.66	29385.43
584.82	29303.51
584.98	29680.33
585.14	29659.27
585.30	29266.06
585.46	29336.27
585.62	29542.24
585.78	29706.08
585.94	29420.53
586.10	29507.13
586.26	29998.65
586.42	29802.04
586.58	29975.24
586.74	29818.42
586.90	29305.85
587.06	29394.79
587.22	29457.98
587.38	29261.38
587.54	29748.21
587.70	30309.94
587.86	29689.70
588.02	29773.95
588.18	30115.67
588.34	29736.51
588.49	29961.20
588.65	29425.22
588.81	29600.76
588.97	29633.52
589.13	30052.48
589.29	29612.46
589.45	29804.38
589.61	29989.28
589.77	30132.06
589.93	30050.14
590.08	30022.05
590.24	29970.56
590.40	29773.95
590.56	30057.16
590.72	29537.56
590.88	29900.34
591.04	29827.79
591.20	30043.12
591.35	30106.31
591.51	30319.30
591.67	30064.18
591.83	30036.09
591.99	30078.22
