SpectraSuite Data File
++++++++++++++++++++++++++++++++++++
Date: Fri Oct 18 13:58:34 GMT-05:00 2013
User: bianchi
Dark Spectrum Present: No
Reference Spectrum Present: No
Number of Sampled Component Spectra: 1
Spectrometers: USB2+H05261
Integration Time (usec): 50000 (USB2+H05261)
Spectra Averaged: 1 (USB2+H05261)
Boxcar Smoothing: 0 (USB2+H05261)
Correct for Electrical Dark: No (USB2+H05261)
Strobe/Lamp Enabled: No (USB2+H05261)
Correct for Detector Non-linearity: No (USB2+H05261)
Correct for Stray Light: No (USB2+H05261)
Number of Pixels in Processed Spectrum: 2048
>>>>>Begin Processed Spectral Data<<<<<
365.73	0.00
365.92	0.00
366.12	0.00
366.32	0.00
366.52	0.00
366.72	0.00
366.91	0.00
367.11	0.00
367.31	0.00
367.51	0.00
367.70	0.00
367.90	0.00
368.10	0.00
368.30	0.00
368.49	0.00
368.69	0.00
368.89	0.00
369.09	0.00
369.28	0.00
369.48	0.00
369.68	0.00
369.87	0.00
370.07	0.00
370.27	0.00
370.47	0.00
370.66	39.79
370.86	77.24
371.06	128.73
371.25	191.92
371.45	93.62
371.65	159.16
371.84	175.54
372.04	222.35
372.24	70.22
372.44	198.95
372.63	175.54
372.83	231.71
373.03	191.92
373.22	184.90
373.42	189.58
373.62	177.88
373.81	229.37
374.01	229.37
374.21	250.44
374.40	252.78
374.60	245.76
374.79	191.92
374.99	224.69
375.19	269.16
375.38	231.71
375.58	264.48
375.78	245.76
375.97	238.73
376.17	276.18
376.37	234.05
376.56	227.03
376.76	194.26
376.95	276.18
377.15	175.54
377.35	259.80
377.54	325.33
377.74	301.93
377.93	306.61
378.13	273.84
378.33	287.89
378.52	287.89
378.72	294.91
378.91	278.52
379.11	259.80
379.31	196.60
379.50	297.25
379.70	297.25
379.89	283.20
380.09	283.20
380.28	306.61
380.48	348.74
380.68	294.91
380.87	280.86
381.07	367.46
381.26	315.97
381.46	283.20
381.65	283.20
381.85	400.23
382.04	290.23
382.24	337.04
382.43	379.17
382.63	330.02
382.83	311.29
383.02	367.46
383.22	407.25
383.41	372.15
383.61	362.78
383.80	409.59
384.00	395.55
384.19	304.27
384.39	395.55
384.58	369.80
384.78	341.72
384.97	414.27
385.17	341.72
385.36	334.70
385.56	430.66
385.75	388.53
385.95	383.85
386.14	367.46
386.34	397.89
386.53	437.68
386.72	414.27
386.92	379.17
387.11	407.25
387.31	444.70
387.50	430.66
387.70	468.11
387.89	411.93
388.09	344.06
388.28	514.92
388.48	447.04
388.67	496.19
388.86	449.38
389.06	456.40
389.25	365.12
389.45	444.70
389.64	440.02
389.84	543.00
390.03	489.17
390.22	477.47
390.42	486.83
390.61	561.73
390.81	418.96
391.00	376.83
391.19	566.41
391.39	456.40
391.58	454.06
391.78	493.85
391.97	475.13
392.16	505.56
392.36	510.24
392.55	519.60
392.75	519.60
392.94	552.37
393.13	547.69
393.33	498.53
393.52	566.41
393.71	613.22
393.91	643.65
394.10	528.96
394.29	510.24
394.49	496.19
394.68	573.43
394.88	667.05
395.07	608.54
395.26	594.50
395.46	589.82
395.65	610.88
395.84	580.45
396.04	655.35
396.23	557.05
396.42	615.56
396.62	641.31
396.81	660.03
397.00	606.20
397.19	624.92
397.39	702.16
397.58	653.01
397.77	669.39
397.97	720.88
398.16	592.16
398.35	739.61
398.55	653.01
398.74	720.88
398.93	657.69
399.12	706.84
399.32	685.78
399.51	765.36
399.70	725.57
399.90	699.82
400.09	685.78
400.28	699.82
400.47	688.12
400.67	819.19
400.86	795.78
401.05	774.72
401.24	791.10
401.44	784.08
401.63	837.91
401.82	805.14
402.01	744.29
402.21	760.67
402.40	861.32
402.59	844.93
402.78	767.70
402.97	880.04
403.17	793.44
403.36	828.55
403.55	940.90
403.74	866.00
403.93	877.70
404.13	966.64
404.32	844.93
404.51	889.40
404.70	903.45
404.89	887.06
405.09	985.37
405.28	833.23
405.47	929.19
405.66	1032.18
405.85	959.62
406.05	922.17
406.24	945.58
406.43	964.30
406.62	1022.81
406.81	1121.12
407.00	1069.62
407.20	957.28
407.39	959.62
407.58	1034.52
407.77	1184.31
407.96	1107.07
408.15	1086.01
408.34	1093.03
408.54	1015.79
408.73	1088.35
408.92	1076.65
409.11	1149.20
409.30	1146.86
409.49	1153.88
409.68	1170.27
409.87	1121.12
410.07	1191.33
410.26	1116.44
410.45	1212.40
410.64	1146.86
410.83	1153.88
411.02	1174.95
411.21	1207.72
411.40	1156.22
411.59	1219.42
411.78	1212.40
411.98	1263.89
412.17	1287.29
412.36	1226.44
412.55	1366.87
412.74	1324.74
412.93	1228.78
413.12	1348.15
413.31	1399.64
413.50	1327.08
413.69	1390.28
413.88	1394.96
414.07	1296.66
414.26	1423.05
414.45	1556.46
414.64	1488.58
414.83	1488.58
415.02	1519.01
415.22	1565.82
415.41	1481.56
415.60	1526.03
415.79	1549.43
415.98	1554.12
416.17	1575.18
416.36	1694.55
416.55	1664.12
416.74	1643.06
416.93	1638.38
417.12	1757.74
417.31	1624.33
417.50	1746.04
417.69	1689.87
417.88	1722.63
418.07	1710.93
418.26	1774.13
418.45	1729.66
418.64	1802.21
418.83	1739.02
419.02	1891.15
419.21	1783.49
419.39	1797.53
419.58	1781.15
419.77	1874.77
419.96	1802.21
420.15	1823.28
420.34	1863.07
420.53	1837.32
420.72	1942.64
420.91	2052.65
421.10	1944.99
421.29	2024.56
421.48	1933.28
421.67	1907.54
421.86	1830.30
422.05	2050.31
422.24	1956.69
422.43	1902.86
422.61	1975.41
422.80	2085.42
422.99	2019.88
423.18	1984.77
423.37	2083.08
423.56	2069.03
423.75	1928.60
423.94	1998.82
424.13	1842.00
424.32	1809.23
424.50	2059.67
424.69	2153.29
424.88	2078.40
425.07	1994.14
425.26	2036.27
425.45	2036.27
425.64	2012.86
425.83	2125.21
426.01	2197.76
426.20	1991.80
426.39	2115.84
426.58	2026.90
426.77	2031.58
426.96	2029.24
427.15	2113.50
427.33	2083.08
427.52	2047.97
427.71	2160.31
427.90	2157.97
428.09	2214.15
428.28	2223.51
428.46	2129.89
428.65	2136.91
428.84	2232.87
429.03	2258.62
429.22	2157.97
429.40	2197.76
429.59	2228.19
429.78	2141.59
429.97	2143.93
430.16	2202.44
430.34	2216.49
430.53	2375.64
430.72	2434.16
430.91	2373.30
431.10	2265.64
431.28	2368.62
431.47	2399.05
431.66	2368.62
431.85	2303.09
432.03	2326.49
432.22	2450.54
432.41	2382.67
432.60	2359.26
432.79	2387.35
432.97	2462.24
433.16	2413.09
433.35	2450.54
433.54	2502.03
433.72	2427.14
433.91	2450.54
434.10	2349.90
434.28	2413.09
434.47	2506.71
434.66	2476.29
434.85	2424.80
435.03	2553.52
435.22	2640.12
435.41	2642.46
435.59	2609.70
435.78	2700.98
435.97	2605.02
436.16	2647.15
436.34	2672.89
436.53	2724.38
436.72	2644.81
436.90	2621.40
437.09	2726.72
437.28	2682.25
437.46	2682.25
437.65	2698.64
437.84	2799.28
438.02	2672.89
438.21	2668.21
438.40	2754.81
438.58	2773.53
438.77	2827.37
438.96	2906.95
439.14	2850.77
439.33	3005.25
439.52	3009.93
439.70	3098.87
439.89	2918.65
440.08	3005.25
440.26	3061.42
440.45	2977.16
440.63	3035.67
440.82	3059.08
441.01	3056.74
441.19	3176.11
441.38	3173.77
441.57	3220.58
441.75	3288.45
441.94	3304.84
442.12	3105.89
442.31	3218.24
442.50	3309.52
442.68	3176.11
442.87	3290.79
443.05	3185.47
443.24	3452.29
443.43	3351.65
443.61	3290.79
443.80	3471.01
443.98	3297.81
444.17	3204.19
444.35	3419.52
444.54	3428.88
444.73	3377.39
444.91	3375.05
445.10	3321.22
445.28	3508.46
445.47	3485.06
445.65	3471.01
445.84	3543.57
446.02	3515.48
446.21	3403.14
446.39	3449.95
446.58	3405.48
446.77	3531.87
446.95	3309.52
447.14	3424.20
447.32	3506.12
447.51	3386.76
447.69	3485.06
447.88	3468.67
448.06	3569.32
448.25	3431.23
448.43	3559.95
448.62	3604.42
448.80	3480.38
448.99	3637.19
449.17	3485.06
449.36	3592.72
449.54	3637.19
449.73	3665.28
449.91	3674.64
450.10	3674.64
450.28	3672.30
450.46	3733.15
450.65	3688.68
450.83	3644.21
451.02	3716.77
451.20	3772.94
451.39	3751.88
451.57	3686.34
451.76	3730.81
451.94	3922.74
452.13	3899.33
452.31	3906.35
452.49	3728.47
452.68	3751.88
452.86	3847.84
453.05	3887.63
453.23	3894.65
453.42	3742.52
453.60	3721.45
453.78	3819.75
453.97	3873.59
454.15	3791.67
454.34	3847.84
454.52	3922.74
454.70	3955.51
454.89	3999.98
455.07	3927.42
455.26	4014.02
455.44	3997.64
455.62	4105.30
455.81	4119.34
455.99	4173.18
456.17	4131.05
456.36	4100.62
456.54	4074.87
456.73	4278.50
456.91	4348.72
457.09	4292.54
457.28	4386.16
457.46	4325.31
457.64	4320.63
457.83	4374.46
458.01	4315.95
458.19	4315.95
458.38	4315.95
458.56	4425.95
458.74	4386.16
458.93	4573.41
459.11	4334.67
459.29	4472.76
459.48	4360.42
459.66	4344.03
459.84	4435.32
460.03	4608.51
460.21	4428.29
460.39	4585.11
460.57	4416.59
460.76	4620.22
460.94	4706.82
461.12	4688.09
461.31	4617.88
461.49	4533.62
461.67	4610.86
461.85	4622.56
462.04	4674.05
462.22	4777.03
462.40	4655.33
462.59	4617.88
462.77	4849.59
462.95	4915.12
463.13	4739.58
463.32	4837.89
463.50	4744.27
463.68	4582.77
463.86	4868.31
464.05	4854.27
464.23	4622.56
464.41	4868.31
464.59	4744.27
464.78	4868.31
464.96	4819.16
465.14	4938.53
465.32	4748.95
465.50	4992.36
465.69	4924.49
465.87	4884.70
466.05	4940.87
466.23	5011.09
466.41	5032.15
466.60	5130.45
466.78	4968.96
466.96	5210.03
467.14	4999.38
467.32	4999.38
467.51	5163.22
467.69	5048.54
467.87	5207.69
468.05	5121.09
468.23	5121.09
468.41	5210.03
468.60	5217.05
468.78	5188.97
468.96	5179.61
469.14	5167.90
469.32	5373.87
469.50	5207.69
469.69	5242.80
469.87	5352.81
470.05	5476.85
470.23	5289.61
470.41	5383.23
470.59	5430.04
470.77	5401.96
470.95	5357.49
471.14	5401.96
471.32	5387.91
471.50	5448.77
471.68	5577.50
471.86	5654.73
472.04	5605.58
472.22	5717.93
472.40	5605.58
472.58	5804.53
472.77	5771.76
472.95	5741.33
473.13	6017.52
473.31	5645.37
473.49	5825.59
473.67	5755.38
473.85	6054.97
474.03	5893.47
474.21	5837.30
474.39	6073.69
474.57	6024.54
474.75	6129.86
474.93	6174.33
475.12	5891.13
475.30	6211.78
475.48	6179.01
475.66	6139.23
475.84	6160.29
476.02	6218.80
476.20	6246.89
476.38	6340.51
476.56	6607.33
476.74	6431.79
476.92	6523.07
477.10	6490.31
477.28	6548.82
477.46	6640.10
477.64	6672.87
477.82	6726.70
478.00	6899.90
478.18	7063.74
478.36	6848.41
478.54	7087.14
478.72	7192.47
478.90	7091.82
479.08	7173.74
479.26	7169.06
479.44	7396.09
479.62	7375.03
479.80	7346.94
479.98	7293.11
480.16	7297.79
480.34	7335.24
480.52	7632.49
480.70	7644.19
480.88	7536.52
481.06	7805.69
481.24	7496.74
481.41	7770.58
481.59	8006.97
481.77	7843.14
481.95	7913.35
482.13	7922.71
482.31	8077.19
482.49	8152.09
482.67	8201.24
482.85	8372.10
483.03	8088.89
483.21	8587.43
483.39	8491.46
483.57	8489.12
483.74	8620.19
483.92	8702.11
484.10	8781.69
484.28	8872.97
484.46	9088.30
484.64	9048.51
484.82	9090.64
485.00	8994.68
485.18	9193.62
485.35	9280.22
485.53	9317.67
485.71	9336.40
485.89	9430.02
486.07	9434.70
486.25	9415.98
486.43	9678.12
486.61	9502.58
486.78	9760.03
486.96	9635.99
487.14	10043.24
487.32	10061.96
487.50	9928.55
487.68	10115.80
487.85	10272.61
488.03	10263.25
488.21	10422.41
488.39	10471.56
488.57	10651.78
488.75	10499.64
488.92	10614.33
489.10	10766.46
489.28	10516.03
489.46	10836.68
489.64	10888.17
489.81	11094.14
489.99	11225.21
490.17	11290.74
490.35	11356.28
490.53	11515.44
490.70	11485.01
490.88	11463.94
491.06	11817.36
491.24	11543.52
491.41	11751.83
491.59	11796.30
491.77	11896.94
491.95	12184.83
492.13	12105.25
492.30	12182.49
492.48	12067.80
492.66	12056.10
492.84	12198.87
493.01	12430.59
493.19	12648.26
493.37	12622.51
493.54	12603.78
493.72	12676.34
493.90	12631.87
494.08	12779.32
494.25	12896.35
494.43	13209.98
494.61	13242.75
494.79	12999.34
494.96	13212.32
495.14	13411.27
495.32	13607.87
495.49	13444.04
495.67	13713.20
495.85	13792.78
496.02	13757.67
496.20	13870.01
496.38	13722.56
496.55	13928.53
496.73	14092.37
496.91	13891.08
497.09	14015.13
497.26	14094.71
497.44	14244.50
497.62	14122.79
497.79	14537.07
497.97	14338.12
498.14	14569.83
498.32	14504.30
498.50	14665.80
498.67	14710.27
498.85	14839.00
499.03	14995.81
499.20	14836.66
499.38	15016.88
499.56	15007.52
499.73	15267.31
499.91	15253.27
500.08	15414.77
500.26	14998.15
500.44	15164.33
500.61	15103.48
500.79	15185.40
500.97	15538.82
501.14	15857.13
501.32	15686.27
501.49	15833.72
501.67	15672.23
501.84	15831.38
502.02	15859.47
502.20	15763.51
502.37	16093.52
502.55	16231.62
502.72	15775.21
502.90	15974.16
503.07	16067.78
503.25	16203.53
503.43	16093.52
503.60	16341.62
503.78	16210.55
503.95	16416.52
504.13	16671.64
504.30	16453.97
504.48	16594.40
504.65	16791.00
504.83	16975.91
505.01	16936.12
505.18	16662.27
505.36	17095.27
505.53	16496.10
505.71	16830.79
505.88	17099.95
506.06	16840.15
506.23	16975.91
506.41	16898.67
506.58	17362.09
506.76	17481.46
506.93	17212.30
507.11	17121.02
507.28	17413.59
507.46	17453.37
507.63	17432.31
507.81	17774.03
507.98	17940.21
508.16	17579.76
508.33	17558.70
508.50	17680.41
508.68	17865.31
508.85	17928.50
509.03	17869.99
509.20	18270.22
509.38	18090.00
509.55	18136.81
509.73	18132.13
509.90	18221.07
510.08	18120.43
510.25	18118.09
510.42	18565.13
510.60	18302.99
510.77	18721.95
510.95	18860.04
511.12	18633.00
511.30	18398.95
511.47	19091.75
511.64	18768.76
511.82	18888.12
511.99	18824.93
512.17	18920.89
512.34	18843.65
512.51	19171.33
512.69	18525.34
512.86	18714.92
513.04	19185.37
513.21	18972.38
513.38	19180.69
513.56	19503.68
513.73	19087.07
513.90	19389.00
514.08	19028.56
514.25	19641.78
514.43	19496.66
514.60	19564.54
514.77	19611.35
514.95	19630.07
515.12	19681.56
515.29	19700.29
515.47	19854.76
515.64	20002.22
515.81	19913.28
515.99	20084.14
516.16	20152.01
516.33	20226.91
516.51	20262.02
516.68	20102.86
516.85	20163.72
517.03	20142.65
517.20	20381.38
517.37	20521.82
517.54	20350.96
517.72	20130.95
517.89	20456.28
518.06	20430.54
518.24	20374.36
518.41	20482.03
518.58	20596.71
518.75	20556.93
518.93	20531.18
519.10	20950.14
519.27	20893.96
519.45	20924.39
519.62	20713.74
519.79	20753.53
519.96	20847.15
520.14	20933.75
520.31	21111.63
520.48	21165.46
520.65	21273.13
520.83	21378.45
521.00	21181.85
521.17	21172.49
521.34	21443.99
521.52	21434.63
521.69	21523.57
521.86	21586.76
522.03	21612.51
522.20	21701.45
522.38	21696.77
522.55	21472.07
522.72	21521.23
522.89	21673.36
523.07	22052.53
523.24	21916.78
523.41	21937.84
523.58	22005.72
523.75	21792.73
523.92	22038.48
524.10	21802.09
524.27	22408.29
524.44	22085.30
524.61	22361.48
524.78	22274.88
524.96	22251.47
525.13	22272.54
525.30	22412.97
525.47	22218.71
525.64	22218.71
525.81	22513.61
525.98	22569.79
526.16	22391.91
526.33	22712.56
526.50	22728.94
526.67	22698.52
526.84	22614.26
527.01	22714.90
527.18	22834.27
527.36	22904.48
527.53	22923.21
527.70	23178.33
527.87	22934.91
528.04	22899.80
528.21	23014.49
528.38	23009.81
528.55	23328.12
528.72	23047.26
528.89	23009.81
529.07	23143.22
529.24	23625.37
529.41	23534.09
529.58	23365.57
529.75	23126.83
529.92	23070.66
530.09	23594.94
530.26	23288.33
530.43	23613.66
530.60	23452.17
530.77	23683.88
530.94	23789.20
531.11	23557.49
531.28	23473.23
531.46	23571.54
531.63	24006.87
531.80	23812.61
531.97	23606.64
532.14	23775.16
532.31	23878.15
532.48	23735.37
532.65	24126.24
532.82	23765.80
532.99	23929.64
533.16	24219.86
533.33	24020.92
533.50	24266.67
533.67	24053.69
533.84	23821.97
534.01	24086.45
534.18	24173.05
534.35	24364.98
534.52	24032.62
534.69	24194.12
534.86	24430.51
535.03	24451.58
535.20	24615.41
535.37	24315.83
535.54	24580.31
535.71	24720.74
535.88	24463.28
536.05	24603.71
536.22	24676.27
536.38	25078.84
536.55	24671.59
536.72	24870.53
536.89	24236.25
537.06	24758.19
537.23	25092.88
537.40	24673.93
537.57	24692.65
537.74	25092.88
537.91	25123.31
538.08	24940.75
538.25	25008.62
538.42	24945.43
538.59	24989.90
538.75	24879.89
538.92	25177.14
539.09	25465.03
539.26	25174.80
539.43	25207.57
539.60	25568.01
539.77	25039.05
539.94	25656.95
540.11	25357.36
540.28	25507.16
540.44	24961.81
540.61	24973.52
540.78	25322.26
540.95	25390.13
541.12	25551.63
541.29	25593.76
541.46	25404.17
541.62	25282.47
541.79	25638.23
541.96	25254.38
542.13	25759.94
542.30	25710.78
542.47	25783.34
542.63	25818.45
542.80	25951.86
542.97	26068.89
543.14	25708.44
543.31	25968.24
543.48	25865.26
543.64	26005.69
543.81	26305.28
543.98	26010.37
544.15	26384.86
544.32	26026.76
544.48	26529.97
544.65	26279.54
544.82	26085.27
544.99	25785.68
545.16	26291.24
545.32	26466.78
545.49	26551.04
545.66	26504.23
545.83	26703.17
546.00	26438.69
546.16	26368.48
546.33	26235.06
546.50	26146.12
546.67	26394.22
546.83	26527.63
547.00	26321.66
547.17	26675.09
547.34	26604.87
547.50	26888.07
547.67	27056.59
547.84	26520.61
548.00	26691.47
548.17	27026.17
548.34	26426.99
548.51	27218.09
548.67	27091.70
548.84	27042.55
549.01	26841.26
549.18	26834.24
549.34	26944.25
549.51	26810.84
549.68	26820.20
549.84	26749.98
550.01	27115.11
550.18	26815.52
550.34	27103.40
550.51	27400.65
550.68	27513.00
550.84	27218.09
551.01	27161.92
551.18	26897.44
551.34	26895.10
551.51	27108.08
551.68	27133.83
551.84	27353.84
552.01	27063.61
552.18	27648.75
552.34	27346.82
552.51	27627.68
552.68	26998.08
552.84	27154.90
553.01	27903.87
553.18	27590.24
553.34	27791.52
553.51	27552.79
553.67	27756.41
553.84	27770.46
554.01	27997.49
554.17	27850.03
554.34	27840.67
554.51	27566.83
554.67	27466.19
554.84	27592.58
555.00	27948.34
555.17	28081.75
555.33	27676.83
555.50	28025.57
555.67	27838.33
555.83	27924.93
556.00	28383.68
556.16	27737.69
556.33	28290.06
556.50	27859.40
556.66	28308.78
556.83	28065.36
556.99	28559.22
557.16	28322.82
557.32	28329.84
557.49	27953.02
557.65	27892.16
557.82	28027.92
557.98	27798.54
558.15	28177.71
558.32	28561.56
558.48	27950.68
558.65	28259.63
558.81	28002.17
558.98	28383.68
559.14	28322.82
559.31	28346.23
559.47	28306.44
559.64	28238.56
559.80	28786.25
559.97	28819.02
560.13	28306.44
560.30	28332.18
560.46	28355.59
560.63	28339.21
560.79	28627.09
560.96	28599.01
561.12	28402.40
561.29	28451.55
561.45	28664.54
561.61	28369.63
561.78	28620.07
561.94	28727.74
562.11	28847.10
562.27	29195.84
562.44	28297.08
562.60	28793.27
562.77	28203.46
562.93	28643.48
563.10	29125.63
563.26	28741.78
563.42	28893.91
563.59	28493.68
563.75	28697.31
563.92	28830.72
564.08	28629.43
564.24	28896.25
564.41	28755.82
564.57	28765.18
564.74	28706.67
564.90	28795.61
565.07	28594.32
565.23	28669.22
565.39	29034.35
565.56	29097.54
565.72	28910.30
565.88	29015.62
566.05	28709.01
566.21	28851.78
566.38	28922.00
566.54	28898.59
566.70	29209.89
566.87	29322.23
567.03	28985.19
567.19	29069.45
567.36	28849.44
567.52	28758.16
567.68	29118.60
567.85	29144.35
568.01	28907.96
568.17	28788.59
568.34	29010.94
568.50	29247.33
568.66	28893.91
568.83	29132.65
568.99	28809.65
569.15	28933.70
569.32	29233.29
569.48	29055.41
569.64	29149.03
569.81	28910.30
569.97	28931.36
570.13	29256.70
570.30	28910.30
570.46	28821.36
570.62	29277.76
570.78	28779.23
570.95	29067.11
571.11	28999.24
571.27	29076.48
571.43	29142.01
571.60	29053.07
571.76	29244.99
571.92	29448.62
572.09	29174.78
572.25	29486.07
572.41	29642.88
572.57	29380.74
572.74	29528.20
572.90	29191.16
573.06	29607.78
573.22	29160.73
573.38	29230.95
573.55	29256.70
573.71	29689.70
573.87	29310.53
574.03	29708.42
574.20	29443.94
574.36	29345.64
574.52	29450.96
574.68	28929.02
574.84	28718.37
575.01	29586.71
575.17	29228.61
575.33	29507.13
575.49	29308.19
575.65	29179.46
575.82	29738.85
575.98	29259.04
576.14	29476.71
576.30	29497.77
576.46	29081.16
576.62	29158.39
576.79	29654.59
576.95	29677.99
577.11	29600.76
577.27	29488.41
577.43	29582.03
577.59	29441.60
577.75	29586.71
577.92	29406.49
578.08	29205.20
578.24	29219.25
578.40	29638.20
578.56	29345.64
578.72	29294.14
578.88	29715.44
579.04	29598.41
579.21	29490.75
579.37	29528.20
579.53	29619.48
579.69	28975.83
579.85	29350.32
580.01	29359.68
580.17	29289.46
580.33	29551.60
580.49	29486.07
580.65	29633.52
580.82	29504.79
580.98	29511.81
581.14	29443.94
581.30	29961.20
581.46	29743.53
581.62	29387.77
581.78	29542.24
581.94	29898.00
582.10	29406.49
582.26	29628.84
582.42	29656.93
582.58	29673.31
582.74	29816.08
582.90	29490.75
583.06	29626.50
583.22	29546.92
583.38	29198.18
583.54	29846.51
583.70	29621.82
583.86	29687.36
584.02	29546.92
584.18	29893.32
584.34	29537.56
584.50	30139.08
584.66	29907.37
584.82	29422.87
584.98	29717.78
585.14	29497.77
585.30	29635.86
585.46	29666.29
585.62	29495.43
585.78	29647.57
585.94	29479.05
586.10	29947.15
586.26	29549.26
586.42	29790.34
586.58	29890.98
586.74	29312.87
586.90	29619.48
587.06	29401.81
587.22	29530.54
587.38	29221.59
587.54	29951.84
587.70	29439.26
587.86	30022.05
588.02	29813.74
588.18	29935.45
588.34	29898.00
588.49	29860.55
588.65	29364.36
588.81	29745.87
588.97	29734.17
589.13	29352.66
589.29	29741.19
589.45	29610.12
589.61	30031.41
589.77	30059.50
589.93	29818.42
590.08	29872.26
590.24	30064.18
590.40	29935.45
590.56	29659.27
590.72	29844.17
590.88	29633.52
591.04	29830.13
591.20	30092.27
591.35	30085.25
591.51	30113.33
591.67	30136.74
591.83	30403.56
591.99	29809.06
