SpectraSuite Data File
++++++++++++++++++++++++++++++++++++
Date: Fri Oct 18 13:58:21 GMT-05:00 2013
User: bianchi
Dark Spectrum Present: No
Reference Spectrum Present: No
Number of Sampled Component Spectra: 1
Spectrometers: USB2+H05261
Integration Time (usec): 50000 (USB2+H05261)
Spectra Averaged: 1 (USB2+H05261)
Boxcar Smoothing: 0 (USB2+H05261)
Correct for Electrical Dark: No (USB2+H05261)
Strobe/Lamp Enabled: No (USB2+H05261)
Correct for Detector Non-linearity: No (USB2+H05261)
Correct for Stray Light: No (USB2+H05261)
Number of Pixels in Processed Spectrum: 2048
>>>>>Begin Processed Spectral Data<<<<<
365.73	0.00
365.92	0.00
366.12	0.00
366.32	0.00
366.52	0.00
366.72	0.00
366.91	0.00
367.11	0.00
367.31	0.00
367.51	0.00
367.70	0.00
367.90	0.00
368.10	0.00
368.30	0.00
368.49	0.00
368.69	0.00
368.89	0.00
369.09	0.00
369.28	0.00
369.48	0.00
369.68	0.00
369.87	0.00
370.07	0.00
370.27	0.00
370.47	0.00
370.66	119.37
370.86	163.84
371.06	170.86
371.25	124.05
371.45	168.52
371.65	128.73
371.84	145.11
372.04	159.16
372.24	175.54
372.44	229.37
372.63	191.92
372.83	250.44
373.03	229.37
373.22	149.79
373.42	173.20
373.62	224.69
373.81	248.10
374.01	236.39
374.21	248.10
374.40	259.80
374.60	227.03
374.79	222.35
374.99	236.39
375.19	262.14
375.38	250.44
375.58	294.91
375.78	208.31
375.97	245.76
376.17	318.31
376.37	266.82
376.56	241.08
376.76	351.08
376.95	210.65
377.15	280.86
377.35	266.82
377.54	203.63
377.74	280.86
377.93	257.46
378.13	278.52
378.33	292.57
378.52	301.93
378.72	334.70
378.91	241.08
379.11	299.59
379.31	283.20
379.50	220.01
379.70	269.16
379.89	348.74
380.09	311.29
380.28	294.91
380.48	320.65
380.68	292.57
380.87	220.01
381.07	358.10
381.26	341.72
381.46	285.55
381.65	262.14
381.85	313.63
382.04	311.29
382.24	320.65
382.43	372.15
382.63	297.25
382.83	304.27
383.02	301.93
383.22	337.04
383.41	351.08
383.61	355.76
383.80	341.72
384.00	348.74
384.19	418.96
384.39	367.46
384.58	344.06
384.78	383.85
384.97	330.02
385.17	334.70
385.36	369.80
385.56	334.70
385.75	285.55
385.95	479.81
386.14	362.78
386.34	358.10
386.53	369.80
386.72	404.91
386.92	409.59
387.11	421.30
387.31	393.21
387.50	428.32
387.70	353.42
387.89	465.77
388.09	334.70
388.28	414.27
388.48	512.58
388.67	428.32
388.86	447.04
389.06	423.64
389.25	514.92
389.45	475.13
389.64	411.93
389.84	430.66
390.03	491.51
390.22	484.49
390.42	421.30
390.61	486.83
390.81	475.13
391.00	486.83
391.19	486.83
391.39	442.36
391.58	503.22
391.78	505.56
391.97	514.92
392.16	458.74
392.36	568.75
392.55	505.56
392.75	517.26
392.94	491.51
393.13	561.73
393.33	550.03
393.52	566.41
393.71	543.00
393.91	634.29
394.10	573.43
394.29	606.20
394.49	573.43
394.68	613.22
394.88	608.54
395.07	603.86
395.26	564.07
395.46	547.69
395.65	671.73
395.84	599.18
396.04	608.54
396.23	667.05
396.42	692.80
396.62	599.18
396.81	678.76
397.00	603.86
397.19	734.93
397.39	685.78
397.58	699.82
397.77	671.73
397.97	657.69
398.16	669.39
398.35	718.54
398.55	655.35
398.74	774.72
398.93	725.57
399.12	767.70
399.32	779.40
399.51	709.18
399.70	716.20
399.90	723.23
400.09	681.10
400.28	774.72
400.47	713.86
400.67	800.46
400.86	802.80
401.05	734.93
401.24	823.87
401.44	748.97
401.63	746.63
401.82	732.59
402.01	809.83
402.21	753.65
402.40	784.08
402.59	767.70
402.78	856.64
402.97	697.48
403.17	933.87
403.36	882.38
403.55	891.74
403.74	840.25
403.93	905.79
404.13	880.04
404.32	842.59
404.51	880.04
404.70	866.00
404.89	898.77
405.09	968.98
405.28	992.39
405.47	968.98
405.66	997.07
405.85	912.81
406.05	898.77
406.24	905.79
406.43	997.07
406.62	961.96
406.81	1130.48
407.00	1046.22
407.20	1022.81
407.39	1048.56
407.58	1081.33
407.77	971.32
407.96	1036.86
408.15	1060.26
408.34	1015.79
408.54	1067.28
408.73	1097.71
408.92	1088.35
409.11	1125.80
409.30	1172.61
409.49	1088.35
409.68	1125.80
409.87	1128.14
410.07	1128.14
410.26	1139.84
410.45	1149.20
410.64	1081.33
410.83	1163.25
411.02	1170.27
411.21	1210.06
411.40	1132.82
411.59	1287.29
411.78	1252.19
411.98	1327.08
412.17	1261.55
412.36	1205.38
412.55	1315.38
412.74	1364.53
412.93	1308.36
413.12	1261.55
413.31	1397.30
413.50	1357.51
413.69	1350.49
413.88	1406.66
414.07	1437.09
414.26	1467.52
414.45	1427.73
414.64	1373.89
414.83	1486.24
415.02	1474.54
415.22	1401.98
415.41	1519.01
415.60	1605.61
415.79	1577.52
415.98	1582.20
416.17	1537.73
416.36	1652.42
416.55	1600.93
416.74	1554.12
416.93	1500.28
417.12	1687.53
417.31	1706.25
417.50	1607.95
417.69	1682.85
417.88	1692.21
418.07	1703.91
418.26	1710.93
418.45	1661.78
418.64	1811.57
418.83	1739.02
419.02	1664.12
419.21	1659.44
419.39	1722.63
419.58	1734.34
419.77	1809.23
419.96	1778.81
420.15	1811.57
420.34	1825.62
420.53	1823.28
420.72	1834.98
420.91	1856.04
421.10	1914.56
421.29	1954.35
421.48	1893.49
421.67	2083.08
421.86	1977.75
422.05	1966.05
422.24	1834.98
422.43	2005.84
422.61	1961.37
422.80	1994.14
422.99	2001.16
423.18	1937.96
423.37	2090.10
423.56	1961.37
423.75	1902.86
423.94	2001.16
424.13	1956.69
424.32	1912.22
424.50	2026.90
424.69	2036.27
424.88	2092.44
425.07	2031.58
425.26	1975.41
425.45	2012.86
425.64	1947.33
425.83	2064.35
426.01	2094.78
426.20	2008.18
426.39	2052.65
426.58	1968.39
426.77	2001.16
426.96	2010.52
427.15	2083.08
427.33	2033.93
427.52	2083.08
427.71	2104.14
427.90	2207.13
428.09	2038.61
428.28	2169.68
428.46	2155.63
428.65	2193.08
428.84	2235.21
429.03	2253.94
429.22	2232.87
429.40	2169.68
429.59	2349.90
429.78	2150.95
429.97	2132.23
430.16	2162.66
430.34	2289.04
430.53	2282.02
430.72	2286.70
430.91	2232.87
431.10	2214.15
431.28	2312.45
431.47	2312.45
431.66	2319.47
431.85	2305.43
432.03	2406.07
432.22	2520.76
432.41	2382.67
432.60	2413.09
432.79	2289.04
432.97	2480.97
433.16	2324.15
433.35	2385.01
433.54	2455.22
433.72	2497.35
433.91	2459.90
434.10	2448.20
434.28	2490.33
434.47	2483.31
434.66	2689.28
434.85	2497.35
435.03	2644.81
435.22	2572.25
435.41	2628.42
435.59	2607.36
435.78	2558.21
435.97	2541.82
436.16	2537.14
436.34	2567.57
436.53	2656.51
436.72	2684.59
436.90	2621.40
437.09	2743.11
437.28	2649.49
437.46	2663.53
437.65	2647.15
437.84	2677.57
438.02	2775.88
438.21	2754.81
438.40	2686.94
438.58	2827.37
438.77	2864.82
438.96	2764.17
439.14	2888.22
439.33	3007.59
439.52	2916.31
439.70	2991.20
439.89	3063.76
440.08	2972.48
440.26	2988.86
440.45	3021.63
440.63	2930.35
440.82	3047.38
441.01	3073.12
441.19	3087.17
441.38	3082.49
441.57	3096.53
441.75	3262.71
441.94	3108.23
442.12	3370.37
442.31	3330.58
442.50	3351.65
442.68	3227.60
442.87	3194.83
443.05	3337.60
443.24	3358.67
443.43	3321.22
443.61	3293.13
443.80	3487.40
443.98	3384.41
444.17	3213.56
444.35	3351.65
444.54	3536.55
444.73	3585.70
444.91	3337.60
445.10	3431.23
445.28	3468.67
445.47	3377.39
445.65	3370.37
445.84	3396.12
446.02	3433.57
446.21	3489.74
446.39	3321.22
446.58	3398.46
446.77	3503.78
446.95	3424.20
447.14	3372.71
447.32	3372.71
447.51	3487.40
447.69	3405.48
447.88	3538.89
448.06	3410.16
448.25	3473.36
448.43	3449.95
448.62	3564.64
448.80	3454.63
448.99	3536.55
449.17	3442.93
449.36	3529.53
449.54	3592.72
449.73	3716.77
449.91	3625.49
450.10	3513.14
450.28	3641.87
450.46	3569.32
450.65	3658.26
450.83	3604.42
451.02	3669.96
451.20	3765.92
451.39	3702.73
451.57	3775.28
451.76	3590.38
451.94	3777.62
452.13	3751.88
452.31	3796.35
452.49	3887.63
452.68	3845.50
452.86	3786.99
453.05	3852.52
453.23	3852.52
453.42	3735.50
453.60	3843.16
453.78	3789.33
453.97	3817.41
454.15	3850.18
454.34	3925.08
454.52	3925.08
454.70	4014.02
454.89	3864.22
455.07	4072.53
455.26	4042.11
455.44	4093.60
455.62	3999.98
455.81	4060.83
455.99	4091.26
456.17	4030.40
456.36	4109.98
456.54	4341.69
456.73	4215.30
456.91	4337.01
457.09	4154.45
457.28	4297.22
457.46	4320.63
457.64	4351.06
457.83	4337.01
458.01	4077.21
458.19	4341.69
458.38	4231.69
458.56	4311.27
458.74	4287.86
458.93	4355.74
459.11	4404.89
459.29	4234.03
459.48	4383.82
459.66	4447.02
459.84	4505.53
460.03	4456.38
460.21	4456.38
460.39	4418.93
460.57	4376.80
460.76	4610.86
460.94	4521.92
461.12	4528.94
461.31	4713.84
461.49	4596.81
461.67	4402.55
461.85	4535.96
462.04	4603.83
462.22	4723.20
462.40	4657.67
462.59	4734.90
462.77	4802.78
462.95	4856.61
463.13	4608.51
463.32	4725.54
463.50	4847.25
463.68	4830.87
463.86	4767.67
464.05	4784.06
464.23	4868.31
464.41	4793.42
464.59	4655.33
464.78	4758.31
464.96	4905.76
465.14	4851.93
465.32	4835.55
465.50	5025.13
465.69	4816.82
465.87	4739.58
466.05	4821.50
466.23	4868.31
466.41	4849.59
466.60	5116.41
466.78	5055.56
466.96	4978.32
467.14	4943.21
467.32	5071.94
467.51	5043.85
467.69	5067.26
467.87	5107.05
468.05	5156.20
468.23	4992.36
468.41	5067.26
468.60	5153.86
468.78	5245.14
468.96	5041.51
469.14	5191.31
469.32	5320.04
469.50	4999.38
469.69	5336.42
469.87	5259.18
470.05	5310.68
470.23	5226.42
470.41	5294.29
470.59	5378.55
470.77	5427.70
470.95	5259.18
471.14	5586.86
471.32	5343.44
471.50	5544.73
471.68	5537.71
471.86	5490.90
472.04	5636.01
472.22	5738.99
472.40	5617.29
472.58	5572.82
472.77	5624.31
472.95	5760.06
473.13	5942.62
473.31	5762.40
473.49	5755.38
473.67	5865.38
473.85	5830.27
474.03	5916.87
474.21	5851.34
474.39	5923.90
474.57	6057.31
474.75	5996.45
474.93	5928.58
475.12	6155.61
475.30	6115.82
475.48	6010.50
475.66	6143.91
475.84	6111.14
476.02	6171.99
476.20	6272.64
476.38	6370.94
476.56	6410.73
476.74	6328.81
476.92	6602.65
477.10	6572.22
477.28	6733.72
477.46	6602.65
477.64	6731.38
477.82	6649.46
478.00	6825.00
478.18	6803.94
478.36	6895.22
478.54	6899.90
478.72	7084.80
478.90	6911.60
479.08	6810.96
479.26	7222.89
479.44	7279.07
479.62	7283.75
479.80	7358.64
479.98	7351.62
480.16	7592.70
480.34	7346.94
480.52	7557.59
480.70	7522.48
480.88	7576.31
481.06	7541.21
481.24	7609.08
481.41	7651.21
481.59	7978.89
481.77	7997.61
481.95	7915.69
482.13	8107.62
482.31	8152.09
482.49	8124.00
482.67	8002.29
482.85	8285.50
483.03	8273.79
483.21	8542.96
483.39	8428.27
483.57	8414.23
483.74	8489.12
483.92	8643.60
484.10	8674.03
484.28	8739.56
484.46	8994.68
484.64	9025.11
484.82	8781.69
485.00	8774.67
485.18	9095.32
485.35	9270.86
485.53	9252.14
485.71	9256.82
485.89	9692.16
486.07	9551.73
486.25	9542.36
486.43	9528.32
486.61	9462.79
486.78	9879.40
486.96	9940.26
487.14	9961.32
487.32	9837.27
487.50	10003.45
487.68	10003.45
487.85	10246.87
488.03	10466.88
488.21	10396.66
488.39	10445.81
488.57	10677.52
488.75	10644.76
488.92	10562.84
489.10	10719.65
489.28	11016.90
489.46	10927.96
489.64	10874.13
489.81	11218.19
489.99	11162.01
490.17	10960.73
490.35	11227.55
490.53	11323.51
490.70	11332.87
490.88	11407.77
491.06	11740.13
491.24	11442.88
491.41	11609.06
491.59	12013.97
491.77	11695.66
491.95	11971.84
492.13	11929.71
492.30	12086.53
492.48	12264.41
492.66	12060.78
492.84	12191.85
493.01	12484.42
493.19	12444.63
493.37	12758.26
493.54	12519.53
493.72	12648.26
493.90	12702.09
494.08	12800.39
494.25	12627.19
494.43	13048.49
494.61	13064.87
494.79	13078.91
494.96	13090.62
495.14	13392.55
495.32	13399.57
495.49	13465.10
495.67	13561.06
495.85	13507.23
496.02	13624.26
496.20	13640.64
496.38	13888.74
496.55	13790.44
496.73	14239.82
496.91	13738.94
497.09	14019.81
497.26	13947.25
497.44	14066.62
497.62	14253.86
497.79	14223.44
497.97	14101.73
498.14	14373.23
498.32	14525.36
498.50	14665.80
498.67	14579.20
498.85	14764.10
499.03	14796.87
499.20	14934.96
499.38	14831.97
499.56	15145.61
499.73	15129.22
499.91	14909.21
500.08	15330.51
500.26	14988.79
500.44	15178.37
500.61	15232.21
500.79	15307.10
500.97	15452.22
501.14	15627.76
501.32	15660.52
501.49	15672.23
501.67	15513.07
501.84	15391.36
502.02	15850.11
502.20	15807.98
502.37	15894.58
502.55	15826.70
502.72	15985.86
502.90	15988.20
503.07	16039.69
503.25	16100.55
503.43	15693.29
503.60	16315.87
503.78	16133.31
503.95	16292.47
504.13	16318.22
504.30	16428.22
504.48	16273.74
504.65	16446.94
504.83	16573.33
505.01	16886.97
505.18	16760.58
505.36	17280.18
505.53	16755.90
505.71	16992.29
505.88	16615.46
506.06	17125.70
506.23	17301.24
506.41	16999.31
506.58	17231.02
506.76	17315.28
506.93	16971.22
507.11	16992.29
507.28	17301.24
507.46	17224.00
507.63	17525.93
507.81	17729.56
507.98	17324.65
508.16	17446.35
508.33	17586.79
508.50	17657.00
508.68	17575.08
508.85	17909.78
509.03	17963.61
509.20	17909.78
509.38	17998.72
509.55	18164.90
509.73	18052.55
509.90	18094.68
510.08	18279.58
510.25	18061.91
510.42	18310.01
510.60	18450.44
510.77	18672.79
510.95	18574.49
511.12	18298.31
511.30	18307.67
511.47	18541.72
511.64	18693.86
511.82	18523.00
511.99	18867.06
512.17	18827.27
512.34	18909.19
512.51	19005.15
512.69	19042.60
512.86	19058.98
513.04	18881.10
513.21	19000.47
513.38	19122.18
513.56	18970.04
513.73	18993.45
513.90	19274.31
514.08	19426.45
514.25	19508.37
514.43	19627.73
514.60	19421.77
514.77	19449.85
514.95	19440.49
515.12	19379.64
515.29	19611.35
515.47	19580.92
515.64	19793.91
515.81	19829.02
515.99	20034.99
516.16	19936.68
516.33	20144.99
516.51	20212.87
516.68	20084.14
516.85	19995.20
517.03	19999.88
517.20	20278.40
517.37	20084.14
517.54	20271.38
517.72	20538.20
517.89	20538.20
518.06	20475.01
518.24	20329.89
518.41	20486.71
518.58	20308.83
518.75	20709.06
518.93	20910.35
519.10	20446.92
519.27	20641.18
519.45	20439.90
519.62	21071.84
519.79	20798.00
519.96	20781.62
520.14	20847.15
520.31	20716.08
520.48	20854.17
520.65	20950.14
520.83	21015.67
521.00	21200.57
521.17	20966.52
521.34	21163.12
521.52	20994.61
521.69	21284.83
521.86	21591.44
522.03	21233.34
522.20	21689.74
522.38	21544.63
522.55	21399.52
522.72	21472.07
522.89	21790.39
523.07	21989.33
523.24	21689.74
523.41	21706.13
523.58	21645.27
523.75	21853.58
523.92	21848.90
524.10	21687.40
524.27	22078.27
524.44	22089.98
524.61	22246.79
524.78	22092.32
524.96	22211.68
525.13	22066.57
525.30	22024.44
525.47	22239.77
525.64	22097.00
525.81	22338.07
525.98	22642.34
526.16	22242.11
526.33	22480.85
526.50	22778.09
526.67	22417.65
526.84	22782.77
527.01	22590.85
527.18	22588.51
527.36	22787.46
527.53	22733.62
527.70	23047.26
527.87	23014.49
528.04	22902.14
528.21	22927.89
528.38	22930.23
528.55	22768.73
528.72	23016.83
528.89	22984.06
529.07	22972.36
529.24	23054.28
529.41	23410.04
529.58	23194.71
529.75	23220.45
529.92	23365.57
530.09	22986.40
530.26	23398.34
530.43	23349.18
530.60	23199.39
530.77	23683.88
530.94	23559.83
531.11	23281.31
531.28	23377.27
531.46	23594.94
531.63	23761.12
531.80	23751.76
531.97	23896.87
532.14	23854.74
532.31	23613.66
532.48	23707.29
532.65	23941.34
532.82	23714.31
532.99	23915.59
533.16	23927.30
533.33	24159.01
533.50	24409.45
533.67	24112.20
533.84	23887.51
534.01	23899.21
534.18	23859.42
534.35	24137.94
534.52	23929.64
534.69	24290.08
534.86	24077.09
535.03	24231.57
535.20	24524.13
535.37	24084.11
535.54	24107.52
535.71	24460.94
535.88	24367.32
536.05	24156.67
536.22	24386.04
536.38	24741.80
536.55	24439.87
536.72	24826.06
536.89	24491.37
537.06	24570.94
537.23	24535.84
537.40	24498.39
537.57	24671.59
537.74	24994.58
537.91	24891.60
538.08	24968.84
538.25	24627.12
538.42	24865.85
538.59	25174.80
538.75	25043.73
538.92	24947.77
539.09	24851.81
539.26	25006.28
539.43	24898.62
539.60	25312.89
539.77	25219.27
539.94	25013.31
540.11	25371.41
540.28	25116.29
540.44	25359.70
540.61	25188.85
540.78	25216.93
540.95	25504.82
541.12	25163.10
541.29	25369.07
541.46	25406.52
541.62	25500.14
541.79	25415.88
541.96	25125.65
542.13	25429.92
542.30	25462.69
542.47	25727.17
542.63	25619.50
542.80	25860.58
542.97	26115.70
543.14	26181.23
543.31	26164.85
543.48	26003.35
543.64	26314.64
543.81	26251.45
543.98	25909.73
544.15	26312.30
544.32	26197.62
544.48	26490.18
544.65	25921.43
544.82	26115.70
544.99	26214.00
545.16	26150.81
545.32	25935.48
545.49	26686.79
545.66	26478.48
545.83	26562.74
546.00	26094.63
546.16	26300.60
546.33	26169.53
546.50	26071.23
546.67	26291.24
546.83	26499.55
547.00	26548.70
547.17	26415.29
547.34	26668.06
547.50	26642.32
547.67	26930.20
547.84	27009.78
548.00	26490.18
548.17	26675.09
548.34	26651.68
548.51	27197.02
548.67	26749.98
548.84	26794.45
549.01	26731.26
549.18	26810.84
549.34	26724.24
549.51	27119.79
549.68	26707.85
549.84	26724.24
550.01	27063.61
550.18	26909.14
550.34	26888.07
550.51	27262.56
550.68	27349.16
550.84	26539.33
551.01	27304.69
551.18	27138.51
551.34	26771.05
551.51	27087.02
551.68	27147.87
551.84	27562.15
552.01	27393.63
552.18	27349.16
552.34	27307.03
552.51	27440.44
552.68	27108.08
552.84	27187.66
553.01	27094.04
553.18	27285.97
553.34	28067.70
553.51	27892.16
553.67	27292.99
553.84	27922.59
554.01	27714.28
554.17	27414.69
554.34	27353.84
554.51	27627.68
554.67	27557.47
554.84	27742.37
555.00	27690.88
555.17	27840.67
555.33	28002.17
555.50	27332.78
555.67	27239.15
555.83	27580.87
556.00	27988.13
556.16	27899.19
556.33	28109.83
556.50	28070.04
556.66	27747.05
556.83	27976.42
556.99	28208.14
557.16	28276.01
557.32	27901.53
557.49	28027.92
557.65	27885.14
557.82	28084.09
557.98	27754.07
558.15	28084.09
558.32	27971.74
558.48	28070.04
558.65	28463.25
558.81	28154.30
558.98	28074.73
559.14	27737.69
559.31	27875.78
559.47	28250.27
559.64	28343.89
559.80	28339.21
559.97	28608.37
560.13	28236.22
560.30	28184.73
560.46	28449.21
560.63	28577.94
560.79	28107.49
560.96	28535.81
561.12	28287.71
561.29	28320.48
561.45	28116.86
561.61	28100.47
561.78	28671.56
561.94	28662.20
562.11	28570.92
562.27	28498.36
562.44	28350.91
562.60	28285.37
562.77	28470.28
562.93	28095.79
563.10	28601.35
563.26	28458.57
563.42	28889.23
563.59	28788.59
563.75	28662.20
563.92	28489.00
564.08	28723.05
564.24	28872.85
564.41	28285.37
564.57	28435.17
564.74	28566.24
564.90	28662.20
565.07	28716.03
565.23	28851.78
565.39	28460.91
565.56	28570.92
565.72	28645.82
565.88	28896.25
566.05	28624.75
566.21	28512.41
566.38	28797.95
566.54	29209.89
566.70	28856.46
566.87	29099.88
567.03	28676.24
567.19	29237.97
567.36	28975.83
567.52	28601.35
567.68	28786.25
567.85	28919.66
568.01	28737.10
568.17	28451.55
568.34	28748.80
568.50	28837.74
568.66	28889.23
568.83	29106.90
568.99	28620.07
569.15	29010.94
569.32	28912.64
569.48	28643.48
569.64	28898.59
569.81	28994.56
569.97	28961.79
570.13	28973.49
570.30	29050.73
570.46	29219.25
570.62	28992.22
570.78	29015.62
570.95	28395.38
571.11	29177.12
571.27	28947.75
571.43	28584.96
571.60	29188.82
571.76	28552.20
571.92	29181.80
572.09	29333.93
572.25	29139.67
572.41	29310.53
572.57	29259.04
572.74	29027.32
572.90	29078.82
573.06	29116.26
573.22	28648.16
573.38	29226.27
573.55	29130.31
573.71	29621.82
573.87	29493.09
574.03	29392.45
574.20	29326.91
574.36	28933.70
574.52	29244.99
574.68	29160.73
574.84	29163.08
575.01	29401.81
575.17	29317.55
575.33	29020.30
575.49	29127.97
575.65	29677.99
575.82	29434.58
575.98	29560.97
576.14	29172.44
576.30	29134.99
576.46	29167.76
576.62	29312.87
576.79	29191.16
576.95	28929.02
577.11	29460.32
577.27	29432.24
577.43	29284.78
577.59	29333.93
577.75	29294.14
577.92	28840.08
578.08	29181.80
578.24	28978.17
578.40	29488.41
578.56	29362.02
578.72	29064.77
578.88	29427.56
579.04	29661.61
579.21	28999.24
579.37	29523.52
579.53	29427.56
579.69	28959.45
579.85	29319.89
580.01	29507.13
580.17	29130.31
580.33	29734.17
580.49	29158.39
580.65	29614.80
580.82	29415.85
580.98	29219.25
581.14	29572.67
581.30	29450.96
581.46	29457.98
581.62	29186.48
581.78	28943.06
581.94	29624.16
582.10	29371.38
582.26	29228.61
582.42	29465.00
582.58	29645.23
582.74	29549.26
582.90	29376.06
583.06	29493.09
583.22	29226.27
583.38	29518.84
583.54	29825.45
583.70	29556.28
583.86	29455.64
584.02	29411.17
584.18	29816.08
584.34	29490.75
584.50	29383.09
584.66	29474.37
584.82	29582.03
584.98	29303.51
585.14	29642.88
585.30	29266.06
585.46	29715.44
585.62	29193.50
585.78	29656.93
585.94	29322.23
586.10	29572.67
586.26	29804.38
586.42	29820.77
586.58	29603.10
586.74	29125.63
586.90	29249.67
587.06	29263.72
587.22	29305.85
587.38	29488.41
587.54	29469.69
587.70	29537.56
587.86	29795.02
588.02	29610.12
588.18	29837.15
588.34	29958.86
588.49	29692.04
588.65	29329.25
588.81	29593.73
588.97	29591.39
589.13	29205.20
589.29	29362.02
589.45	29902.68
589.61	29619.48
589.77	29806.72
589.93	29816.08
590.08	30178.87
590.24	29890.98
590.40	30183.55
590.56	29837.15
590.72	29640.54
590.88	29776.30
591.04	29516.50
591.20	30024.39
591.35	29645.23
591.51	30122.69
591.67	30122.69
591.83	30185.89
591.99	29907.37
