SpectraSuite Data File
++++++++++++++++++++++++++++++++++++
Date: Fri Oct 18 13:58:36 GMT-05:00 2013
User: bianchi
Dark Spectrum Present: No
Reference Spectrum Present: No
Number of Sampled Component Spectra: 1
Spectrometers: USB2+H05261
Integration Time (usec): 50000 (USB2+H05261)
Spectra Averaged: 1 (USB2+H05261)
Boxcar Smoothing: 0 (USB2+H05261)
Correct for Electrical Dark: No (USB2+H05261)
Strobe/Lamp Enabled: No (USB2+H05261)
Correct for Detector Non-linearity: No (USB2+H05261)
Correct for Stray Light: No (USB2+H05261)
Number of Pixels in Processed Spectrum: 2048
>>>>>Begin Processed Spectral Data<<<<<
365.73	0.00
365.92	0.00
366.12	0.00
366.32	0.00
366.52	0.00
366.72	0.00
366.91	0.00
367.11	0.00
367.31	0.00
367.51	0.00
367.70	0.00
367.90	0.00
368.10	0.00
368.30	0.00
368.49	0.00
368.69	0.00
368.89	0.00
369.09	0.00
369.28	0.00
369.48	0.00
369.68	0.00
369.87	0.00
370.07	0.00
370.27	0.00
370.47	0.00
370.66	74.90
370.86	149.79
371.06	182.56
371.25	168.52
371.45	93.62
371.65	95.96
371.84	145.11
372.04	168.52
372.24	210.65
372.44	168.52
372.63	196.60
372.83	271.50
373.03	163.84
373.22	203.63
373.42	259.80
373.62	154.48
373.81	252.78
374.01	241.08
374.21	217.67
374.40	280.86
374.60	402.57
374.79	252.78
374.99	294.91
375.19	222.35
375.38	297.25
375.58	271.50
375.78	278.52
375.97	220.01
376.17	220.01
376.37	161.50
376.56	191.92
376.76	280.86
376.95	227.03
377.15	297.25
377.35	250.44
377.54	273.84
377.74	266.82
377.93	290.23
378.13	276.18
378.33	294.91
378.52	306.61
378.72	285.55
378.91	299.59
379.11	322.99
379.31	285.55
379.50	297.25
379.70	266.82
379.89	297.25
380.09	376.83
380.28	308.95
380.48	276.18
380.68	360.44
380.87	301.93
381.07	320.65
381.26	311.29
381.46	299.59
381.65	273.84
381.85	287.89
382.04	355.76
382.24	322.99
382.43	334.70
382.63	367.46
382.83	290.23
383.02	428.32
383.22	318.31
383.41	327.68
383.61	433.00
383.80	418.96
384.00	397.89
384.19	386.19
384.39	353.42
384.58	421.30
384.78	315.97
384.97	348.74
385.17	390.87
385.36	351.08
385.56	379.17
385.75	381.51
385.95	397.89
386.14	372.15
386.34	404.91
386.53	346.40
386.72	337.04
386.92	404.91
387.11	437.68
387.31	400.23
387.50	463.43
387.70	381.51
387.89	404.91
388.09	402.57
388.28	498.53
388.48	449.38
388.67	428.32
388.86	440.02
389.06	442.36
389.25	344.06
389.45	498.53
389.64	451.72
389.84	475.13
390.03	472.79
390.22	430.66
390.42	437.68
390.61	482.15
390.81	475.13
391.00	461.09
391.19	482.15
391.39	458.74
391.58	482.15
391.78	503.22
391.97	585.13
392.16	477.47
392.36	554.71
392.55	533.64
392.75	510.24
392.94	531.30
393.13	524.28
393.33	592.16
393.52	559.39
393.71	545.34
393.91	543.00
394.10	493.85
394.29	575.77
394.49	587.47
394.68	564.07
394.88	507.90
395.07	664.71
395.26	683.44
395.46	571.09
395.65	688.12
395.84	613.22
396.04	589.82
396.23	622.58
396.42	669.39
396.62	669.39
396.81	734.93
397.00	648.33
397.19	638.97
397.39	610.88
397.58	704.50
397.77	697.48
397.97	788.76
398.16	732.59
398.35	653.01
398.55	629.60
398.74	683.44
398.93	713.86
399.12	603.86
399.32	685.78
399.51	669.39
399.70	737.27
399.90	755.99
400.09	730.25
400.28	777.06
400.47	725.57
400.67	858.98
400.86	786.42
401.05	851.96
401.24	849.61
401.44	833.23
401.63	842.59
401.82	875.36
402.01	802.80
402.21	781.74
402.40	861.32
402.59	748.97
402.78	779.40
402.97	903.45
403.17	837.91
403.36	866.00
403.55	798.12
403.74	938.55
403.93	882.38
404.13	905.79
404.32	950.26
404.51	875.36
404.70	931.53
404.89	915.15
405.09	1018.13
405.28	915.15
405.47	912.81
405.66	912.81
405.85	978.34
406.05	933.87
406.24	929.19
406.43	959.62
406.62	1029.84
406.81	1071.97
407.00	992.39
407.20	992.39
407.39	1011.11
407.58	1025.15
407.77	1004.09
407.96	1114.10
408.15	1076.65
408.34	1064.94
408.54	1139.84
408.73	1076.65
408.92	1137.50
409.11	1210.06
409.30	1132.82
409.49	1088.35
409.68	1144.52
409.87	1181.97
410.07	1245.16
410.26	1212.40
410.45	1198.35
410.64	1146.86
410.83	1233.46
411.02	1210.06
411.21	1186.65
411.40	1261.55
411.59	1252.19
411.78	1338.79
411.98	1207.72
412.17	1270.91
412.36	1280.27
412.55	1373.89
412.74	1369.21
412.93	1472.20
413.12	1334.11
413.31	1411.34
413.50	1315.38
413.69	1416.02
413.88	1430.07
414.07	1427.73
414.26	1338.79
414.45	1444.11
414.64	1369.21
414.83	1472.20
415.02	1509.65
415.22	1561.14
415.41	1603.27
415.60	1502.62
415.79	1474.54
415.98	1556.46
416.17	1544.75
416.36	1621.99
416.55	1537.73
416.74	1664.12
416.93	1638.38
417.12	1673.48
417.31	1664.12
417.50	1722.63
417.69	1717.95
417.88	1781.15
418.07	1743.70
418.26	1757.74
418.45	1799.87
418.64	1837.32
418.83	1767.10
419.02	1729.66
419.21	1865.41
419.39	1846.68
419.58	1825.62
419.77	1734.34
419.96	1916.90
420.15	1811.57
420.34	1893.49
420.53	1781.15
420.72	1827.96
420.91	1856.04
421.10	1933.28
421.29	1842.00
421.48	1914.56
421.67	1980.09
421.86	1865.41
422.05	1877.11
422.24	1928.60
422.43	1977.75
422.61	2010.52
422.80	2026.90
422.99	2078.40
423.18	2085.42
423.37	1982.43
423.56	2015.20
423.75	2010.52
423.94	1987.11
424.13	1872.43
424.32	1881.79
424.50	1991.80
424.69	2132.23
424.88	2092.44
425.07	2022.22
425.26	2005.84
425.45	2031.58
425.64	1998.82
425.83	2062.01
426.01	2190.74
426.20	1973.07
426.39	2090.10
426.58	1952.01
426.77	2059.67
426.96	2186.06
427.15	2148.61
427.33	2169.68
427.52	2047.97
427.71	2108.82
427.90	2101.80
428.09	2160.31
428.28	2200.10
428.46	2200.10
428.65	2249.25
428.84	2211.81
429.03	2242.23
429.22	2160.31
429.40	2349.90
429.59	2263.30
429.78	2054.99
429.97	2303.09
430.16	2165.00
430.34	2293.72
430.53	2221.17
430.72	2319.47
430.91	2188.40
431.10	2204.78
431.28	2363.94
431.47	2267.98
431.66	2410.75
431.85	2499.69
432.03	2443.52
432.22	2518.42
432.41	2413.09
432.60	2422.45
432.79	2420.11
432.97	2368.62
433.16	2492.67
433.35	2483.31
433.54	2504.37
433.72	2527.78
433.91	2480.97
434.10	2532.46
434.28	2605.02
434.47	2492.67
434.66	2612.04
434.85	2544.16
435.03	2560.55
435.22	2691.62
435.41	2693.96
435.59	2654.17
435.78	2729.06
435.97	2696.30
436.16	2532.46
436.34	2605.02
436.53	2658.85
436.72	2775.88
436.90	2766.51
437.09	2719.70
437.28	2647.15
437.46	2665.87
437.65	2712.68
437.84	2775.88
438.02	2752.47
438.21	2841.41
438.40	2719.70
438.58	2829.71
438.77	2850.77
438.96	2932.69
439.14	2998.23
439.33	3026.31
439.52	3052.06
439.70	2942.05
439.89	3038.02
440.08	2956.10
440.26	3080.14
440.45	3035.67
440.63	3082.49
440.82	3119.93
441.01	3126.96
441.19	3185.47
441.38	3096.53
441.57	3187.81
441.75	3279.09
441.94	3229.94
442.12	3281.43
442.31	3075.46
442.50	3166.74
442.68	3286.11
442.87	3407.82
443.05	3445.27
443.24	3400.80
443.43	3377.39
443.61	3358.67
443.80	3386.76
443.98	3192.49
444.17	3337.60
444.35	3269.73
444.54	3503.78
444.73	3412.50
444.91	3426.54
445.10	3251.00
445.28	3365.69
445.47	3435.91
445.65	3421.86
445.84	3456.97
446.02	3459.31
446.21	3506.12
446.39	3417.18
446.58	3520.17
446.77	3501.44
446.95	3335.26
447.14	3492.08
447.32	3424.20
447.51	3592.72
447.69	3445.27
447.88	3552.93
448.06	3517.83
448.25	3459.31
448.43	3566.98
448.62	3576.34
448.80	3620.81
448.99	3562.30
449.17	3599.74
449.36	3574.00
449.54	3763.58
449.73	3599.74
449.91	3655.92
450.10	3662.94
450.28	3817.41
450.46	3786.99
450.65	3794.01
450.83	3658.26
451.02	3651.24
451.20	3665.28
451.39	3831.46
451.57	3632.51
451.76	3707.41
451.94	3798.69
452.13	3728.47
452.31	3754.22
452.49	3798.69
452.68	3960.19
452.86	3922.74
453.05	4011.68
453.23	3854.86
453.42	3932.10
453.60	3695.71
453.78	3779.97
453.97	3971.89
454.15	3866.56
454.34	3948.48
454.52	4093.60
454.70	3948.48
454.89	3939.12
455.07	3948.48
455.26	4121.68
455.44	4142.75
455.62	4145.09
455.81	4086.58
455.99	4154.45
456.17	4177.86
456.36	3946.14
456.54	4280.84
456.73	4294.88
456.91	4290.20
457.09	4252.75
457.28	4381.48
457.46	4205.94
457.64	4264.46
457.83	4311.27
458.01	4278.50
458.19	4400.21
458.38	4224.67
458.56	4383.82
458.74	4341.69
458.93	4449.36
459.11	4393.19
459.29	4531.28
459.48	4507.87
459.66	4519.57
459.84	4603.83
460.03	4631.92
460.21	4557.02
460.39	4461.06
460.57	4479.79
460.76	4542.98
460.94	4622.56
461.12	4568.73
461.31	4777.03
461.49	4634.26
461.67	4573.41
461.85	4711.50
462.04	4648.30
462.22	4725.54
462.40	4737.24
462.59	4608.51
462.77	4800.44
462.95	4704.48
463.13	4737.24
463.32	4868.31
463.50	4727.88
463.68	4828.53
463.86	4737.24
464.05	4798.10
464.23	4816.82
464.41	4858.95
464.59	4695.11
464.78	4938.53
464.96	4833.21
465.14	4961.94
465.32	4940.87
465.50	5008.75
465.69	5029.81
465.87	5001.72
466.05	5020.45
466.23	4858.95
466.41	5006.41
466.60	5313.02
466.78	5008.75
466.96	5025.13
467.14	5205.35
467.32	5118.75
467.51	5128.11
467.69	4985.34
467.87	5144.50
468.05	5198.33
468.23	5015.77
468.41	5184.29
468.60	5210.03
468.78	5259.18
468.96	5165.56
469.14	5102.37
469.32	5291.95
469.50	5273.23
469.69	5411.32
469.87	5399.62
470.05	5343.44
470.23	5226.42
470.41	5451.11
470.59	5495.58
470.77	5301.31
470.95	5497.92
471.14	5570.48
471.32	5476.85
471.50	5680.48
471.68	5579.84
471.86	5640.69
472.04	5612.60
472.22	5806.87
472.40	5797.51
472.58	5762.40
472.77	5816.23
472.95	5762.40
473.13	5856.02
473.31	5708.57
473.49	5748.36
473.67	5699.20
473.85	5921.56
474.03	6047.94
474.21	5872.40
474.39	6083.05
474.57	6150.93
474.75	6143.91
474.93	6118.16
475.12	6047.94
475.30	6183.70
475.48	6209.44
475.66	6061.99
475.84	6181.35
476.02	6284.34
476.20	6317.11
476.38	6520.73
476.56	6473.92
476.74	6581.59
476.92	6438.81
477.10	6590.95
477.28	6848.41
477.46	6644.78
477.64	6883.52
477.82	6871.81
478.00	6902.24
478.18	6841.39
478.36	7061.40
478.54	6909.26
478.72	7005.22
478.90	7136.29
479.08	7335.24
479.26	7155.02
479.44	7321.20
479.62	7456.95
479.80	7370.35
479.98	7487.37
480.16	7576.31
480.34	7545.89
480.52	7674.62
480.70	7606.74
480.88	7683.98
481.06	7606.74
481.24	7672.28
481.41	7686.32
481.59	8060.80
481.77	8091.23
481.95	7981.23
482.13	8032.72
482.31	8154.43
482.49	8126.34
482.67	8177.83
482.85	8203.58
483.03	8379.12
483.21	8667.00
483.39	8482.10
483.57	8430.61
483.74	8662.32
483.92	8769.99
484.10	8716.16
484.28	9015.74
484.46	9137.45
484.64	9256.82
484.82	8809.78
485.00	9057.87
485.18	9291.93
485.35	9425.34
485.53	9266.18
485.71	9568.11
485.89	9741.31
486.07	9348.10
486.25	9530.66
486.43	9666.41
486.61	9640.67
486.78	9701.52
486.96	9870.04
487.14	10094.73
487.32	10015.15
487.50	10031.54
487.68	9963.66
487.85	10459.85
488.03	10525.39
488.21	10462.19
488.39	10644.76
488.57	10595.61
488.75	10668.16
488.92	10836.68
489.10	11019.24
489.28	11040.31
489.46	11241.59
489.64	11087.12
489.81	11351.60
489.99	11236.91
490.17	11454.58
490.35	11433.52
490.53	11412.45
490.70	11667.57
490.88	11662.89
491.06	11784.60
491.24	11625.44
491.41	11763.53
491.59	11803.32
491.77	11693.32
491.95	12065.46
492.13	12273.77
492.30	12095.89
492.48	12060.78
492.66	12393.14
492.84	12400.16
493.01	12592.08
493.19	12727.83
493.37	12835.50
493.54	12428.24
493.72	12812.09
493.90	12882.31
494.08	12823.80
494.25	12828.48
494.43	13071.89
494.61	13490.85
494.79	13167.85
494.96	13371.48
495.14	13472.12
495.32	13284.88
495.49	13631.28
495.67	13715.54
495.85	13930.87
496.02	13694.47
496.20	13846.61
496.38	13970.66
496.55	14122.79
496.73	14139.18
496.91	14171.94
497.09	14064.28
497.26	14281.95
497.44	14207.05
497.62	14553.45
497.79	14565.15
497.97	14415.36
498.14	14597.92
498.32	14644.73
498.50	14862.40
498.67	14965.39
498.85	14836.66
499.03	14909.21
499.20	15084.75
499.38	15059.01
499.56	15293.06
499.73	15304.76
499.91	15288.38
500.08	15257.95
500.26	15250.93
500.44	15541.16
500.61	15494.35
500.79	15403.07
500.97	15728.40
501.14	15669.89
501.32	15875.85
501.49	15803.30
501.67	15749.46
501.84	15639.46
502.02	16053.73
502.20	16074.80
502.37	16145.02
502.55	16077.14
502.72	16142.67
502.90	16166.08
503.07	16081.82
503.25	16219.91
503.43	16102.89
503.60	16568.65
503.78	16587.38
503.95	16538.23
504.13	16865.90
504.30	16573.33
504.48	16533.54
504.65	16870.58
504.83	16725.47
505.01	17062.51
505.18	16854.20
505.36	17121.02
505.53	17071.87
505.71	17095.27
505.88	17008.67
506.06	17020.38
506.23	17027.40
506.41	17191.23
506.58	17282.52
506.76	17350.39
506.93	17090.59
507.11	17511.89
507.28	17717.86
507.46	17617.21
507.63	17549.34
507.81	17708.49
507.98	17530.61
508.16	17947.23
508.33	17696.79
508.50	17891.06
508.68	17736.58
508.85	17963.61
509.03	17935.53
509.20	18031.49
509.38	18497.25
509.55	18387.25
509.73	18335.76
509.90	18008.08
510.08	18441.08
510.25	18139.15
510.42	18532.36
510.60	18682.16
510.77	18539.38
510.95	18623.64
511.12	18462.15
511.30	18672.79
511.47	18576.83
511.64	18663.43
511.82	19208.78
511.99	19037.92
512.17	18944.30
512.34	18836.63
512.51	19234.52
512.69	19054.30
512.86	19211.12
513.04	19484.96
513.21	19552.84
513.38	19442.83
513.56	19332.82
513.73	19489.64
513.90	19154.94
514.08	19489.64
514.25	19702.63
514.43	19723.69
514.60	19704.97
514.77	19793.91
514.95	19934.34
515.12	19889.87
515.29	19630.07
515.47	20039.67
515.64	20187.12
515.81	20051.37
515.99	20451.60
516.16	20477.35
516.33	19974.13
516.51	20418.83
516.68	20023.28
516.85	20212.87
517.03	20573.31
517.20	20198.82
517.37	20519.48
517.54	20475.01
517.72	20601.40
517.89	20381.38
518.06	20739.49
518.24	20470.33
518.41	20950.14
518.58	20680.97
518.75	20769.91
518.93	20938.43
519.10	21050.78
519.27	21097.59
519.45	21062.48
519.62	21003.97
519.79	20676.29
519.96	21275.47
520.14	21006.31
520.31	21132.70
520.48	21333.98
520.65	21287.17
520.83	21532.93
521.00	21350.37
521.17	21589.10
521.34	21434.63
521.52	21462.71
521.69	21818.47
521.86	21397.18
522.03	21734.21
522.20	22092.32
522.38	21921.46
522.55	21706.13
522.72	21589.10
522.89	21783.37
523.07	22291.26
523.24	22122.74
523.41	22122.74
523.58	21654.64
523.75	22490.21
523.92	21968.27
524.10	21954.22
524.27	22246.79
524.44	22363.82
524.61	22567.45
524.78	22515.95
524.96	22581.49
525.13	22391.91
525.30	22572.13
525.47	22010.40
525.64	22656.39
525.81	22778.09
525.98	22618.94
526.16	22728.94
526.33	22478.50
526.50	22977.04
526.67	22721.92
526.84	22621.28
527.01	22815.54
527.18	22586.17
527.36	22899.80
527.53	23300.03
527.70	23454.51
527.87	23206.41
528.04	23316.42
528.21	23154.92
528.38	22944.27
528.55	23381.95
528.72	23267.27
528.89	23410.04
529.07	23225.14
529.24	23157.26
529.41	23482.59
529.58	23660.48
529.75	23592.60
529.92	23318.76
530.09	23510.68
530.26	23594.94
530.43	23470.89
530.60	23606.64
530.77	23812.61
530.94	23873.46
531.11	23728.35
531.28	23744.73
531.46	23573.88
531.63	23711.97
531.80	23964.75
531.97	24151.99
532.14	23941.34
532.31	23957.72
532.48	24189.44
532.65	24018.58
532.82	24126.24
532.99	23992.83
533.16	23953.04
533.33	24467.96
533.50	24517.11
533.67	24280.72
533.84	24290.08
534.01	24175.39
534.18	24575.62
534.35	24833.08
534.52	24170.71
534.69	24826.06
534.86	24500.73
535.03	24737.12
535.20	24711.38
535.37	24467.96
535.54	24531.15
535.71	24301.78
535.88	24793.29
536.05	24819.04
536.22	24774.57
536.38	24760.53
536.55	24758.19
536.72	24786.27
536.89	25041.39
537.06	25015.65
537.23	24847.13
537.40	24788.61
537.57	24936.07
537.74	25025.01
537.91	25441.62
538.08	24938.41
538.25	25277.79
538.42	25106.93
538.59	25132.67
538.75	25212.25
538.92	25392.47
539.09	25455.67
539.26	25617.16
539.43	25668.66
539.60	25724.83
539.77	25404.17
539.94	25514.18
540.11	25378.43
540.28	25806.75
540.44	25933.14
540.61	25788.02
540.78	25378.43
540.95	25907.39
541.12	25619.50
541.29	25986.97
541.46	25874.62
541.62	25621.84
541.79	25582.06
541.96	25635.89
542.13	25944.84
542.30	25876.96
542.47	26106.34
542.63	26167.19
542.80	26239.75
542.97	26199.96
543.14	26546.36
543.31	26466.78
543.48	26501.89
543.64	26654.02
543.81	26019.74
543.98	26321.66
544.15	26485.50
544.32	26431.67
544.48	26656.36
544.65	26714.87
544.82	26548.70
544.99	26249.11
545.16	26665.72
545.32	26246.77
545.49	26632.96
545.66	26911.48
545.83	26974.67
546.00	26764.03
546.16	26768.71
546.33	26396.56
546.50	26705.51
546.67	26810.84
546.83	26415.29
547.00	26892.76
547.17	26881.05
547.34	27187.66
547.50	26874.03
547.67	27040.21
547.84	26838.92
548.00	27262.56
548.17	27285.97
548.34	27225.11
548.51	27030.85
548.67	27454.48
548.84	27594.92
549.01	27122.13
549.18	27075.32
549.34	27136.17
549.51	27358.52
549.68	27133.83
549.84	27072.98
550.01	27470.87
550.18	27524.70
550.34	27461.51
550.51	27381.93
550.68	27559.81
550.84	27417.04
551.01	27395.97
551.18	27215.75
551.34	27147.87
551.51	27445.12
551.68	27302.35
551.84	27784.50
552.01	27672.15
552.18	27597.26
552.34	27651.09
552.51	28074.73
552.68	27391.29
552.84	27889.82
553.01	27894.50
553.18	27887.48
553.34	27999.83
553.51	27821.95
553.67	27597.26
553.84	27864.08
554.01	27936.63
554.17	28137.92
554.34	27960.04
554.51	27838.33
554.67	28067.70
554.84	28116.86
555.00	28507.72
555.17	27789.18
555.33	28196.43
555.50	28201.11
555.67	28486.66
555.83	28276.01
556.00	28088.77
556.16	28236.22
556.33	28079.41
556.50	28041.96
556.66	28428.15
556.83	28027.92
556.99	28657.52
557.16	28519.43
557.32	28432.83
557.49	28547.51
557.65	28025.57
557.82	28355.59
557.98	28030.26
558.15	28091.11
558.32	28308.78
558.48	28348.57
558.65	28428.15
558.81	28811.99
558.98	28755.82
559.14	28610.71
559.31	28709.01
559.47	28652.84
559.64	28479.64
559.80	28828.38
559.97	28650.50
560.13	28353.25
560.30	28610.71
560.46	28938.38
560.63	28411.76
560.79	28830.72
560.96	28711.35
561.12	28582.62
561.29	28938.38
561.45	28603.69
561.61	28491.34
561.78	29001.58
561.94	28903.28
562.11	28889.23
562.27	28481.98
562.44	28898.59
562.60	28685.61
562.77	28830.72
562.93	28662.20
563.10	28584.96
563.26	28786.25
563.42	29493.09
563.59	28975.83
563.75	29043.71
563.92	29036.69
564.08	29008.60
564.24	29200.52
564.41	29029.66
564.57	28730.08
564.74	29493.09
564.90	28889.23
565.07	29296.49
565.23	29085.84
565.39	28795.61
565.56	29427.56
565.72	29355.00
565.88	29142.01
566.05	29001.58
566.21	28903.28
566.38	29027.32
566.54	29371.38
566.70	29413.51
566.87	29095.20
567.03	29226.27
567.19	29465.00
567.36	29525.86
567.52	29589.05
567.68	29397.13
567.85	29043.71
568.01	29350.32
568.17	29165.42
568.34	29392.45
568.50	29476.71
568.66	29237.97
568.83	29640.54
568.99	29261.38
569.15	29617.14
569.32	29111.58
569.48	29053.07
569.64	29289.46
569.81	29362.02
569.97	29422.87
570.13	29422.87
570.30	29551.60
570.46	29766.93
570.62	29418.19
570.78	29226.27
570.95	29212.23
571.11	29284.78
571.27	29240.31
571.43	29172.44
571.60	29202.86
571.76	29268.40
571.92	29738.85
572.09	29373.72
572.25	29780.98
572.41	29418.19
572.57	29584.37
572.74	29624.16
572.90	29453.30
573.06	29362.02
573.22	29443.94
573.38	29575.01
573.55	28933.70
573.71	29614.80
573.87	29769.27
574.03	29706.08
574.20	29352.66
574.36	29427.56
574.52	29230.95
574.68	29640.54
574.84	29441.60
575.01	29589.05
575.17	29525.86
575.33	29633.52
575.49	29647.57
575.65	29961.20
575.82	29783.32
575.98	29776.30
576.14	29872.26
576.30	29862.90
576.46	29645.23
576.62	29776.30
576.79	29682.67
576.95	29603.10
577.11	29563.31
577.27	30256.11
577.43	29469.69
577.59	29993.97
577.75	29357.34
577.92	29216.91
578.08	29734.17
578.24	29916.73
578.40	29823.11
578.56	29839.49
578.72	30113.33
578.88	30171.85
579.04	29834.81
579.21	29846.51
579.37	30024.39
579.53	29984.60
579.69	29364.36
579.85	29883.96
580.01	29818.42
580.17	29460.32
580.33	29516.50
580.49	29703.74
580.65	29818.42
580.82	29614.80
580.98	29972.90
581.14	29654.59
581.30	29642.88
581.46	29453.30
581.62	29759.91
581.78	29675.65
581.94	29755.23
582.10	29722.46
582.26	29460.32
582.42	29450.96
582.58	30059.50
582.74	29790.34
582.90	29902.68
583.06	29881.62
583.22	30047.80
583.38	29797.36
583.54	29645.23
583.70	29926.09
583.86	29954.18
584.02	29333.93
584.18	29963.54
584.34	30066.52
584.50	30139.08
584.66	30052.48
584.82	29415.85
584.98	29954.18
585.14	29792.68
585.30	29411.17
585.46	29675.65
585.62	29722.46
585.78	29771.61
585.94	29750.55
586.10	30101.63
586.26	30040.78
586.42	30150.78
586.58	29841.83
586.74	29766.93
586.90	29881.62
587.06	29963.54
587.22	29933.11
587.38	29661.61
587.54	29998.65
587.70	29947.15
587.86	30064.18
588.02	29958.86
588.18	30066.52
588.34	30134.40
588.49	30148.44
588.65	29853.53
588.81	29930.77
588.97	30045.46
589.13	29898.00
589.29	29855.87
589.45	30176.53
589.61	29867.58
589.77	30494.84
589.93	30185.89
590.08	30305.26
590.24	30321.64
590.40	30162.48
590.56	29809.06
590.72	30143.76
590.88	30232.70
591.04	30228.02
591.20	30529.95
591.35	30122.69
591.51	30565.06
591.67	30518.25
591.83	30338.02
591.99	30153.12
