SpectraSuite Data File
++++++++++++++++++++++++++++++++++++
Date: Fri Oct 18 13:58:22 GMT-05:00 2013
User: bianchi
Dark Spectrum Present: No
Reference Spectrum Present: No
Number of Sampled Component Spectra: 1
Spectrometers: USB2+H05261
Integration Time (usec): 50000 (USB2+H05261)
Spectra Averaged: 1 (USB2+H05261)
Boxcar Smoothing: 0 (USB2+H05261)
Correct for Electrical Dark: No (USB2+H05261)
Strobe/Lamp Enabled: No (USB2+H05261)
Correct for Detector Non-linearity: No (USB2+H05261)
Correct for Stray Light: No (USB2+H05261)
Number of Pixels in Processed Spectrum: 2048
>>>>>Begin Processed Spectral Data<<<<<
365.73	0.00
365.92	0.00
366.12	0.00
366.32	0.00
366.52	0.00
366.72	0.00
366.91	0.00
367.11	0.00
367.31	0.00
367.51	0.00
367.70	0.00
367.90	0.00
368.10	0.00
368.30	0.00
368.49	0.00
368.69	0.00
368.89	0.00
369.09	0.00
369.28	0.00
369.48	0.00
369.68	0.00
369.87	0.00
370.07	0.00
370.27	0.00
370.47	0.00
370.66	77.24
370.86	142.77
371.06	177.88
371.25	156.82
371.45	86.60
371.65	126.39
371.84	166.18
372.04	205.97
372.24	189.58
372.44	147.45
372.63	180.22
372.83	224.69
373.03	245.76
373.22	276.18
373.42	170.86
373.62	189.58
373.81	203.63
374.01	210.65
374.21	224.69
374.40	224.69
374.60	180.22
374.79	273.84
374.99	285.55
375.19	262.14
375.38	177.88
375.58	287.89
375.78	248.10
375.97	248.10
376.17	285.55
376.37	315.97
376.56	234.05
376.76	266.82
376.95	276.18
377.15	327.68
377.35	241.08
377.54	273.84
377.74	236.39
377.93	276.18
378.13	304.27
378.33	306.61
378.52	212.99
378.72	351.08
378.91	217.67
379.11	273.84
379.31	266.82
379.50	250.44
379.70	248.10
379.89	290.23
380.09	227.03
380.28	283.20
380.48	339.38
380.68	299.59
380.87	318.31
381.07	301.93
381.26	325.33
381.46	292.57
381.65	278.52
381.85	330.02
382.04	306.61
382.24	301.93
382.43	325.33
382.63	393.21
382.83	365.12
383.02	407.25
383.22	400.23
383.41	369.80
383.61	393.21
383.80	320.65
384.00	351.08
384.19	346.40
384.39	358.10
384.58	397.89
384.78	355.76
384.97	395.55
385.17	311.29
385.36	376.83
385.56	353.42
385.75	339.38
385.95	325.33
386.14	362.78
386.34	400.23
386.53	351.08
386.72	402.57
386.92	332.36
387.11	440.02
387.31	409.59
387.50	444.70
387.70	470.45
387.89	425.98
388.09	386.19
388.28	388.53
388.48	418.96
388.67	479.81
388.86	372.15
389.06	290.23
389.25	449.38
389.45	423.64
389.64	379.17
389.84	456.40
390.03	463.43
390.22	444.70
390.42	458.74
390.61	582.79
390.81	535.98
391.00	507.90
391.19	547.69
391.39	503.22
391.58	566.41
391.78	519.60
391.97	486.83
392.16	531.30
392.36	517.26
392.55	667.05
392.75	589.82
392.94	575.77
393.13	540.66
393.33	582.79
393.52	582.79
393.71	608.54
393.91	587.47
394.10	547.69
394.29	552.37
394.49	512.58
394.68	629.60
394.88	533.64
395.07	629.60
395.26	493.85
395.46	671.73
395.65	624.92
395.84	552.37
396.04	725.57
396.23	664.71
396.42	655.35
396.62	636.63
396.81	606.20
397.00	620.24
397.19	653.01
397.39	634.29
397.58	662.37
397.77	699.82
397.97	662.37
398.16	645.99
398.35	702.16
398.55	699.82
398.74	716.20
398.93	727.91
399.12	674.07
399.32	734.93
399.51	683.44
399.70	688.12
399.90	727.91
400.09	779.40
400.28	802.80
400.47	816.85
400.67	840.25
400.86	774.72
401.05	807.48
401.24	807.48
401.44	812.17
401.63	866.00
401.82	741.95
402.01	791.10
402.21	889.40
402.40	805.14
402.59	882.38
402.78	800.46
402.97	767.70
403.17	809.83
403.36	856.64
403.55	842.59
403.74	877.70
403.93	828.55
404.13	940.90
404.32	868.34
404.51	971.32
404.70	954.94
404.89	938.55
405.09	877.70
405.28	943.24
405.47	922.17
405.66	877.70
405.85	992.39
406.05	973.66
406.24	908.13
406.43	1039.20
406.62	1121.12
406.81	1025.15
407.00	1018.13
407.20	1004.09
407.39	1022.81
407.58	1069.62
407.77	1064.94
407.96	1153.88
408.15	1128.14
408.34	1057.92
408.54	1039.20
408.73	1069.62
408.92	1071.97
409.11	1214.74
409.30	1156.22
409.49	1207.72
409.68	1128.14
409.87	1177.29
410.07	1090.69
410.26	1268.57
410.45	1121.12
410.64	1245.16
410.83	1317.72
411.02	1158.57
411.21	1284.95
411.40	1205.38
411.59	1282.61
411.78	1165.59
411.98	1235.80
412.17	1181.97
412.36	1275.59
412.55	1364.53
412.74	1345.81
412.93	1352.83
413.12	1291.98
413.31	1348.15
413.50	1460.49
413.69	1329.42
413.88	1416.02
414.07	1472.20
414.26	1521.35
414.45	1486.24
414.64	1425.39
414.83	1526.03
415.02	1565.82
415.22	1504.96
415.41	1514.33
415.60	1636.03
415.79	1596.25
415.98	1598.59
416.17	1668.80
416.36	1544.75
416.55	1549.43
416.74	1643.06
416.93	1610.29
417.12	1708.59
417.31	1650.08
417.50	1680.50
417.69	1673.48
417.88	1727.32
418.07	1668.80
418.26	1729.66
418.45	1823.28
418.64	1748.38
418.83	1701.57
419.02	1806.89
419.21	1837.32
419.39	1764.76
419.58	1827.96
419.77	1956.69
419.96	1919.24
420.15	1781.15
420.34	1886.47
420.53	1823.28
420.72	2005.84
420.91	1799.87
421.10	2059.67
421.29	1989.46
421.48	1879.45
421.67	1860.73
421.86	1877.11
422.05	1933.28
422.24	2047.97
422.43	1956.69
422.61	2015.20
422.80	1935.62
422.99	1966.05
423.18	2010.52
423.37	2003.50
423.56	1952.01
423.75	1954.35
423.94	2064.35
424.13	1816.26
424.32	1942.64
424.50	1996.48
424.69	2092.44
424.88	2038.61
425.07	1994.14
425.26	1989.46
425.45	2003.50
425.64	2022.22
425.83	1991.80
426.01	2062.01
426.20	2015.20
426.39	2050.31
426.58	2087.76
426.77	2040.95
426.96	2148.61
427.15	2071.37
427.33	2218.83
427.52	2036.27
427.71	2148.61
427.90	2108.82
428.09	2150.95
428.28	2150.95
428.46	2092.44
428.65	2197.76
428.84	2279.68
429.03	2167.34
429.22	2108.82
429.40	2200.10
429.59	2347.56
429.78	2157.97
429.97	2167.34
430.16	2256.28
430.34	2359.26
430.53	2396.71
430.72	2228.19
430.91	2300.75
431.10	2307.77
431.28	2321.81
431.47	2471.61
431.66	2333.51
431.85	2298.41
432.03	2399.05
432.22	2558.21
432.41	2377.98
432.60	2413.09
432.79	2420.11
432.97	2480.97
433.16	2450.54
433.35	2476.29
433.54	2452.88
433.72	2537.14
433.91	2457.56
434.10	2612.04
434.28	2649.49
434.47	2495.01
434.66	2581.61
434.85	2513.74
435.03	2546.50
435.22	2530.12
435.41	2647.15
435.59	2750.13
435.78	2715.02
435.97	2820.35
436.16	2616.72
436.34	2651.83
436.53	2562.89
436.72	2773.53
436.90	2719.70
437.09	2768.85
437.28	2677.57
437.46	2698.64
437.65	2801.62
437.84	2768.85
438.02	2796.94
438.21	2771.19
438.40	2738.43
438.58	2841.41
438.77	2942.05
438.96	2841.41
439.14	2998.23
439.33	2965.46
439.52	3019.29
439.70	3007.59
439.89	2970.14
440.08	3080.14
440.26	3157.38
440.45	3047.38
440.63	3033.33
440.82	3059.08
441.01	2998.23
441.19	3171.43
441.38	3070.78
441.57	3138.66
441.75	3370.37
441.94	3405.48
442.12	3194.83
442.31	3417.18
442.50	3194.83
442.68	3286.11
442.87	3482.72
443.05	3293.13
443.24	3468.67
443.43	3258.03
443.61	3403.14
443.80	3456.97
443.98	3253.34
444.17	3232.28
444.35	3297.81
444.54	3431.23
444.73	3482.72
444.91	3447.61
445.10	3407.82
445.28	3419.52
445.47	3499.10
445.65	3499.10
445.84	3398.46
446.02	3391.44
446.21	3393.78
446.39	3412.50
446.58	3452.29
446.77	3468.67
446.95	3480.38
447.14	3424.20
447.32	3541.23
447.51	3447.61
447.69	3398.46
447.88	3574.00
448.06	3510.80
448.25	3510.80
448.43	3503.78
448.62	3548.25
448.80	3550.59
448.99	3627.83
449.17	3719.11
449.36	3538.89
449.54	3667.62
449.73	3705.07
449.91	3681.66
450.10	3555.27
450.28	3770.60
450.46	3702.73
450.65	3707.41
450.83	3815.07
451.02	3716.77
451.20	3716.77
451.39	3826.78
451.57	3829.12
451.76	3777.62
451.94	3829.12
452.13	3864.22
452.31	3831.46
452.49	3737.84
452.68	3868.91
452.86	3845.50
453.05	3871.25
453.23	3976.57
453.42	3777.62
453.60	3850.18
453.78	3772.94
453.97	4004.66
454.15	3756.56
454.34	3873.59
454.52	3885.29
454.70	4021.04
454.89	3985.93
455.07	3985.93
455.26	4032.74
455.44	4107.64
455.62	4159.13
455.81	4177.86
455.99	4308.93
456.17	4189.56
456.36	4196.58
456.54	4163.81
456.73	4245.73
456.91	4372.12
457.09	4191.90
457.28	4456.38
457.46	4248.07
457.64	4395.53
457.83	4358.08
458.01	4135.73
458.19	4259.78
458.38	4372.12
458.56	4531.28
458.74	4388.50
458.93	4379.14
459.11	4458.72
459.29	4404.89
459.48	4414.25
459.66	4571.07
459.84	4561.70
460.03	4507.87
460.21	4456.38
460.39	4603.83
460.57	4631.92
460.76	4374.46
460.94	4781.71
461.12	4671.71
461.31	4610.86
461.49	4643.62
461.67	4575.75
461.85	4725.54
462.04	4753.63
462.22	4699.80
462.40	4774.69
462.59	4753.63
462.77	4830.87
462.95	4854.27
463.13	4688.09
463.32	4840.23
463.50	4793.42
463.68	4950.23
463.86	4865.97
464.05	4896.40
464.23	4875.34
464.41	4961.94
464.59	4716.18
464.78	5142.16
464.96	4819.16
465.14	4915.12
465.32	4933.85
465.50	4973.64
465.69	4992.36
465.87	4978.32
466.05	4933.85
466.23	4814.48
466.41	5013.43
466.60	5172.58
466.78	5144.50
466.96	4952.57
467.14	5144.50
467.32	5107.05
467.51	5118.75
467.69	4891.72
467.87	5074.28
468.05	5217.05
468.23	5135.14
468.41	5043.85
468.60	5369.19
468.78	5380.89
468.96	5270.89
469.14	5315.36
469.32	5212.37
469.50	5128.11
469.69	5343.44
469.87	5441.75
470.05	5301.31
470.23	5533.03
470.41	5336.42
470.59	5465.15
470.77	5401.96
470.95	5504.94
471.14	5542.39
471.32	5343.44
471.50	5617.29
471.68	5771.76
471.86	5568.13
472.04	5598.56
472.22	5767.08
472.40	5544.73
472.58	5586.86
472.77	5661.76
472.95	5874.74
473.13	6012.84
473.31	5757.72
473.49	5736.65
473.67	5806.87
473.85	6010.50
474.03	5888.79
474.21	5975.39
474.39	6118.16
474.57	6223.48
474.75	6033.90
474.93	6186.04
475.12	6260.93
475.30	6246.89
475.48	6244.55
475.66	6211.78
475.84	6242.21
476.02	6384.98
476.20	6291.36
476.38	6389.66
476.56	6612.01
476.74	6415.41
476.92	6565.20
477.10	6565.20
477.28	6626.06
477.46	6616.69
477.64	6740.74
477.82	6766.49
478.00	6949.05
478.18	7075.44
478.36	6803.94
478.54	7000.54
478.72	7103.53
478.90	7197.15
479.08	7215.87
479.26	7091.82
479.44	7421.84
479.62	7307.15
479.80	7573.97
479.98	7475.67
480.16	7548.23
480.34	7543.55
480.52	7529.50
480.70	7456.95
480.88	7634.83
481.06	7508.44
481.24	7569.29
481.41	7644.19
481.59	7878.24
481.77	8109.96
481.95	7824.41
482.13	8109.96
482.31	8091.23
482.49	8362.73
482.67	8180.17
482.85	8449.33
483.03	8510.19
483.21	8643.60
483.39	8521.89
483.57	8557.00
483.74	8533.59
483.92	8760.63
484.10	8709.13
484.28	9032.13
484.46	8997.02
484.64	9139.79
484.82	9123.41
485.00	9235.75
485.18	9233.41
485.35	9413.63
485.53	9479.17
485.71	9528.32
485.89	9514.28
486.07	9745.99
486.25	9713.22
486.43	9617.26
486.61	9654.71
486.78	9951.96
486.96	9785.78
487.14	10054.94
487.32	10157.92
487.50	10197.71
487.68	10258.57
487.85	10230.48
488.03	10473.90
488.21	10525.39
488.39	10518.37
488.57	10555.82
488.75	10780.51
488.92	11044.99
489.10	11035.63
489.28	11110.52
489.46	11082.44
489.64	11073.07
489.81	11204.14
489.99	11494.37
490.17	11239.25
490.35	11272.02
490.53	11534.16
490.70	11524.80
490.88	11580.97
491.06	11857.15
491.24	11599.70
491.41	11932.05
491.59	11868.86
491.77	11903.96
491.95	11988.22
492.13	12098.23
492.30	12051.42
492.48	12292.49
492.66	12435.27
492.84	12294.83
493.01	12561.66
493.19	12407.18
493.37	12966.57
493.54	12744.22
493.72	12706.77
493.90	13015.72
494.08	12943.16
494.25	12959.55
494.43	12975.93
494.61	13390.20
494.79	13282.54
494.96	13429.99
495.14	13261.48
495.32	13373.82
495.49	13755.33
495.67	13614.90
495.85	13830.23
496.02	13963.64
496.20	13645.32
496.38	13762.35
496.55	13748.31
496.73	14211.73
496.91	14143.86
497.09	14349.82
497.26	14455.15
497.44	14366.21
497.62	14396.64
497.79	14607.28
497.97	14551.11
498.14	14813.25
498.32	14677.50
498.50	14869.42
498.67	14902.19
498.85	14867.08
499.03	14848.36
499.20	14904.53
499.38	15061.35
499.56	15396.04
499.73	15377.32
499.91	15386.68
500.08	15410.09
500.26	15243.91
500.44	15393.70
500.61	15597.33
500.79	15349.23
500.97	15737.76
501.14	15985.86
501.32	15597.33
501.49	15679.25
501.67	15679.25
501.84	15953.09
502.02	16032.67
502.20	16170.76
502.37	16032.67
502.55	16147.36
502.72	16435.24
502.90	16269.06
503.07	16224.59
503.25	16402.47
503.43	16233.96
503.60	16526.52
503.78	16568.65
503.95	16875.26
504.13	16510.14
504.30	16613.12
504.48	16273.74
504.65	16776.96
504.83	16872.92
505.01	17071.87
505.18	17088.25
505.36	16982.93
505.53	16774.62
505.71	17020.38
505.88	17226.34
506.06	16940.80
506.23	17270.81
506.41	17504.87
506.58	17465.08
506.76	17422.95
506.93	17425.29
507.11	17305.92
507.28	17607.85
507.46	17458.06
507.63	17736.58
507.81	17661.68
507.98	17806.80
508.16	17813.82
508.33	17944.89
508.50	17937.87
508.68	17832.54
508.85	17970.63
509.03	18115.75
509.20	18132.13
509.38	18125.11
509.55	18565.13
509.73	18338.10
509.90	18389.59
510.08	18333.42
510.25	18195.32
510.42	18473.85
510.60	18457.46
510.77	18717.26
510.95	19229.84
511.12	18733.65
511.30	18586.19
511.47	18637.69
511.64	19133.88
511.82	18745.35
511.99	18916.21
512.17	19068.34
512.34	19054.30
512.51	19005.15
512.69	19293.04
512.86	19328.14
513.04	19569.22
513.21	19257.93
513.38	19360.91
513.56	19639.44
513.73	19351.55
513.90	19620.71
514.08	19339.85
514.25	19557.52
514.43	19941.36
514.60	19824.34
514.77	19620.71
514.95	19976.47
515.12	19520.07
515.29	19833.70
515.47	19971.79
515.64	19749.44
515.81	20070.09
515.99	20428.20
516.16	20308.83
516.33	19943.70
516.51	20243.29
516.68	20121.59
516.85	20166.06
517.03	20170.74
517.20	20666.93
517.37	20688.00
517.54	20599.05
517.72	20592.03
517.89	20620.12
518.06	20695.02
518.24	20526.50
518.41	20577.99
518.58	20882.26
518.75	20922.05
518.93	21167.80
519.10	20781.62
519.27	21263.77
519.45	20662.25
519.62	20908.01
519.79	21085.89
519.96	20985.24
520.14	21387.82
520.31	20971.20
520.48	21048.44
520.65	21069.50
520.83	21331.64
521.00	21638.25
521.17	21600.80
521.34	21820.81
521.52	21675.70
521.69	21558.67
521.86	21872.31
522.03	21933.16
522.20	21921.46
522.38	21586.76
522.55	22169.55
522.72	21703.79
522.89	21846.56
523.07	22026.78
523.24	21804.43
523.41	22398.93
523.58	21762.30
523.75	22349.78
523.92	21916.78
524.10	22412.97
524.27	22054.87
524.44	21944.86
524.61	22401.27
524.78	22813.20
524.96	22373.18
525.13	22335.73
525.30	22300.62
525.47	22405.95
525.64	22604.89
525.81	22530.00
525.98	22434.03
526.16	22745.33
526.33	22611.92
526.50	23035.55
526.67	22583.83
526.84	22630.64
527.01	22810.86
527.18	23152.58
527.36	23187.69
527.53	23115.13
527.70	23534.09
527.87	23318.76
528.04	23260.24
528.21	23283.65
528.38	22993.42
528.55	23026.19
528.72	23323.44
528.89	23707.29
529.07	23112.79
529.24	23276.63
529.41	23129.17
529.58	23461.53
529.75	23309.40
529.92	23819.63
530.09	23447.49
530.26	23892.19
530.43	23688.56
530.60	23506.00
530.77	23983.47
530.94	23878.15
531.11	23573.88
531.28	23454.51
531.46	23824.31
531.63	23756.44
531.80	23908.57
531.97	23957.72
532.14	23927.30
532.31	24049.00
532.48	23915.59
532.65	24304.12
532.82	23960.06
532.99	24285.40
533.16	24060.71
533.33	24229.23
533.50	24528.81
533.67	24535.84
533.84	24041.98
534.01	24257.31
534.18	24060.71
534.35	24566.26
534.52	24334.55
534.69	24617.75
534.86	24556.90
535.03	24594.35
535.20	24470.30
535.37	24472.64
535.54	24856.49
535.71	24800.32
535.88	24664.57
536.05	24793.29
536.22	24702.01
536.38	24994.58
536.55	25202.89
536.72	25146.72
536.89	25376.09
537.06	24945.43
537.23	25259.06
537.40	25238.00
537.57	25064.80
537.74	25186.50
537.91	25298.85
538.08	25221.61
538.25	25177.14
538.42	25312.89
538.59	25249.70
538.75	24957.13
538.92	25205.23
539.09	25289.49
539.26	25158.42
539.43	25455.67
539.60	25579.71
539.77	25642.91
539.94	25453.33
540.11	25766.96
540.28	25837.17
540.44	25722.49
540.61	25364.39
540.78	25427.58
540.95	25551.63
541.12	25858.24
541.29	25935.48
541.46	25680.36
541.62	25879.30
541.79	25727.17
541.96	25582.06
542.13	25832.49
542.30	26246.77
542.47	26125.06
542.63	26089.95
542.80	26122.72
542.97	26010.37
543.14	26235.06
543.31	25989.31
543.48	26120.38
543.64	26700.83
543.81	26485.50
543.98	26672.74
544.15	26221.02
544.32	26593.17
544.48	27002.76
544.65	26256.13
544.82	26132.08
544.99	26139.10
545.16	26319.32
545.32	26792.11
545.49	26764.03
545.66	27133.83
545.83	26754.66
546.00	26759.34
546.16	26436.35
546.33	26497.20
546.50	26604.87
546.67	26630.62
546.83	26370.82
547.00	26923.18
547.17	26754.66
547.34	26822.54
547.50	26876.37
547.67	27318.73
547.84	27290.65
548.00	26995.74
548.17	27065.96
548.34	26801.47
548.51	27461.51
548.67	27145.53
548.84	27447.46
549.01	27475.55
549.18	27311.71
549.34	27115.11
549.51	27023.83
549.68	27428.74
549.84	27276.60
550.01	27087.02
550.18	27140.85
550.34	27688.54
550.51	27187.66
550.68	27936.63
550.84	27213.41
551.01	27674.49
551.18	27454.48
551.34	27459.16
551.51	27271.92
551.68	27655.77
551.84	27707.26
552.01	27793.86
552.18	27747.05
552.34	27407.67
552.51	28056.00
552.68	27737.69
552.84	27910.89
553.01	27936.63
553.18	27718.96
553.34	28128.56
553.51	27557.47
553.67	27992.81
553.84	28233.88
554.01	27995.15
554.17	27985.79
554.34	27960.04
554.51	27913.23
554.67	27754.07
554.84	27847.69
555.00	28128.56
555.17	28116.86
555.33	27852.38
555.50	27775.14
555.67	28474.96
555.83	28313.46
556.00	27803.22
556.16	28439.85
556.33	28264.31
556.50	27854.72
556.66	28797.95
556.83	28074.73
556.99	28315.80
557.16	28676.24
557.32	28606.03
557.49	28716.03
557.65	28194.09
557.82	28393.04
557.98	28278.35
558.15	28151.96
558.32	28453.89
558.48	28044.30
558.65	28627.09
558.81	28603.69
558.98	28706.67
559.14	28491.34
559.31	28556.88
559.47	28622.41
559.64	28643.48
559.80	28559.22
559.97	28390.70
560.13	28748.80
560.30	28755.82
560.46	28893.91
560.63	28701.99
560.79	28985.19
560.96	28900.94
561.12	28907.96
561.29	28531.13
561.45	28826.04
561.61	28692.63
561.78	28734.76
561.94	28996.90
562.11	29001.58
562.27	29237.97
562.44	28589.64
562.60	28615.39
562.77	29076.48
562.93	28617.73
563.10	29074.13
563.26	28896.25
563.42	29076.48
563.59	29085.84
563.75	28781.57
563.92	29074.13
564.08	28924.34
564.24	28680.92
564.41	28781.57
564.57	28959.45
564.74	29165.42
564.90	29434.58
565.07	29069.45
565.23	29212.23
565.39	28858.81
565.56	29329.25
565.72	29034.35
565.88	29102.22
566.05	29179.46
566.21	28701.99
566.38	29261.38
566.54	29324.57
566.70	29259.04
566.87	29450.96
567.03	29413.51
567.19	29408.83
567.36	29984.60
567.52	29422.87
567.68	29600.76
567.85	29053.07
568.01	29137.33
568.17	29275.42
568.34	29560.97
568.50	29362.02
568.66	29446.28
568.83	29371.38
568.99	29558.63
569.15	29308.19
569.32	29240.31
569.48	29347.98
569.64	29390.11
569.81	29462.66
569.97	29322.23
570.13	29209.89
570.30	29022.64
570.46	29551.60
570.62	29549.26
570.78	29153.71
570.95	29378.40
571.11	29406.49
571.27	29017.96
571.43	29127.97
571.60	29504.79
571.76	29387.77
571.92	29322.23
572.09	29635.86
572.25	29565.65
572.41	29467.34
572.57	29589.05
572.74	29560.97
572.90	29579.69
573.06	29214.57
573.22	29586.71
573.38	29575.01
573.55	29607.78
573.71	29273.08
573.87	29518.84
574.03	29584.37
574.20	29825.45
574.36	29535.22
574.52	29757.57
574.68	29392.45
574.84	29612.46
575.01	29865.24
575.17	29762.25
575.33	29390.11
575.49	29757.57
575.65	29610.12
575.82	29647.57
575.98	29724.80
576.14	29956.52
576.30	29528.20
576.46	29617.14
576.62	29663.95
576.79	29888.64
576.95	29680.33
577.11	29720.12
577.27	29701.40
577.43	29888.64
577.59	29998.65
577.75	29532.88
577.92	29450.96
578.08	29722.46
578.24	29558.63
578.40	29874.60
578.56	29954.18
578.72	29720.12
578.88	29909.71
579.04	29940.13
579.21	29682.67
579.37	29710.76
579.53	30094.61
579.69	29743.53
579.85	29701.40
580.01	29656.93
580.17	29883.96
580.33	29825.45
580.49	29596.07
580.65	29694.38
580.82	29986.94
580.98	29954.18
581.14	30108.65
581.30	29921.41
581.46	29715.44
581.62	29420.53
581.78	29848.85
581.94	30061.84
582.10	29975.24
582.26	29933.11
582.42	29715.44
582.58	29600.76
582.74	29717.78
582.90	30036.09
583.06	30085.25
583.22	29731.83
583.38	29694.38
583.54	29914.39
583.70	30080.56
583.86	29933.11
584.02	29816.08
584.18	30242.06
584.34	29986.94
584.50	29961.20
584.66	30185.89
584.82	30401.22
584.98	29743.53
585.14	29677.99
585.30	29820.77
585.46	29635.86
585.62	29757.57
585.78	30244.40
585.94	29652.25
586.10	29907.37
586.26	30073.54
586.42	30054.82
586.58	29944.81
586.74	29764.59
586.90	29647.57
587.06	29628.84
587.22	29956.52
587.38	29961.20
587.54	29998.65
587.70	30103.97
587.86	29886.30
588.02	30162.48
588.18	30209.29
588.34	30417.60
588.49	30232.70
588.65	30089.93
588.81	30195.25
588.97	30272.49
589.13	29652.25
589.29	30139.08
589.45	30199.93
589.61	30213.98
589.77	30136.74
589.93	30398.88
590.08	30249.08
590.24	30256.11
590.40	30572.08
590.56	30300.58
590.72	30136.74
590.88	29954.18
591.04	30239.72
591.20	30354.41
591.35	30213.98
591.51	30726.55
591.67	30223.34
591.83	30398.88
591.99	30094.61
