SpectraSuite Data File
++++++++++++++++++++++++++++++++++++
Date: Fri Oct 18 13:58:24 GMT-05:00 2013
User: bianchi
Dark Spectrum Present: No
Reference Spectrum Present: No
Number of Sampled Component Spectra: 1
Spectrometers: USB2+H05261
Integration Time (usec): 50000 (USB2+H05261)
Spectra Averaged: 1 (USB2+H05261)
Boxcar Smoothing: 0 (USB2+H05261)
Correct for Electrical Dark: No (USB2+H05261)
Strobe/Lamp Enabled: No (USB2+H05261)
Correct for Detector Non-linearity: No (USB2+H05261)
Correct for Stray Light: No (USB2+H05261)
Number of Pixels in Processed Spectrum: 2048
>>>>>Begin Processed Spectral Data<<<<<
365.73	0.00
365.92	0.00
366.12	0.00
366.32	0.00
366.52	0.00
366.72	0.00
366.91	0.00
367.11	0.00
367.31	0.00
367.51	0.00
367.70	0.00
367.90	0.00
368.10	0.00
368.30	0.00
368.49	0.00
368.69	0.00
368.89	0.00
369.09	0.00
369.28	0.00
369.48	0.00
369.68	0.00
369.87	0.00
370.07	0.00
370.27	0.00
370.47	0.00
370.66	56.17
370.86	147.45
371.06	70.22
371.25	121.71
371.45	184.90
371.65	177.88
371.84	124.05
372.04	21.06
372.24	236.39
372.44	215.33
372.63	170.86
372.83	166.18
373.03	187.24
373.22	173.20
373.42	208.31
373.62	203.63
373.81	241.08
374.01	255.12
374.21	245.76
374.40	175.54
374.60	262.14
374.79	203.63
374.99	320.65
375.19	236.39
375.38	248.10
375.58	229.37
375.78	227.03
375.97	297.25
376.17	215.33
376.37	243.42
376.56	229.37
376.76	290.23
376.95	255.12
377.15	271.50
377.35	259.80
377.54	285.55
377.74	194.26
377.93	173.20
378.13	238.73
378.33	301.93
378.52	322.99
378.72	294.91
378.91	379.17
379.11	262.14
379.31	217.67
379.50	236.39
379.70	294.91
379.89	306.61
380.09	334.70
380.28	250.44
380.48	280.86
380.68	227.03
380.87	273.84
381.07	358.10
381.26	339.38
381.46	290.23
381.65	395.55
381.85	327.68
382.04	297.25
382.24	367.46
382.43	299.59
382.63	243.42
382.83	390.87
383.02	360.44
383.22	407.25
383.41	435.34
383.61	360.44
383.80	456.40
384.00	369.80
384.19	376.83
384.39	330.02
384.58	355.76
384.78	400.23
384.97	358.10
385.17	360.44
385.36	285.55
385.56	344.06
385.75	311.29
385.95	376.83
386.14	430.66
386.34	414.27
386.53	351.08
386.72	341.72
386.92	393.21
387.11	425.98
387.31	458.74
387.50	388.53
387.70	390.87
387.89	395.55
388.09	374.49
388.28	407.25
388.48	505.56
388.67	458.74
388.86	470.45
389.06	493.85
389.25	444.70
389.45	521.94
389.64	491.51
389.84	479.81
390.03	444.70
390.22	533.64
390.42	444.70
390.61	479.81
390.81	470.45
391.00	514.92
391.19	477.47
391.39	472.79
391.58	470.45
391.78	482.15
391.97	468.11
392.16	543.00
392.36	486.83
392.55	538.32
392.75	500.87
392.94	564.07
393.13	603.86
393.33	475.13
393.52	564.07
393.71	645.99
393.91	578.11
394.10	503.22
394.29	636.63
394.49	521.94
394.68	610.88
394.88	603.86
395.07	498.53
395.26	580.45
395.46	573.43
395.65	507.90
395.84	589.82
396.04	587.47
396.23	610.88
396.42	589.82
396.62	664.71
396.81	760.67
397.00	596.84
397.19	660.03
397.39	667.05
397.58	660.03
397.77	568.75
397.97	664.71
398.16	655.35
398.35	732.59
398.55	662.37
398.74	723.23
398.93	765.36
399.12	763.01
399.32	699.82
399.51	685.78
399.70	713.86
399.90	697.48
400.09	772.38
400.28	795.78
400.47	791.10
400.67	847.27
400.86	763.01
401.05	706.84
401.24	741.95
401.44	830.89
401.63	788.76
401.82	826.21
402.01	732.59
402.21	800.46
402.40	903.45
402.59	882.38
402.78	826.21
402.97	828.55
403.17	894.08
403.36	826.21
403.55	891.74
403.74	898.77
403.93	915.15
404.13	931.53
404.32	858.98
404.51	922.17
404.70	880.04
404.89	875.36
405.09	971.32
405.28	943.24
405.47	957.28
405.66	922.17
405.85	1015.79
406.05	1018.13
406.24	1032.18
406.43	966.64
406.62	997.07
406.81	1114.10
407.00	992.39
407.20	1048.56
407.39	1025.15
407.58	1100.05
407.77	1015.79
407.96	1128.14
408.15	1069.62
408.34	1116.44
408.54	1074.31
408.73	1137.50
408.92	1020.47
409.11	1139.84
409.30	1086.01
409.49	1158.57
409.68	1057.92
409.87	1163.25
410.07	1107.07
410.26	1167.93
410.45	1181.97
410.64	1191.33
410.83	1172.61
411.02	1181.97
411.21	1233.46
411.40	1224.10
411.59	1291.98
411.78	1198.35
411.98	1188.99
412.17	1188.99
412.36	1270.91
412.55	1308.36
412.74	1406.66
412.93	1341.13
413.12	1380.92
413.31	1371.55
413.50	1385.60
413.69	1380.92
413.88	1556.46
414.07	1467.52
414.26	1444.11
414.45	1380.92
414.64	1469.86
414.83	1511.99
415.02	1497.94
415.22	1516.67
415.41	1643.06
415.60	1519.01
415.79	1584.54
415.98	1605.61
416.17	1685.19
416.36	1554.12
416.55	1788.17
416.74	1640.72
416.93	1568.16
417.12	1542.41
417.31	1682.85
417.50	1774.13
417.69	1797.53
417.88	1769.44
418.07	1696.89
418.26	1748.38
418.45	1629.01
418.64	1790.51
418.83	1717.95
419.02	1781.15
419.21	1851.36
419.39	1853.70
419.58	1746.04
419.77	1879.45
419.96	1834.98
420.15	1881.79
420.34	1863.07
420.53	1947.33
420.72	1884.13
420.91	1799.87
421.10	1912.22
421.29	1884.13
421.48	1839.66
421.67	2015.20
421.86	1795.19
422.05	1891.15
422.24	1989.46
422.43	1867.75
422.61	1933.28
422.80	1994.14
422.99	2071.37
423.18	2022.22
423.37	1982.43
423.56	1921.58
423.75	2078.40
423.94	2015.20
424.13	1888.81
424.32	1881.79
424.50	2092.44
424.69	2071.37
424.88	2003.50
425.07	2038.61
425.26	1872.43
425.45	1942.64
425.64	2010.52
425.83	1947.33
426.01	1987.11
426.20	2054.99
426.39	2003.50
426.58	2052.65
426.77	2083.08
426.96	2064.35
427.15	2078.40
427.33	2132.23
427.52	2104.14
427.71	2211.81
427.90	2188.40
428.09	2134.57
428.28	2064.35
428.46	2284.36
428.65	2193.08
428.84	2258.62
429.03	2300.75
429.22	2260.96
429.40	2338.20
429.59	2389.69
429.78	2157.97
429.97	2139.25
430.16	2193.08
430.34	2338.20
430.53	2260.96
430.72	2260.96
430.91	2235.21
431.10	2275.00
431.28	2396.71
431.47	2368.62
431.66	2448.20
431.85	2438.84
432.03	2473.95
432.22	2480.97
432.41	2408.41
432.60	2469.27
432.79	2499.69
432.97	2347.56
433.16	2518.42
433.35	2387.35
433.54	2490.33
433.72	2434.16
433.91	2513.74
434.10	2490.33
434.28	2473.95
434.47	2541.82
434.66	2457.56
434.85	2616.72
435.03	2619.06
435.22	2452.88
435.41	2726.72
435.59	2569.91
435.78	2691.62
435.97	2572.25
436.16	2560.55
436.34	2698.64
436.53	2736.09
436.72	2832.05
436.90	2518.42
437.09	2764.17
437.28	2689.28
437.46	2668.21
437.65	2703.32
437.84	2860.13
438.02	2661.19
438.21	2736.09
438.40	2803.96
438.58	2801.62
438.77	2864.82
438.96	2843.75
439.14	2960.78
439.33	2862.48
439.52	2857.79
439.70	2935.03
439.89	2979.50
440.08	2958.44
440.26	2986.52
440.45	3059.08
440.63	3096.53
440.82	3126.96
441.01	3014.61
441.19	3141.00
441.38	3180.79
441.57	3145.68
441.75	3049.72
441.94	3119.93
442.12	3164.40
442.31	3330.58
442.50	3246.32
442.68	3286.11
442.87	3368.03
443.05	3276.75
443.24	3368.03
443.43	3316.54
443.61	3368.03
443.80	3480.38
443.98	3351.65
444.17	3183.13
444.35	3323.56
444.54	3421.86
444.73	3342.28
444.91	3332.92
445.10	3342.28
445.28	3337.60
445.47	3293.13
445.65	3377.39
445.84	3410.16
446.02	3410.16
446.21	3375.05
446.39	3426.54
446.58	3482.72
446.77	3391.44
446.95	3466.33
447.14	3499.10
447.32	3410.16
447.51	3510.80
447.69	3435.91
447.88	3459.31
448.06	3534.21
448.25	3524.85
448.43	3648.90
448.62	3503.78
448.80	3426.54
448.99	3653.58
449.17	3557.61
449.36	3564.64
449.54	3651.24
449.73	3749.54
449.91	3700.39
450.10	3707.41
450.28	3833.80
450.46	3735.50
450.65	3749.54
450.83	3786.99
451.02	3772.94
451.20	3875.93
451.39	3698.05
451.57	3819.75
451.76	3667.62
451.94	3735.50
452.13	3929.76
452.31	3768.26
452.49	3772.94
452.68	3850.18
452.86	3817.41
453.05	3976.57
453.23	3857.20
453.42	3808.05
453.60	3904.01
453.78	3845.50
453.97	3950.82
454.15	3929.76
454.34	3861.88
454.52	4016.36
454.70	4039.76
454.89	4009.34
455.07	4016.36
455.26	3960.19
455.44	3995.29
455.62	3985.93
455.81	4081.89
455.99	4102.96
456.17	4252.75
456.36	4173.18
456.54	4079.55
456.73	4276.16
456.91	4231.69
457.09	4278.50
457.28	4341.69
457.46	4404.89
457.64	4329.99
457.83	4440.00
458.01	4280.84
458.19	4297.22
458.38	4367.44
458.56	4407.23
458.74	4507.87
458.93	4395.53
459.11	4348.72
459.29	4390.84
459.48	4421.27
459.66	4540.64
459.84	4489.15
460.03	4479.79
460.21	4540.64
460.39	4524.26
460.57	4461.06
460.76	4559.36
460.94	4655.33
461.12	4629.58
461.31	4559.36
461.49	4561.70
461.67	4571.07
461.85	4734.90
462.04	4561.70
462.22	4828.53
462.40	4683.41
462.59	4713.84
462.77	4697.46
462.95	4676.39
463.13	4823.84
463.32	4737.24
463.50	4765.33
463.68	4793.42
463.86	4837.89
464.05	4648.30
464.23	4676.39
464.41	4908.10
464.59	4718.52
464.78	4854.27
464.96	4973.64
465.14	4919.81
465.32	4877.68
465.50	4922.15
465.69	4961.94
465.87	4919.81
466.05	4868.31
466.23	4978.32
466.41	4985.34
466.60	5055.56
466.78	4997.04
466.96	4875.34
467.14	5029.81
467.32	5025.13
467.51	5203.01
467.69	5029.81
467.87	5046.20
468.05	5018.11
468.23	5062.58
468.41	5097.69
468.60	5158.54
468.78	5210.03
468.96	5228.76
469.14	5298.97
469.32	5327.06
469.50	5188.97
469.69	5528.35
469.87	5348.12
470.05	5451.11
470.23	5296.63
470.41	5380.89
470.59	5362.17
470.77	5212.37
470.95	5448.77
471.14	5636.01
471.32	5427.70
471.50	5935.60
471.68	5556.43
471.86	5631.33
472.04	5640.69
472.22	5612.60
472.40	5575.16
472.58	5804.53
472.77	5760.06
472.95	5877.09
473.13	5879.43
473.31	5692.18
473.49	5863.04
473.67	5940.28
473.85	6015.18
474.03	6038.58
474.21	6003.47
474.39	6005.81
474.57	6104.12
474.75	5902.83
474.93	6108.80
475.12	6012.84
475.30	6099.44
475.48	6076.03
475.66	6146.25
475.84	6359.24
476.02	6546.48
476.20	6445.84
476.38	6324.13
476.56	6565.20
476.74	6427.11
476.92	6457.54
477.10	6630.74
477.28	6525.41
477.46	6572.22
477.64	6478.60
477.82	6874.15
478.00	6904.58
478.18	6913.94
478.36	6895.22
478.54	7035.65
478.72	6918.62
478.90	7047.35
479.08	7122.25
479.26	7155.02
479.44	7124.59
479.62	7241.62
479.80	7566.95
479.98	7398.43
480.16	7545.89
480.34	7393.75
480.52	7314.17
480.70	7613.76
480.88	7524.82
481.06	7616.10
481.24	7751.85
481.41	7651.21
481.59	7868.88
481.77	7967.18
481.95	8133.36
482.13	8039.74
482.31	8147.40
482.49	8332.31
482.67	8095.91
482.85	8348.69
483.03	8400.18
483.21	8376.78
483.39	8603.81
483.57	8463.38
483.74	8599.13
483.92	8645.94
484.10	8549.98
484.28	8762.97
484.46	9083.62
484.64	8945.53
484.82	9006.38
485.00	9163.20
485.18	9125.75
485.35	9254.48
485.53	9296.61
485.71	9247.46
485.89	9486.19
486.07	9338.74
486.25	9481.51
486.43	9778.76
486.61	9418.32
486.78	9750.67
486.96	9872.38
487.14	10052.60
487.32	10073.67
487.50	10052.60
487.68	9980.04
487.85	10340.49
488.03	10401.34
488.21	10237.50
488.39	10682.20
488.57	10441.13
488.75	10637.73
488.92	10764.12
489.10	10724.33
489.28	10897.53
489.46	10967.75
489.64	11077.76
489.81	11253.30
489.99	11190.10
490.17	11304.79
490.35	11506.07
490.53	11363.30
490.70	11578.63
490.88	11508.41
491.06	11646.51
491.24	11857.15
491.41	11866.52
491.59	11943.75
491.77	11880.56
491.95	11978.86
492.13	11906.31
492.30	12163.76
492.48	12283.13
492.66	12341.64
492.84	12009.29
493.01	12372.07
493.19	12315.90
493.37	12725.49
493.54	12615.49
493.72	12868.27
493.90	12641.23
494.08	12795.71
494.25	13015.72
494.43	13039.12
494.61	13275.52
494.79	13312.97
494.96	13006.36
495.14	13446.38
495.32	13455.74
495.49	13614.90
495.67	13525.96
495.85	13884.06
496.02	13738.94
496.20	13556.38
496.38	13895.76
496.55	13968.32
496.73	14136.84
496.91	13994.06
497.09	14078.32
497.26	14209.39
497.44	14143.86
497.62	14331.10
497.79	14249.18
497.97	14354.51
498.14	14567.49
498.32	14824.95
498.50	14747.72
498.67	15082.41
498.85	14565.15
499.03	14796.87
499.20	15002.83
499.38	14878.79
499.56	15101.14
499.73	15154.97
499.91	15269.66
500.08	15215.82
500.26	15393.70
500.44	15281.36
500.61	15470.94
500.79	15154.97
500.97	15424.13
501.14	15697.97
501.32	15583.29
501.49	15592.65
501.67	15543.50
501.84	15709.68
502.02	15763.51
502.20	15981.18
502.37	15866.49
502.55	16046.71
502.72	16130.97
502.90	16121.61
503.07	15592.65
503.25	16105.23
503.43	16210.55
503.60	16521.84
503.78	16439.92
503.95	16449.28
504.13	16636.53
504.30	16542.91
504.48	16505.46
504.65	16765.26
504.83	16968.88
505.01	16816.75
505.18	16753.55
505.36	17191.23
505.53	17128.04
505.71	16901.01
505.88	17036.76
506.06	17167.83
506.23	17521.25
506.41	17097.61
506.58	17277.83
506.76	17336.35
506.93	17509.55
507.11	17177.19
507.28	17362.09
507.46	17628.92
507.63	17352.73
507.81	17703.81
507.98	17619.55
508.16	17724.88
508.33	17680.41
508.50	17799.77
508.68	17745.94
508.85	17806.80
509.03	18047.87
509.20	18155.54
509.38	18438.74
509.55	18171.92
509.73	18160.22
509.90	18082.98
510.08	18122.77
510.25	18370.86
510.42	18258.52
510.60	18483.21
510.77	18476.19
510.95	18560.45
511.12	18314.69
511.30	18405.97
511.47	18398.95
511.64	18824.93
511.82	18853.02
511.99	18822.59
512.17	19133.88
512.34	19012.17
512.51	18628.32
512.69	18794.50
512.86	18785.14
513.04	18956.00
513.21	19405.38
513.38	19398.36
513.56	19360.91
513.73	19482.62
513.90	19440.49
514.08	19384.32
514.25	19510.71
514.43	19496.66
514.60	19625.39
514.77	19744.76
514.95	19786.89
515.12	19435.81
515.29	19517.73
515.47	19927.32
515.64	20063.07
515.81	19995.20
515.99	20006.90
516.16	20034.99
516.33	20166.06
516.51	20189.46
516.68	20191.80
516.85	20105.20
517.03	20301.81
517.20	20100.52
517.37	20568.63
517.54	20606.08
517.72	20336.91
517.89	20350.96
518.06	20320.53
518.24	20664.59
518.41	20453.94
518.58	20507.77
518.75	20582.67
518.93	20812.04
519.10	20503.09
519.27	21022.69
519.45	20617.78
519.62	20723.10
519.79	20606.08
519.96	20912.69
520.14	21083.55
520.31	20760.55
520.48	21181.85
520.65	20985.24
520.83	21425.26
521.00	21088.23
521.17	21078.86
521.34	21216.96
521.52	21298.88
521.69	21350.37
521.86	21605.49
522.03	21490.80
522.20	21394.84
522.38	21591.44
522.55	21905.07
522.72	21521.23
522.89	21984.65
523.07	22008.06
523.24	21872.31
523.41	21886.35
523.58	21949.54
523.75	21876.99
523.92	22026.78
524.10	22043.17
524.27	22134.45
524.44	22335.73
524.61	22160.19
524.78	22356.80
524.96	22326.37
525.13	22237.43
525.30	22333.39
525.47	22522.98
525.64	22555.74
525.81	22253.81
525.98	22569.79
526.16	22370.84
526.33	22597.87
526.50	23042.57
526.67	22396.59
526.84	22649.36
527.01	22621.28
527.18	22661.07
527.36	22934.91
527.53	22934.91
527.70	23234.50
527.87	23271.95
528.04	23159.60
528.21	22916.19
528.38	23262.58
528.55	23241.52
528.72	22951.29
528.89	23061.30
529.07	23482.59
529.24	23304.71
529.41	23580.90
529.58	23433.44
529.75	23246.20
529.92	23616.01
530.09	23222.80
530.26	23260.24
530.43	23391.31
530.60	23379.61
530.77	23906.23
530.94	23765.80
531.11	23426.42
531.28	23445.15
531.46	23716.65
531.63	23864.10
531.80	23620.69
531.97	23796.23
532.14	23814.95
532.31	23686.22
532.48	24121.56
532.65	23941.34
532.82	23810.27
532.99	23749.42
533.16	23735.37
533.33	24112.20
533.50	24453.92
533.67	24259.65
533.84	24395.40
534.01	23974.11
534.18	24023.26
534.35	24147.31
534.52	24140.29
534.69	24577.97
534.86	24606.05
535.03	24376.68
535.20	24276.04
535.37	24563.92
535.54	24650.52
535.71	24170.71
535.88	24858.83
536.05	24533.50
536.22	24709.04
536.38	24734.78
536.55	24514.77
536.72	24868.19
536.89	24421.15
537.06	24931.39
537.23	24900.96
537.40	25006.28
537.57	24753.51
537.74	24783.93
537.91	25294.17
538.08	25144.38
538.25	25130.33
538.42	24854.15
538.59	25179.48
538.75	25132.67
538.92	25118.63
539.09	25233.32
539.26	24903.30
539.43	25053.09
539.60	25340.98
539.77	25317.57
539.94	25596.10
540.11	25022.67
540.28	25378.43
540.44	25312.89
540.61	25291.83
540.78	25511.84
540.95	25661.63
541.12	25291.83
541.29	25516.52
541.46	25373.75
541.62	25575.03
541.79	25479.07
541.96	25542.27
542.13	25570.35
542.30	25202.89
542.47	25514.18
542.63	25848.88
542.80	25811.43
542.97	26235.06
543.14	26228.04
543.31	25834.83
543.48	25979.95
543.64	26370.82
543.81	25937.82
543.98	26279.54
544.15	25713.13
544.32	26363.79
544.48	26551.04
544.65	26024.42
544.82	26295.92
544.99	25958.88
545.16	26270.17
545.32	26115.70
545.49	26609.55
545.66	26192.94
545.83	26698.49
546.00	26579.12
546.16	26785.09
546.33	26176.55
546.50	26096.97
546.67	26705.51
546.83	26242.09
547.00	26499.55
547.17	26546.36
547.34	26780.41
547.50	26977.01
547.67	27103.40
547.84	26913.82
548.00	27019.14
548.17	26892.76
548.34	27112.77
548.51	26988.72
548.67	27197.02
548.84	26934.88
549.01	27094.04
549.18	26731.26
549.34	26703.17
549.51	27030.85
549.68	27150.21
549.84	27026.17
550.01	27166.60
550.18	27234.47
550.34	27391.29
550.51	27365.54
550.68	27246.18
550.84	27208.73
551.01	27150.21
551.18	27166.60
551.34	27084.68
551.51	27283.62
551.68	27529.38
551.84	27374.91
552.01	27318.73
552.18	27402.99
552.34	27255.54
552.51	27658.11
552.68	27772.80
552.84	27653.43
553.01	27597.26
553.18	27388.95
553.34	27976.42
553.51	27859.40
553.67	27758.75
553.84	27920.25
554.01	27662.79
554.17	27906.21
554.34	27756.41
554.51	27744.71
554.67	27606.62
554.84	27557.47
555.00	28074.73
555.17	27468.53
555.33	27833.65
555.50	27896.85
555.67	27913.23
555.83	28175.37
556.00	28156.64
556.16	27915.57
556.33	28119.20
556.50	27913.23
556.66	28343.89
556.83	28135.58
556.99	28498.36
557.16	28313.46
557.32	28500.70
557.49	27934.29
557.65	28280.69
557.82	28018.55
557.98	28016.21
558.15	28388.36
558.32	28364.95
558.48	28250.27
558.65	28610.71
558.81	28285.37
558.98	28236.22
559.14	28332.18
559.31	28376.66
559.47	28051.32
559.64	28336.87
559.80	28467.94
559.97	28570.92
560.13	28507.72
560.30	28388.36
560.46	28615.39
560.63	28606.03
560.79	28364.95
560.96	28493.68
561.12	28423.47
561.29	28474.96
561.45	28266.65
561.61	28591.98
561.78	28428.15
561.94	28765.18
562.11	28615.39
562.27	28503.04
562.44	28861.15
562.60	28758.16
562.77	28552.20
562.93	28671.56
563.10	28938.38
563.26	28744.12
563.42	29252.02
563.59	28442.19
563.75	28903.28
563.92	28652.84
564.08	28720.71
564.24	28840.08
564.41	28896.25
564.57	28900.94
564.74	28753.48
564.90	29237.97
565.07	29090.52
565.23	29053.07
565.39	28980.51
565.56	28985.19
565.72	28704.33
565.88	28947.75
566.05	28800.29
566.21	28924.34
566.38	29050.73
566.54	28861.15
566.70	29219.25
566.87	29528.20
567.03	28999.24
567.19	29331.59
567.36	28936.04
567.52	29055.41
567.68	28936.04
567.85	28996.90
568.01	29053.07
568.17	29039.03
568.34	29333.93
568.50	29205.20
568.66	29055.41
568.83	29298.83
568.99	28982.85
569.15	29247.33
569.32	28826.04
569.48	29125.63
569.64	29027.32
569.81	29001.58
569.97	29230.95
570.13	29252.02
570.30	29226.27
570.46	29226.27
570.62	29200.52
570.78	29118.60
570.95	29076.48
571.11	29254.36
571.27	29411.17
571.43	28872.85
571.60	29462.66
571.76	29193.50
571.92	29312.87
572.09	29097.54
572.25	29467.34
572.41	29385.43
572.57	29186.48
572.74	29486.07
572.90	29277.76
573.06	28980.51
573.22	29385.43
573.38	29371.38
573.55	29085.84
573.71	29457.98
573.87	29493.09
574.03	29546.92
574.20	29378.40
574.36	29455.64
574.52	29443.94
574.68	29184.14
574.84	29020.30
575.01	29502.45
575.17	29099.88
575.33	29308.19
575.49	29177.12
575.65	29591.39
575.82	29635.86
575.98	29193.50
576.14	29460.32
576.30	29661.61
576.46	29699.06
576.62	29699.06
576.79	29813.74
576.95	29226.27
577.11	29544.58
577.27	29502.45
577.43	29336.27
577.59	29212.23
577.75	29284.78
577.92	29441.60
578.08	29415.85
578.24	29160.73
578.40	29479.05
578.56	29537.56
578.72	29266.06
578.88	29935.45
579.04	29806.72
579.21	29584.37
579.37	29816.08
579.53	29844.17
579.69	29399.47
579.85	29392.45
580.01	29446.28
580.17	29373.72
580.33	29532.88
580.49	29359.68
580.65	29476.71
580.82	29797.36
580.98	29579.69
581.14	29769.27
581.30	30066.52
581.46	29577.35
581.62	29537.56
581.78	29355.00
581.94	29682.67
582.10	29362.02
582.26	29223.93
582.42	29649.91
582.58	29347.98
582.74	29455.64
582.90	29572.67
583.06	29912.05
583.22	29680.33
583.38	29752.89
583.54	29640.54
583.70	29521.18
583.86	29343.30
584.02	29748.21
584.18	29724.80
584.34	29986.94
584.50	29572.67
584.66	29759.91
584.82	29296.49
584.98	29535.22
585.14	29305.85
585.30	29385.43
585.46	29638.20
585.62	29273.08
585.78	29530.54
585.94	29434.58
586.10	29858.21
586.26	29844.17
586.42	29670.97
586.58	29689.70
586.74	29621.82
586.90	29656.93
587.06	29575.01
587.22	29598.41
587.38	29432.24
587.54	29659.27
587.70	30185.89
587.86	29628.84
588.02	30511.22
588.18	29722.46
588.34	29776.30
588.49	29675.65
588.65	29656.93
588.81	29640.54
588.97	29598.41
589.13	29649.91
589.29	29841.83
589.45	30190.57
589.61	29914.39
589.77	29930.77
589.93	30052.48
590.08	30087.59
590.24	29879.28
590.40	29963.54
590.56	29837.15
590.72	29858.21
590.88	29675.65
591.04	29788.00
591.20	30054.82
591.35	30045.46
591.51	30342.70
591.67	30146.10
591.83	30373.13
591.99	30195.25
