SpectraSuite Data File
++++++++++++++++++++++++++++++++++++
Date: Fri Oct 18 13:58:29 GMT-05:00 2013
User: bianchi
Dark Spectrum Present: No
Reference Spectrum Present: No
Number of Sampled Component Spectra: 1
Spectrometers: USB2+H05261
Integration Time (usec): 50000 (USB2+H05261)
Spectra Averaged: 1 (USB2+H05261)
Boxcar Smoothing: 0 (USB2+H05261)
Correct for Electrical Dark: No (USB2+H05261)
Strobe/Lamp Enabled: No (USB2+H05261)
Correct for Detector Non-linearity: No (USB2+H05261)
Correct for Stray Light: No (USB2+H05261)
Number of Pixels in Processed Spectrum: 2048
>>>>>Begin Processed Spectral Data<<<<<
365.73	0.00
365.92	0.00
366.12	0.00
366.32	0.00
366.52	0.00
366.72	0.00
366.91	0.00
367.11	0.00
367.31	0.00
367.51	0.00
367.70	0.00
367.90	0.00
368.10	0.00
368.30	0.00
368.49	0.00
368.69	0.00
368.89	0.00
369.09	0.00
369.28	0.00
369.48	0.00
369.68	0.00
369.87	0.00
370.07	0.00
370.27	0.00
370.47	0.00
370.66	86.60
370.86	16.38
371.06	133.41
371.25	163.84
371.45	117.03
371.65	180.22
371.84	177.88
372.04	93.62
372.24	177.88
372.44	131.07
372.63	236.39
372.83	180.22
373.03	154.48
373.22	149.79
373.42	175.54
373.62	205.97
373.81	224.69
374.01	177.88
374.21	208.31
374.40	191.92
374.60	283.20
374.79	285.55
374.99	217.67
375.19	231.71
375.38	234.05
375.58	283.20
375.78	224.69
375.97	203.63
376.17	285.55
376.37	283.20
376.56	222.35
376.76	189.58
376.95	220.01
377.15	308.95
377.35	283.20
377.54	259.80
377.74	287.89
377.93	311.29
378.13	236.39
378.33	292.57
378.52	271.50
378.72	266.82
378.91	257.46
379.11	287.89
379.31	339.38
379.50	262.14
379.70	262.14
379.89	262.14
380.09	191.92
380.28	325.33
380.48	297.25
380.68	369.80
380.87	266.82
381.07	318.31
381.26	273.84
381.46	311.29
381.65	348.74
381.85	330.02
382.04	292.57
382.24	285.55
382.43	355.76
382.63	306.61
382.83	334.70
383.02	442.36
383.22	341.72
383.41	344.06
383.61	351.08
383.80	325.33
384.00	369.80
384.19	376.83
384.39	355.76
384.58	313.63
384.78	344.06
384.97	353.42
385.17	334.70
385.36	372.15
385.56	374.49
385.75	386.19
385.95	355.76
386.14	397.89
386.34	447.04
386.53	369.80
386.72	367.46
386.92	388.53
387.11	409.59
387.31	376.83
387.50	486.83
387.70	437.68
387.89	362.78
388.09	437.68
388.28	442.36
388.48	465.77
388.67	468.11
388.86	414.27
389.06	435.34
389.25	535.98
389.45	425.98
389.64	475.13
389.84	465.77
390.03	472.79
390.22	484.49
390.42	451.72
390.61	482.15
390.81	456.40
391.00	538.32
391.19	451.72
391.39	543.00
391.58	435.34
391.78	470.45
391.97	468.11
392.16	606.20
392.36	554.71
392.55	552.37
392.75	545.34
392.94	573.43
393.13	486.83
393.33	528.96
393.52	554.71
393.71	603.86
393.91	587.47
394.10	503.22
394.29	615.56
394.49	535.98
394.68	538.32
394.88	573.43
395.07	620.24
395.26	629.60
395.46	615.56
395.65	622.58
395.84	582.79
396.04	538.32
396.23	688.12
396.42	585.13
396.62	657.69
396.81	587.47
397.00	624.92
397.19	610.88
397.39	636.63
397.58	690.46
397.77	662.37
397.97	678.76
398.16	636.63
398.35	725.57
398.55	622.58
398.74	725.57
398.93	713.86
399.12	758.33
399.32	678.76
399.51	744.29
399.70	737.27
399.90	704.50
400.09	772.38
400.28	800.46
400.47	737.27
400.67	772.38
400.86	716.20
401.05	842.59
401.24	858.98
401.44	828.55
401.63	767.70
401.82	713.86
402.01	763.01
402.21	746.63
402.40	744.29
402.59	912.81
402.78	807.48
402.97	875.36
403.17	828.55
403.36	795.78
403.55	919.83
403.74	903.45
403.93	823.87
404.13	919.83
404.32	840.25
404.51	912.81
404.70	940.90
404.89	1004.09
405.09	959.62
405.28	936.21
405.47	997.07
405.66	987.71
405.85	957.28
406.05	898.77
406.24	983.02
406.43	919.83
406.62	957.28
406.81	1086.01
407.00	973.66
407.20	954.94
407.39	1025.15
407.58	961.96
407.77	1015.79
407.96	1006.43
408.15	1022.81
408.34	1081.33
408.54	1025.15
408.73	1090.69
408.92	1057.92
409.11	1027.50
409.30	1020.47
409.49	1172.61
409.68	1095.37
409.87	1167.93
410.07	1128.14
410.26	1160.91
410.45	1198.35
410.64	1163.25
410.83	1268.57
411.02	1221.76
411.21	1249.85
411.40	1343.47
411.59	1221.76
411.78	1294.32
411.98	1249.85
412.17	1263.89
412.36	1287.29
412.55	1317.72
412.74	1174.95
412.93	1315.38
413.12	1345.81
413.31	1380.92
413.50	1394.96
413.69	1324.74
413.88	1465.18
414.07	1427.73
414.26	1448.79
414.45	1476.88
414.64	1341.13
414.83	1404.32
415.02	1600.93
415.22	1469.86
415.41	1528.37
415.60	1624.33
415.79	1423.05
415.98	1575.18
416.17	1591.56
416.36	1593.90
416.55	1603.27
416.74	1685.19
416.93	1589.22
417.12	1687.53
417.31	1743.70
417.50	1682.85
417.69	1715.61
417.88	1675.82
418.07	1750.72
418.26	1776.47
418.45	1650.08
418.64	1706.25
418.83	1818.60
419.02	1818.60
419.21	1769.44
419.39	1846.68
419.58	1762.42
419.77	1736.68
419.96	1760.08
420.15	1783.49
420.34	1886.47
420.53	1902.86
420.72	1846.68
420.91	2019.88
421.10	1975.41
421.29	1933.28
421.48	1919.24
421.67	1902.86
421.86	1947.33
422.05	1863.07
422.24	1942.64
422.43	1879.45
422.61	1982.43
422.80	1954.35
422.99	2073.71
423.18	2078.40
423.37	2069.03
423.56	1956.69
423.75	2050.31
423.94	1970.73
424.13	1937.96
424.32	1961.37
424.50	2017.54
424.69	2118.18
424.88	2043.29
425.07	1944.99
425.26	2047.97
425.45	1898.17
425.64	1940.30
425.83	1954.35
426.01	1998.82
426.20	2052.65
426.39	2043.29
426.58	2113.50
426.77	1961.37
426.96	2120.53
427.15	2019.88
427.33	2169.68
427.52	2165.00
427.71	2010.52
427.90	2120.53
428.09	2118.18
428.28	2249.25
428.46	2249.25
428.65	2118.18
428.84	2263.30
429.03	2244.57
429.22	2015.20
429.40	2155.63
429.59	2298.41
429.78	2204.78
429.97	2162.66
430.16	2174.36
430.34	2359.26
430.53	2265.64
430.72	2204.78
430.91	2253.94
431.10	2256.28
431.28	2260.96
431.47	2356.92
431.66	2389.69
431.85	2396.71
432.03	2359.26
432.22	2450.54
432.41	2399.05
432.60	2408.41
432.79	2399.05
432.97	2487.99
433.16	2441.18
433.35	2574.59
433.54	2485.65
433.72	2459.90
433.91	2441.18
434.10	2513.74
434.28	2509.05
434.47	2527.78
434.66	2537.14
434.85	2668.21
435.03	2686.94
435.22	2647.15
435.41	2588.63
435.59	2527.78
435.78	2523.10
435.97	2565.23
436.16	2616.72
436.34	2539.48
436.53	2609.70
436.72	2642.46
436.90	2619.06
437.09	2619.06
437.28	2712.68
437.46	2555.86
437.65	2775.88
437.84	2691.62
438.02	2778.22
438.21	2789.92
438.40	2738.43
438.58	2960.78
438.77	2925.67
438.96	2834.39
439.14	2935.03
439.33	2902.26
439.52	2904.60
439.70	2946.73
439.89	2871.84
440.08	2944.39
440.26	3035.67
440.45	3075.46
440.63	2981.84
440.82	3136.32
441.01	2998.23
441.19	3141.00
441.38	3129.30
441.57	3150.36
441.75	3215.90
441.94	3096.53
442.12	3241.64
442.31	3297.81
442.50	3304.84
442.68	3253.34
442.87	3251.00
443.05	3258.03
443.24	3431.23
443.43	3318.88
443.61	3248.66
443.80	3571.66
443.98	3321.22
444.17	3290.79
444.35	3431.23
444.54	3391.44
444.73	3574.00
444.91	3487.40
445.10	3403.14
445.28	3574.00
445.47	3433.57
445.65	3396.12
445.84	3447.61
446.02	3449.95
446.21	3480.38
446.39	3520.17
446.58	3531.87
446.77	3431.23
446.95	3325.90
447.14	3510.80
447.32	3550.59
447.51	3531.87
447.69	3393.78
447.88	3363.35
448.06	3393.78
448.25	3524.85
448.43	3513.14
448.62	3461.65
448.80	3482.72
448.99	3503.78
449.17	3557.61
449.36	3541.23
449.54	3569.32
449.73	3672.30
449.91	3761.24
450.10	3662.94
450.28	3712.09
450.46	3651.24
450.65	3616.13
450.83	3604.42
451.02	3653.58
451.20	3798.69
451.39	3840.82
451.57	3719.11
451.76	3756.56
451.94	3662.94
452.13	3695.71
452.31	3662.94
452.49	3957.85
452.68	3896.99
452.86	3751.88
453.05	3782.31
453.23	3836.14
453.42	3950.82
453.60	3826.78
453.78	3946.14
453.97	3868.91
454.15	3838.48
454.34	3889.97
454.52	3929.76
454.70	4025.72
454.89	3901.67
455.07	3990.61
455.26	4042.11
455.44	4084.23
455.62	4163.81
455.81	4117.00
455.99	4145.09
456.17	4124.02
456.36	4180.20
456.54	4264.46
456.73	4194.24
456.91	4208.28
457.09	4203.60
457.28	4287.86
457.46	4168.49
457.64	4278.50
457.83	4250.41
458.01	4346.37
458.19	4411.91
458.38	4362.76
458.56	4409.57
458.74	4353.40
458.93	4411.91
459.11	4379.14
459.29	4358.08
459.48	4507.87
459.66	4379.14
459.84	4411.91
460.03	4545.32
460.21	4411.91
460.39	4578.09
460.57	4287.86
460.76	4397.87
460.94	4662.35
461.12	4566.39
461.31	4418.93
461.49	4526.60
461.67	4641.28
461.85	4669.37
462.04	4664.69
462.22	4695.11
462.40	4683.41
462.59	4746.61
462.77	4802.78
462.95	4737.24
463.13	4968.96
463.32	4753.63
463.50	4814.48
463.68	4704.48
463.86	4919.81
464.05	4704.48
464.23	4858.95
464.41	4940.87
464.59	4720.86
464.78	4746.61
464.96	4800.44
465.14	4800.44
465.32	4940.87
465.50	5013.43
465.69	5277.91
465.87	4884.70
466.05	5074.28
466.23	4889.38
466.41	5123.43
466.60	5156.20
466.78	4968.96
466.96	4968.96
467.14	4856.61
467.32	5041.51
467.51	5057.90
467.69	5064.92
467.87	5025.13
468.05	5048.54
468.23	5163.22
468.41	5135.14
468.60	5156.20
468.78	5261.52
468.96	5172.58
469.14	5219.39
469.32	5345.78
469.50	5261.52
469.69	5277.91
469.87	5518.98
470.05	5376.21
470.23	5526.00
470.41	5338.76
470.59	5582.18
470.77	5327.06
470.95	5460.47
471.14	5614.95
471.32	5453.45
471.50	5666.44
471.68	5565.79
471.86	5434.72
472.04	5579.84
472.22	5507.28
472.40	5390.25
472.58	5727.29
472.77	5713.25
472.95	5823.25
473.13	5987.09
473.31	5689.84
473.49	5820.91
473.67	5877.09
473.85	5846.66
474.03	5870.06
474.21	5762.40
474.39	5921.56
474.57	6083.05
474.75	6160.29
474.93	6207.10
475.12	6249.23
475.30	6246.89
475.48	6040.92
475.66	6197.74
475.84	6122.84
476.02	6356.90
476.20	6246.89
476.38	6375.62
476.56	6516.05
476.74	6392.00
476.92	6429.45
477.10	6502.01
477.28	6794.58
477.46	6649.46
477.64	6651.80
477.82	6672.87
478.00	6820.32
478.18	6876.49
478.36	6691.59
478.54	6984.16
478.72	6913.94
478.90	7250.98
479.08	7152.68
479.26	7110.55
479.44	7307.15
479.62	7243.96
479.80	7148.00
479.98	7274.38
480.16	7386.73
480.34	7456.95
480.52	7424.18
480.70	7691.00
480.88	7463.97
481.06	7482.69
481.24	7688.66
481.41	7611.42
481.59	7779.94
481.77	7969.52
481.95	7840.79
482.13	7854.84
482.31	7896.97
482.49	8336.99
482.67	8023.36
482.85	8348.69
483.03	8381.46
483.21	8414.23
483.39	8589.77
483.57	8489.12
483.74	8573.38
483.92	8510.19
484.10	8615.51
484.28	8819.14
484.46	8982.98
484.64	9139.79
484.82	9018.08
485.00	9305.97
485.18	9305.97
485.35	9338.74
485.53	9619.60
485.71	9195.96
485.89	9500.23
486.07	9310.65
486.25	9778.76
486.43	9664.07
486.61	9722.59
486.78	9886.42
486.96	9776.42
487.14	10010.47
487.32	9874.72
487.50	9982.38
487.68	10218.78
487.85	10122.82
488.03	10373.25
488.21	10387.30
488.39	10590.92
488.57	10595.61
488.75	10539.43
488.92	10808.59
489.10	10787.53
489.28	10628.37
489.46	10946.69
489.64	11077.76
489.81	11232.23
489.99	11304.79
490.17	11105.84
490.35	11353.94
490.53	11597.35
490.70	11667.57
490.88	11370.32
491.06	11585.65
491.24	11637.14
491.41	11543.52
491.59	11667.57
491.77	11798.64
491.95	12126.32
492.13	12224.62
492.30	12149.72
492.48	11948.43
492.66	12100.57
492.84	12182.49
493.01	12348.67
493.19	12636.55
493.37	12587.40
493.54	12739.54
493.72	12659.96
493.90	12657.62
494.08	12762.94
494.25	12975.93
494.43	13090.62
494.61	13261.48
494.79	13277.86
494.96	12947.84
495.14	13327.01
495.32	13345.73
495.49	13455.74
495.67	13437.02
495.85	13352.76
496.02	13671.07
496.20	13846.61
496.38	13713.20
496.55	13848.95
496.73	13987.04
496.91	14143.86
497.09	14094.71
497.26	14181.31
497.44	14377.91
497.62	14394.29
497.79	14462.17
497.97	14387.27
498.14	14728.99
498.32	14860.06
498.50	14689.20
498.67	14827.29
498.85	15016.88
499.03	14785.16
499.20	14747.72
499.38	14789.85
499.56	15164.33
499.73	15171.35
499.91	15190.08
500.08	15274.34
500.26	15108.16
500.44	15274.34
500.61	15335.19
500.79	15468.60
500.97	15405.41
501.14	15927.35
501.32	15873.51
501.49	15604.35
501.67	15871.17
501.84	16004.58
502.02	15681.59
502.20	16098.20
502.37	15990.54
502.55	15800.96
502.72	16077.14
502.90	15981.18
503.07	16215.23
503.25	15894.58
503.43	16201.19
503.60	16348.64
503.78	16348.64
503.95	16271.40
504.13	16470.35
504.30	16741.85
504.48	16587.38
504.65	16601.42
504.83	16793.34
505.01	16849.52
505.18	16739.51
505.36	17081.23
505.53	17249.75
505.71	16758.24
505.88	16945.48
506.06	16821.43
506.23	17060.16
506.41	16875.26
506.58	17102.29
506.76	17324.65
506.93	17247.41
507.11	17116.34
507.28	17170.17
507.46	17266.13
507.63	17348.05
507.81	17790.41
507.98	17783.39
508.16	17434.65
508.33	17788.07
508.50	17666.36
508.68	17776.37
508.85	17954.25
509.03	17888.71
509.20	17996.38
509.38	18263.20
509.55	18064.25
509.73	17940.21
509.90	17968.29
510.08	18492.57
510.25	18508.96
510.42	18291.29
510.60	18464.49
510.77	18497.25
510.95	18499.59
511.12	18487.89
511.30	18696.20
511.47	18906.85
511.64	18600.24
511.82	19115.16
511.99	18515.98
512.17	19042.60
512.34	18874.08
512.51	18956.00
512.69	18981.74
512.86	18902.17
513.04	19454.53
513.21	19370.27
513.38	19314.10
513.56	19496.66
513.73	19150.26
513.90	19342.19
514.08	19307.08
514.25	19623.05
514.43	19571.56
514.60	19772.85
514.77	19798.59
514.95	19344.53
515.12	19803.27
515.29	19545.81
515.47	19693.27
515.64	19906.26
515.81	19756.46
515.99	19976.47
516.16	20149.67
516.33	20173.08
516.51	20215.21
516.68	20327.55
516.85	19723.69
517.03	20205.84
517.20	20390.75
517.37	20315.85
517.54	20336.91
517.72	20334.57
517.89	20465.64
518.06	20189.46
518.24	20486.71
518.41	20236.27
518.58	20325.21
518.75	20245.63
518.93	20741.83
519.10	20685.65
519.27	20851.83
519.45	20929.07
519.62	20936.09
519.79	20779.28
519.96	20858.85
520.14	20929.07
520.31	21008.65
520.48	21083.55
520.65	21170.15
520.83	20996.95
521.00	20996.95
521.17	21153.76
521.34	21556.33
521.52	21231.00
521.69	21404.20
521.86	21284.83
522.03	21516.54
522.20	21284.83
522.38	21553.99
522.55	21546.97
522.72	21490.80
522.89	21617.19
523.07	22197.64
523.24	21687.40
523.41	22080.61
523.58	21659.32
523.75	22120.40
523.92	22001.04
524.10	22017.42
524.27	21942.52
524.44	22150.83
524.61	22480.85
524.78	22235.09
524.96	22214.02
525.13	22246.79
525.30	22199.98
525.47	22455.10
525.64	22204.66
525.81	22658.73
525.98	22345.09
526.16	22532.34
526.33	22366.16
526.50	22829.59
526.67	22649.36
526.84	22527.66
527.01	22714.90
527.18	22742.99
527.36	22616.60
527.53	22974.70
527.70	23103.43
527.87	23082.36
528.04	23087.04
528.21	23192.37
528.38	23112.79
528.55	23112.79
528.72	23236.84
528.89	23227.48
529.07	23056.62
529.24	23110.45
529.41	23367.91
529.58	23550.47
529.75	23002.78
529.92	23814.95
530.09	23501.32
530.26	23613.66
530.43	23302.37
530.60	23213.43
530.77	23309.40
530.94	23559.83
531.11	23222.80
531.28	23531.75
531.46	23424.08
531.63	23749.42
531.80	23749.42
531.97	23828.99
532.14	23953.04
532.31	23524.72
532.48	24091.13
532.65	24166.03
532.82	23688.56
532.99	23948.36
533.16	24252.63
533.33	24147.31
533.50	24304.12
533.67	24009.22
533.84	24229.23
534.01	23964.75
534.18	24292.42
534.35	24596.69
534.52	24166.03
534.69	24407.11
534.86	24526.47
535.03	24070.07
535.20	24584.99
535.37	24589.67
535.54	24692.65
535.71	24407.11
535.88	24500.73
536.05	24254.97
536.22	24952.45
536.38	24603.71
536.55	24950.11
536.72	24966.49
536.89	24535.84
537.06	24713.72
537.23	24812.02
537.40	24357.96
537.57	24748.82
537.74	24954.79
537.91	25102.25
538.08	25041.39
538.25	24907.98
538.42	25165.44
538.59	25144.38
538.75	24847.13
538.92	25179.48
539.09	25097.56
539.26	25214.59
539.43	24978.20
539.60	25153.74
539.77	25118.63
539.94	25146.72
540.11	25214.59
540.28	25392.47
540.44	25207.57
540.61	25221.61
540.78	25355.02
540.95	25579.71
541.12	25406.52
541.29	25333.96
541.46	25127.99
541.62	25579.71
541.79	25399.49
541.96	25343.32
542.13	25546.95
542.30	25488.43
542.47	25727.17
542.63	26099.31
542.80	26221.02
542.97	26040.80
543.14	26017.40
543.31	25905.05
543.48	25795.04
543.64	26103.99
543.81	26113.36
543.98	26422.31
544.15	26476.14
544.32	26607.21
544.48	26544.02
544.65	26644.66
544.82	26424.65
544.99	25933.14
545.16	26609.55
545.32	26291.24
545.49	26555.72
545.66	26487.84
545.83	26632.96
546.00	26848.29
546.16	26555.72
546.33	26246.77
546.50	26073.57
546.67	26237.41
546.83	26405.92
547.00	26663.38
547.17	26799.13
547.34	26473.80
547.50	26810.84
547.67	27129.15
547.84	26398.90
548.00	26562.74
548.17	27014.46
548.34	26993.40
548.51	26991.06
548.67	27168.94
548.84	27096.38
549.01	27098.72
549.18	26820.20
549.34	26862.33
549.51	27096.38
549.68	26955.95
549.84	26890.41
550.01	27311.71
550.18	27009.78
550.34	27178.30
550.51	27180.64
550.68	27159.58
550.84	27047.23
551.01	27147.87
551.18	27154.90
551.34	26799.13
551.51	27199.37
551.68	27311.71
551.84	27508.32
552.01	27180.64
552.18	27428.74
552.34	27489.59
552.51	27402.99
552.68	27463.85
552.84	27463.85
553.01	27377.25
553.18	27482.57
553.34	27456.82
553.51	27395.97
553.67	27866.42
553.84	27885.14
554.01	27604.28
554.17	27742.37
554.34	27419.38
554.51	27522.36
554.67	28034.94
554.84	27784.50
555.00	27709.60
555.17	27768.12
555.33	27948.34
555.50	27683.86
555.67	27941.32
555.83	27997.49
556.00	27625.34
556.16	28126.22
556.33	27953.02
556.50	28084.09
556.66	27864.08
556.83	27946.00
556.99	28236.22
557.16	28601.35
557.32	28091.11
557.49	28191.75
557.65	28006.85
557.82	28088.77
557.98	27761.09
558.15	28121.54
558.32	28245.58
558.48	28273.67
558.65	28346.23
558.81	28091.11
558.98	28348.57
559.14	28109.83
559.31	28130.90
559.47	28201.11
559.64	28119.20
559.80	28811.99
559.97	28790.93
560.13	28254.95
560.30	28395.38
560.46	28538.15
560.63	28624.75
560.79	28402.40
560.96	28531.13
561.12	28566.24
561.29	28065.36
561.45	28582.62
561.61	28477.30
561.78	28451.55
561.94	29120.95
562.11	28554.54
562.27	28746.46
562.44	28687.95
562.60	28313.46
562.77	28500.70
562.93	28636.45
563.10	28964.13
563.26	28690.29
563.42	28594.32
563.59	28367.29
563.75	28936.04
563.92	28657.52
564.08	28676.24
564.24	28664.54
564.41	28559.22
564.57	28517.09
564.74	28648.16
564.90	29088.18
565.07	28872.85
565.23	28650.50
565.39	28685.61
565.56	28772.21
565.72	28828.38
565.88	28821.36
566.05	28531.13
566.21	28638.80
566.38	28826.04
566.54	28568.58
566.70	29029.66
566.87	29137.33
567.03	28701.99
567.19	29223.93
567.36	29179.46
567.52	28517.09
567.68	29174.78
567.85	29097.54
568.01	28882.21
568.17	28856.46
568.34	28802.63
568.50	28664.54
568.66	29078.82
568.83	29158.39
568.99	28807.31
569.15	28840.08
569.32	29188.82
569.48	28940.72
569.64	29050.73
569.81	29137.33
569.97	29298.83
570.13	29041.37
570.30	29165.42
570.46	29181.80
570.62	29027.32
570.78	29186.48
570.95	29057.75
571.11	29270.74
571.27	29221.59
571.43	28938.38
571.60	28795.61
571.76	28830.72
571.92	29163.08
572.09	29071.79
572.25	29198.18
572.41	29071.79
572.57	29263.72
572.74	29347.98
572.90	29270.74
573.06	29172.44
573.22	29125.63
573.38	29645.23
573.55	29158.39
573.71	29350.32
573.87	29495.43
574.03	29687.36
574.20	29593.73
574.36	29357.34
574.52	29221.59
574.68	29053.07
574.84	29460.32
575.01	29249.67
575.17	29322.23
575.33	29439.26
575.49	29308.19
575.65	29642.88
575.82	29401.81
575.98	29261.38
576.14	29113.92
576.30	29788.00
576.46	29439.26
576.62	28910.30
576.79	29509.47
576.95	28982.85
577.11	29598.41
577.27	29387.77
577.43	29439.26
577.59	29230.95
577.75	29425.22
577.92	29008.60
578.08	29090.52
578.24	29149.03
578.40	29385.43
578.56	29535.22
578.72	29776.30
578.88	29717.78
579.04	30064.18
579.21	29680.33
579.37	29465.00
579.53	29116.26
579.69	29223.93
579.85	29371.38
580.01	28905.62
580.17	29090.52
580.33	29563.31
580.49	29647.57
580.65	29427.56
580.82	29310.53
580.98	29296.49
581.14	29607.78
581.30	29912.05
581.46	29441.60
581.62	29521.18
581.78	29462.66
581.94	29570.33
582.10	29167.76
582.26	28931.36
582.42	29624.16
582.58	29874.60
582.74	29549.26
582.90	29584.37
583.06	29415.85
583.22	29666.29
583.38	29722.46
583.54	29359.68
583.70	29380.74
583.86	29647.57
584.02	29575.01
584.18	29355.00
584.34	29663.95
584.50	29645.23
584.66	29294.14
584.82	29376.06
584.98	29846.51
585.14	29677.99
585.30	29149.03
585.46	29303.51
585.62	29425.22
585.78	29813.74
585.94	29233.29
586.10	29703.74
586.26	29357.34
586.42	29666.29
586.58	29921.41
586.74	29462.66
586.90	28919.66
587.06	29296.49
587.22	29406.49
587.38	29228.61
587.54	29689.70
587.70	29937.79
587.86	29563.31
588.02	30122.69
588.18	29965.88
588.34	30010.35
588.49	29521.18
588.65	29727.14
588.81	29577.35
588.97	29750.55
589.13	29680.33
589.29	29729.48
589.45	29764.59
589.61	29677.99
589.77	29998.65
589.93	30075.88
590.08	30281.85
590.24	29858.21
590.40	29963.54
590.56	29790.34
590.72	29869.92
590.88	29729.48
591.04	29825.45
591.20	30192.91
591.35	30164.82
591.51	29614.80
591.67	30361.43
591.83	30260.79
591.99	30043.12
