SpectraSuite Data File
++++++++++++++++++++++++++++++++++++
Date: Fri Oct 18 13:58:32 GMT-05:00 2013
User: bianchi
Dark Spectrum Present: No
Reference Spectrum Present: No
Number of Sampled Component Spectra: 1
Spectrometers: USB2+H05261
Integration Time (usec): 50000 (USB2+H05261)
Spectra Averaged: 1 (USB2+H05261)
Boxcar Smoothing: 0 (USB2+H05261)
Correct for Electrical Dark: No (USB2+H05261)
Strobe/Lamp Enabled: No (USB2+H05261)
Correct for Detector Non-linearity: No (USB2+H05261)
Correct for Stray Light: No (USB2+H05261)
Number of Pixels in Processed Spectrum: 2048
>>>>>Begin Processed Spectral Data<<<<<
365.73	0.00
365.92	0.00
366.12	0.00
366.32	0.00
366.52	0.00
366.72	0.00
366.91	0.00
367.11	0.00
367.31	0.00
367.51	0.00
367.70	0.00
367.90	0.00
368.10	0.00
368.30	0.00
368.49	0.00
368.69	0.00
368.89	0.00
369.09	0.00
369.28	0.00
369.48	0.00
369.68	0.00
369.87	0.00
370.07	0.00
370.27	0.00
370.47	0.00
370.66	74.90
370.86	145.11
371.06	140.43
371.25	187.24
371.45	182.56
371.65	114.69
371.84	147.45
372.04	100.64
372.24	166.18
372.44	231.71
372.63	201.29
372.83	231.71
373.03	241.08
373.22	180.22
373.42	194.26
373.62	208.31
373.81	227.03
374.01	280.86
374.21	201.29
374.40	266.82
374.60	280.86
374.79	252.78
374.99	201.29
375.19	234.05
375.38	257.46
375.58	224.69
375.78	224.69
375.97	245.76
376.17	231.71
376.37	182.56
376.56	262.14
376.76	208.31
376.95	259.80
377.15	273.84
377.35	276.18
377.54	245.76
377.74	175.54
377.93	217.67
378.13	301.93
378.33	264.48
378.52	285.55
378.72	287.89
378.91	332.36
379.11	269.16
379.31	315.97
379.50	241.08
379.70	266.82
379.89	376.83
380.09	301.93
380.28	236.39
380.48	285.55
380.68	327.68
380.87	334.70
381.07	308.95
381.26	304.27
381.46	294.91
381.65	269.16
381.85	341.72
382.04	369.80
382.24	353.42
382.43	311.29
382.63	332.36
382.83	320.65
383.02	386.19
383.22	407.25
383.41	369.80
383.61	344.06
383.80	376.83
384.00	358.10
384.19	358.10
384.39	404.91
384.58	407.25
384.78	372.15
384.97	327.68
385.17	353.42
385.36	372.15
385.56	360.44
385.75	379.17
385.95	379.17
386.14	440.02
386.34	400.23
386.53	440.02
386.72	337.04
386.92	407.25
387.11	433.00
387.31	428.32
387.50	390.87
387.70	418.96
387.89	386.19
388.09	449.38
388.28	416.62
388.48	379.17
388.67	416.62
388.86	531.30
389.06	395.55
389.25	461.09
389.45	496.19
389.64	468.11
389.84	500.87
390.03	484.49
390.22	535.98
390.42	440.02
390.61	479.81
390.81	463.43
391.00	550.03
391.19	463.43
391.39	498.53
391.58	500.87
391.78	500.87
391.97	573.43
392.16	512.58
392.36	538.32
392.55	528.96
392.75	557.05
392.94	489.17
393.13	470.45
393.33	531.30
393.52	528.96
393.71	568.75
393.91	592.16
394.10	535.98
394.29	568.75
394.49	573.43
394.68	550.03
394.88	524.28
395.07	533.64
395.26	622.58
395.46	636.63
395.65	662.37
395.84	599.18
396.04	601.52
396.23	657.69
396.42	620.24
396.62	585.13
396.81	624.92
397.00	554.71
397.19	620.24
397.39	667.05
397.58	720.88
397.77	798.12
397.97	706.84
398.16	699.82
398.35	669.39
398.55	622.58
398.74	716.20
398.93	763.01
399.12	685.78
399.32	734.93
399.51	697.48
399.70	741.95
399.90	772.38
400.09	763.01
400.28	774.72
400.47	770.04
400.67	788.76
400.86	770.04
401.05	767.70
401.24	697.48
401.44	739.61
401.63	739.61
401.82	795.78
402.01	739.61
402.21	791.10
402.40	844.93
402.59	826.21
402.78	816.85
402.97	835.57
403.17	777.06
403.36	800.46
403.55	912.81
403.74	851.96
403.93	873.02
404.13	940.90
404.32	999.41
404.51	898.77
404.70	870.68
404.89	851.96
405.09	950.26
405.28	915.15
405.47	1020.47
405.66	980.68
405.85	957.28
406.05	912.81
406.24	968.98
406.43	898.77
406.62	961.96
406.81	987.71
407.00	947.92
407.20	912.81
407.39	858.98
407.58	1078.99
407.77	1015.79
407.96	1046.22
408.15	1022.81
408.34	1022.81
408.54	1132.82
408.73	1036.86
408.92	1125.80
409.11	1139.84
409.30	1130.48
409.49	1093.03
409.68	1153.88
409.87	1132.82
410.07	1207.72
410.26	1118.78
410.45	1282.61
410.64	1109.41
410.83	1128.14
411.02	1186.65
411.21	1203.04
411.40	1254.53
411.59	1212.40
411.78	1149.20
411.98	1266.23
412.17	1275.59
412.36	1242.82
412.55	1270.91
412.74	1303.68
412.93	1397.30
413.12	1315.38
413.31	1430.07
413.50	1301.34
413.69	1420.71
413.88	1437.09
414.07	1336.45
414.26	1392.62
414.45	1533.05
414.64	1486.24
414.83	1624.33
415.02	1547.09
415.22	1469.86
415.41	1511.99
415.60	1479.22
415.79	1481.56
415.98	1612.63
416.17	1577.52
416.36	1650.08
416.55	1612.63
416.74	1661.78
416.93	1678.16
417.12	1715.61
417.31	1750.72
417.50	1682.85
417.69	1811.57
417.88	1554.12
418.07	1652.42
418.26	1727.32
418.45	1722.63
418.64	1755.40
418.83	1792.85
419.02	1837.32
419.21	1771.79
419.39	1907.54
419.58	1750.72
419.77	1774.13
419.96	1933.28
420.15	1806.89
420.34	1748.38
420.53	1874.77
420.72	1792.85
420.91	1783.49
421.10	1879.45
421.29	1935.62
421.48	1870.09
421.67	1952.01
421.86	1982.43
422.05	2052.65
422.24	1996.48
422.43	1952.01
422.61	1949.67
422.80	1944.99
422.99	1970.73
423.18	1973.07
423.37	2026.90
423.56	1961.37
423.75	1914.56
423.94	2059.67
424.13	1905.20
424.32	1902.86
424.50	1996.48
424.69	1973.07
424.88	2207.13
425.07	2136.91
425.26	2005.84
425.45	1959.03
425.64	2003.50
425.83	2033.93
426.01	1982.43
426.20	1980.09
426.39	1991.80
426.58	2083.08
426.77	1984.77
426.96	2052.65
427.15	2040.95
427.33	2134.57
427.52	2094.78
427.71	2169.68
427.90	2113.50
428.09	2090.10
428.28	2162.66
428.46	2251.60
428.65	2186.06
428.84	2157.97
429.03	2200.10
429.22	2188.40
429.40	2267.98
429.59	2211.81
429.78	2139.25
429.97	2118.18
430.16	2146.27
430.34	2230.53
430.53	2338.20
430.72	2251.60
430.91	2174.36
431.10	2328.83
431.28	2263.30
431.47	2345.22
431.66	2427.14
431.85	2352.24
432.03	2342.88
432.22	2452.88
432.41	2291.38
432.60	2527.78
432.79	2394.37
432.97	2476.29
433.16	2450.54
433.35	2495.01
433.54	2518.42
433.72	2450.54
433.91	2487.99
434.10	2448.20
434.28	2502.03
434.47	2509.05
434.66	2495.01
434.85	2661.19
435.03	2537.14
435.22	2509.05
435.41	2686.94
435.59	2637.78
435.78	2658.85
435.97	2649.49
436.16	2579.27
436.34	2654.17
436.53	2574.59
436.72	2780.56
436.90	2595.65
437.09	2640.12
437.28	2656.51
437.46	2752.47
437.65	2612.04
437.84	2782.90
438.02	2703.32
438.21	2750.13
438.40	2668.21
438.58	2867.16
438.77	2897.58
438.96	2850.77
439.14	2890.56
439.33	2925.67
439.52	2923.33
439.70	2846.09
439.89	2944.39
440.08	3038.02
440.26	3007.59
440.45	3012.27
440.63	3028.65
440.82	3124.62
441.01	2925.67
441.19	3239.30
441.38	3056.74
441.57	3141.00
441.75	3349.31
441.94	3229.94
442.12	3302.50
442.31	3356.33
442.50	3269.73
442.68	3236.96
442.87	3295.47
443.05	3368.03
443.24	3356.33
443.43	3361.01
443.61	3356.33
443.80	3391.44
443.98	3253.34
444.17	3229.94
444.35	3361.01
444.54	3452.29
444.73	3328.24
444.91	3435.91
445.10	3297.81
445.28	3304.84
445.47	3449.95
445.65	3368.03
445.84	3501.44
446.02	3496.76
446.21	3330.58
446.39	3386.76
446.58	3496.76
446.77	3389.10
446.95	3283.77
447.14	3447.61
447.32	3410.16
447.51	3414.84
447.69	3499.10
447.88	3482.72
448.06	3396.12
448.25	3468.67
448.43	3557.61
448.62	3538.89
448.80	3405.48
448.99	3597.40
449.17	3585.70
449.36	3574.00
449.54	3538.89
449.73	3653.58
449.91	3590.38
450.10	3714.43
450.28	3770.60
450.46	3637.19
450.65	3637.19
450.83	3672.30
451.02	3700.39
451.20	3782.31
451.39	3742.52
451.57	3705.07
451.76	3665.28
451.94	3740.18
452.13	3714.43
452.31	3831.46
452.49	3772.94
452.68	3880.61
452.86	3674.64
453.05	3847.84
453.23	3798.69
453.42	3840.82
453.60	3714.43
453.78	3894.65
453.97	3901.67
454.15	3847.84
454.34	3953.16
454.52	3922.74
454.70	4004.66
454.89	4014.02
455.07	4014.02
455.26	3948.48
455.44	4154.45
455.62	3995.29
455.81	4081.89
455.99	4161.47
456.17	3953.16
456.36	4021.04
456.54	4098.28
456.73	4194.24
456.91	4278.50
457.09	4222.33
457.28	4407.23
457.46	4355.74
457.64	4430.63
457.83	4395.53
458.01	4334.67
458.19	4404.89
458.38	4210.62
458.56	4442.34
458.74	4320.63
458.93	4358.08
459.11	4430.63
459.29	4414.25
459.48	4386.16
459.66	4418.93
459.84	4475.10
460.03	4461.06
460.21	4383.82
460.39	4545.32
460.57	4447.02
460.76	4435.32
460.94	4524.26
461.12	4559.36
461.31	4599.15
461.49	4575.75
461.67	4648.30
461.85	4624.90
462.04	4636.60
462.22	4690.43
462.40	4777.03
462.59	4622.56
462.77	4774.69
462.95	4767.67
463.13	4821.50
463.32	4809.80
463.50	4765.33
463.68	4753.63
463.86	4791.08
464.05	4648.30
464.23	4774.69
464.41	4973.64
464.59	4812.14
464.78	4891.72
464.96	4854.27
465.14	4868.31
465.32	4933.85
465.50	4924.49
465.69	4833.21
465.87	4774.69
466.05	4887.04
466.23	4870.65
466.41	4985.34
466.60	5118.75
466.78	4983.00
466.96	4983.00
467.14	4966.62
467.32	5006.41
467.51	5093.01
467.69	4971.30
467.87	5188.97
468.05	5130.45
468.23	5093.01
468.41	5013.43
468.60	5116.41
468.78	5170.24
468.96	5100.03
469.14	5399.62
469.32	5146.84
469.50	5221.74
469.69	5390.25
469.87	5294.29
470.05	5287.27
470.23	5521.32
470.41	5277.91
470.59	5291.95
470.77	5474.51
470.95	5444.09
471.14	5345.78
471.32	5280.25
471.50	5614.95
471.68	5586.86
471.86	5544.73
472.04	5547.07
472.22	5614.95
472.40	5610.26
472.58	5643.03
472.77	5647.71
472.95	5687.50
473.13	5860.70
473.31	5661.76
473.49	5762.40
473.67	5841.98
473.85	5804.53
474.03	6139.23
474.21	5886.45
474.39	6054.97
474.57	5982.41
474.75	6059.65
474.93	5909.85
475.12	6047.94
475.30	6010.50
475.48	5961.34
475.66	6094.76
475.84	6296.04
476.02	6274.98
476.20	6305.40
476.38	6485.62
476.56	6511.37
476.74	6403.71
476.92	6476.26
477.10	6462.22
477.28	6567.54
477.46	6420.09
477.64	6562.86
477.82	6768.83
478.00	6832.02
478.18	6918.62
478.36	7094.16
478.54	6972.46
478.72	6979.48
478.90	7009.90
479.08	7082.46
479.26	7183.10
479.44	7274.38
479.62	7211.19
479.80	7337.58
479.98	7332.90
480.16	7480.35
480.34	7517.80
480.52	7564.61
480.70	7564.61
480.88	7545.89
481.06	7595.04
481.24	7489.71
481.41	7702.70
481.59	7793.98
481.77	7695.68
481.95	7857.18
482.13	8133.36
482.31	8035.06
482.49	8025.70
482.67	8208.26
482.85	8365.07
483.03	8308.90
483.21	8290.18
483.39	8493.80
483.57	8437.63
483.74	8545.30
483.92	8622.53
484.10	8622.53
484.28	8847.22
484.46	8936.17
484.64	9046.17
484.82	8777.01
485.00	8929.14
485.18	9149.15
485.35	9053.19
485.53	9142.13
485.71	9263.84
485.89	9441.72
486.07	9535.34
486.25	9579.81
486.43	9640.67
486.61	9509.60
486.78	9778.76
486.96	9743.65
487.14	9916.85
487.32	9963.66
487.50	10193.03
487.68	10305.38
487.85	10415.38
488.03	10417.72
488.21	10352.19
488.39	10384.96
488.57	10579.22
488.75	10583.90
488.92	10785.19
489.10	10846.04
489.28	10923.28
489.46	11253.30
489.64	11279.04
489.81	11133.93
489.99	11225.21
490.17	11040.31
490.35	11468.62
490.53	11499.05
490.70	11461.60
490.88	11550.54
491.06	11632.46
491.24	11660.55
491.41	11595.01
491.59	12072.48
491.77	11892.26
491.95	11946.09
492.13	11925.03
492.30	12163.76
492.48	12028.01
492.66	12198.87
492.84	12365.05
493.01	12465.69
493.19	12383.77
493.37	12627.19
493.54	12592.08
493.72	12596.76
493.90	12564.00
494.08	12793.37
494.25	12933.80
494.43	13025.08
494.61	13118.70
494.79	13224.03
494.96	13034.44
495.14	13219.35
495.32	13212.32
495.49	13362.12
495.67	13476.80
495.85	13387.86
496.02	13635.96
496.20	13862.99
496.38	13701.50
496.55	13991.72
496.73	14153.22
496.91	13970.66
497.09	13928.53
497.26	14499.62
497.44	14169.60
497.62	14153.22
497.79	14246.84
497.97	14499.62
498.14	14682.18
498.32	14787.50
498.50	14565.15
498.67	14806.23
498.85	14808.57
499.03	14808.57
499.20	14946.66
499.38	14941.98
499.56	15143.27
499.73	14970.07
499.91	15169.01
500.08	15316.47
500.26	15307.10
500.44	15279.02
500.61	15391.36
500.79	15255.61
500.97	15487.32
501.14	15838.41
501.32	15805.64
501.49	15424.13
501.67	15484.98
501.84	15602.01
502.02	15683.93
502.20	15929.69
502.37	15997.56
502.55	15880.53
502.72	15688.61
502.90	15955.43
503.07	16226.93
503.25	16201.19
503.43	16170.76
503.60	16458.65
503.78	16526.52
503.95	16493.76
504.13	16472.69
504.30	16439.92
504.48	16505.46
504.65	16510.14
504.83	16559.29
505.01	16954.84
505.18	16830.79
505.36	17055.48
505.53	16629.51
505.71	17104.64
505.88	16851.86
506.06	16798.02
506.23	17160.81
506.41	16919.73
506.58	17020.38
506.76	17245.07
506.93	17202.94
507.11	17532.95
507.28	17151.45
507.46	17263.79
507.63	17458.06
507.81	17554.02
507.98	17745.94
508.16	17554.02
508.33	17366.78
508.50	17476.78
508.68	17664.02
508.85	17940.21
509.03	18001.06
509.20	17888.71
509.38	18090.00
509.55	18347.46
509.73	18008.08
509.90	18305.33
510.08	17865.31
510.25	18171.92
510.42	18272.56
510.60	18452.78
510.77	18338.10
510.95	18523.00
511.12	18628.32
511.30	18497.25
511.47	18487.89
511.64	18834.29
511.82	18403.63
511.99	18883.44
512.17	18853.02
512.34	19002.81
512.51	18752.37
512.69	19115.16
512.86	19108.13
513.04	19569.22
513.21	19087.07
513.38	18920.89
513.56	19061.32
513.73	19178.35
513.90	19440.49
514.08	19314.10
514.25	19302.40
514.43	19522.41
514.60	19346.87
514.77	19880.51
514.95	19587.94
515.12	19695.61
515.29	19534.11
515.47	19431.13
515.64	19939.02
515.81	19796.25
515.99	19946.05
516.16	20233.93
516.33	20137.97
516.51	19943.70
516.68	19946.05
516.85	20283.08
517.03	20037.33
517.20	20283.08
517.37	20020.94
517.54	20376.70
517.72	20348.62
517.89	20287.76
518.06	20362.66
518.24	20496.07
518.41	20044.35
518.58	20589.69
518.75	20648.21
518.93	20826.09
519.10	20776.94
519.27	20957.16
519.45	20772.25
519.62	20416.49
519.79	20802.68
519.96	20793.32
520.14	21170.15
520.31	20699.70
520.48	21184.19
520.65	21027.37
520.83	21280.15
521.00	20812.04
521.17	21223.98
521.34	21223.98
521.52	20982.90
521.69	21329.30
521.86	21376.11
522.03	21617.19
522.20	21500.16
522.38	21495.48
522.55	21301.22
522.72	21413.56
522.89	21671.02
523.07	22078.27
523.24	21741.24
523.41	21774.00
523.58	21675.70
523.75	22120.40
523.92	21795.07
524.10	21916.78
524.27	21994.01
524.44	21942.52
524.61	22359.14
524.78	22118.06
524.96	22019.76
525.13	22019.76
525.30	22309.99
525.47	22073.59
525.64	22265.52
525.81	22696.17
525.98	22670.43
526.16	22417.65
526.33	22441.06
526.50	22462.12
526.67	22419.99
526.84	22455.10
527.01	22443.40
527.18	22621.28
527.36	23056.62
527.53	23068.32
527.70	23117.47
527.87	22970.02
528.04	22845.97
528.21	22815.54
528.38	22986.40
528.55	23122.15
528.72	22806.18
528.89	22979.38
529.07	23115.13
529.24	23161.94
529.41	23084.70
529.58	23257.90
529.75	23278.97
529.92	23101.09
530.09	23412.38
530.26	23384.29
530.43	23484.94
530.60	23360.89
530.77	23342.16
530.94	23616.01
531.11	23241.52
531.28	23096.41
531.46	23850.06
531.63	23370.25
531.80	23543.45
531.97	23754.10
532.14	23775.16
532.31	23667.50
532.48	23697.92
532.65	23791.55
532.82	23845.38
532.99	23779.84
533.16	23927.30
533.33	23906.23
533.50	24187.10
533.67	24210.50
533.84	23709.63
534.01	24086.45
534.18	24168.37
534.35	24123.90
534.52	24093.47
534.69	24622.44
534.86	24725.42
535.03	24341.57
535.20	24393.06
535.37	24589.67
535.54	24439.87
535.71	24147.31
535.88	24196.46
536.05	24116.88
536.22	24486.68
536.38	24797.98
536.55	24631.80
536.72	24697.33
536.89	24758.19
537.06	24547.54
537.23	24795.64
537.40	24669.25
537.57	24697.33
537.74	24559.24
537.91	24629.46
538.08	24936.07
538.25	24828.40
538.42	24882.24
538.59	25310.55
538.75	24669.25
538.92	24938.41
539.09	25174.80
539.26	24842.45
539.43	25186.50
539.60	25202.89
539.77	25013.31
539.94	25226.29
540.11	25348.00
540.28	25481.41
540.44	24973.52
540.61	25322.26
540.78	25151.40
540.95	25207.57
541.12	25446.30
541.29	25289.49
541.46	25453.33
541.62	25359.70
541.79	25326.94
541.96	25191.19
542.13	25240.34
542.30	25867.60
542.47	26008.03
542.63	25783.34
542.80	25486.09
542.97	25862.92
543.14	26010.37
543.31	26050.16
543.48	25820.79
543.64	25998.67
543.81	26307.62
543.98	26389.54
544.15	26059.52
544.32	26328.69
544.48	26520.61
544.65	26146.12
544.82	26010.37
544.99	25961.22
545.16	26253.79
545.32	26204.64
545.49	26654.02
545.66	26717.22
545.83	26487.84
546.00	26436.35
546.16	26457.42
546.33	26122.72
546.50	25951.86
546.67	26459.76
546.83	25982.29
547.00	26518.27
547.17	26394.22
547.34	26623.59
547.50	26761.69
547.67	26623.59
547.84	26632.96
548.00	26761.69
548.17	26752.32
548.34	26618.91
548.51	27271.92
548.67	26998.08
548.84	26757.00
549.01	26923.18
549.18	26682.11
549.34	26799.13
549.51	26759.34
549.68	26686.79
549.84	26892.76
550.01	26581.46
550.18	27080.00
550.34	27089.36
550.51	27070.64
550.68	27393.63
550.84	26677.43
551.01	27131.49
551.18	26995.74
551.34	26874.03
551.51	26714.87
551.68	27370.22
551.84	27445.12
552.01	27051.91
552.18	27435.76
552.34	27220.43
552.51	27667.47
552.68	27257.88
552.84	27105.74
553.01	27571.51
553.18	27796.20
553.34	27754.07
553.51	27330.44
553.67	27445.12
553.84	27548.11
554.01	27573.85
554.17	27744.71
554.34	27845.35
554.51	28086.43
554.67	27618.32
554.84	27288.31
555.00	27711.94
555.17	27709.60
555.33	27669.81
555.50	27793.86
555.67	27646.41
555.83	27913.23
556.00	27789.18
556.16	27988.13
556.33	27651.09
556.50	28004.51
556.66	28261.97
556.83	27995.15
556.99	27976.42
557.16	28329.84
557.32	27805.56
557.49	28203.46
557.65	28196.43
557.82	27969.40
557.98	28210.48
558.15	27901.53
558.32	28074.73
558.48	28299.42
558.65	28299.42
558.81	28350.91
558.98	28233.88
559.14	28084.09
559.31	28313.46
559.47	28245.58
559.64	28217.50
559.80	28105.15
559.97	28294.74
560.13	28240.90
560.30	28294.74
560.46	28503.04
560.63	28439.85
560.79	28774.55
560.96	28414.10
561.12	28212.82
561.29	27850.03
561.45	28393.04
561.61	28451.55
561.78	28456.23
561.94	28386.02
562.11	28807.31
562.27	28353.25
562.44	28589.64
562.60	28376.66
562.77	28442.19
562.93	28280.69
563.10	28430.49
563.26	28306.44
563.42	28725.39
563.59	28584.96
563.75	28837.74
563.92	28657.52
564.08	28804.97
564.24	28360.27
564.41	28346.23
564.57	28027.92
564.74	28486.66
564.90	28783.91
565.07	28875.19
565.23	28840.08
565.39	28751.14
565.56	28748.80
565.72	28498.36
565.88	28814.34
566.05	28575.60
566.21	28854.12
566.38	28730.08
566.54	28765.18
566.70	28748.80
566.87	28687.95
567.03	29029.66
567.19	29315.21
567.36	28889.23
567.52	28886.89
567.68	28701.99
567.85	28739.44
568.01	28826.04
568.17	28814.34
568.34	28957.11
568.50	29081.16
568.66	29109.24
568.83	29301.17
568.99	28624.75
569.15	28706.67
569.32	28685.61
569.48	28776.89
569.64	29127.97
569.81	28971.15
569.97	28844.76
570.13	29324.57
570.30	29181.80
570.46	28872.85
570.62	29099.88
570.78	28816.68
570.95	29013.28
571.11	28896.25
571.27	29064.77
571.43	29003.92
571.60	28952.43
571.76	28933.70
571.92	29273.08
572.09	28992.22
572.25	29291.80
572.41	29273.08
572.57	29013.28
572.74	29024.98
572.90	28954.77
573.06	28833.06
573.22	28863.49
573.38	29078.82
573.55	29102.22
573.71	29380.74
573.87	29427.56
574.03	28898.59
574.20	29160.73
574.36	29017.96
574.52	29198.18
574.68	29287.12
574.84	29156.05
575.01	29338.62
575.17	29195.84
575.33	29551.60
575.49	29191.16
575.65	29193.50
575.82	29233.29
575.98	29324.57
576.14	29443.94
576.30	29439.26
576.46	28978.17
576.62	29465.00
576.79	29509.47
576.95	29301.17
577.11	29729.48
577.27	29539.90
577.43	29174.78
577.59	29755.23
577.75	29244.99
577.92	29032.00
578.08	29046.05
578.24	28952.43
578.40	29219.25
578.56	29081.16
578.72	29476.71
578.88	29544.58
579.04	29380.74
579.21	29556.28
579.37	29523.52
579.53	29425.22
579.69	29090.52
579.85	29457.98
580.01	29385.43
580.17	29006.26
580.33	29378.40
580.49	29558.63
580.65	29579.69
580.82	29511.81
580.98	29390.11
581.14	29415.85
581.30	29457.98
581.46	29200.52
581.62	29617.14
581.78	28826.04
581.94	29626.50
582.10	29352.66
582.26	29326.91
582.42	29727.14
582.58	29598.41
582.74	29584.37
582.90	29715.44
583.06	29675.65
583.22	29408.83
583.38	29006.26
583.54	29612.46
583.70	29273.08
583.86	29392.45
584.02	29397.13
584.18	29762.25
584.34	29724.80
584.50	29713.10
584.66	29376.06
584.82	29474.37
584.98	29434.58
585.14	29640.54
585.30	29259.04
585.46	29287.12
585.62	29521.18
585.78	29549.26
585.94	29177.12
586.10	29596.07
586.26	29537.56
586.42	29652.25
586.58	30057.16
586.74	29752.89
586.90	29200.52
587.06	29174.78
587.22	29507.13
587.38	29656.93
587.54	29668.63
587.70	29841.83
587.86	29804.38
588.02	30134.40
588.18	29851.19
588.34	29827.79
588.49	29816.08
588.65	29858.21
588.81	29560.97
588.97	29809.06
589.13	29198.18
589.29	29481.39
589.45	29387.77
589.61	29717.78
589.77	30033.75
589.93	29851.19
590.08	30209.29
590.24	29818.42
590.40	29986.94
590.56	29663.95
590.72	29659.27
590.88	29699.06
591.04	29832.47
591.20	30277.17
591.35	30089.93
591.51	30274.83
591.67	30094.61
591.83	29982.26
591.99	29813.74
