SpectraSuite Data File
++++++++++++++++++++++++++++++++++++
Date: Fri Oct 18 13:58:38 GMT-05:00 2013
User: bianchi
Dark Spectrum Present: No
Reference Spectrum Present: No
Number of Sampled Component Spectra: 1
Spectrometers: USB2+H05261
Integration Time (usec): 50000 (USB2+H05261)
Spectra Averaged: 1 (USB2+H05261)
Boxcar Smoothing: 0 (USB2+H05261)
Correct for Electrical Dark: No (USB2+H05261)
Strobe/Lamp Enabled: No (USB2+H05261)
Correct for Detector Non-linearity: No (USB2+H05261)
Correct for Stray Light: No (USB2+H05261)
Number of Pixels in Processed Spectrum: 2048
>>>>>Begin Processed Spectral Data<<<<<
365.73	0.00
365.92	0.00
366.12	0.00
366.32	0.00
366.52	0.00
366.72	0.00
366.91	0.00
367.11	0.00
367.31	0.00
367.51	0.00
367.70	0.00
367.90	0.00
368.10	0.00
368.30	0.00
368.49	0.00
368.69	0.00
368.89	0.00
369.09	0.00
369.28	0.00
369.48	0.00
369.68	0.00
369.87	0.00
370.07	0.00
370.27	0.00
370.47	0.00
370.66	72.56
370.86	53.83
371.06	156.82
371.25	208.31
371.45	131.07
371.65	194.26
371.84	189.58
372.04	161.50
372.24	212.99
372.44	145.11
372.63	182.56
372.83	205.97
373.03	201.29
373.22	173.20
373.42	241.08
373.62	212.99
373.81	252.78
374.01	250.44
374.21	234.05
374.40	304.27
374.60	234.05
374.79	278.52
374.99	248.10
375.19	320.65
375.38	227.03
375.58	299.59
375.78	205.97
375.97	208.31
376.17	191.92
376.37	280.86
376.56	245.76
376.76	280.86
376.95	287.89
377.15	322.99
377.35	238.73
377.54	294.91
377.74	290.23
377.93	271.50
378.13	330.02
378.33	330.02
378.52	287.89
378.72	294.91
378.91	379.17
379.11	367.46
379.31	304.27
379.50	222.35
379.70	294.91
379.89	334.70
380.09	299.59
380.28	339.38
380.48	308.95
380.68	292.57
380.87	294.91
381.07	315.97
381.26	344.06
381.46	313.63
381.65	297.25
381.85	332.36
382.04	360.44
382.24	280.86
382.43	339.38
382.63	278.52
382.83	379.17
383.02	386.19
383.22	447.04
383.41	369.80
383.61	351.08
383.80	322.99
384.00	330.02
384.19	306.61
384.39	332.36
384.58	362.78
384.78	477.47
384.97	313.63
385.17	388.53
385.36	376.83
385.56	315.97
385.75	444.70
385.95	346.40
386.14	400.23
386.34	365.12
386.53	395.55
386.72	421.30
386.92	465.77
387.11	374.49
387.31	388.53
387.50	383.85
387.70	411.93
387.89	402.57
388.09	421.30
388.28	423.64
388.48	390.87
388.67	472.79
388.86	493.85
389.06	449.38
389.25	449.38
389.45	470.45
389.64	407.25
389.84	447.04
390.03	409.59
390.22	463.43
390.42	526.62
390.61	573.43
390.81	468.11
391.00	442.36
391.19	587.47
391.39	510.24
391.58	493.85
391.78	454.06
391.97	531.30
392.16	491.51
392.36	517.26
392.55	582.79
392.75	566.41
392.94	468.11
393.13	547.69
393.33	587.47
393.52	514.92
393.71	514.92
393.91	521.94
394.10	613.22
394.29	554.71
394.49	489.17
394.68	571.09
394.88	491.51
395.07	582.79
395.26	587.47
395.46	566.41
395.65	669.39
395.84	601.52
396.04	655.35
396.23	578.11
396.42	655.35
396.62	676.41
396.81	561.73
397.00	575.77
397.19	624.92
397.39	599.18
397.58	634.29
397.77	655.35
397.97	706.84
398.16	695.14
398.35	678.76
398.55	676.41
398.74	692.80
398.93	739.61
399.12	643.65
399.32	676.41
399.51	667.05
399.70	774.72
399.90	706.84
400.09	723.23
400.28	706.84
400.47	734.93
400.67	758.33
400.86	741.95
401.05	737.27
401.24	730.25
401.44	751.31
401.63	856.64
401.82	660.03
402.01	765.36
402.21	805.14
402.40	814.51
402.59	809.83
402.78	849.61
402.97	748.97
403.17	826.21
403.36	795.78
403.55	805.14
403.74	936.21
403.93	936.21
404.13	816.85
404.32	910.47
404.51	901.11
404.70	973.66
404.89	987.71
405.09	966.64
405.28	968.98
405.47	954.94
405.66	898.77
405.85	1034.52
406.05	898.77
406.24	980.68
406.43	887.06
406.62	917.49
406.81	1046.22
407.00	980.68
407.20	945.58
407.39	990.05
407.58	936.21
407.77	1032.18
407.96	1064.94
408.15	1039.20
408.34	1123.46
408.54	1048.56
408.73	1107.07
408.92	1008.77
409.11	1100.05
409.30	1160.91
409.49	1153.88
409.68	1174.95
409.87	1088.35
410.07	1093.03
410.26	1153.88
410.45	1114.10
410.64	1151.54
410.83	1254.53
411.02	1156.22
411.21	1313.04
411.40	1203.04
411.59	1387.94
411.78	1242.82
411.98	1275.59
412.17	1334.11
412.36	1203.04
412.55	1301.34
412.74	1317.72
412.93	1399.64
413.12	1224.10
413.31	1451.13
413.50	1397.30
413.69	1399.64
413.88	1392.62
414.07	1427.73
414.26	1437.09
414.45	1439.43
414.64	1394.96
414.83	1462.83
415.02	1497.94
415.22	1448.79
415.41	1563.48
415.60	1629.01
415.79	1577.52
415.98	1504.96
416.17	1549.43
416.36	1502.62
416.55	1570.50
416.74	1614.97
416.93	1633.69
417.12	1647.74
417.31	1661.78
417.50	1664.12
417.69	1680.50
417.88	1699.23
418.07	1755.40
418.26	1762.42
418.45	1757.74
418.64	1809.23
418.83	1736.68
419.02	1685.19
419.21	1881.79
419.39	1790.51
419.58	1757.74
419.77	1846.68
419.96	1888.81
420.15	1827.96
420.34	1783.49
420.53	1834.98
420.72	1926.26
420.91	2017.54
421.10	1980.09
421.29	1912.22
421.48	1837.32
421.67	1944.99
421.86	1944.99
422.05	1930.94
422.24	1998.82
422.43	1886.47
422.61	2050.31
422.80	2010.52
422.99	2017.54
423.18	2069.03
423.37	2050.31
423.56	1919.24
423.75	2040.95
423.94	1987.11
424.13	1884.13
424.32	1881.79
424.50	2005.84
424.69	2108.82
424.88	2200.10
425.07	2001.16
425.26	1966.05
425.45	1973.07
425.64	2029.24
425.83	1914.56
426.01	1991.80
426.20	1989.46
426.39	1961.37
426.58	2069.03
426.77	2045.63
426.96	2174.36
427.15	2155.63
427.33	2033.93
427.52	2038.61
427.71	2108.82
427.90	2167.34
428.09	2179.04
428.28	2218.83
428.46	2155.63
428.65	2083.08
428.84	2108.82
429.03	2204.78
429.22	2031.58
429.40	2235.21
429.59	2221.17
429.78	2099.46
429.97	2160.31
430.16	2069.03
430.34	2214.15
430.53	2272.66
430.72	2202.44
430.91	2263.30
431.10	2333.51
431.28	2282.02
431.47	2307.77
431.66	2448.20
431.85	2338.20
432.03	2312.45
432.22	2462.24
432.41	2443.52
432.60	2396.71
432.79	2464.58
432.97	2408.41
433.16	2520.76
433.35	2375.64
433.54	2445.86
433.72	2399.05
433.91	2431.82
434.10	2541.82
434.28	2473.95
434.47	2417.77
434.66	2544.16
434.85	2455.22
435.03	2504.37
435.22	2616.72
435.41	2619.06
435.59	2612.04
435.78	2487.99
435.97	2597.99
436.16	2649.49
436.34	2679.91
436.53	2640.12
436.72	2818.00
436.90	2698.64
437.09	2700.98
437.28	2607.36
437.46	2626.08
437.65	2761.83
437.84	2803.96
438.02	2691.62
438.21	2644.81
438.40	2754.81
438.58	2761.83
438.77	2780.56
438.96	2803.96
439.14	2857.79
439.33	2951.42
439.52	2977.16
439.70	2925.67
439.89	3047.38
440.08	2981.84
440.26	3061.42
440.45	3073.12
440.63	2974.82
440.82	2949.08
441.01	3108.23
441.19	3096.53
441.38	3157.38
441.57	3236.96
441.75	3309.52
441.94	3150.36
442.12	3311.86
442.31	3379.73
442.50	3255.69
442.68	3293.13
442.87	3253.34
443.05	3286.11
443.24	3342.28
443.43	3325.90
443.61	3440.59
443.80	3384.41
443.98	3405.48
444.17	3199.51
444.35	3480.38
444.54	3290.79
444.73	3499.10
444.91	3449.95
445.10	3346.97
445.28	3386.76
445.47	3372.71
445.65	3501.44
445.84	3459.31
446.02	3363.35
446.21	3407.82
446.39	3407.82
446.58	3513.14
446.77	3541.23
446.95	3475.70
447.14	3389.10
447.32	3346.97
447.51	3435.91
447.69	3384.41
447.88	3438.25
448.06	3417.18
448.25	3431.23
448.43	3562.30
448.62	3438.25
448.80	3478.04
448.99	3513.14
449.17	3602.08
449.36	3552.93
449.54	3606.77
449.73	3588.04
449.91	3808.05
450.10	3763.58
450.28	3735.50
450.46	3667.62
450.65	3676.98
450.83	3714.43
451.02	3723.79
451.20	3662.94
451.39	3772.94
451.57	3833.80
451.76	3723.79
451.94	3707.41
452.13	3852.52
452.31	3871.25
452.49	3660.60
452.68	3866.56
452.86	3714.43
453.05	3803.37
453.23	3934.44
453.42	3758.90
453.60	3838.48
453.78	3960.19
453.97	3815.07
454.15	3871.25
454.34	3864.22
454.52	3999.98
454.70	3794.01
454.89	3932.10
455.07	4053.81
455.26	3978.91
455.44	4021.04
455.62	3988.27
455.81	4156.79
455.99	4140.41
456.17	4133.39
456.36	4105.30
456.54	4180.20
456.73	4014.02
456.91	4175.52
457.09	4238.71
457.28	4358.08
457.46	4170.83
457.64	4245.73
457.83	4435.32
458.01	4135.73
458.19	4407.23
458.38	4189.56
458.56	4538.30
458.74	4407.23
458.93	4259.78
459.11	4306.59
459.29	4243.39
459.48	4299.56
459.66	4362.76
459.84	4428.29
460.03	4475.10
460.21	4425.95
460.39	4334.67
460.57	4416.59
460.76	4587.45
460.94	4470.42
461.12	4423.61
461.31	4657.67
461.49	4573.41
461.67	4514.89
461.85	4695.11
462.04	4561.70
462.22	4849.59
462.40	4788.74
462.59	4842.57
462.77	4868.31
462.95	4870.65
463.13	4709.16
463.32	4746.61
463.50	4627.24
463.68	4809.80
463.86	4959.60
464.05	4699.80
464.23	4772.35
464.41	4854.27
464.59	4690.43
464.78	4823.84
464.96	4821.50
465.14	4802.78
465.32	4873.00
465.50	4943.21
465.69	4954.91
465.87	4814.48
466.05	4861.29
466.23	4968.96
466.41	5025.13
466.60	5078.96
466.78	4915.12
466.96	5022.79
467.14	4880.02
467.32	4980.66
467.51	5055.56
467.69	4992.36
467.87	5219.39
468.05	5041.51
468.23	5074.28
468.41	5118.75
468.60	5004.07
468.78	5018.11
468.96	5083.64
469.14	5193.65
469.32	5144.50
469.50	5071.94
469.69	5064.92
469.87	5280.25
470.05	5355.15
470.23	5294.29
470.41	5364.51
470.59	5446.43
470.77	5355.15
470.95	5369.19
471.14	5526.00
471.32	5343.44
471.50	5577.50
471.68	5469.83
471.86	5479.19
472.04	5465.15
472.22	5746.02
472.40	5614.95
472.58	5643.03
472.77	5605.58
472.95	5631.33
473.13	5811.55
473.31	5830.27
473.49	5636.01
473.67	5818.57
473.85	5802.19
474.03	5834.96
474.21	5790.49
474.39	5942.62
474.57	5963.68
474.75	6026.88
474.93	6003.47
475.12	6092.41
475.30	6157.95
475.48	6221.14
475.66	6115.82
475.84	6139.23
476.02	6230.51
476.20	6361.58
476.38	6438.81
476.56	6473.92
476.74	6445.84
476.92	6527.75
477.10	6712.66
477.28	6670.53
477.46	6621.38
477.64	6583.93
477.82	6642.44
478.00	6722.02
478.18	6832.02
478.36	7000.54
478.54	6995.86
478.72	7133.95
478.90	7178.42
479.08	7101.19
479.26	7220.55
479.44	7314.17
479.62	7279.07
479.80	7330.56
479.98	7307.15
480.16	7552.91
480.34	7400.77
480.52	7515.46
480.70	7674.62
480.88	7360.98
481.06	7641.85
481.24	7639.51
481.41	7676.96
481.59	7953.14
481.77	7810.37
481.95	7838.45
482.13	8147.40
482.31	7953.14
482.49	8196.56
482.67	8126.34
482.85	8332.31
483.03	8327.63
483.21	8388.48
483.39	8690.41
483.57	8229.32
483.74	8655.30
483.92	8596.79
484.10	8762.97
484.28	8814.46
484.46	8910.42
484.64	9050.85
484.82	8823.82
485.00	9231.07
485.18	9259.16
485.35	9329.38
485.53	9284.91
485.71	9348.10
485.89	9600.88
486.07	9378.53
486.25	9331.72
486.43	9483.85
486.61	9617.26
486.78	9738.97
486.96	9753.01
487.14	9870.04
487.32	9940.26
487.50	10040.90
487.68	9982.38
487.85	10281.97
488.03	10403.68
488.21	10251.55
488.39	10466.88
488.57	10387.30
488.75	10422.41
488.92	10534.75
489.10	10963.07
489.28	10860.09
489.46	11035.63
489.64	11035.63
489.81	11403.09
489.99	11246.27
490.17	11274.36
490.35	11496.71
490.53	11506.07
490.70	11674.59
490.88	11417.13
491.06	11693.32
491.24	11499.05
491.41	11714.38
491.59	11889.92
491.77	11749.49
491.95	11854.81
492.13	12030.35
492.30	12159.08
492.48	12011.63
492.66	12182.49
492.84	11906.31
493.01	12461.01
493.19	12421.22
493.37	12748.90
493.54	12601.44
493.72	12793.37
493.90	12652.94
494.08	12886.99
494.25	12840.18
494.43	13121.04
494.61	13266.16
494.79	13153.81
494.96	13139.77
495.14	13259.13
495.32	13200.62
495.49	13514.25
495.67	13596.17
495.85	13570.43
496.02	13540.00
496.20	13970.66
496.38	13514.25
496.55	13776.39
496.73	14108.75
496.91	14146.20
497.09	13973.00
497.26	14134.50
497.44	13991.72
497.62	14349.82
497.79	14497.28
497.97	14303.01
498.14	14675.16
498.32	14618.99
498.50	14663.46
498.67	14499.62
498.85	14527.71
499.03	14761.76
499.20	14719.63
499.38	14860.06
499.56	14913.89
499.73	15077.73
499.91	15173.69
500.08	15250.93
500.26	15089.43
500.44	15033.26
500.61	15330.51
500.79	15370.30
500.97	15503.71
501.14	15803.30
501.32	15704.99
501.49	15454.56
501.67	15466.26
501.84	15796.28
502.02	15580.95
502.20	15896.92
502.37	15934.37
502.55	16208.21
502.72	16102.89
502.90	15826.70
503.07	16079.48
503.25	15934.37
503.43	16137.99
503.60	16154.38
503.78	16255.02
503.95	16367.37
504.13	16585.04
504.30	16542.91
504.48	16297.15
504.65	16592.06
504.83	16812.07
505.01	16842.50
505.18	16744.19
505.36	17018.04
505.53	16727.81
505.71	16779.30
505.88	16905.69
506.06	16709.08
506.23	16947.82
506.41	17359.75
506.58	17277.83
506.76	17240.39
506.93	17275.49
507.11	17032.08
507.28	17319.96
507.46	16926.75
507.63	17467.42
507.81	17357.41
507.98	17568.06
508.16	17687.43
508.33	17661.68
508.50	17565.72
508.68	17741.26
508.85	17790.41
509.03	17586.79
509.20	17933.18
509.38	17823.18
509.55	18139.15
509.73	18064.25
509.90	18139.15
510.08	18122.77
510.25	18239.79
510.42	18527.68
510.60	18361.50
510.77	18237.45
510.95	18340.44
511.12	18375.55
511.30	18480.87
511.47	18778.12
511.64	18546.40
511.82	18860.04
511.99	18899.83
512.17	18649.39
512.34	19094.09
512.51	19220.48
512.69	18792.16
512.86	18707.90
513.04	19180.69
513.21	19264.95
513.38	19168.99
513.56	19276.65
513.73	19007.49
513.90	18806.20
514.08	19096.43
514.25	19501.34
514.43	19470.92
514.60	19604.33
514.77	19604.33
514.95	19573.90
515.12	19468.58
515.29	19683.91
515.47	19695.61
515.64	19473.26
515.81	19784.55
515.99	19929.66
516.16	20325.21
516.33	19730.72
516.51	20137.97
516.68	19700.29
516.85	19939.02
517.03	20046.69
517.20	20119.24
517.37	19803.27
517.54	20187.12
517.72	20671.61
517.89	20477.35
518.06	20491.39
518.24	20210.53
518.41	20486.71
518.58	20685.65
518.75	20393.09
518.93	20709.06
519.10	20470.33
519.27	20875.24
519.45	20690.34
519.62	20531.18
519.79	20650.55
519.96	20863.54
520.14	20917.37
520.31	20819.07
520.48	21074.18
520.65	20800.34
520.83	21006.31
521.00	21137.38
521.17	20889.28
521.34	21088.23
521.52	21282.49
521.69	21525.91
521.86	21397.18
522.03	21462.71
522.20	21404.20
522.38	21500.16
522.55	21748.26
522.72	21502.50
522.89	21584.42
523.07	22204.66
523.24	21701.45
523.41	22118.06
523.58	21460.37
523.75	22017.42
523.92	21738.90
524.10	22057.21
524.27	21825.50
524.44	22211.68
524.61	21975.29
524.78	22427.01
524.96	22342.75
525.13	21944.86
525.30	22125.08
525.47	22288.92
525.64	22539.36
525.81	22431.69
525.98	22277.22
526.16	22190.62
526.33	22314.67
526.50	22974.70
526.67	22319.35
526.84	22223.39
527.01	22492.55
527.18	22665.75
527.36	23051.94
527.53	22787.46
527.70	23002.78
527.87	22644.68
528.04	22810.86
528.21	22965.34
528.38	22916.19
528.55	23187.69
528.72	22953.63
528.89	23035.55
529.07	23304.71
529.24	22789.80
529.41	23360.89
529.58	23005.13
529.75	22841.29
529.92	23007.47
530.09	23316.42
530.26	23356.21
530.43	23578.56
530.60	23520.04
530.77	23777.50
530.94	23459.19
531.11	23562.17
531.28	23606.64
531.46	23534.09
531.63	23473.23
531.80	23873.46
531.97	23843.04
532.14	23859.42
532.31	23531.75
532.48	24123.90
532.65	23880.49
532.82	23744.73
532.99	23578.56
533.16	23520.04
533.33	24156.67
533.50	24173.05
533.67	24348.59
533.84	23800.91
534.01	24187.10
534.18	24025.60
534.35	24072.41
534.52	24196.46
534.69	24400.08
534.86	24418.81
535.03	23906.23
535.20	24304.12
535.37	24723.08
535.54	24482.00
535.71	24273.70
535.88	24339.23
536.05	24346.25
536.22	24650.52
536.38	24650.52
536.55	24650.52
536.72	24865.85
536.89	24430.51
537.06	24669.25
537.23	24746.48
537.40	24547.54
537.57	24868.19
537.74	24907.98
537.91	25013.31
538.08	24917.34
538.25	24510.09
538.42	24877.55
538.59	24898.62
538.75	24917.34
538.92	25223.95
539.09	25165.44
539.26	24907.98
539.43	25305.87
539.60	24776.91
539.77	25015.65
539.94	25230.98
540.11	25060.12
540.28	25165.44
540.44	25081.18
540.61	25291.83
540.78	25153.74
540.95	24961.81
541.12	25521.20
541.29	25376.09
541.46	25153.74
541.62	25406.52
541.79	25605.46
541.96	25589.08
542.13	25322.26
542.30	25223.95
542.47	25790.36
542.63	25942.50
542.80	26136.76
542.97	26326.35
543.14	25701.42
543.31	25909.73
543.48	25715.47
543.64	26239.75
543.81	25958.88
543.98	26408.26
544.15	26192.94
544.32	26237.41
544.48	26260.81
544.65	26284.22
544.82	26061.87
544.99	25846.54
545.16	26214.00
545.32	26359.11
545.49	26675.09
545.66	26438.69
545.83	26443.37
546.00	26911.48
546.16	26476.14
546.33	26457.42
546.50	26555.72
546.67	26253.79
546.83	26347.41
547.00	26120.38
547.17	26771.05
547.34	26529.97
547.50	26698.49
547.67	26829.56
547.84	26579.12
548.00	27040.21
548.17	26817.86
548.34	26553.38
548.51	26977.01
548.67	26916.16
548.84	26888.07
549.01	26618.91
549.18	26752.32
549.34	26911.48
549.51	26771.05
549.68	26518.27
549.84	26792.11
550.01	26892.76
550.18	27058.93
550.34	27576.19
550.51	27161.92
550.68	27555.13
550.84	27040.21
551.01	27402.99
551.18	26852.97
551.34	27264.90
551.51	27117.45
551.68	27161.92
551.84	27513.00
552.01	27152.55
552.18	27487.25
552.34	27080.00
552.51	27250.86
552.68	27477.89
552.84	27468.53
553.01	27349.16
553.18	27405.33
553.34	27803.22
553.51	27520.02
553.67	27531.72
553.84	27604.28
554.01	27840.67
554.17	27349.16
554.34	27782.16
554.51	27374.91
554.67	27896.85
554.84	27742.37
555.00	27562.15
555.17	27847.69
555.33	27964.72
555.50	27697.90
555.67	27777.48
555.83	27707.26
556.00	27798.54
556.16	28154.30
556.33	27789.18
556.50	27960.04
556.66	27627.68
556.83	27831.31
556.99	28311.12
557.16	28233.88
557.32	28051.32
557.49	28559.22
557.65	27742.37
557.82	27772.80
557.98	28151.96
558.15	28051.32
558.32	28128.56
558.48	28177.71
558.65	28299.42
558.81	28481.98
558.98	28084.09
559.14	28341.55
559.31	28116.86
559.47	28100.47
559.64	28250.27
559.80	28599.01
559.97	28215.16
560.13	28519.43
560.30	28283.03
560.46	28833.06
560.63	28060.68
560.79	28266.65
560.96	28634.11
561.12	28283.03
561.29	28692.63
561.45	28416.44
561.61	28432.83
561.78	28474.96
561.94	28613.05
562.11	28709.01
562.27	28414.10
562.44	28369.63
562.60	28102.81
562.77	28650.50
562.93	28212.82
563.10	28528.79
563.26	28498.36
563.42	29074.13
563.59	28559.22
563.75	28559.22
563.92	28645.82
564.08	28039.62
564.24	28374.31
564.41	28645.82
564.57	28538.15
564.74	28327.50
564.90	29226.27
565.07	28650.50
565.23	28432.83
565.39	28966.47
565.56	29186.48
565.72	28407.08
565.88	28744.12
566.05	28570.92
566.21	28716.03
566.38	28793.27
566.54	28947.75
566.70	28992.22
566.87	29149.03
567.03	29139.67
567.19	28905.62
567.36	29158.39
567.52	29050.73
567.68	29095.20
567.85	28680.92
568.01	28938.38
568.17	29027.32
568.34	29404.15
568.50	28800.29
568.66	29041.37
568.83	28992.22
568.99	28697.31
569.15	28694.97
569.32	28819.02
569.48	29130.31
569.64	28989.88
569.81	29303.51
569.97	28631.77
570.13	29256.70
570.30	29102.22
570.46	29043.71
570.62	29172.44
570.78	28814.34
570.95	28851.78
571.11	28938.38
571.27	28725.39
571.43	28676.24
571.60	28994.56
571.76	28933.70
571.92	29181.80
572.09	29088.18
572.25	29106.90
572.41	29123.29
572.57	29237.97
572.74	28975.83
572.90	29013.28
573.06	29095.20
573.22	28758.16
573.38	29266.06
573.55	28802.63
573.71	29268.40
573.87	29319.89
574.03	29383.09
574.20	29191.16
574.36	29074.13
574.52	28999.24
574.68	29008.60
574.84	28943.06
575.01	29532.88
575.17	29488.41
575.33	29216.91
575.49	29355.00
575.65	29106.90
575.82	29345.64
575.98	28975.83
576.14	29308.19
576.30	29329.25
576.46	29408.83
576.62	29127.97
576.79	29359.68
576.95	29223.93
577.11	29593.73
577.27	29366.70
577.43	29490.75
577.59	29359.68
577.75	29743.53
577.92	29151.37
578.08	29214.57
578.24	29443.94
578.40	29378.40
578.56	29256.70
578.72	29350.32
578.88	29546.92
579.04	29816.08
579.21	29172.44
579.37	29223.93
579.53	29139.67
579.69	29663.95
579.85	29537.56
580.01	29401.81
580.17	29521.18
580.33	29226.27
580.49	29507.13
580.65	30160.14
580.82	29277.76
580.98	29556.28
581.14	29076.48
581.30	29537.56
581.46	29193.50
581.62	29249.67
581.78	28783.91
581.94	29226.27
582.10	29532.88
582.26	29184.14
582.42	29441.60
582.58	29692.04
582.74	29432.24
582.90	29593.73
583.06	29727.14
583.22	29504.79
583.38	29432.24
583.54	29837.15
583.70	29359.68
583.86	29432.24
584.02	29280.10
584.18	29614.80
584.34	29890.98
584.50	29404.15
584.66	29631.18
584.82	29256.70
584.98	29340.96
585.14	29502.45
585.30	29710.76
585.46	29603.10
585.62	29476.71
585.78	29872.26
585.94	29259.04
586.10	29296.49
586.26	29132.65
586.42	29593.73
586.58	29731.83
586.74	29614.80
586.90	29032.00
587.06	29233.29
587.22	29755.23
587.38	29376.06
587.54	29677.99
587.70	29811.40
587.86	29570.33
588.02	29757.57
588.18	29584.37
588.34	29846.51
588.49	29841.83
588.65	29455.64
588.81	29366.70
588.97	29626.50
589.13	29528.20
589.29	29455.64
589.45	29638.20
589.61	29575.01
589.77	29780.98
589.93	29539.90
590.08	30155.46
590.24	29872.26
590.40	29846.51
590.56	29769.27
590.72	29497.77
590.88	29406.49
591.04	29570.33
591.20	29949.50
591.35	29963.54
591.51	30522.93
591.67	29898.00
591.83	30176.53
591.99	29902.68
