SpectraSuite Data File
++++++++++++++++++++++++++++++++++++
Date: Fri Oct 18 13:58:08 GMT-05:00 2013
User: bianchi
Dark Spectrum Present: No
Reference Spectrum Present: No
Number of Sampled Component Spectra: 1
Spectrometers: USB2+H05261
Integration Time (usec): 50000 (USB2+H05261)
Spectra Averaged: 1 (USB2+H05261)
Boxcar Smoothing: 0 (USB2+H05261)
Correct for Electrical Dark: No (USB2+H05261)
Strobe/Lamp Enabled: No (USB2+H05261)
Correct for Detector Non-linearity: No (USB2+H05261)
Correct for Stray Light: No (USB2+H05261)
Number of Pixels in Processed Spectrum: 2048
>>>>>Begin Processed Spectral Data<<<<<
365.73	0.00
365.92	0.00
366.12	0.00
366.32	0.00
366.52	0.00
366.72	0.00
366.91	0.00
367.11	0.00
367.31	0.00
367.51	0.00
367.70	0.00
367.90	0.00
368.10	0.00
368.30	0.00
368.49	0.00
368.69	0.00
368.89	0.00
369.09	0.00
369.28	0.00
369.48	0.00
369.68	0.00
369.87	0.00
370.07	0.00
370.27	0.00
370.47	46.81
370.66	81.92
370.86	105.32
371.06	110.01
371.25	79.58
371.45	93.62
371.65	196.60
371.84	124.05
372.04	84.26
372.24	194.26
372.44	166.18
372.63	187.24
372.83	278.52
373.03	182.56
373.22	250.44
373.42	189.58
373.62	262.14
373.81	269.16
374.01	194.26
374.21	241.08
374.40	234.05
374.60	220.01
374.79	217.67
374.99	212.99
375.19	280.86
375.38	266.82
375.58	217.67
375.78	306.61
375.97	285.55
376.17	283.20
376.37	297.25
376.56	229.37
376.76	306.61
376.95	259.80
377.15	290.23
377.35	308.95
377.54	327.68
377.74	273.84
377.93	234.05
378.13	245.76
378.33	278.52
378.52	220.01
378.72	290.23
378.91	313.63
379.11	313.63
379.31	353.42
379.50	264.48
379.70	301.93
379.89	320.65
380.09	231.71
380.28	397.89
380.48	327.68
380.68	208.31
380.87	325.33
381.07	395.55
381.26	325.33
381.46	388.53
381.65	397.89
381.85	315.97
382.04	315.97
382.24	351.08
382.43	381.51
382.63	402.57
382.83	421.30
383.02	362.78
383.22	313.63
383.41	344.06
383.61	308.95
383.80	334.70
384.00	330.02
384.19	325.33
384.39	372.15
384.58	341.72
384.78	358.10
384.97	456.40
385.17	414.27
385.36	330.02
385.56	294.91
385.75	430.66
385.95	470.45
386.14	393.21
386.34	360.44
386.53	379.17
386.72	437.68
386.92	451.72
387.11	407.25
387.31	346.40
387.50	360.44
387.70	362.78
387.89	449.38
388.09	482.15
388.28	444.70
388.48	528.96
388.67	472.79
388.86	451.72
389.06	374.49
389.25	491.51
389.45	545.34
389.64	425.98
389.84	533.64
390.03	507.90
390.22	489.17
390.42	482.15
390.61	369.80
390.81	514.92
391.00	573.43
391.19	524.28
391.39	484.49
391.58	482.15
391.78	561.73
391.97	482.15
392.16	514.92
392.36	554.71
392.55	491.51
392.75	589.82
392.94	510.24
393.13	543.00
393.33	554.71
393.52	603.86
393.71	578.11
393.91	608.54
394.10	557.05
394.29	603.86
394.49	636.63
394.68	655.35
394.88	557.05
395.07	606.20
395.26	629.60
395.46	568.75
395.65	662.37
395.84	674.07
396.04	697.48
396.23	615.56
396.42	699.82
396.62	657.69
396.81	788.76
397.00	683.44
397.19	662.37
397.39	746.63
397.58	734.93
397.77	699.82
397.97	732.59
398.16	671.73
398.35	667.05
398.55	748.97
398.74	737.27
398.93	676.41
399.12	678.76
399.32	678.76
399.51	786.42
399.70	779.40
399.90	697.48
400.09	758.33
400.28	788.76
400.47	777.06
400.67	805.14
400.86	723.23
401.05	802.80
401.24	683.44
401.44	910.47
401.63	800.46
401.82	791.10
402.01	826.21
402.21	807.48
402.40	828.55
402.59	847.27
402.78	814.51
402.97	826.21
403.17	919.83
403.36	866.00
403.55	875.36
403.74	880.04
403.93	968.98
404.13	968.98
404.32	866.00
404.51	894.08
404.70	926.85
404.89	887.06
405.09	976.00
405.28	940.90
405.47	985.37
405.66	954.94
405.85	1034.52
406.05	959.62
406.24	1001.75
406.43	1050.90
406.62	961.96
406.81	1013.45
407.00	1036.86
407.20	1039.20
407.39	978.34
407.58	987.71
407.77	1111.75
407.96	1029.84
408.15	1086.01
408.34	1090.69
408.54	1088.35
408.73	1107.07
408.92	1121.12
409.11	1186.65
409.30	1142.18
409.49	1151.54
409.68	1142.18
409.87	1128.14
410.07	1160.91
410.26	1266.23
410.45	1151.54
410.64	1210.06
410.83	1193.67
411.02	1137.50
411.21	1268.57
411.40	1153.88
411.59	1338.79
411.78	1277.93
411.98	1275.59
412.17	1284.95
412.36	1289.64
412.55	1383.26
412.74	1364.53
412.93	1427.73
413.12	1289.64
413.31	1448.79
413.50	1359.85
413.69	1371.55
413.88	1469.86
414.07	1425.39
414.26	1423.05
414.45	1490.92
414.64	1474.54
414.83	1596.25
415.02	1504.96
415.22	1584.54
415.41	1586.88
415.60	1502.62
415.79	1568.16
415.98	1570.50
416.17	1607.95
416.36	1652.42
416.55	1638.38
416.74	1607.95
416.93	1652.42
417.12	1664.12
417.31	1668.80
417.50	1650.08
417.69	1781.15
417.88	1760.08
418.07	1760.08
418.26	1743.70
418.45	1692.21
418.64	1778.81
418.83	1708.59
419.02	1830.30
419.21	1895.83
419.39	1806.89
419.58	1762.42
419.77	1825.62
419.96	1804.55
420.15	1856.04
420.34	1970.73
420.53	1839.66
420.72	1944.99
420.91	1919.24
421.10	1989.46
421.29	2012.86
421.48	1792.85
421.67	1963.71
421.86	1973.07
422.05	2010.52
422.24	2003.50
422.43	2031.58
422.61	2050.31
422.80	2047.97
422.99	2001.16
423.18	1959.03
423.37	2083.08
423.56	2057.33
423.75	2036.27
423.94	1942.64
424.13	1909.88
424.32	1870.09
424.50	2132.23
424.69	2195.42
424.88	2172.02
425.07	2022.22
425.26	1998.82
425.45	2033.93
425.64	2127.55
425.83	2012.86
426.01	2101.80
426.20	2029.24
426.39	2069.03
426.58	2012.86
426.77	2139.25
426.96	2085.42
427.15	2104.14
427.33	2085.42
427.52	2108.82
427.71	2188.40
427.90	2143.93
428.09	2176.70
428.28	2235.21
428.46	2216.49
428.65	2122.87
428.84	2256.28
429.03	2385.01
429.22	2157.97
429.40	2230.53
429.59	2335.85
429.78	2157.97
429.97	2083.08
430.16	2207.13
430.34	2359.26
430.53	2352.24
430.72	2363.94
430.91	2324.15
431.10	2377.98
431.28	2375.64
431.47	2310.11
431.66	2530.12
431.85	2490.33
432.03	2326.49
432.22	2406.07
432.41	2382.67
432.60	2516.08
432.79	2431.82
432.97	2492.67
433.16	2380.32
433.35	2485.65
433.54	2532.46
433.72	2544.16
433.91	2569.91
434.10	2600.34
434.28	2462.24
434.47	2516.08
434.66	2640.12
434.85	2483.31
435.03	2633.10
435.22	2684.59
435.41	2726.72
435.59	2576.93
435.78	2530.12
435.97	2700.98
436.16	2705.66
436.34	2715.02
436.53	2649.49
436.72	2839.07
436.90	2710.34
437.09	2897.58
437.28	2656.51
437.46	2661.19
437.65	2832.05
437.84	2958.44
438.02	2757.15
438.21	2731.41
438.40	2712.68
438.58	2815.66
438.77	2874.18
438.96	2750.13
439.14	2998.23
439.33	2916.31
439.52	2841.41
439.70	2963.12
439.89	3126.96
440.08	2956.10
440.26	3136.32
440.45	3073.12
440.63	3016.95
440.82	3105.89
441.01	3131.64
441.19	3183.13
441.38	3143.34
441.57	3112.91
441.75	3155.04
441.94	3386.76
442.12	3346.97
442.31	3384.41
442.50	3351.65
442.68	3452.29
442.87	3274.41
443.05	3405.48
443.24	3447.61
443.43	3393.78
443.61	3400.80
443.80	3501.44
443.98	3389.10
444.17	3276.75
444.35	3389.10
444.54	3412.50
444.73	3513.14
444.91	3482.72
445.10	3475.70
445.28	3246.32
445.47	3342.28
445.65	3510.80
445.84	3548.25
446.02	3705.07
446.21	3407.82
446.39	3576.34
446.58	3487.40
446.77	3480.38
446.95	3452.29
447.14	3447.61
447.32	3499.10
447.51	3550.59
447.69	3632.51
447.88	3599.74
448.06	3604.42
448.25	3611.45
448.43	3527.19
448.62	3475.70
448.80	3461.65
448.99	3669.96
449.17	3592.72
449.36	3531.87
449.54	3641.87
449.73	3852.52
449.91	3714.43
450.10	3665.28
450.28	3709.75
450.46	3700.39
450.65	3737.84
450.83	3705.07
451.02	3726.13
451.20	3784.65
451.39	3723.79
451.57	3854.86
451.76	3765.92
451.94	3747.20
452.13	3950.82
452.31	3929.76
452.49	3726.13
452.68	3946.14
452.86	3810.39
453.05	3974.23
453.23	3999.98
453.42	3927.42
453.60	4044.45
453.78	4011.68
453.97	3922.74
454.15	3992.95
454.34	4011.68
454.52	4063.17
454.70	4011.68
454.89	4128.70
455.07	4072.53
455.26	4021.04
455.44	4187.22
455.62	4042.11
455.81	3971.89
455.99	4081.89
456.17	4180.20
456.36	4095.94
456.54	4294.88
456.73	4219.99
456.91	4327.65
457.09	4346.37
457.28	4369.78
457.46	4306.59
457.64	4535.96
457.83	4442.34
458.01	4271.48
458.19	4318.29
458.38	4322.97
458.56	4440.00
458.74	4358.08
458.93	4503.19
459.11	4484.47
459.29	4575.75
459.48	4440.00
459.66	4526.60
459.84	4568.73
460.03	4737.24
460.21	4652.98
460.39	4631.92
460.57	4641.28
460.76	4554.68
460.94	4636.60
461.12	4784.06
461.31	4697.46
461.49	4713.84
461.67	4690.43
461.85	4793.42
462.04	4777.03
462.22	5001.72
462.40	4826.18
462.59	4929.17
462.77	4753.63
462.95	4858.95
463.13	4823.84
463.32	4903.42
463.50	4966.62
463.68	4847.25
463.86	4858.95
464.05	4917.47
464.23	4851.93
464.41	4917.47
464.59	4898.74
464.78	5008.75
464.96	4966.62
465.14	4919.81
465.32	5064.92
465.50	5006.41
465.69	5062.58
465.87	4978.32
466.05	4980.66
466.23	4994.70
466.41	5060.24
466.60	5181.95
466.78	4992.36
466.96	4968.96
467.14	4987.68
467.32	5144.50
467.51	5233.44
467.69	4947.89
467.87	5041.51
468.05	5174.92
468.23	5144.50
468.41	5207.69
468.60	5355.15
468.78	5207.69
468.96	5193.65
469.14	5387.91
469.32	5296.63
469.50	5273.23
469.69	5455.79
469.87	5493.24
470.05	5472.17
470.23	5483.88
470.41	5476.85
470.59	5511.96
470.77	5476.85
470.95	5645.37
471.14	5720.27
471.32	5624.31
471.50	5734.31
471.68	5621.97
471.86	5699.20
472.04	5692.18
472.22	5757.72
472.40	5654.73
472.58	5750.70
472.77	5863.04
472.95	5956.66
473.13	6029.22
473.31	5912.19
473.49	5930.92
473.67	5905.17
473.85	6092.41
474.03	6010.50
474.21	6108.80
474.39	6200.08
474.57	6097.10
474.75	6080.71
474.93	6251.57
475.12	6134.54
475.30	6321.79
475.48	6153.27
475.66	6277.32
475.84	6235.19
476.02	6455.20
476.20	6448.18
476.38	6651.80
476.56	6817.98
476.74	6628.40
476.92	6672.87
477.10	6352.21
477.28	6750.10
477.46	6689.25
477.64	6773.51
477.82	6906.92
478.00	6832.02
478.18	6963.09
478.36	7150.34
478.54	7080.12
478.72	7096.50
478.90	7169.06
479.08	7290.77
479.26	7396.09
479.44	7234.60
479.62	7349.28
479.80	7419.50
479.98	7548.23
480.16	7651.21
480.34	7513.12
480.52	7698.02
480.70	7719.09
480.88	7789.30
481.06	7669.94
481.24	7712.07
481.41	7894.63
481.59	7967.18
481.77	8119.32
481.95	8100.59
482.13	8339.33
482.31	8259.75
482.49	8449.33
482.67	8376.78
482.85	8449.33
483.03	8599.13
483.21	8610.83
483.39	8659.98
483.57	8496.14
483.74	8800.41
483.92	9022.77
484.10	8683.39
484.28	9062.55
484.46	9359.80
484.64	9404.27
484.82	9097.66
485.00	9228.73
485.18	9401.93
485.35	9523.64
485.53	9462.79
485.71	9556.41
485.89	9830.25
486.07	9856.00
486.25	9851.31
486.43	9722.59
486.61	9834.93
486.78	9909.83
486.96	10324.10
487.14	10281.97
487.32	10071.33
487.50	10134.52
487.68	10459.85
487.85	10462.19
488.03	10651.78
488.21	10773.49
488.39	10429.43
488.57	10637.73
488.75	10956.05
488.92	11255.64
489.10	10942.00
489.28	10939.66
489.46	11016.90
489.64	11501.39
489.81	11499.05
489.99	11386.71
490.17	11538.84
490.35	11747.15
490.53	11461.60
490.70	11896.94
490.88	11763.53
491.06	11974.18
491.24	11805.66
491.41	11805.66
491.59	12222.28
491.77	12016.31
491.95	12259.73
492.13	12121.63
492.30	12479.74
492.48	12486.76
492.66	12461.01
492.84	12587.40
493.01	12744.22
493.19	12842.52
493.37	13102.32
493.54	12985.29
493.72	13109.34
493.90	13060.19
494.08	13308.29
494.25	13305.95
494.43	13631.28
494.61	13434.68
494.79	13476.80
494.96	13411.27
495.14	13427.65
495.32	13738.94
495.49	13767.03
495.67	13947.25
495.85	13951.93
496.02	14246.84
496.20	14230.46
496.38	14127.47
496.55	14143.86
496.73	14335.78
496.91	14363.87
497.09	14427.06
497.26	14508.98
497.44	14438.76
497.62	14731.33
497.79	14970.07
497.97	14443.45
498.14	14995.81
498.32	14754.74
498.50	15279.02
498.67	15506.05
498.85	15286.04
499.03	15208.80
499.20	15115.18
499.38	15379.66
499.56	15227.53
499.73	15522.43
499.91	15477.96
500.08	15515.41
500.26	15440.51
500.44	15906.28
500.61	15602.01
500.79	15777.55
500.97	15997.56
501.14	16035.01
501.32	16145.02
501.49	15992.88
501.67	15786.91
501.84	15981.18
502.02	16035.01
502.20	16332.26
502.37	16180.12
502.55	16243.32
502.72	16271.40
502.90	16437.58
503.07	16315.87
503.25	16776.96
503.43	16290.13
503.60	16875.26
503.78	16812.07
503.95	16886.97
504.13	17062.51
504.30	16943.14
504.48	16917.39
504.65	16954.84
504.83	16989.95
505.01	17078.89
505.18	17095.27
505.36	17408.90
505.53	17074.21
505.71	17296.56
505.88	17238.05
506.06	17319.96
506.23	17638.28
506.41	17364.43
506.58	17558.70
506.76	17774.03
506.93	17755.30
507.11	17591.47
507.28	17951.91
507.46	17893.40
507.63	17811.48
507.81	18265.54
507.98	17692.11
508.16	18176.60
508.33	17951.91
508.50	18146.17
508.68	18192.98
508.85	18349.80
509.03	18457.46
509.20	18106.38
509.38	18661.09
509.55	18534.70
509.73	18593.22
509.90	18916.21
510.08	18532.36
510.25	18609.60
510.42	18754.71
510.60	19136.22
510.77	19115.16
510.95	19218.14
511.12	18801.52
511.30	19033.24
511.47	19058.98
511.64	19129.20
511.82	19290.70
511.99	19293.04
512.17	19311.76
512.34	19171.33
512.51	19508.37
512.69	19316.44
512.86	19126.86
513.04	19637.09
513.21	19555.18
513.38	19770.51
513.56	19962.43
513.73	19798.59
513.90	19601.99
514.08	19833.70
514.25	19871.15
514.43	20367.34
514.60	19859.45
514.77	19782.21
514.95	20217.55
515.12	19807.95
515.29	20088.82
515.47	19950.73
515.64	20201.16
515.81	20271.38
515.99	20100.52
516.16	20556.93
516.33	20692.68
516.51	20449.26
516.68	20336.91
516.85	20915.03
517.03	20643.52
517.20	20776.94
517.37	20566.29
517.54	21064.82
517.72	20833.11
517.89	20877.58
518.06	20912.69
518.24	21429.94
518.41	20945.45
518.58	21188.87
518.75	21099.93
518.93	21046.10
519.10	20882.26
519.27	21242.70
519.45	21432.29
519.62	21329.30
519.79	21118.65
519.96	21390.16
520.14	21460.37
520.31	21317.60
520.48	21495.48
520.65	21680.38
520.83	21759.96
521.00	21736.56
521.17	21530.59
521.34	21785.71
521.52	21769.32
521.69	21986.99
521.86	21881.67
522.03	22174.24
522.20	22017.42
522.38	22541.70
522.55	21940.18
522.72	22003.38
522.89	22139.13
523.07	22225.73
523.24	22574.47
523.41	22347.44
523.58	22118.06
523.75	22579.15
523.92	22319.35
524.10	22359.14
524.27	22560.42
524.44	22855.33
524.61	22579.15
524.78	22960.66
524.96	22888.10
525.13	22874.06
525.30	22953.63
525.47	22923.21
525.64	22951.29
525.81	23351.52
525.98	23044.91
526.16	23407.70
526.33	23098.75
526.50	22998.10
526.67	23133.86
526.84	23178.33
527.01	23098.75
527.18	23260.24
527.36	23496.64
527.53	23665.16
527.70	23931.98
527.87	23501.32
528.04	23641.75
528.21	23138.54
528.38	23543.45
528.55	23548.13
528.72	23962.40
528.89	23634.73
529.07	23594.94
529.24	23459.19
529.41	23623.03
529.58	23880.49
529.75	23922.62
529.92	23761.12
530.09	23690.90
530.26	24020.92
530.43	23833.68
530.60	23796.23
530.77	24070.07
530.94	24091.13
531.11	23967.09
531.28	24086.45
531.46	24402.43
531.63	24453.92
531.80	24266.67
531.97	24467.96
532.14	24252.63
532.31	24261.99
532.48	24552.22
532.65	24676.27
532.82	24592.01
532.99	24711.38
533.16	24372.00
533.33	24341.57
533.50	25078.84
533.67	24638.82
533.84	24812.02
534.01	24435.19
534.18	24425.83
534.35	25120.97
534.52	24917.34
534.69	25048.41
534.86	24601.37
535.03	24734.78
535.20	24711.38
535.37	25235.66
535.54	25242.68
535.71	24744.14
535.88	24765.21
536.05	25043.73
536.22	25673.34
536.38	25607.80
536.55	25284.81
536.72	25408.86
536.89	25443.96
537.06	25212.25
537.23	25394.81
537.40	25392.47
537.57	25200.55
537.74	25748.23
537.91	25645.25
538.08	25563.33
538.25	25476.73
538.42	25628.87
538.59	25862.92
538.75	25546.95
538.92	25596.10
539.09	25736.53
539.26	25635.89
539.43	25830.15
539.60	26010.37
539.77	25846.54
539.94	26171.87
540.11	25898.03
540.28	25809.09
540.44	25724.83
540.61	25806.75
540.78	25706.10
540.95	26148.46
541.12	25989.31
541.29	26267.83
541.46	25984.63
541.62	25820.79
541.79	26361.45
541.96	26008.03
542.13	26246.77
542.30	26422.31
542.47	26677.43
542.63	26745.30
542.80	26536.99
542.97	26829.56
543.14	26778.07
543.31	26625.93
543.48	26441.03
543.64	26960.63
543.81	27023.83
543.98	27033.19
544.15	26878.71
544.32	27098.72
544.48	26857.65
544.65	26897.44
544.82	27016.80
544.99	26595.51
545.16	26747.64
545.32	26806.16
545.49	26717.22
545.66	27229.79
545.83	27236.81
546.00	27080.00
546.16	26703.17
546.33	27119.79
546.50	27040.21
546.67	27395.97
546.83	26902.12
547.00	27220.43
547.17	27552.79
547.34	27384.27
547.50	27449.80
547.67	27501.29
547.84	27187.66
548.00	27585.55
548.17	27515.34
548.34	27370.22
548.51	27501.29
548.67	27793.86
548.84	27674.49
549.01	27510.66
549.18	27393.63
549.34	27442.78
549.51	27765.78
549.68	27840.67
549.84	28168.35
550.01	27761.09
550.18	27370.22
550.34	27810.25
550.51	27908.55
550.68	27894.50
550.84	27721.30
551.01	27791.52
551.18	27807.90
551.34	27583.21
551.51	27908.55
551.68	28334.53
551.84	28065.36
552.01	28084.09
552.18	27995.15
552.34	28264.31
552.51	28224.52
552.68	28107.49
552.84	27955.36
553.01	28617.73
553.18	28245.58
553.34	28430.49
553.51	28056.00
553.67	28379.00
553.84	28786.25
554.01	28629.43
554.17	28467.94
554.34	28601.35
554.51	28411.76
554.67	28208.14
554.84	28613.05
555.00	29048.39
555.17	28409.42
555.33	28353.25
555.50	28758.16
555.67	28924.34
555.83	28556.88
556.00	28781.57
556.16	28924.34
556.33	28210.48
556.50	28554.54
556.66	28676.24
556.83	28547.51
556.99	29160.73
557.16	29123.29
557.32	29053.07
557.49	28727.74
557.65	28781.57
557.82	28713.69
557.98	28945.41
558.15	28884.55
558.32	28938.38
558.48	29076.48
558.65	29160.73
558.81	29268.40
558.98	28943.06
559.14	28828.38
559.31	29282.44
559.47	29003.92
559.64	29315.21
559.80	29064.77
559.97	28905.62
560.13	28716.03
560.30	29420.53
560.46	29071.79
560.63	29191.16
560.79	29109.24
560.96	29111.58
561.12	29315.21
561.29	28884.55
561.45	29308.19
561.61	29448.62
561.78	29600.76
561.94	29806.72
562.11	29682.67
562.27	29638.20
562.44	29488.41
562.60	28989.88
562.77	29057.75
562.93	29142.01
563.10	29621.82
563.26	29673.31
563.42	29984.60
563.59	29188.82
563.75	29099.88
563.92	29708.42
564.08	29200.52
564.24	29387.77
564.41	29572.67
564.57	29310.53
564.74	29635.86
564.90	29408.83
565.07	29582.03
565.23	29773.95
565.39	29427.56
565.56	29778.64
565.72	29647.57
565.88	29685.01
566.05	29558.63
566.21	29612.46
566.38	29500.11
566.54	29862.90
566.70	29783.32
566.87	30139.08
567.03	29771.61
567.19	29982.26
567.36	30221.00
567.52	29766.93
567.68	29832.47
567.85	29645.23
568.01	29970.56
568.17	29687.36
568.34	29874.60
568.50	29457.98
568.66	30101.63
568.83	29745.87
568.99	29790.34
569.15	30036.09
569.32	29706.08
569.48	29893.32
569.64	29893.32
569.81	30183.55
569.97	30012.69
570.13	29785.66
570.30	29802.04
570.46	30122.69
570.62	30192.91
570.78	29792.68
570.95	29490.75
571.11	30012.69
571.27	29844.17
571.43	29598.41
571.60	30141.42
571.76	30164.82
571.92	30078.22
572.09	30239.72
572.25	30054.82
572.41	30174.19
572.57	29795.02
572.74	30153.12
572.90	29823.11
573.06	29963.54
573.22	29640.54
573.38	29907.37
573.55	29631.18
573.71	30675.06
573.87	30197.59
574.03	30019.71
574.20	30075.88
574.36	29673.31
574.52	30244.40
574.68	30405.90
574.84	30223.34
575.01	30031.41
575.17	30054.82
575.33	29907.37
575.49	30181.21
575.65	30230.36
575.82	30082.91
575.98	30600.16
576.14	30302.92
576.30	30302.92
576.46	29844.17
576.62	30363.77
576.79	30340.36
576.95	29977.58
577.11	30534.63
577.27	30466.75
577.43	30225.68
577.59	29832.47
577.75	30462.07
577.92	30202.27
578.08	30485.48
578.24	30281.85
578.40	30307.60
578.56	30469.09
578.72	30338.02
578.88	30546.33
579.04	30492.50
579.21	30373.13
579.37	30579.10
579.53	30295.89
579.69	30497.18
579.85	30043.12
580.01	30054.82
580.17	30583.78
580.33	30394.20
580.49	30445.69
580.65	30356.75
580.82	30534.63
580.98	30087.59
581.14	30377.81
581.30	30618.89
581.46	29905.02
581.62	30000.99
581.78	30206.95
581.94	30143.76
582.10	30216.32
582.26	30118.01
582.42	30263.13
582.58	30469.09
582.74	30345.05
582.90	30831.88
583.06	30508.88
583.22	30590.80
583.38	30527.61
583.54	30265.47
583.70	30209.29
583.86	30478.46
584.02	30529.95
584.18	30874.01
584.34	30462.07
584.50	30822.51
584.66	30721.87
584.82	30267.81
584.98	30499.52
585.14	30754.64
585.30	29965.88
585.46	30394.20
585.62	30422.28
585.78	30073.54
585.94	30335.68
586.10	31026.14
586.26	30670.38
586.42	30766.34
586.58	30820.17
586.74	30541.65
586.90	30499.52
587.06	30054.82
587.22	30286.53
587.38	30576.76
587.54	30834.22
587.70	30700.81
587.86	30728.89
588.02	30710.17
588.18	30632.93
588.34	30169.51
588.49	30691.44
588.65	30436.33
588.81	30361.43
588.97	30558.03
589.13	30492.50
589.29	30705.49
589.45	30986.35
589.61	30799.11
589.77	30862.30
589.93	30918.48
590.08	30618.89
590.24	30937.20
590.40	30785.07
590.56	30981.67
590.72	30871.67
590.88	30513.56
591.04	30656.34
591.20	30794.43
591.35	31007.42
591.51	30951.24
591.67	30759.32
591.83	31541.06
591.99	30595.48
