SpectraSuite Data File
++++++++++++++++++++++++++++++++++++
Date: Fri Oct 18 13:58:10 GMT-05:00 2013
User: bianchi
Dark Spectrum Present: No
Reference Spectrum Present: No
Number of Sampled Component Spectra: 1
Spectrometers: USB2+H05261
Integration Time (usec): 50000 (USB2+H05261)
Spectra Averaged: 1 (USB2+H05261)
Boxcar Smoothing: 0 (USB2+H05261)
Correct for Electrical Dark: No (USB2+H05261)
Strobe/Lamp Enabled: No (USB2+H05261)
Correct for Detector Non-linearity: No (USB2+H05261)
Correct for Stray Light: No (USB2+H05261)
Number of Pixels in Processed Spectrum: 2048
>>>>>Begin Processed Spectral Data<<<<<
365.73	0.00
365.92	0.00
366.12	0.00
366.32	0.00
366.52	0.00
366.72	0.00
366.91	0.00
367.11	0.00
367.31	0.00
367.51	0.00
367.70	0.00
367.90	0.00
368.10	0.00
368.30	0.00
368.49	0.00
368.69	0.00
368.89	0.00
369.09	0.00
369.28	0.00
369.48	0.00
369.68	0.00
369.87	0.00
370.07	0.00
370.27	0.00
370.47	0.00
370.66	84.26
370.86	105.32
371.06	161.50
371.25	131.07
371.45	168.52
371.65	187.24
371.84	201.29
372.04	126.39
372.24	191.92
372.44	196.60
372.63	229.37
372.83	271.50
373.03	245.76
373.22	224.69
373.42	184.90
373.62	208.31
373.81	245.76
374.01	212.99
374.21	285.55
374.40	276.18
374.60	224.69
374.79	248.10
374.99	191.92
375.19	292.57
375.38	308.95
375.58	255.12
375.78	280.86
375.97	294.91
376.17	257.46
376.37	194.26
376.56	320.65
376.76	320.65
376.95	264.48
377.15	304.27
377.35	358.10
377.54	255.12
377.74	194.26
377.93	241.08
378.13	278.52
378.33	238.73
378.52	210.65
378.72	308.95
378.91	243.42
379.11	320.65
379.31	299.59
379.50	330.02
379.70	287.89
379.89	215.33
380.09	229.37
380.28	322.99
380.48	322.99
380.68	273.84
380.87	346.40
381.07	327.68
381.26	290.23
381.46	322.99
381.65	358.10
381.85	332.36
382.04	311.29
382.24	428.32
382.43	358.10
382.63	402.57
382.83	341.72
383.02	344.06
383.22	355.76
383.41	386.19
383.61	348.74
383.80	367.46
384.00	367.46
384.19	330.02
384.39	395.55
384.58	379.17
384.78	397.89
384.97	437.68
385.17	353.42
385.36	395.55
385.56	311.29
385.75	330.02
385.95	365.12
386.14	433.00
386.34	447.04
386.53	383.85
386.72	496.19
386.92	472.79
387.11	463.43
387.31	411.93
387.50	500.87
387.70	362.78
387.89	442.36
388.09	440.02
388.28	465.77
388.48	423.64
388.67	395.55
388.86	447.04
389.06	433.00
389.25	472.79
389.45	519.60
389.64	486.83
389.84	587.47
390.03	545.34
390.22	559.39
390.42	543.00
390.61	486.83
390.81	491.51
391.00	484.49
391.19	545.34
391.39	489.17
391.58	496.19
391.78	433.00
391.97	543.00
392.16	526.62
392.36	585.13
392.55	519.60
392.75	528.96
392.94	587.47
393.13	643.65
393.33	596.84
393.52	608.54
393.71	622.58
393.91	624.92
394.10	568.75
394.29	571.09
394.49	669.39
394.68	669.39
394.88	704.50
395.07	594.50
395.26	613.22
395.46	653.01
395.65	620.24
395.84	681.10
396.04	674.07
396.23	770.04
396.42	622.58
396.62	706.84
396.81	683.44
397.00	685.78
397.19	734.93
397.39	645.99
397.58	709.18
397.77	667.05
397.97	702.16
398.16	622.58
398.35	774.72
398.55	678.76
398.74	704.50
398.93	763.01
399.12	709.18
399.32	739.61
399.51	678.76
399.70	809.83
399.90	755.99
400.09	777.06
400.28	765.36
400.47	767.70
400.67	758.33
400.86	746.63
401.05	781.74
401.24	770.04
401.44	828.55
401.63	884.72
401.82	816.85
402.01	823.87
402.21	905.79
402.40	781.74
402.59	880.04
402.78	875.36
402.97	854.30
403.17	926.85
403.36	837.91
403.55	880.04
403.74	915.15
403.93	877.70
404.13	933.87
404.32	936.21
404.51	856.64
404.70	940.90
404.89	952.60
405.09	976.00
405.28	919.83
405.47	931.53
405.66	971.32
405.85	959.62
406.05	940.90
406.24	1008.77
406.43	980.68
406.62	999.41
406.81	1088.35
407.00	1050.90
407.20	1053.24
407.39	968.98
407.58	1071.97
407.77	1041.54
407.96	1151.54
408.15	1081.33
408.34	1132.82
408.54	1128.14
408.73	1142.18
408.92	1130.48
409.11	1132.82
409.30	1177.29
409.49	1151.54
409.68	1149.20
409.87	1158.57
410.07	1165.59
410.26	1196.01
410.45	1193.67
410.64	1219.42
410.83	1078.99
411.02	1125.80
411.21	1294.32
411.40	1252.19
411.59	1357.51
411.78	1273.25
411.98	1343.47
412.17	1261.55
412.36	1277.93
412.55	1331.76
412.74	1308.36
412.93	1430.07
413.12	1345.81
413.31	1439.43
413.50	1467.52
413.69	1397.30
413.88	1462.83
414.07	1526.03
414.26	1490.92
414.45	1528.37
414.64	1493.26
414.83	1544.75
415.02	1586.88
415.22	1544.75
415.41	1551.78
415.60	1624.33
415.79	1586.88
415.98	1753.06
416.17	1575.18
416.36	1643.06
416.55	1568.16
416.74	1750.72
416.93	1671.14
417.12	1767.10
417.31	1806.89
417.50	1687.53
417.69	1760.08
417.88	1769.44
418.07	1804.55
418.26	1703.91
418.45	1788.17
418.64	1724.97
418.83	1792.85
419.02	1853.70
419.21	1905.20
419.39	1834.98
419.58	1839.66
419.77	1818.60
419.96	1977.75
420.15	1879.45
420.34	1893.49
420.53	1977.75
420.72	2019.88
420.91	1987.11
421.10	1989.46
421.29	2024.56
421.48	1879.45
421.67	1963.71
421.86	1888.81
422.05	2029.24
422.24	1851.36
422.43	1944.99
422.61	2047.97
422.80	2066.69
422.99	2001.16
423.18	2059.67
423.37	2214.15
423.56	2003.50
423.75	2008.18
423.94	1975.41
424.13	1860.73
424.32	1907.54
424.50	1994.14
424.69	2080.74
424.88	2148.61
425.07	2113.50
425.26	1970.73
425.45	2090.10
425.64	2010.52
425.83	2113.50
426.01	2108.82
426.20	2071.37
426.39	2080.74
426.58	2078.40
426.77	2120.53
426.96	2153.29
427.15	2106.48
427.33	2204.78
427.52	2169.68
427.71	2122.87
427.90	2223.51
428.09	2197.76
428.28	2207.13
428.46	2253.94
428.65	2183.72
428.84	2312.45
429.03	2349.90
429.22	2256.28
429.40	2375.64
429.59	2385.01
429.78	2202.44
429.97	2076.06
430.16	2314.79
430.34	2338.20
430.53	2347.56
430.72	2263.30
430.91	2293.72
431.10	2279.68
431.28	2511.39
431.47	2523.10
431.66	2485.65
431.85	2389.69
432.03	2572.25
432.22	2644.81
432.41	2366.28
432.60	2532.46
432.79	2406.07
432.97	2356.92
433.16	2586.29
433.35	2576.93
433.54	2612.04
433.72	2672.89
433.91	2480.97
434.10	2572.25
434.28	2530.12
434.47	2558.21
434.66	2520.76
434.85	2586.29
435.03	2551.18
435.22	2825.03
435.41	2785.24
435.59	2605.02
435.78	2750.13
435.97	2661.19
436.16	2621.40
436.34	2789.92
436.53	2628.42
436.72	2815.66
436.90	2668.21
437.09	2792.26
437.28	2773.53
437.46	2801.62
437.65	2668.21
437.84	2827.37
438.02	2780.56
438.21	2953.76
438.40	2782.90
438.58	2939.71
438.77	2913.97
438.96	2881.20
439.14	3021.63
439.33	3084.83
439.52	2960.78
439.70	3063.76
439.89	3091.85
440.08	3059.08
440.26	3215.90
440.45	3148.02
440.63	3066.10
440.82	3084.83
441.01	3204.19
441.19	3145.68
441.38	3176.11
441.57	3279.09
441.75	3206.53
441.94	3349.31
442.12	3346.97
442.31	3452.29
442.50	3438.25
442.68	3368.03
442.87	3478.04
443.05	3283.77
443.24	3389.10
443.43	3456.97
443.61	3517.83
443.80	3578.68
443.98	3499.10
444.17	3384.41
444.35	3538.89
444.54	3590.38
444.73	3440.59
444.91	3510.80
445.10	3527.19
445.28	3428.88
445.47	3424.20
445.65	3485.06
445.84	3630.17
446.02	3761.24
446.21	3492.08
446.39	3480.38
446.58	3651.24
446.77	3456.97
446.95	3510.80
447.14	3475.70
447.32	3482.72
447.51	3440.59
447.69	3485.06
447.88	3592.72
448.06	3639.53
448.25	3585.70
448.43	3651.24
448.62	3524.85
448.80	3648.90
448.99	3634.85
449.17	3590.38
449.36	3637.19
449.54	3723.79
449.73	3728.47
449.91	3812.73
450.10	3861.88
450.28	3836.14
450.46	3754.22
450.65	3770.60
450.83	3782.31
451.02	3798.69
451.20	3904.01
451.39	3889.97
451.57	3784.65
451.76	3803.37
451.94	3805.71
452.13	3833.80
452.31	4035.08
452.49	3798.69
452.68	3859.54
452.86	4042.11
453.05	4046.79
453.23	3997.64
453.42	3939.12
453.60	3847.84
453.78	4084.23
453.97	3964.87
454.15	3927.42
454.34	4028.06
454.52	4154.45
454.70	4091.26
454.89	4018.70
455.07	4079.55
455.26	4112.32
455.44	4128.70
455.62	4042.11
455.81	4219.99
455.99	4177.86
456.17	4339.35
456.36	4308.93
456.54	4329.99
456.73	4224.67
456.91	4355.74
457.09	4337.01
457.28	4470.42
457.46	4447.02
457.64	4489.15
457.83	4437.66
458.01	4341.69
458.19	4489.15
458.38	4489.15
458.56	4542.98
458.74	4535.96
458.93	4540.64
459.11	4615.54
459.29	4507.87
459.48	4545.32
459.66	4655.33
459.84	4582.77
460.03	4662.35
460.21	4610.86
460.39	4566.39
460.57	4596.81
460.76	4645.96
460.94	4739.58
461.12	4692.77
461.31	4634.26
461.49	4662.35
461.67	4645.96
461.85	4896.40
462.04	4758.31
462.22	5039.17
462.40	4844.91
462.59	4802.78
462.77	4964.28
462.95	4809.80
463.13	4873.00
463.32	4896.40
463.50	4990.02
463.68	4908.10
463.86	5008.75
464.05	4985.34
464.23	4971.30
464.41	5041.51
464.59	4781.71
464.78	5179.61
464.96	4926.83
465.14	5008.75
465.32	5088.32
465.50	5263.86
465.69	5083.64
465.87	5027.47
466.05	5093.01
466.23	5004.07
466.41	5167.90
466.60	5296.63
466.78	5343.44
466.96	5041.51
467.14	5198.33
467.32	5095.35
467.51	5378.55
467.69	5151.52
467.87	5268.55
468.05	5167.90
468.23	5090.67
468.41	5181.95
468.60	5338.76
468.78	5343.44
468.96	5254.50
469.14	5373.87
469.32	5373.87
469.50	5343.44
469.69	5603.24
469.87	5460.47
470.05	5467.49
470.23	5455.79
470.41	5366.85
470.59	5558.77
470.77	5570.48
470.95	5526.00
471.14	5809.21
471.32	5479.19
471.50	5605.58
471.68	5856.02
471.86	5596.22
472.04	5844.32
472.22	5907.51
472.40	5626.65
472.58	5680.48
472.77	5834.96
472.95	5909.85
473.13	6113.48
473.31	6015.18
473.49	6076.03
473.67	6038.58
473.85	5940.28
474.03	6197.74
474.21	5940.28
474.39	6200.08
474.57	6207.10
474.75	6232.85
474.93	6389.66
475.12	6246.89
475.30	6277.32
475.48	6389.66
475.66	6314.77
475.84	6502.01
476.02	6539.46
476.20	6443.49
476.38	6532.44
476.56	6745.42
476.74	6722.02
476.92	6576.91
477.10	6705.63
477.28	6715.00
477.46	6752.45
477.64	6949.05
477.82	6881.18
478.00	7119.91
478.18	7063.74
478.36	7119.91
478.54	7007.56
478.72	7206.51
478.90	7323.54
479.08	7375.03
479.26	7297.79
479.44	7545.89
479.62	7592.70
479.80	7630.15
479.98	7440.56
480.16	7751.85
480.34	7639.51
480.52	7967.18
480.70	7885.26
480.88	7854.84
481.06	7777.60
481.24	7843.14
481.41	7976.55
481.59	8044.42
481.77	8222.30
481.95	8287.84
482.13	8397.84
482.31	8196.56
482.49	8374.44
482.67	8386.14
482.85	8482.10
483.03	8711.47
483.21	8851.91
483.39	8669.34
483.57	8631.90
483.74	8917.44
483.92	8947.87
484.10	8896.38
484.28	9121.07
484.46	9394.91
484.64	9263.84
484.82	9172.56
485.00	9191.28
485.18	9511.94
485.35	9474.49
485.53	9619.60
485.71	9647.69
485.89	9795.14
486.07	9809.19
486.25	9692.16
486.43	9982.38
486.61	9961.32
486.78	10026.86
486.96	10083.03
487.14	10169.63
487.32	10221.12
487.50	10342.83
487.68	10415.38
487.85	10501.98
488.03	10682.20
488.21	10698.59
488.39	10925.62
488.57	10977.11
488.75	10803.91
488.92	11187.76
489.10	11222.87
489.28	11119.89
489.46	11410.11
489.64	11269.68
489.81	11557.57
489.99	11592.67
490.17	11555.22
490.35	11744.81
490.53	11800.98
490.70	11730.76
490.88	11873.54
491.06	12084.19
491.24	11992.90
491.41	12133.34
491.59	12210.57
491.77	12180.15
491.95	12510.16
492.13	12578.04
492.30	12613.15
492.48	12517.18
492.66	12444.63
492.84	12788.69
493.01	12674.00
493.19	12835.50
493.37	13151.47
493.54	13146.79
493.72	12849.54
493.90	13378.50
494.08	13254.45
494.25	13343.39
494.43	13467.44
494.61	13469.78
494.79	13488.51
494.96	13483.83
495.14	13687.45
495.32	13743.63
495.49	13865.33
495.67	13870.01
495.85	14183.65
496.02	13951.93
496.20	14293.65
496.38	14216.41
496.55	14225.78
496.73	14265.57
496.91	14520.68
497.09	14459.83
497.26	14537.07
497.44	14569.83
497.62	14803.89
497.79	14775.80
497.97	14618.99
498.14	15272.00
498.32	15367.96
498.50	15183.06
498.67	15171.35
498.85	15239.23
499.03	15346.89
499.20	15225.18
499.38	15332.85
499.56	15552.86
499.73	15632.44
499.91	15536.48
500.08	15538.82
500.26	15630.10
500.44	15770.53
500.61	16030.33
500.79	16095.86
500.97	16177.78
501.14	16336.94
501.32	16114.59
501.49	16428.22
501.67	16098.20
501.84	16465.67
502.02	16301.83
502.20	16161.40
502.37	16627.17
502.55	16486.73
502.72	16662.27
502.90	16374.39
503.07	16622.48
503.25	16575.67
503.43	16695.04
503.60	17057.82
503.78	16945.48
503.95	16940.80
504.13	16943.14
504.30	17064.85
504.48	17167.83
504.65	17195.92
504.83	17268.47
505.01	17317.62
505.18	17525.93
505.36	17614.87
505.53	17783.39
505.71	17654.66
505.88	17411.25
506.06	17481.46
506.23	17853.61
506.41	17572.74
506.58	17916.80
506.76	17970.63
506.93	18146.17
507.11	17977.65
507.28	17893.40
507.46	17771.69
507.63	17785.73
507.81	18291.29
507.98	18001.06
508.16	18279.58
508.33	18244.48
508.50	18003.40
508.68	18258.52
508.85	18696.20
509.03	18523.00
509.20	18459.81
509.38	19080.05
509.55	18766.42
509.73	18939.62
509.90	18635.35
510.08	18827.27
510.25	18778.12
510.42	19094.09
510.60	18944.30
510.77	19316.44
510.95	19358.57
511.12	19152.60
511.30	19171.33
511.47	19503.68
511.64	19225.16
511.82	19389.00
511.99	19302.40
512.17	19782.21
512.34	19522.41
512.51	19782.21
512.69	19700.29
512.86	19721.35
513.04	19646.46
513.21	19594.96
513.38	20098.18
513.56	20095.84
513.73	19782.21
513.90	19747.10
514.08	19831.36
514.25	19939.02
514.43	20093.50
514.60	20435.22
514.77	20325.21
514.95	20767.57
515.12	20631.82
515.29	20482.03
515.47	20350.96
515.64	20664.59
515.81	20554.58
515.99	20451.60
516.16	20790.98
516.33	20798.00
516.51	21055.46
516.68	20720.76
516.85	21013.33
517.03	20989.92
517.20	20985.24
517.37	20936.09
517.54	21120.99
517.72	21156.10
517.89	20987.58
518.06	21018.01
518.24	21317.60
518.41	21085.89
518.58	21366.75
518.75	21343.35
518.93	21284.83
519.10	21221.64
519.27	21495.48
519.45	21575.06
519.62	21394.84
519.79	21673.36
519.96	21654.64
520.14	21832.52
520.31	21701.45
520.48	21734.21
520.65	21612.51
520.83	21994.01
521.00	21701.45
521.17	21703.79
521.34	22038.48
521.52	22221.05
521.69	21893.37
521.86	22256.15
522.03	22590.85
522.20	22424.67
522.38	22457.44
522.55	22745.33
522.72	22499.57
522.89	22382.54
523.07	22862.35
523.24	22623.62
523.41	22977.04
523.58	22309.99
523.75	22623.62
523.92	22803.84
524.10	22581.49
524.27	22780.43
524.44	22820.22
524.61	23047.26
524.78	22810.86
524.96	23005.13
525.13	22998.10
525.30	22972.36
525.47	23070.66
525.64	23016.83
525.81	23271.95
525.98	23180.67
526.16	22951.29
526.33	23349.18
526.50	23510.68
526.67	23627.71
526.84	23487.28
527.01	23489.62
527.18	23410.04
527.36	23353.87
527.53	23491.96
527.70	23903.89
527.87	23875.80
528.04	24051.34
528.21	23681.54
528.38	23676.86
528.55	24151.99
528.72	23630.05
528.89	23744.73
529.07	24098.16
529.24	23917.93
529.41	24013.90
529.58	24156.67
529.75	24020.92
529.92	24063.05
530.09	24128.58
530.26	24140.29
530.43	24409.45
530.60	24137.94
530.77	24079.43
530.94	24236.25
531.11	24254.97
531.28	24081.77
531.46	24538.18
531.63	24437.53
531.80	24638.82
531.97	24683.29
532.14	24772.23
532.31	24498.39
532.48	25010.96
532.65	24819.04
532.82	24645.84
532.99	24863.51
533.16	24844.79
533.33	24755.85
533.50	24992.24
533.67	24952.45
533.84	24856.49
534.01	24765.21
534.18	24793.29
534.35	25137.35
534.52	25191.19
534.69	25308.21
534.86	25427.58
535.03	24912.66
535.20	25401.83
535.37	25116.29
535.54	25408.86
535.71	25296.51
535.88	25261.40
536.05	25502.48
536.22	25420.56
536.38	25741.21
536.55	25757.60
536.72	25350.34
536.89	25708.44
537.06	25546.95
537.23	25689.72
537.40	25666.31
537.57	25434.60
537.74	25900.37
537.91	25898.03
538.08	25853.56
538.25	25685.04
538.42	25879.30
538.59	25935.48
538.75	25722.49
538.92	25879.30
539.09	26284.22
539.26	25844.20
539.43	26047.82
539.60	26073.57
539.77	26150.81
539.94	26396.56
540.11	25923.77
540.28	26054.84
540.44	25851.22
540.61	26031.44
540.78	26251.45
540.95	26356.77
541.12	26504.23
541.29	26443.37
541.46	26490.18
541.62	26129.74
541.79	26309.96
541.96	26125.06
542.13	26438.69
542.30	26728.92
542.47	26981.70
542.63	26967.65
542.80	26703.17
542.97	26775.73
543.14	26885.73
543.31	26817.86
543.48	26672.74
543.64	27161.92
543.81	27051.91
543.98	27145.53
544.15	26960.63
544.32	26953.61
544.48	27578.53
544.65	26902.12
544.82	27042.55
544.99	27009.78
545.16	27061.27
545.32	27288.31
545.49	27349.16
545.66	27246.18
545.83	27606.62
546.00	27412.35
546.16	27292.99
546.33	27089.36
546.50	26911.48
546.67	27360.86
546.83	27187.66
547.00	27452.14
547.17	27730.67
547.34	27428.74
547.50	27667.47
547.67	27819.61
547.84	27861.74
548.00	27725.99
548.17	27676.83
548.34	27721.30
548.51	28297.08
548.67	27969.40
548.84	28463.25
549.01	28147.28
549.18	28158.99
549.34	28142.60
549.51	27700.24
549.68	28091.11
549.84	28126.22
550.01	27903.87
550.18	28044.30
550.34	28011.53
550.51	28231.54
550.68	28163.67
550.84	28018.55
551.01	28278.35
551.18	28180.05
551.34	27908.55
551.51	27971.74
551.68	28325.16
551.84	28451.55
552.01	28264.31
552.18	28278.35
552.34	28390.70
552.51	28615.39
552.68	28676.24
552.84	28711.35
553.01	29130.31
553.18	28348.57
553.34	28650.50
553.51	28648.16
553.67	28851.78
553.84	28746.46
554.01	29010.94
554.17	28968.81
554.34	28821.36
554.51	29125.63
554.67	28563.90
554.84	28716.03
555.00	28917.32
555.17	29142.01
555.33	28807.31
555.50	28739.44
555.67	28692.63
555.83	29156.05
556.00	28875.19
556.16	29010.94
556.33	28940.72
556.50	28985.19
556.66	28753.48
556.83	29069.45
556.99	28957.11
557.16	29383.09
557.32	29053.07
557.49	29219.25
557.65	28924.34
557.82	29050.73
557.98	29261.38
558.15	29420.53
558.32	29425.22
558.48	29200.52
558.65	29380.74
558.81	29268.40
558.98	29476.71
559.14	29254.36
559.31	29163.08
559.47	29399.47
559.64	29448.62
559.80	29600.76
559.97	29642.88
560.13	29230.95
560.30	29284.78
560.46	29436.92
560.63	29481.39
560.79	29249.67
560.96	29333.93
561.12	29249.67
561.29	29490.75
561.45	29663.95
561.61	29645.23
561.78	29949.50
561.94	29975.24
562.11	29766.93
562.27	29905.02
562.44	29942.47
562.60	29874.60
562.77	29720.12
562.93	29752.89
563.10	29675.65
563.26	29717.78
563.42	30031.41
563.59	29757.57
563.75	30026.73
563.92	29954.18
564.08	29642.88
564.24	29429.90
564.41	29977.58
564.57	29928.43
564.74	29521.18
564.90	29921.41
565.07	29963.54
565.23	30059.50
565.39	30141.42
565.56	30078.22
565.72	29937.79
565.88	29848.85
566.05	29612.46
566.21	29963.54
566.38	29656.93
566.54	29685.01
566.70	30204.61
566.87	30192.91
567.03	30345.05
567.19	30171.85
567.36	29773.95
567.52	30286.53
567.68	29958.86
567.85	30139.08
568.01	30118.01
568.17	29947.15
568.34	30232.70
568.50	29993.97
568.66	30176.53
568.83	29963.54
568.99	30260.79
569.15	29979.92
569.32	30202.27
569.48	29890.98
569.64	30506.54
569.81	30225.68
569.97	30010.35
570.13	30527.61
570.30	30291.21
570.46	30206.95
570.62	30101.63
570.78	30251.42
570.95	30150.78
571.11	30129.72
571.27	29764.59
571.43	30031.41
571.60	30260.79
571.76	30190.57
571.92	30281.85
572.09	30331.00
572.25	30525.27
572.41	30651.66
572.57	30340.36
572.74	30934.86
572.90	30281.85
573.06	30417.60
573.22	30155.46
573.38	30700.81
573.55	30401.22
573.71	30721.87
573.87	30574.42
574.03	30710.17
574.20	30644.63
574.36	30335.68
574.52	30464.41
574.68	30263.13
574.84	30471.43
575.01	30794.43
575.17	30635.27
575.33	30288.87
575.49	30616.55
575.65	30719.53
575.82	30321.64
575.98	30190.57
576.14	30525.27
576.30	30607.19
576.46	30265.47
576.62	30543.99
576.79	30515.90
576.95	30314.62
577.11	30518.25
577.27	30803.79
577.43	30543.99
577.59	30511.22
577.75	30504.20
577.92	30410.58
578.08	30347.39
578.24	30176.53
578.40	30443.35
578.56	30244.40
578.72	30904.43
578.88	30799.11
579.04	30808.47
579.21	30794.43
579.37	30808.47
579.53	30829.54
579.69	30696.13
579.85	30682.08
580.01	30604.84
580.17	30405.90
580.33	30553.35
580.49	30562.72
580.65	30822.51
580.82	30775.70
580.98	30698.47
581.14	30714.85
581.30	30911.46
581.46	30466.75
581.62	30632.93
581.78	30642.29
581.94	30572.08
582.10	30742.94
582.26	30838.90
582.42	31007.42
582.58	30558.03
582.74	30920.82
582.90	31035.50
583.06	30775.70
583.22	30817.83
583.38	30927.84
583.54	30742.94
583.70	30632.93
583.86	30562.72
584.02	30953.58
584.18	31096.36
584.34	31035.50
584.50	30642.29
584.66	30920.82
584.82	30621.23
584.98	30464.41
585.14	30864.64
585.30	30375.47
585.46	30656.34
585.62	30492.50
585.78	30668.04
585.94	30602.50
586.10	30742.94
586.26	31175.94
586.42	31189.98
586.58	31339.77
586.74	30979.33
586.90	30342.70
587.06	30871.67
587.22	30419.94
587.38	30478.46
587.54	31014.44
587.70	30944.22
587.86	30878.69
588.02	30848.26
588.18	31033.16
588.34	30827.20
588.49	30862.30
588.65	30848.26
588.81	30712.51
588.97	30822.51
589.13	30876.35
589.29	30426.96
589.45	31398.29
589.61	30918.48
589.77	31159.55
589.93	30927.84
590.08	31250.83
590.24	31761.07
590.40	31402.97
590.56	31131.47
590.72	31475.52
590.88	30969.97
591.04	31070.61
591.20	31735.32
591.35	31339.77
591.51	31718.94
591.67	31393.61
591.83	31681.49
591.99	31311.69
