SpectraSuite Data File
++++++++++++++++++++++++++++++++++++
Date: Fri Oct 18 13:58:05 GMT-05:00 2013
User: bianchi
Dark Spectrum Present: No
Reference Spectrum Present: No
Number of Sampled Component Spectra: 1
Spectrometers: USB2+H05261
Integration Time (usec): 50000 (USB2+H05261)
Spectra Averaged: 1 (USB2+H05261)
Boxcar Smoothing: 0 (USB2+H05261)
Correct for Electrical Dark: No (USB2+H05261)
Strobe/Lamp Enabled: No (USB2+H05261)
Correct for Detector Non-linearity: No (USB2+H05261)
Correct for Stray Light: No (USB2+H05261)
Number of Pixels in Processed Spectrum: 2048
>>>>>Begin Processed Spectral Data<<<<<
365.73	0.00
365.92	0.00
366.12	0.00
366.32	0.00
366.52	0.00
366.72	0.00
366.91	0.00
367.11	0.00
367.31	0.00
367.51	0.00
367.70	0.00
367.90	0.00
368.10	0.00
368.30	0.00
368.49	0.00
368.69	0.00
368.89	0.00
369.09	0.00
369.28	0.00
369.48	0.00
369.68	0.00
369.87	0.00
370.07	0.00
370.27	0.00
370.47	0.00
370.66	74.90
370.86	163.84
371.06	133.41
371.25	72.56
371.45	121.71
371.65	210.65
371.84	128.73
372.04	105.32
372.24	184.90
372.44	210.65
372.63	290.23
372.83	198.95
373.03	201.29
373.22	187.24
373.42	184.90
373.62	257.46
373.81	264.48
374.01	248.10
374.21	224.69
374.40	220.01
374.60	276.18
374.79	234.05
374.99	217.67
375.19	273.84
375.38	285.55
375.58	215.33
375.78	297.25
375.97	255.12
376.17	241.08
376.37	297.25
376.56	252.78
376.76	238.73
376.95	248.10
377.15	241.08
377.35	287.89
377.54	304.27
377.74	287.89
377.93	304.27
378.13	278.52
378.33	210.65
378.52	243.42
378.72	304.27
378.91	299.59
379.11	278.52
379.31	306.61
379.50	341.72
379.70	318.31
379.89	332.36
380.09	348.74
380.28	297.25
380.48	339.38
380.68	285.55
380.87	322.99
381.07	301.93
381.26	313.63
381.46	315.97
381.65	355.76
381.85	362.78
382.04	425.98
382.24	325.33
382.43	304.27
382.63	327.68
382.83	334.70
383.02	402.57
383.22	425.98
383.41	346.40
383.61	344.06
383.80	397.89
384.00	428.32
384.19	430.66
384.39	416.62
384.58	397.89
384.78	418.96
384.97	498.53
385.17	388.53
385.36	393.21
385.56	353.42
385.75	355.76
385.95	414.27
386.14	400.23
386.34	470.45
386.53	374.49
386.72	428.32
386.92	355.76
387.11	346.40
387.31	421.30
387.50	402.57
387.70	400.23
387.89	528.96
388.09	456.40
388.28	479.81
388.48	461.09
388.67	470.45
388.86	440.02
389.06	444.70
389.25	559.39
389.45	503.22
389.64	468.11
389.84	472.79
390.03	472.79
390.22	498.53
390.42	463.43
390.61	543.00
390.81	517.26
391.00	512.58
391.19	552.37
391.39	491.51
391.58	425.98
391.78	517.26
391.97	521.94
392.16	482.15
392.36	543.00
392.55	615.56
392.75	606.20
392.94	557.05
393.13	547.69
393.33	589.82
393.52	543.00
393.71	643.65
393.91	596.84
394.10	645.99
394.29	470.45
394.49	533.64
394.68	655.35
394.88	599.18
395.07	580.45
395.26	653.01
395.46	662.37
395.65	638.97
395.84	748.97
396.04	725.57
396.23	545.34
396.42	664.71
396.62	779.40
396.81	631.94
397.00	713.86
397.19	676.41
397.39	662.37
397.58	688.12
397.77	674.07
397.97	727.91
398.16	730.25
398.35	751.31
398.55	746.63
398.74	648.33
398.93	716.20
399.12	763.01
399.32	727.91
399.51	753.65
399.70	880.04
399.90	748.97
400.09	809.83
400.28	840.25
400.47	795.78
400.67	819.19
400.86	840.25
401.05	851.96
401.24	795.78
401.44	816.85
401.63	819.19
401.82	760.67
402.01	830.89
402.21	814.51
402.40	856.64
402.59	887.06
402.78	894.08
402.97	851.96
403.17	917.49
403.36	873.02
403.55	917.49
403.74	978.34
403.93	926.85
404.13	952.60
404.32	933.87
404.51	910.47
404.70	971.32
404.89	954.94
405.09	1013.45
405.28	917.49
405.47	922.17
405.66	915.15
405.85	1018.13
406.05	1095.37
406.24	1011.11
406.43	1041.54
406.62	1062.60
406.81	1123.46
407.00	1004.09
407.20	1008.77
407.39	1018.13
407.58	1043.88
407.77	1086.01
407.96	1114.10
408.15	1090.69
408.34	1151.54
408.54	1104.73
408.73	1142.18
408.92	1165.59
409.11	1226.44
409.30	1226.44
409.49	1186.65
409.68	1153.88
409.87	1170.27
410.07	1165.59
410.26	1252.19
410.45	1156.22
410.64	1191.33
410.83	1207.72
411.02	1160.91
411.21	1324.74
411.40	1268.57
411.59	1284.95
411.78	1357.51
411.98	1256.87
412.17	1324.74
412.36	1308.36
412.55	1322.40
412.74	1394.96
412.93	1420.71
413.12	1345.81
413.31	1490.92
413.50	1411.34
413.69	1476.88
413.88	1472.20
414.07	1467.52
414.26	1596.25
414.45	1439.43
414.64	1404.32
414.83	1554.12
415.02	1570.50
415.22	1640.72
415.41	1621.99
415.60	1549.43
415.79	1621.99
415.98	1610.29
416.17	1806.89
416.36	1544.75
416.55	1741.36
416.74	1715.61
416.93	1708.59
417.12	1666.46
417.31	1748.38
417.50	1734.34
417.69	1820.94
417.88	1717.95
418.07	1811.57
418.26	1818.60
418.45	1846.68
418.64	1870.09
418.83	1886.47
419.02	1846.68
419.21	1839.66
419.39	1970.73
419.58	1874.77
419.77	1823.28
419.96	1834.98
420.15	1937.96
420.34	1851.36
420.53	1858.39
420.72	1884.13
420.91	1975.41
421.10	2005.84
421.29	2054.99
421.48	2040.95
421.67	1909.88
421.86	1863.07
422.05	2038.61
422.24	1998.82
422.43	1989.46
422.61	2024.56
422.80	2071.37
422.99	1980.09
423.18	2003.50
423.37	2083.08
423.56	2045.63
423.75	1980.09
423.94	1998.82
424.13	1820.94
424.32	2054.99
424.50	2022.22
424.69	2134.57
424.88	2111.16
425.07	2064.35
425.26	1987.11
425.45	2148.61
425.64	1959.03
425.83	2022.22
426.01	2108.82
426.20	2045.63
426.39	2001.16
426.58	2157.97
426.77	2057.33
426.96	2106.48
427.15	2188.40
427.33	2134.57
427.52	2228.19
427.71	2057.33
427.90	2174.36
428.09	2174.36
428.28	2265.64
428.46	2272.66
428.65	2190.74
428.84	2317.13
429.03	2232.87
429.22	2244.57
429.40	2277.34
429.59	2349.90
429.78	2181.38
429.97	2174.36
430.16	2218.83
430.34	2324.15
430.53	2417.77
430.72	2389.69
430.91	2279.68
431.10	2385.01
431.28	2410.75
431.47	2366.28
431.66	2417.77
431.85	2413.09
432.03	2539.48
432.22	2424.80
432.41	2441.18
432.60	2544.16
432.79	2684.59
432.97	2429.48
433.16	2562.89
433.35	2546.50
433.54	2506.71
433.72	2452.88
433.91	2628.42
434.10	2637.78
434.28	2602.68
434.47	2518.42
434.66	2558.21
434.85	2581.61
435.03	2724.38
435.22	2677.57
435.41	2780.56
435.59	2738.43
435.78	2651.83
435.97	2729.06
436.16	2843.75
436.34	2668.21
436.53	2715.02
436.72	2876.52
436.90	2761.83
437.09	2855.45
437.28	2710.34
437.46	2724.38
437.65	2682.25
437.84	2899.92
438.02	2759.49
438.21	2925.67
438.40	2799.28
438.58	2878.86
438.77	2871.84
438.96	2827.37
439.14	3047.38
439.33	3005.25
439.52	2967.80
439.70	3059.08
439.89	3103.55
440.08	3066.10
440.26	3227.60
440.45	3155.04
440.63	3220.58
440.82	3187.81
441.01	3176.11
441.19	3307.18
441.38	3258.03
441.57	3351.65
441.75	3286.11
441.94	3332.92
442.12	3344.63
442.31	3335.26
442.50	3370.37
442.68	3281.43
442.87	3433.57
443.05	3391.44
443.24	3480.38
443.43	3506.12
443.61	3379.73
443.80	3595.06
443.98	3304.84
444.17	3332.92
444.35	3421.86
444.54	3559.95
444.73	3487.40
444.91	3508.46
445.10	3609.11
445.28	3459.31
445.47	3510.80
445.65	3459.31
445.84	3515.48
446.02	3606.77
446.21	3527.19
446.39	3456.97
446.58	3585.70
446.77	3660.60
446.95	3543.57
447.14	3609.11
447.32	3543.57
447.51	3625.49
447.69	3538.89
447.88	3557.61
448.06	3602.08
448.25	3506.12
448.43	3604.42
448.62	3588.04
448.80	3566.98
448.99	3810.39
449.17	3737.84
449.36	3637.19
449.54	3653.58
449.73	3861.88
449.91	3660.60
450.10	3737.84
450.28	3857.20
450.46	3808.05
450.65	3777.62
450.83	3822.09
451.02	3906.35
451.20	3906.35
451.39	3880.61
451.57	3964.87
451.76	3768.26
451.94	3815.07
452.13	3936.78
452.31	4014.02
452.49	3831.46
452.68	3934.44
452.86	3742.52
453.05	4063.17
453.23	4035.08
453.42	3941.46
453.60	3873.59
453.78	4100.62
453.97	4037.42
454.15	4070.19
454.34	4037.42
454.52	4149.77
454.70	4154.45
454.89	4236.37
455.07	4025.72
455.26	4145.09
455.44	4161.47
455.62	4182.54
455.81	4231.69
455.99	4161.47
456.17	4079.55
456.36	4198.92
456.54	4304.25
456.73	4411.91
456.91	4348.72
457.09	4421.27
457.28	4601.49
457.46	4222.33
457.64	4465.74
457.83	4454.04
458.01	4278.50
458.19	4526.60
458.38	4236.37
458.56	4547.66
458.74	4503.19
458.93	4596.81
459.11	4472.76
459.29	4533.62
459.48	4552.34
459.66	4589.79
459.84	4594.47
460.03	4521.92
460.21	4699.80
460.39	4699.80
460.57	4709.16
460.76	4702.14
460.94	4760.65
461.12	4844.91
461.31	4833.21
461.49	4805.12
461.67	4669.37
461.85	4863.63
462.04	4777.03
462.22	5032.15
462.40	4854.27
462.59	4990.02
462.77	4718.52
462.95	4947.89
463.13	4919.81
463.32	4891.72
463.50	5093.01
463.68	5064.92
463.86	4978.32
464.05	4812.14
464.23	4849.59
464.41	4945.55
464.59	4994.70
464.78	5228.76
464.96	4961.94
465.14	4950.23
465.32	5212.37
465.50	4961.94
465.69	5151.52
465.87	5221.74
466.05	5149.18
466.23	5053.22
466.41	5130.45
466.60	5273.23
466.78	5083.64
466.96	5238.12
467.14	5212.37
467.32	5214.71
467.51	5191.31
467.69	5093.01
467.87	5226.42
468.05	5434.72
468.23	5268.55
468.41	5214.71
468.60	5280.25
468.78	5296.63
468.96	5331.74
469.14	5352.81
469.32	5448.77
469.50	5462.81
469.69	5476.85
469.87	5575.16
470.05	5645.37
470.23	5540.05
470.41	5554.09
470.59	5760.06
470.77	5593.88
470.95	5640.69
471.14	5729.63
471.32	5673.46
471.50	5799.85
471.68	5865.38
471.86	5823.25
472.04	5727.29
472.22	5771.76
472.40	5710.91
472.58	5879.43
472.77	5907.51
472.95	5898.15
473.13	6176.67
473.31	5926.24
473.49	5966.03
473.67	5987.09
473.85	6071.35
474.03	6179.01
474.21	6157.95
474.39	6153.27
474.57	6282.00
474.75	6251.57
474.93	6345.19
475.12	6305.40
475.30	6394.34
475.48	6289.02
475.66	6347.53
475.84	6356.90
476.02	6537.12
476.20	6583.93
476.38	6595.63
476.56	6740.74
476.74	6918.62
476.92	6722.02
477.10	6932.67
477.28	7002.88
477.46	6855.43
477.64	6853.09
477.82	6993.52
478.00	7211.19
478.18	7152.68
478.36	7155.02
478.54	7342.26
478.72	7288.43
478.90	7222.89
479.08	7534.18
479.26	7541.21
479.44	7407.80
479.62	7503.76
479.80	7623.12
479.98	7817.39
480.16	8035.06
480.34	7674.62
480.52	7815.05
480.70	7772.92
480.88	7735.47
481.06	7885.26
481.24	7716.75
481.41	8002.29
481.59	8135.70
481.77	8395.50
481.95	8177.83
482.13	8372.10
482.31	8336.99
482.49	8463.38
482.67	8339.33
482.85	8671.68
483.03	8610.83
483.21	8784.03
483.39	8821.48
483.57	8683.39
483.74	8879.99
483.92	9069.58
484.10	8828.50
484.28	9217.03
484.46	9132.77
484.64	9628.96
484.82	9254.48
485.00	9469.81
485.18	9568.11
485.35	9706.20
485.53	9710.88
485.71	9558.75
485.89	10078.35
486.07	9823.23
486.25	10061.96
486.43	9757.69
486.61	10015.15
486.78	10162.61
486.96	10197.71
487.14	10406.02
487.32	10211.76
487.50	10340.49
487.68	10516.03
487.85	10619.01
488.03	10827.32
488.21	11131.59
488.39	10771.15
488.57	10902.22
488.75	10899.87
488.92	10958.39
489.10	11293.08
489.28	11150.31
489.46	11421.81
489.64	11405.43
489.81	11758.85
489.99	11627.78
490.17	11688.64
490.35	11800.98
490.53	11840.77
490.70	11796.30
490.88	11765.87
491.06	12006.95
491.24	11906.31
491.41	12231.64
491.59	12102.91
491.77	12140.36
491.95	12674.00
492.13	12674.00
492.30	12475.06
492.48	12554.63
492.66	12547.61
492.84	12695.07
493.01	12938.48
493.19	12821.45
493.37	12971.25
493.54	13200.62
493.72	13053.17
493.90	13130.41
494.08	13240.41
494.25	13373.82
494.43	13577.45
494.61	13638.30
494.79	13827.88
494.96	13469.78
495.14	13748.31
495.32	13774.05
495.49	13720.22
495.67	14075.98
495.85	13977.68
496.02	14326.42
496.20	14143.86
496.38	14310.04
496.55	14277.27
496.73	14707.93
496.91	14733.67
497.09	14684.52
497.26	14810.91
497.44	14860.06
497.62	14679.84
497.79	14874.10
497.97	15194.76
498.14	14895.17
498.32	15428.81
498.50	15140.93
498.67	15489.67
498.85	15255.61
499.03	15641.80
499.20	15749.46
499.38	15342.21
499.56	15655.84
499.73	15723.72
499.91	16035.01
500.08	16063.10
500.26	15784.57
500.44	16070.12
500.61	16016.29
500.79	16025.65
500.97	16191.83
501.14	16226.93
501.32	16238.64
501.49	16018.63
501.67	16255.02
501.84	16528.86
502.02	16439.92
502.20	16491.41
502.37	16673.98
502.55	16505.46
502.72	16652.91
502.90	16585.04
503.07	16695.04
503.25	16683.34
503.43	16533.54
503.60	17132.72
503.78	16975.91
503.95	16746.53
504.13	16798.02
504.30	17146.76
504.48	17069.53
504.65	17483.80
504.83	17432.31
505.01	17813.82
505.18	17425.29
505.36	17694.45
505.53	17364.43
505.71	17425.29
505.88	17696.79
506.06	17408.90
506.23	17951.91
506.41	18090.00
506.58	17930.84
506.76	17865.31
506.93	18223.41
507.11	17750.62
507.28	17748.28
507.46	17804.46
507.63	18090.00
507.81	18523.00
507.98	18265.54
508.16	18443.42
508.33	18190.64
508.50	18523.00
508.68	18494.91
508.85	18981.74
509.03	18656.41
509.20	18644.71
509.38	18960.68
509.55	18881.10
509.73	18958.34
509.90	18960.68
510.08	18948.98
510.25	18855.36
510.42	18834.29
510.60	19063.66
510.77	19253.25
510.95	19548.15
511.12	19639.44
511.30	19103.45
511.47	19456.87
511.64	19543.47
511.82	19683.91
511.99	19374.95
512.17	19714.33
512.34	19431.13
512.51	19716.67
512.69	19768.16
512.86	19658.16
513.04	19908.60
513.21	19920.30
513.38	19969.45
513.56	20109.88
513.73	19910.94
513.90	20203.50
514.08	20081.80
514.25	20142.65
514.43	20325.21
514.60	20269.04
514.77	20465.64
514.95	20713.74
515.12	20470.33
515.29	20456.28
515.47	20472.67
515.64	20671.61
515.81	20463.30
515.99	20688.00
516.16	21015.67
516.33	21102.27
516.51	21247.38
516.68	21153.76
516.85	21022.69
517.03	21034.39
517.20	21043.76
517.37	21282.49
517.54	21289.51
517.72	21369.09
517.89	21401.86
518.06	21092.91
518.24	21439.31
518.41	21436.97
518.58	21163.12
518.75	21448.67
518.93	21729.53
519.10	21549.31
519.27	21523.57
519.45	21642.93
519.62	21806.77
519.79	21523.57
519.96	21820.81
520.14	21881.67
520.31	21493.14
520.48	22181.26
520.65	22029.12
520.83	22321.69
521.00	22160.19
521.17	21841.88
521.34	22129.77
521.52	22464.46
521.69	22459.78
521.86	22045.51
522.03	22565.10
522.20	22735.96
522.38	22490.21
522.55	22670.43
522.72	22359.14
522.89	22164.87
523.07	22621.28
523.24	22518.29
523.41	22494.89
523.58	22417.65
523.75	23007.47
523.92	22782.77
524.10	22677.45
524.27	23073.00
524.44	23213.43
524.61	23339.82
524.78	23379.61
524.96	23035.55
525.13	23339.82
525.30	23353.87
525.47	23000.44
525.64	23290.67
525.81	23405.36
525.98	23506.00
526.16	23236.84
526.33	23566.85
526.50	23702.61
526.67	23180.67
526.84	23716.65
527.01	23559.83
527.18	23807.93
527.36	23730.69
527.53	23688.56
527.70	23882.83
527.87	24278.38
528.04	23943.68
528.21	23929.64
528.38	23744.73
528.55	24086.45
528.72	24070.07
528.89	24030.28
529.07	24013.90
529.24	23934.32
529.41	24343.91
529.58	24467.96
529.75	24056.03
529.92	24276.04
530.09	24159.01
530.26	24552.22
530.43	24390.72
530.60	24381.36
530.77	24463.28
530.94	24498.39
531.11	24624.78
531.28	24662.22
531.46	24453.92
531.63	24386.04
531.80	24856.49
531.97	24879.89
532.14	25254.38
532.31	24847.13
532.48	24779.25
532.65	24985.22
532.82	24746.48
532.99	25008.62
533.16	24985.22
533.33	25195.87
533.50	25476.73
533.67	25472.05
533.84	24835.42
534.01	24994.58
534.18	25123.31
534.35	25516.52
534.52	25270.76
534.69	25364.39
534.86	25394.81
535.03	25345.66
535.20	25881.64
535.37	25869.94
535.54	25818.45
535.71	25317.57
535.88	25392.47
536.05	25869.94
536.22	25731.85
536.38	25546.95
536.55	25687.38
536.72	25914.41
536.89	25638.23
537.06	25752.91
537.23	25727.17
537.40	25895.69
537.57	25661.63
537.74	26199.96
537.91	26295.92
538.08	26033.78
538.25	25947.18
538.42	26312.30
538.59	26251.45
538.75	25465.03
538.92	25713.13
539.09	26118.04
539.26	26106.34
539.43	25984.63
539.60	26387.20
539.77	26185.91
539.94	26356.77
540.11	26263.15
540.28	26331.03
540.44	26581.46
540.61	26476.14
540.78	26164.85
540.95	26644.66
541.12	26429.33
541.29	26412.95
541.46	26757.00
541.62	26515.93
541.79	26656.36
541.96	26363.79
542.13	26916.16
542.30	26553.38
542.47	27016.80
542.63	27033.19
542.80	26829.56
542.97	27063.61
543.14	27302.35
543.31	27199.37
543.48	26766.37
543.64	27318.73
543.81	27456.82
543.98	27377.25
544.15	27307.03
544.32	27461.51
544.48	27552.79
544.65	27363.20
544.82	27536.40
544.99	27105.74
545.16	27599.60
545.32	27381.93
545.49	27573.85
545.66	27814.93
545.83	27704.92
546.00	27531.72
546.16	27300.01
546.33	27410.01
546.50	27206.39
546.67	27871.10
546.83	27302.35
547.00	27412.35
547.17	28030.26
547.34	28098.13
547.50	27772.80
547.67	28039.62
547.84	27747.05
548.00	28175.37
548.17	28268.99
548.34	27669.81
548.51	27913.23
548.67	28034.94
548.84	27934.29
549.01	28137.92
549.18	28425.81
549.34	28086.43
549.51	27854.72
549.68	28037.28
549.84	28559.22
550.01	27953.02
550.18	28397.72
550.34	28381.34
550.51	28266.65
550.68	28400.06
550.84	28273.67
551.01	28526.45
551.18	28507.72
551.34	27922.59
551.51	28203.46
551.68	28201.11
551.84	28701.99
552.01	28694.97
552.18	28950.09
552.34	28575.60
552.51	28863.49
552.68	28575.60
552.84	28622.41
553.01	28982.85
553.18	29130.31
553.34	28919.66
553.51	29205.20
553.67	29116.26
553.84	29165.42
554.01	28912.64
554.17	28844.76
554.34	28978.17
554.51	28790.93
554.67	29039.03
554.84	28762.84
555.00	29209.89
555.17	29118.60
555.33	29198.18
555.50	29113.92
555.67	28533.47
555.83	29057.75
556.00	29032.00
556.16	29226.27
556.33	29469.69
556.50	29146.69
556.66	29668.63
556.83	29280.10
556.99	29633.52
557.16	29312.87
557.32	29249.67
557.49	29146.69
557.65	29219.25
557.82	29083.50
557.98	29355.00
558.15	29465.00
558.32	29340.96
558.48	29132.65
558.65	29584.37
558.81	29984.60
558.98	29553.94
559.14	29401.81
559.31	30265.47
559.47	29647.57
559.64	29521.18
559.80	29755.23
559.97	29666.29
560.13	29727.14
560.30	29867.58
560.46	29736.51
560.63	30078.22
560.79	29947.15
560.96	29567.99
561.12	29750.55
561.29	29923.75
561.45	29907.37
561.61	29640.54
561.78	29762.25
561.94	30073.54
562.11	30050.14
562.27	29926.09
562.44	29916.73
562.60	30099.29
562.77	29612.46
562.93	29752.89
563.10	30506.54
563.26	30036.09
563.42	30139.08
563.59	29872.26
563.75	30047.80
563.92	30078.22
564.08	29652.25
564.24	30293.55
564.41	30253.76
564.57	30080.56
564.74	30071.20
564.90	29923.75
565.07	30373.13
565.23	30089.93
565.39	29923.75
565.56	30511.22
565.72	30071.20
565.88	30464.41
566.05	30057.16
566.21	30005.67
566.38	30113.33
566.54	29979.92
566.70	30525.27
566.87	30656.34
567.03	30501.86
567.19	30611.87
567.36	30623.57
567.52	30022.05
567.68	30354.41
567.85	30263.13
568.01	30232.70
568.17	30267.81
568.34	30270.15
568.50	30352.07
568.66	30457.39
568.83	30185.89
568.99	30661.02
569.15	30380.15
569.32	30380.15
569.48	30103.97
569.64	30492.50
569.81	30284.19
569.97	30242.06
570.13	30642.29
570.30	30328.66
570.46	30738.26
570.62	30932.52
570.78	30639.95
570.95	30558.03
571.11	30668.04
571.27	30323.98
571.43	30703.15
571.60	30363.77
571.76	30806.13
571.92	30600.16
572.09	30738.26
572.25	30890.39
572.41	30485.48
572.57	30885.71
572.74	30895.07
572.90	30415.26
573.06	30429.30
573.22	30771.02
573.38	30504.20
573.55	30792.09
573.71	30958.27
573.87	30817.83
574.03	30761.66
574.20	30761.66
574.36	30696.13
574.52	30728.89
574.68	30520.59
574.84	30735.92
575.01	31016.78
575.17	30628.25
575.33	31068.27
575.49	30813.15
575.65	30866.98
575.82	30824.86
575.98	30881.03
576.14	30738.26
576.30	30740.60
576.46	30747.62
576.62	30506.54
576.79	30747.62
576.95	30944.22
577.11	31063.59
577.27	31096.36
577.43	31117.42
577.59	31019.12
577.75	30918.48
577.92	30808.47
578.08	30726.55
578.24	30600.16
578.40	30775.70
578.56	30724.21
578.72	30396.54
578.88	30923.16
579.04	30986.35
579.21	30859.96
579.37	31206.36
579.53	30981.67
579.69	30597.82
579.85	31089.34
580.01	30855.28
580.17	30508.88
580.33	30724.21
580.49	30670.38
580.65	31239.13
580.82	30874.01
580.98	30911.46
581.14	30939.54
581.30	31028.48
581.46	30838.90
581.62	30991.03
581.78	30829.54
581.94	30759.32
582.10	30951.24
582.26	31007.42
582.42	31096.36
582.58	30693.79
582.74	31204.02
582.90	30883.37
583.06	31166.57
583.22	30939.54
583.38	31215.72
583.54	31175.94
583.70	31145.51
583.86	31009.76
584.02	31005.08
584.18	31016.78
584.34	31054.23
584.50	31426.37
584.66	31023.80
584.82	30796.77
584.98	30852.94
585.14	30773.36
585.30	30738.26
585.46	30614.21
585.62	30988.69
585.78	31070.61
585.94	30782.73
586.10	31143.17
586.26	31227.43
586.42	31192.32
586.58	30843.58
586.74	31267.22
586.90	30904.43
587.06	31194.66
587.22	30906.77
587.38	30913.80
587.54	31171.25
587.70	31229.77
587.86	31117.42
588.02	31590.21
588.18	31435.74
588.34	31344.45
588.49	31466.16
588.65	31225.09
588.81	30731.23
588.97	31201.68
589.13	31166.57
589.29	31211.04
589.45	31419.35
589.61	31337.43
589.77	31543.40
589.93	31608.93
590.08	31644.04
590.24	31243.81
590.40	31220.41
590.56	31524.68
590.72	31227.43
590.88	31292.96
591.04	31297.64
591.20	31482.55
591.35	31412.33
591.51	31674.47
591.67	31768.09
591.83	31522.34
