SpectraSuite Data File
++++++++++++++++++++++++++++++++++++
Date: Fri Oct 18 13:58:25 GMT-05:00 2013
User: bianchi
Dark Spectrum Present: No
Reference Spectrum Present: No
Number of Sampled Component Spectra: 1
Spectrometers: USB2+H05261
Integration Time (usec): 50000 (USB2+H05261)
Spectra Averaged: 1 (USB2+H05261)
Boxcar Smoothing: 0 (USB2+H05261)
Correct for Electrical Dark: No (USB2+H05261)
Strobe/Lamp Enabled: No (USB2+H05261)
Correct for Detector Non-linearity: No (USB2+H05261)
Correct for Stray Light: No (USB2+H05261)
Number of Pixels in Processed Spectrum: 2048
>>>>>Begin Processed Spectral Data<<<<<
365.73	0.00
365.92	0.00
366.12	0.00
366.32	0.00
366.52	0.00
366.72	0.00
366.91	0.00
367.11	0.00
367.31	0.00
367.51	0.00
367.70	0.00
367.90	0.00
368.10	0.00
368.30	0.00
368.49	0.00
368.69	0.00
368.89	0.00
369.09	0.00
369.28	0.00
369.48	0.00
369.68	0.00
369.87	0.00
370.07	0.00
370.27	0.00
370.47	0.00
370.66	107.66
370.86	117.03
371.06	135.75
371.25	156.82
371.45	124.05
371.65	133.41
371.84	60.85
372.04	105.32
372.24	119.37
372.44	175.54
372.63	236.39
372.83	198.95
373.03	196.60
373.22	121.71
373.42	184.90
373.62	252.78
373.81	236.39
374.01	266.82
374.21	245.76
374.40	224.69
374.60	234.05
374.79	238.73
374.99	318.31
375.19	262.14
375.38	163.84
375.58	264.48
375.78	269.16
375.97	259.80
376.17	257.46
376.37	205.97
376.56	292.57
376.76	245.76
376.95	208.31
377.15	269.16
377.35	280.86
377.54	252.78
377.74	278.52
377.93	262.14
378.13	376.83
378.33	248.10
378.52	341.72
378.72	299.59
378.91	234.05
379.11	315.97
379.31	273.84
379.50	269.16
379.70	290.23
379.89	362.78
380.09	290.23
380.28	315.97
380.48	283.20
380.68	271.50
380.87	304.27
381.07	259.80
381.26	379.17
381.46	367.46
381.65	388.53
381.85	313.63
382.04	337.04
382.24	376.83
382.43	358.10
382.63	341.72
382.83	269.16
383.02	318.31
383.22	397.89
383.41	344.06
383.61	337.04
383.80	315.97
384.00	372.15
384.19	318.31
384.39	346.40
384.58	430.66
384.78	376.83
384.97	348.74
385.17	360.44
385.36	376.83
385.56	414.27
385.75	353.42
385.95	330.02
386.14	353.42
386.34	433.00
386.53	355.76
386.72	374.49
386.92	369.80
387.11	416.62
387.31	402.57
387.50	383.85
387.70	376.83
387.89	456.40
388.09	430.66
388.28	447.04
388.48	386.19
388.67	379.17
388.86	418.96
389.06	524.28
389.25	503.22
389.45	472.79
389.64	475.13
389.84	456.40
390.03	461.09
390.22	500.87
390.42	451.72
390.61	440.02
390.81	472.79
391.00	538.32
391.19	533.64
391.39	498.53
391.58	500.87
391.78	447.04
391.97	475.13
392.16	477.47
392.36	538.32
392.55	554.71
392.75	535.98
392.94	526.62
393.13	526.62
393.33	500.87
393.52	573.43
393.71	559.39
393.91	535.98
394.10	568.75
394.29	533.64
394.49	503.22
394.68	524.28
394.88	620.24
395.07	631.94
395.26	629.60
395.46	603.86
395.65	568.75
395.84	610.88
396.04	734.93
396.23	636.63
396.42	599.18
396.62	608.54
396.81	606.20
397.00	533.64
397.19	725.57
397.39	645.99
397.58	629.60
397.77	615.56
397.97	671.73
398.16	571.09
398.35	704.50
398.55	638.97
398.74	671.73
398.93	718.54
399.12	711.52
399.32	713.86
399.51	716.20
399.70	770.04
399.90	681.10
400.09	751.31
400.28	629.60
400.47	657.69
400.67	847.27
400.86	770.04
401.05	725.57
401.24	695.14
401.44	772.38
401.63	819.19
401.82	812.17
402.01	774.72
402.21	875.36
402.40	816.85
402.59	767.70
402.78	767.70
402.97	805.14
403.17	868.34
403.36	868.34
403.55	791.10
403.74	868.34
403.93	901.11
404.13	835.57
404.32	875.36
404.51	940.90
404.70	880.04
404.89	849.61
405.09	985.37
405.28	819.19
405.47	901.11
405.66	870.68
405.85	908.13
406.05	1076.65
406.24	896.43
406.43	992.39
406.62	1057.92
406.81	1004.09
407.00	950.26
407.20	1130.48
407.39	1006.43
407.58	1004.09
407.77	1041.54
407.96	1041.54
408.15	1053.24
408.34	1100.05
408.54	1118.78
408.73	1088.35
408.92	1153.88
409.11	1135.16
409.30	1020.47
409.49	1025.15
409.68	1067.28
409.87	1095.37
410.07	1142.18
410.26	1186.65
410.45	1179.63
410.64	1261.55
410.83	1273.25
411.02	1167.93
411.21	1207.72
411.40	1280.27
411.59	1289.64
411.78	1315.38
411.98	1196.01
412.17	1380.92
412.36	1266.23
412.55	1275.59
412.74	1284.95
412.93	1392.62
413.12	1273.25
413.31	1474.54
413.50	1355.17
413.69	1453.47
413.88	1362.19
414.07	1441.77
414.26	1380.92
414.45	1411.34
414.64	1390.28
414.83	1530.71
415.02	1544.75
415.22	1526.03
415.41	1462.83
415.60	1577.52
415.79	1551.78
415.98	1621.99
416.17	1589.22
416.36	1610.29
416.55	1605.61
416.74	1610.29
416.93	1614.97
417.12	1687.53
417.31	1750.72
417.50	1687.53
417.69	1778.81
417.88	1811.57
418.07	1776.47
418.26	1741.36
418.45	1753.06
418.64	1799.87
418.83	1678.16
419.02	1741.36
419.21	1804.55
419.39	1825.62
419.58	1760.08
419.77	1863.07
419.96	1834.98
420.15	1839.66
420.34	1877.11
420.53	1825.62
420.72	1813.92
420.91	1900.52
421.10	1877.11
421.29	1806.89
421.48	1895.83
421.67	1982.43
421.86	1795.19
422.05	1940.30
422.24	2010.52
422.43	1980.09
422.61	1928.60
422.80	1980.09
422.99	1973.07
423.18	1935.62
423.37	1963.71
423.56	2052.65
423.75	1994.14
423.94	1947.33
424.13	1863.07
424.32	1961.37
424.50	2097.12
424.69	2071.37
424.88	2106.48
425.07	2118.18
425.26	1977.75
425.45	1996.48
425.64	1996.48
425.83	2031.58
426.01	2052.65
426.20	2111.16
426.39	1954.35
426.58	2057.33
426.77	2073.71
426.96	2050.31
427.15	2139.25
427.33	2040.95
427.52	2078.40
427.71	2153.29
427.90	2162.66
428.09	2256.28
428.28	2204.78
428.46	2113.50
428.65	2232.87
428.84	2221.17
429.03	2197.76
429.22	2239.89
429.40	2282.02
429.59	2190.74
429.78	2113.50
429.97	2120.53
430.16	2361.60
430.34	2258.62
430.53	2317.13
430.72	2286.70
430.91	2230.53
431.10	2291.38
431.28	2359.26
431.47	2520.76
431.66	2499.69
431.85	2368.62
432.03	2300.75
432.22	2366.28
432.41	2392.03
432.60	2356.92
432.79	2492.67
432.97	2408.41
433.16	2448.20
433.35	2417.77
433.54	2532.46
433.72	2462.24
433.91	2555.86
434.10	2516.08
434.28	2480.97
434.47	2544.16
434.66	2600.34
434.85	2597.99
435.03	2642.46
435.22	2546.50
435.41	2747.79
435.59	2623.74
435.78	2586.29
435.97	2717.36
436.16	2654.17
436.34	2719.70
436.53	2630.76
436.72	2782.90
436.90	2600.34
437.09	2726.72
437.28	2684.59
437.46	2614.38
437.65	2696.30
437.84	2675.23
438.02	2677.57
438.21	2771.19
438.40	2717.36
438.58	2710.34
438.77	2871.84
438.96	2848.43
439.14	2867.16
439.33	2972.48
439.52	2951.42
439.70	3000.57
439.89	2965.46
440.08	3023.97
440.26	3136.32
440.45	3178.45
440.63	2991.20
440.82	3094.19
441.01	3173.77
441.19	3131.64
441.38	3274.41
441.57	3176.11
441.75	3213.56
441.94	3346.97
442.12	3346.97
442.31	3379.73
442.50	3243.98
442.68	3419.52
442.87	3155.04
443.05	3323.56
443.24	3370.37
443.43	3330.58
443.61	3370.37
443.80	3449.95
443.98	3386.76
444.17	3325.90
444.35	3419.52
444.54	3403.14
444.73	3403.14
444.91	3314.20
445.10	3445.27
445.28	3452.29
445.47	3222.92
445.65	3454.63
445.84	3386.76
446.02	3286.11
446.21	3412.50
446.39	3386.76
446.58	3510.80
446.77	3555.27
446.95	3428.88
447.14	3391.44
447.32	3557.61
447.51	3492.08
447.69	3651.24
447.88	3522.51
448.06	3449.95
448.25	3555.27
448.43	3524.85
448.62	3508.46
448.80	3548.25
448.99	3548.25
449.17	3524.85
449.36	3447.61
449.54	3616.13
449.73	3669.96
449.91	3669.96
450.10	3653.58
450.28	3686.34
450.46	3770.60
450.65	3726.13
450.83	3728.47
451.02	3772.94
451.20	3761.24
451.39	3768.26
451.57	3698.05
451.76	3674.64
451.94	3950.82
452.13	3861.88
452.31	3803.37
452.49	3852.52
452.68	3840.82
452.86	3782.31
453.05	3791.67
453.23	3988.27
453.42	3866.56
453.60	3880.61
453.78	3985.93
453.97	3925.08
454.15	3803.37
454.34	3929.76
454.52	3999.98
454.70	3967.21
454.89	3995.29
455.07	3939.12
455.26	4159.13
455.44	4102.96
455.62	3995.29
455.81	4114.66
455.99	3999.98
456.17	4081.89
456.36	4159.13
456.54	4142.75
456.73	4322.97
456.91	4351.06
457.09	4215.30
457.28	4308.93
457.46	4219.99
457.64	4463.40
457.83	4273.82
458.01	4119.34
458.19	4257.43
458.38	4463.40
458.56	4397.87
458.74	4409.57
458.93	4362.76
459.11	4535.96
459.29	4447.02
459.48	4465.74
459.66	4379.14
459.84	4442.34
460.03	4568.73
460.21	4564.04
460.39	4393.19
460.57	4514.89
460.76	4507.87
460.94	4753.63
461.12	4524.26
461.31	4652.98
461.49	4601.49
461.67	4727.88
461.85	4889.38
462.04	4674.05
462.22	4865.97
462.40	4648.30
462.59	4774.69
462.77	4746.61
462.95	4751.29
463.13	4786.40
463.32	4940.87
463.50	4704.48
463.68	4814.48
463.86	4891.72
464.05	4716.18
464.23	4940.87
464.41	4837.89
464.59	4779.37
464.78	4910.44
464.96	4994.70
465.14	4826.18
465.32	4901.08
465.50	4987.68
465.69	5027.47
465.87	4957.25
466.05	4966.62
466.23	4835.55
466.41	5057.90
466.60	5373.87
466.78	5046.20
466.96	5008.75
467.14	4961.94
467.32	5158.54
467.51	5149.18
467.69	5011.09
467.87	5118.75
468.05	5205.35
468.23	5254.50
468.41	5191.31
468.60	5043.85
468.78	5118.75
468.96	5163.22
469.14	5282.59
469.32	5207.69
469.50	5191.31
469.69	5266.21
469.87	5376.21
470.05	5406.64
470.23	5350.46
470.41	5298.97
470.59	5495.58
470.77	5334.08
470.95	5418.34
471.14	5575.16
471.32	5338.76
471.50	5469.83
471.68	5507.28
471.86	5673.46
472.04	5575.16
472.22	5659.42
472.40	5647.71
472.58	5762.40
472.77	5802.19
472.95	5762.40
473.13	5877.09
473.31	5806.87
473.49	5823.25
473.67	5713.25
473.85	5832.62
474.03	5994.11
474.21	5844.32
474.39	6033.90
474.57	6038.58
474.75	6207.10
474.93	6127.52
475.12	6022.20
475.30	6246.89
475.48	6125.18
475.66	6228.17
475.84	6202.42
476.02	6324.13
476.20	6363.92
476.38	6333.49
476.56	6422.43
476.74	6511.37
476.92	6520.73
477.10	6509.03
477.28	6450.52
477.46	6647.12
477.64	6602.65
477.82	6654.14
478.00	7009.90
478.18	6911.60
478.36	6942.03
478.54	7105.87
478.72	6963.09
478.90	7199.49
479.08	7157.36
479.26	7260.34
479.44	7222.89
479.62	7225.23
479.80	7382.05
479.98	7302.47
480.16	7412.48
480.34	7524.82
480.52	7681.64
480.70	7571.63
480.88	7623.12
481.06	7676.96
481.24	7644.19
481.41	7744.83
481.59	7981.23
481.77	8168.47
481.95	7871.22
482.13	8070.17
482.31	7969.52
482.49	8187.19
482.67	8248.05
482.85	8238.69
483.03	8456.36
483.21	8636.58
483.39	8599.13
483.57	8517.21
483.74	8575.72
483.92	8732.54
484.10	8723.18
484.28	8908.08
484.46	8753.60
484.64	9135.11
484.82	8994.68
485.00	9055.53
485.18	9025.11
485.35	9397.25
485.53	9174.90
485.71	9338.74
485.89	9444.06
486.07	9401.93
486.25	9502.58
486.43	9483.85
486.61	9680.46
486.78	9736.63
486.96	9680.46
487.14	9893.44
487.32	10068.98
487.50	10281.97
487.68	10127.50
487.85	10347.51
488.03	10562.84
488.21	10471.56
488.39	10382.62
488.57	10693.91
488.75	10663.48
488.92	10810.93
489.10	10860.09
489.28	11110.52
489.46	10979.45
489.64	10993.50
489.81	11220.53
489.99	11108.18
490.17	11300.11
490.35	11487.35
490.53	11410.11
490.70	11576.29
490.88	11777.58
491.06	11688.64
491.24	11726.08
491.41	11653.53
491.59	11983.54
491.77	11726.08
491.95	12025.67
492.13	12060.78
492.30	12091.21
492.48	12414.20
492.66	12142.70
492.84	12248.02
493.01	12374.41
493.19	12533.57
493.37	12741.88
493.54	12538.25
493.72	12877.63
493.90	12812.09
494.08	13062.53
494.25	13212.32
494.43	13060.19
494.61	13212.32
494.79	13245.09
494.96	13078.91
495.14	13298.92
495.32	13631.28
495.49	13350.42
495.67	13397.23
495.85	13568.09
496.02	13916.83
496.20	13706.18
496.38	13619.58
496.55	13802.14
496.73	14143.86
496.91	14008.11
497.09	14118.11
497.26	14291.31
497.44	14195.35
497.62	14513.66
497.79	14457.49
497.97	14424.72
498.14	14684.52
498.32	14710.27
498.50	14972.41
498.67	14785.16
498.85	14874.10
499.03	14960.70
499.20	15080.07
499.38	14939.64
499.56	15229.87
499.73	15260.29
499.91	15087.09
500.08	15295.40
500.26	15220.50
500.44	15585.63
500.61	15330.51
500.79	15239.23
500.97	15868.83
501.14	15817.34
501.32	15967.13
501.49	15798.62
501.67	15822.02
501.84	15861.81
502.02	16023.31
502.20	16032.67
502.37	16173.10
502.55	15695.63
502.72	16018.63
502.90	15894.58
503.07	16114.59
503.25	16196.51
503.43	16276.09
503.60	16517.16
503.78	16439.92
503.95	16580.36
504.13	16531.20
504.30	16278.43
504.48	16505.46
504.65	16634.19
504.83	17071.87
505.01	16725.47
505.18	17067.19
505.36	16947.82
505.53	17067.19
505.71	16868.24
505.88	16851.86
506.06	17240.39
506.23	17284.86
506.41	17029.74
506.58	17341.03
506.76	17240.39
506.93	17153.79
507.11	17252.09
507.28	17624.23
507.46	17699.13
507.63	17556.36
507.81	17734.24
507.98	17844.24
508.16	17933.18
508.33	17596.15
508.50	17909.78
508.68	17954.25
508.85	17965.95
509.03	17879.35
509.20	18134.47
509.38	18239.79
509.55	18237.45
509.73	18331.08
509.90	18466.83
510.08	18356.82
510.25	18230.43
510.42	18480.87
510.60	18583.85
510.77	18459.81
510.95	18775.78
511.12	18492.57
511.30	18668.11
511.47	18899.83
511.64	18480.87
511.82	19040.26
511.99	18953.66
512.17	19101.11
512.34	18705.56
512.51	19112.81
512.69	18841.31
512.86	19101.11
513.04	19613.69
513.21	19351.55
513.38	19496.66
513.56	19421.77
513.73	19346.87
513.90	19161.97
514.08	19248.57
514.25	19466.24
514.43	19550.49
514.60	19634.75
514.77	19433.47
514.95	19859.45
515.12	19653.48
515.29	19468.58
515.47	19854.76
515.64	20166.06
515.81	19915.62
515.99	19953.07
516.16	20257.34
516.33	20107.54
516.51	20496.07
516.68	20208.19
516.85	20004.56
517.03	20276.06
517.20	20404.79
517.37	20315.85
517.54	20315.85
517.72	20493.73
517.89	20262.02
518.06	20346.28
518.24	20652.89
518.41	20512.46
518.58	20636.50
518.75	20676.29
518.93	20978.22
519.10	20879.92
519.27	20938.43
519.45	20706.72
519.62	20926.73
519.79	21025.03
519.96	21254.40
520.14	21104.61
520.31	21050.78
520.48	20980.56
520.65	21385.47
520.83	21160.78
521.00	21130.36
521.17	21228.66
521.34	21184.19
521.52	21507.18
521.69	21589.10
521.86	21659.32
522.03	21783.37
522.20	21289.51
522.38	21518.89
522.55	21235.68
522.72	21610.17
522.89	22024.44
523.07	22132.11
523.24	21820.81
523.41	21994.01
523.58	21809.11
523.75	22017.42
523.92	22082.95
524.10	22033.80
524.27	22012.74
524.44	22293.60
524.61	22740.64
524.78	22087.64
524.96	22340.41
525.13	22281.90
525.30	22457.44
525.47	22391.91
525.64	22483.19
525.81	22588.51
525.98	22778.09
526.16	22728.94
526.33	22567.45
526.50	22796.82
526.67	22607.23
526.84	22567.45
527.01	23040.23
527.18	22862.35
527.36	22696.17
527.53	22689.15
527.70	23161.94
527.87	23342.16
528.04	22991.08
528.21	23005.13
528.38	22979.38
528.55	22974.70
528.72	23028.53
528.89	23070.66
529.07	23555.15
529.24	23201.73
529.41	23220.45
529.58	23323.44
529.75	23426.42
529.92	23297.69
530.09	23091.73
530.26	23775.16
530.43	23274.29
530.60	23597.28
530.77	23489.62
530.94	23903.89
531.11	23573.88
531.28	23723.67
531.46	23590.26
531.63	23634.73
531.80	23459.19
531.97	23630.05
532.14	23903.89
532.31	23894.53
532.48	24140.29
532.65	23821.97
532.82	23896.87
532.99	24599.03
533.16	24023.26
533.33	24479.66
533.50	24498.39
533.67	24416.47
533.84	24081.77
534.01	24240.93
534.18	24198.80
534.35	24379.02
534.52	24400.08
534.69	24383.70
534.86	24521.79
535.03	24212.84
535.20	24662.22
535.37	24697.33
535.54	24709.04
535.71	24276.04
535.88	24615.41
536.05	24332.21
536.22	24760.53
536.38	24968.84
536.55	24790.95
536.72	24587.33
536.89	24762.87
537.06	24683.29
537.23	24683.29
537.40	24954.79
537.57	25202.89
537.74	25240.34
537.91	25069.48
538.08	25226.29
538.25	24980.54
538.42	25216.93
538.59	25242.68
538.75	25048.41
538.92	24978.20
539.09	25462.69
539.26	25228.63
539.43	25310.55
539.60	25329.28
539.77	25392.47
539.94	25539.93
540.11	25245.02
540.28	25338.64
540.44	25649.93
540.61	25497.80
540.78	25366.73
540.95	25556.31
541.12	25132.67
541.29	25469.71
541.46	25743.55
541.62	25413.54
541.79	25378.43
541.96	25624.18
542.13	25228.63
542.30	25823.13
542.47	25752.91
542.63	25722.49
542.80	26246.77
542.97	26436.35
543.14	26085.27
543.31	25682.70
543.48	26005.69
543.64	26335.71
543.81	26300.60
543.98	26370.82
544.15	26319.32
544.32	26162.51
544.48	26745.30
544.65	26326.35
544.82	26349.75
544.99	26024.42
545.16	26581.46
545.32	26214.00
545.49	26593.17
545.66	26476.14
545.83	26810.84
546.00	26639.98
546.16	26597.85
546.33	26576.78
546.50	26321.66
546.67	26300.60
546.83	26548.70
547.00	26764.03
547.17	26731.26
547.34	26965.31
547.50	26656.36
547.67	27061.27
547.84	26780.41
548.00	27080.00
548.17	26871.69
548.34	27049.57
548.51	27194.68
548.67	27012.12
548.84	26932.54
549.01	26602.53
549.18	26862.33
549.34	27054.25
549.51	27012.12
549.68	27157.24
549.84	27187.66
550.01	27213.41
550.18	26857.65
550.34	27042.55
550.51	27431.08
550.68	27246.18
550.84	26953.61
551.01	27377.25
551.18	26977.01
551.34	27264.90
551.51	26946.59
551.68	27080.00
551.84	27510.66
552.01	27438.10
552.18	27634.71
552.34	27798.54
552.51	27623.00
552.68	27498.95
552.84	27791.52
553.01	27709.60
553.18	27803.22
553.34	27491.93
553.51	27590.24
553.67	27606.62
553.84	28147.28
554.01	28217.50
554.17	27805.56
554.34	27828.97
554.51	27777.48
554.67	27833.65
554.84	27786.84
555.00	27461.51
555.17	28112.17
555.33	28107.49
555.50	27477.89
555.67	28051.32
555.83	28027.92
556.00	28397.72
556.16	28437.51
556.33	27988.13
556.50	28460.91
556.66	27889.82
556.83	28182.39
556.99	28182.39
557.16	28327.50
557.32	28301.76
557.49	28416.44
557.65	27871.10
557.82	28353.25
557.98	28322.82
558.15	28041.96
558.32	27981.10
558.48	28395.38
558.65	28203.46
558.81	28685.61
558.98	28283.03
559.14	28479.64
559.31	28631.77
559.47	28575.60
559.64	28416.44
559.80	28407.08
559.97	28694.97
560.13	28517.09
560.30	28261.97
560.46	28580.28
560.63	28486.66
560.79	28493.68
560.96	28381.34
561.12	28636.45
561.29	28449.21
561.45	28629.43
561.61	28961.79
561.78	28910.30
561.94	29032.00
562.11	29184.14
562.27	28669.22
562.44	28980.51
562.60	28212.82
562.77	28673.90
562.93	28575.60
563.10	28765.18
563.26	28741.78
563.42	28744.12
563.59	28903.28
563.75	28594.32
563.92	28903.28
564.08	28659.86
564.24	28966.47
564.41	28711.35
564.57	29003.92
564.74	28709.01
564.90	28886.89
565.07	29429.90
565.23	28601.35
565.39	28893.91
565.56	29333.93
565.72	29057.75
565.88	28800.29
566.05	29062.43
566.21	28788.59
566.38	28790.93
566.54	28732.42
566.70	29233.29
566.87	29434.58
567.03	29397.13
567.19	29390.11
567.36	29333.93
567.52	29202.86
567.68	29125.63
567.85	29060.09
568.01	29495.43
568.17	29132.65
568.34	29055.41
568.50	29032.00
568.66	29532.88
568.83	29460.32
568.99	29282.44
569.15	28975.83
569.32	29120.95
569.48	28802.63
569.64	29163.08
569.81	29376.06
569.97	29116.26
570.13	29394.79
570.30	29104.56
570.46	29127.97
570.62	29479.05
570.78	28882.21
570.95	29359.68
571.11	28919.66
571.27	28851.78
571.43	29308.19
571.60	29233.29
571.76	29149.03
571.92	29425.22
572.09	29317.55
572.25	29319.89
572.41	29401.81
572.57	29465.00
572.74	29434.58
572.90	29369.04
573.06	29411.17
573.22	29422.87
573.38	29139.67
573.55	29357.34
573.71	29685.01
573.87	29544.58
574.03	29738.85
574.20	29282.44
574.36	29237.97
574.52	28886.89
574.68	29441.60
574.84	29734.17
575.01	29378.40
575.17	29872.26
575.33	29256.70
575.49	29270.74
575.65	29425.22
575.82	29546.92
575.98	29106.90
576.14	29610.12
576.30	29647.57
576.46	29317.55
576.62	29640.54
576.79	29649.91
576.95	29244.99
577.11	29699.06
577.27	29390.11
577.43	29317.55
577.59	29626.50
577.75	29816.08
577.92	29450.96
578.08	29453.30
578.24	29457.98
578.40	29427.56
578.56	29329.25
578.72	29696.72
578.88	29869.92
579.04	29649.91
579.21	29319.89
579.37	29579.69
579.53	29488.41
579.69	29165.42
579.85	29717.78
580.01	29706.08
580.17	29465.00
580.33	29631.18
580.49	29340.96
580.65	29612.46
580.82	29900.34
580.98	29905.02
581.14	29476.71
581.30	29724.80
581.46	29525.86
581.62	29472.03
581.78	29472.03
581.94	29736.51
582.10	29556.28
582.26	29771.61
582.42	29560.97
582.58	29558.63
582.74	29577.35
582.90	29546.92
583.06	29670.97
583.22	29645.23
583.38	29633.52
583.54	29490.75
583.70	29219.25
583.86	29715.44
584.02	29813.74
584.18	30019.71
584.34	29453.30
584.50	29792.68
584.66	29062.43
584.82	29605.44
584.98	29834.81
585.14	29614.80
585.30	29099.88
585.46	29778.64
585.62	29535.22
585.78	29703.74
585.94	29207.55
586.10	29617.14
586.26	29837.15
586.42	30010.35
586.58	29729.48
586.74	29764.59
586.90	29200.52
587.06	29350.32
587.22	29766.93
587.38	29244.99
587.54	29476.71
587.70	29991.62
587.86	29991.62
588.02	30281.85
588.18	30335.68
588.34	29497.77
588.49	29741.19
588.65	29537.56
588.81	29710.76
588.97	29673.31
589.13	29813.74
589.29	29862.90
589.45	29851.19
589.61	30000.99
589.77	30190.57
589.93	30258.45
590.08	30438.67
590.24	29907.37
590.40	30096.95
590.56	30075.88
590.72	29493.09
590.88	29612.46
591.04	29685.01
591.20	30256.11
591.35	29872.26
591.51	30721.87
591.67	30225.68
591.83	30380.15
591.99	29792.68
