SpectraSuite Data File
++++++++++++++++++++++++++++++++++++
Date: Fri Oct 18 13:58:02 GMT-05:00 2013
User: bianchi
Dark Spectrum Present: No
Reference Spectrum Present: No
Number of Sampled Component Spectra: 1
Spectrometers: USB2+H05261
Integration Time (usec): 50000 (USB2+H05261)
Spectra Averaged: 1 (USB2+H05261)
Boxcar Smoothing: 0 (USB2+H05261)
Correct for Electrical Dark: No (USB2+H05261)
Strobe/Lamp Enabled: No (USB2+H05261)
Correct for Detector Non-linearity: No (USB2+H05261)
Correct for Stray Light: No (USB2+H05261)
Number of Pixels in Processed Spectrum: 2048
>>>>>Begin Processed Spectral Data<<<<<
365.73	37.45
365.92	37.45
366.12	37.45
366.32	0.00
366.52	0.00
366.72	0.00
366.91	0.00
367.11	0.00
367.31	0.00
367.51	0.00
367.70	0.00
367.90	0.00
368.10	0.00
368.30	0.00
368.49	0.00
368.69	0.00
368.89	0.00
369.09	0.00
369.28	0.00
369.48	0.00
369.68	0.00
369.87	0.00
370.07	0.00
370.27	0.00
370.47	0.00
370.66	49.15
370.86	98.30
371.06	81.92
371.25	138.09
371.45	173.20
371.65	173.20
371.84	156.82
372.04	133.41
372.24	198.95
372.44	187.24
372.63	187.24
372.83	166.18
373.03	212.99
373.22	236.39
373.42	227.03
373.62	198.95
373.81	248.10
374.01	264.48
374.21	196.60
374.40	259.80
374.60	191.92
374.79	285.55
374.99	215.33
375.19	264.48
375.38	208.31
375.58	224.69
375.78	238.73
375.97	229.37
376.17	198.95
376.37	250.44
376.56	187.24
376.76	243.42
376.95	313.63
377.15	276.18
377.35	283.20
377.54	273.84
377.74	287.89
377.93	231.71
378.13	301.93
378.33	332.36
378.52	243.42
378.72	290.23
378.91	224.69
379.11	234.05
379.31	297.25
379.50	306.61
379.70	278.52
379.89	383.85
380.09	257.46
380.28	304.27
380.48	301.93
380.68	259.80
380.87	299.59
381.07	311.29
381.26	341.72
381.46	292.57
381.65	423.64
381.85	266.82
382.04	339.38
382.24	353.42
382.43	341.72
382.63	250.44
382.83	355.76
383.02	266.82
383.22	341.72
383.41	351.08
383.61	362.78
383.80	430.66
384.00	308.95
384.19	379.17
384.39	376.83
384.58	430.66
384.78	442.36
384.97	372.15
385.17	376.83
385.36	367.46
385.56	379.17
385.75	341.72
385.95	428.32
386.14	388.53
386.34	411.93
386.53	402.57
386.72	395.55
386.92	500.87
387.11	484.49
387.31	428.32
387.50	521.94
387.70	442.36
387.89	383.85
388.09	526.62
388.28	416.62
388.48	463.43
388.67	463.43
388.86	463.43
389.06	468.11
389.25	433.00
389.45	454.06
389.64	470.45
389.84	454.06
390.03	524.28
390.22	475.13
390.42	514.92
390.61	400.23
390.81	475.13
391.00	543.00
391.19	585.13
391.39	510.24
391.58	514.92
391.78	425.98
391.97	484.49
392.16	524.28
392.36	533.64
392.55	610.88
392.75	578.11
392.94	514.92
393.13	531.30
393.33	608.54
393.52	662.37
393.71	573.43
393.91	564.07
394.10	517.26
394.29	470.45
394.49	545.34
394.68	533.64
394.88	613.22
395.07	657.69
395.26	519.60
395.46	676.41
395.65	660.03
395.84	610.88
396.04	636.63
396.23	669.39
396.42	713.86
396.62	671.73
396.81	676.41
397.00	660.03
397.19	678.76
397.39	671.73
397.58	692.80
397.77	660.03
397.97	690.46
398.16	683.44
398.35	685.78
398.55	655.35
398.74	648.33
398.93	676.41
399.12	737.27
399.32	697.48
399.51	734.93
399.70	720.88
399.90	807.48
400.09	763.01
400.28	830.89
400.47	786.42
400.67	760.67
400.86	814.51
401.05	788.76
401.24	840.25
401.44	875.36
401.63	777.06
401.82	840.25
402.01	826.21
402.21	805.14
402.40	798.12
402.59	882.38
402.78	793.44
402.97	844.93
403.17	929.19
403.36	945.58
403.55	968.98
403.74	882.38
403.93	880.04
404.13	945.58
404.32	866.00
404.51	971.32
404.70	961.96
404.89	926.85
405.09	896.43
405.28	896.43
405.47	870.68
405.66	966.64
405.85	1057.92
406.05	1015.79
406.24	1032.18
406.43	983.02
406.62	1008.77
406.81	1081.33
407.00	1062.60
407.20	1006.43
407.39	1102.39
407.58	976.00
407.77	1090.69
407.96	1130.48
408.15	1081.33
408.34	1074.31
408.54	1055.58
408.73	1160.91
408.92	1174.95
409.11	1158.57
409.30	1165.59
409.49	1179.63
409.68	1196.01
409.87	1217.08
410.07	1224.10
410.26	1135.16
410.45	1188.99
410.64	1219.42
410.83	1238.14
411.02	1165.59
411.21	1315.38
411.40	1313.04
411.59	1306.02
411.78	1275.59
411.98	1170.27
412.17	1259.21
412.36	1299.00
412.55	1273.25
412.74	1275.59
412.93	1287.29
413.12	1345.81
413.31	1446.45
413.50	1404.32
413.69	1383.26
413.88	1462.83
414.07	1582.20
414.26	1549.43
414.45	1507.30
414.64	1537.73
414.83	1455.81
415.02	1533.05
415.22	1549.43
415.41	1577.52
415.60	1584.54
415.79	1568.16
415.98	1563.48
416.17	1680.50
416.36	1764.76
416.55	1657.10
416.74	1657.10
416.93	1661.78
417.12	1631.35
417.31	1699.23
417.50	1708.59
417.69	1823.28
417.88	1645.40
418.07	1743.70
418.26	1811.57
418.45	1689.87
418.64	1909.88
418.83	1928.60
419.02	1708.59
419.21	1877.11
419.39	1867.75
419.58	1905.20
419.77	1825.62
419.96	1858.39
420.15	1895.83
420.34	1846.68
420.53	1930.94
420.72	1926.26
420.91	1874.77
421.10	1935.62
421.29	1905.20
421.48	1919.24
421.67	1968.39
421.86	2031.58
422.05	2059.67
422.24	1977.75
422.43	1968.39
422.61	2008.18
422.80	2073.71
422.99	2052.65
423.18	2026.90
423.37	2076.06
423.56	2038.61
423.75	2045.63
423.94	2031.58
424.13	1937.96
424.32	2045.63
424.50	2083.08
424.69	2057.33
424.88	2176.70
425.07	1956.69
425.26	2024.56
425.45	2038.61
425.64	2062.01
425.83	2106.48
426.01	1991.80
426.20	2113.50
426.39	2015.20
426.58	2160.31
426.77	2132.23
426.96	2047.97
427.15	2087.76
427.33	2104.14
427.52	2071.37
427.71	2101.80
427.90	2200.10
428.09	2134.57
428.28	2127.55
428.46	2204.78
428.65	2347.56
428.84	2326.49
429.03	2239.89
429.22	2218.83
429.40	2253.94
429.59	2338.20
429.78	2225.85
429.97	2085.42
430.16	2286.70
430.34	2385.01
430.53	2319.47
430.72	2307.77
430.91	2338.20
431.10	2204.78
431.28	2324.15
431.47	2448.20
431.66	2595.65
431.85	2298.41
432.03	2385.01
432.22	2502.03
432.41	2408.41
432.60	2509.05
432.79	2436.50
432.97	2459.90
433.16	2403.73
433.35	2534.80
433.54	2539.48
433.72	2476.29
433.91	2509.05
434.10	2586.29
434.28	2588.63
434.47	2523.10
434.66	2656.51
434.85	2576.93
435.03	2630.76
435.22	2715.02
435.41	2609.70
435.59	2644.81
435.78	2775.88
435.97	2679.91
436.16	2614.38
436.34	2609.70
436.53	2792.26
436.72	2726.72
436.90	2708.00
437.09	2771.19
437.28	2656.51
437.46	2782.90
437.65	2881.20
437.84	2806.30
438.02	2867.16
438.21	2944.39
438.40	2803.96
438.58	2895.24
438.77	2853.11
438.96	2909.29
439.14	2909.29
439.33	2949.08
439.52	2892.90
439.70	3136.32
439.89	3026.31
440.08	3138.66
440.26	3063.76
440.45	3033.33
440.63	3059.08
440.82	3026.31
441.01	3033.33
441.19	3213.56
441.38	3162.06
441.57	3246.32
441.75	3276.75
441.94	3386.76
442.12	3375.05
442.31	3185.47
442.50	3295.47
442.68	3431.23
442.87	3295.47
443.05	3361.01
443.24	3379.73
443.43	3400.80
443.61	3398.46
443.80	3510.80
443.98	3386.76
444.17	3426.54
444.35	3384.41
444.54	3531.87
444.73	3529.53
444.91	3506.12
445.10	3440.59
445.28	3400.80
445.47	3494.42
445.65	3471.01
445.84	3489.74
446.02	3592.72
446.21	3419.52
446.39	3520.17
446.58	3489.74
446.77	3583.36
446.95	3400.80
447.14	3634.85
447.32	3452.29
447.51	3541.23
447.69	3632.51
447.88	3653.58
448.06	3428.88
448.25	3602.08
448.43	3693.37
448.62	3616.13
448.80	3630.17
448.99	3648.90
449.17	3599.74
449.36	3686.34
449.54	3761.24
449.73	3707.41
449.91	3831.46
450.10	3754.22
450.28	3674.64
450.46	3756.56
450.65	3840.82
450.83	3777.62
451.02	3822.09
451.20	3775.28
451.39	3784.65
451.57	3728.47
451.76	3852.52
451.94	3751.88
452.13	4091.26
452.31	3866.56
452.49	3913.38
452.68	3882.95
452.86	3889.97
453.05	4032.74
453.23	3948.48
453.42	3864.22
453.60	3892.31
453.78	3936.78
453.97	3990.61
454.15	4018.70
454.34	3969.55
454.52	4074.87
454.70	4070.19
454.89	4060.83
455.07	4149.77
455.26	3997.64
455.44	4072.53
455.62	4016.36
455.81	4079.55
455.99	4264.46
456.17	4248.07
456.36	4175.52
456.54	4271.48
456.73	4269.14
456.91	4547.66
457.09	4437.66
457.28	4470.42
457.46	4416.59
457.64	4332.33
457.83	4475.10
458.01	4339.35
458.19	4404.89
458.38	4440.00
458.56	4554.68
458.74	4496.17
458.93	4533.62
459.11	4479.79
459.29	4503.19
459.48	4585.11
459.66	4404.89
459.84	4557.02
460.03	4669.37
460.21	4615.54
460.39	4603.83
460.57	4521.92
460.76	4596.81
460.94	4507.87
461.12	4627.24
461.31	4557.02
461.49	4603.83
461.67	4638.94
461.85	4835.55
462.04	4725.54
462.22	5006.41
462.40	4863.63
462.59	4809.80
462.77	4823.84
462.95	4751.29
463.13	4798.10
463.32	4870.65
463.50	4933.85
463.68	4840.23
463.86	4908.10
464.05	4863.63
464.23	4898.74
464.41	4901.08
464.59	4737.24
464.78	4978.32
464.96	4994.70
465.14	4990.02
465.32	4880.02
465.50	4973.64
465.69	4992.36
465.87	5055.56
466.05	5153.86
466.23	4849.59
466.41	5097.69
466.60	5165.56
466.78	5041.51
466.96	5041.51
467.14	4985.34
467.32	5228.76
467.51	5200.67
467.69	5013.43
467.87	5252.16
468.05	5310.68
468.23	5153.86
468.41	5144.50
468.60	5228.76
468.78	5224.08
468.96	5228.76
469.14	5495.58
469.32	5526.00
469.50	5233.44
469.69	5584.52
469.87	5486.22
470.05	5371.53
470.23	5535.37
470.41	5526.00
470.59	5624.31
470.77	5572.82
470.95	5717.93
471.14	5619.63
471.32	5469.83
471.50	5888.79
471.68	5720.27
471.86	5582.18
472.04	5743.67
472.22	5746.02
472.40	5596.22
472.58	5804.53
472.77	5657.07
472.95	5900.49
473.13	6080.71
473.31	5682.82
473.49	5820.91
473.67	5921.56
473.85	5888.79
474.03	5947.30
474.21	6141.57
474.39	5984.75
474.57	5975.39
474.75	6331.15
474.93	6377.96
475.12	6157.95
475.30	6251.57
475.48	6179.01
475.66	6394.34
475.84	6347.53
476.02	6558.18
476.20	6438.81
476.38	6483.28
476.56	6707.98
476.74	6619.04
476.92	6696.27
477.10	6614.35
477.28	6771.17
477.46	6665.85
477.64	6986.50
477.82	6883.52
478.00	7077.78
478.18	7119.91
478.36	7007.56
478.54	6960.75
478.72	7211.19
478.90	7101.19
479.08	7148.00
479.26	7232.26
479.44	7513.12
479.62	7349.28
479.80	7604.40
479.98	7660.57
480.16	7686.32
480.34	7625.47
480.52	7735.47
480.70	7702.70
480.88	7536.52
481.06	7845.48
481.24	7840.79
481.41	7978.89
481.59	7964.84
481.77	7939.10
481.95	8280.82
482.13	8334.65
482.31	8212.94
482.49	8414.23
482.67	8346.35
482.85	8671.68
483.03	8531.25
483.21	8517.21
483.39	8765.31
483.57	8692.75
483.74	8737.22
483.92	8968.93
484.10	8917.44
484.28	9022.77
484.46	9121.07
484.64	9291.93
484.82	8924.46
485.00	9076.60
485.18	9345.76
485.35	9645.35
485.53	9551.73
485.71	9610.24
485.89	10031.54
486.07	9745.99
486.25	9881.74
486.43	9764.72
486.61	9933.23
486.78	10015.15
486.96	10111.11
487.14	10071.33
487.32	10104.09
487.50	10232.82
487.68	10202.40
487.85	10642.42
488.03	10703.27
488.21	10824.98
488.39	10775.83
488.57	10696.25
488.75	10579.22
488.92	11030.94
489.10	11047.33
489.28	10967.75
489.46	11255.64
489.64	11412.45
489.81	11379.68
489.99	11447.56
490.17	11403.09
490.35	11740.13
490.53	11857.15
490.70	11908.65
490.88	11831.41
491.06	11875.88
491.24	11749.49
491.41	12039.72
491.59	12018.65
491.77	12180.15
491.95	12479.74
492.13	12208.23
492.30	12528.89
492.48	12465.69
492.66	12556.97
492.84	12519.53
493.01	12774.64
493.19	12685.70
493.37	12924.44
493.54	12989.97
493.72	13053.17
493.90	13149.13
494.08	13231.05
494.25	13315.31
494.43	13268.50
494.61	13448.72
494.79	13434.68
494.96	13687.45
495.14	13685.11
495.32	13668.73
495.49	13832.57
495.67	13724.90
495.85	13778.73
496.02	14026.83
496.20	14232.80
496.38	14064.28
496.55	14171.94
496.73	14321.74
496.91	14331.10
497.09	14590.90
497.26	14785.16
497.44	14490.26
497.62	14462.17
497.79	14719.63
497.97	14953.68
498.14	15297.74
498.32	15136.24
498.50	15087.09
498.67	15260.29
498.85	14883.47
499.03	15243.91
499.20	15290.72
499.38	15253.27
499.56	15522.43
499.73	15470.94
499.91	15379.66
500.08	15335.19
500.26	15466.26
500.44	15611.37
500.61	15716.70
500.79	15817.34
500.97	15953.09
501.14	16229.27
501.32	15939.05
501.49	16159.06
501.67	15896.92
501.84	16044.37
502.02	16212.89
502.20	16116.93
502.37	16624.83
502.55	16428.22
502.72	16407.16
502.90	16475.03
503.07	16496.10
503.25	16774.62
503.43	16634.19
503.60	16751.21
503.78	16847.18
503.95	16568.65
504.13	16936.12
504.30	16847.18
504.48	16840.15
504.65	16945.48
504.83	17106.98
505.01	17371.46
505.18	17275.49
505.36	17547.00
505.53	17046.12
505.71	17186.55
505.88	17366.78
506.06	17163.15
506.23	17549.34
506.41	17481.46
506.58	17439.33
506.76	17603.17
506.93	17584.44
507.11	17479.12
507.28	17905.10
507.46	17795.09
507.63	18029.15
507.81	18235.11
507.98	18197.67
508.16	18101.70
508.33	18090.00
508.50	18139.15
508.68	18202.35
508.85	18293.63
509.03	18562.79
509.20	18272.56
509.38	18878.76
509.55	18654.07
509.73	18607.26
509.90	18740.67
510.08	18541.72
510.25	18721.95
510.42	18686.84
510.60	18932.59
510.77	19005.15
510.95	19129.20
511.12	18939.62
511.30	19012.17
511.47	19311.76
511.64	19042.60
511.82	19168.99
511.99	19108.13
512.17	19115.16
512.34	19323.46
512.51	19424.11
512.69	19496.66
512.86	19225.16
513.04	19728.38
513.21	19651.14
513.38	19737.74
513.56	19662.84
513.73	19742.42
513.90	19597.31
514.08	19833.70
514.25	19969.45
514.43	20116.90
514.60	20191.80
514.77	20006.90
514.95	20257.34
515.12	20133.29
515.29	20095.84
515.47	20294.79
515.64	19953.07
515.81	20561.61
515.99	20739.49
516.16	20512.46
516.33	20577.99
516.51	20826.09
516.68	20552.24
516.85	20449.26
517.03	20746.51
517.20	20807.36
517.37	21013.33
517.54	20959.50
517.72	20910.35
517.89	20973.54
518.06	20828.43
518.24	20840.13
518.41	20999.29
518.58	21146.74
518.75	21156.10
518.93	21495.48
519.10	21029.71
519.27	21333.98
519.45	21546.97
519.62	21586.76
519.79	21387.82
519.96	21158.44
520.14	21095.25
520.31	21549.31
520.48	21640.59
520.65	21654.64
520.83	21642.93
521.00	21708.47
521.17	21603.14
521.34	21656.98
521.52	21654.64
521.69	21858.26
521.86	21874.65
522.03	21975.29
522.20	21944.86
522.38	22150.83
522.55	22499.57
522.72	22256.15
522.89	22377.86
523.07	22415.31
523.24	22476.16
523.41	22345.09
523.58	22436.38
523.75	22668.09
523.92	22291.26
524.10	22309.99
524.27	22434.03
524.44	22632.98
524.61	22796.82
524.78	23012.15
524.96	22691.49
525.13	23175.98
525.30	22801.50
525.47	23061.30
525.64	22838.95
525.81	23264.92
525.98	23026.19
526.16	23110.45
526.33	22953.63
526.50	22899.80
526.67	22923.21
526.84	23489.62
527.01	23159.60
527.18	23346.84
527.36	23356.21
527.53	23683.88
527.70	23501.32
527.87	23632.39
528.04	23749.42
528.21	23566.85
528.38	23646.43
528.55	23611.32
528.72	23676.86
528.89	23733.03
529.07	23838.36
529.24	23613.66
529.41	24086.45
529.58	23847.72
529.75	23810.27
529.92	23957.72
530.09	23880.49
530.26	24140.29
530.43	24123.90
530.60	23763.46
530.77	24044.32
530.94	24290.08
531.11	24025.60
531.28	24156.67
531.46	24126.24
531.63	24393.06
531.80	24723.08
531.97	24608.39
532.14	24325.19
532.31	24308.80
532.48	24819.04
532.65	24575.62
532.82	24643.50
532.99	24329.87
533.16	24355.61
533.33	24739.46
533.50	25174.80
533.67	24971.18
533.84	24610.73
534.01	24627.12
534.18	24636.48
534.35	25022.67
534.52	24828.40
534.69	25240.34
534.86	25132.67
535.03	24950.11
535.20	24961.81
535.37	24861.17
535.54	25181.82
535.71	25062.46
535.88	25167.78
536.05	25149.06
536.22	25146.72
536.38	25228.63
536.55	25605.46
536.72	25432.26
536.89	25298.85
537.06	25504.82
537.23	25642.91
537.40	25614.82
537.57	25479.07
537.74	25366.73
537.91	25963.56
538.08	25713.13
538.25	25486.09
538.42	25343.32
538.59	25624.18
538.75	25413.54
538.92	25888.67
539.09	25675.68
539.26	25743.55
539.43	26017.40
539.60	25883.98
539.77	26043.14
539.94	26057.18
540.11	25628.87
540.28	26043.14
540.44	26162.51
540.61	25923.77
540.78	25741.21
540.95	26115.70
541.12	26043.14
541.29	26136.76
541.46	25930.80
541.62	26080.59
541.79	25802.07
541.96	26064.21
542.13	26267.83
542.30	26267.83
542.47	26464.44
542.63	26698.49
542.80	26532.31
542.97	26902.12
543.14	26796.79
543.31	26827.22
543.48	26686.79
543.64	26693.81
543.81	26944.25
543.98	27035.53
544.15	26965.31
544.32	27103.40
544.48	27124.47
544.65	27080.00
544.82	26609.55
544.99	26623.59
545.16	26895.10
545.32	26913.82
545.49	27101.06
545.66	26913.82
545.83	27129.15
546.00	27351.50
546.16	27110.43
546.33	26696.15
546.50	26815.52
546.67	27328.10
546.83	26920.84
547.00	27445.12
547.17	27412.35
547.34	27466.19
547.50	27583.21
547.67	27828.97
547.84	27424.06
548.00	27225.11
548.17	27730.67
548.34	27541.08
548.51	27543.42
548.67	27683.86
548.84	27796.20
549.01	27660.45
549.18	27414.69
549.34	27915.57
549.51	27604.28
549.68	27740.03
549.84	27651.09
550.01	27798.54
550.18	27782.16
550.34	27714.28
550.51	28273.67
550.68	27878.12
550.84	27688.54
551.01	28400.06
551.18	28009.19
551.34	28041.96
551.51	28072.39
551.68	28158.99
551.84	28308.78
552.01	28229.20
552.18	27948.34
552.34	28231.54
552.51	28547.51
552.68	28332.18
552.84	27974.08
553.01	28496.02
553.18	28170.69
553.34	28741.78
553.51	28245.58
553.67	28238.56
553.84	28376.66
554.01	28664.54
554.17	28332.18
554.34	28765.18
554.51	28919.66
554.67	28531.13
554.84	28606.03
555.00	28931.36
555.17	29046.05
555.33	28465.60
555.50	28393.04
555.67	28615.39
555.83	28561.56
556.00	28762.84
556.16	28882.21
556.33	28807.31
556.50	28940.72
556.66	29013.28
556.83	28772.21
556.99	28964.13
557.16	29216.91
557.32	28783.91
557.49	28833.06
557.65	29050.73
557.82	29013.28
557.98	28811.99
558.15	28973.49
558.32	28940.72
558.48	28891.57
558.65	29186.48
558.81	28802.63
558.98	29097.54
559.14	29017.96
559.31	28982.85
559.47	29216.91
559.64	29041.37
559.80	29144.35
559.97	29235.63
560.13	28922.00
560.30	29032.00
560.46	28992.22
560.63	29467.34
560.79	29331.59
560.96	29539.90
561.12	28840.08
561.29	28982.85
561.45	29544.58
561.61	29275.42
561.78	29502.45
561.94	29596.07
562.11	29289.46
562.27	29450.96
562.44	29273.08
562.60	29322.23
562.77	29397.13
562.93	29516.50
563.10	29507.13
563.26	29366.70
563.42	29600.76
563.59	29628.84
563.75	29575.01
563.92	29640.54
564.08	29647.57
564.24	29214.57
564.41	29373.72
564.57	29741.19
564.74	29795.02
564.90	29603.10
565.07	29560.97
565.23	29600.76
565.39	29776.30
565.56	29790.34
565.72	29355.00
565.88	29926.09
566.05	29703.74
566.21	29797.36
566.38	29874.60
566.54	29788.00
566.70	29642.88
566.87	30136.74
567.03	30106.31
567.19	30176.53
567.36	30061.84
567.52	30085.25
567.68	29673.31
567.85	29785.66
568.01	29790.34
568.17	29626.50
568.34	29860.55
568.50	30073.54
568.66	30314.62
568.83	29788.00
568.99	30312.28
569.15	29865.24
569.32	29385.43
569.48	29560.97
569.64	30265.47
569.81	29947.15
569.97	29642.88
570.13	30096.95
570.30	30134.40
570.46	29958.86
570.62	30192.91
570.78	29883.96
570.95	29687.36
571.11	30015.03
571.27	29722.46
571.43	29736.51
571.60	30139.08
571.76	30616.55
571.92	30120.35
572.09	30082.91
572.25	30005.67
572.41	30211.64
572.57	30291.21
572.74	30424.62
572.90	30209.29
573.06	30192.91
573.22	29860.55
573.38	29912.05
573.55	29851.19
573.71	30595.48
573.87	30396.54
574.03	30202.27
574.20	30174.19
574.36	29738.85
574.52	30239.72
574.68	30036.09
574.84	30436.33
575.01	30312.28
575.17	30342.70
575.33	30326.32
575.49	29965.88
575.65	30328.66
575.82	30602.50
575.98	30359.09
576.14	30686.76
576.30	29993.97
576.46	30040.78
576.62	30391.86
576.79	30225.68
576.95	30141.42
577.11	30616.55
577.27	30356.75
577.43	30405.90
577.59	30164.82
577.75	30415.26
577.92	29998.65
578.08	30478.46
578.24	30101.63
578.40	30171.85
578.56	30331.00
578.72	30316.96
578.88	30611.87
579.04	30499.52
579.21	30155.46
579.37	30684.42
579.53	30604.84
579.69	29972.90
579.85	30312.28
580.01	30192.91
580.17	30012.69
580.33	30391.86
580.49	30122.69
580.65	30256.11
580.82	30719.53
580.98	30611.87
581.14	30373.13
581.30	30389.52
581.46	30202.27
581.62	30487.82
581.78	30202.27
581.94	30586.12
582.10	30181.21
582.26	30579.10
582.42	30218.66
582.58	30831.88
582.74	30356.75
582.90	30291.21
583.06	30614.21
583.22	30761.66
583.38	30356.75
583.54	30389.52
583.70	29862.90
583.86	31007.42
584.02	30328.66
584.18	30785.07
584.34	30876.35
584.50	30504.20
584.66	30611.87
584.82	30721.87
584.98	30558.03
585.14	30527.61
585.30	30146.10
585.46	30375.47
585.62	30347.39
585.78	30682.08
585.94	30656.34
586.10	30567.40
586.26	30967.63
586.42	30710.17
586.58	30230.36
586.74	30476.12
586.90	30572.08
587.06	30199.93
587.22	30274.83
587.38	30321.64
587.54	30396.54
587.70	30476.12
587.86	30607.19
588.02	30733.57
588.18	30995.71
588.34	30972.31
588.49	30775.70
588.65	30789.75
588.81	30747.62
588.97	30387.18
589.13	30604.84
589.29	30368.45
589.45	30284.19
589.61	30717.19
589.77	30988.69
589.93	30813.15
590.08	31105.72
590.24	31054.23
590.40	30808.47
590.56	30714.85
590.72	30539.31
590.88	31002.74
591.04	30958.27
591.20	30862.30
591.35	31213.38
591.51	31189.98
591.67	31005.08
591.83	30967.63
