SpectraSuite Data File
++++++++++++++++++++++++++++++++++++
Date: Fri Oct 18 13:58:04 GMT-05:00 2013
User: bianchi
Dark Spectrum Present: No
Reference Spectrum Present: No
Number of Sampled Component Spectra: 1
Spectrometers: USB2+H05261
Integration Time (usec): 50000 (USB2+H05261)
Spectra Averaged: 1 (USB2+H05261)
Boxcar Smoothing: 0 (USB2+H05261)
Correct for Electrical Dark: No (USB2+H05261)
Strobe/Lamp Enabled: No (USB2+H05261)
Correct for Detector Non-linearity: No (USB2+H05261)
Correct for Stray Light: No (USB2+H05261)
Number of Pixels in Processed Spectrum: 2048
>>>>>Begin Processed Spectral Data<<<<<
365.73	0.00
365.92	0.00
366.12	0.00
366.32	0.00
366.52	0.00
366.72	0.00
366.91	0.00
367.11	0.00
367.31	0.00
367.51	0.00
367.70	0.00
367.90	0.00
368.10	0.00
368.30	0.00
368.49	0.00
368.69	0.00
368.89	0.00
369.09	0.00
369.28	0.00
369.48	0.00
369.68	0.00
369.87	0.00
370.07	0.00
370.27	0.00
370.47	0.00
370.66	67.88
370.86	135.75
371.06	163.84
371.25	182.56
371.45	98.30
371.65	177.88
371.84	91.28
372.04	107.66
372.24	243.42
372.44	138.09
372.63	166.18
372.83	149.79
373.03	278.52
373.22	236.39
373.42	238.73
373.62	222.35
373.81	224.69
374.01	215.33
374.21	255.12
374.40	166.18
374.60	224.69
374.79	210.65
374.99	234.05
375.19	245.76
375.38	196.60
375.58	215.33
375.78	273.84
375.97	217.67
376.17	236.39
376.37	332.36
376.56	222.35
376.76	278.52
376.95	163.84
377.15	304.27
377.35	255.12
377.54	229.37
377.74	346.40
377.93	250.44
378.13	224.69
378.33	351.08
378.52	262.14
378.72	283.20
378.91	241.08
379.11	292.57
379.31	294.91
379.50	234.05
379.70	421.30
379.89	308.95
380.09	325.33
380.28	304.27
380.48	358.10
380.68	301.93
380.87	383.85
381.07	301.93
381.26	325.33
381.46	355.76
381.65	297.25
381.85	318.31
382.04	358.10
382.24	341.72
382.43	414.27
382.63	325.33
382.83	332.36
383.02	369.80
383.22	278.52
383.41	222.35
383.61	346.40
383.80	315.97
384.00	397.89
384.19	414.27
384.39	428.32
384.58	470.45
384.78	299.59
384.97	428.32
385.17	395.55
385.36	341.72
385.56	358.10
385.75	393.21
385.95	465.77
386.14	416.62
386.34	379.17
386.53	482.15
386.72	489.17
386.92	407.25
387.11	465.77
387.31	493.85
387.50	383.85
387.70	484.49
387.89	531.30
388.09	470.45
388.28	449.38
388.48	430.66
388.67	463.43
388.86	423.64
389.06	507.90
389.25	519.60
389.45	444.70
389.64	423.64
389.84	514.92
390.03	442.36
390.22	510.24
390.42	479.81
390.61	559.39
390.81	451.72
391.00	592.16
391.19	437.68
391.39	519.60
391.58	554.71
391.78	526.62
391.97	547.69
392.16	545.34
392.36	559.39
392.55	493.85
392.75	533.64
392.94	535.98
393.13	531.30
393.33	596.84
393.52	547.69
393.71	517.26
393.91	543.00
394.10	587.47
394.29	568.75
394.49	540.66
394.68	510.24
394.88	594.50
395.07	627.26
395.26	622.58
395.46	664.71
395.65	617.90
395.84	709.18
396.04	709.18
396.23	655.35
396.42	674.07
396.62	650.67
396.81	671.73
397.00	587.47
397.19	716.20
397.39	660.03
397.58	706.84
397.77	552.37
397.97	674.07
398.16	676.41
398.35	699.82
398.55	784.08
398.74	720.88
398.93	727.91
399.12	786.42
399.32	725.57
399.51	688.12
399.70	814.51
399.90	615.56
400.09	765.36
400.28	711.52
400.47	706.84
400.67	765.36
400.86	847.27
401.05	854.30
401.24	800.46
401.44	833.23
401.63	830.89
401.82	856.64
402.01	807.48
402.21	873.02
402.40	821.53
402.59	884.72
402.78	898.77
402.97	873.02
403.17	912.81
403.36	844.93
403.55	873.02
403.74	908.13
403.93	940.90
404.13	919.83
404.32	901.11
404.51	933.87
404.70	1004.09
404.89	868.34
405.09	891.74
405.28	990.05
405.47	938.55
405.66	1050.90
405.85	980.68
406.05	947.92
406.24	978.34
406.43	1006.43
406.62	1029.84
406.81	1123.46
407.00	994.73
407.20	1078.99
407.39	1015.79
407.58	1057.92
407.77	1090.69
407.96	1121.12
408.15	1053.24
408.34	1069.62
408.54	1104.73
408.73	1128.14
408.92	1034.52
409.11	1067.28
409.30	1090.69
409.49	1132.82
409.68	1200.69
409.87	1144.52
410.07	1277.93
410.26	1233.46
410.45	1224.10
410.64	1179.63
410.83	1235.80
411.02	1177.29
411.21	1270.91
411.40	1170.27
411.59	1261.55
411.78	1289.64
411.98	1188.99
412.17	1352.83
412.36	1270.91
412.55	1345.81
412.74	1394.96
412.93	1472.20
413.12	1303.68
413.31	1554.12
413.50	1425.39
413.69	1380.92
413.88	1540.07
414.07	1411.34
414.26	1533.05
414.45	1483.90
414.64	1472.20
414.83	1533.05
415.02	1643.06
415.22	1577.52
415.41	1584.54
415.60	1575.18
415.79	1586.88
415.98	1633.69
416.17	1600.93
416.36	1645.40
416.55	1626.67
416.74	1710.93
416.93	1582.20
417.12	1607.95
417.31	1647.74
417.50	1717.95
417.69	1678.16
417.88	1664.12
418.07	1689.87
418.26	1764.76
418.45	1739.02
418.64	1916.90
418.83	1870.09
419.02	1792.85
419.21	1823.28
419.39	1834.98
419.58	1849.02
419.77	1795.19
419.96	1863.07
420.15	1898.17
420.34	1825.62
420.53	1914.56
420.72	1867.75
420.91	1959.03
421.10	1975.41
421.29	1954.35
421.48	1895.83
421.67	1975.41
421.86	1982.43
422.05	2064.35
422.24	1827.96
422.43	1984.77
422.61	1984.77
422.80	1935.62
422.99	1982.43
423.18	2038.61
423.37	2057.33
423.56	1952.01
423.75	1909.88
423.94	2076.06
424.13	1923.92
424.32	1867.75
424.50	2062.01
424.69	2015.20
424.88	2101.80
425.07	1989.46
425.26	2026.90
425.45	2085.42
425.64	2076.06
425.83	2141.59
426.01	2064.35
426.20	2129.89
426.39	2085.42
426.58	1996.48
426.77	2073.71
426.96	2113.50
427.15	2076.06
427.33	2167.34
427.52	2265.64
427.71	2132.23
427.90	2310.11
428.09	2204.78
428.28	2162.66
428.46	2260.96
428.65	2270.32
428.84	2181.38
429.03	2209.47
429.22	2076.06
429.40	2347.56
429.59	2307.77
429.78	2148.61
429.97	2165.00
430.16	2251.60
430.34	2265.64
430.53	2319.47
430.72	2321.81
430.91	2333.51
431.10	2277.34
431.28	2366.28
431.47	2331.17
431.66	2590.97
431.85	2422.45
432.03	2480.97
432.22	2583.95
432.41	2525.44
432.60	2452.88
432.79	2518.42
432.97	2506.71
433.16	2413.09
433.35	2511.39
433.54	2527.78
433.72	2602.68
433.91	2602.68
434.10	2593.31
434.28	2539.48
434.47	2621.40
434.66	2525.44
434.85	2679.91
435.03	2583.95
435.22	2635.44
435.41	2670.55
435.59	2609.70
435.78	2693.96
435.97	2663.53
436.16	2614.38
436.34	2677.57
436.53	2815.66
436.72	2810.98
436.90	2789.92
437.09	2789.92
437.28	2752.47
437.46	2738.43
437.65	2920.99
437.84	2778.22
438.02	2789.92
438.21	2909.29
438.40	2834.39
438.58	2874.18
438.77	2818.00
438.96	2768.85
439.14	2937.37
439.33	2981.84
439.52	2949.08
439.70	3075.46
439.89	3084.83
440.08	3045.04
440.26	3155.04
440.45	3101.21
440.63	3201.85
440.82	3148.02
441.01	3302.50
441.19	3159.72
441.38	3222.92
441.57	3309.52
441.75	3222.92
441.94	3417.18
442.12	3222.92
442.31	3414.84
442.50	3307.18
442.68	3372.71
442.87	3232.28
443.05	3485.06
443.24	3339.94
443.43	3433.57
443.61	3407.82
443.80	3559.95
443.98	3456.97
444.17	3260.37
444.35	3426.54
444.54	3571.66
444.73	3541.23
444.91	3494.42
445.10	3536.55
445.28	3531.87
445.47	3332.92
445.65	3421.86
445.84	3578.68
446.02	3634.85
446.21	3583.36
446.39	3361.01
446.58	3552.93
446.77	3501.44
446.95	3503.78
447.14	3630.17
447.32	3534.21
447.51	3588.04
447.69	3578.68
447.88	3524.85
448.06	3705.07
448.25	3454.63
448.43	3625.49
448.62	3566.98
448.80	3527.19
448.99	3552.93
449.17	3705.07
449.36	3557.61
449.54	3723.79
449.73	3878.27
449.91	3733.15
450.10	3737.84
450.28	3782.31
450.46	3751.88
450.65	3672.30
450.83	3744.86
451.02	3845.50
451.20	3777.62
451.39	3742.52
451.57	3826.78
451.76	3850.18
451.94	4016.36
452.13	3747.20
452.31	3962.53
452.49	3882.95
452.68	3913.38
452.86	3822.09
453.05	4117.00
453.23	3934.44
453.42	3859.54
453.60	3815.07
453.78	3906.35
453.97	3901.67
454.15	4088.92
454.34	3985.93
454.52	4011.68
454.70	4102.96
454.89	4030.40
455.07	4049.13
455.26	4060.83
455.44	4014.02
455.62	4053.81
455.81	4065.51
455.99	4283.18
456.17	4203.60
456.36	4212.96
456.54	4339.35
456.73	4367.44
456.91	4273.82
457.09	4383.82
457.28	4365.10
457.46	4229.35
457.64	4461.06
457.83	4360.42
458.01	4397.87
458.19	4512.55
458.38	4379.14
458.56	4484.47
458.74	4447.02
458.93	4334.67
459.11	4468.08
459.29	4327.65
459.48	4444.68
459.66	4538.30
459.84	4514.89
460.03	4554.68
460.21	4582.77
460.39	4575.75
460.57	4585.11
460.76	4610.86
460.94	4669.37
461.12	4777.03
461.31	4667.03
461.49	4671.71
461.67	4641.28
461.85	4793.42
462.04	4615.54
462.22	5104.71
462.40	4753.63
462.59	4901.08
462.77	4837.89
462.95	4919.81
463.13	4978.32
463.32	4887.04
463.50	4877.68
463.68	5046.20
463.86	4805.12
464.05	4856.61
464.23	4992.36
464.41	4877.68
464.59	4915.12
464.78	4954.91
464.96	4952.57
465.14	5160.88
465.32	5034.49
465.50	5146.84
465.69	5081.30
465.87	4933.85
466.05	5085.98
466.23	5020.45
466.41	5146.84
466.60	5188.97
466.78	5006.41
466.96	5153.86
467.14	5163.22
467.32	5121.09
467.51	5294.29
467.69	5123.43
467.87	5263.86
468.05	5249.82
468.23	5404.30
468.41	5102.37
468.60	5298.97
468.78	5167.90
468.96	5210.03
469.14	5366.85
469.32	5277.91
469.50	5270.89
469.69	5516.64
469.87	5338.76
470.05	5420.68
470.23	5411.32
470.41	5451.11
470.59	5481.53
470.77	5406.64
470.95	5509.62
471.14	5797.51
471.32	5376.21
471.50	5806.87
471.68	5650.05
471.86	5643.03
472.04	5750.70
472.22	5806.87
472.40	5708.57
472.58	5930.92
472.77	5863.04
472.95	6005.81
473.13	6242.21
473.31	6097.10
473.49	5774.10
473.67	6064.33
473.85	5980.07
474.03	6106.46
474.21	6085.39
474.39	6104.12
474.57	6139.23
474.75	6087.73
474.93	6246.89
475.12	6174.33
475.30	6305.40
475.48	6319.45
475.66	6363.92
475.84	6326.47
476.02	6593.29
476.20	6527.75
476.38	6445.84
476.56	6602.65
476.74	6752.45
476.92	6534.78
477.10	6726.70
477.28	6855.43
477.46	6757.13
477.64	6895.22
477.82	7056.72
478.00	6916.28
478.18	6986.50
478.36	7089.48
478.54	7126.93
478.72	6974.80
478.90	7068.42
479.08	7300.13
479.26	7344.60
479.44	7330.56
479.62	7241.62
479.80	7590.36
479.98	7496.74
480.16	7812.71
480.34	7812.71
480.52	7616.10
480.70	7967.18
480.88	7440.56
481.06	7829.09
481.24	7801.01
481.41	7960.16
481.59	8215.28
481.77	8049.10
481.95	8299.54
482.13	8093.57
482.31	7990.59
482.49	8442.31
482.67	8493.80
482.85	8489.12
483.03	8561.68
483.21	8636.58
483.39	8379.12
483.57	8613.17
483.74	8755.94
483.92	9008.72
484.10	9004.04
484.28	9114.05
484.46	9064.89
484.64	9233.41
484.82	9212.35
485.00	9315.33
485.18	9256.82
485.35	9359.80
485.53	9432.36
485.71	9502.58
485.89	9720.24
486.07	9713.22
486.25	9614.92
486.43	9668.75
486.61	9804.50
486.78	10019.83
486.96	10108.77
487.14	10300.70
487.32	10104.09
487.50	10270.27
487.68	10230.48
487.85	10490.28
488.03	10619.01
488.21	10949.03
488.39	10796.89
488.57	10761.78
488.75	10764.12
488.92	11047.33
489.10	11094.14
489.28	11068.39
489.46	11218.19
489.64	11005.20
489.81	11367.98
489.99	11562.25
490.17	11578.63
490.35	11791.62
490.53	11482.67
490.70	11831.41
490.88	11756.51
491.06	11824.39
491.24	11843.11
491.41	12070.14
491.59	12088.87
491.77	11953.12
491.95	12208.23
492.13	12468.03
492.30	12519.53
492.48	12720.81
492.66	12610.81
492.84	12461.01
493.01	12690.38
493.19	12896.35
493.37	12992.31
493.54	12896.35
493.72	13153.81
493.90	12849.54
494.08	13062.53
494.25	13233.39
494.43	13366.80
494.61	13701.50
494.79	13591.49
494.96	13502.55
495.14	13977.68
495.32	13834.91
495.49	13762.35
495.67	13841.93
495.85	14031.51
496.02	14024.49
496.20	14232.80
496.38	14136.84
496.55	14455.15
496.73	14438.76
496.91	14349.82
497.09	14588.56
497.26	14698.56
497.44	14396.64
497.62	14618.99
497.79	14581.54
497.97	14995.81
498.14	15096.46
498.32	14946.66
498.50	14878.79
498.67	15234.55
498.85	15213.48
499.03	15049.64
499.20	15246.25
499.38	15302.42
499.56	15115.18
499.73	15269.66
499.91	15815.00
500.08	15374.98
500.26	15304.76
500.44	15669.89
500.61	15527.11
500.79	15648.82
500.97	15920.32
501.14	16152.04
501.32	16304.17
501.49	16063.10
501.67	15978.84
501.84	15899.26
502.02	16210.55
502.20	16491.41
502.37	16418.86
502.55	16245.66
502.72	16393.11
502.90	16145.02
503.07	16746.53
503.25	16538.23
503.43	16781.64
503.60	16819.09
503.78	16863.56
503.95	16849.52
504.13	16748.87
504.30	17139.74
504.48	16856.54
504.65	17085.91
504.83	17053.14
505.01	17497.84
505.18	17341.03
505.36	17296.56
505.53	17186.55
505.71	17287.20
505.88	17554.02
506.06	17481.46
506.23	17600.83
506.41	17633.60
506.58	17724.88
506.76	17539.97
506.93	17642.96
507.11	17668.70
507.28	17750.62
507.46	18218.73
507.63	17762.33
507.81	18202.35
507.98	17958.93
508.16	17907.44
508.33	18190.64
508.50	18106.38
508.68	18080.64
508.85	18340.44
509.03	18537.04
509.20	18789.82
509.38	18572.15
509.55	18621.30
509.73	18651.73
509.90	18539.38
510.08	18593.22
510.25	18633.00
510.42	18562.79
510.60	18953.66
510.77	18885.78
510.95	18981.74
511.12	18981.74
511.30	19014.51
511.47	19253.25
511.64	19339.85
511.82	19129.20
511.99	19044.94
512.17	19414.74
512.34	19431.13
512.51	19250.91
512.69	19419.42
512.86	19536.45
513.04	19934.34
513.21	19711.99
513.38	19630.07
513.56	19641.78
513.73	19754.12
513.90	19836.04
514.08	19651.14
514.25	20144.99
514.43	20025.62
514.60	20231.59
514.77	20144.99
514.95	20191.80
515.12	20006.90
515.29	20322.87
515.47	20205.84
515.64	20652.89
515.81	20271.38
515.99	20629.48
516.16	20641.18
516.33	20444.58
516.51	20933.75
516.68	20638.84
516.85	20547.56
517.03	20989.92
517.20	20741.83
517.37	20865.88
517.54	20957.16
517.72	20809.70
517.89	20868.22
518.06	21282.49
518.24	21008.65
518.41	21071.84
518.58	21074.18
518.75	21170.15
518.93	21191.21
519.10	21240.36
519.27	21130.36
519.45	21200.57
519.62	21474.42
519.79	21188.87
519.96	21333.98
520.14	21343.35
520.31	21359.73
520.48	21582.08
520.65	21579.74
520.83	21724.85
521.00	21607.83
521.17	21937.84
521.34	22087.64
521.52	21757.62
521.69	22057.21
521.86	22089.98
522.03	22052.53
522.20	22141.47
522.38	22120.40
522.55	22263.18
522.72	22324.03
522.89	22515.95
523.07	22555.74
523.24	22160.19
523.41	22204.66
523.58	22295.94
523.75	22656.39
523.92	22293.60
524.10	22298.28
524.27	22661.07
524.44	22878.74
524.61	22824.90
524.78	22579.15
524.96	22824.90
525.13	22820.22
525.30	22852.99
525.47	22974.70
525.64	22852.99
525.81	23112.79
525.98	23271.95
526.16	23463.87
526.33	23417.06
526.50	23332.80
526.67	22948.95
526.84	23307.05
527.01	23164.28
527.18	23316.42
527.36	23197.05
527.53	23578.56
527.70	23501.32
527.87	23690.90
528.04	23543.45
528.21	23735.37
528.38	23410.04
528.55	23786.86
528.72	23597.28
528.89	23744.73
529.07	24060.71
529.24	23941.34
529.41	24173.05
529.58	23850.06
529.75	23440.47
529.92	23915.59
530.09	24215.18
530.26	24025.60
530.43	24137.94
530.60	24109.86
530.77	24215.18
530.94	24217.52
531.11	24025.60
531.28	23999.85
531.46	24025.60
531.63	24664.57
531.80	24329.87
531.97	24266.67
532.14	24620.10
532.31	24526.47
532.48	24503.07
532.65	24383.70
532.82	24386.04
532.99	24584.99
533.16	24512.43
533.33	24889.26
533.50	24975.86
533.67	25095.22
533.84	24498.39
534.01	24690.31
534.18	24652.86
534.35	25261.40
534.52	24709.04
534.69	24982.88
534.86	24924.36
535.03	25001.60
535.20	25193.53
535.37	25289.49
535.54	25184.16
535.71	24854.15
535.88	25057.78
536.05	24987.56
536.22	25429.92
536.38	25558.65
536.55	25174.80
536.72	25439.28
536.89	25310.55
537.06	25289.49
537.23	25521.20
537.40	25195.87
537.57	25731.85
537.74	25549.29
537.91	25930.80
538.08	25902.71
538.25	25671.00
538.42	25783.34
538.59	25750.57
538.75	25458.01
538.92	25649.93
539.09	26003.35
539.26	25706.10
539.43	25961.22
539.60	25968.24
539.77	26078.25
539.94	26197.62
540.11	26148.46
540.28	25930.80
540.44	25993.99
540.61	26426.99
540.78	25933.14
540.95	26206.98
541.12	26195.28
541.29	26370.82
541.46	26335.71
541.62	26017.40
541.79	26157.83
541.96	26211.66
542.13	25802.07
542.30	26139.10
542.47	26904.46
542.63	26508.91
542.80	26822.54
542.97	26686.79
543.14	26689.13
543.31	26890.41
543.48	26656.36
543.64	26995.74
543.81	27332.78
543.98	26909.14
544.15	27033.19
544.32	27257.88
544.48	26991.06
544.65	26820.20
544.82	27285.97
544.99	26670.40
545.16	27180.64
545.32	26998.08
545.49	27681.52
545.66	27484.91
545.83	27077.66
546.00	27587.89
546.16	27140.85
546.33	27108.08
546.50	27042.55
546.67	27321.07
546.83	26792.11
547.00	27627.68
547.17	27353.84
547.34	27150.21
547.50	27424.06
547.67	27843.01
547.84	27360.86
548.00	27630.02
548.17	27857.06
548.34	27297.67
548.51	27840.67
548.67	27983.44
548.84	27559.81
549.01	27880.46
549.18	27489.59
549.34	27814.93
549.51	27847.69
549.68	27676.83
549.84	27601.94
550.01	27709.60
550.18	27934.29
550.34	27812.59
550.51	28084.09
550.68	28002.17
550.84	27821.95
551.01	28016.21
551.18	27627.68
551.34	27772.80
551.51	28093.45
551.68	28133.24
551.84	28367.29
552.01	27981.10
552.18	28435.17
552.34	28074.73
552.51	28041.96
552.68	28271.33
552.84	28173.03
553.01	28559.22
553.18	28243.24
553.34	28313.46
553.51	28245.58
553.67	28507.72
553.84	28631.77
554.01	28549.85
554.17	28278.35
554.34	28566.24
554.51	28247.93
554.67	28694.97
554.84	28587.30
555.00	28463.25
555.17	28421.13
555.33	28706.67
555.50	28694.97
555.67	28613.05
555.83	28395.38
556.00	28510.07
556.16	28596.67
556.33	28428.15
556.50	28783.91
556.66	28896.25
556.83	28987.53
556.99	29177.12
557.16	29039.03
557.32	29039.03
557.49	29188.82
557.65	28744.12
557.82	29153.71
557.98	29106.90
558.15	29008.60
558.32	29003.92
558.48	29156.05
558.65	29284.78
558.81	29088.18
558.98	29177.12
559.14	28982.85
559.31	29411.17
559.47	28968.81
559.64	29032.00
559.80	29329.25
559.97	29287.12
560.13	29315.21
560.30	29507.13
560.46	29296.49
560.63	29425.22
560.79	29326.91
560.96	29455.64
561.12	29326.91
561.29	29282.44
561.45	29120.95
561.61	29483.73
561.78	29743.53
561.94	29694.38
562.11	29729.48
562.27	29233.29
562.44	29104.56
562.60	29769.27
562.77	29668.63
562.93	29312.87
563.10	29837.15
563.26	29516.50
563.42	29741.19
563.59	29649.91
563.75	29862.90
563.92	29165.42
564.08	29778.64
564.24	29572.67
564.41	29773.95
564.57	29614.80
564.74	29633.52
564.90	29677.99
565.07	29682.67
565.23	29888.64
565.39	29713.10
565.56	29776.30
565.72	29736.51
565.88	29750.55
566.05	29521.18
566.21	29355.00
566.38	30024.39
566.54	29825.45
566.70	29956.52
566.87	29848.85
567.03	29802.04
567.19	30347.39
567.36	29900.34
567.52	29860.55
567.68	29984.60
567.85	29921.41
568.01	29582.03
568.17	30064.18
568.34	30122.69
568.50	30181.21
568.66	30150.78
568.83	30347.39
568.99	29989.28
569.15	30022.05
569.32	29495.43
569.48	29769.27
569.64	30436.33
569.81	30000.99
569.97	29766.93
570.13	30291.21
570.30	29848.85
570.46	30487.82
570.62	30277.17
570.78	29996.31
570.95	29830.13
571.11	30045.46
571.27	29914.39
571.43	29827.79
571.60	29982.26
571.76	30232.70
571.92	30508.88
572.09	30101.63
572.25	30061.84
572.41	30225.68
572.57	30263.13
572.74	30050.14
572.90	29570.33
573.06	30031.41
573.22	29680.33
573.38	30174.19
573.55	30003.33
573.71	30607.19
573.87	30323.98
574.03	30253.76
574.20	30422.28
574.36	30462.07
574.52	29982.26
574.68	30263.13
574.84	30029.07
575.01	29902.68
575.17	30408.24
575.33	30068.86
575.49	30078.22
575.65	30398.88
575.82	30604.84
575.98	30349.73
576.14	30108.65
576.30	30431.65
576.46	30096.95
576.62	29968.22
576.79	30312.28
576.95	30082.91
577.11	30155.46
577.27	30326.32
577.43	30651.66
577.59	30232.70
577.75	30356.75
577.92	30101.63
578.08	30249.08
578.24	30305.26
578.40	30000.99
578.56	30347.39
578.72	30625.91
578.88	30632.93
579.04	30085.25
579.21	30422.28
579.37	30838.90
579.53	30504.20
579.69	30361.43
579.85	30171.85
580.01	30646.97
580.17	30319.30
580.33	30375.47
580.49	30448.03
580.65	30462.07
580.82	30616.55
580.98	30424.62
581.14	30625.91
581.30	30658.68
581.46	30326.32
581.62	30441.01
581.78	30450.37
581.94	30235.04
582.10	30562.72
582.26	30745.28
582.42	30670.38
582.58	30522.93
582.74	30525.27
582.90	30684.42
583.06	30656.34
583.22	30532.29
583.38	30658.68
583.54	30192.91
583.70	30347.39
583.86	30452.71
584.02	30143.76
584.18	30452.71
584.34	30773.36
584.50	30581.44
584.66	30403.56
584.82	30824.86
584.98	30387.18
585.14	30398.88
585.30	30171.85
585.46	30569.74
585.62	30417.60
585.78	31028.48
585.94	30356.75
586.10	30993.37
586.26	30897.41
586.42	30672.72
586.58	30672.72
586.74	30714.85
586.90	30412.92
587.06	30480.80
587.22	30583.78
587.38	30433.99
587.54	30883.37
587.70	30675.06
587.86	30632.93
588.02	30862.30
588.18	31208.70
588.34	30579.10
588.49	30609.53
588.65	30082.91
588.81	31089.34
588.97	30679.74
589.13	30422.28
589.29	30548.67
589.45	30913.80
589.61	30902.09
589.77	30902.09
589.93	30609.53
590.08	31147.85
590.24	31339.77
590.40	30625.91
590.56	30916.14
590.72	30665.70
590.88	30918.48
591.04	30792.09
591.20	30904.43
591.35	31250.83
591.51	31056.57
591.67	30944.22
591.83	31119.76
591.99	30962.95
