SpectraSuite Data File
++++++++++++++++++++++++++++++++++++
Date: Fri Oct 18 13:58:00 GMT-05:00 2013
User: bianchi
Dark Spectrum Present: No
Reference Spectrum Present: No
Number of Sampled Component Spectra: 1
Spectrometers: USB2+H05261
Integration Time (usec): 50000 (USB2+H05261)
Spectra Averaged: 1 (USB2+H05261)
Boxcar Smoothing: 0 (USB2+H05261)
Correct for Electrical Dark: No (USB2+H05261)
Strobe/Lamp Enabled: No (USB2+H05261)
Correct for Detector Non-linearity: No (USB2+H05261)
Correct for Stray Light: No (USB2+H05261)
Number of Pixels in Processed Spectrum: 2048
>>>>>Begin Processed Spectral Data<<<<<
365.73	0.00
365.92	0.00
366.12	0.00
366.32	0.00
366.52	0.00
366.72	0.00
366.91	0.00
367.11	0.00
367.31	0.00
367.51	0.00
367.70	0.00
367.90	0.00
368.10	0.00
368.30	0.00
368.49	0.00
368.69	0.00
368.89	0.00
369.09	0.00
369.28	0.00
369.48	0.00
369.68	0.00
369.87	0.00
370.07	0.00
370.27	0.00
370.47	0.00
370.66	95.96
370.86	135.75
371.06	86.60
371.25	107.66
371.45	170.86
371.65	166.18
371.84	189.58
372.04	201.29
372.24	220.01
372.44	152.13
372.63	170.86
372.83	161.50
373.03	212.99
373.22	294.91
373.42	215.33
373.62	229.37
373.81	191.92
374.01	198.95
374.21	234.05
374.40	194.26
374.60	229.37
374.79	220.01
374.99	201.29
375.19	290.23
375.38	236.39
375.58	287.89
375.78	217.67
375.97	264.48
376.17	243.42
376.37	299.59
376.56	297.25
376.76	220.01
376.95	217.67
377.15	262.14
377.35	236.39
377.54	245.76
377.74	234.05
377.93	313.63
378.13	322.99
378.33	280.86
378.52	287.89
378.72	320.65
378.91	304.27
379.11	220.01
379.31	210.65
379.50	257.46
379.70	294.91
379.89	337.04
380.09	276.18
380.28	241.08
380.48	301.93
380.68	262.14
380.87	306.61
381.07	304.27
381.26	311.29
381.46	304.27
381.65	273.84
381.85	280.86
382.04	372.15
382.24	320.65
382.43	287.89
382.63	393.21
382.83	346.40
383.02	273.84
383.22	374.49
383.41	341.72
383.61	325.33
383.80	297.25
384.00	433.00
384.19	290.23
384.39	362.78
384.58	362.78
384.78	418.96
384.97	390.87
385.17	332.36
385.36	273.84
385.56	442.36
385.75	409.59
385.95	379.17
386.14	407.25
386.34	397.89
386.53	379.17
386.72	311.29
386.92	346.40
387.11	440.02
387.31	444.70
387.50	383.85
387.70	454.06
387.89	444.70
388.09	388.53
388.28	447.04
388.48	454.06
388.67	409.59
388.86	461.09
389.06	447.04
389.25	489.17
389.45	428.32
389.64	465.77
389.84	425.98
390.03	491.51
390.22	526.62
390.42	468.11
390.61	482.15
390.81	435.34
391.00	512.58
391.19	559.39
391.39	533.64
391.58	545.34
391.78	484.49
391.97	531.30
392.16	440.02
392.36	596.84
392.55	582.79
392.75	599.18
392.94	545.34
393.13	538.32
393.33	573.43
393.52	561.73
393.71	521.94
393.91	552.37
394.10	624.92
394.29	610.88
394.49	606.20
394.68	552.37
394.88	524.28
395.07	671.73
395.26	599.18
395.46	627.26
395.65	580.45
395.84	657.69
396.04	629.60
396.23	622.58
396.42	653.01
396.62	603.86
396.81	657.69
397.00	613.22
397.19	697.48
397.39	596.84
397.58	629.60
397.77	720.88
397.97	755.99
398.16	739.61
398.35	709.18
398.55	664.71
398.74	641.31
398.93	751.31
399.12	739.61
399.32	716.20
399.51	716.20
399.70	723.23
399.90	713.86
400.09	748.97
400.28	770.04
400.47	826.21
400.67	755.99
400.86	835.57
401.05	781.74
401.24	748.97
401.44	823.87
401.63	837.91
401.82	828.55
402.01	713.86
402.21	830.89
402.40	856.64
402.59	847.27
402.78	898.77
402.97	760.67
403.17	880.04
403.36	812.17
403.55	889.40
403.74	905.79
403.93	863.66
404.13	915.15
404.32	837.91
404.51	840.25
404.70	915.15
404.89	898.77
405.09	910.47
405.28	950.26
405.47	929.19
405.66	919.83
405.85	973.66
406.05	968.98
406.24	1048.56
406.43	959.62
406.62	968.98
406.81	1039.20
407.00	1032.18
407.20	968.98
407.39	1032.18
407.58	1053.24
407.77	1046.22
407.96	1149.20
408.15	1078.99
408.34	1053.24
408.54	1057.92
408.73	1128.14
408.92	1142.18
409.11	1165.59
409.30	1114.10
409.49	1067.28
409.68	1109.41
409.87	1160.91
410.07	1146.86
410.26	1174.95
410.45	1177.29
410.64	1188.99
410.83	1200.69
411.02	1252.19
411.21	1174.95
411.40	1214.74
411.59	1296.66
411.78	1364.53
411.98	1196.01
412.17	1282.61
412.36	1275.59
412.55	1306.02
412.74	1343.47
412.93	1291.98
413.12	1313.04
413.31	1427.73
413.50	1324.74
413.69	1444.11
413.88	1420.71
414.07	1406.66
414.26	1385.60
414.45	1423.05
414.64	1493.26
414.83	1495.60
415.02	1507.30
415.22	1563.48
415.41	1467.52
415.60	1514.33
415.79	1500.28
415.98	1621.99
416.17	1636.03
416.36	1652.42
416.55	1521.35
416.74	1572.84
416.93	1636.03
417.12	1687.53
417.31	1687.53
417.50	1640.72
417.69	1724.97
417.88	1617.31
418.07	1706.25
418.26	1680.50
418.45	1687.53
418.64	1881.79
418.83	1769.44
419.02	1734.34
419.21	1813.92
419.39	1865.41
419.58	1853.70
419.77	1914.56
419.96	1797.53
420.15	1881.79
420.34	1930.94
420.53	1858.39
420.72	1860.73
420.91	1891.15
421.10	1872.43
421.29	1947.33
421.48	1970.73
421.67	1886.47
421.86	1914.56
422.05	1923.92
422.24	2069.03
422.43	1926.26
422.61	1996.48
422.80	1959.03
422.99	1970.73
423.18	1980.09
423.37	2043.29
423.56	1912.22
423.75	2069.03
423.94	1982.43
424.13	1851.36
424.32	1970.73
424.50	2047.97
424.69	2024.56
424.88	2059.67
425.07	1898.17
425.26	2064.35
425.45	2010.52
425.64	2031.58
425.83	2008.18
426.01	2033.93
426.20	1959.03
426.39	1982.43
426.58	2090.10
426.77	2101.80
426.96	2059.67
427.15	2054.99
427.33	2057.33
427.52	2148.61
427.71	2125.21
427.90	2174.36
428.09	2188.40
428.28	2113.50
428.46	2115.84
428.65	2174.36
428.84	2183.72
429.03	2242.23
429.22	2085.42
429.40	2146.27
429.59	2326.49
429.78	2104.14
429.97	2181.38
430.16	2307.77
430.34	2239.89
430.53	2174.36
430.72	2284.36
430.91	2312.45
431.10	2263.30
431.28	2408.41
431.47	2410.75
431.66	2410.75
431.85	2401.39
432.03	2495.01
432.22	2438.84
432.41	2396.71
432.60	2462.24
432.79	2436.50
432.97	2434.16
433.16	2408.41
433.35	2431.82
433.54	2544.16
433.72	2490.33
433.91	2410.75
434.10	2427.14
434.28	2478.63
434.47	2513.74
434.66	2595.65
434.85	2551.18
435.03	2567.57
435.22	2537.14
435.41	2633.10
435.59	2576.93
435.78	2546.50
435.97	2609.70
436.16	2635.44
436.34	2700.98
436.53	2576.93
436.72	2679.91
436.90	2689.28
437.09	2621.40
437.28	2553.52
437.46	2679.91
437.65	2717.36
437.84	2754.81
438.02	2834.39
438.21	2839.07
438.40	2761.83
438.58	2850.77
438.77	2909.29
438.96	2960.78
439.14	2782.90
439.33	2925.67
439.52	2862.48
439.70	3012.27
439.89	3061.42
440.08	3047.38
440.26	3073.12
440.45	3005.25
440.63	2963.12
440.82	3112.91
441.01	3096.53
441.19	3089.51
441.38	3215.90
441.57	3190.15
441.75	3269.73
441.94	3152.70
442.12	3199.51
442.31	3314.20
442.50	3344.63
442.68	3171.43
442.87	3166.74
443.05	3344.63
443.24	3382.07
443.43	3330.58
443.61	3419.52
443.80	3440.59
443.98	3342.28
444.17	3302.50
444.35	3412.50
444.54	3541.23
444.73	3468.67
444.91	3405.48
445.10	3463.99
445.28	3482.72
445.47	3391.44
445.65	3466.33
445.84	3471.01
446.02	3461.65
446.21	3382.07
446.39	3454.63
446.58	3611.45
446.77	3545.91
446.95	3389.10
447.14	3625.49
447.32	3583.36
447.51	3592.72
447.69	3550.59
447.88	3660.60
448.06	3510.80
448.25	3489.74
448.43	3442.93
448.62	3513.14
448.80	3459.31
448.99	3529.53
449.17	3684.00
449.36	3473.36
449.54	3716.77
449.73	3632.51
449.91	3691.02
450.10	3662.94
450.28	3709.75
450.46	3770.60
450.65	3751.88
450.83	3786.99
451.02	3686.34
451.20	3639.53
451.39	3744.86
451.57	3733.15
451.76	3845.50
451.94	3815.07
452.13	3854.86
452.31	3775.28
452.49	3634.85
452.68	3864.22
452.86	3878.27
453.05	3852.52
453.23	3779.97
453.42	3969.55
453.60	3709.75
453.78	3864.22
453.97	3810.39
454.15	3992.95
454.34	3911.04
454.52	4011.68
454.70	4079.55
454.89	3929.76
455.07	4124.02
455.26	4140.41
455.44	4072.53
455.62	4114.66
455.81	4053.81
455.99	4021.04
456.17	4074.87
456.36	4112.32
456.54	4133.39
456.73	4156.79
456.91	4355.74
457.09	4198.92
457.28	4451.70
457.46	4205.94
457.64	4222.33
457.83	4348.72
458.01	4259.78
458.19	4409.57
458.38	4203.60
458.56	4482.13
458.74	4482.13
458.93	4360.42
459.11	4519.57
459.29	4404.89
459.48	4421.27
459.66	4468.08
459.84	4582.77
460.03	4720.86
460.21	4444.68
460.39	4568.73
460.57	4716.18
460.76	4521.92
460.94	4608.51
461.12	4489.15
461.31	4662.35
461.49	4533.62
461.67	4564.04
461.85	4650.64
462.04	4720.86
462.22	4959.60
462.40	4765.33
462.59	4657.67
462.77	4737.24
462.95	4823.84
463.13	4690.43
463.32	4882.36
463.50	4765.33
463.68	4884.70
463.86	4875.34
464.05	4851.93
464.23	4858.95
464.41	4987.68
464.59	4655.33
464.78	4800.44
464.96	4891.72
465.14	4880.02
465.32	4814.48
465.50	4938.53
465.69	5064.92
465.87	4924.49
466.05	4968.96
466.23	4957.25
466.41	5050.88
466.60	5231.10
466.78	4952.57
466.96	4999.38
467.14	4931.51
467.32	5025.13
467.51	5039.17
467.69	5020.45
467.87	5013.43
468.05	5036.83
468.23	4992.36
468.41	5146.84
468.60	5163.22
468.78	5245.14
468.96	5238.12
469.14	5221.74
469.32	5324.72
469.50	5153.86
469.69	5408.98
469.87	5390.25
470.05	5235.78
470.23	5455.79
470.41	5390.25
470.59	5483.88
470.77	5242.80
470.95	5535.37
471.14	5514.30
471.32	5458.13
471.50	5584.52
471.68	5486.22
471.86	5518.98
472.04	5666.44
472.22	5673.46
472.40	5764.74
472.58	5753.04
472.77	5645.37
472.95	5834.96
473.13	5900.49
473.31	5666.44
473.49	5879.43
473.67	5900.49
473.85	5856.02
474.03	5776.44
474.21	5980.07
474.39	6083.05
474.57	6150.93
474.75	6113.48
474.93	6139.23
475.12	6017.52
475.30	6050.28
475.48	6106.46
475.66	6267.95
475.84	6265.61
476.02	6272.64
476.20	6260.93
476.38	6300.72
476.56	6661.16
476.74	6450.52
476.92	6342.85
477.10	6494.99
477.28	6492.65
477.46	6487.96
477.64	6665.85
477.82	6850.75
478.00	6918.62
478.18	6853.09
478.36	7094.16
478.54	6932.67
478.72	7063.74
478.90	7183.10
479.08	7260.34
479.26	7304.81
479.44	7234.60
479.62	7255.66
479.80	7424.18
479.98	7370.35
480.16	7456.95
480.34	7492.05
480.52	7627.81
480.70	7576.31
480.88	7478.01
481.06	7639.51
481.24	7691.00
481.41	7733.13
481.59	7850.16
481.77	8006.97
481.95	7854.84
482.13	8091.23
482.31	7974.21
482.49	8278.47
482.67	8294.86
482.85	8241.03
483.03	8451.67
483.21	8468.06
483.39	8643.60
483.57	8395.50
483.74	8627.21
483.92	8671.68
484.10	8549.98
484.28	9078.94
484.46	9090.64
484.64	9160.86
484.82	8940.85
485.00	8905.74
485.18	9373.85
485.35	9352.78
485.53	9392.57
485.71	9476.83
485.89	9806.84
486.07	9338.74
486.25	9572.79
486.43	9472.15
486.61	9586.83
486.78	9696.84
486.96	9785.78
487.14	10223.46
487.32	10010.47
487.50	9954.30
487.68	10155.58
487.85	10319.42
488.03	10396.66
488.21	10478.58
488.39	10518.37
488.57	10602.63
488.75	10619.01
488.92	10881.15
489.10	10827.32
489.28	10939.66
489.46	11007.54
489.64	11150.31
489.81	11267.34
489.99	10937.32
490.17	11206.48
490.35	11552.88
490.53	11508.41
490.70	11431.18
490.88	11566.93
491.06	11693.32
491.24	11765.87
491.41	11880.56
491.59	12077.16
491.77	11892.26
491.95	12039.72
492.13	12109.93
492.30	12369.73
492.48	12140.36
492.66	12210.57
492.84	12351.01
493.01	12634.21
493.19	12329.94
493.37	12545.27
493.54	12821.45
493.72	12915.08
493.90	12753.58
494.08	12898.69
494.25	13048.49
494.43	12959.55
494.61	12912.74
494.79	13242.75
494.96	13231.05
495.14	13500.21
495.32	13652.34
495.49	13570.43
495.67	13448.72
495.85	13771.71
496.02	13973.00
496.20	13738.94
496.38	13867.67
496.55	13860.65
496.73	14420.04
496.91	14225.78
497.09	14207.05
497.26	14260.88
497.44	14164.92
497.62	14230.46
497.79	14317.06
497.97	14349.82
498.14	14600.26
498.32	14684.52
498.50	14492.60
498.67	14911.55
498.85	14710.27
499.03	14775.80
499.20	14766.44
499.38	14794.53
499.56	15066.03
499.73	15475.62
499.91	15101.14
500.08	15328.17
500.26	15122.20
500.44	15232.21
500.61	15531.80
500.79	15414.77
500.97	15857.13
501.14	15957.77
501.32	15817.34
501.49	15545.84
501.67	15611.37
501.84	16013.95
502.02	15887.56
502.20	15836.06
502.37	15894.58
502.55	15800.96
502.72	16339.28
502.90	16063.10
503.07	16056.08
503.25	16477.37
503.43	16009.26
503.60	16556.95
503.78	16863.56
503.95	16601.42
504.13	16758.24
504.30	16538.23
504.48	16489.07
504.65	16725.47
504.83	16800.37
505.01	17109.32
505.18	16730.15
505.36	16868.24
505.53	17137.40
505.71	17036.76
505.88	16940.80
506.06	16772.28
506.23	16938.46
506.41	17118.68
506.58	17177.19
506.76	17392.52
506.93	17125.70
507.11	17078.89
507.28	17453.37
507.46	17610.19
507.63	17547.00
507.81	17380.82
507.98	17769.35
508.16	17586.79
508.33	17895.74
508.50	17947.23
508.68	18064.25
508.85	18099.36
509.03	17940.21
509.20	18167.24
509.38	18345.12
509.55	18185.96
509.73	18457.46
509.90	18284.26
510.08	18202.35
510.25	18228.09
510.42	18237.45
510.60	18726.63
510.77	18565.13
510.95	18864.72
511.12	18499.59
511.30	18539.38
511.47	18878.76
511.64	18483.21
511.82	18913.87
511.99	18731.31
512.17	19133.88
512.34	18431.72
512.51	18963.02
512.69	19204.10
512.86	19131.54
513.04	19449.85
513.21	19522.41
513.38	19370.27
513.56	19508.37
513.73	19543.47
513.90	19232.18
514.08	19332.82
514.25	19592.62
514.43	19697.95
514.60	19812.63
514.77	19796.25
514.95	19833.70
515.12	19988.18
515.29	19861.79
515.47	19833.70
515.64	19810.29
515.81	19899.23
515.99	20142.65
516.16	20109.88
516.33	20617.78
516.51	20535.86
516.68	20180.10
516.85	20435.22
517.03	20376.70
517.20	20463.30
517.37	20388.41
517.54	20643.52
517.72	20835.45
517.89	20273.72
518.06	20460.96
518.24	20685.65
518.41	20547.56
518.58	20924.39
518.75	20451.60
518.93	20833.11
519.10	20650.55
519.27	20973.54
519.45	20783.96
519.62	20868.22
519.79	21102.27
519.96	20989.92
520.14	21027.37
520.31	21165.46
520.48	21015.67
520.65	21397.18
520.83	21259.09
521.00	21371.43
521.17	21263.77
521.34	21326.96
521.52	21434.63
521.69	21678.04
521.86	21671.02
522.03	21488.46
522.20	21631.23
522.38	21748.26
522.55	21607.83
522.72	21954.22
522.89	21818.47
523.07	22211.68
523.24	22115.72
523.41	22087.64
523.58	21869.97
523.75	21846.56
523.92	21741.24
524.10	22129.77
524.27	22169.55
524.44	22361.48
524.61	22558.08
524.78	22415.31
524.96	22525.32
525.13	22356.80
525.30	22417.65
525.47	22317.01
525.64	22544.04
525.81	22831.93
525.98	22539.36
526.16	22586.17
526.33	22583.83
526.50	23037.89
526.67	22752.35
526.84	22963.00
527.01	22632.98
527.18	22934.91
527.36	23309.40
527.53	23110.45
527.70	23271.95
527.87	22890.44
528.04	23110.45
528.21	23213.43
528.38	23042.57
528.55	23215.77
528.72	23262.58
528.89	23110.45
529.07	23164.28
529.24	23440.47
529.41	23578.56
529.58	23597.28
529.75	23487.28
529.92	23744.73
530.09	23704.95
530.26	23775.16
530.43	23789.20
530.60	23419.40
530.77	23889.85
530.94	23697.92
531.11	23576.22
531.28	23653.45
531.46	23894.53
531.63	23328.12
531.80	24027.94
531.97	24140.29
532.14	23894.53
532.31	23798.57
532.48	23964.75
532.65	23618.35
532.82	23955.38
532.99	23744.73
533.16	24070.07
533.33	24074.75
533.50	24449.24
533.67	24430.51
533.84	24362.64
534.01	24343.91
534.18	24290.08
534.35	24493.71
534.52	24467.96
534.69	24409.45
534.86	24814.36
535.03	24837.76
535.20	24299.44
535.37	24584.99
535.54	24535.84
535.71	24318.17
535.88	24465.62
536.05	24919.68
536.22	24975.86
536.38	24837.76
536.55	24877.55
536.72	24606.05
536.89	24315.83
537.06	24620.10
537.23	24968.84
537.40	24947.77
537.57	24945.43
537.74	25102.25
537.91	25289.49
538.08	25184.16
538.25	24989.90
538.42	25120.97
538.59	25572.69
538.75	25008.62
538.92	25310.55
539.09	25483.75
539.26	25486.09
539.43	25167.78
539.60	25404.17
539.77	25202.89
539.94	25373.75
540.11	25504.82
540.28	25596.10
540.44	25352.68
540.61	25488.43
540.78	25663.97
540.95	25605.46
541.12	25853.56
541.29	25853.56
541.46	25476.73
541.62	25846.54
541.79	25713.13
541.96	25731.85
542.13	25689.72
542.30	26155.49
542.47	25853.56
542.63	25912.07
542.80	25982.29
542.97	26256.13
543.14	26331.03
543.31	25989.31
543.48	26038.46
543.64	26429.33
543.81	26405.92
543.98	26389.54
544.15	26579.12
544.32	26572.10
544.48	26616.57
544.65	26813.18
544.82	26441.03
544.99	26214.00
545.16	26363.79
545.32	26532.31
545.49	26473.80
545.66	26714.87
545.83	27056.59
546.00	26628.27
546.16	26590.83
546.33	26408.26
546.50	26387.20
546.67	26955.95
546.83	26375.50
547.00	27058.93
547.17	26951.27
547.34	26789.77
547.50	26923.18
547.67	27311.71
547.84	27108.08
548.00	27232.13
548.17	27077.66
548.34	26925.52
548.51	27351.50
548.67	26946.59
548.84	27307.03
549.01	27278.94
549.18	26707.85
549.34	27435.76
549.51	26953.61
549.68	27197.02
549.84	27395.97
550.01	27356.18
550.18	26925.52
550.34	27314.05
550.51	27576.19
550.68	27548.11
550.84	27278.94
551.01	27538.74
551.18	27597.26
551.34	27548.11
551.51	27623.00
551.68	27564.49
551.84	27779.82
552.01	27489.59
552.18	27936.63
552.34	27424.06
552.51	27398.31
552.68	27410.01
552.84	27718.96
553.01	27578.53
553.18	27620.66
553.34	27527.04
553.51	28051.32
553.67	27854.72
553.84	27637.05
554.01	27812.59
554.17	27786.84
554.34	27456.82
554.51	27960.04
554.67	28063.02
554.84	28144.94
555.00	28175.37
555.17	27772.80
555.33	28191.75
555.50	27922.59
555.67	28151.96
555.83	28137.92
556.00	28287.71
556.16	28411.76
556.33	28402.40
556.50	28151.96
556.66	28222.18
556.83	28636.45
556.99	28222.18
557.16	28109.83
557.32	28863.49
557.49	28514.75
557.65	28135.58
557.82	28180.05
557.98	28444.53
558.15	28465.60
558.32	28692.63
558.48	28521.77
558.65	28474.96
558.81	28542.83
558.98	28109.83
559.14	28505.38
559.31	27878.12
559.47	28650.50
559.64	28561.56
559.80	28931.36
559.97	28727.74
560.13	28491.34
560.30	28620.07
560.46	28584.96
560.63	28577.94
560.79	28945.41
560.96	28582.62
561.12	28800.29
561.29	28613.05
561.45	28470.28
561.61	29050.73
561.78	29006.26
561.94	28741.78
562.11	29153.71
562.27	28978.17
562.44	28713.69
562.60	28671.56
562.77	28732.42
562.93	28561.56
563.10	28788.59
563.26	28933.70
563.42	29263.72
563.59	28842.42
563.75	28936.04
563.92	28816.68
564.08	29055.41
564.24	29008.60
564.41	28989.88
564.57	29003.92
564.74	28903.28
564.90	28922.00
565.07	29280.10
565.23	29413.51
565.39	29350.32
565.56	29338.62
565.72	29097.54
565.88	28926.68
566.05	29240.31
566.21	29160.73
566.38	29104.56
566.54	29315.21
566.70	29338.62
566.87	29198.18
567.03	29191.16
567.19	29703.74
567.36	29076.48
567.52	29022.64
567.68	29397.13
567.85	28900.94
568.01	29308.19
568.17	29106.90
568.34	29205.20
568.50	29387.77
568.66	29329.25
568.83	29577.35
568.99	29460.32
569.15	29326.91
569.32	29134.99
569.48	29165.42
569.64	29523.52
569.81	29591.39
569.97	29425.22
570.13	29266.06
570.30	29069.45
570.46	29289.46
570.62	29621.82
570.78	29355.00
570.95	29317.55
571.11	29003.92
571.27	29434.58
571.43	29380.74
571.60	29666.29
571.76	29184.14
571.92	29343.30
572.09	29656.93
572.25	29649.91
572.41	29572.67
572.57	29497.77
572.74	29942.47
572.90	29603.10
573.06	29406.49
573.22	29539.90
573.38	29832.47
573.55	29553.94
573.71	29811.40
573.87	29596.07
574.03	29453.30
574.20	29516.50
574.36	29125.63
574.52	29254.36
574.68	29551.60
574.84	29610.12
575.01	29860.55
575.17	29682.67
575.33	29638.20
575.49	29436.92
575.65	29766.93
575.82	29715.44
575.98	29689.70
576.14	29979.92
576.30	29811.40
576.46	29457.98
576.62	29254.36
576.79	29560.97
576.95	29773.95
577.11	29652.25
577.27	29525.86
577.43	29783.32
577.59	29429.90
577.75	29699.06
577.92	29448.62
578.08	29448.62
578.24	29338.62
578.40	29696.72
578.56	29394.79
578.72	29633.52
578.88	29736.51
579.04	29565.65
579.21	29551.60
579.37	29670.97
579.53	29633.52
579.69	29280.10
579.85	29689.70
580.01	29989.28
580.17	29479.05
580.33	29813.74
580.49	29799.70
580.65	29926.09
580.82	30017.37
580.98	29949.50
581.14	30005.67
581.30	29914.39
581.46	29890.98
581.62	29755.23
581.78	29654.59
581.94	29720.12
582.10	29188.82
582.26	29631.18
582.42	29560.97
582.58	29633.52
582.74	29818.42
582.90	29935.45
583.06	29706.08
583.22	29649.91
583.38	29621.82
583.54	29661.61
583.70	29563.31
583.86	30061.84
584.02	29006.26
584.18	30171.85
584.34	30312.28
584.50	30085.25
584.66	29928.43
584.82	29701.40
584.98	29439.26
585.14	30181.21
585.30	29387.77
585.46	29666.29
585.62	29631.18
585.78	29890.98
585.94	29823.11
586.10	30066.52
586.26	29970.56
586.42	30258.45
586.58	30089.93
586.74	30017.37
586.90	29624.16
587.06	29694.38
587.22	30176.53
587.38	29518.84
587.54	30209.29
587.70	30265.47
587.86	29930.77
588.02	30089.93
588.18	30534.63
588.34	29869.92
588.49	30424.62
588.65	30085.25
588.81	29865.24
588.97	29837.15
589.13	30136.74
589.29	30052.48
589.45	30309.94
589.61	30134.40
589.77	30354.41
589.93	30302.92
590.08	30197.59
590.24	30012.69
590.40	30089.93
590.56	30249.08
590.72	30384.83
590.88	30136.74
591.04	29944.81
591.20	30066.52
591.35	30216.32
591.51	30171.85
591.67	30403.56
591.83	30536.97
591.99	30167.16
