SpectraSuite Data File
++++++++++++++++++++++++++++++++++++
Date: Fri Oct 18 13:58:21 GMT-05:00 2013
User: bianchi
Dark Spectrum Present: No
Reference Spectrum Present: No
Number of Sampled Component Spectra: 1
Spectrometers: USB2+H05261
Integration Time (usec): 50000 (USB2+H05261)
Spectra Averaged: 1 (USB2+H05261)
Boxcar Smoothing: 0 (USB2+H05261)
Correct for Electrical Dark: No (USB2+H05261)
Strobe/Lamp Enabled: No (USB2+H05261)
Correct for Detector Non-linearity: No (USB2+H05261)
Correct for Stray Light: No (USB2+H05261)
Number of Pixels in Processed Spectrum: 2048
>>>>>Begin Processed Spectral Data<<<<<
365.73	0.00
365.92	0.00
366.12	0.00
366.32	0.00
366.52	0.00
366.72	0.00
366.91	0.00
367.11	0.00
367.31	0.00
367.51	0.00
367.70	0.00
367.90	0.00
368.10	0.00
368.30	0.00
368.49	0.00
368.69	0.00
368.89	0.00
369.09	0.00
369.28	0.00
369.48	0.00
369.68	0.00
369.87	0.00
370.07	0.00
370.27	0.00
370.47	0.00
370.66	112.35
370.86	72.56
371.06	138.09
371.25	107.66
371.45	114.69
371.65	124.05
371.84	126.39
372.04	262.14
372.24	126.39
372.44	189.58
372.63	198.95
372.83	201.29
373.03	166.18
373.22	212.99
373.42	205.97
373.62	198.95
373.81	110.01
374.01	163.84
374.21	203.63
374.40	212.99
374.60	248.10
374.79	264.48
374.99	227.03
375.19	280.86
375.38	266.82
375.58	280.86
375.78	215.33
375.97	290.23
376.17	287.89
376.37	294.91
376.56	241.08
376.76	313.63
376.95	266.82
377.15	229.37
377.35	194.26
377.54	259.80
377.74	243.42
377.93	248.10
378.13	245.76
378.33	318.31
378.52	264.48
378.72	238.73
378.91	318.31
379.11	217.67
379.31	290.23
379.50	189.58
379.70	290.23
379.89	273.84
380.09	306.61
380.28	332.36
380.48	250.44
380.68	327.68
380.87	285.55
381.07	271.50
381.26	306.61
381.46	351.08
381.65	311.29
381.85	297.25
382.04	362.78
382.24	294.91
382.43	341.72
382.63	362.78
382.83	278.52
383.02	355.76
383.22	402.57
383.41	294.91
383.61	383.85
383.80	374.49
384.00	322.99
384.19	299.59
384.39	367.46
384.58	266.82
384.78	320.65
384.97	372.15
385.17	397.89
385.36	327.68
385.56	367.46
385.75	442.36
385.95	383.85
386.14	428.32
386.34	383.85
386.53	379.17
386.72	390.87
386.92	402.57
387.11	395.55
387.31	414.27
387.50	332.36
387.70	400.23
387.89	430.66
388.09	351.08
388.28	510.24
388.48	433.00
388.67	423.64
388.86	475.13
389.06	482.15
389.25	444.70
389.45	433.00
389.64	379.17
389.84	451.72
390.03	547.69
390.22	456.40
390.42	559.39
390.61	519.60
390.81	533.64
391.00	458.74
391.19	489.17
391.39	486.83
391.58	414.27
391.78	463.43
391.97	528.96
392.16	491.51
392.36	503.22
392.55	477.47
392.75	479.81
392.94	505.56
393.13	631.94
393.33	564.07
393.52	528.96
393.71	505.56
393.91	566.41
394.10	510.24
394.29	557.05
394.49	561.73
394.68	582.79
394.88	589.82
395.07	559.39
395.26	547.69
395.46	657.69
395.65	594.50
395.84	580.45
396.04	601.52
396.23	594.50
396.42	589.82
396.62	620.24
396.81	599.18
397.00	650.67
397.19	641.31
397.39	655.35
397.58	702.16
397.77	613.22
397.97	643.65
398.16	669.39
398.35	751.31
398.55	643.65
398.74	655.35
398.93	678.76
399.12	741.95
399.32	636.63
399.51	772.38
399.70	695.14
399.90	669.39
400.09	746.63
400.28	739.61
400.47	751.31
400.67	793.44
400.86	713.86
401.05	870.68
401.24	786.42
401.44	788.76
401.63	809.83
401.82	805.14
402.01	784.08
402.21	856.64
402.40	807.48
402.59	788.76
402.78	823.87
402.97	905.79
403.17	816.85
403.36	816.85
403.55	894.08
403.74	819.19
403.93	849.61
404.13	833.23
404.32	856.64
404.51	858.98
404.70	903.45
404.89	952.60
405.09	924.51
405.28	868.34
405.47	966.64
405.66	978.34
405.85	915.15
406.05	978.34
406.24	1004.09
406.43	894.08
406.62	1067.28
406.81	1057.92
407.00	950.26
407.20	1008.77
407.39	1004.09
407.58	1034.52
407.77	952.60
407.96	994.73
408.15	994.73
408.34	1032.18
408.54	1095.37
408.73	1069.62
408.92	1104.73
409.11	1107.07
409.30	1217.08
409.49	1135.16
409.68	1034.52
409.87	1107.07
410.07	1074.31
410.26	1196.01
410.45	1191.33
410.64	1151.54
410.83	1123.46
411.02	1186.65
411.21	1317.72
411.40	1219.42
411.59	1252.19
411.78	1153.88
411.98	1268.57
412.17	1254.53
412.36	1392.62
412.55	1341.13
412.74	1373.89
412.93	1458.15
413.12	1378.58
413.31	1299.00
413.50	1376.24
413.69	1380.92
413.88	1392.62
414.07	1355.17
414.26	1439.43
414.45	1425.39
414.64	1406.66
414.83	1467.52
415.02	1469.86
415.22	1486.24
415.41	1528.37
415.60	1493.26
415.79	1526.03
415.98	1593.90
416.17	1605.61
416.36	1572.84
416.55	1605.61
416.74	1610.29
416.93	1631.35
417.12	1591.56
417.31	1694.55
417.50	1703.91
417.69	1701.57
417.88	1624.33
418.07	1820.94
418.26	1666.46
418.45	1776.47
418.64	1785.83
418.83	1629.01
419.02	1881.79
419.21	1760.08
419.39	1755.40
419.58	1739.02
419.77	1895.83
419.96	1760.08
420.15	1870.09
420.34	1902.86
420.53	1799.87
420.72	1856.04
420.91	1809.23
421.10	1944.99
421.29	1935.62
421.48	1795.19
421.67	1926.26
421.86	1923.92
422.05	1980.09
422.24	1919.24
422.43	1991.80
422.61	1849.02
422.80	1970.73
422.99	1937.96
423.18	2064.35
423.37	1984.77
423.56	1942.64
423.75	2024.56
423.94	1982.43
424.13	1834.98
424.32	1968.39
424.50	1991.80
424.69	2054.99
424.88	1977.75
425.07	2069.03
425.26	2097.12
425.45	2043.29
425.64	2036.27
425.83	1963.71
426.01	2064.35
426.20	1980.09
426.39	1973.07
426.58	2071.37
426.77	2033.93
426.96	2057.33
427.15	2118.18
427.33	2015.20
427.52	2052.65
427.71	2078.40
427.90	2157.97
428.09	2080.74
428.28	2143.93
428.46	2214.15
428.65	2183.72
428.84	2209.47
429.03	2181.38
429.22	2104.14
429.40	2139.25
429.59	2193.08
429.78	2115.84
429.97	2036.27
430.16	2176.70
430.34	2335.85
430.53	2499.69
430.72	2333.51
430.91	2293.72
431.10	2272.66
431.28	2410.75
431.47	2303.09
431.66	2298.41
431.85	2303.09
432.03	2293.72
432.22	2387.35
432.41	2396.71
432.60	2408.41
432.79	2258.62
432.97	2548.84
433.16	2495.01
433.35	2539.48
433.54	2361.60
433.72	2513.74
433.91	2455.22
434.10	2551.18
434.28	2562.89
434.47	2410.75
434.66	2431.82
434.85	2668.21
435.03	2530.12
435.22	2626.08
435.41	2686.94
435.59	2621.40
435.78	2595.65
435.97	2630.76
436.16	2619.06
436.34	2466.92
436.53	2633.10
436.72	2759.49
436.90	2558.21
437.09	2612.04
437.28	2574.59
437.46	2705.66
437.65	2747.79
437.84	2757.15
438.02	2782.90
438.21	2743.11
438.40	2747.79
438.58	2899.92
438.77	2949.08
438.96	3054.40
439.14	2876.52
439.33	2892.90
439.52	2843.75
439.70	2909.29
439.89	2991.20
440.08	2881.20
440.26	3091.85
440.45	3005.25
440.63	3035.67
440.82	3087.17
441.01	2967.80
441.19	3038.02
441.38	3068.44
441.57	3152.70
441.75	3222.92
441.94	3375.05
442.12	3150.36
442.31	3325.90
442.50	3192.49
442.68	3208.87
442.87	3260.37
443.05	3342.28
443.24	3323.56
443.43	3370.37
443.61	3248.66
443.80	3449.95
443.98	3255.69
444.17	3110.57
444.35	3419.52
444.54	3494.42
444.73	3426.54
444.91	3370.37
445.10	3426.54
445.28	3473.36
445.47	3232.28
445.65	3454.63
445.84	3391.44
446.02	3377.39
446.21	3339.94
446.39	3435.91
446.58	3480.38
446.77	3459.31
446.95	3428.88
447.14	3478.04
447.32	3405.48
447.51	3424.20
447.69	3543.57
447.88	3559.95
448.06	3442.93
448.25	3403.14
448.43	3466.33
448.62	3377.39
448.80	3361.01
448.99	3489.74
449.17	3531.87
449.36	3536.55
449.54	3585.70
449.73	3623.15
449.91	3618.47
450.10	3712.09
450.28	3707.41
450.46	3847.84
450.65	3585.70
450.83	3744.86
451.02	3728.47
451.20	3609.11
451.39	3740.18
451.57	3733.15
451.76	3756.56
451.94	3754.22
452.13	3822.09
452.31	3873.59
452.49	3698.05
452.68	3866.56
452.86	3786.99
453.05	3981.25
453.23	3955.51
453.42	3906.35
453.60	3878.27
453.78	3784.65
453.97	3782.31
454.15	3782.31
454.34	3866.56
454.52	3941.46
454.70	4037.42
454.89	3913.38
455.07	3978.91
455.26	3964.87
455.44	4107.64
455.62	3904.01
455.81	4100.62
455.99	4196.58
456.17	4166.15
456.36	4131.05
456.54	4138.07
456.73	4114.66
456.91	4325.31
457.09	4287.86
457.28	4339.35
457.46	4196.58
457.64	4379.14
457.83	4411.91
458.01	4278.50
458.19	4402.55
458.38	4252.75
458.56	4344.03
458.74	4447.02
458.93	4332.33
459.11	4402.55
459.29	4447.02
459.48	4379.14
459.66	4552.34
459.84	4510.21
460.03	4655.33
460.21	4505.53
460.39	4643.62
460.57	4479.79
460.76	4517.23
460.94	4517.23
461.12	4425.95
461.31	4648.30
461.49	4554.68
461.67	4489.15
461.85	4624.90
462.04	4699.80
462.22	4770.01
462.40	4620.22
462.59	4585.11
462.77	4681.07
462.95	4746.61
463.13	4734.90
463.32	4844.91
463.50	4784.06
463.68	4674.05
463.86	4865.97
464.05	4540.64
464.23	4683.41
464.41	4887.04
464.59	4793.42
464.78	4784.06
464.96	4926.83
465.14	4617.88
465.32	4905.76
465.50	4964.28
465.69	4854.27
465.87	4901.08
466.05	4929.17
466.23	4760.65
466.41	4908.10
466.60	5041.51
466.78	4994.70
466.96	4943.21
467.14	5064.92
467.32	5050.88
467.51	5085.98
467.69	4980.66
467.87	5015.77
468.05	5093.01
468.23	5006.41
468.41	5095.35
468.60	5153.86
468.78	5256.84
468.96	5090.67
469.14	5235.78
469.32	5191.31
469.50	5212.37
469.69	5191.31
469.87	5198.33
470.05	5392.59
470.23	5289.61
470.41	5378.55
470.59	5418.34
470.77	5308.34
470.95	5406.64
471.14	5359.83
471.32	5352.81
471.50	5413.66
471.68	5444.09
471.86	5607.92
472.04	5568.13
472.22	5769.42
472.40	5612.60
472.58	5692.18
472.77	5614.95
472.95	5668.78
473.13	5832.62
473.31	5783.46
473.49	5729.63
473.67	5729.63
473.85	5650.05
474.03	5757.72
474.21	5935.60
474.39	5968.37
474.57	6043.26
474.75	5937.94
474.93	6125.18
475.12	6050.28
475.30	6307.74
475.48	6265.61
475.66	6026.88
475.84	6164.97
476.02	6251.57
476.20	6193.06
476.38	6296.04
476.56	6445.84
476.74	6455.20
476.92	6352.21
477.10	6483.28
477.28	6614.35
477.46	6569.88
477.64	6656.48
477.82	6703.29
478.00	6778.19
478.18	6972.46
478.36	6871.81
478.54	7056.72
478.72	6911.60
478.90	7108.21
479.08	7162.04
479.26	7019.27
479.44	7112.89
479.62	7150.34
479.80	7276.73
479.98	7386.73
480.16	7456.95
480.34	7438.22
480.52	7527.16
480.70	7562.27
480.88	7508.44
481.06	7538.87
481.24	7463.97
481.41	7723.77
481.59	7798.66
481.77	7817.39
481.95	7962.50
482.13	7978.89
482.31	7894.63
482.49	8262.09
482.67	8077.19
482.85	8248.05
483.03	8468.06
483.21	8360.39
483.39	8540.61
483.57	8449.33
483.74	8493.80
483.92	8603.81
484.10	8690.41
484.28	8671.68
484.46	8919.78
484.64	9025.11
484.82	8905.74
485.00	9095.32
485.18	9025.11
485.35	9167.88
485.53	9502.58
485.71	9423.00
485.89	9495.55
486.07	9390.23
486.25	9549.39
486.43	9577.47
486.61	9701.52
486.78	9682.80
486.96	9923.87
487.14	9994.09
487.32	9926.21
487.50	9977.70
487.68	10225.80
487.85	10239.84
488.03	10134.52
488.21	10356.87
488.39	10436.45
488.57	10553.48
488.75	10759.44
488.92	10822.64
489.10	10775.83
489.28	10743.06
489.46	11000.52
489.64	10927.96
489.81	11101.16
489.99	11147.97
490.17	11330.53
490.35	11232.23
490.53	11637.14
490.70	11379.68
490.88	11552.88
491.06	11644.17
491.24	11520.12
491.41	11655.87
491.59	11573.95
491.77	11744.81
491.95	11981.20
492.13	12210.57
492.30	12112.27
492.48	11976.52
492.66	12079.50
492.84	12266.75
493.01	12510.16
493.19	12292.49
493.37	12549.95
493.54	12615.49
493.72	12706.77
493.90	12723.15
494.08	12741.88
494.25	12954.87
494.43	12945.50
494.61	13053.17
494.79	13053.17
494.96	13097.64
495.14	13177.22
495.32	13287.22
495.49	13329.35
495.67	13600.85
495.85	13465.10
496.02	13437.02
496.20	13633.62
496.38	13598.51
496.55	13685.11
496.73	13891.08
496.91	13879.38
497.09	14197.69
497.26	14015.13
497.44	14267.91
497.62	14267.91
497.79	14471.53
497.97	14363.87
498.14	14860.06
498.32	14700.90
498.50	14759.42
498.67	14497.28
498.85	14686.86
499.03	14949.00
499.20	15091.77
499.38	14780.48
499.56	15049.64
499.73	14803.89
499.91	14998.15
500.08	14967.73
500.26	14815.59
500.44	15379.66
500.61	15269.66
500.79	15185.40
500.97	15489.67
501.14	15452.22
501.32	15419.45
501.49	15452.22
501.67	15559.88
501.84	15864.15
502.02	15976.50
502.20	15831.38
502.37	16093.52
502.55	15927.35
502.72	15728.40
502.90	15875.85
503.07	16077.14
503.25	16306.51
503.43	16252.68
503.60	16173.10
503.78	16486.73
503.95	16393.11
504.13	16360.34
504.30	16360.34
504.48	16360.34
504.65	16603.76
504.83	16641.21
505.01	16793.34
505.18	16718.45
505.36	16636.53
505.53	16905.69
505.71	16882.28
505.88	16678.66
506.06	16805.05
506.23	16929.09
506.41	17331.67
506.58	17319.96
506.76	17123.36
506.93	17064.85
507.11	17011.01
507.28	17181.87
507.46	17275.49
507.63	17394.86
507.81	17710.83
507.98	17425.29
508.16	17554.02
508.33	17869.99
508.50	17638.28
508.68	17399.54
508.85	17516.57
509.03	17958.93
509.20	18183.62
509.38	18195.32
509.55	17977.65
509.73	18230.43
509.90	18317.03
510.08	18127.45
510.25	18335.76
510.42	18405.97
510.60	18403.63
510.77	18286.61
510.95	18611.94
511.12	18501.93
511.30	18387.25
511.47	18368.52
511.64	18913.87
511.82	18831.95
511.99	18698.54
512.17	18508.96
512.34	18621.30
512.51	18934.93
512.69	18925.57
512.86	19262.61
513.04	19098.77
513.21	19157.28
513.38	19152.60
513.56	19154.94
513.73	19257.93
513.90	19190.05
514.08	19098.77
514.25	19346.87
514.43	19426.45
514.60	19681.56
514.77	19632.41
514.95	19737.74
515.12	19524.75
515.29	19466.24
515.47	19545.81
515.64	19669.86
515.81	19662.84
515.99	19601.99
516.16	20107.54
516.33	19843.06
516.51	20074.77
516.68	20297.13
516.85	19995.20
517.03	20276.06
517.20	20091.16
517.37	20217.55
517.54	20276.06
517.72	20645.87
517.89	20257.34
518.06	20451.60
518.24	20657.57
518.41	20386.07
518.58	20528.84
518.75	20753.53
518.93	20411.81
519.10	20582.67
519.27	20762.89
519.45	20585.01
519.62	21027.37
519.79	20844.81
519.96	20924.39
520.14	20840.13
520.31	20746.51
520.48	20900.98
520.65	20826.09
520.83	21282.49
521.00	20922.05
521.17	21099.93
521.34	21090.57
521.52	21586.76
521.69	21160.78
521.86	21376.11
522.03	21081.21
522.20	21453.35
522.38	21640.59
522.55	21507.18
522.72	21411.22
522.89	21813.79
523.07	21788.05
523.24	21792.73
523.41	22036.14
523.58	21326.96
523.75	21652.30
523.92	22045.51
524.10	21727.19
524.27	22047.85
524.44	22244.45
524.61	22377.86
524.78	22064.23
524.96	22178.92
525.13	22331.05
525.30	22302.96
525.47	22312.33
525.64	22366.16
525.81	22476.16
525.98	22618.94
526.16	22045.51
526.33	22651.70
526.50	22422.33
526.67	22553.40
526.84	22595.53
527.01	22700.86
527.18	22457.44
527.36	22635.32
527.53	23152.58
527.70	23276.63
527.87	22820.22
528.04	22888.10
528.21	23190.03
528.38	22801.50
528.55	23040.23
528.72	22967.68
528.89	23103.43
529.07	22883.42
529.24	23108.11
529.41	23019.17
529.58	23288.33
529.75	23161.94
529.92	23063.64
530.09	23384.29
530.26	23552.81
530.43	23339.82
530.60	23506.00
530.77	23201.73
530.94	23304.71
531.11	23431.10
531.28	23115.13
531.46	23625.37
531.63	23754.10
531.80	23569.19
531.97	23723.67
532.14	23777.50
532.31	23934.32
532.48	23672.18
532.65	23737.71
532.82	23929.64
532.99	24034.96
533.16	23852.40
533.33	23859.42
533.50	24306.46
533.67	23873.46
533.84	23997.51
534.01	23871.12
534.18	24346.25
534.35	24210.50
534.52	24049.00
534.69	24479.66
534.86	24163.69
535.03	24463.28
535.20	24002.19
535.37	24435.19
535.54	24723.08
535.71	24360.30
535.88	24285.40
536.05	24491.37
536.22	24386.04
536.38	25001.60
536.55	24489.03
536.72	24627.12
536.89	24367.32
537.06	24336.89
537.23	24744.14
537.40	24718.40
537.57	24819.04
537.74	24985.22
537.91	25015.65
538.08	24620.10
538.25	24772.23
538.42	24896.28
538.59	25378.43
538.75	24624.78
538.92	24772.23
539.09	24884.58
539.26	24891.60
539.43	24968.84
539.60	25181.82
539.77	25083.52
539.94	25369.07
540.11	25275.45
540.28	25142.03
540.44	25263.74
540.61	25090.54
540.78	25350.34
540.95	25202.89
541.12	25280.13
541.29	25013.31
541.46	25446.30
541.62	25333.96
541.79	25205.23
541.96	24985.22
542.13	25610.14
542.30	25472.05
542.47	25493.12
542.63	25614.82
542.80	25776.32
542.97	25993.99
543.14	26036.12
543.31	25673.34
543.48	26157.83
543.64	26106.34
543.81	26155.49
543.98	26438.69
544.15	26218.68
544.32	26298.26
544.48	26417.63
544.65	26228.04
544.82	26246.77
544.99	26017.40
545.16	26363.79
545.32	25942.50
545.49	26691.47
545.66	26462.10
545.83	26618.91
546.00	26384.86
546.16	26265.49
546.33	26115.70
546.50	25886.32
546.67	26452.73
546.83	25855.90
547.00	26642.32
547.17	26338.05
547.34	26639.98
547.50	26574.44
547.67	26614.23
547.84	26941.91
548.00	26614.23
548.17	26700.83
548.34	26583.80
548.51	26822.54
548.67	26920.84
548.84	26855.31
549.01	27243.84
549.18	26565.08
549.34	26813.18
549.51	26801.47
549.68	26558.06
549.84	26850.63
550.01	27229.79
550.18	26867.01
550.34	27187.66
550.51	27248.52
550.68	27133.83
550.84	26766.37
551.01	27204.05
551.18	27068.30
551.34	27096.38
551.51	27236.81
551.68	27019.14
551.84	27206.39
552.01	27199.37
552.18	27454.48
552.34	26852.97
552.51	27353.84
552.68	27442.78
552.84	27068.30
553.01	27419.38
553.18	27449.80
553.34	27412.35
553.51	27817.27
553.67	27328.10
553.84	27681.52
554.01	27943.66
554.17	27606.62
554.34	28086.43
554.51	27597.26
554.67	27379.59
554.84	27763.43
555.00	27824.29
555.17	27522.36
555.33	27906.21
555.50	27896.85
555.67	27459.16
555.83	27744.71
556.00	27737.69
556.16	27828.97
556.33	27632.36
556.50	27791.52
556.66	27976.42
556.83	28109.83
556.99	28070.04
557.16	28107.49
557.32	28299.42
557.49	28404.74
557.65	27606.62
557.82	27976.42
557.98	27934.29
558.15	28114.52
558.32	28166.01
558.48	27997.49
558.65	28184.73
558.81	28290.06
558.98	28390.70
559.14	28301.76
559.31	28290.06
559.47	28264.31
559.64	28123.88
559.80	28084.09
559.97	28135.58
560.13	28329.84
560.30	28437.51
560.46	28107.49
560.63	28194.09
560.79	28198.77
560.96	28285.37
561.12	28056.00
561.29	28048.98
561.45	28306.44
561.61	28446.87
561.78	28238.56
561.94	27971.74
562.11	28716.03
562.27	28512.41
562.44	28451.55
562.60	28503.04
562.77	28587.30
562.93	28404.74
563.10	28636.45
563.26	28718.37
563.42	28903.28
563.59	28631.77
563.75	28381.34
563.92	28748.80
564.08	28341.55
564.24	28556.88
564.41	28538.15
564.57	28545.17
564.74	28477.30
564.90	29249.67
565.07	28299.42
565.23	28685.61
565.39	28788.59
565.56	29216.91
565.72	29013.28
565.88	28886.89
566.05	28734.76
566.21	28531.13
566.38	28622.41
566.54	28678.58
566.70	28964.13
566.87	29525.86
567.03	29090.52
567.19	29095.20
567.36	28662.20
567.52	28491.34
567.68	29362.02
567.85	28568.58
568.01	28701.99
568.17	28655.18
568.34	28879.87
568.50	29273.08
568.66	28992.22
568.83	29039.03
568.99	28879.87
569.15	28914.98
569.32	28811.99
569.48	28919.66
569.64	28634.11
569.81	28900.94
569.97	29212.23
570.13	29331.59
570.30	29010.94
570.46	28924.34
570.62	29167.76
570.78	28800.29
570.95	28664.54
571.11	29032.00
571.27	28484.32
571.43	28919.66
571.60	28748.80
571.76	29324.57
571.92	29174.78
572.09	29017.96
572.25	28884.55
572.41	29394.79
572.57	29017.96
572.74	29186.48
572.90	28975.83
573.06	28985.19
573.22	28992.22
573.38	29055.41
573.55	29034.35
573.71	29312.87
573.87	29287.12
574.03	29149.03
574.20	29214.57
574.36	28865.83
574.52	29310.53
574.68	29139.67
574.84	29301.17
575.01	29149.03
575.17	29450.96
575.33	29336.27
575.49	28774.55
575.65	29315.21
575.82	29268.40
575.98	29036.69
576.14	29668.63
576.30	29252.02
576.46	29146.69
576.62	29106.90
576.79	28929.02
576.95	29266.06
577.11	29305.85
577.27	29230.95
577.43	29771.61
577.59	29493.09
577.75	29514.16
577.92	29139.67
578.08	29495.43
578.24	28966.47
578.40	29317.55
578.56	29408.83
578.72	29090.52
578.88	29310.53
579.04	29549.26
579.21	29572.67
579.37	29083.50
579.53	29549.26
579.69	29191.16
579.85	29095.20
580.01	29406.49
580.17	29525.86
580.33	29106.90
580.49	29479.05
580.65	29511.81
580.82	29443.94
580.98	29436.92
581.14	29443.94
581.30	29514.16
581.46	29102.22
581.62	29277.76
581.78	29095.20
581.94	29268.40
582.10	29113.92
582.26	29539.90
582.42	29237.97
582.58	29479.05
582.74	29383.09
582.90	29317.55
583.06	29736.51
583.22	29085.84
583.38	29549.26
583.54	28992.22
583.70	29535.22
583.86	29170.10
584.02	29081.16
584.18	29399.47
584.34	29518.84
584.50	29947.15
584.66	29549.26
584.82	29380.74
584.98	29465.00
585.14	29163.08
585.30	29312.87
585.46	29362.02
585.62	29149.03
585.78	29104.56
585.94	29340.96
586.10	29600.76
586.26	29687.36
586.42	29453.30
586.58	29462.66
586.74	29446.28
586.90	29364.36
587.06	29230.95
587.22	29399.47
587.38	29481.39
587.54	29418.19
587.70	29579.69
587.86	29769.27
588.02	29788.00
588.18	29731.83
588.34	30045.46
588.49	29387.77
588.65	29366.70
588.81	29439.26
588.97	29823.11
589.13	29720.12
589.29	29757.57
589.45	29589.05
589.61	29542.24
589.77	30169.51
589.93	29773.95
590.08	29685.01
590.24	29986.94
590.40	29610.12
590.56	29806.72
590.72	29874.60
590.88	29347.98
591.04	29790.34
591.20	29970.56
591.35	29916.73
591.51	30197.59
591.67	29921.41
591.83	30024.39
591.99	30003.33
