SpectraSuite Data File
++++++++++++++++++++++++++++++++++++
Date: Fri Oct 18 13:57:59 GMT-05:00 2013
User: bianchi
Dark Spectrum Present: No
Reference Spectrum Present: No
Number of Sampled Component Spectra: 1
Spectrometers: USB2+H05261
Integration Time (usec): 50000 (USB2+H05261)
Spectra Averaged: 1 (USB2+H05261)
Boxcar Smoothing: 0 (USB2+H05261)
Correct for Electrical Dark: No (USB2+H05261)
Strobe/Lamp Enabled: No (USB2+H05261)
Correct for Detector Non-linearity: No (USB2+H05261)
Correct for Stray Light: No (USB2+H05261)
Number of Pixels in Processed Spectrum: 2048
>>>>>Begin Processed Spectral Data<<<<<
365.73	0.00
365.92	0.00
366.12	0.00
366.32	0.00
366.52	0.00
366.72	0.00
366.91	0.00
367.11	0.00
367.31	0.00
367.51	0.00
367.70	0.00
367.90	0.00
368.10	0.00
368.30	0.00
368.49	0.00
368.69	0.00
368.89	0.00
369.09	0.00
369.28	0.00
369.48	0.00
369.68	0.00
369.87	0.00
370.07	0.00
370.27	0.00
370.47	0.00
370.66	44.47
370.86	149.79
371.06	112.35
371.25	205.97
371.45	58.51
371.65	175.54
371.84	196.60
372.04	182.56
372.24	191.92
372.44	128.73
372.63	191.92
372.83	173.20
373.03	191.92
373.22	224.69
373.42	217.67
373.62	208.31
373.81	222.35
374.01	262.14
374.21	299.59
374.40	201.29
374.60	308.95
374.79	250.44
374.99	337.04
375.19	201.29
375.38	222.35
375.58	212.99
375.78	196.60
375.97	203.63
376.17	330.02
376.37	243.42
376.56	280.86
376.76	266.82
376.95	276.18
377.15	285.55
377.35	252.78
377.54	264.48
377.74	220.01
377.93	278.52
378.13	287.89
378.33	339.38
378.52	304.27
378.72	374.49
378.91	299.59
379.11	269.16
379.31	297.25
379.50	250.44
379.70	236.39
379.89	320.65
380.09	320.65
380.28	330.02
380.48	351.08
380.68	287.89
380.87	311.29
381.07	341.72
381.26	311.29
381.46	332.36
381.65	344.06
381.85	318.31
382.04	337.04
382.24	379.17
382.43	283.20
382.63	306.61
382.83	386.19
383.02	388.53
383.22	390.87
383.41	325.33
383.61	390.87
383.80	362.78
384.00	435.34
384.19	320.65
384.39	449.38
384.58	372.15
384.78	374.49
384.97	433.00
385.17	402.57
385.36	395.55
385.56	468.11
385.75	407.25
385.95	437.68
386.14	447.04
386.34	381.51
386.53	374.49
386.72	433.00
386.92	409.59
387.11	484.49
387.31	454.06
387.50	390.87
387.70	365.12
387.89	472.79
388.09	447.04
388.28	447.04
388.48	433.00
388.67	442.36
388.86	484.49
389.06	557.05
389.25	482.15
389.45	454.06
389.64	498.53
389.84	540.66
390.03	547.69
390.22	498.53
390.42	449.38
390.61	433.00
390.81	477.47
391.00	524.28
391.19	550.03
391.39	477.47
391.58	573.43
391.78	547.69
391.97	517.26
392.16	564.07
392.36	521.94
392.55	538.32
392.75	606.20
392.94	503.22
393.13	566.41
393.33	566.41
393.52	519.60
393.71	582.79
393.91	550.03
394.10	503.22
394.29	638.97
394.49	571.09
394.68	636.63
394.88	638.97
395.07	587.47
395.26	622.58
395.46	615.56
395.65	655.35
395.84	664.71
396.04	662.37
396.23	599.18
396.42	713.86
396.62	671.73
396.81	692.80
397.00	655.35
397.19	688.12
397.39	667.05
397.58	669.39
397.77	695.14
397.97	809.83
398.16	753.65
398.35	732.59
398.55	636.63
398.74	732.59
398.93	737.27
399.12	734.93
399.32	702.16
399.51	699.82
399.70	800.46
399.90	779.40
400.09	709.18
400.28	727.91
400.47	753.65
400.67	777.06
400.86	758.33
401.05	781.74
401.24	875.36
401.44	819.19
401.63	898.77
401.82	875.36
402.01	837.91
402.21	950.26
402.40	844.93
402.59	837.91
402.78	875.36
402.97	863.66
403.17	844.93
403.36	903.45
403.55	866.00
403.74	842.59
403.93	877.70
404.13	912.81
404.32	887.06
404.51	891.74
404.70	910.47
404.89	882.38
405.09	1011.11
405.28	992.39
405.47	957.28
405.66	971.32
405.85	997.07
406.05	1050.90
406.24	1004.09
406.43	1081.33
406.62	1078.99
406.81	1053.24
407.00	1008.77
407.20	1043.88
407.39	1090.69
407.58	1029.84
407.77	1137.50
407.96	1109.41
408.15	1041.54
408.34	1043.88
408.54	1069.62
408.73	1078.99
408.92	1196.01
409.11	1254.53
409.30	1214.74
409.49	1165.59
409.68	1203.04
409.87	1200.69
410.07	1261.55
410.26	1177.29
410.45	1158.57
410.64	1165.59
410.83	1289.64
411.02	1198.35
411.21	1336.45
411.40	1268.57
411.59	1284.95
411.78	1284.95
411.98	1322.40
412.17	1451.13
412.36	1327.08
412.55	1404.32
412.74	1364.53
412.93	1322.40
413.12	1324.74
413.31	1453.47
413.50	1380.92
413.69	1455.81
413.88	1453.47
414.07	1502.62
414.26	1439.43
414.45	1511.99
414.64	1504.96
414.83	1523.69
415.02	1547.09
415.22	1458.15
415.41	1568.16
415.60	1593.90
415.79	1633.69
415.98	1638.38
416.17	1549.43
416.36	1706.25
416.55	1582.20
416.74	1673.48
416.93	1558.80
417.12	1650.08
417.31	1675.82
417.50	1696.89
417.69	1802.21
417.88	1834.98
418.07	1750.72
418.26	1753.06
418.45	1816.26
418.64	1830.30
418.83	1806.89
419.02	1760.08
419.21	1856.04
419.39	1842.00
419.58	1818.60
419.77	1898.17
419.96	1717.95
420.15	1877.11
420.34	1898.17
420.53	1912.22
420.72	2080.74
420.91	1909.88
421.10	1973.07
421.29	1984.77
421.48	1881.79
421.67	2031.58
421.86	2031.58
422.05	2073.71
422.24	2036.27
422.43	1970.73
422.61	1916.90
422.80	2115.84
422.99	2069.03
423.18	2150.95
423.37	2076.06
423.56	2106.48
423.75	2052.65
423.94	1935.62
424.13	1865.41
424.32	2036.27
424.50	2090.10
424.69	2120.53
424.88	2043.29
425.07	2141.59
425.26	1916.90
425.45	2008.18
425.64	1982.43
425.83	2090.10
426.01	2169.68
426.20	2132.23
426.39	2139.25
426.58	2139.25
426.77	2064.35
426.96	2143.93
427.15	2127.55
427.33	2190.74
427.52	2148.61
427.71	2087.76
427.90	2211.81
428.09	2132.23
428.28	2319.47
428.46	2242.23
428.65	2260.96
428.84	2246.91
429.03	2270.32
429.22	2277.34
429.40	2293.72
429.59	2403.73
429.78	2284.36
429.97	2111.16
430.16	2265.64
430.34	2406.07
430.53	2352.24
430.72	2410.75
430.91	2328.83
431.10	2303.09
431.28	2429.48
431.47	2452.88
431.66	2457.56
431.85	2422.45
432.03	2431.82
432.22	2422.45
432.41	2495.01
432.60	2537.14
432.79	2359.26
432.97	2459.90
433.16	2513.74
433.35	2504.37
433.54	2595.65
433.72	2595.65
433.91	2569.91
434.10	2516.08
434.28	2586.29
434.47	2623.74
434.66	2504.37
434.85	2672.89
435.03	2551.18
435.22	2574.59
435.41	2808.64
435.59	2764.17
435.78	2600.34
435.97	2609.70
436.16	2787.58
436.34	2708.00
436.53	2698.64
436.72	2813.32
436.90	2733.75
437.09	2686.94
437.28	2803.96
437.46	2785.24
437.65	2778.22
437.84	2876.52
438.02	2752.47
438.21	2815.66
438.40	2881.20
438.58	2986.52
438.77	2984.18
438.96	2895.24
439.14	3014.61
439.33	2979.50
439.52	3033.33
439.70	3138.66
439.89	3019.29
440.08	3103.55
440.26	3059.08
440.45	3133.98
440.63	3094.19
440.82	3213.56
441.01	3143.34
441.19	3241.64
441.38	3288.45
441.57	3386.76
441.75	3295.47
441.94	3295.47
442.12	3215.90
442.31	3361.01
442.50	3318.88
442.68	3342.28
442.87	3384.41
443.05	3389.10
443.24	3473.36
443.43	3407.82
443.61	3377.39
443.80	3648.90
443.98	3342.28
444.17	3339.94
444.35	3492.08
444.54	3529.53
444.73	3405.48
444.91	3552.93
445.10	3440.59
445.28	3480.38
445.47	3529.53
445.65	3564.64
445.84	3550.59
446.02	3515.48
446.21	3562.30
446.39	3501.44
446.58	3630.17
446.77	3646.55
446.95	3471.01
447.14	3515.48
447.32	3480.38
447.51	3609.11
447.69	3510.80
447.88	3564.64
448.06	3588.04
448.25	3475.70
448.43	3482.72
448.62	3665.28
448.80	3501.44
448.99	3737.84
449.17	3728.47
449.36	3679.32
449.54	3805.71
449.73	3712.09
449.91	3779.97
450.10	3698.05
450.28	3751.88
450.46	3939.12
450.65	3843.16
450.83	3875.93
451.02	3847.84
451.20	3988.27
451.39	3847.84
451.57	3929.76
451.76	3754.22
451.94	3857.20
452.13	3988.27
452.31	3885.29
452.49	3934.44
452.68	3946.14
452.86	3941.46
453.05	4018.70
453.23	4065.51
453.42	3758.90
453.60	3997.64
453.78	4065.51
453.97	3932.10
454.15	4058.49
454.34	4093.60
454.52	4145.09
454.70	4042.11
454.89	4051.47
455.07	4105.30
455.26	4023.38
455.44	4121.68
455.62	4138.07
455.81	4201.26
455.99	4194.24
456.17	4196.58
456.36	4304.25
456.54	4248.07
456.73	4304.25
456.91	4351.06
457.09	4386.16
457.28	4589.79
457.46	4500.85
457.64	4440.00
457.83	4414.25
458.01	4376.80
458.19	4580.43
458.38	4519.57
458.56	4470.42
458.74	4430.63
458.93	4418.93
459.11	4552.34
459.29	4514.89
459.48	4423.61
459.66	4519.57
459.84	4531.28
460.03	4599.15
460.21	4496.17
460.39	4552.34
460.57	4592.13
460.76	4683.41
460.94	4662.35
461.12	4683.41
461.31	4751.29
461.49	4629.58
461.67	4615.54
461.85	4788.74
462.04	4779.37
462.22	5062.58
462.40	4865.97
462.59	4805.12
462.77	4767.67
462.95	4795.76
463.13	4889.38
463.32	4819.16
463.50	5001.72
463.68	4994.70
463.86	5025.13
464.05	5064.92
464.23	4889.38
464.41	5118.75
464.59	4833.21
464.78	5172.58
464.96	4933.85
465.14	5034.49
465.32	5151.52
465.50	5135.14
465.69	5242.80
465.87	5057.90
466.05	5008.75
466.23	5160.88
466.41	5137.48
466.60	5310.68
466.78	5144.50
466.96	5135.14
467.14	5020.45
467.32	5249.82
467.51	5167.90
467.69	5102.37
467.87	5210.03
468.05	5406.64
468.23	5224.08
468.41	5111.73
468.60	5221.74
468.78	5561.11
468.96	5362.17
469.14	5329.40
469.32	5467.49
469.50	5186.63
469.69	5540.05
469.87	5488.56
470.05	5575.16
470.23	5467.49
470.41	5490.90
470.59	5568.13
470.77	5530.69
470.95	5458.13
471.14	5671.12
471.32	5582.18
471.50	5755.38
471.68	5832.62
471.86	5813.89
472.04	5841.98
472.22	5846.66
472.40	5865.38
472.58	5774.10
472.77	5809.21
472.95	5865.38
473.13	6024.54
473.31	5806.87
473.49	5832.62
473.67	6139.23
473.85	6118.16
474.03	6106.46
474.21	5928.58
474.39	6328.81
474.57	6387.32
474.75	6207.10
474.93	6232.85
475.12	6146.25
475.30	6190.72
475.48	6368.60
475.66	6492.65
475.84	6406.05
476.02	6537.12
476.20	6511.37
476.38	6619.04
476.56	6621.38
476.74	6583.93
476.92	6604.99
477.10	6771.17
477.28	6841.39
477.46	6850.75
477.64	6953.73
477.82	6965.43
478.00	7276.73
478.18	7033.31
478.36	7201.83
478.54	7215.87
478.72	7229.91
478.90	7112.89
479.08	7400.77
479.26	7440.56
479.44	7515.46
479.62	7442.90
479.80	7667.60
479.98	7691.00
480.16	7695.68
480.34	7730.79
480.52	7932.08
480.70	7985.91
480.88	7953.14
481.06	7674.62
481.24	7873.56
481.41	8079.53
481.59	8224.64
481.77	8154.43
481.95	8170.81
482.13	8308.90
482.31	8262.09
482.49	8315.92
482.67	8278.47
482.85	8641.26
483.03	8589.77
483.21	8856.59
483.39	8929.14
483.57	8716.16
483.74	8793.39
483.92	8758.28
484.10	9036.81
484.28	9137.45
484.46	9252.14
484.64	9245.12
484.82	9076.60
485.00	9245.12
485.18	9525.98
485.35	9610.24
485.53	9320.01
485.71	9497.89
485.89	9731.95
486.07	9893.44
486.25	9867.70
486.43	10111.11
486.61	9982.38
486.78	10022.17
486.96	10235.16
487.14	10342.83
487.32	10298.36
487.50	10452.83
487.68	10326.44
487.85	10726.68
488.03	10609.65
488.21	10644.76
488.39	10731.36
488.57	10864.77
488.75	10970.09
488.92	10974.77
489.10	11066.05
489.28	11208.83
489.46	11171.38
489.64	11304.79
489.81	11822.05
489.99	11499.05
490.17	11571.61
490.35	11728.42
490.53	11845.45
490.70	12013.97
490.88	11747.15
491.06	11978.86
491.24	12135.68
491.41	11974.18
491.59	12252.70
491.77	12512.50
491.95	12393.14
492.13	12334.62
492.30	12442.29
492.48	12451.65
492.66	12615.49
492.84	12383.77
493.01	12840.18
493.19	12798.05
493.37	13081.25
493.54	13130.41
493.72	13081.25
493.90	13294.24
494.08	13319.99
494.25	13408.93
494.43	13352.76
494.61	13458.08
494.79	13776.39
494.96	13689.79
495.14	13806.82
495.32	13886.40
495.49	13792.78
495.67	13898.10
495.85	14267.91
496.02	14214.07
496.20	14043.21
496.38	14307.69
496.55	14274.93
496.73	14420.04
496.91	14366.21
497.09	14508.98
497.26	14965.39
497.44	14684.52
497.62	14717.29
497.79	14949.00
497.97	14839.00
498.14	15009.86
498.32	15456.90
498.50	15267.31
498.67	15185.40
498.85	15026.24
499.03	15459.24
499.20	15351.57
499.38	15461.58
499.56	15473.28
499.73	15695.63
499.91	15838.41
500.08	15646.48
500.26	15803.30
500.44	15592.65
500.61	15826.70
500.79	15962.45
500.97	16393.11
501.14	16215.23
501.32	16147.36
501.49	16290.13
501.67	16187.14
501.84	16271.40
502.02	16355.66
502.20	16683.34
502.37	16648.23
502.55	16390.77
502.72	16711.42
502.90	16599.08
503.07	16519.50
503.25	16643.55
503.43	16587.38
503.60	16971.22
503.78	16994.63
503.95	16917.39
504.13	17022.72
504.30	16685.68
504.48	16940.80
504.65	16959.52
504.83	17121.02
505.01	17394.86
505.18	17502.53
505.36	17479.12
505.53	17193.58
505.71	17448.69
505.88	17554.02
506.06	17336.35
506.23	17767.01
506.41	17600.83
506.58	17975.31
506.76	17902.76
506.93	17785.73
507.11	17750.62
507.28	17652.32
507.46	18040.85
507.63	17788.07
507.81	18424.70
507.98	18185.96
508.16	18333.42
508.33	18080.64
508.50	18363.84
508.68	18075.96
508.85	18712.58
509.03	18263.20
509.20	18747.69
509.38	19061.32
509.55	19023.87
509.73	18810.89
509.90	18857.70
510.08	18546.40
510.25	18998.13
510.42	18700.88
510.60	18925.57
510.77	19157.28
510.95	19211.12
511.12	19157.28
511.30	19248.57
511.47	19049.62
511.64	19386.66
511.82	19604.33
511.99	19353.89
512.17	19295.38
512.34	19360.91
512.51	19590.28
512.69	19693.27
512.86	19819.66
513.04	19908.60
513.21	19932.00
513.38	20051.37
513.56	20142.65
513.73	19857.10
513.90	20072.43
514.08	19756.46
514.25	20137.97
514.43	20161.37
514.60	20250.32
514.77	20121.59
514.95	20458.62
515.12	20137.97
515.29	20105.20
515.47	20460.96
515.64	20702.04
515.81	20910.35
515.99	20863.54
516.16	20744.17
516.33	20725.44
516.51	21057.80
516.68	20683.31
516.85	21039.08
517.03	21010.99
517.20	21088.23
517.37	20566.29
517.54	20945.45
517.72	21245.04
517.89	20950.14
518.06	21308.24
518.24	21156.10
518.41	21076.52
518.58	21071.84
518.75	21563.36
518.93	21472.07
519.10	21207.59
519.27	21116.31
519.45	21724.85
519.62	21729.53
519.79	21390.16
519.96	21284.83
520.14	21851.24
520.31	21898.05
520.48	21811.45
520.65	21848.90
520.83	21855.92
521.00	22162.53
521.17	21968.27
521.34	21991.67
521.52	22359.14
521.69	22118.06
521.86	22443.40
522.03	22487.87
522.20	22415.31
522.38	22260.84
522.55	22106.36
522.72	22434.03
522.89	22483.19
523.07	22764.05
523.24	22768.73
523.41	23002.78
523.58	22462.12
523.75	22647.02
523.92	22740.64
524.10	22558.08
524.27	22857.67
524.44	23468.55
524.61	23056.62
524.78	23421.74
524.96	23246.20
525.13	22562.76
525.30	22904.48
525.47	23218.11
525.64	23026.19
525.81	22934.91
525.98	23145.56
526.16	22991.08
526.33	22998.10
526.50	23646.43
526.67	23101.09
526.84	23381.95
527.01	23161.94
527.18	23550.47
527.36	23747.08
527.53	23571.54
527.70	23592.60
527.87	23917.93
528.04	23779.84
528.21	23899.21
528.38	23328.12
528.55	23927.30
528.72	23704.95
528.89	24002.19
529.07	23864.10
529.24	24056.03
529.41	24416.47
529.58	24056.03
529.75	23922.62
529.92	24091.13
530.09	24077.09
530.26	24222.20
530.43	23953.04
530.60	24072.41
530.77	24093.47
530.94	24313.48
531.11	24306.46
531.28	24128.58
531.46	24421.15
531.63	24711.38
531.80	24657.54
531.97	24673.93
532.14	24535.84
532.31	25209.91
532.48	24943.09
532.65	24596.69
532.82	24723.08
532.99	24589.67
533.16	24650.52
533.33	25043.73
533.50	25273.10
533.67	25071.82
533.84	24769.89
534.01	24973.52
534.18	24800.32
534.35	25394.81
534.52	25413.54
534.69	25212.25
534.86	25097.56
535.03	24903.30
535.20	25462.69
535.37	25610.14
535.54	25462.69
535.71	25329.28
535.88	25326.94
536.05	25284.81
536.22	25682.70
536.38	25418.22
536.55	25486.09
536.72	25385.45
536.89	25521.20
537.06	25469.71
537.23	25680.36
537.40	25579.71
537.57	25640.57
537.74	25640.57
537.91	26155.49
538.08	25788.02
538.25	25905.05
538.42	25944.84
538.59	26001.01
538.75	25788.02
538.92	26164.85
539.09	26209.32
539.26	26331.03
539.43	26448.05
539.60	26176.55
539.77	25942.50
539.94	26223.36
540.11	26286.56
540.28	26551.04
540.44	26132.08
540.61	26284.22
540.78	26150.81
540.95	26483.16
541.12	26333.37
541.29	26307.62
541.46	26380.18
541.62	26103.99
541.79	26448.05
541.96	26099.31
542.13	26654.02
542.30	26757.00
542.47	27175.96
542.63	26836.58
542.80	26852.97
542.97	26974.67
543.14	27058.93
543.31	26782.75
543.48	27262.56
543.64	27290.65
543.81	27377.25
543.98	27187.66
544.15	26934.88
544.32	27669.81
544.48	27232.13
544.65	26986.38
544.82	27262.56
544.99	27112.77
545.16	27421.72
545.32	27199.37
545.49	27487.25
545.66	27580.87
545.83	27831.31
546.00	27545.76
546.16	27101.06
546.33	27388.95
546.50	27089.36
546.67	27573.85
546.83	27028.51
547.00	27529.38
547.17	27229.79
547.34	27866.42
547.50	27569.17
547.67	27960.04
547.84	27840.67
548.00	27658.11
548.17	27859.40
548.34	27681.52
548.51	28264.31
548.67	27686.20
548.84	27974.08
549.01	28070.04
549.18	27843.01
549.34	27835.99
549.51	27981.10
549.68	27807.90
549.84	27435.76
550.01	28198.77
550.18	27899.19
550.34	28189.41
550.51	28439.85
550.68	28222.18
550.84	27969.40
551.01	28245.58
551.18	28079.41
551.34	27627.68
551.51	28645.82
551.68	28439.85
551.84	28432.83
552.01	28622.41
552.18	28091.11
552.34	28180.05
552.51	28577.94
552.68	28329.84
552.84	28418.78
553.01	28624.75
553.18	28638.80
553.34	28315.80
553.51	28816.68
553.67	28556.88
553.84	28648.16
554.01	28830.72
554.17	28849.44
554.34	28584.96
554.51	28676.24
554.67	28996.90
554.84	28711.35
555.00	28655.18
555.17	28723.05
555.33	28762.84
555.50	28629.43
555.67	29017.96
555.83	28896.25
556.00	29153.71
556.16	29001.58
556.33	28821.36
556.50	28823.70
556.66	29340.96
556.83	29242.65
556.99	29380.74
557.16	29200.52
557.32	29219.25
557.49	29198.18
557.65	28629.43
557.82	29167.76
557.98	29015.62
558.15	29355.00
558.32	29303.51
558.48	29289.46
558.65	29539.90
558.81	29310.53
558.98	29436.92
559.14	29376.06
559.31	29163.08
559.47	29191.16
559.64	29481.39
559.80	29759.91
559.97	29537.56
560.13	29067.11
560.30	29216.91
560.46	29647.57
560.63	29500.11
560.79	29773.95
560.96	29865.24
561.12	29413.51
561.29	29848.85
561.45	29635.86
561.61	29659.27
561.78	29626.50
561.94	30026.73
562.11	29612.46
562.27	29457.98
562.44	29656.93
562.60	29621.82
562.77	29326.91
562.93	29900.34
563.10	29504.79
563.26	30054.82
563.42	29865.24
563.59	29811.40
563.75	29888.64
563.92	29937.79
564.08	29523.52
564.24	29764.59
564.41	29937.79
564.57	29837.15
564.74	29731.83
564.90	29986.94
565.07	29876.94
565.23	30122.69
565.39	29907.37
565.56	30508.88
565.72	30012.69
565.88	30136.74
566.05	29928.43
566.21	30110.99
566.38	29661.61
566.54	29979.92
566.70	30232.70
566.87	30209.29
567.03	30286.53
567.19	30607.19
567.36	30396.54
567.52	29972.90
567.68	30338.02
567.85	30349.73
568.01	30075.88
568.17	29970.56
568.34	30312.28
568.50	30539.31
568.66	30242.06
568.83	30185.89
568.99	30019.71
569.15	30230.36
569.32	29467.34
569.48	29743.53
569.64	30480.80
569.81	30562.72
569.97	30497.18
570.13	30536.97
570.30	30162.48
570.46	30551.01
570.62	30232.70
570.78	30581.44
570.95	30148.44
571.11	30726.55
571.27	30108.65
571.43	30068.86
571.60	30551.01
571.76	30213.98
571.92	30185.89
572.09	30391.86
572.25	30412.92
572.41	30382.49
572.57	30000.99
572.74	30223.34
572.90	30139.08
573.06	30370.79
573.22	30433.99
573.38	29965.88
573.55	30232.70
573.71	30546.33
573.87	30803.79
574.03	30314.62
574.20	30345.05
574.36	30602.50
574.52	30099.29
574.68	30536.97
574.84	30527.61
575.01	30787.41
575.17	30604.84
575.33	30457.39
575.49	30469.09
575.65	30670.38
575.82	30799.11
575.98	30433.99
576.14	30506.54
576.30	30567.40
576.46	30644.63
576.62	30431.65
576.79	30307.60
576.95	30401.22
577.11	30623.57
577.27	30644.63
577.43	30677.40
577.59	30628.25
577.75	30429.30
577.92	30298.23
578.08	30429.30
578.24	30366.11
578.40	30508.88
578.56	30778.04
578.72	30459.73
578.88	30817.83
579.04	30796.77
579.21	30696.13
579.37	30588.46
579.53	30710.17
579.69	30279.51
579.85	30429.30
580.01	30480.80
580.17	30415.26
580.33	30497.18
580.49	30607.19
580.65	30836.56
580.82	31014.44
580.98	30759.32
581.14	30635.27
581.30	31012.10
581.46	30609.53
581.62	30518.25
581.78	30380.15
581.94	30658.68
582.10	30377.81
582.26	30735.92
582.42	30279.51
582.58	31037.84
582.74	30553.35
582.90	30646.97
583.06	30876.35
583.22	30817.83
583.38	30761.66
583.54	30892.73
583.70	30661.02
583.86	30333.34
584.02	30543.99
584.18	30572.08
584.34	30920.82
584.50	30965.29
584.66	30707.83
584.82	30209.29
584.98	30771.02
585.14	30668.04
585.30	30616.55
585.46	30551.01
585.62	30852.94
585.78	30810.81
585.94	30717.19
586.10	31007.42
586.26	30726.55
586.42	30883.37
586.58	31051.89
586.74	30883.37
586.90	30712.51
587.06	30799.11
587.22	30366.11
587.38	30810.81
587.54	31014.44
587.70	30953.58
587.86	31049.55
588.02	30628.25
588.18	31257.85
588.34	30993.37
588.49	30796.77
588.65	30745.28
588.81	30675.06
588.97	30913.80
589.13	30771.02
589.29	30689.10
589.45	31185.30
589.61	31225.09
589.77	31166.57
589.93	30892.73
590.08	31779.79
590.24	31386.58
590.40	31297.64
590.56	31126.78
590.72	31054.23
590.88	30623.57
591.04	30906.77
591.20	31484.89
591.35	31316.37
591.51	31714.26
591.67	31129.12
591.83	31304.67
