SpectraSuite Data File
++++++++++++++++++++++++++++++++++++
Date: Fri Oct 18 13:57:59 GMT-05:00 2013
User: bianchi
Dark Spectrum Present: No
Reference Spectrum Present: No
Number of Sampled Component Spectra: 1
Spectrometers: USB2+H05261
Integration Time (usec): 50000 (USB2+H05261)
Spectra Averaged: 1 (USB2+H05261)
Boxcar Smoothing: 0 (USB2+H05261)
Correct for Electrical Dark: No (USB2+H05261)
Strobe/Lamp Enabled: No (USB2+H05261)
Correct for Detector Non-linearity: No (USB2+H05261)
Correct for Stray Light: No (USB2+H05261)
Number of Pixels in Processed Spectrum: 2048
>>>>>Begin Processed Spectral Data<<<<<
365.73	0.00
365.92	0.00
366.12	0.00
366.32	0.00
366.52	0.00
366.72	0.00
366.91	0.00
367.11	0.00
367.31	0.00
367.51	0.00
367.70	0.00
367.90	0.00
368.10	0.00
368.30	0.00
368.49	0.00
368.69	0.00
368.89	0.00
369.09	0.00
369.28	0.00
369.48	0.00
369.68	0.00
369.87	0.00
370.07	0.00
370.27	0.00
370.47	0.00
370.66	81.92
370.86	72.56
371.06	191.92
371.25	142.77
371.45	72.56
371.65	147.45
371.84	131.07
372.04	198.95
372.24	177.88
372.44	135.75
372.63	231.71
372.83	229.37
373.03	198.95
373.22	262.14
373.42	243.42
373.62	304.27
373.81	182.56
374.01	212.99
374.21	215.33
374.40	245.76
374.60	269.16
374.79	248.10
374.99	266.82
375.19	255.12
375.38	231.71
375.58	341.72
375.78	322.99
375.97	227.03
376.17	252.78
376.37	337.04
376.56	276.18
376.76	203.63
376.95	201.29
377.15	255.12
377.35	290.23
377.54	220.01
377.74	273.84
377.93	294.91
378.13	306.61
378.33	292.57
378.52	243.42
378.72	320.65
378.91	311.29
379.11	318.31
379.31	348.74
379.50	292.57
379.70	311.29
379.89	285.55
380.09	262.14
380.28	227.03
380.48	290.23
380.68	318.31
380.87	257.46
381.07	294.91
381.26	346.40
381.46	285.55
381.65	322.99
381.85	341.72
382.04	465.77
382.24	358.10
382.43	421.30
382.63	440.02
382.83	301.93
383.02	308.95
383.22	416.62
383.41	381.51
383.61	423.64
383.80	409.59
384.00	425.98
384.19	318.31
384.39	437.68
384.58	383.85
384.78	388.53
384.97	283.20
385.17	374.49
385.36	379.17
385.56	367.46
385.75	451.72
385.95	400.23
386.14	468.11
386.34	421.30
386.53	372.15
386.72	372.15
386.92	437.68
387.11	404.91
387.31	470.45
387.50	388.53
387.70	379.17
387.89	367.46
388.09	379.17
388.28	444.70
388.48	444.70
388.67	435.34
388.86	454.06
389.06	418.96
389.25	493.85
389.45	505.56
389.64	543.00
389.84	477.47
390.03	437.68
390.22	484.49
390.42	372.15
390.61	440.02
390.81	486.83
391.00	449.38
391.19	552.37
391.39	550.03
391.58	482.15
391.78	517.26
391.97	535.98
392.16	496.19
392.36	550.03
392.55	503.22
392.75	535.98
392.94	557.05
393.13	585.13
393.33	472.79
393.52	582.79
393.71	655.35
393.91	510.24
394.10	538.32
394.29	573.43
394.49	566.41
394.68	617.90
394.88	587.47
395.07	683.44
395.26	608.54
395.46	585.13
395.65	645.99
395.84	638.97
396.04	603.86
396.23	571.09
396.42	540.66
396.62	608.54
396.81	638.97
397.00	690.46
397.19	606.20
397.39	713.86
397.58	732.59
397.77	723.23
397.97	669.39
398.16	716.20
398.35	732.59
398.55	709.18
398.74	713.86
398.93	826.21
399.12	765.36
399.32	645.99
399.51	683.44
399.70	732.59
399.90	683.44
400.09	767.70
400.28	716.20
400.47	711.52
400.67	767.70
400.86	805.14
401.05	805.14
401.24	931.53
401.44	840.25
401.63	788.76
401.82	849.61
402.01	767.70
402.21	812.17
402.40	894.08
402.59	802.80
402.78	849.61
402.97	812.17
403.17	950.26
403.36	870.68
403.55	940.90
403.74	938.55
403.93	957.28
404.13	940.90
404.32	901.11
404.51	826.21
404.70	940.90
404.89	994.73
405.09	980.68
405.28	961.96
405.47	947.92
405.66	1043.88
405.85	940.90
406.05	1008.77
406.24	1032.18
406.43	950.26
406.62	1027.50
406.81	954.94
407.00	999.41
407.20	1039.20
407.39	1025.15
407.58	1111.75
407.77	1170.27
407.96	1067.28
408.15	1235.80
408.34	1069.62
408.54	1090.69
408.73	1062.60
408.92	1067.28
409.11	1158.57
409.30	1163.25
409.49	1095.37
409.68	1156.22
409.87	1153.88
410.07	1219.42
410.26	1235.80
410.45	1170.27
410.64	1193.67
410.83	1268.57
411.02	1287.29
411.21	1233.46
411.40	1207.72
411.59	1259.21
411.78	1226.44
411.98	1240.48
412.17	1282.61
412.36	1289.64
412.55	1444.11
412.74	1404.32
412.93	1240.48
413.12	1397.30
413.31	1385.60
413.50	1362.19
413.69	1416.02
413.88	1610.29
414.07	1495.60
414.26	1483.90
414.45	1490.92
414.64	1465.18
414.83	1462.83
415.02	1629.01
415.22	1570.50
415.41	1589.22
415.60	1547.09
415.79	1631.35
415.98	1657.10
416.17	1549.43
416.36	1722.63
416.55	1715.61
416.74	1657.10
416.93	1673.48
417.12	1757.74
417.31	1729.66
417.50	1813.92
417.69	1708.59
417.88	1781.15
418.07	1732.00
418.26	1776.47
418.45	1778.81
418.64	1802.21
418.83	1802.21
419.02	1839.66
419.21	1909.88
419.39	1774.13
419.58	1809.23
419.77	1886.47
419.96	1774.13
420.15	1834.98
420.34	1935.62
420.53	1942.64
420.72	2022.22
420.91	1973.07
421.10	1954.35
421.29	2062.01
421.48	1961.37
421.67	1944.99
421.86	1991.80
422.05	2076.06
422.24	2005.84
422.43	1973.07
422.61	1984.77
422.80	2040.95
422.99	2136.91
423.18	2073.71
423.37	2120.53
423.56	2097.12
423.75	2005.84
423.94	1975.41
424.13	1919.24
424.32	1975.41
424.50	2101.80
424.69	2181.38
424.88	2209.47
425.07	2104.14
425.26	2169.68
425.45	2008.18
425.64	2047.97
425.83	2064.35
426.01	2174.36
426.20	2064.35
426.39	2106.48
426.58	2108.82
426.77	2132.23
426.96	2019.88
427.15	2050.31
427.33	2242.23
427.52	2190.74
427.71	2183.72
427.90	2200.10
428.09	2188.40
428.28	2160.31
428.46	2267.98
428.65	2200.10
428.84	2354.58
429.03	2359.26
429.22	2209.47
429.40	2242.23
429.59	2298.41
429.78	2127.55
429.97	2160.31
430.16	2193.08
430.34	2340.54
430.53	2396.71
430.72	2363.94
430.91	2387.35
431.10	2284.36
431.28	2193.08
431.47	2457.56
431.66	2445.86
431.85	2361.60
432.03	2509.05
432.22	2492.67
432.41	2602.68
432.60	2473.95
432.79	2513.74
432.97	2396.71
433.16	2616.72
433.35	2562.89
433.54	2565.23
433.72	2520.76
433.91	2644.81
434.10	2548.84
434.28	2637.78
434.47	2677.57
434.66	2555.86
434.85	2609.70
435.03	2682.25
435.22	2658.85
435.41	2642.46
435.59	2525.44
435.78	2736.09
435.97	2733.75
436.16	2759.49
436.34	2705.66
436.53	2794.60
436.72	2773.53
436.90	2747.79
437.09	2782.90
437.28	2628.42
437.46	2698.64
437.65	2911.63
437.84	2857.79
438.02	2834.39
438.21	2815.66
438.40	2799.28
438.58	2930.35
438.77	2834.39
438.96	2867.16
439.14	2967.80
439.33	2949.08
439.52	3145.68
439.70	3056.74
439.89	3049.72
440.08	3087.17
440.26	3084.83
440.45	3061.42
440.63	3117.59
440.82	3173.77
441.01	3211.22
441.19	3176.11
441.38	3241.64
441.57	3255.69
441.75	3318.88
441.94	3363.35
442.12	3426.54
442.31	3438.25
442.50	3351.65
442.68	3417.18
442.87	3435.91
443.05	3438.25
443.24	3471.01
443.43	3452.29
443.61	3499.10
443.80	3419.52
443.98	3412.50
444.17	3339.94
444.35	3548.25
444.54	3564.64
444.73	3447.61
444.91	3463.99
445.10	3548.25
445.28	3552.93
445.47	3421.86
445.65	3438.25
445.84	3471.01
446.02	3501.44
446.21	3578.68
446.39	3520.17
446.58	3538.89
446.77	3581.02
446.95	3613.79
447.14	3384.41
447.32	3545.91
447.51	3606.77
447.69	3630.17
447.88	3534.21
448.06	3515.48
448.25	3499.10
448.43	3669.96
448.62	3641.87
448.80	3613.79
448.99	3667.62
449.17	3658.26
449.36	3618.47
449.54	3866.56
449.73	3709.75
449.91	3676.98
450.10	3838.48
450.28	3794.01
450.46	3840.82
450.65	3812.73
450.83	3899.33
451.02	3929.76
451.20	3836.14
451.39	3829.12
451.57	3906.35
451.76	3861.88
451.94	3847.84
452.13	4021.04
452.31	4007.00
452.49	4025.72
452.68	3946.14
452.86	3812.73
453.05	3894.65
453.23	3950.82
453.42	3873.59
453.60	3946.14
453.78	4109.98
453.97	3840.82
454.15	4002.32
454.34	4124.02
454.52	4091.26
454.70	4021.04
454.89	4081.89
455.07	4011.68
455.26	4252.75
455.44	4271.48
455.62	4138.07
455.81	4320.63
455.99	4142.75
456.17	4283.18
456.36	4311.27
456.54	4266.80
456.73	4322.97
456.91	4311.27
457.09	4510.21
457.28	4360.42
457.46	4252.75
457.64	4461.06
457.83	4554.68
458.01	4287.86
458.19	4425.95
458.38	4559.36
458.56	4479.79
458.74	4395.53
458.93	4372.12
459.11	4681.07
459.29	4512.55
459.48	4540.64
459.66	4730.22
459.84	4578.09
460.03	4617.88
460.21	4662.35
460.39	4725.54
460.57	4519.57
460.76	4622.56
460.94	4702.14
461.12	4669.37
461.31	4821.50
461.49	4760.65
461.67	4816.82
461.85	4753.63
462.04	4800.44
462.22	5125.77
462.40	4844.91
462.59	4917.47
462.77	4861.29
462.95	5046.20
463.13	5015.77
463.32	4983.00
463.50	4868.31
463.68	4891.72
463.86	5095.35
464.05	4905.76
464.23	5029.81
464.41	4898.74
464.59	4917.47
464.78	4931.51
464.96	5104.71
465.14	5046.20
465.32	5057.90
465.50	5193.65
465.69	5170.24
465.87	4924.49
466.05	5067.26
466.23	5104.71
466.41	5184.29
466.60	5331.74
466.78	5317.70
466.96	5235.78
467.14	5074.28
467.32	5217.05
467.51	5331.74
467.69	5170.24
467.87	5303.65
468.05	5256.84
468.23	5256.84
468.41	5270.89
468.60	5275.57
468.78	5336.42
468.96	5259.18
469.14	5357.49
469.32	5413.66
469.50	5231.10
469.69	5486.22
469.87	5551.75
470.05	5444.09
470.23	5652.39
470.41	5558.77
470.59	5558.77
470.77	5549.41
470.95	5551.75
471.14	5820.91
471.32	5446.43
471.50	5507.28
471.68	5818.57
471.86	5846.66
472.04	5593.88
472.22	5996.45
472.40	5731.97
472.58	5757.72
472.77	5944.96
472.95	5788.14
473.13	6132.20
473.31	6001.13
473.49	5937.94
473.67	6008.16
473.85	5912.19
474.03	6106.46
474.21	6174.33
474.39	6083.05
474.57	6197.74
474.75	6366.26
474.93	6176.67
475.12	6328.81
475.30	6394.34
475.48	6228.17
475.66	6403.71
475.84	6314.77
476.02	6532.44
476.20	6462.22
476.38	6485.62
476.56	6787.55
476.74	6682.23
476.92	6656.48
477.10	6715.00
477.28	6787.55
477.46	6853.09
477.64	6970.12
477.82	6977.14
478.00	7105.87
478.18	7159.70
478.36	7197.15
478.54	7002.88
478.72	7220.55
478.90	7180.76
479.08	7250.98
479.26	7382.05
479.44	7503.76
479.62	7606.74
479.80	7461.63
479.98	7529.50
480.16	7754.19
480.34	7651.21
480.52	7805.69
480.70	7728.45
480.88	7786.96
481.06	7719.09
481.24	8002.29
481.41	7971.86
481.59	8093.57
481.77	8168.47
481.95	8320.60
482.13	8271.45
482.31	8198.90
482.49	8367.42
482.67	8372.10
482.85	8498.49
483.03	8753.60
483.21	8769.99
483.39	8704.45
483.57	8884.67
483.74	8805.10
483.92	8758.28
484.10	8784.03
484.28	8940.85
484.46	9245.12
484.64	9275.54
484.82	9193.62
485.00	9455.76
485.18	9488.53
485.35	9640.67
485.53	9364.48
485.71	9614.92
485.89	9954.30
486.07	9771.74
486.25	9659.39
486.43	9832.59
486.61	9926.21
486.78	10176.65
486.96	10118.14
487.14	10200.05
487.32	10310.06
487.50	10487.94
487.68	10497.30
487.85	10471.56
488.03	10670.50
488.21	10764.12
488.39	10794.55
488.57	10743.06
488.75	10909.24
488.92	11192.44
489.10	11220.53
489.28	11300.11
489.46	11344.58
489.64	11225.21
489.81	11391.39
489.99	11520.12
490.17	11550.54
490.35	11756.51
490.53	11742.47
490.70	11819.71
490.88	11889.92
491.06	11971.84
491.24	12023.33
491.41	12074.82
491.59	12336.96
491.77	12332.28
491.95	12573.36
492.13	12388.46
492.30	12526.55
492.48	12699.75
492.66	12772.30
492.84	12800.39
493.01	12919.76
493.19	12840.18
493.37	12915.08
493.54	13088.28
493.72	13135.09
493.90	13294.24
494.08	13312.97
494.25	13247.43
494.43	13446.38
494.61	13603.19
494.79	13689.79
494.96	13544.68
495.14	13563.40
495.32	13984.70
495.49	14017.47
495.67	13987.04
495.85	13991.72
496.02	14181.31
496.20	14349.82
496.38	14129.81
496.55	14101.73
496.73	14668.14
496.91	14466.85
497.09	14553.45
497.26	14541.75
497.44	14565.15
497.62	14551.11
497.79	14984.11
497.97	15054.33
498.14	15178.37
498.32	15201.78
498.50	14998.15
498.67	15297.74
498.85	15351.57
499.03	15321.15
499.20	15494.35
499.38	15470.94
499.56	15367.96
499.73	15744.78
499.91	15700.31
500.08	16070.12
500.26	15826.70
500.44	15910.96
500.61	15906.28
500.79	15866.49
500.97	15815.00
501.14	16224.59
501.32	16299.49
501.49	16023.31
501.67	16301.83
501.84	16180.12
502.02	16578.01
502.20	16372.05
502.37	16662.27
502.55	16479.71
502.72	16545.25
502.90	16709.08
503.07	16610.78
503.25	16910.37
503.43	16741.85
503.60	17032.08
503.78	16992.29
503.95	17071.87
504.13	16826.11
504.30	17123.36
504.48	16982.93
504.65	17273.15
504.83	17476.78
505.01	17151.45
505.18	17057.82
505.36	17781.05
505.53	17268.47
505.71	17605.51
505.88	17804.46
506.06	17446.35
506.23	17572.74
506.41	17781.05
506.58	17820.84
506.76	17869.99
506.93	17638.28
507.11	17827.86
507.28	17977.65
507.46	18026.81
507.63	18047.87
507.81	18485.55
507.98	17956.59
508.16	18003.40
508.33	18181.28
508.50	18183.62
508.68	18532.36
508.85	18581.51
509.03	18581.51
509.20	18604.92
509.38	18565.13
509.55	18860.04
509.73	18932.59
509.90	18721.95
510.08	18824.93
510.25	18930.25
510.42	18792.16
510.60	19089.41
510.77	19278.99
510.95	19122.18
511.12	19147.92
511.30	19166.65
511.47	19372.61
511.64	19232.18
511.82	19339.85
511.99	19569.22
512.17	19475.60
512.34	19438.15
512.51	19983.49
512.69	19822.00
512.86	19669.86
513.04	20023.28
513.21	19971.79
513.38	19906.26
513.56	20056.05
513.73	19599.65
513.90	19852.42
514.08	20009.24
514.25	20308.83
514.43	19971.79
514.60	20137.97
514.77	20348.62
514.95	20224.57
515.12	19854.76
515.29	20086.48
515.47	20224.57
515.64	20678.63
515.81	20704.38
515.99	20512.46
516.16	20891.62
516.33	20386.07
516.51	20622.46
516.68	20393.09
516.85	20697.36
517.03	20879.92
517.20	21191.21
517.37	21074.18
517.54	21048.44
517.72	20875.24
517.89	21034.39
518.06	21174.83
518.24	21139.72
518.41	21081.21
518.58	21418.24
518.75	21252.06
518.93	21256.75
519.10	21488.46
519.27	21472.07
519.45	21453.35
519.62	21488.46
519.79	21715.49
519.96	21539.95
520.14	21619.53
520.31	21862.94
520.48	22127.42
520.65	21809.11
520.83	21975.29
521.00	21738.90
521.17	21593.78
521.34	21984.65
521.52	21879.33
521.69	22155.51
521.86	22185.94
522.03	22199.98
522.20	22340.41
522.38	22359.14
522.55	22328.71
522.72	22324.03
522.89	22464.46
523.07	22696.17
523.24	22693.83
523.41	22827.24
523.58	22703.20
523.75	22679.79
523.92	22504.25
524.10	22714.90
524.27	22562.76
524.44	22967.68
524.61	23023.85
524.78	22721.92
524.96	22630.64
525.13	23026.19
525.30	22871.72
525.47	23211.09
525.64	23271.95
525.81	23276.63
525.98	23407.70
526.16	23197.05
526.33	23435.78
526.50	23246.20
526.67	23098.75
526.84	23468.55
527.01	23307.05
527.18	23679.20
527.36	23665.16
527.53	23571.54
527.70	23770.48
527.87	24039.64
528.04	23754.10
528.21	23917.93
528.38	23557.49
528.55	23784.52
528.72	23772.82
528.89	24107.52
529.07	23920.28
529.24	23894.53
529.41	24315.83
529.58	23983.47
529.75	24187.10
529.92	23803.25
530.09	24063.05
530.26	24208.16
530.43	24208.16
530.60	24116.88
530.77	24215.18
530.94	24203.48
531.11	24203.48
531.28	24411.79
531.46	24294.76
531.63	24517.11
531.80	24720.74
531.97	24631.80
532.14	24547.54
532.31	24828.40
532.48	25022.67
532.65	24739.46
532.82	24760.53
532.99	24594.35
533.16	24685.63
533.33	24989.90
533.50	25191.19
533.67	25034.37
533.84	24753.51
534.01	24980.54
534.18	24470.30
534.35	25139.69
534.52	25088.20
534.69	25113.95
534.86	25315.23
535.03	24905.64
535.20	25259.06
535.37	25186.50
535.54	25546.95
535.71	24896.28
535.88	25242.68
536.05	25355.02
536.22	25404.17
536.38	25788.02
536.55	25245.02
536.72	25703.76
536.89	25502.48
537.06	25572.69
537.23	25647.59
537.40	25881.64
537.57	25387.79
537.74	26075.91
537.91	25790.36
538.08	25666.31
538.25	25483.75
538.42	26122.72
538.59	25963.56
538.75	26073.57
538.92	25881.64
539.09	26089.95
539.26	26457.42
539.43	26195.28
539.60	26075.91
539.77	25809.09
539.94	26260.81
540.11	25991.65
540.28	26036.12
540.44	26143.78
540.61	26136.76
540.78	26270.17
540.95	26410.60
541.12	26209.32
541.29	26448.05
541.46	26160.17
541.62	26295.92
541.79	26532.31
541.96	26080.59
542.13	26593.17
542.30	26607.21
542.47	26742.96
542.63	26939.57
542.80	26742.96
542.97	27199.37
543.14	27103.40
543.31	27150.21
543.48	26302.94
543.64	26918.50
543.81	27094.04
543.98	27080.00
544.15	27267.24
544.32	27129.15
544.48	27498.95
544.65	27377.25
544.82	27042.55
544.99	26946.59
545.16	27290.65
545.32	26881.05
545.49	27721.30
545.66	27604.28
545.83	27789.18
546.00	27709.60
546.16	27194.68
546.33	27517.68
546.50	27124.47
546.67	27660.45
546.83	27634.71
547.00	27854.72
547.17	27494.27
547.34	27950.68
547.50	27529.38
547.67	27924.93
547.84	27864.08
548.00	28067.70
548.17	27917.91
548.34	28060.68
548.51	27859.40
548.67	28051.32
548.84	27857.06
549.01	28116.86
549.18	27688.54
549.34	27742.37
549.51	27833.65
549.68	27967.06
549.84	28320.48
550.01	28070.04
550.18	27665.13
550.34	28020.89
550.51	28233.88
550.68	28283.03
550.84	27887.48
551.01	28210.48
551.18	28217.50
551.34	27871.10
551.51	27981.10
551.68	28540.49
551.84	28353.25
552.01	28636.45
552.18	28809.65
552.34	28580.28
552.51	28453.89
552.68	28268.99
552.84	28524.11
553.01	28299.42
553.18	28411.76
553.34	28575.60
553.51	28580.28
553.67	28465.60
553.84	28844.76
554.01	28776.89
554.17	28772.21
554.34	28596.67
554.51	28442.19
554.67	28790.93
554.84	28943.06
555.00	29097.54
555.17	28666.88
555.33	29085.84
555.50	28732.42
555.67	28847.10
555.83	29104.56
556.00	28690.29
556.16	29230.95
556.33	28954.77
556.50	28680.92
556.66	29404.15
556.83	28964.13
556.99	29738.85
557.16	29170.10
557.32	29399.47
557.49	29298.83
557.65	29003.92
557.82	29015.62
557.98	29062.43
558.15	29134.99
558.32	29572.67
558.48	28917.32
558.65	29621.82
558.81	29422.87
558.98	29329.25
559.14	29055.41
559.31	29434.58
559.47	29366.70
559.64	29575.01
559.80	29685.01
559.97	29736.51
560.13	29401.81
560.30	29275.42
560.46	29212.23
560.63	29848.85
560.79	29692.04
560.96	29675.65
561.12	29532.88
561.29	29572.67
561.45	29769.27
561.61	29408.83
561.78	29907.37
561.94	29275.42
562.11	29397.13
562.27	29322.23
562.44	29773.95
562.60	29579.69
562.77	29532.88
562.93	29591.39
563.10	30099.29
563.26	29675.65
563.42	30047.80
563.59	30153.12
563.75	29855.87
563.92	29738.85
564.08	29771.61
564.24	29954.18
564.41	29755.23
564.57	29270.74
564.74	29556.28
564.90	29713.10
565.07	29846.51
565.23	29905.02
565.39	29656.93
565.56	29958.86
565.72	29940.13
565.88	29738.85
566.05	29930.77
566.21	29989.28
566.38	29670.97
566.54	30380.15
566.70	30040.78
566.87	30323.98
567.03	30300.58
567.19	30183.55
567.36	30078.22
567.52	29996.31
567.68	30061.84
567.85	30125.04
568.01	30110.99
568.17	30279.51
568.34	29720.12
568.50	30206.95
568.66	30005.67
568.83	30553.35
568.99	30167.16
569.15	30148.44
569.32	29951.84
569.48	30394.20
569.64	30661.02
569.81	30384.83
569.97	30352.07
570.13	30424.62
570.30	30113.33
570.46	30492.50
570.62	30382.49
570.78	30370.79
570.95	29984.60
571.11	30363.77
571.27	30265.47
571.43	30085.25
571.60	30026.73
571.76	30443.35
571.92	30246.74
572.09	30246.74
572.25	30583.78
572.41	30518.25
572.57	30684.42
572.74	30590.80
572.90	30600.16
573.06	30267.81
573.22	30621.23
573.38	30462.07
573.55	30085.25
573.71	30300.58
573.87	30506.54
574.03	30471.43
574.20	30389.52
574.36	30412.92
574.52	30270.15
574.68	29890.98
574.84	30298.23
575.01	30515.90
575.17	30508.88
575.33	30766.34
575.49	30618.89
575.65	30658.68
575.82	30452.71
575.98	30160.14
576.14	30707.83
576.30	30328.66
576.46	30574.42
576.62	30333.34
576.79	30721.87
576.95	30305.26
577.11	30976.99
577.27	30609.53
577.43	30707.83
577.59	30565.06
577.75	30340.36
577.92	30333.34
578.08	30345.05
578.24	30244.40
578.40	30649.32
578.56	30637.61
578.72	30249.08
578.88	30611.87
579.04	30719.53
579.21	30749.96
579.37	30976.99
579.53	31082.31
579.69	30501.86
579.85	30614.21
580.01	30511.22
580.17	30801.45
580.33	30948.90
580.49	30508.88
580.65	30321.64
580.82	30871.67
580.98	30852.94
581.14	30698.47
581.30	31119.76
581.46	30333.34
581.62	30532.29
581.78	30581.44
581.94	30843.58
582.10	30644.63
582.26	30691.44
582.42	30499.52
582.58	31110.40
582.74	30972.31
582.90	30560.37
583.06	30265.47
583.22	30710.17
583.38	30316.96
583.54	30806.13
583.70	30775.70
583.86	30869.33
584.02	30665.70
584.18	31236.79
584.34	30920.82
584.50	30976.99
584.66	30520.59
584.82	30686.76
584.98	30925.50
585.14	30707.83
585.30	30478.46
585.46	30478.46
585.62	30541.65
585.78	30719.53
585.94	30527.61
586.10	30529.95
586.26	30831.88
586.42	30897.41
586.58	30726.55
586.74	30883.37
586.90	30677.40
587.06	30375.47
587.22	30951.24
587.38	30752.30
587.54	30836.56
587.70	30930.18
587.86	31154.87
588.02	30925.50
588.18	31536.38
588.34	31082.31
588.49	30609.53
588.65	30836.56
588.81	30855.28
588.97	30810.81
589.13	30764.00
589.29	30712.51
589.45	30927.84
589.61	31035.50
589.77	30881.03
589.93	31040.18
590.08	31213.38
590.24	30967.63
590.40	31297.64
590.56	31056.57
590.72	30974.65
590.88	30906.77
591.04	31126.78
591.20	31227.43
591.35	31515.31
591.51	31847.67
591.67	31445.10
591.83	31449.78
591.99	30918.48
