SpectraSuite Data File
++++++++++++++++++++++++++++++++++++
Date: Fri Oct 18 13:58:15 GMT-05:00 2013
User: bianchi
Dark Spectrum Present: No
Reference Spectrum Present: No
Number of Sampled Component Spectra: 1
Spectrometers: USB2+H05261
Integration Time (usec): 50000 (USB2+H05261)
Spectra Averaged: 1 (USB2+H05261)
Boxcar Smoothing: 0 (USB2+H05261)
Correct for Electrical Dark: No (USB2+H05261)
Strobe/Lamp Enabled: No (USB2+H05261)
Correct for Detector Non-linearity: No (USB2+H05261)
Correct for Stray Light: No (USB2+H05261)
Number of Pixels in Processed Spectrum: 2048
>>>>>Begin Processed Spectral Data<<<<<
365.73	0.00
365.92	0.00
366.12	0.00
366.32	0.00
366.52	0.00
366.72	0.00
366.91	0.00
367.11	0.00
367.31	0.00
367.51	0.00
367.70	0.00
367.90	0.00
368.10	0.00
368.30	0.00
368.49	0.00
368.69	0.00
368.89	0.00
369.09	0.00
369.28	0.00
369.48	0.00
369.68	0.00
369.87	0.00
370.07	0.00
370.27	0.00
370.47	0.00
370.66	72.56
370.86	138.09
371.06	140.43
371.25	156.82
371.45	161.50
371.65	126.39
371.84	81.92
372.04	194.26
372.24	212.99
372.44	121.71
372.63	147.45
372.83	220.01
373.03	152.13
373.22	173.20
373.42	131.07
373.62	205.97
373.81	210.65
374.01	278.52
374.21	294.91
374.40	203.63
374.60	308.95
374.79	161.50
374.99	304.27
375.19	259.80
375.38	285.55
375.58	290.23
375.78	280.86
375.97	287.89
376.17	308.95
376.37	252.78
376.56	220.01
376.76	217.67
376.95	266.82
377.15	252.78
377.35	210.65
377.54	278.52
377.74	273.84
377.93	269.16
378.13	278.52
378.33	266.82
378.52	255.12
378.72	299.59
378.91	257.46
379.11	297.25
379.31	236.39
379.50	196.60
379.70	353.42
379.89	297.25
380.09	248.10
380.28	248.10
380.48	250.44
380.68	322.99
380.87	332.36
381.07	325.33
381.26	313.63
381.46	292.57
381.65	264.48
381.85	341.72
382.04	339.38
382.24	294.91
382.43	330.02
382.63	372.15
382.83	442.36
383.02	353.42
383.22	411.93
383.41	397.89
383.61	393.21
383.80	386.19
384.00	404.91
384.19	397.89
384.39	241.08
384.58	376.83
384.78	395.55
384.97	430.66
385.17	414.27
385.36	362.78
385.56	372.15
385.75	400.23
385.95	367.46
386.14	407.25
386.34	400.23
386.53	444.70
386.72	404.91
386.92	449.38
387.11	390.87
387.31	411.93
387.50	337.04
387.70	330.02
387.89	344.06
388.09	430.66
388.28	379.17
388.48	407.25
388.67	482.15
388.86	402.57
389.06	397.89
389.25	379.17
389.45	442.36
389.64	458.74
389.84	482.15
390.03	475.13
390.22	449.38
390.42	425.98
390.61	517.26
390.81	423.64
391.00	580.45
391.19	519.60
391.39	458.74
391.58	477.47
391.78	566.41
391.97	547.69
392.16	421.30
392.36	514.92
392.55	571.09
392.75	557.05
392.94	550.03
393.13	580.45
393.33	526.62
393.52	559.39
393.71	575.77
393.91	610.88
394.10	564.07
394.29	531.30
394.49	575.77
394.68	566.41
394.88	594.50
395.07	547.69
395.26	533.64
395.46	550.03
395.65	596.84
395.84	622.58
396.04	589.82
396.23	566.41
396.42	676.41
396.62	629.60
396.81	636.63
397.00	624.92
397.19	671.73
397.39	599.18
397.58	547.69
397.77	737.27
397.97	690.46
398.16	657.69
398.35	674.07
398.55	713.86
398.74	688.12
398.93	746.63
399.12	695.14
399.32	751.31
399.51	758.33
399.70	732.59
399.90	723.23
400.09	716.20
400.28	844.93
400.47	671.73
400.67	798.12
400.86	830.89
401.05	763.01
401.24	770.04
401.44	802.80
401.63	868.34
401.82	863.66
402.01	821.53
402.21	777.06
402.40	788.76
402.59	903.45
402.78	777.06
402.97	856.64
403.17	844.93
403.36	917.49
403.55	837.91
403.74	786.42
403.93	936.21
404.13	835.57
404.32	875.36
404.51	905.79
404.70	938.55
404.89	901.11
405.09	980.68
405.28	966.64
405.47	940.90
405.66	1006.43
405.85	1046.22
406.05	903.45
406.24	997.07
406.43	1032.18
406.62	1074.31
406.81	1027.50
407.00	997.07
407.20	1039.20
407.39	1015.79
407.58	1027.50
407.77	1015.79
407.96	1022.81
408.15	1109.41
408.34	947.92
408.54	1109.41
408.73	1090.69
408.92	1081.33
409.11	1083.67
409.30	1081.33
409.49	1163.25
409.68	1053.24
409.87	1146.86
410.07	1191.33
410.26	1165.59
410.45	1139.84
410.64	1170.27
410.83	1111.75
411.02	1233.46
411.21	1287.29
411.40	1179.63
411.59	1193.67
411.78	1266.23
411.98	1277.93
412.17	1240.48
412.36	1275.59
412.55	1352.83
412.74	1306.02
412.93	1378.58
413.12	1437.09
413.31	1446.45
413.50	1359.85
413.69	1315.38
413.88	1488.58
414.07	1490.92
414.26	1469.86
414.45	1448.79
414.64	1390.28
414.83	1472.20
415.02	1441.77
415.22	1523.69
415.41	1579.86
415.60	1507.30
415.79	1462.83
415.98	1530.71
416.17	1547.09
416.36	1511.99
416.55	1643.06
416.74	1659.44
416.93	1617.31
417.12	1638.38
417.31	1694.55
417.50	1626.67
417.69	1783.49
417.88	1741.36
418.07	1741.36
418.26	1771.79
418.45	1818.60
418.64	1767.10
418.83	1699.23
419.02	1739.02
419.21	1778.81
419.39	1860.73
419.58	1891.15
419.77	1865.41
419.96	1849.02
420.15	1928.60
420.34	1825.62
420.53	1921.58
420.72	2003.50
420.91	1923.92
421.10	2036.27
421.29	1923.92
421.48	1853.70
421.67	1996.48
421.86	1933.28
422.05	1914.56
422.24	1877.11
422.43	1926.26
422.61	1858.39
422.80	1952.01
422.99	2076.06
423.18	1921.58
423.37	2050.31
423.56	2017.54
423.75	1977.75
423.94	2078.40
424.13	1837.32
424.32	1905.20
424.50	1982.43
424.69	2064.35
424.88	1998.82
425.07	1907.54
425.26	1933.28
425.45	2050.31
425.64	2080.74
425.83	2062.01
426.01	1937.96
426.20	2122.87
426.39	2031.58
426.58	2045.63
426.77	2010.52
426.96	2132.23
427.15	2146.27
427.33	2176.70
427.52	2150.95
427.71	2181.38
427.90	2181.38
428.09	2263.30
428.28	2207.13
428.46	2167.34
428.65	2122.87
428.84	2328.83
429.03	2232.87
429.22	2202.44
429.40	2214.15
429.59	2275.00
429.78	2235.21
429.97	2153.29
430.16	2204.78
430.34	2413.09
430.53	2401.39
430.72	2253.94
430.91	2394.37
431.10	2272.66
431.28	2293.72
431.47	2310.11
431.66	2387.35
431.85	2345.22
432.03	2331.17
432.22	2478.63
432.41	2469.27
432.60	2485.65
432.79	2377.98
432.97	2431.82
433.16	2417.77
433.35	2487.99
433.54	2558.21
433.72	2445.86
433.91	2415.43
434.10	2466.92
434.28	2464.58
434.47	2590.97
434.66	2527.78
434.85	2569.91
435.03	2420.11
435.22	2616.72
435.41	2647.15
435.59	2677.57
435.78	2689.28
435.97	2675.23
436.16	2595.65
436.34	2619.06
436.53	2724.38
436.72	2745.45
436.90	2708.00
437.09	2644.81
437.28	2722.04
437.46	2764.17
437.65	2705.66
437.84	2715.02
438.02	2759.49
438.21	2761.83
438.40	2780.56
438.58	2855.45
438.77	2881.20
438.96	2808.64
439.14	2853.11
439.33	2972.48
439.52	2881.20
439.70	3014.61
439.89	2902.26
440.08	3007.59
440.26	2998.23
440.45	3136.32
440.63	3129.30
440.82	3014.61
441.01	3148.02
441.19	3075.46
441.38	3229.94
441.57	3199.51
441.75	3098.87
441.94	3145.68
442.12	3337.60
442.31	3403.14
442.50	3169.09
442.68	3363.35
442.87	3293.13
443.05	3279.09
443.24	3410.16
443.43	3449.95
443.61	3431.23
443.80	3386.76
443.98	3386.76
444.17	3201.85
444.35	3391.44
444.54	3400.80
444.73	3321.22
444.91	3311.86
445.10	3269.73
445.28	3375.05
445.47	3351.65
445.65	3431.23
445.84	3410.16
446.02	3508.46
446.21	3330.58
446.39	3316.54
446.58	3435.91
446.77	3375.05
446.95	3346.97
447.14	3468.67
447.32	3396.12
447.51	3438.25
447.69	3569.32
447.88	3548.25
448.06	3545.91
448.25	3473.36
448.43	3541.23
448.62	3433.57
448.80	3641.87
448.99	3414.84
449.17	3513.14
449.36	3506.12
449.54	3653.58
449.73	3618.47
449.91	3730.81
450.10	3691.02
450.28	3691.02
450.46	3878.27
450.65	3709.75
450.83	3740.18
451.02	3779.97
451.20	3688.68
451.39	3794.01
451.57	3765.92
451.76	3662.94
451.94	3618.47
452.13	3878.27
452.31	3859.54
452.49	3992.95
452.68	3801.03
452.86	3796.35
453.05	3941.46
453.23	4049.13
453.42	3880.61
453.60	3822.09
453.78	3803.37
453.97	3845.50
454.15	3892.31
454.34	3955.51
454.52	3899.33
454.70	3913.38
454.89	4100.62
455.07	4058.49
455.26	4035.08
455.44	4095.94
455.62	4049.13
455.81	3915.72
455.99	4084.23
456.17	4105.30
456.36	4175.52
456.54	4280.84
456.73	4299.56
456.91	4234.03
457.09	4236.37
457.28	4369.78
457.46	4311.27
457.64	4428.29
457.83	4278.50
458.01	4266.80
458.19	4264.46
458.38	4229.35
458.56	4535.96
458.74	4477.44
458.93	4407.23
459.11	4503.19
459.29	4325.31
459.48	4491.49
459.66	4411.91
459.84	4514.89
460.03	4479.79
460.21	4451.70
460.39	4449.36
460.57	4489.15
460.76	4510.21
460.94	4575.75
461.12	4564.04
461.31	4704.48
461.49	4498.51
461.67	4578.09
461.85	4737.24
462.04	4643.62
462.22	4922.15
462.40	4774.69
462.59	4760.65
462.77	4842.57
462.95	4830.87
463.13	4765.33
463.32	4830.87
463.50	4667.03
463.68	4830.87
463.86	4819.16
464.05	4807.46
464.23	4690.43
464.41	4997.04
464.59	4802.78
464.78	4849.59
464.96	4973.64
465.14	4718.52
465.32	4807.46
465.50	4987.68
465.69	5013.43
465.87	4973.64
466.05	5025.13
466.23	4933.85
466.41	5121.09
466.60	5067.26
466.78	5167.90
466.96	5158.54
467.14	5123.43
467.32	5041.51
467.51	5116.41
467.69	5132.79
467.87	5114.07
468.05	5205.35
468.23	5116.41
468.41	5123.43
468.60	5277.91
468.78	5263.86
468.96	5057.90
469.14	5205.35
469.32	5406.64
469.50	5158.54
469.69	5392.59
469.87	5069.60
470.05	5523.66
470.23	5350.46
470.41	5343.44
470.59	5439.40
470.77	5261.52
470.95	5322.38
471.14	5551.75
471.32	5345.78
471.50	5596.22
471.68	5437.06
471.86	5554.09
472.04	5589.20
472.22	5746.02
472.40	5549.41
472.58	5774.10
472.77	5671.12
472.95	5757.72
473.13	5984.75
473.31	5701.54
473.49	5790.49
473.67	5743.67
473.85	6001.13
474.03	5884.11
474.21	5944.96
474.39	6265.61
474.57	6008.16
474.75	6235.19
474.93	6265.61
475.12	6045.60
475.30	6040.92
475.48	6249.23
475.66	6183.70
475.84	6284.34
476.02	6284.34
476.20	6328.81
476.38	6590.95
476.56	6457.54
476.74	6693.93
476.92	6434.13
477.10	6408.39
477.28	6654.14
477.46	6715.00
477.64	6656.48
477.82	6993.52
478.00	6857.77
478.18	6883.52
478.36	7021.61
478.54	7073.10
478.72	7084.80
478.90	7033.31
479.08	6960.75
479.26	7297.79
479.44	7276.73
479.62	7094.16
479.80	7346.94
479.98	7571.63
480.16	7641.85
480.34	7503.76
480.52	7431.20
480.70	7798.66
480.88	7538.87
481.06	7609.08
481.24	7761.22
481.41	7651.21
481.59	8009.31
481.77	7983.57
481.95	8016.33
482.13	7948.46
482.31	8046.76
482.49	8177.83
482.67	8217.62
482.85	8528.91
483.03	8465.72
483.21	8535.93
483.39	8449.33
483.57	8578.06
483.74	8437.63
483.92	8578.06
484.10	8617.85
484.28	8854.25
484.46	9097.66
484.64	8936.17
484.82	8947.87
485.00	9249.80
485.18	9205.33
485.35	9394.91
485.53	9425.34
485.71	9521.30
485.89	9518.96
486.07	9420.66
486.25	9523.64
486.43	9600.88
486.61	9521.30
486.78	9706.20
486.96	9769.40
487.14	10059.62
487.32	10277.29
487.50	9935.57
487.68	10080.69
487.85	10214.10
488.03	10534.75
488.21	10773.49
488.39	10471.56
488.57	10745.40
488.75	10738.38
488.92	10923.28
489.10	10796.89
489.28	10965.41
489.46	11094.14
489.64	11077.76
489.81	11283.72
489.99	11159.67
490.17	11152.65
490.35	11332.87
490.53	11332.87
490.70	11667.57
490.88	11693.32
491.06	11763.53
491.24	11733.11
491.41	11822.05
491.59	11997.59
491.77	11896.94
491.95	12425.90
492.13	12217.60
492.30	12229.30
492.48	12322.92
492.66	12205.89
492.84	12299.52
493.01	12400.16
493.19	12580.38
493.37	12793.37
493.54	12713.79
493.72	12971.25
493.90	12643.57
494.08	12830.82
494.25	12872.95
494.43	13226.37
494.61	13603.19
494.79	13179.56
494.96	13284.88
495.14	13575.11
495.32	13626.60
495.49	13530.64
495.67	13642.98
495.85	13745.97
496.02	13678.09
496.20	13851.29
496.38	13930.87
496.55	13935.55
496.73	14136.84
496.91	14169.60
497.09	14218.75
497.26	14174.28
497.44	14267.91
497.62	14403.66
497.79	14452.81
497.97	14714.95
498.14	14614.30
498.32	14848.36
498.50	14497.28
498.67	14869.42
498.85	14864.74
499.03	14867.08
499.20	14869.42
499.38	15042.62
499.56	15110.50
499.73	15431.15
499.91	15260.29
500.08	15264.97
500.26	15204.12
500.44	15428.81
500.61	15342.21
500.79	15215.82
500.97	15690.95
501.14	15807.98
501.32	15988.20
501.49	15749.46
501.67	15372.64
501.84	15925.00
502.02	15805.64
502.20	15955.43
502.37	16339.28
502.55	16140.33
502.72	16203.53
502.90	16269.06
503.07	16004.58
503.25	16053.73
503.43	16123.95
503.60	16360.34
503.78	16486.73
503.95	16465.67
504.13	16355.66
504.30	16762.92
504.48	16582.70
504.65	16753.55
504.83	16683.34
505.01	16917.39
505.18	16826.11
505.36	16964.20
505.53	16844.84
505.71	17179.53
505.88	16896.33
506.06	17060.16
506.23	17191.23
506.41	17179.53
506.58	17336.35
506.76	17343.37
506.93	17422.95
507.11	17193.58
507.28	17502.53
507.46	17518.91
507.63	17666.36
507.81	17841.90
507.98	17752.96
508.16	17738.92
508.33	17542.32
508.50	17963.61
508.68	17582.10
508.85	18258.52
509.03	18094.68
509.20	18431.72
509.38	18068.94
509.55	18288.95
509.73	18607.26
509.90	18328.74
510.08	18195.32
510.25	18396.61
510.42	18312.35
510.60	18691.52
510.77	18579.17
510.95	18869.40
511.12	18845.99
511.30	18551.09
511.47	18991.11
511.64	18771.10
511.82	19147.92
511.99	18878.76
512.17	19082.39
512.34	18817.91
512.51	19318.78
512.69	19070.68
512.86	19103.45
513.04	19452.19
513.21	19199.41
513.38	19278.99
513.56	19566.88
513.73	19136.22
513.90	19054.30
514.08	19550.49
514.25	19389.00
514.43	19590.28
514.60	19775.19
514.77	19761.14
514.95	19772.85
515.12	19646.46
515.29	19831.36
515.47	19917.96
515.64	20252.66
515.81	20011.58
515.99	20222.23
516.16	20290.10
516.33	20278.40
516.51	20491.39
516.68	20191.80
516.85	20353.30
517.03	20025.62
517.20	20531.18
517.37	20472.67
517.54	20666.93
517.72	20053.71
517.89	20411.81
518.06	20376.70
518.24	20655.23
518.41	20568.63
518.58	20657.57
518.75	20746.51
518.93	20776.94
519.10	20900.98
519.27	21032.05
519.45	20980.56
519.62	20833.11
519.79	20999.29
519.96	20844.81
520.14	21270.79
520.31	20924.39
520.48	21376.11
520.65	21441.65
520.83	21418.24
521.00	21453.35
521.17	21488.46
521.34	21216.96
521.52	21490.80
521.69	21532.93
521.86	21596.12
522.03	21785.71
522.20	21692.08
522.38	21652.30
522.55	21591.44
522.72	21687.40
522.89	21689.74
523.07	21734.21
523.24	21940.18
523.41	21895.71
523.58	21956.57
523.75	22225.73
523.92	21694.43
524.10	21972.95
524.27	22125.08
524.44	22553.40
524.61	22462.12
524.78	22242.11
524.96	22541.70
525.13	22242.11
525.30	22295.94
525.47	22513.61
525.64	22560.42
525.81	22864.69
525.98	22705.54
526.16	22864.69
526.33	22710.22
526.50	22878.74
526.67	22738.30
526.84	23058.96
527.01	22742.99
527.18	22871.72
527.36	22939.59
527.53	22923.21
527.70	23194.71
527.87	23360.89
528.04	23030.87
528.21	23227.48
528.38	23117.47
528.55	23187.69
528.72	23346.84
528.89	23108.11
529.07	23344.50
529.24	23143.22
529.41	23391.31
529.58	23489.62
529.75	23314.08
529.92	23463.87
530.09	23372.59
530.26	23674.52
530.43	23386.63
530.60	23679.20
530.77	23852.40
530.94	23880.49
531.11	23721.33
531.28	23613.66
531.46	23641.75
531.63	23873.46
531.80	23681.54
531.97	23857.08
532.14	24009.22
532.31	23957.72
532.48	23828.99
532.65	24175.39
532.82	24016.24
532.99	24135.60
533.16	24287.74
533.33	24327.53
533.50	24510.09
533.67	24400.08
533.84	24105.18
534.01	24027.94
534.18	24329.87
534.35	24451.58
534.52	24156.67
534.69	24739.46
534.86	24655.20
535.03	24449.24
535.20	24514.77
535.37	24805.00
535.54	24629.46
535.71	24449.24
535.88	24140.29
536.05	24875.21
536.22	24638.82
536.38	24826.06
536.55	24893.94
536.72	24870.53
536.89	24587.33
537.06	24912.66
537.23	25118.63
537.40	24975.86
537.57	24734.78
537.74	24971.18
537.91	25434.60
538.08	25181.82
538.25	25455.67
538.42	25067.14
538.59	25200.55
538.75	24828.40
538.92	25280.13
539.09	25476.73
539.26	25221.61
539.43	25355.02
539.60	25486.09
539.77	25411.20
539.94	25647.59
540.11	25296.51
540.28	25436.94
540.44	25472.05
540.61	25626.53
540.78	25621.84
540.95	25607.80
541.12	25413.54
541.29	25703.76
541.46	25640.57
541.62	25795.04
541.79	26017.40
541.96	25404.17
542.13	25928.45
542.30	25970.58
542.47	26129.74
542.63	26302.94
542.80	26237.41
542.97	26551.04
543.14	26148.46
543.31	26349.75
543.48	26111.02
543.64	26726.58
543.81	26401.24
543.98	26354.43
544.15	26490.18
544.32	26565.08
544.48	26742.96
544.65	26309.96
544.82	26696.15
544.99	26150.81
545.16	26476.14
545.32	26740.62
545.49	26663.38
545.66	26871.69
545.83	26693.81
546.00	26654.02
546.16	26738.28
546.33	26782.75
546.50	26455.08
546.67	26637.64
546.83	26340.39
547.00	26876.37
547.17	26590.83
547.34	26740.62
547.50	27267.24
547.67	27190.00
547.84	26712.53
548.00	27070.64
548.17	26913.82
548.34	27002.76
548.51	27094.04
548.67	27063.61
548.84	27112.77
549.01	27323.41
549.18	26958.29
549.34	26974.67
549.51	27061.27
549.68	27360.86
549.84	27285.97
550.01	27395.97
550.18	27105.74
550.34	27253.20
550.51	27229.79
550.68	27555.13
550.84	27138.51
551.01	27405.33
551.18	27250.86
551.34	27351.50
551.51	27372.57
551.68	27573.85
551.84	27370.22
552.01	27779.82
552.18	27480.23
552.34	27716.62
552.51	27941.32
552.68	27339.80
552.84	27564.49
553.01	27723.65
553.18	27644.07
553.34	27688.54
553.51	27974.08
553.67	27995.15
553.84	27955.36
554.01	28037.28
554.17	27669.81
554.34	27723.65
554.51	27943.66
554.67	27821.95
554.84	27789.18
555.00	28065.36
555.17	27878.12
555.33	28056.00
555.50	28287.71
555.67	27960.04
555.83	27931.95
556.00	28158.99
556.16	28496.02
556.33	27765.78
556.50	28308.78
556.66	28254.95
556.83	28102.81
556.99	28505.38
557.16	28573.26
557.32	28339.21
557.49	28542.83
557.65	28418.78
557.82	28135.58
557.98	28559.22
558.15	28545.17
558.32	28343.89
558.48	28311.12
558.65	28732.42
558.81	28273.67
558.98	28599.01
559.14	28833.06
559.31	28290.06
559.47	28121.54
559.64	29076.48
559.80	28666.88
559.97	28446.87
560.13	28575.60
560.30	28552.20
560.46	28781.57
560.63	28596.67
560.79	28767.52
560.96	28739.44
561.12	28634.11
561.29	28203.46
561.45	28980.51
561.61	28746.46
561.78	28833.06
561.94	28945.41
562.11	28783.91
562.27	29172.44
562.44	28947.75
562.60	28446.87
562.77	28629.43
562.93	28690.29
563.10	28926.68
563.26	28503.04
563.42	29357.34
563.59	29053.07
563.75	29036.69
563.92	29219.25
564.08	28994.56
564.24	29039.03
564.41	28568.58
564.57	29275.42
564.74	28985.19
564.90	29123.29
565.07	29191.16
565.23	29441.60
565.39	29048.39
565.56	29223.93
565.72	28933.70
565.88	29170.10
566.05	28723.05
566.21	29064.77
566.38	29205.20
566.54	29132.65
566.70	29359.68
566.87	29383.09
567.03	29284.78
567.19	29249.67
567.36	29413.51
567.52	28811.99
567.68	29345.64
567.85	29457.98
568.01	29322.23
568.17	29226.27
568.34	29546.92
568.50	29312.87
568.66	29406.49
568.83	29441.60
568.99	29036.69
569.15	29113.92
569.32	29408.83
569.48	29359.68
569.64	29425.22
569.81	29572.67
569.97	29425.22
570.13	29457.98
570.30	29184.14
570.46	29542.24
570.62	29453.30
570.78	29046.05
570.95	29252.02
571.11	29434.58
571.27	28926.68
571.43	29195.84
571.60	29158.39
571.76	29336.27
571.92	29177.12
572.09	29514.16
572.25	29127.97
572.41	29439.26
572.57	29635.86
572.74	29493.09
572.90	28903.28
573.06	29488.41
573.22	29364.36
573.38	29523.52
573.55	29771.61
573.71	30101.63
573.87	30031.41
574.03	29752.89
574.20	29638.20
574.36	29223.93
574.52	29273.08
574.68	29544.58
574.84	29546.92
575.01	29577.35
575.17	29532.88
575.33	29757.57
575.49	29345.64
575.65	29785.66
575.82	29577.35
575.98	29429.90
576.14	29841.83
576.30	29773.95
576.46	29411.17
576.62	29502.45
576.79	29696.72
576.95	29572.67
577.11	29443.94
577.27	29717.78
577.43	29797.36
577.59	29806.72
577.75	29788.00
577.92	29333.93
578.08	29352.66
578.24	29511.81
578.40	29898.00
578.56	29907.37
578.72	29799.70
578.88	29881.62
579.04	30096.95
579.21	29900.34
579.37	29422.87
579.53	29956.52
579.69	29692.04
579.85	29692.04
580.01	29619.48
580.17	29694.38
580.33	29785.66
580.49	29593.73
580.65	29642.88
580.82	29949.50
580.98	29881.62
581.14	29780.98
581.30	29785.66
581.46	29600.76
581.62	29720.12
581.78	29460.32
581.94	29724.80
582.10	29729.48
582.26	29125.63
582.42	29895.66
582.58	30314.62
582.74	29525.86
582.90	29888.64
583.06	29888.64
583.22	29670.97
583.38	29930.77
583.54	29940.13
583.70	29483.73
583.86	29745.87
584.02	29804.38
584.18	30068.86
584.34	29895.66
584.50	29907.37
584.66	30052.48
584.82	30003.33
584.98	29778.64
585.14	29535.22
585.30	29582.03
585.46	30008.01
585.62	29867.58
585.78	29895.66
585.94	29806.72
586.10	29834.81
586.26	29954.18
586.42	29968.22
586.58	30153.12
586.74	29830.13
586.90	29357.34
587.06	29869.92
587.22	30073.54
587.38	29635.86
587.54	30043.12
587.70	30323.98
587.86	29949.50
588.02	30197.59
588.18	30120.35
588.34	29820.77
588.49	30295.89
588.65	29783.32
588.81	29553.94
588.97	29979.92
589.13	29816.08
589.29	29853.53
589.45	30157.80
589.61	30338.02
589.77	30129.72
589.93	30239.72
590.08	30412.92
590.24	30424.62
590.40	30312.28
590.56	30260.79
590.72	29937.79
590.88	30061.84
591.04	30300.58
591.20	30607.19
591.35	30441.01
591.51	30345.05
591.67	30714.85
591.83	30298.23
591.99	30167.16
