SpectraSuite Data File
++++++++++++++++++++++++++++++++++++
Date: Fri Oct 18 13:58:32 GMT-05:00 2013
User: bianchi
Dark Spectrum Present: No
Reference Spectrum Present: No
Number of Sampled Component Spectra: 1
Spectrometers: USB2+H05261
Integration Time (usec): 50000 (USB2+H05261)
Spectra Averaged: 1 (USB2+H05261)
Boxcar Smoothing: 0 (USB2+H05261)
Correct for Electrical Dark: No (USB2+H05261)
Strobe/Lamp Enabled: No (USB2+H05261)
Correct for Detector Non-linearity: No (USB2+H05261)
Correct for Stray Light: No (USB2+H05261)
Number of Pixels in Processed Spectrum: 2048
>>>>>Begin Processed Spectral Data<<<<<
365.73	0.00
365.92	0.00
366.12	0.00
366.32	0.00
366.52	0.00
366.72	0.00
366.91	0.00
367.11	0.00
367.31	0.00
367.51	0.00
367.70	0.00
367.90	0.00
368.10	0.00
368.30	0.00
368.49	0.00
368.69	0.00
368.89	0.00
369.09	0.00
369.28	0.00
369.48	0.00
369.68	0.00
369.87	0.00
370.07	0.00
370.27	0.00
370.47	0.00
370.66	95.96
370.86	187.24
371.06	110.01
371.25	168.52
371.45	74.90
371.65	77.24
371.84	191.92
372.04	222.35
372.24	95.96
372.44	166.18
372.63	248.10
372.83	196.60
373.03	189.58
373.22	173.20
373.42	168.52
373.62	238.73
373.81	198.95
374.01	301.93
374.21	217.67
374.40	290.23
374.60	238.73
374.79	177.88
374.99	245.76
375.19	248.10
375.38	262.14
375.58	271.50
375.78	283.20
375.97	250.44
376.17	250.44
376.37	280.86
376.56	212.99
376.76	224.69
376.95	210.65
377.15	243.42
377.35	278.52
377.54	315.97
377.74	198.95
377.93	210.65
378.13	313.63
378.33	210.65
378.52	351.08
378.72	236.39
378.91	341.72
379.11	243.42
379.31	297.25
379.50	285.55
379.70	346.40
379.89	337.04
380.09	236.39
380.28	299.59
380.48	264.48
380.68	290.23
380.87	287.89
381.07	285.55
381.26	315.97
381.46	269.16
381.65	241.08
381.85	262.14
382.04	292.57
382.24	327.68
382.43	355.76
382.63	355.76
382.83	376.83
383.02	304.27
383.22	372.15
383.41	351.08
383.61	372.15
383.80	344.06
384.00	428.32
384.19	294.91
384.39	358.10
384.58	337.04
384.78	285.55
384.97	414.27
385.17	367.46
385.36	372.15
385.56	444.70
385.75	381.51
385.95	386.19
386.14	334.70
386.34	472.79
386.53	409.59
386.72	383.85
386.92	383.85
387.11	433.00
387.31	372.15
387.50	365.12
387.70	397.89
387.89	423.64
388.09	456.40
388.28	435.34
388.48	475.13
388.67	430.66
388.86	458.74
389.06	428.32
389.25	510.24
389.45	454.06
389.64	400.23
389.84	442.36
390.03	503.22
390.22	472.79
390.42	414.27
390.61	465.77
390.81	425.98
391.00	521.94
391.19	566.41
391.39	411.93
391.58	463.43
391.78	444.70
391.97	458.74
392.16	493.85
392.36	531.30
392.55	475.13
392.75	568.75
392.94	568.75
393.13	550.03
393.33	571.09
393.52	507.90
393.71	524.28
393.91	580.45
394.10	585.13
394.29	514.92
394.49	566.41
394.68	585.13
394.88	545.34
395.07	634.29
395.26	634.29
395.46	587.47
395.65	648.33
395.84	601.52
396.04	685.78
396.23	620.24
396.42	629.60
396.62	547.69
396.81	678.76
397.00	641.31
397.19	571.09
397.39	617.90
397.58	662.37
397.77	676.41
397.97	645.99
398.16	662.37
398.35	674.07
398.55	737.27
398.74	716.20
398.93	713.86
399.12	772.38
399.32	744.29
399.51	699.82
399.70	767.70
399.90	697.48
400.09	713.86
400.28	809.83
400.47	737.27
400.67	739.61
400.86	734.93
401.05	821.53
401.24	702.16
401.44	821.53
401.63	798.12
401.82	847.27
402.01	830.89
402.21	774.72
402.40	709.18
402.59	744.29
402.78	809.83
402.97	812.17
403.17	875.36
403.36	882.38
403.55	936.21
403.74	882.38
403.93	842.59
404.13	903.45
404.32	870.68
404.51	856.64
404.70	1020.47
404.89	922.17
405.09	947.92
405.28	968.98
405.47	894.08
405.66	968.98
405.85	976.00
406.05	1011.11
406.24	945.58
406.43	915.15
406.62	950.26
406.81	1022.81
407.00	1029.84
407.20	1006.43
407.39	931.53
407.58	978.34
407.77	1111.75
407.96	1039.20
408.15	1048.56
408.34	1053.24
408.54	1018.13
408.73	1093.03
408.92	1172.61
409.11	1102.39
409.30	1191.33
409.49	1123.46
409.68	1198.35
409.87	1146.86
410.07	1254.53
410.26	1205.38
410.45	1167.93
410.64	1165.59
410.83	1280.27
411.02	1170.27
411.21	1315.38
411.40	1226.44
411.59	1224.10
411.78	1242.82
411.98	1273.25
412.17	1210.06
412.36	1261.55
412.55	1327.08
412.74	1306.02
412.93	1275.59
413.12	1284.95
413.31	1355.17
413.50	1301.34
413.69	1348.15
413.88	1366.87
414.07	1355.17
414.26	1434.75
414.45	1437.09
414.64	1530.71
414.83	1526.03
415.02	1530.71
415.22	1495.60
415.41	1511.99
415.60	1582.20
415.79	1631.35
415.98	1565.82
416.17	1607.95
416.36	1589.22
416.55	1593.90
416.74	1612.63
416.93	1603.27
417.12	1617.31
417.31	1643.06
417.50	1717.95
417.69	1722.63
417.88	1734.34
418.07	1771.79
418.26	1675.82
418.45	1802.21
418.64	1746.04
418.83	1741.36
419.02	1743.70
419.21	1834.98
419.39	1834.98
419.58	1729.66
419.77	1783.49
419.96	1804.55
420.15	1858.39
420.34	1870.09
420.53	1919.24
420.72	1870.09
420.91	1884.13
421.10	1856.04
421.29	1830.30
421.48	1898.17
421.67	1867.75
421.86	2019.88
422.05	1973.07
422.24	1937.96
422.43	1982.43
422.61	1919.24
422.80	2010.52
422.99	2052.65
423.18	1902.86
423.37	2019.88
423.56	2019.88
423.75	2008.18
423.94	2033.93
424.13	1792.85
424.32	1886.47
424.50	2136.91
424.69	2083.08
424.88	2029.24
425.07	2083.08
425.26	2019.88
425.45	1891.15
425.64	2087.76
425.83	2069.03
426.01	2005.84
426.20	2050.31
426.39	1968.39
426.58	2045.63
426.77	2050.31
426.96	2038.61
427.15	2118.18
427.33	2003.50
427.52	2085.42
427.71	2162.66
427.90	2108.82
428.09	2052.65
428.28	2139.25
428.46	2197.76
428.65	2115.84
428.84	2246.91
429.03	2300.75
429.22	2092.44
429.40	2115.84
429.59	2289.04
429.78	2207.13
429.97	2101.80
430.16	2047.97
430.34	2260.96
430.53	2307.77
430.72	2328.83
430.91	2256.28
431.10	2338.20
431.28	2314.79
431.47	2356.92
431.66	2408.41
431.85	2279.68
432.03	2441.18
432.22	2340.54
432.41	2436.50
432.60	2387.35
432.79	2462.24
432.97	2490.33
433.16	2312.45
433.35	2431.82
433.54	2415.43
433.72	2427.14
433.91	2546.50
434.10	2476.29
434.28	2424.80
434.47	2600.34
434.66	2574.59
434.85	2516.08
435.03	2607.36
435.22	2588.63
435.41	2532.46
435.59	2490.33
435.78	2495.01
435.97	2630.76
436.16	2614.38
436.34	2562.89
436.53	2635.44
436.72	2768.85
436.90	2579.27
437.09	2780.56
437.28	2619.06
437.46	2623.74
437.65	2703.32
437.84	2677.57
438.02	2761.83
438.21	2754.81
438.40	2682.25
438.58	2916.31
438.77	2843.75
438.96	2848.43
439.14	2864.82
439.33	2834.39
439.52	2925.67
439.70	3009.93
439.89	2930.35
440.08	2979.50
440.26	3047.38
440.45	3075.46
440.63	3117.59
440.82	3180.79
441.01	3026.31
441.19	3035.67
441.38	3108.23
441.57	3192.49
441.75	3077.80
441.94	3206.53
442.12	3150.36
442.31	3234.62
442.50	3258.03
442.68	3141.00
442.87	3330.58
443.05	3166.74
443.24	3318.88
443.43	3251.00
443.61	3351.65
443.80	3473.36
443.98	3337.60
444.17	3187.81
444.35	3389.10
444.54	3428.88
444.73	3433.57
444.91	3368.03
445.10	3440.59
445.28	3398.46
445.47	3403.14
445.65	3248.66
445.84	3527.19
446.02	3499.10
446.21	3353.99
446.39	3445.27
446.58	3534.21
446.77	3494.42
446.95	3400.80
447.14	3410.16
447.32	3375.05
447.51	3581.02
447.69	3466.33
447.88	3424.20
448.06	3531.87
448.25	3431.23
448.43	3463.99
448.62	3485.06
448.80	3564.64
448.99	3466.33
449.17	3597.40
449.36	3571.66
449.54	3433.57
449.73	3620.81
449.91	3581.02
450.10	3859.54
450.28	3672.30
450.46	3705.07
450.65	3775.28
450.83	3700.39
451.02	3637.19
451.20	3772.94
451.39	3796.35
451.57	3709.75
451.76	3796.35
451.94	3674.64
452.13	3850.18
452.31	3768.26
452.49	3698.05
452.68	3733.15
452.86	3904.01
453.05	3918.06
453.23	3939.12
453.42	3899.33
453.60	3815.07
453.78	3798.69
453.97	3838.48
454.15	4009.34
454.34	3829.12
454.52	3985.93
454.70	3981.25
454.89	4058.49
455.07	3971.89
455.26	3962.53
455.44	3992.95
455.62	4049.13
455.81	4030.40
455.99	3995.29
456.17	4016.36
456.36	4100.62
456.54	4224.67
456.73	4231.69
456.91	4273.82
457.09	4170.83
457.28	4280.84
457.46	4189.56
457.64	4311.27
457.83	4257.43
458.01	4311.27
458.19	4341.69
458.38	4243.39
458.56	4421.27
458.74	4437.66
458.93	4175.52
459.11	4322.97
459.29	4409.57
459.48	4362.76
459.66	4222.33
459.84	4475.10
460.03	4554.68
460.21	4557.02
460.39	4472.76
460.57	4407.23
460.76	4440.00
460.94	4524.26
461.12	4578.09
461.31	4613.20
461.49	4547.66
461.67	4594.47
461.85	4699.80
462.04	4528.94
462.22	4880.02
462.40	4741.93
462.59	4627.24
462.77	4575.75
462.95	4847.25
463.13	4547.66
463.32	4683.41
463.50	4671.71
463.68	4748.95
463.86	4889.38
464.05	4800.44
464.23	4683.41
464.41	4898.74
464.59	4692.77
464.78	4980.66
464.96	4835.55
465.14	4943.21
465.32	4945.55
465.50	4943.21
465.69	4975.98
465.87	5036.83
466.05	5018.11
466.23	4802.78
466.41	4919.81
466.60	5238.12
466.78	4917.47
466.96	4957.25
467.14	5011.09
467.32	5198.33
467.51	5109.39
467.69	4894.06
467.87	4987.68
468.05	5198.33
468.23	5172.58
468.41	5011.09
468.60	5053.22
468.78	5256.84
468.96	5144.50
469.14	5172.58
469.32	5163.22
469.50	5104.71
469.69	5238.12
469.87	5336.42
470.05	5383.23
470.23	5259.18
470.41	5451.11
470.59	5380.89
470.77	5490.90
470.95	5462.81
471.14	5596.22
471.32	5526.00
471.50	5425.36
471.68	5568.13
471.86	5724.95
472.04	5614.95
472.22	5699.20
472.40	5621.97
472.58	5696.86
472.77	5607.92
472.95	5504.94
473.13	5893.47
473.31	5701.54
473.49	5699.20
473.67	5776.44
473.85	5886.45
474.03	5907.51
474.21	6080.71
474.39	5905.17
474.57	6193.06
474.75	6106.46
474.93	6031.56
475.12	6139.23
475.30	6253.91
475.48	6064.33
475.66	6279.66
475.84	6162.63
476.02	6310.08
476.20	6263.27
476.38	6356.90
476.56	6434.13
476.74	6443.49
476.92	6476.26
477.10	6497.33
477.28	6607.33
477.46	6497.33
477.64	6616.69
477.82	6787.55
478.00	6810.96
478.18	6717.34
478.36	6839.05
478.54	7115.23
478.72	7112.89
478.90	6998.20
479.08	6988.84
479.26	7112.89
479.44	7236.94
479.62	7063.74
479.80	7470.99
479.98	7187.79
480.16	7499.08
480.34	7140.97
480.52	7473.33
480.70	7438.22
480.88	7599.72
481.06	7716.75
481.24	7590.36
481.41	7782.28
481.59	7822.07
481.77	8006.97
481.95	7950.80
482.13	7925.05
482.31	7896.97
482.49	8154.43
482.67	8241.03
482.85	8306.56
483.03	8362.73
483.21	8306.56
483.39	8498.49
483.57	8351.03
483.74	8599.13
483.92	8557.00
484.10	8664.66
484.28	8798.07
484.46	8961.91
484.64	9109.36
484.82	8865.95
485.00	9048.51
485.18	9074.26
485.35	9174.90
485.53	9291.93
485.71	9310.65
485.89	9490.87
486.07	9561.09
486.25	9301.29
486.43	9568.11
486.61	9635.99
486.78	9778.76
486.96	9767.06
487.14	10033.88
487.32	9792.80
487.50	10085.37
487.68	10148.56
487.85	10384.96
488.03	10445.81
488.21	10544.11
488.39	10677.52
488.57	10567.52
488.75	10754.76
488.92	10686.89
489.10	10714.97
489.28	10707.95
489.46	10956.05
489.64	11016.90
489.81	10923.28
489.99	10974.77
490.17	11246.27
490.35	11391.39
490.53	11218.19
490.70	11473.31
490.88	11421.81
491.06	11686.29
491.24	11435.86
491.41	11765.87
491.59	11920.35
491.77	11910.99
491.95	11913.33
492.13	12119.29
492.30	12058.44
492.48	12030.35
492.66	12121.63
492.84	12112.27
493.01	12243.34
493.19	12339.30
493.37	12503.14
493.54	12461.01
493.72	12538.25
493.90	12613.15
494.08	12922.10
494.25	12872.95
494.43	13050.83
494.61	12943.16
494.79	13228.71
494.96	13181.90
495.14	13015.72
495.32	13408.93
495.49	13364.46
495.67	13483.83
495.85	13472.12
496.02	13736.60
496.20	13710.86
496.38	13319.99
496.55	13692.13
496.73	14209.39
496.91	13909.80
497.09	14195.35
497.26	14108.75
497.44	14118.11
497.62	14335.78
497.79	14396.64
497.97	14195.35
498.14	14516.00
498.32	14614.30
498.50	14640.05
498.67	15077.73
498.85	14974.75
499.03	14614.30
499.20	14953.68
499.38	14906.87
499.56	14839.00
499.73	15115.18
499.91	14902.19
500.08	15054.33
500.26	15417.11
500.44	15449.88
500.61	15304.76
500.79	15330.51
500.97	15445.20
501.14	15632.44
501.32	15489.67
501.49	15616.05
501.67	15679.25
501.84	15651.16
502.02	15836.06
502.20	15899.26
502.37	16053.73
502.55	15765.85
502.72	16273.74
502.90	15950.75
503.07	15943.73
503.25	16137.99
503.43	15988.20
503.60	16191.83
503.78	16699.72
503.95	16365.03
504.13	16505.46
504.30	16519.50
504.48	16563.97
504.65	16458.65
504.83	16514.82
505.01	16776.96
505.18	16940.80
505.36	16936.12
505.53	16573.33
505.71	16901.01
505.88	16968.88
506.06	16851.86
506.23	17116.34
506.41	17011.01
506.58	17451.03
506.76	16989.95
506.93	17273.15
507.11	17240.39
507.28	17081.23
507.46	17256.77
507.63	17668.70
507.81	17591.47
507.98	17511.89
508.16	17558.70
508.33	17575.08
508.50	17448.69
508.68	17888.71
508.85	17970.63
509.03	17710.83
509.20	17965.95
509.38	17905.10
509.55	17940.21
509.73	18228.09
509.90	18288.95
510.08	18185.96
510.25	18190.64
510.42	18218.73
510.60	18417.68
510.77	18541.72
510.95	18539.38
511.12	18387.25
511.30	18504.28
511.47	18546.40
511.64	18331.08
511.82	18668.11
511.99	18335.76
512.17	18829.61
512.34	18892.80
512.51	19126.86
512.69	18867.06
512.86	18927.91
513.04	19300.06
513.21	19002.81
513.38	19089.41
513.56	19459.21
513.73	19129.20
513.90	19407.72
514.08	19033.24
514.25	19459.21
514.43	19456.87
514.60	19672.20
514.77	19761.14
514.95	19400.70
515.12	19393.68
515.29	19601.99
515.47	19665.18
515.64	19939.02
515.81	19864.13
515.99	19894.55
516.16	20074.77
516.33	20217.55
516.51	20102.86
516.68	19822.00
516.85	19990.52
517.03	19896.89
517.20	20276.06
517.37	20226.91
517.54	20552.24
517.72	20203.50
517.89	20357.98
518.06	20266.70
518.24	20397.77
518.41	20622.46
518.58	20369.68
518.75	20491.39
518.93	20680.97
519.10	20477.35
519.27	20641.18
519.45	20463.30
519.62	20676.29
519.79	20760.55
519.96	20751.19
520.14	20800.34
520.31	20922.05
520.48	21177.17
520.65	21062.48
520.83	21050.78
521.00	21153.76
521.17	21188.87
521.34	21207.59
521.52	21256.75
521.69	21352.71
521.86	21575.06
522.03	21703.79
522.20	20947.79
522.38	21411.22
522.55	21441.65
522.72	21654.64
522.89	21528.25
523.07	21907.41
523.24	21872.31
523.41	21855.92
523.58	21668.68
523.75	21900.39
523.92	22010.40
524.10	21926.14
524.27	22005.72
524.44	22068.91
524.61	22312.33
524.78	22302.96
524.96	22260.84
525.13	22178.92
525.30	22178.92
525.47	22230.41
525.64	21865.28
525.81	22164.87
525.98	22504.25
526.16	22270.20
526.33	22644.68
526.50	22930.23
526.67	22300.62
526.84	22518.29
527.01	22518.29
527.18	22464.46
527.36	22429.35
527.53	22731.28
527.70	23065.98
527.87	23175.98
528.04	22794.48
528.21	22874.06
528.38	22885.76
528.55	23239.18
528.72	22979.38
528.89	23047.26
529.07	23164.28
529.24	22869.37
529.41	23065.98
529.58	23192.37
529.75	23143.22
529.92	23531.75
530.09	23208.75
530.26	23576.22
530.43	23449.83
530.60	23180.67
530.77	23356.21
530.94	23529.41
531.11	23583.24
531.28	23508.34
531.46	23634.73
531.63	23566.85
531.80	23564.51
531.97	23555.15
532.14	23828.99
532.31	23903.89
532.48	23770.48
532.65	24041.98
532.82	23428.76
532.99	23763.46
533.16	23686.22
533.33	24016.24
533.50	24362.64
533.67	23653.45
533.84	23861.76
534.01	24126.24
534.18	23828.99
534.35	24381.36
534.52	23971.77
534.69	24489.03
534.86	24388.38
535.03	24151.99
535.20	24416.47
535.37	24175.39
535.54	23939.00
535.71	24276.04
535.88	24421.15
536.05	24217.52
536.22	24587.33
536.38	24931.39
536.55	24692.65
536.72	24540.52
536.89	24561.58
537.06	24828.40
537.23	24786.27
537.40	24596.69
537.57	24739.46
537.74	24966.49
537.91	24741.80
538.08	25062.46
538.25	24655.20
538.42	24996.92
538.59	25092.88
538.75	24610.73
538.92	25060.12
539.09	25228.63
539.26	24994.58
539.43	24919.68
539.60	24863.51
539.77	25008.62
539.94	25305.87
540.11	25118.63
540.28	25301.19
540.44	25214.59
540.61	25273.10
540.78	24933.73
540.95	25238.00
541.12	25427.58
541.29	25514.18
541.46	25315.23
541.62	25453.33
541.79	25303.53
541.96	25366.73
542.13	25287.15
542.30	25708.44
542.47	26017.40
542.63	25776.32
542.80	25717.81
542.97	25792.70
543.14	26221.02
543.31	25916.75
543.48	25930.80
543.64	26199.96
543.81	25970.58
543.98	25837.17
544.15	26157.83
544.32	26092.29
544.48	26286.56
544.65	26146.12
544.82	26129.74
544.99	25867.60
545.16	26644.66
545.32	26342.73
545.49	26174.21
545.66	26529.97
545.83	26401.24
546.00	26455.08
546.16	26359.11
546.33	26621.25
546.50	26127.40
546.67	26728.92
546.83	26054.84
547.00	26434.01
547.17	26405.92
547.34	26415.29
547.50	26759.34
547.67	26920.84
547.84	26822.54
548.00	26700.83
548.17	26628.27
548.34	26789.77
548.51	27028.51
548.67	26810.84
548.84	26700.83
549.01	26586.15
549.18	26714.87
549.34	26911.48
549.51	26948.93
549.68	26799.13
549.84	26794.45
550.01	26920.84
550.18	26515.93
550.34	27168.94
550.51	27108.08
550.68	27143.19
550.84	26899.78
551.01	27117.45
551.18	27166.60
551.34	26923.18
551.51	26845.94
551.68	27302.35
551.84	27180.64
552.01	27468.53
552.18	27552.79
552.34	27573.85
552.51	27550.45
552.68	27190.00
552.84	27435.76
553.01	27962.38
553.18	27480.23
553.34	27302.35
553.51	27660.45
553.67	27683.86
553.84	27946.00
554.01	27484.91
554.17	27442.78
554.34	27623.00
554.51	27700.24
554.67	27562.15
554.84	27885.14
555.00	27658.11
555.17	27559.81
555.33	27531.72
555.50	27896.85
555.67	27562.15
555.83	27395.97
556.00	27538.74
556.16	27992.81
556.33	27765.78
556.50	27927.27
556.66	28409.42
556.83	28044.30
556.99	28063.02
557.16	28240.90
557.32	28173.03
557.49	28245.58
557.65	27749.39
557.82	28109.83
557.98	27950.68
558.15	28056.00
558.32	28226.86
558.48	27946.00
558.65	28236.22
558.81	28144.94
558.98	28428.15
559.14	28226.86
559.31	28205.80
559.47	27908.55
559.64	28205.80
559.80	28343.89
559.97	28683.27
560.13	28414.10
560.30	28498.36
560.46	28437.51
560.63	28364.95
560.79	28676.24
560.96	28383.68
561.12	28173.03
561.29	27953.02
561.45	28400.06
561.61	28332.18
561.78	28744.12
561.94	28594.32
562.11	28856.46
562.27	28896.25
562.44	28489.00
562.60	28587.30
562.77	28318.14
562.93	28636.45
563.10	28463.25
563.26	28287.71
563.42	28922.00
563.59	28280.69
563.75	28531.13
563.92	28594.32
564.08	28751.14
564.24	28334.53
564.41	28320.48
564.57	28720.71
564.74	28699.65
564.90	28503.04
565.07	28582.62
565.23	28687.95
565.39	28828.38
565.56	28903.28
565.72	28666.88
565.88	28481.98
566.05	28685.61
566.21	28730.08
566.38	28830.72
566.54	28823.70
566.70	29081.16
566.87	28804.97
567.03	28671.56
567.19	29081.16
567.36	28865.83
567.52	28432.83
567.68	29017.96
567.85	28734.76
568.01	28875.19
568.17	28912.64
568.34	29160.73
568.50	28980.51
568.66	29331.59
568.83	29090.52
568.99	29046.05
569.15	28751.14
569.32	28669.22
569.48	28765.18
569.64	29043.71
569.81	28996.90
569.97	28872.85
570.13	28975.83
570.30	29319.89
570.46	29118.60
570.62	29067.11
570.78	29184.14
570.95	28924.34
571.11	28907.96
571.27	28744.12
571.43	28919.66
571.60	29298.83
571.76	29139.67
571.92	29357.34
572.09	29188.82
572.25	29479.05
572.41	29237.97
572.57	29027.32
572.74	29345.64
572.90	28882.21
573.06	28919.66
573.22	29097.54
573.38	29216.91
573.55	29472.03
573.71	29326.91
573.87	29422.87
574.03	29420.53
574.20	29188.82
574.36	28996.90
574.52	29261.38
574.68	29242.65
574.84	29188.82
575.01	28999.24
575.17	29142.01
575.33	29205.20
575.49	29034.35
575.65	29488.41
575.82	28978.17
575.98	29237.97
576.14	29310.53
576.30	29385.43
576.46	28910.30
576.62	29067.11
576.79	29170.10
576.95	29233.29
577.11	29301.17
577.27	29476.71
577.43	29366.70
577.59	29174.78
577.75	29153.71
577.92	28978.17
578.08	29207.55
578.24	29043.71
578.40	29113.92
578.56	28905.62
578.72	29663.95
578.88	29575.01
579.04	29640.54
579.21	29270.74
579.37	29167.76
579.53	29355.00
579.69	29352.66
579.85	29439.26
580.01	29266.06
580.17	29268.40
580.33	29443.94
580.49	29261.38
580.65	29668.63
580.82	29411.17
580.98	29142.01
581.14	29439.26
581.30	29383.09
581.46	29209.89
581.62	29369.04
581.78	29628.84
581.94	29303.51
582.10	29212.23
582.26	29294.14
582.42	29453.30
582.58	29563.31
582.74	29378.40
582.90	29495.43
583.06	29350.32
583.22	29411.17
583.38	29528.20
583.54	29144.35
583.70	29371.38
583.86	29460.32
584.02	29130.31
584.18	29806.72
584.34	29614.80
584.50	29521.18
584.66	29685.01
584.82	29280.10
584.98	29078.82
585.14	29387.77
585.30	29731.83
585.46	29652.25
585.62	29584.37
585.78	29504.79
585.94	29556.28
586.10	29567.99
586.26	29310.53
586.42	29944.81
586.58	29472.03
586.74	29516.50
586.90	28952.43
587.06	29085.84
587.22	29457.98
587.38	29352.66
587.54	29411.17
587.70	30008.01
587.86	29996.31
588.02	29722.46
588.18	29855.87
588.34	29771.61
588.49	29656.93
588.65	29415.85
588.81	29263.72
588.97	29677.99
589.13	29163.08
589.29	29345.64
589.45	29376.06
589.61	29834.81
589.77	29895.66
589.93	29972.90
590.08	29841.83
590.24	29539.90
590.40	29755.23
590.56	30012.69
590.72	29654.59
590.88	29558.63
591.04	29518.84
591.20	30052.48
591.35	30295.89
591.51	30136.74
591.67	29912.05
591.83	29883.96
591.99	29579.69
