SpectraSuite Data File
++++++++++++++++++++++++++++++++++++
Date: Fri Oct 18 13:58:05 GMT-05:00 2013
User: bianchi
Dark Spectrum Present: No
Reference Spectrum Present: No
Number of Sampled Component Spectra: 1
Spectrometers: USB2+H05261
Integration Time (usec): 50000 (USB2+H05261)
Spectra Averaged: 1 (USB2+H05261)
Boxcar Smoothing: 0 (USB2+H05261)
Correct for Electrical Dark: No (USB2+H05261)
Strobe/Lamp Enabled: No (USB2+H05261)
Correct for Detector Non-linearity: No (USB2+H05261)
Correct for Stray Light: No (USB2+H05261)
Number of Pixels in Processed Spectrum: 2048
>>>>>Begin Processed Spectral Data<<<<<
365.73	0.00
365.92	0.00
366.12	0.00
366.32	0.00
366.52	0.00
366.72	0.00
366.91	0.00
367.11	0.00
367.31	0.00
367.51	0.00
367.70	0.00
367.90	0.00
368.10	0.00
368.30	0.00
368.49	0.00
368.69	0.00
368.89	0.00
369.09	0.00
369.28	0.00
369.48	0.00
369.68	0.00
369.87	0.00
370.07	0.00
370.27	0.00
370.47	0.00
370.66	49.15
370.86	182.56
371.06	114.69
371.25	100.64
371.45	105.32
371.65	95.96
371.84	166.18
372.04	149.79
372.24	166.18
372.44	124.05
372.63	187.24
372.83	217.67
373.03	210.65
373.22	142.77
373.42	154.48
373.62	252.78
373.81	208.31
374.01	222.35
374.21	278.52
374.40	252.78
374.60	259.80
374.79	236.39
374.99	222.35
375.19	266.82
375.38	262.14
375.58	236.39
375.78	203.63
375.97	259.80
376.17	315.97
376.37	205.97
376.56	280.86
376.76	248.10
376.95	217.67
377.15	227.03
377.35	259.80
377.54	264.48
377.74	292.57
377.93	278.52
378.13	280.86
378.33	290.23
378.52	269.16
378.72	229.37
378.91	283.20
379.11	273.84
379.31	266.82
379.50	334.70
379.70	294.91
379.89	280.86
380.09	278.52
380.28	360.44
380.48	276.18
380.68	299.59
380.87	337.04
381.07	266.82
381.26	304.27
381.46	276.18
381.65	313.63
381.85	315.97
382.04	344.06
382.24	388.53
382.43	344.06
382.63	322.99
382.83	320.65
383.02	400.23
383.22	339.38
383.41	388.53
383.61	388.53
383.80	395.55
384.00	388.53
384.19	372.15
384.39	327.68
384.58	318.31
384.78	372.15
384.97	306.61
385.17	468.11
385.36	390.87
385.56	376.83
385.75	447.04
385.95	341.72
386.14	458.74
386.34	348.74
386.53	402.57
386.72	458.74
386.92	440.02
387.11	442.36
387.31	475.13
387.50	435.34
387.70	414.27
387.89	435.34
388.09	428.32
388.28	407.25
388.48	477.47
388.67	500.87
388.86	433.00
389.06	517.26
389.25	470.45
389.45	552.37
389.64	496.19
389.84	500.87
390.03	505.56
390.22	447.04
390.42	430.66
390.61	498.53
390.81	498.53
391.00	477.47
391.19	557.05
391.39	425.98
391.58	517.26
391.78	538.32
391.97	526.62
392.16	526.62
392.36	573.43
392.55	507.90
392.75	594.50
392.94	571.09
393.13	575.77
393.33	554.71
393.52	550.03
393.71	589.82
393.91	526.62
394.10	592.16
394.29	608.54
394.49	458.74
394.68	554.71
394.88	653.01
395.07	606.20
395.26	671.73
395.46	566.41
395.65	613.22
395.84	627.26
396.04	767.70
396.23	648.33
396.42	653.01
396.62	653.01
396.81	657.69
397.00	683.44
397.19	624.92
397.39	620.24
397.58	711.52
397.77	657.69
397.97	690.46
398.16	772.38
398.35	699.82
398.55	716.20
398.74	737.27
398.93	737.27
399.12	699.82
399.32	695.14
399.51	791.10
399.70	739.61
399.90	751.31
400.09	833.23
400.28	889.40
400.47	800.46
400.67	800.46
400.86	856.64
401.05	758.33
401.24	812.17
401.44	877.70
401.63	795.78
401.82	915.15
402.01	781.74
402.21	901.11
402.40	894.08
402.59	880.04
402.78	990.05
402.97	873.02
403.17	828.55
403.36	884.72
403.55	868.34
403.74	1001.75
403.93	959.62
404.13	851.96
404.32	840.25
404.51	947.92
404.70	992.39
404.89	891.74
405.09	999.41
405.28	983.02
405.47	959.62
405.66	1043.88
405.85	1046.22
406.05	994.73
406.24	999.41
406.43	1029.84
406.62	1022.81
406.81	1053.24
407.00	1043.88
407.20	1104.73
407.39	1039.20
407.58	1001.75
407.77	1149.20
407.96	1118.78
408.15	1123.46
408.34	1097.71
408.54	1118.78
408.73	1046.22
408.92	1139.84
409.11	1142.18
409.30	1191.33
409.49	1184.31
409.68	1181.97
409.87	1235.80
410.07	1172.61
410.26	1228.78
410.45	1135.16
410.64	1329.42
410.83	1207.72
411.02	1174.95
411.21	1214.74
411.40	1270.91
411.59	1207.72
411.78	1282.61
411.98	1294.32
412.17	1252.19
412.36	1331.76
412.55	1355.17
412.74	1373.89
412.93	1357.51
413.12	1315.38
413.31	1523.69
413.50	1313.04
413.69	1390.28
413.88	1481.56
414.07	1488.58
414.26	1509.65
414.45	1439.43
414.64	1530.71
414.83	1483.90
415.02	1549.43
415.22	1589.22
415.41	1554.12
415.60	1629.01
415.79	1453.47
415.98	1556.46
416.17	1621.99
416.36	1640.72
416.55	1643.06
416.74	1680.50
416.93	1678.16
417.12	1614.97
417.31	1750.72
417.50	1624.33
417.69	1778.81
417.88	1762.42
418.07	1776.47
418.26	1886.47
418.45	1755.40
418.64	1900.52
418.83	1776.47
419.02	1767.10
419.21	1757.74
419.39	1898.17
419.58	1921.58
419.77	1895.83
419.96	1963.71
420.15	1827.96
420.34	1844.34
420.53	1980.09
420.72	1912.22
420.91	1963.71
421.10	2038.61
421.29	1987.11
421.48	1926.26
421.67	2029.24
421.86	2017.54
422.05	1998.82
422.24	1930.94
422.43	1980.09
422.61	2052.65
422.80	2080.74
422.99	2155.63
423.18	2078.40
423.37	2111.16
423.56	2080.74
423.75	1977.75
423.94	2120.53
424.13	1907.54
424.32	1994.14
424.50	2031.58
424.69	2115.84
424.88	2190.74
425.07	2012.86
425.26	2024.56
425.45	2120.53
425.64	2012.86
425.83	2090.10
426.01	2136.91
426.20	2204.78
426.39	2129.89
426.58	2223.51
426.77	2033.93
426.96	2092.44
427.15	2122.87
427.33	2251.60
427.52	2101.80
427.71	2183.72
427.90	2209.47
428.09	2352.24
428.28	2349.90
428.46	2300.75
428.65	2289.04
428.84	2282.02
429.03	2392.03
429.22	2148.61
429.40	2235.21
429.59	2232.87
429.78	2251.60
429.97	2244.57
430.16	2293.72
430.34	2317.13
430.53	2417.77
430.72	2352.24
430.91	2354.58
431.10	2368.62
431.28	2466.92
431.47	2338.20
431.66	2392.03
431.85	2445.86
432.03	2532.46
432.22	2525.44
432.41	2502.03
432.60	2530.12
432.79	2471.61
432.97	2497.35
433.16	2490.33
433.35	2492.67
433.54	2626.08
433.72	2583.95
433.91	2565.23
434.10	2602.68
434.28	2553.52
434.47	2691.62
434.66	2686.94
434.85	2740.77
435.03	2722.04
435.22	2548.84
435.41	2693.96
435.59	2726.72
435.78	2558.21
435.97	2752.47
436.16	2733.75
436.34	2693.96
436.53	2661.19
436.72	2771.19
436.90	2782.90
437.09	2895.24
437.28	2745.45
437.46	2857.79
437.65	2813.32
437.84	2899.92
438.02	2979.50
438.21	2972.48
438.40	2890.56
438.58	2874.18
438.77	3028.65
438.96	2888.22
439.14	2960.78
439.33	2988.86
439.52	3019.29
439.70	3035.67
439.89	2991.20
440.08	3077.80
440.26	2974.82
440.45	3117.59
440.63	3087.17
440.82	3105.89
441.01	3169.09
441.19	3323.56
441.38	3314.20
441.57	3234.62
441.75	3243.98
441.94	3353.99
442.12	3288.45
442.31	3508.46
442.50	3435.91
442.68	3466.33
442.87	3384.41
443.05	3475.70
443.24	3524.85
443.43	3499.10
443.61	3442.93
443.80	3513.14
443.98	3431.23
444.17	3265.05
444.35	3501.44
444.54	3623.15
444.73	3393.78
444.91	3466.33
445.10	3384.41
445.28	3522.51
445.47	3473.36
445.65	3407.82
445.84	3534.21
446.02	3623.15
446.21	3473.36
446.39	3543.57
446.58	3583.36
446.77	3688.68
446.95	3641.87
447.14	3578.68
447.32	3648.90
447.51	3609.11
447.69	3569.32
447.88	3466.33
448.06	3761.24
448.25	3632.51
448.43	3702.73
448.62	3658.26
448.80	3646.55
448.99	3775.28
449.17	3789.33
449.36	3735.50
449.54	3627.83
449.73	3786.99
449.91	3712.09
450.10	3761.24
450.28	3913.38
450.46	3838.48
450.65	3796.35
450.83	3754.22
451.02	3803.37
451.20	3936.78
451.39	3864.22
451.57	3716.77
451.76	3805.71
451.94	3985.93
452.13	3922.74
452.31	3957.85
452.49	3880.61
452.68	3946.14
452.86	4049.13
453.05	4023.38
453.23	4072.53
453.42	3983.59
453.60	3913.38
453.78	3936.78
453.97	3950.82
454.15	4060.83
454.34	4025.72
454.52	4084.23
454.70	4119.34
454.89	4102.96
455.07	4149.77
455.26	4170.83
455.44	4381.48
455.62	4124.02
455.81	4147.43
455.99	4175.52
456.17	4231.69
456.36	4264.46
456.54	4297.22
456.73	4344.03
456.91	4362.76
457.09	4376.80
457.28	4458.72
457.46	4456.38
457.64	4432.97
457.83	4435.32
458.01	4454.04
458.19	4521.92
458.38	4390.84
458.56	4599.15
458.74	4472.76
458.93	4540.64
459.11	4613.20
459.29	4514.89
459.48	4559.36
459.66	4683.41
459.84	4711.50
460.03	4711.50
460.21	4592.13
460.39	4655.33
460.57	4695.11
460.76	4774.69
460.94	4746.61
461.12	4758.31
461.31	4580.43
461.49	4671.71
461.67	4798.10
461.85	4847.25
462.04	4842.57
462.22	4975.98
462.40	4898.74
462.59	4933.85
462.77	4954.91
462.95	4835.55
463.13	4975.98
463.32	4980.66
463.50	5043.85
463.68	5172.58
463.86	4933.85
464.05	4861.29
464.23	4983.00
464.41	5032.15
464.59	4915.12
464.78	5210.03
464.96	5158.54
465.14	5032.15
465.32	5153.86
465.50	5254.50
465.69	5027.47
465.87	5081.30
466.05	5214.71
466.23	5074.28
466.41	5291.95
466.60	5282.59
466.78	5291.95
466.96	5219.39
467.14	5109.39
467.32	5179.61
467.51	5287.27
467.69	5074.28
467.87	5350.46
468.05	5303.65
468.23	5067.26
468.41	5231.10
468.60	5282.59
468.78	5476.85
468.96	5231.10
469.14	5167.90
469.32	5310.68
469.50	5289.61
469.69	5430.04
469.87	5458.13
470.05	5652.39
470.23	5521.32
470.41	5535.37
470.59	5678.14
470.77	5554.09
470.95	5722.61
471.14	5547.07
471.32	5462.81
471.50	5865.38
471.68	5834.96
471.86	5769.42
472.04	5753.04
472.22	5951.98
472.40	5724.95
472.58	5790.49
472.77	5970.71
472.95	6078.37
473.13	6094.76
473.31	5783.46
473.49	5944.96
473.67	5975.39
473.85	6003.47
474.03	6162.63
474.21	6132.20
474.39	6296.04
474.57	6265.61
474.75	6352.21
474.93	6303.06
475.12	6251.57
475.30	6565.20
475.48	6403.71
475.66	6277.32
475.84	6417.75
476.02	6525.41
476.20	6642.44
476.38	6633.08
476.56	6555.84
476.74	6916.28
476.92	6817.98
477.10	6827.34
477.28	6715.00
477.46	6864.79
477.64	6918.62
477.82	6878.83
478.00	7089.48
478.18	7012.24
478.36	7150.34
478.54	7382.05
478.72	7297.79
478.90	7197.15
479.08	7379.71
479.26	7393.75
479.44	7485.03
479.62	7499.08
479.80	7588.02
479.98	7449.93
480.16	7845.48
480.34	7452.27
480.52	7756.54
480.70	7892.29
480.88	7665.25
481.06	7934.42
481.24	8006.97
481.41	7927.39
481.59	8285.50
481.77	8271.45
481.95	8264.43
482.13	8465.72
482.31	8362.73
482.49	8519.55
482.67	8428.27
482.85	8573.38
483.03	8793.39
483.21	8734.88
483.39	8737.22
483.57	8765.31
483.74	9104.68
483.92	8945.53
484.10	8964.25
484.28	9186.60
484.46	9212.35
484.64	9486.19
484.82	8978.30
485.00	9350.44
485.18	9415.98
485.35	9682.80
485.53	9708.54
485.71	9738.97
485.89	9860.68
486.07	9760.03
486.25	9947.28
486.43	9872.38
486.61	10085.37
486.78	10176.65
486.96	10214.10
487.14	10359.21
487.32	10328.78
487.50	10328.78
487.68	10448.15
487.85	10712.63
488.03	10738.38
488.21	10995.84
488.39	10609.65
488.57	10813.28
488.75	10944.34
488.92	11248.61
489.10	11215.85
489.28	11543.52
489.46	11470.97
489.64	11318.83
489.81	11424.15
489.99	11627.78
490.17	11709.70
490.35	11655.87
490.53	11990.56
490.70	12102.91
490.88	11878.22
491.06	12147.38
491.24	11836.09
491.41	12196.53
491.59	12292.49
491.77	12175.47
491.95	12383.77
492.13	12631.87
492.30	12603.78
492.48	12587.40
492.66	12683.36
492.84	12505.48
493.01	12912.74
493.19	12905.71
493.37	13050.83
493.54	13085.94
493.72	13008.70
493.90	13263.82
494.08	13551.70
494.25	13696.82
494.43	13458.08
494.61	13640.64
494.79	13593.83
494.96	13547.02
495.14	13664.05
495.32	13965.98
495.49	14059.60
495.67	14120.45
495.85	14263.22
496.02	14190.67
496.20	14490.26
496.38	14567.49
496.55	14377.91
496.73	14780.48
496.91	14590.90
497.09	14567.49
497.26	14876.44
497.44	14806.23
497.62	14707.93
497.79	15157.31
497.97	14974.75
498.14	14958.36
498.32	15091.77
498.50	15143.27
498.67	15290.72
498.85	15246.25
499.03	15351.57
499.20	15419.45
499.38	15847.77
499.56	15431.15
499.73	15817.34
499.91	15843.09
500.08	16112.25
500.26	15747.12
500.44	16194.17
500.61	16098.20
500.79	15997.56
500.97	16322.90
501.14	16205.87
501.32	16219.91
501.49	16304.17
501.67	16514.82
501.84	16175.44
502.02	16329.92
502.20	16599.08
502.37	16833.13
502.55	16727.81
502.72	16847.18
502.90	16734.83
503.07	16549.93
503.25	16711.42
503.43	16711.42
503.60	16896.33
503.78	17095.27
503.95	17245.07
504.13	17296.56
504.30	17137.40
504.48	17439.33
504.65	17149.11
504.83	17303.58
505.01	17816.16
505.18	17554.02
505.36	17727.22
505.53	17558.70
505.71	17465.08
505.88	17568.06
506.06	17598.49
506.23	17736.58
506.41	17858.29
506.58	17841.90
506.76	17860.63
506.93	18150.85
507.11	18097.02
507.28	18232.77
507.46	17841.90
507.63	18310.01
507.81	18246.82
507.98	18401.29
508.16	18207.03
508.33	18214.05
508.50	18490.23
508.68	18312.35
508.85	18604.92
509.03	18754.71
509.20	18946.64
509.38	18752.37
509.55	18909.19
509.73	19007.49
509.90	18967.70
510.08	18956.00
510.25	19021.53
510.42	19026.21
510.60	19110.47
510.77	19442.83
510.95	19281.33
511.12	19218.14
511.30	19009.83
511.47	19466.24
511.64	19534.11
511.82	19627.73
511.99	19604.33
512.17	19648.80
512.34	19513.05
512.51	19899.23
512.69	19779.87
512.86	19772.85
513.04	19880.51
513.21	20140.31
513.38	20140.31
513.56	19988.18
513.73	20135.63
513.90	19880.51
514.08	20060.73
514.25	20194.14
514.43	20098.18
514.60	20409.47
514.77	20262.02
514.95	20465.64
515.12	20390.75
515.29	20505.43
515.47	20615.44
515.64	20535.86
515.81	20645.87
515.99	20961.84
516.16	21193.55
516.33	20685.65
516.51	20999.29
516.68	21025.03
516.85	20868.22
517.03	20896.30
517.20	21142.06
517.37	21053.12
517.54	21181.85
517.72	21488.46
517.89	21167.80
518.06	21312.92
518.24	21270.79
518.41	21479.10
518.58	21312.92
518.75	21231.00
518.93	21788.05
519.10	21523.57
519.27	21406.54
519.45	21504.84
519.62	21991.67
519.79	21830.18
519.96	21696.77
520.14	21811.45
520.31	21680.38
520.48	22366.16
520.65	22064.23
520.83	21991.67
521.00	21907.41
521.17	22129.77
521.34	21799.75
521.52	21909.75
521.69	22555.74
521.86	22419.99
522.03	22558.08
522.20	22309.99
522.38	22546.38
522.55	22717.24
522.72	22661.07
522.89	22586.17
523.07	22813.20
523.24	22721.92
523.41	22888.10
523.58	22672.77
523.75	23033.21
523.92	22740.64
524.10	22796.82
524.27	23302.37
524.44	23367.91
524.61	22923.21
524.78	22993.42
524.96	23051.94
525.13	23215.77
525.30	23143.22
525.47	23454.51
525.64	23295.35
525.81	23307.05
525.98	23569.19
526.16	23506.00
526.33	23601.96
526.50	23531.75
526.67	23637.07
526.84	23871.12
527.01	23147.90
527.18	23674.52
527.36	23461.53
527.53	23503.66
527.70	24407.11
527.87	24252.63
528.04	23817.29
528.21	23955.38
528.38	23864.10
528.55	24159.01
528.72	23976.45
528.89	24514.77
529.07	24535.84
529.24	24458.60
529.41	24247.95
529.58	24341.57
529.75	24261.99
529.92	24402.43
530.09	24175.39
530.26	24381.36
530.43	24545.20
530.60	24428.17
530.77	24531.15
530.94	24718.40
531.11	24402.43
531.28	24498.39
531.46	24950.11
531.63	24711.38
531.80	25013.31
531.97	24786.27
532.14	25179.48
532.31	24797.98
532.48	25006.28
532.65	24896.28
532.82	24933.73
532.99	24779.25
533.16	24947.77
533.33	24973.52
533.50	25160.76
533.67	25319.92
533.84	24910.32
534.01	25067.14
534.18	24898.62
534.35	25497.80
534.52	25240.34
534.69	25598.44
534.86	25439.28
535.03	25450.99
535.20	25373.75
535.37	25656.95
535.54	25378.43
535.71	25392.47
535.88	25628.87
536.05	25689.72
536.22	25813.77
536.38	25741.21
536.55	26155.49
536.72	25671.00
536.89	25310.55
537.06	25680.36
537.23	25776.32
537.40	25560.99
537.57	25701.42
537.74	25689.72
537.91	26230.38
538.08	26347.41
538.25	25937.82
538.42	26068.89
538.59	25841.85
538.75	25914.41
538.92	26024.42
539.09	26246.77
539.26	26347.41
539.43	26438.69
539.60	26225.70
539.77	26047.82
539.94	26160.17
540.11	25947.18
540.28	26497.20
540.44	26089.95
540.61	26328.69
540.78	26614.23
540.95	26324.01
541.12	26398.90
541.29	26665.72
541.46	26583.80
541.62	26597.85
541.79	26656.36
541.96	26448.05
542.13	26487.84
542.30	26745.30
542.47	27035.53
542.63	26740.62
542.80	26934.88
542.97	27072.98
543.14	27580.87
543.31	27058.93
543.48	27110.43
543.64	27405.33
543.81	27339.80
543.98	27318.73
544.15	27435.76
544.32	27791.52
544.48	27775.14
544.65	27318.73
544.82	27325.75
544.99	27243.84
545.16	27555.13
545.32	27395.97
545.49	27782.16
545.66	27569.17
545.83	27920.25
546.00	28133.24
546.16	27922.59
546.33	27370.22
546.50	27365.54
546.67	27559.81
546.83	27374.91
547.00	27702.58
547.17	27929.61
547.34	27461.51
547.50	27964.72
547.67	28194.09
547.84	28105.15
548.00	27843.01
548.17	27840.67
548.34	27843.01
548.51	28130.90
548.67	28161.33
548.84	28217.50
549.01	28170.69
549.18	28437.51
549.34	28168.35
549.51	28283.03
549.68	28306.44
549.84	28460.91
550.01	28222.18
550.18	28442.19
550.34	28725.39
550.51	28416.44
550.68	28226.86
550.84	28287.71
551.01	28484.32
551.18	28142.60
551.34	28437.51
551.51	28531.13
551.68	28442.19
551.84	28474.96
552.01	28343.89
552.18	28479.64
552.34	28341.55
552.51	29032.00
552.68	28753.48
552.84	28697.31
553.01	28804.97
553.18	28467.94
553.34	28811.99
553.51	28891.57
553.67	28971.15
553.84	29078.82
554.01	29149.03
554.17	29069.45
554.34	28912.64
554.51	28709.01
554.67	28641.14
554.84	29142.01
555.00	28929.02
555.17	29116.26
555.33	29212.23
555.50	29296.49
555.67	29221.59
555.83	29062.43
556.00	28704.33
556.16	29579.69
556.33	29247.33
556.50	29352.66
556.66	29500.11
556.83	29067.11
556.99	29530.54
557.16	29642.88
557.32	29366.70
557.49	29649.91
557.65	29188.82
557.82	29116.26
557.98	29359.68
558.15	29191.16
558.32	29479.05
558.48	29392.45
558.65	29914.39
558.81	29570.33
558.98	29783.32
559.14	29523.52
559.31	29305.85
559.47	29886.30
559.64	29434.58
559.80	29659.27
559.97	29638.20
560.13	29820.77
560.30	29514.16
560.46	29839.49
560.63	29610.12
560.79	30026.73
560.96	29687.36
561.12	29638.20
561.29	29848.85
561.45	30040.78
561.61	29996.31
561.78	29670.97
561.94	30096.95
562.11	30047.80
562.27	30029.07
562.44	29788.00
562.60	30129.72
562.77	29916.73
562.93	29715.44
563.10	29893.32
563.26	30164.82
563.42	30256.11
563.59	30206.95
563.75	29933.11
563.92	29830.13
564.08	30026.73
564.24	30064.18
564.41	30164.82
564.57	30312.28
564.74	30139.08
564.90	30359.09
565.07	30050.14
565.23	30153.12
565.39	30347.39
565.56	30394.20
565.72	29912.05
565.88	30291.21
566.05	29979.92
566.21	30228.02
566.38	30300.58
566.54	30171.85
566.70	30754.64
566.87	30827.20
567.03	30583.78
567.19	30408.24
567.36	30326.32
567.52	30265.47
567.68	30754.64
567.85	30356.75
568.01	30382.49
568.17	30305.26
568.34	30195.25
568.50	30497.18
568.66	30134.40
568.83	30646.97
568.99	30272.49
569.15	30368.45
569.32	30375.47
569.48	30417.60
569.64	30422.28
569.81	30113.33
569.97	30309.94
570.13	30377.81
570.30	30450.37
570.46	30277.17
570.62	30490.16
570.78	30316.96
570.95	30192.91
571.11	30349.73
571.27	30265.47
571.43	30424.62
571.60	30204.61
571.76	30651.66
571.92	30766.34
572.09	30529.95
572.25	30691.44
572.41	30478.46
572.57	30749.96
572.74	30352.07
572.90	30551.01
573.06	30529.95
573.22	30630.59
573.38	30635.27
573.55	30817.83
573.71	30923.16
573.87	30672.72
574.03	30998.06
574.20	30480.80
574.36	30445.69
574.52	31075.29
574.68	30394.20
574.84	30625.91
575.01	30691.44
575.17	30567.40
575.33	30637.61
575.49	30976.99
575.65	30883.37
575.82	31157.21
575.98	30698.47
576.14	31049.55
576.30	31215.72
576.46	30651.66
576.62	30782.73
576.79	31058.91
576.95	30529.95
577.11	31143.17
577.27	31150.19
577.43	31054.23
577.59	30934.86
577.75	30920.82
577.92	30698.47
578.08	30766.34
578.24	30590.80
578.40	30429.30
578.56	30740.60
578.72	30717.19
578.88	31248.49
579.04	31398.29
579.21	30953.58
579.37	31220.41
579.53	31440.42
579.69	30969.97
579.85	30859.96
580.01	30813.15
580.17	30740.60
580.33	30986.35
580.49	30862.30
580.65	30792.09
580.82	30679.74
580.98	31056.57
581.14	31276.58
581.30	31194.66
581.46	31098.70
581.62	31028.48
581.78	30932.52
581.94	30876.35
582.10	30586.12
582.26	31243.81
582.42	31175.94
582.58	31016.78
582.74	31201.68
582.90	30866.98
583.06	31077.63
583.22	30859.96
583.38	31290.62
583.54	30995.71
583.70	31058.91
583.86	30913.80
584.02	31098.70
584.18	31325.73
584.34	31491.91
584.50	31087.00
584.66	31166.57
584.82	30850.60
584.98	30979.33
585.14	30953.58
585.30	31019.12
585.46	30794.43
585.62	30398.88
585.78	31201.68
585.94	30976.99
586.10	30689.10
586.26	31248.49
586.42	31108.06
586.58	31356.16
586.74	30948.90
586.90	31009.76
587.06	30864.64
587.22	31051.89
587.38	31131.47
587.54	31173.60
587.70	31309.35
587.86	31295.30
588.02	31204.02
588.18	31541.06
588.34	31026.14
588.49	31206.36
588.65	31161.89
588.81	31356.16
588.97	31143.17
589.13	31564.46
589.29	31061.25
589.45	31388.92
589.61	31189.98
589.77	31512.97
589.93	31906.18
590.08	31573.83
590.24	31454.46
590.40	31452.12
590.56	31321.05
590.72	31189.98
590.88	31494.25
591.04	30986.35
591.20	31807.88
591.35	31463.82
591.51	31585.53
591.67	31777.45
591.83	31800.86
