SpectraSuite Data File
++++++++++++++++++++++++++++++++++++
Date: Fri Oct 18 13:58:16 GMT-05:00 2013
User: bianchi
Dark Spectrum Present: No
Reference Spectrum Present: No
Number of Sampled Component Spectra: 1
Spectrometers: USB2+H05261
Integration Time (usec): 50000 (USB2+H05261)
Spectra Averaged: 1 (USB2+H05261)
Boxcar Smoothing: 0 (USB2+H05261)
Correct for Electrical Dark: No (USB2+H05261)
Strobe/Lamp Enabled: No (USB2+H05261)
Correct for Detector Non-linearity: No (USB2+H05261)
Correct for Stray Light: No (USB2+H05261)
Number of Pixels in Processed Spectrum: 2048
>>>>>Begin Processed Spectral Data<<<<<
365.73	0.00
365.92	0.00
366.12	0.00
366.32	0.00
366.52	0.00
366.72	0.00
366.91	0.00
367.11	0.00
367.31	0.00
367.51	0.00
367.70	0.00
367.90	0.00
368.10	0.00
368.30	0.00
368.49	0.00
368.69	0.00
368.89	0.00
369.09	0.00
369.28	0.00
369.48	0.00
369.68	0.00
369.87	0.00
370.07	0.00
370.27	0.00
370.47	0.00
370.66	145.11
370.86	110.01
371.06	166.18
371.25	128.73
371.45	152.13
371.65	196.60
371.84	180.22
372.04	126.39
372.24	114.69
372.44	201.29
372.63	177.88
372.83	234.05
373.03	163.84
373.22	215.33
373.42	170.86
373.62	229.37
373.81	224.69
374.01	227.03
374.21	266.82
374.40	210.65
374.60	184.90
374.79	243.42
374.99	203.63
375.19	196.60
375.38	318.31
375.58	196.60
375.78	276.18
375.97	243.42
376.17	201.29
376.37	231.71
376.56	257.46
376.76	280.86
376.95	255.12
377.15	234.05
377.35	266.82
377.54	203.63
377.74	306.61
377.93	287.89
378.13	308.95
378.33	290.23
378.52	259.80
378.72	304.27
378.91	339.38
379.11	278.52
379.31	311.29
379.50	285.55
379.70	278.52
379.89	355.76
380.09	266.82
380.28	351.08
380.48	297.25
380.68	287.89
380.87	257.46
381.07	353.42
381.26	294.91
381.46	306.61
381.65	234.05
381.85	339.38
382.04	285.55
382.24	339.38
382.43	308.95
382.63	301.93
382.83	365.12
383.02	376.83
383.22	374.49
383.41	344.06
383.61	365.12
383.80	369.80
384.00	301.93
384.19	416.62
384.39	362.78
384.58	428.32
384.78	435.34
384.97	425.98
385.17	362.78
385.36	381.51
385.56	367.46
385.75	346.40
385.95	393.21
386.14	315.97
386.34	444.70
386.53	379.17
386.72	360.44
386.92	416.62
387.11	393.21
387.31	423.64
387.50	402.57
387.70	411.93
387.89	437.68
388.09	360.44
388.28	484.49
388.48	435.34
388.67	383.85
388.86	407.25
389.06	402.57
389.25	423.64
389.45	325.33
389.64	465.77
389.84	479.81
390.03	493.85
390.22	475.13
390.42	383.85
390.61	512.58
390.81	498.53
391.00	496.19
391.19	547.69
391.39	496.19
391.58	433.00
391.78	477.47
391.97	444.70
392.16	486.83
392.36	475.13
392.55	505.56
392.75	535.98
392.94	547.69
393.13	503.22
393.33	585.13
393.52	498.53
393.71	580.45
393.91	575.77
394.10	575.77
394.29	564.07
394.49	622.58
394.68	554.71
394.88	601.52
395.07	636.63
395.26	615.56
395.46	578.11
395.65	645.99
395.84	575.77
396.04	592.16
396.23	631.94
396.42	629.60
396.62	653.01
396.81	578.11
397.00	706.84
397.19	634.29
397.39	624.92
397.58	690.46
397.77	634.29
397.97	732.59
398.16	648.33
398.35	692.80
398.55	648.33
398.74	580.45
398.93	725.57
399.12	725.57
399.32	690.46
399.51	767.70
399.70	741.95
399.90	748.97
400.09	755.99
400.28	777.06
400.47	702.16
400.67	812.17
400.86	765.36
401.05	847.27
401.24	844.93
401.44	795.78
401.63	826.21
401.82	800.46
402.01	784.08
402.21	793.44
402.40	842.59
402.59	781.74
402.78	910.47
402.97	898.77
403.17	765.36
403.36	777.06
403.55	833.23
403.74	873.02
403.93	844.93
404.13	912.81
404.32	858.98
404.51	887.06
404.70	919.83
404.89	950.26
405.09	933.87
405.28	912.81
405.47	903.45
405.66	861.32
405.85	1022.81
406.05	938.55
406.24	950.26
406.43	1013.45
406.62	1057.92
406.81	1055.58
407.00	1029.84
407.20	945.58
407.39	1001.75
407.58	1048.56
407.77	973.66
407.96	1067.28
408.15	997.07
408.34	1095.37
408.54	1135.16
408.73	1046.22
408.92	1149.20
409.11	1107.07
409.30	1142.18
409.49	1135.16
409.68	1132.82
409.87	1146.86
410.07	1210.06
410.26	1228.78
410.45	1240.48
410.64	1135.16
410.83	1238.14
411.02	1266.23
411.21	1158.57
411.40	1198.35
411.59	1287.29
411.78	1198.35
411.98	1238.14
412.17	1196.01
412.36	1261.55
412.55	1249.85
412.74	1308.36
412.93	1383.26
413.12	1270.91
413.31	1392.62
413.50	1378.58
413.69	1437.09
413.88	1500.28
414.07	1399.64
414.26	1423.05
414.45	1413.68
414.64	1481.56
414.83	1490.92
415.02	1521.35
415.22	1547.09
415.41	1568.16
415.60	1586.88
415.79	1561.14
415.98	1568.16
416.17	1577.52
416.36	1582.20
416.55	1640.72
416.74	1570.50
416.93	1734.34
417.12	1666.46
417.31	1547.09
417.50	1727.32
417.69	1830.30
417.88	1750.72
418.07	1736.68
418.26	1671.14
418.45	1708.59
418.64	1849.02
418.83	1816.26
419.02	1844.34
419.21	1877.11
419.39	1860.73
419.58	1844.34
419.77	1764.76
419.96	1923.92
420.15	1839.66
420.34	1944.99
420.53	1909.88
420.72	1863.07
420.91	1872.43
421.10	1998.82
421.29	1940.30
421.48	1865.41
421.67	2040.95
421.86	2010.52
422.05	1881.79
422.24	1900.52
422.43	1884.13
422.61	2003.50
422.80	1987.11
422.99	1973.07
423.18	2010.52
423.37	2113.50
423.56	2045.63
423.75	1961.37
423.94	1975.41
424.13	1802.21
424.32	1837.32
424.50	2008.18
424.69	1966.05
424.88	1977.75
425.07	1987.11
425.26	2005.84
425.45	1996.48
425.64	2064.35
425.83	1907.54
426.01	2083.08
426.20	1987.11
426.39	2029.24
426.58	1984.77
426.77	2010.52
426.96	2136.91
427.15	2136.91
427.33	2078.40
427.52	2076.06
427.71	2132.23
427.90	2134.57
428.09	2047.97
428.28	2186.06
428.46	2223.51
428.65	2167.34
428.84	2246.91
429.03	2263.30
429.22	2228.19
429.40	2179.04
429.59	2148.61
429.78	2111.16
429.97	2134.57
430.16	2153.29
430.34	2319.47
430.53	2218.83
430.72	2150.95
430.91	2275.00
431.10	2300.75
431.28	2427.14
431.47	2303.09
431.66	2375.64
431.85	2326.49
432.03	2406.07
432.22	2389.69
432.41	2427.14
432.60	2445.86
432.79	2377.98
432.97	2413.09
433.16	2464.58
433.35	2382.67
433.54	2436.50
433.72	2504.37
433.91	2438.84
434.10	2464.58
434.28	2450.54
434.47	2485.65
434.66	2630.76
434.85	2630.76
435.03	2560.55
435.22	2523.10
435.41	2612.04
435.59	2647.15
435.78	2628.42
435.97	2619.06
436.16	2635.44
436.34	2635.44
436.53	2649.49
436.72	2712.68
436.90	2656.51
437.09	2803.96
437.28	2705.66
437.46	2658.85
437.65	2829.71
437.84	2775.88
438.02	2848.43
438.21	2841.41
438.40	2733.75
438.58	2843.75
438.77	2789.92
438.96	2810.98
439.14	2771.19
439.33	2906.95
439.52	3033.33
439.70	2951.42
439.89	3047.38
440.08	3009.93
440.26	3164.40
440.45	3117.59
440.63	3101.21
440.82	3197.17
441.01	3180.79
441.19	3131.64
441.38	3150.36
441.57	3155.04
441.75	3185.47
441.94	3274.41
442.12	3300.16
442.31	3372.71
442.50	3171.43
442.68	3283.77
442.87	3288.45
443.05	3265.05
443.24	3351.65
443.43	3302.50
443.61	3272.07
443.80	3494.42
443.98	3253.34
444.17	3218.24
444.35	3398.46
444.54	3463.99
444.73	3447.61
444.91	3377.39
445.10	3346.97
445.28	3316.54
445.47	3368.03
445.65	3473.36
445.84	3372.71
446.02	3389.10
446.21	3550.59
446.39	3459.31
446.58	3510.80
446.77	3421.86
446.95	3424.20
447.14	3442.93
447.32	3506.12
447.51	3339.94
447.69	3393.78
447.88	3510.80
448.06	3482.72
448.25	3391.44
448.43	3384.41
448.62	3578.68
448.80	3400.80
448.99	3529.53
449.17	3646.55
449.36	3466.33
449.54	3674.64
449.73	3763.58
449.91	3590.38
450.10	3569.32
450.28	3777.62
450.46	3611.45
450.65	3681.66
450.83	3735.50
451.02	3826.78
451.20	3794.01
451.39	3889.97
451.57	3602.08
451.76	3702.73
451.94	3634.85
452.13	3812.73
452.31	3768.26
452.49	3845.50
452.68	3889.97
452.86	3819.75
453.05	3859.54
453.23	3990.61
453.42	3969.55
453.60	3906.35
453.78	3934.44
453.97	3843.16
454.15	3824.44
454.34	3985.93
454.52	3997.64
454.70	4023.38
454.89	4065.51
455.07	4114.66
455.26	3939.12
455.44	4177.86
455.62	4028.06
455.81	4039.76
455.99	4191.90
456.17	4187.22
456.36	4119.34
456.54	4126.36
456.73	4217.65
456.91	4266.80
457.09	4241.05
457.28	4332.33
457.46	4208.28
457.64	4404.89
457.83	4311.27
458.01	4180.20
458.19	4301.90
458.38	4283.18
458.56	4554.68
458.74	4341.69
458.93	4400.21
459.11	4428.29
459.29	4421.27
459.48	4400.21
459.66	4442.34
459.84	4449.36
460.03	4643.62
460.21	4493.83
460.39	4589.79
460.57	4498.51
460.76	4484.47
460.94	4561.70
461.12	4594.47
461.31	4430.63
461.49	4629.58
461.67	4451.70
461.85	4758.31
462.04	4655.33
462.22	4919.81
462.40	4685.75
462.59	4723.20
462.77	4664.69
462.95	4681.07
463.13	4713.84
463.32	4835.55
463.50	4746.61
463.68	4856.61
463.86	4770.01
464.05	4751.29
464.23	4891.72
464.41	4919.81
464.59	4770.01
464.78	4779.37
464.96	4823.84
465.14	4840.23
465.32	4929.17
465.50	4957.25
465.69	4938.53
465.87	5001.72
466.05	4896.40
466.23	4964.28
466.41	4919.81
466.60	4980.66
466.78	5020.45
466.96	4933.85
467.14	5004.07
467.32	4926.83
467.51	4957.25
467.69	4922.15
467.87	5093.01
468.05	5263.86
468.23	5039.17
468.41	5195.99
468.60	5123.43
468.78	5355.15
468.96	5172.58
469.14	5369.19
469.32	5352.81
469.50	5116.41
469.69	5289.61
469.87	5439.40
470.05	5404.30
470.23	5497.92
470.41	5327.06
470.59	5416.00
470.77	5411.32
470.95	5378.55
471.14	5582.18
471.32	5420.68
471.50	5643.03
471.68	5589.20
471.86	5671.12
472.04	5715.59
472.22	5696.86
472.40	5666.44
472.58	5598.56
472.77	5654.73
472.95	5797.51
473.13	5984.75
473.31	5893.47
473.49	5710.91
473.67	5926.24
473.85	5895.81
474.03	5907.51
474.21	5900.49
474.39	5916.87
474.57	6061.99
474.75	6171.99
474.93	6223.48
475.12	5996.45
475.30	6164.97
475.48	6230.51
475.66	6256.25
475.84	6263.27
476.02	6307.74
476.20	6333.49
476.38	6317.11
476.56	6473.92
476.74	6553.50
476.92	6417.75
477.10	6431.79
477.28	6560.52
477.46	6462.22
477.64	6537.12
477.82	6658.82
478.00	6813.30
478.18	7059.06
478.36	6944.37
478.54	7040.33
478.72	6883.52
478.90	7091.82
479.08	7213.53
479.26	7155.02
479.44	7211.19
479.62	7239.28
479.80	7194.81
479.98	7262.68
480.16	7538.87
480.34	7466.31
480.52	7557.59
480.70	7758.88
480.88	7534.18
481.06	7803.35
481.24	7592.70
481.41	7737.81
481.59	8016.33
481.77	7946.12
481.95	7892.29
482.13	8016.33
482.31	7831.43
482.49	8175.49
482.67	8325.29
482.85	8383.80
483.03	8369.76
483.21	8353.37
483.39	8496.14
483.57	8709.13
483.74	8620.19
483.92	8762.97
484.10	8688.07
484.28	8847.22
484.46	9100.00
484.64	9207.67
484.82	8856.59
485.00	9022.77
485.18	9263.84
485.35	9320.01
485.53	9338.74
485.71	9415.98
485.89	9577.47
486.07	9540.02
486.25	9589.17
486.43	9741.31
486.61	9607.90
486.78	9774.08
486.96	9867.70
487.14	9991.75
487.32	10022.17
487.50	10160.27
487.68	10300.70
487.85	10277.29
488.03	10223.46
488.21	10574.54
488.39	10459.85
488.57	10792.21
488.75	10705.61
488.92	10712.63
489.10	10775.83
489.28	10832.00
489.46	10986.47
489.64	11129.25
489.81	11274.36
489.99	11267.34
490.17	11087.12
490.35	11396.07
490.53	11485.01
490.70	11679.27
490.88	11545.86
491.06	11805.66
491.24	11899.28
491.41	11723.74
491.59	11950.78
491.77	11840.77
491.95	12025.67
492.13	12042.06
492.30	12257.39
492.48	12386.12
492.66	12046.74
492.84	12360.37
493.01	12348.67
493.19	12369.73
493.37	12655.28
493.54	12657.62
493.72	12734.85
493.90	12681.02
494.08	12765.28
494.25	12954.87
494.43	13062.53
494.61	13603.19
494.79	13303.60
494.96	13331.69
495.14	13259.13
495.32	13504.89
495.49	13504.89
495.67	13729.58
495.85	13577.45
496.02	13881.72
496.20	13879.38
496.38	14061.94
496.55	13802.14
496.73	14031.51
496.91	13973.00
497.09	14335.78
497.26	14370.89
497.44	14052.58
497.62	14146.20
497.79	14649.41
497.97	14356.85
498.14	14487.92
498.32	14670.48
498.50	14504.30
498.67	14731.33
498.85	14586.22
499.03	14932.62
499.20	14705.59
499.38	14864.74
499.56	15129.22
499.73	15047.30
499.91	15145.61
500.08	15356.25
500.26	15173.69
500.44	15307.10
500.61	15154.97
500.79	15508.39
500.97	15386.68
501.14	15927.35
501.32	16049.05
501.49	15873.51
501.67	15564.56
501.84	15805.64
502.02	15580.95
502.20	15882.88
502.37	16299.49
502.55	15906.28
502.72	16528.86
502.90	16252.68
503.07	16154.38
503.25	16271.40
503.43	16081.82
503.60	16346.30
503.78	16657.59
503.95	16423.54
504.13	16437.58
504.30	16332.26
504.48	16484.39
504.65	16521.84
504.83	16938.46
505.01	17099.95
505.18	17041.44
505.36	16901.01
505.53	16837.81
505.71	17275.49
505.88	16985.27
506.06	17085.91
506.23	17121.02
506.41	17291.88
506.58	17209.96
506.76	17465.08
506.93	17458.06
507.11	17413.59
507.28	17511.89
507.46	17722.54
507.63	17600.83
507.81	17731.90
507.98	17479.12
508.16	17528.27
508.33	17720.20
508.50	17668.70
508.68	18001.06
508.85	17956.59
509.03	17792.75
509.20	18092.34
509.38	18031.49
509.55	17958.93
509.73	18221.07
509.90	18310.01
510.08	18017.44
510.25	18092.34
510.42	18424.70
510.60	18277.24
510.77	18466.83
510.95	18633.00
511.12	18633.00
511.30	18537.04
511.47	18586.19
511.64	18967.70
511.82	19040.26
511.99	18782.80
512.17	19087.07
512.34	18963.02
512.51	18934.93
512.69	19208.78
512.86	19089.41
513.04	19529.43
513.21	19239.20
513.38	19506.02
513.56	19688.59
513.73	19103.45
513.90	19356.23
514.08	19314.10
514.25	19555.18
514.43	19763.48
514.60	19721.35
514.77	19594.96
514.95	19906.26
515.12	19616.03
515.29	19726.04
515.47	19829.02
515.64	20042.01
515.81	19651.14
515.99	20046.69
516.16	20301.81
516.33	20105.20
516.51	20056.05
516.68	20123.93
516.85	20030.30
517.03	20215.21
517.20	20580.33
517.37	20510.11
517.54	20521.82
517.72	20519.48
517.89	20627.14
518.06	20320.53
518.24	20512.46
518.41	20655.23
518.58	20264.36
518.75	21050.78
518.93	20615.44
519.10	20711.40
519.27	20879.92
519.45	20858.85
519.62	20870.56
519.79	20924.39
519.96	20795.66
520.14	21385.47
520.31	21256.75
520.48	21287.17
520.65	21181.85
520.83	21415.90
521.00	21413.56
521.17	21015.67
521.34	21366.75
521.52	21530.59
521.69	21441.65
521.86	21458.03
522.03	21352.71
522.20	21685.06
522.38	21568.04
522.55	21717.83
522.72	21881.67
522.89	21638.25
523.07	22230.41
523.24	22249.13
523.41	22029.12
523.58	21902.73
523.75	22015.08
523.92	22017.42
524.10	22010.40
524.27	21991.67
524.44	22286.58
524.61	22466.80
524.78	22661.07
524.96	22380.20
525.13	22242.11
525.30	22537.02
525.47	22471.48
525.64	22445.74
525.81	22845.97
525.98	22508.93
526.16	22651.70
526.33	22504.25
526.50	22668.09
526.67	22267.86
526.84	22869.37
527.01	22841.29
527.18	23051.94
527.36	22738.30
527.53	22747.67
527.70	23140.88
527.87	23241.52
528.04	22892.78
528.21	23007.47
528.38	23035.55
528.55	23281.31
528.72	22773.41
528.89	23337.48
529.07	23257.90
529.24	23297.69
529.41	23367.91
529.58	23180.67
529.75	23541.11
529.92	22986.40
530.09	23274.29
530.26	23630.05
530.43	23573.88
530.60	23630.05
530.77	23491.96
530.94	23709.63
531.11	23372.59
531.28	23744.73
531.46	23527.06
531.63	23754.10
531.80	23726.01
531.97	23857.08
532.14	23903.89
532.31	23669.84
532.48	23981.13
532.65	23821.97
532.82	23971.77
532.99	23878.15
533.16	24226.89
533.33	24149.65
533.50	24243.27
533.67	23941.34
533.84	24067.73
534.01	24187.10
534.18	23857.08
534.35	24563.92
534.52	24299.44
534.69	24613.07
534.86	24393.06
535.03	24184.76
535.20	24657.54
535.37	24716.06
535.54	24379.02
535.71	24254.97
535.88	24620.10
536.05	24596.69
536.22	24868.19
536.38	24844.79
536.55	25015.65
536.72	24697.33
536.89	24816.70
537.06	24779.25
537.23	25062.46
537.40	24489.03
537.57	24978.20
537.74	24727.76
537.91	25010.96
538.08	25219.27
538.25	24793.29
538.42	25195.87
538.59	25242.68
538.75	24912.66
538.92	25127.99
539.09	25443.96
539.26	25167.78
539.43	25036.71
539.60	25605.46
539.77	25291.83
539.94	25654.61
540.11	25170.12
540.28	24896.28
540.44	25378.43
540.61	25336.30
540.78	25284.81
540.95	25156.08
541.12	25701.42
541.29	25584.40
541.46	25621.84
541.62	25532.90
541.79	25743.55
541.96	25579.71
542.13	25603.12
542.30	25998.67
542.47	26288.90
542.63	26181.23
542.80	26143.78
542.97	26209.32
543.14	26394.22
543.31	26155.49
543.48	26319.32
543.64	26398.90
543.81	26221.02
543.98	26675.09
544.15	26251.45
544.32	26677.43
544.48	26405.92
544.65	26349.75
544.82	26331.03
544.99	26096.97
545.16	26644.66
545.32	26384.86
545.49	26696.15
545.66	26586.15
545.83	26590.83
546.00	26764.03
546.16	26581.46
546.33	26368.48
546.50	26403.58
546.67	26890.41
546.83	26438.69
547.00	26817.86
547.17	26663.38
547.34	26911.48
547.50	26780.41
547.67	27117.45
547.84	26661.04
548.00	27161.92
548.17	27037.87
548.34	26721.90
548.51	27061.27
548.67	27042.55
548.84	27185.32
549.01	27068.30
549.18	27318.73
549.34	27042.55
549.51	27220.43
549.68	27398.31
549.84	27527.04
550.01	27166.60
550.18	27250.86
550.34	27325.75
550.51	27386.61
550.68	27353.84
550.84	27386.61
551.01	27227.45
551.18	27087.02
551.34	27091.70
551.51	27475.55
551.68	27758.75
551.84	27562.15
552.01	27419.38
552.18	27590.24
552.34	27503.64
552.51	27821.95
552.68	27562.15
552.84	27414.69
553.01	27412.35
553.18	27150.21
553.34	27833.65
553.51	27573.85
553.67	27388.95
553.84	27707.26
554.01	27938.97
554.17	28308.78
554.34	27922.59
554.51	27615.98
554.67	27962.38
554.84	28114.52
555.00	27782.16
555.17	27693.22
555.33	28041.96
555.50	27927.27
555.67	28320.48
555.83	27960.04
556.00	28205.80
556.16	28259.63
556.33	28025.57
556.50	28245.58
556.66	28158.99
556.83	28285.37
556.99	28554.54
557.16	28477.30
557.32	28751.14
557.49	28411.76
557.65	28191.75
557.82	28201.11
557.98	28074.73
558.15	28542.83
558.32	28374.31
558.48	28119.20
558.65	28379.00
558.81	28428.15
558.98	28889.23
559.14	28521.77
559.31	28212.82
559.47	28301.76
559.64	28652.84
559.80	28566.24
559.97	28397.72
560.13	28343.89
560.30	28493.68
560.46	28596.67
560.63	28493.68
560.79	28786.25
560.96	28489.00
561.12	28397.72
561.29	28650.50
561.45	28264.31
561.61	28547.51
561.78	28711.35
561.94	28718.37
562.11	28893.91
562.27	28811.99
562.44	28781.57
562.60	28655.18
562.77	28973.49
562.93	28566.24
563.10	29053.07
563.26	28779.23
563.42	28767.52
563.59	28734.76
563.75	29055.41
563.92	29076.48
564.08	28493.68
564.24	28926.68
564.41	28823.70
564.57	29003.92
564.74	28924.34
564.90	29003.92
565.07	28936.04
565.23	29301.17
565.39	28952.43
565.56	29032.00
565.72	28889.23
565.88	29032.00
566.05	28842.42
566.21	29003.92
566.38	28701.99
566.54	29163.08
566.70	29436.92
566.87	29284.78
567.03	29411.17
567.19	29078.82
567.36	29214.57
567.52	29193.50
567.68	28896.25
567.85	29099.88
568.01	29472.03
568.17	29085.84
568.34	28865.83
568.50	29333.93
568.66	29490.75
568.83	29677.99
568.99	28966.47
569.15	29387.77
569.32	29350.32
569.48	29085.84
569.64	29575.01
569.81	29149.03
569.97	29577.35
570.13	29315.21
570.30	29228.61
570.46	29420.53
570.62	29174.78
570.78	29233.29
570.95	29139.67
571.11	29347.98
571.27	29006.26
571.43	28833.06
571.60	29287.12
571.76	29460.32
571.92	29420.53
572.09	29413.51
572.25	29441.60
572.41	29591.39
572.57	29528.20
572.74	29677.99
572.90	29486.07
573.06	29355.00
573.22	29661.61
573.38	29305.85
573.55	29385.43
573.71	29759.91
573.87	29497.77
574.03	29429.90
574.20	29706.08
574.36	29095.20
574.52	29294.14
574.68	29619.48
574.84	28943.06
575.01	29551.60
575.17	29771.61
575.33	29336.27
575.49	29209.89
575.65	29823.11
575.82	29628.84
575.98	29511.81
576.14	29862.90
576.30	29186.48
576.46	29694.38
576.62	29776.30
576.79	29500.11
576.95	29347.98
577.11	29617.14
577.27	29790.34
577.43	29549.26
577.59	29441.60
577.75	29640.54
577.92	29326.91
578.08	29212.23
578.24	29528.20
578.40	29518.84
578.56	29848.85
578.72	29916.73
578.88	29872.26
579.04	29912.05
579.21	29876.94
579.37	29420.53
579.53	29500.11
579.69	29483.73
579.85	29392.45
580.01	29390.11
580.17	29701.40
580.33	29137.33
580.49	29958.86
580.65	29816.08
580.82	29586.71
580.98	29785.66
581.14	29860.55
581.30	29656.93
581.46	29853.53
581.62	29617.14
581.78	29668.63
581.94	29720.12
582.10	29479.05
582.26	29582.03
582.42	29612.46
582.58	29888.64
582.74	29907.37
582.90	29752.89
583.06	29893.32
583.22	29764.59
583.38	29359.68
583.54	29378.40
583.70	29633.52
583.86	29799.70
584.02	29759.91
584.18	30377.81
584.34	30000.99
584.50	29844.17
584.66	29617.14
584.82	29661.61
584.98	29731.83
585.14	29738.85
585.30	29439.26
585.46	29523.52
585.62	29703.74
585.78	29956.52
585.94	29343.30
586.10	30031.41
586.26	29813.74
586.42	29919.07
586.58	29654.59
586.74	29989.28
586.90	29839.49
587.06	29390.11
587.22	29584.37
587.38	29481.39
587.54	29748.21
587.70	30134.40
587.86	29921.41
588.02	30216.32
588.18	30061.84
588.34	29991.62
588.49	29729.48
588.65	29673.31
588.81	29797.36
588.97	30003.33
589.13	30031.41
589.29	29745.87
589.45	29944.81
589.61	30033.75
589.77	30148.44
589.93	30164.82
590.08	30359.09
590.24	30235.04
590.40	30211.64
590.56	30162.48
590.72	30108.65
590.88	29717.78
591.04	29993.97
591.20	30361.43
591.35	30448.03
591.51	30403.56
591.67	30153.12
591.83	30237.38
591.99	30309.94
