SpectraSuite Data File
++++++++++++++++++++++++++++++++++++
Date: Fri Oct 18 13:58:43 GMT-05:00 2013
User: bianchi
Dark Spectrum Present: No
Reference Spectrum Present: No
Number of Sampled Component Spectra: 1
Spectrometers: USB2+H05261
Integration Time (usec): 50000 (USB2+H05261)
Spectra Averaged: 1 (USB2+H05261)
Boxcar Smoothing: 0 (USB2+H05261)
Correct for Electrical Dark: No (USB2+H05261)
Strobe/Lamp Enabled: No (USB2+H05261)
Correct for Detector Non-linearity: No (USB2+H05261)
Correct for Stray Light: No (USB2+H05261)
Number of Pixels in Processed Spectrum: 2048
>>>>>Begin Processed Spectral Data<<<<<
365.73	0.00
365.92	0.00
366.12	0.00
366.32	0.00
366.52	0.00
366.72	0.00
366.91	0.00
367.11	0.00
367.31	0.00
367.51	0.00
367.70	0.00
367.90	0.00
368.10	0.00
368.30	0.00
368.49	0.00
368.69	0.00
368.89	0.00
369.09	0.00
369.28	0.00
369.48	0.00
369.68	0.00
369.87	0.00
370.07	0.00
370.27	0.00
370.47	0.00
370.66	100.64
370.86	117.03
371.06	112.35
371.25	88.94
371.45	100.64
371.65	102.98
371.84	154.48
372.04	126.39
372.24	163.84
372.44	126.39
372.63	229.37
372.83	182.56
373.03	198.95
373.22	222.35
373.42	203.63
373.62	227.03
373.81	241.08
374.01	196.60
374.21	217.67
374.40	205.97
374.60	224.69
374.79	187.24
374.99	182.56
375.19	215.33
375.38	294.91
375.58	203.63
375.78	264.48
375.97	210.65
376.17	255.12
376.37	308.95
376.56	262.14
376.76	210.65
376.95	325.33
377.15	245.76
377.35	304.27
377.54	248.10
377.74	280.86
377.93	248.10
378.13	271.50
378.33	280.86
378.52	241.08
378.72	203.63
378.91	285.55
379.11	304.27
379.31	203.63
379.50	294.91
379.70	330.02
379.89	346.40
380.09	330.02
380.28	215.33
380.48	332.36
380.68	273.84
380.87	334.70
381.07	266.82
381.26	292.57
381.46	341.72
381.65	332.36
381.85	348.74
382.04	334.70
382.24	257.46
382.43	280.86
382.63	360.44
382.83	330.02
383.02	346.40
383.22	465.77
383.41	386.19
383.61	355.76
383.80	322.99
384.00	353.42
384.19	414.27
384.39	372.15
384.58	362.78
384.78	374.49
384.97	444.70
385.17	348.74
385.36	376.83
385.56	425.98
385.75	369.80
385.95	381.51
386.14	353.42
386.34	367.46
386.53	365.12
386.72	409.59
386.92	477.47
387.11	484.49
387.31	437.68
387.50	491.51
387.70	423.64
387.89	407.25
388.09	404.91
388.28	477.47
388.48	425.98
388.67	514.92
388.86	472.79
389.06	435.34
389.25	493.85
389.45	423.64
389.64	512.58
389.84	456.40
390.03	437.68
390.22	433.00
390.42	425.98
390.61	463.43
390.81	486.83
391.00	442.36
391.19	475.13
391.39	458.74
391.58	437.68
391.78	538.32
391.97	526.62
392.16	547.69
392.36	538.32
392.55	585.13
392.75	479.81
392.94	557.05
393.13	503.22
393.33	601.52
393.52	538.32
393.71	631.94
393.91	545.34
394.10	585.13
394.29	564.07
394.49	559.39
394.68	552.37
394.88	592.16
395.07	653.01
395.26	674.07
395.46	587.47
395.65	657.69
395.84	629.60
396.04	683.44
396.23	660.03
396.42	615.56
396.62	631.94
396.81	716.20
397.00	667.05
397.19	596.84
397.39	641.31
397.58	638.97
397.77	702.16
397.97	615.56
398.16	706.84
398.35	788.76
398.55	674.07
398.74	713.86
398.93	755.99
399.12	723.23
399.32	641.31
399.51	671.73
399.70	688.12
399.90	758.33
400.09	758.33
400.28	772.38
400.47	755.99
400.67	734.93
400.86	751.31
401.05	725.57
401.24	734.93
401.44	704.50
401.63	800.46
401.82	781.74
402.01	802.80
402.21	798.12
402.40	873.02
402.59	802.80
402.78	793.44
402.97	814.51
403.17	791.10
403.36	746.63
403.55	837.91
403.74	891.74
403.93	936.21
404.13	912.81
404.32	847.27
404.51	894.08
404.70	968.98
404.89	856.64
405.09	945.58
405.28	908.13
405.47	901.11
405.66	851.96
405.85	915.15
406.05	997.07
406.24	968.98
406.43	950.26
406.62	901.11
406.81	980.68
407.00	964.30
407.20	866.00
407.39	1020.47
407.58	1018.13
407.77	1041.54
407.96	1034.52
408.15	1004.09
408.34	1116.44
408.54	1074.31
408.73	1083.67
408.92	1071.97
409.11	1071.97
409.30	964.30
409.49	1128.14
409.68	1100.05
409.87	1158.57
410.07	1121.12
410.26	1210.06
410.45	1116.44
410.64	1174.95
410.83	1116.44
411.02	1207.72
411.21	1203.04
411.40	1174.95
411.59	1233.46
411.78	1224.10
411.98	1263.89
412.17	1301.34
412.36	1282.61
412.55	1266.23
412.74	1247.51
412.93	1373.89
413.12	1411.34
413.31	1425.39
413.50	1362.19
413.69	1371.55
413.88	1409.00
414.07	1378.58
414.26	1441.77
414.45	1500.28
414.64	1401.98
414.83	1561.14
415.02	1409.00
415.22	1476.88
415.41	1572.84
415.60	1460.49
415.79	1526.03
415.98	1561.14
416.17	1596.25
416.36	1561.14
416.55	1673.48
416.74	1652.42
416.93	1661.78
417.12	1717.95
417.31	1607.95
417.50	1755.40
417.69	1760.08
417.88	1696.89
418.07	1710.93
418.26	1589.22
418.45	1743.70
418.64	1818.60
418.83	1755.40
419.02	1666.46
419.21	1886.47
419.39	1827.96
419.58	1746.04
419.77	1802.21
419.96	1858.39
420.15	1809.23
420.34	1771.79
420.53	1816.26
420.72	1921.58
420.91	1963.71
421.10	1884.13
421.29	1928.60
421.48	1764.76
421.67	1909.88
421.86	1984.77
422.05	1956.69
422.24	1998.82
422.43	1928.60
422.61	1975.41
422.80	1963.71
422.99	1996.48
423.18	1982.43
423.37	2031.58
423.56	2001.16
423.75	1923.92
423.94	1956.69
424.13	1874.77
424.32	1923.92
424.50	1998.82
424.69	2052.65
424.88	1982.43
425.07	2073.71
425.26	2050.31
425.45	2092.44
425.64	2085.42
425.83	1970.73
426.01	2040.95
426.20	2019.88
426.39	1975.41
426.58	2026.90
426.77	2052.65
426.96	2097.12
427.15	2062.01
427.33	2071.37
427.52	2148.61
427.71	2106.48
427.90	2167.34
428.09	2045.63
428.28	2169.68
428.46	2146.27
428.65	2165.00
428.84	2179.04
429.03	2200.10
429.22	2127.55
429.40	2183.72
429.59	2211.81
429.78	2087.76
429.97	2153.29
430.16	2190.74
430.34	2422.45
430.53	2310.11
430.72	2385.01
430.91	2403.73
431.10	2324.15
431.28	2385.01
431.47	2312.45
431.66	2333.51
431.85	2417.77
432.03	2345.22
432.22	2483.31
432.41	2356.92
432.60	2342.88
432.79	2403.73
432.97	2366.28
433.16	2410.75
433.35	2382.67
433.54	2317.13
433.72	2485.65
433.91	2504.37
434.10	2495.01
434.28	2436.50
434.47	2422.45
434.66	2513.74
434.85	2663.53
435.03	2541.82
435.22	2548.84
435.41	2616.72
435.59	2455.22
435.78	2729.06
435.97	2722.04
436.16	2759.49
436.34	2675.23
436.53	2698.64
436.72	2738.43
436.90	2621.40
437.09	2693.96
437.28	2628.42
437.46	2658.85
437.65	2750.13
437.84	2733.75
438.02	2787.58
438.21	2729.06
438.40	2696.30
438.58	2836.73
438.77	2829.71
438.96	2757.15
439.14	2923.33
439.33	2965.46
439.52	2956.10
439.70	2970.14
439.89	2946.73
440.08	2897.58
440.26	3021.63
440.45	3075.46
440.63	3124.62
440.82	3054.40
441.01	3054.40
441.19	3265.05
441.38	3124.62
441.57	3236.96
441.75	3213.56
441.94	3204.19
442.12	3286.11
442.31	3368.03
442.50	3211.22
442.68	3358.67
442.87	3272.07
443.05	3335.26
443.24	3314.20
443.43	3283.77
443.61	3183.13
443.80	3372.71
443.98	3428.88
444.17	3246.32
444.35	3459.31
444.54	3461.65
444.73	3349.31
444.91	3370.37
445.10	3384.41
445.28	3351.65
445.47	3433.57
445.65	3365.69
445.84	3461.65
446.02	3421.86
446.21	3391.44
446.39	3386.76
446.58	3527.19
446.77	3487.40
446.95	3363.35
447.14	3473.36
447.32	3578.68
447.51	3571.66
447.69	3407.82
447.88	3480.38
448.06	3438.25
448.25	3520.17
448.43	3503.78
448.62	3328.24
448.80	3391.44
448.99	3611.45
449.17	3644.21
449.36	3550.59
449.54	3571.66
449.73	3758.90
449.91	3721.45
450.10	3721.45
450.28	3740.18
450.46	3574.00
450.65	3744.86
450.83	3667.62
451.02	3702.73
451.20	3801.03
451.39	3857.20
451.57	3857.20
451.76	3723.79
451.94	3796.35
452.13	3927.42
452.31	3873.59
452.49	3632.51
452.68	3896.99
452.86	3875.93
453.05	3803.37
453.23	3939.12
453.42	3854.86
453.60	3763.58
453.78	3887.63
453.97	3843.16
454.15	4086.58
454.34	3812.73
454.52	3857.20
454.70	4016.36
454.89	3971.89
455.07	3932.10
455.26	3981.25
455.44	4044.45
455.62	4060.83
455.81	4025.72
455.99	4081.89
456.17	4138.07
456.36	4007.00
456.54	4084.23
456.73	4224.67
456.91	4386.16
457.09	4428.29
457.28	4334.67
457.46	4231.69
457.64	4337.01
457.83	4170.83
458.01	4126.36
458.19	4313.61
458.38	4372.12
458.56	4423.61
458.74	4297.22
458.93	4346.37
459.11	4451.70
459.29	4278.50
459.48	4542.98
459.66	4526.60
459.84	4486.81
460.03	4596.81
460.21	4456.38
460.39	4440.00
460.57	4564.04
460.76	4636.60
460.94	4582.77
461.12	4606.17
461.31	4498.51
461.49	4557.02
461.67	4561.70
461.85	4657.67
462.04	4636.60
462.22	4772.35
462.40	4671.71
462.59	4695.11
462.77	4671.71
462.95	4802.78
463.13	4688.09
463.32	4793.42
463.50	4849.59
463.68	4821.50
463.86	4788.74
464.05	4727.88
464.23	4858.95
464.41	4884.70
464.59	4753.63
464.78	4788.74
464.96	4837.89
465.14	4716.18
465.32	4854.27
465.50	4943.21
465.69	4994.70
465.87	4889.38
466.05	4868.31
466.23	5001.72
466.41	4959.60
466.60	5123.43
466.78	4849.59
466.96	5004.07
467.14	4964.28
467.32	4997.04
467.51	5135.14
467.69	4938.53
467.87	5064.92
468.05	5160.88
468.23	5013.43
468.41	5219.39
468.60	5184.29
468.78	5167.90
468.96	5069.60
469.14	5184.29
469.32	5352.81
469.50	5090.67
469.69	5334.08
469.87	5507.28
470.05	5338.76
470.23	5345.78
470.41	5179.61
470.59	5406.64
470.77	5408.98
470.95	5366.85
471.14	5418.34
471.32	5329.40
471.50	5577.50
471.68	5521.32
471.86	5617.29
472.04	5598.56
472.22	5743.67
472.40	5495.58
472.58	5598.56
472.77	5680.48
472.95	5722.61
473.13	5923.90
473.31	5694.52
473.49	5605.58
473.67	5769.42
473.85	5874.74
474.03	6101.78
474.21	5970.71
474.39	5998.79
474.57	6029.22
474.75	6214.12
474.93	6235.19
475.12	6101.78
475.30	6033.90
475.48	6134.54
475.66	6141.57
475.84	6274.98
476.02	6312.42
476.20	6363.92
476.38	6560.52
476.56	6387.32
476.74	6455.20
476.92	6483.28
477.10	6349.87
477.28	6476.26
477.46	6457.54
477.64	6544.14
477.82	6750.10
478.00	6775.85
478.18	6846.07
478.36	6876.49
478.54	6984.16
478.72	7133.95
478.90	6963.09
479.08	7241.62
479.26	7124.59
479.44	7414.82
479.62	7255.66
479.80	7194.81
479.98	7290.77
480.16	7501.42
480.34	7517.80
480.52	7557.59
480.70	7461.63
480.88	7384.39
481.06	7536.52
481.24	7676.96
481.41	7705.04
481.59	7927.39
481.77	7983.57
481.95	7887.61
482.13	8093.57
482.31	8006.97
482.49	8084.21
482.67	8109.96
482.85	8393.16
483.03	8348.69
483.21	8423.59
483.39	8465.72
483.57	8418.91
483.74	8592.11
483.92	8688.07
484.10	8479.76
484.28	8762.97
484.46	8856.59
484.64	9188.94
484.82	8896.38
485.00	8945.53
485.18	9193.62
485.35	9430.02
485.53	9273.20
485.71	9312.99
485.89	9563.43
486.07	9207.67
486.25	9533.00
486.43	9303.63
486.61	9521.30
486.78	10005.79
486.96	9804.50
487.14	10003.45
487.32	9792.80
487.50	9991.75
487.68	10071.33
487.85	10286.65
488.03	10356.87
488.21	10471.56
488.39	10583.90
488.57	10422.41
488.75	10682.20
488.92	10733.70
489.10	10794.55
489.28	10897.53
489.46	10883.49
489.64	10857.75
489.81	11044.99
489.99	11269.68
490.17	11335.21
490.35	11517.78
490.53	11557.57
490.70	11583.31
490.88	11426.50
491.06	11508.41
491.24	11709.70
491.41	11754.17
491.59	11901.62
491.77	11910.99
491.95	11887.58
492.13	11992.90
492.30	12259.73
492.48	12219.94
492.66	12241.00
492.84	12308.88
493.01	12346.33
493.19	12236.32
493.37	12456.33
493.54	12870.61
493.72	12545.27
493.90	12814.43
494.08	12828.48
494.25	12755.92
494.43	13137.43
494.61	13345.73
494.79	13142.11
494.96	13193.60
495.14	13130.41
495.32	13348.08
495.49	13394.89
495.67	13319.99
495.85	13413.61
496.02	13701.50
496.20	13872.36
496.38	13804.48
496.55	13767.03
496.73	14476.21
496.91	13961.30
497.09	14317.06
497.26	14272.59
497.44	14090.02
497.62	14298.33
497.79	14281.95
497.97	14270.25
498.14	14656.43
498.32	14796.87
498.50	14537.07
498.67	14773.46
498.85	14401.32
499.03	14843.68
499.20	14705.59
499.38	14953.68
499.56	15194.76
499.73	15108.16
499.91	15241.57
500.08	15122.20
500.26	15119.86
500.44	15150.29
500.61	15449.88
500.79	15267.31
500.97	15627.76
501.14	15690.95
501.32	15435.83
501.49	15372.64
501.67	15578.61
501.84	15716.70
502.02	15768.19
502.20	16051.39
502.37	15943.73
502.55	15805.64
502.72	15988.20
502.90	15873.51
503.07	15969.48
503.25	16100.55
503.43	16011.60
503.60	16135.65
503.78	16566.31
503.95	16458.65
504.13	16273.74
504.30	16704.40
504.48	16505.46
504.65	16681.00
504.83	16688.02
505.01	16844.84
505.18	16781.64
505.36	16718.45
505.53	16798.02
505.71	16915.05
505.88	16903.35
506.06	16917.39
506.23	17088.25
506.41	17240.39
506.58	17383.16
506.76	17001.65
506.93	17343.37
507.11	16957.18
507.28	17231.02
507.46	17427.63
507.63	17488.48
507.81	17795.09
507.98	17434.65
508.16	17762.33
508.33	17708.49
508.50	17717.86
508.68	17891.06
508.85	17804.46
509.03	17830.20
509.20	17795.09
509.38	18525.34
509.55	18139.15
509.73	18190.64
509.90	18111.07
510.08	17776.37
510.25	18162.56
510.42	18370.86
510.60	18251.50
510.77	18314.69
510.95	18382.57
511.12	18225.75
511.30	18450.44
511.47	18728.97
511.64	18621.30
511.82	18822.59
511.99	18750.03
512.17	18764.07
512.34	18977.06
512.51	19016.85
512.69	19173.67
512.86	19023.87
513.04	19063.66
513.21	19300.06
513.38	19349.21
513.56	19426.45
513.73	18853.02
513.90	19183.03
514.08	18988.77
514.25	19501.34
514.43	19370.27
514.60	19475.60
514.77	19700.29
514.95	19648.80
515.12	19431.13
515.29	19693.27
515.47	19686.25
515.64	20060.73
515.81	19641.78
515.99	19775.19
516.16	20121.59
516.33	20100.52
516.51	20020.94
516.68	19719.01
516.85	20222.23
517.03	20231.59
517.20	20212.87
517.37	20538.20
517.54	20332.23
517.72	20685.65
517.89	20423.51
518.06	19997.54
518.24	20269.04
518.41	20507.77
518.58	20582.67
518.75	20510.11
518.93	20664.59
519.10	20645.87
519.27	20669.27
519.45	20922.05
519.62	20943.11
519.79	20718.42
519.96	20498.41
520.14	20961.84
520.31	21078.86
520.48	21296.53
520.65	21022.69
520.83	21422.92
521.00	21142.06
521.17	21186.53
521.34	21341.00
521.52	21193.55
521.69	21453.35
521.86	21521.23
522.03	21818.47
522.20	21806.77
522.38	21359.73
522.55	21553.99
522.72	21731.87
522.89	21631.23
523.07	21565.70
523.24	21851.24
523.41	21926.14
523.58	21816.13
523.75	21902.73
523.92	21647.61
524.10	21977.63
524.27	22052.53
524.44	22078.27
524.61	22071.25
524.78	22632.98
524.96	22150.83
525.13	22146.15
525.30	21965.93
525.47	22410.63
525.64	22134.45
525.81	22174.24
525.98	22991.08
526.16	22443.40
526.33	22258.49
526.50	22761.71
526.67	22569.79
526.84	22581.49
527.01	22511.27
527.18	22874.06
527.36	22953.63
527.53	22852.99
527.70	23227.48
527.87	22815.54
528.04	22707.88
528.21	22972.36
528.38	23201.73
528.55	23168.96
528.72	23061.30
528.89	23267.27
529.07	23229.82
529.24	23105.77
529.41	22953.63
529.58	23211.09
529.75	23168.96
529.92	22946.61
530.09	22738.30
530.26	23412.38
530.43	23515.36
530.60	23344.50
530.77	23122.15
530.94	23285.99
531.11	23054.28
531.28	23651.11
531.46	23548.13
531.63	23573.88
531.80	24105.18
531.97	23730.69
532.14	23859.42
532.31	23683.88
532.48	23744.73
532.65	23868.78
532.82	23747.08
532.99	23803.25
533.16	24046.66
533.33	23957.72
533.50	24051.34
533.67	24189.44
533.84	23924.96
534.01	23871.12
534.18	24102.84
534.35	24177.73
534.52	24030.28
534.69	24065.39
534.86	24439.87
535.03	24056.03
535.20	24671.59
535.37	24306.46
535.54	24514.77
535.71	24372.00
535.88	24149.65
536.05	24348.59
536.22	24680.95
536.38	24463.28
536.55	24744.14
536.72	24835.42
536.89	24414.13
537.06	24528.81
537.23	24973.52
537.40	24683.29
537.57	24606.05
537.74	25097.56
537.91	24851.81
538.08	24790.95
538.25	24758.19
538.42	24882.24
538.59	25095.22
538.75	25123.31
538.92	24940.75
539.09	25228.63
539.26	25062.46
539.43	25275.45
539.60	25160.76
539.77	25238.00
539.94	25703.76
540.11	25111.61
540.28	24875.21
540.44	25048.41
540.61	25109.27
540.78	25352.68
540.95	25652.27
541.12	25261.40
541.29	25617.16
541.46	25399.49
541.62	25668.66
541.79	25413.54
541.96	25336.30
542.13	25488.43
542.30	25734.19
542.47	25645.25
542.63	25689.72
542.80	26031.44
542.97	26132.08
543.14	26328.69
543.31	25944.84
543.48	25804.41
543.64	25886.32
543.81	26134.42
543.98	26321.66
544.15	26192.94
544.32	26223.36
544.48	26403.58
544.65	26218.68
544.82	26199.96
544.99	26302.94
545.16	26352.09
545.32	26068.89
545.49	26459.76
545.66	26473.80
545.83	26249.11
546.00	26820.20
546.16	26647.00
546.33	25998.67
546.50	26015.05
546.67	26436.35
546.83	26148.46
547.00	26700.83
547.17	26796.79
547.34	26167.19
547.50	26408.26
547.67	26939.57
547.84	26469.12
548.00	26675.09
548.17	26806.16
548.34	26867.01
548.51	26965.31
548.67	27206.39
548.84	26670.40
549.01	27021.48
549.18	27058.93
549.34	26754.66
549.51	27063.61
549.68	26927.86
549.84	27129.15
550.01	27101.06
550.18	26747.64
550.34	27260.22
550.51	27243.84
550.68	27344.48
550.84	26984.04
551.01	27225.11
551.18	27372.57
551.34	26703.17
551.51	27178.30
551.68	27091.70
551.84	27309.37
552.01	27065.96
552.18	27314.05
552.34	27435.76
552.51	27651.09
552.68	27325.75
552.84	27742.37
553.01	27480.23
553.18	27578.53
553.34	27550.45
553.51	27725.99
553.67	27606.62
553.84	27337.46
554.01	27817.27
554.17	27709.60
554.34	27733.01
554.51	27421.72
554.67	27328.10
554.84	27821.95
555.00	27578.53
555.17	27562.15
555.33	28168.35
555.50	27751.73
555.67	27283.62
555.83	27491.93
556.00	27936.63
556.16	28158.99
556.33	27943.66
556.50	27922.59
556.66	28474.96
556.83	27845.35
556.99	28137.92
557.16	28524.11
557.32	28067.70
557.49	28304.10
557.65	27946.00
557.82	27821.95
557.98	27936.63
558.15	28189.41
558.32	28283.03
558.48	28051.32
558.65	28566.24
558.81	28130.90
558.98	28163.67
559.14	28173.03
559.31	27943.66
559.47	28402.40
559.64	28236.22
559.80	28254.95
559.97	28304.10
560.13	28353.25
560.30	28584.96
560.46	28402.40
560.63	28339.21
560.79	28500.70
560.96	28685.61
561.12	28421.13
561.29	28486.66
561.45	28397.72
561.61	28479.64
561.78	28456.23
561.94	28540.49
562.11	28896.25
562.27	28484.32
562.44	28374.31
562.60	28545.17
562.77	28428.15
562.93	28449.21
563.10	28704.33
563.26	28599.01
563.42	28964.13
563.59	28755.82
563.75	28641.14
563.92	28751.14
564.08	28669.22
564.24	28727.74
564.41	28816.68
564.57	28545.17
564.74	28552.20
564.90	29139.67
565.07	28629.43
565.23	28645.82
565.39	28430.49
565.56	28734.76
565.72	28793.27
565.88	28652.84
566.05	28697.31
566.21	28659.86
566.38	28718.37
566.54	28662.20
566.70	28879.87
566.87	29259.04
567.03	28430.49
567.19	29345.64
567.36	28989.88
567.52	28603.69
567.68	28978.17
567.85	28762.84
568.01	29118.60
568.17	29158.39
568.34	28751.14
568.50	28994.56
568.66	29090.52
568.83	29050.73
568.99	28989.88
569.15	29160.73
569.32	29048.39
569.48	28868.17
569.64	29048.39
569.81	29146.69
569.97	29116.26
570.13	29645.23
570.30	29142.01
570.46	29291.80
570.62	28954.77
570.78	28900.94
570.95	29127.97
571.11	29303.51
571.27	29022.64
571.43	28968.81
571.60	29280.10
571.76	28954.77
571.92	28973.49
572.09	28842.42
572.25	29635.86
572.41	29247.33
572.57	29228.61
572.74	29287.12
572.90	28823.70
573.06	29465.00
573.22	28823.70
573.38	29041.37
573.55	29404.15
573.71	29369.04
573.87	29216.91
574.03	29240.31
574.20	29645.23
574.36	29099.88
574.52	29188.82
574.68	29001.58
574.84	29289.46
575.01	29118.60
575.17	29350.32
575.33	29139.67
575.49	29092.86
575.65	29699.06
575.82	29399.47
575.98	29273.08
576.14	29390.11
576.30	29457.98
576.46	29095.20
576.62	29607.78
576.79	29219.25
576.95	29542.24
577.11	29134.99
577.27	29556.28
577.43	28931.36
577.59	29041.37
577.75	29216.91
577.92	29518.84
578.08	28961.79
578.24	29240.31
578.40	29656.93
578.56	29579.69
578.72	29394.79
578.88	29345.64
579.04	29682.67
579.21	29270.74
579.37	29572.67
579.53	29532.88
579.69	29371.38
579.85	29579.69
580.01	29315.21
580.17	29247.33
580.33	29296.49
580.49	29558.63
580.65	29624.16
580.82	29383.09
580.98	29579.69
581.14	29631.18
581.30	29481.39
581.46	29390.11
581.62	29642.88
581.78	29230.95
581.94	29645.23
582.10	29457.98
582.26	29628.84
582.42	29488.41
582.58	29675.65
582.74	29724.80
582.90	29855.87
583.06	29427.56
583.22	29624.16
583.38	29600.76
583.54	29617.14
583.70	29415.85
583.86	29362.02
584.02	29326.91
584.18	29434.58
584.34	29593.73
584.50	29429.90
584.66	29350.32
584.82	29589.05
584.98	29390.11
585.14	29369.04
585.30	29544.58
585.46	29411.17
585.62	29186.48
585.78	29399.47
585.94	29127.97
586.10	29392.45
586.26	29397.13
586.42	29783.32
586.58	29336.27
586.74	29736.51
586.90	29460.32
587.06	29408.83
587.22	29373.72
587.38	29713.10
587.54	29659.27
587.70	29607.78
587.86	29586.71
588.02	30045.46
588.18	29680.33
588.34	29647.57
588.49	29848.85
588.65	29675.65
588.81	29476.71
588.97	29376.06
589.13	29462.66
589.29	29876.94
589.45	29745.87
589.61	30237.38
589.77	30515.90
589.93	29970.56
590.08	30052.48
590.24	30129.72
590.40	29937.79
590.56	29788.00
590.72	29862.90
590.88	30052.48
591.04	29579.69
591.20	30249.08
591.35	30052.48
591.51	30417.60
591.67	29839.49
591.83	30150.78
591.99	30307.60
