SpectraSuite Data File
++++++++++++++++++++++++++++++++++++
Date: Fri Oct 18 13:58:14 GMT-05:00 2013
User: bianchi
Dark Spectrum Present: No
Reference Spectrum Present: No
Number of Sampled Component Spectra: 1
Spectrometers: USB2+H05261
Integration Time (usec): 50000 (USB2+H05261)
Spectra Averaged: 1 (USB2+H05261)
Boxcar Smoothing: 0 (USB2+H05261)
Correct for Electrical Dark: No (USB2+H05261)
Strobe/Lamp Enabled: No (USB2+H05261)
Correct for Detector Non-linearity: No (USB2+H05261)
Correct for Stray Light: No (USB2+H05261)
Number of Pixels in Processed Spectrum: 2048
>>>>>Begin Processed Spectral Data<<<<<
365.73	0.00
365.92	0.00
366.12	0.00
366.32	0.00
366.52	0.00
366.72	0.00
366.91	0.00
367.11	0.00
367.31	0.00
367.51	0.00
367.70	0.00
367.90	0.00
368.10	0.00
368.30	0.00
368.49	0.00
368.69	0.00
368.89	0.00
369.09	0.00
369.28	0.00
369.48	0.00
369.68	0.00
369.87	0.00
370.07	0.00
370.27	0.00
370.47	0.00
370.66	79.58
370.86	93.62
371.06	147.45
371.25	184.90
371.45	152.13
371.65	131.07
371.84	154.48
372.04	67.88
372.24	161.50
372.44	124.05
372.63	210.65
372.83	292.57
373.03	180.22
373.22	191.92
373.42	229.37
373.62	182.56
373.81	229.37
374.01	252.78
374.21	252.78
374.40	252.78
374.60	294.91
374.79	182.56
374.99	234.05
375.19	280.86
375.38	198.95
375.58	194.26
375.78	313.63
375.97	203.63
376.17	308.95
376.37	252.78
376.56	327.68
376.76	222.35
376.95	259.80
377.15	217.67
377.35	315.97
377.54	283.20
377.74	255.12
377.93	297.25
378.13	339.38
378.33	273.84
378.52	304.27
378.72	278.52
378.91	327.68
379.11	231.71
379.31	353.42
379.50	269.16
379.70	259.80
379.89	390.87
380.09	337.04
380.28	369.80
380.48	379.17
380.68	262.14
380.87	266.82
381.07	301.93
381.26	248.10
381.46	238.73
381.65	255.12
381.85	341.72
382.04	339.38
382.24	325.33
382.43	308.95
382.63	360.44
382.83	322.99
383.02	386.19
383.22	332.36
383.41	346.40
383.61	416.62
383.80	372.15
384.00	332.36
384.19	322.99
384.39	348.74
384.58	395.55
384.78	337.04
384.97	402.57
385.17	386.19
385.36	381.51
385.56	388.53
385.75	416.62
385.95	358.10
386.14	404.91
386.34	322.99
386.53	287.89
386.72	402.57
386.92	388.53
387.11	376.83
387.31	418.96
387.50	421.30
387.70	278.52
387.89	451.72
388.09	484.49
388.28	397.89
388.48	339.38
388.67	479.81
388.86	442.36
389.06	447.04
389.25	491.51
389.45	409.59
389.64	449.38
389.84	517.26
390.03	517.26
390.22	437.68
390.42	430.66
390.61	496.19
390.81	437.68
391.00	437.68
391.19	444.70
391.39	489.17
391.58	526.62
391.78	512.58
391.97	543.00
392.16	475.13
392.36	524.28
392.55	592.16
392.75	550.03
392.94	491.51
393.13	514.92
393.33	484.49
393.52	528.96
393.71	601.52
393.91	594.50
394.10	465.77
394.29	573.43
394.49	472.79
394.68	585.13
394.88	662.37
395.07	629.60
395.26	580.45
395.46	589.82
395.65	568.75
395.84	585.13
396.04	685.78
396.23	627.26
396.42	655.35
396.62	608.54
396.81	617.90
397.00	706.84
397.19	664.71
397.39	662.37
397.58	636.63
397.77	702.16
397.97	638.97
398.16	643.65
398.35	641.31
398.55	681.10
398.74	655.35
398.93	732.59
399.12	683.44
399.32	676.41
399.51	699.82
399.70	758.33
399.90	664.71
400.09	760.67
400.28	840.25
400.47	763.01
400.67	669.39
400.86	760.67
401.05	751.31
401.24	786.42
401.44	760.67
401.63	821.53
401.82	847.27
402.01	753.65
402.21	748.97
402.40	919.83
402.59	828.55
402.78	837.91
402.97	866.00
403.17	847.27
403.36	814.51
403.55	858.98
403.74	905.79
403.93	868.34
404.13	1015.79
404.32	910.47
404.51	861.32
404.70	898.77
404.89	961.96
405.09	968.98
405.28	924.51
405.47	973.66
405.66	966.64
405.85	1008.77
406.05	945.58
406.24	985.37
406.43	1064.94
406.62	1043.88
406.81	1039.20
407.00	983.02
407.20	971.32
407.39	1086.01
407.58	950.26
407.77	1128.14
407.96	1111.75
408.15	1039.20
408.34	1083.67
408.54	1123.46
408.73	1146.86
408.92	1158.57
409.11	1093.03
409.30	1172.61
409.49	1128.14
409.68	1116.44
409.87	1165.59
410.07	1191.33
410.26	1179.63
410.45	1167.93
410.64	1198.35
410.83	1233.46
411.02	1172.61
411.21	1238.14
411.40	1306.02
411.59	1254.53
411.78	1263.89
411.98	1254.53
412.17	1212.40
412.36	1320.06
412.55	1294.32
412.74	1397.30
412.93	1404.32
413.12	1301.34
413.31	1432.41
413.50	1350.49
413.69	1404.32
413.88	1427.73
414.07	1399.64
414.26	1380.92
414.45	1465.18
414.64	1483.90
414.83	1528.37
415.02	1458.15
415.22	1434.75
415.41	1446.45
415.60	1542.41
415.79	1591.56
415.98	1692.21
416.17	1633.69
416.36	1502.62
416.55	1577.52
416.74	1530.71
416.93	1657.10
417.12	1614.97
417.31	1617.31
417.50	1570.50
417.69	1741.36
417.88	1708.59
418.07	1708.59
418.26	1717.95
418.45	1682.85
418.64	1687.53
418.83	1860.73
419.02	1694.55
419.21	1806.89
419.39	1781.15
419.58	1792.85
419.77	1788.17
419.96	1853.70
420.15	1844.34
420.34	1856.04
420.53	1891.15
420.72	1832.64
420.91	1790.51
421.10	1853.70
421.29	2031.58
421.48	1895.83
421.67	1928.60
421.86	1921.58
422.05	2045.63
422.24	1937.96
422.43	2054.99
422.61	2092.44
422.80	1923.92
422.99	1982.43
423.18	1977.75
423.37	1959.03
423.56	2026.90
423.75	1959.03
423.94	1898.17
424.13	1884.13
424.32	1839.66
424.50	2202.44
424.69	2022.22
424.88	2012.86
425.07	2015.20
425.26	2052.65
425.45	1973.07
425.64	2040.95
425.83	1996.48
426.01	2167.34
426.20	2092.44
426.39	2076.06
426.58	2010.52
426.77	2054.99
426.96	2125.21
427.15	2127.55
427.33	2136.91
427.52	2169.68
427.71	2108.82
427.90	2202.44
428.09	2157.97
428.28	2141.59
428.46	2153.29
428.65	2200.10
428.84	2270.32
429.03	2293.72
429.22	2174.36
429.40	2167.34
429.59	2181.38
429.78	2249.25
429.97	2111.16
430.16	2249.25
430.34	2263.30
430.53	2345.22
430.72	2312.45
430.91	2235.21
431.10	2312.45
431.28	2303.09
431.47	2317.13
431.66	2373.30
431.85	2415.43
432.03	2448.20
432.22	2485.65
432.41	2373.30
432.60	2347.56
432.79	2443.52
432.97	2572.25
433.16	2471.61
433.35	2469.27
433.54	2487.99
433.72	2525.44
433.91	2387.35
434.10	2537.14
434.28	2403.73
434.47	2523.10
434.66	2581.61
434.85	2605.02
435.03	2623.74
435.22	2616.72
435.41	2684.59
435.59	2612.04
435.78	2710.34
435.97	2729.06
436.16	2600.34
436.34	2722.04
436.53	2700.98
436.72	2677.57
436.90	2691.62
437.09	2628.42
437.28	2708.00
437.46	2710.34
437.65	2684.59
437.84	2766.51
438.02	2789.92
438.21	2757.15
438.40	2754.81
438.58	2871.84
438.77	2834.39
438.96	2818.00
439.14	2902.26
439.33	2974.82
439.52	2979.50
439.70	2874.18
439.89	2930.35
440.08	2906.95
440.26	3080.14
440.45	3091.85
440.63	3035.67
440.82	3049.72
441.01	2944.39
441.19	3201.85
441.38	3143.34
441.57	3180.79
441.75	3150.36
441.94	3208.87
442.12	3183.13
442.31	3445.27
442.50	3215.90
442.68	3243.98
442.87	3318.88
443.05	3396.12
443.24	3344.63
443.43	3445.27
443.61	3555.27
443.80	3372.71
443.98	3328.24
444.17	3173.77
444.35	3316.54
444.54	3403.14
444.73	3421.86
444.91	3391.44
445.10	3332.92
445.28	3456.97
445.47	3517.83
445.65	3445.27
445.84	3379.73
446.02	3400.80
446.21	3555.27
446.39	3461.65
446.58	3494.42
446.77	3471.01
446.95	3283.77
447.14	3562.30
447.32	3508.46
447.51	3445.27
447.69	3599.74
447.88	3433.57
448.06	3569.32
448.25	3534.21
448.43	3655.92
448.62	3616.13
448.80	3499.10
448.99	3571.66
449.17	3625.49
449.36	3625.49
449.54	3684.00
449.73	3618.47
449.91	3754.22
450.10	3744.86
450.28	3735.50
450.46	3768.26
450.65	3705.07
450.83	3815.07
451.02	3742.52
451.20	3749.54
451.39	3744.86
451.57	3737.84
451.76	3730.81
451.94	3777.62
452.13	3772.94
452.31	3882.95
452.49	3705.07
452.68	3831.46
452.86	3857.20
453.05	3887.63
453.23	3925.08
453.42	3761.24
453.60	3796.35
453.78	4016.36
453.97	3817.41
454.15	3801.03
454.34	3791.67
454.52	4051.47
454.70	4056.15
454.89	3990.61
455.07	3918.06
455.26	3957.85
455.44	4046.79
455.62	4241.05
455.81	4147.43
455.99	4051.47
456.17	4042.11
456.36	4063.17
456.54	4159.13
456.73	4107.64
456.91	4224.67
457.09	4173.18
457.28	4395.53
457.46	4170.83
457.64	4325.31
457.83	4334.67
458.01	4269.14
458.19	4486.81
458.38	4491.49
458.56	4437.66
458.74	4428.29
458.93	4315.95
459.11	4374.46
459.29	4325.31
459.48	4568.73
459.66	4542.98
459.84	4617.88
460.03	4617.88
460.21	4575.75
460.39	4547.66
460.57	4463.40
460.76	4510.21
460.94	4470.42
461.12	4425.95
461.31	4573.41
461.49	4491.49
461.67	4594.47
461.85	4758.31
462.04	4737.24
462.22	4915.12
462.40	4774.69
462.59	4779.37
462.77	4952.57
462.95	4755.97
463.13	4720.86
463.32	4660.01
463.50	4833.21
463.68	4821.50
463.86	4882.36
464.05	4812.14
464.23	4791.08
464.41	4950.23
464.59	4603.83
464.78	4891.72
464.96	4847.25
465.14	4695.11
465.32	4891.72
465.50	4793.42
465.69	4997.04
465.87	5025.13
466.05	4992.36
466.23	4847.25
466.41	5130.45
466.60	5256.84
466.78	4903.42
466.96	5130.45
467.14	4971.30
467.32	4983.00
467.51	5217.05
467.69	4987.68
467.87	5123.43
468.05	5050.88
468.23	5043.85
468.41	5088.32
468.60	5102.37
468.78	5231.10
468.96	5221.74
469.14	5172.58
469.32	5210.03
469.50	5179.61
469.69	5334.08
469.87	5308.34
470.05	5310.68
470.23	5427.70
470.41	5355.15
470.59	5549.41
470.77	5465.15
470.95	5476.85
471.14	5540.05
471.32	5338.76
471.50	5638.35
471.68	5621.97
471.86	5568.13
472.04	5823.25
472.22	5926.24
472.40	5731.97
472.58	5743.67
472.77	5753.04
472.95	5753.04
473.13	5851.34
473.31	5795.17
473.49	5987.09
473.67	5881.77
473.85	5916.87
474.03	6118.16
474.21	5881.77
474.39	5872.40
474.57	5977.73
474.75	6209.44
474.93	6193.06
475.12	6267.95
475.30	6108.80
475.48	6122.84
475.66	6092.41
475.84	6305.40
476.02	6539.46
476.20	6263.27
476.38	6492.65
476.56	6534.78
476.74	6516.05
476.92	6401.37
477.10	6569.88
477.28	6719.68
477.46	6630.74
477.64	6738.40
477.82	6684.57
478.00	6832.02
478.18	6815.64
478.36	6857.77
478.54	6979.48
478.72	6986.50
478.90	6993.52
479.08	7349.28
479.26	7131.61
479.44	7117.57
479.62	7145.66
479.80	7321.20
479.98	7433.54
480.16	7414.82
480.34	7524.82
480.52	7520.14
480.70	7527.16
480.88	7351.62
481.06	7576.31
481.24	7681.64
481.41	7667.60
481.59	7955.48
481.77	8011.65
481.95	7648.87
482.13	8135.70
482.31	8315.92
482.49	8173.15
482.67	8276.13
482.85	8283.16
483.03	8547.64
483.21	8397.84
483.39	8566.36
483.57	8547.64
483.74	8596.79
483.92	8664.66
484.10	8627.21
484.28	8933.82
484.46	8971.27
484.64	9200.65
484.82	8875.31
485.00	8945.53
485.18	9261.50
485.35	9486.19
485.53	9378.53
485.71	9399.59
485.89	9771.74
486.07	9479.17
486.25	9652.37
486.43	9575.13
486.61	9692.16
486.78	9844.29
486.96	10038.56
487.14	9984.73
487.32	9900.47
487.50	10092.39
487.68	10174.31
487.85	10305.38
488.03	10380.28
488.21	10429.43
488.39	10668.16
488.57	10677.52
488.75	10579.22
488.92	10698.59
489.10	10696.25
489.28	10892.85
489.46	11037.97
489.64	10780.51
489.81	11356.28
489.99	11332.87
490.17	11206.48
490.35	11353.94
490.53	11351.60
490.70	11154.99
490.88	11566.93
491.06	11707.36
491.24	11620.76
491.41	11850.13
491.59	11831.41
491.77	11962.48
491.95	12173.13
492.13	12074.82
492.30	12224.62
492.48	12365.05
492.66	12287.81
492.84	12306.54
493.01	12489.10
493.19	12353.35
493.37	12578.04
493.54	12531.23
493.72	12849.54
493.90	12791.03
494.08	12915.08
494.25	12889.33
494.43	13081.25
494.61	13015.72
494.79	13142.11
494.96	13177.22
495.14	13434.68
495.32	13558.72
495.49	13680.43
495.67	13605.53
495.85	13621.92
496.02	13673.41
496.20	13797.46
496.38	13834.91
496.55	13895.76
496.73	14347.48
496.91	14136.84
497.09	14321.74
497.26	14038.53
497.44	14340.46
497.62	14207.05
497.79	14527.71
497.97	14153.22
498.14	14642.39
498.32	14745.38
498.50	14487.92
498.67	14899.85
498.85	15033.26
499.03	14780.48
499.20	14740.69
499.38	14953.68
499.56	15197.10
499.73	15112.84
499.91	15225.18
500.08	15180.71
500.26	15403.07
500.44	15283.70
500.61	15208.80
500.79	15222.84
500.97	15611.37
501.14	15740.10
501.32	15606.69
501.49	15590.31
501.67	15726.06
501.84	15854.79
502.02	15896.92
502.20	16091.18
502.37	16102.89
502.55	15854.79
502.72	15850.11
502.90	15960.11
503.07	16002.24
503.25	16425.88
503.43	16198.85
503.60	16641.21
503.78	16613.12
503.95	16531.20
504.13	16671.64
504.30	16561.63
504.48	16606.10
504.65	16791.00
504.83	16709.08
505.01	16676.32
505.18	16716.11
505.36	17078.89
505.53	16879.94
505.71	17027.40
505.88	17018.04
506.06	16987.61
506.23	17523.59
506.41	17092.93
506.58	17160.81
506.76	17221.66
506.93	17081.23
507.11	17488.48
507.28	17537.63
507.46	17467.42
507.63	17610.19
507.81	17792.75
507.98	17652.32
508.16	17893.40
508.33	17612.53
508.50	17825.52
508.68	17722.54
508.85	17902.76
509.03	17902.76
509.20	17942.55
509.38	18129.79
509.55	18265.54
509.73	18293.63
509.90	18672.79
510.08	18038.51
510.25	18408.31
510.42	18230.43
510.60	18651.73
510.77	18492.57
510.95	18520.66
511.12	18501.93
511.30	18368.52
511.47	18913.87
511.64	18862.38
511.82	18661.09
511.99	18651.73
512.17	19091.75
512.34	18911.53
512.51	19201.76
512.69	19075.37
512.86	19218.14
513.04	19370.27
513.21	19396.02
513.38	19421.77
513.56	19377.30
513.73	19187.71
513.90	19164.31
514.08	19222.82
514.25	19686.25
514.43	19620.71
514.60	19662.84
514.77	19676.88
514.95	19836.04
515.12	19754.12
515.29	19381.98
515.47	19793.91
515.64	19936.68
515.81	19566.88
515.99	20116.90
516.16	20177.76
516.33	20039.67
516.51	20222.23
516.68	20032.65
516.85	20173.08
517.03	20357.98
517.20	20514.80
517.37	20264.36
517.54	20673.95
517.72	20177.76
517.89	20453.94
518.06	20582.67
518.24	20367.34
518.41	20695.02
518.58	20573.31
518.75	20767.57
518.93	21053.12
519.10	20971.20
519.27	20891.62
519.45	21025.03
519.62	20854.17
519.79	20795.66
519.96	20884.60
520.14	21303.56
520.31	21006.31
520.48	21172.49
520.65	21078.86
520.83	21158.44
521.00	20861.19
521.17	21277.81
521.34	21116.31
521.52	21614.85
521.69	21612.51
521.86	21418.24
522.03	21879.33
522.20	21706.13
522.38	21380.79
522.55	21715.49
522.72	21598.46
522.89	21783.37
523.07	22012.74
523.24	21940.18
523.41	21914.44
523.58	21984.65
523.75	21998.70
523.92	22003.38
524.10	21844.22
524.27	22150.83
524.44	22167.21
524.61	22457.44
524.78	22225.73
524.96	22267.86
525.13	22146.15
525.30	22501.91
525.47	22401.27
525.64	22398.93
525.81	22726.60
525.98	22537.02
526.16	22637.66
526.33	22710.22
526.50	22738.30
526.67	22621.28
526.84	22775.75
527.01	22625.96
527.18	22888.10
527.36	22796.82
527.53	23091.73
527.70	23033.21
527.87	23119.81
528.04	23236.84
528.21	22808.52
528.38	22925.55
528.55	23080.02
528.72	23316.42
528.89	23468.55
529.07	23250.88
529.24	23388.97
529.41	23311.74
529.58	23098.75
529.75	23063.64
529.92	23557.49
530.09	23585.58
530.26	23513.02
530.43	23510.68
530.60	23241.52
530.77	23452.17
530.94	23866.44
531.11	23173.64
531.28	23513.02
531.46	23709.63
531.63	23578.56
531.80	23894.53
531.97	24011.56
532.14	23817.29
532.31	23847.72
532.48	24098.16
532.65	24060.71
532.82	23971.77
532.99	24034.96
533.16	24027.94
533.33	24472.64
533.50	24428.17
533.67	24205.82
533.84	24175.39
534.01	24456.26
534.18	24137.94
534.35	24203.48
534.52	24613.07
534.69	24184.76
534.86	24741.80
535.03	24439.87
535.20	24444.56
535.37	24503.07
535.54	24587.33
535.71	24386.04
535.88	24336.89
536.05	24828.40
536.22	24744.14
536.38	24924.36
536.55	24889.26
536.72	24940.75
536.89	25055.43
537.06	24943.09
537.23	25104.59
537.40	24886.92
537.57	24739.46
537.74	25266.08
537.91	25490.77
538.08	24905.64
538.25	25088.20
538.42	25394.81
538.59	25172.46
538.75	24723.08
538.92	25345.66
539.09	25256.72
539.26	25142.03
539.43	25397.15
539.60	25500.14
539.77	25256.72
539.94	25668.66
540.11	25502.48
540.28	25563.33
540.44	25589.08
540.61	25628.87
540.78	25495.46
540.95	25443.96
541.12	25846.54
541.29	25521.20
541.46	25589.08
541.62	25352.68
541.79	25610.14
541.96	25415.88
542.13	25556.31
542.30	25872.28
542.47	26169.53
542.63	26162.51
542.80	26122.72
542.97	26113.36
543.14	26064.21
543.31	26148.46
543.48	25900.37
543.64	26567.42
543.81	26373.16
543.98	26225.70
544.15	26539.33
544.32	26345.07
544.48	26567.42
544.65	26155.49
544.82	26548.70
544.99	25989.31
545.16	26518.27
545.32	26122.72
545.49	26293.58
545.66	26293.58
545.83	26501.89
546.00	26679.77
546.16	26448.05
546.33	26742.96
546.50	26118.04
546.67	26548.70
546.83	26609.55
547.00	26712.53
547.17	26813.18
547.34	26930.20
547.50	26944.25
547.67	27129.15
547.84	27164.26
548.00	27094.04
548.17	26965.31
548.34	27044.89
548.51	27288.31
548.67	27211.07
548.84	27058.93
549.01	26979.36
549.18	27040.21
549.34	26972.33
549.51	27047.23
549.68	27154.90
549.84	27227.45
550.01	27562.15
550.18	27438.10
550.34	27150.21
550.51	27711.94
550.68	27527.04
550.84	27185.32
551.01	27658.11
551.18	27405.33
551.34	27351.50
551.51	27655.77
551.68	26944.25
551.84	27828.97
552.01	27405.33
552.18	27452.14
552.34	27545.76
552.51	27679.18
552.68	27770.46
552.84	27496.61
553.01	28027.92
553.18	27854.72
553.34	28030.26
553.51	27665.13
553.67	27896.85
553.84	28070.04
554.01	27576.19
554.17	27824.29
554.34	27597.26
554.51	27946.00
554.67	27854.72
554.84	28046.64
555.00	28084.09
555.17	27850.03
555.33	28025.57
555.50	27953.02
555.67	28400.06
555.83	28053.66
556.00	27943.66
556.16	28081.75
556.33	28020.89
556.50	28346.23
556.66	28098.13
556.83	28254.95
556.99	28472.62
557.16	28606.03
557.32	28481.98
557.49	28591.98
557.65	28121.54
557.82	27915.57
557.98	28290.06
558.15	28460.91
558.32	28549.85
558.48	28156.64
558.65	28425.81
558.81	28182.39
558.98	28280.69
559.14	28470.28
559.31	28645.82
559.47	28582.62
559.64	28510.07
559.80	28561.56
559.97	28751.14
560.13	28486.66
560.30	29015.62
560.46	28957.11
560.63	28680.92
560.79	28650.50
560.96	28833.06
561.12	28734.76
561.29	28573.26
561.45	28428.15
561.61	28863.49
561.78	28926.68
561.94	28393.04
562.11	28840.08
562.27	29027.32
562.44	28671.56
562.60	28566.24
562.77	28716.03
562.93	28575.60
563.10	29071.79
563.26	28793.27
563.42	29219.25
563.59	29064.77
563.75	28917.32
563.92	28673.90
564.08	28800.29
564.24	28744.12
564.41	28896.25
564.57	28938.38
564.74	29165.42
564.90	28907.96
565.07	28917.32
565.23	28872.85
565.39	29123.29
565.56	29226.27
565.72	29195.84
565.88	29020.30
566.05	28907.96
566.21	29259.04
566.38	28711.35
566.54	29064.77
566.70	29333.93
566.87	29390.11
567.03	29130.31
567.19	29380.74
567.36	29282.44
567.52	29088.18
567.68	29322.23
567.85	28659.86
568.01	29027.32
568.17	29095.20
568.34	29308.19
568.50	29242.65
568.66	29151.37
568.83	29170.10
568.99	29682.67
569.15	28914.98
569.32	29146.69
569.48	29146.69
569.64	29586.71
569.81	29156.05
569.97	29352.66
570.13	29057.75
570.30	29186.48
570.46	29687.36
570.62	29310.53
570.78	29261.38
570.95	28933.70
571.11	29394.79
571.27	28917.32
571.43	29378.40
571.60	29071.79
571.76	28971.15
571.92	29607.78
572.09	29752.89
572.25	29720.12
572.41	29369.04
572.57	29467.34
572.74	29687.36
572.90	29535.22
573.06	29502.45
573.22	29607.78
573.38	29720.12
573.55	29434.58
573.71	29710.76
573.87	29666.29
574.03	29586.71
574.20	29511.81
574.36	29252.02
574.52	29701.40
574.68	29460.32
574.84	29404.15
575.01	29371.38
575.17	29539.90
575.33	29413.51
575.49	29462.66
575.65	29708.42
575.82	29523.52
575.98	29907.37
576.14	29701.40
576.30	29418.19
576.46	29324.57
576.62	29706.08
576.79	29392.45
576.95	29666.29
577.11	29699.06
577.27	29710.76
577.43	29844.17
577.59	29521.18
577.75	29624.16
577.92	29439.26
578.08	29472.03
578.24	29575.01
578.40	29497.77
578.56	29663.95
578.72	30080.56
578.88	29708.42
579.04	30108.65
579.21	29942.47
579.37	29542.24
579.53	30033.75
579.69	29097.54
579.85	29556.28
580.01	29469.69
580.17	29647.57
580.33	29633.52
580.49	29373.72
580.65	29703.74
580.82	29727.14
580.98	29715.44
581.14	29373.72
581.30	29968.22
581.46	29577.35
581.62	29137.33
581.78	29722.46
581.94	29649.91
582.10	29434.58
582.26	29734.17
582.42	30103.97
582.58	29741.19
582.74	29858.21
582.90	29916.73
583.06	30026.73
583.22	29642.88
583.38	29790.34
583.54	29659.27
583.70	29755.23
583.86	29743.53
584.02	29841.83
584.18	29869.92
584.34	29722.46
584.50	29816.08
584.66	29724.80
584.82	29605.44
584.98	30073.54
585.14	29635.86
585.30	29593.73
585.46	29848.85
585.62	29600.76
585.78	29986.94
585.94	29666.29
586.10	29954.18
586.26	29528.20
586.42	30211.64
586.58	30115.67
586.74	29633.52
586.90	29577.35
587.06	29797.36
587.22	30010.35
587.38	29771.61
587.54	29937.79
587.70	30132.06
587.86	29998.65
588.02	29869.92
588.18	30361.43
588.34	29839.49
588.49	30232.70
588.65	29797.36
588.81	30223.34
588.97	29841.83
589.13	29720.12
589.29	29989.28
589.45	29855.87
589.61	30047.80
589.77	30270.15
589.93	30541.65
590.08	30321.64
590.24	30331.00
590.40	29919.07
590.56	30054.82
590.72	29986.94
590.88	30274.83
591.04	30005.67
591.20	30389.52
591.35	30443.35
591.51	30651.66
591.67	30270.15
591.83	30181.21
591.99	30251.42
