SpectraSuite Data File
++++++++++++++++++++++++++++++++++++
Date: Fri Oct 18 13:58:36 GMT-05:00 2013
User: bianchi
Dark Spectrum Present: No
Reference Spectrum Present: No
Number of Sampled Component Spectra: 1
Spectrometers: USB2+H05261
Integration Time (usec): 50000 (USB2+H05261)
Spectra Averaged: 1 (USB2+H05261)
Boxcar Smoothing: 0 (USB2+H05261)
Correct for Electrical Dark: No (USB2+H05261)
Strobe/Lamp Enabled: No (USB2+H05261)
Correct for Detector Non-linearity: No (USB2+H05261)
Correct for Stray Light: No (USB2+H05261)
Number of Pixels in Processed Spectrum: 2048
>>>>>Begin Processed Spectral Data<<<<<
365.73	0.00
365.92	0.00
366.12	0.00
366.32	0.00
366.52	0.00
366.72	0.00
366.91	0.00
367.11	0.00
367.31	0.00
367.51	0.00
367.70	0.00
367.90	0.00
368.10	0.00
368.30	0.00
368.49	0.00
368.69	0.00
368.89	0.00
369.09	0.00
369.28	0.00
369.48	0.00
369.68	0.00
369.87	0.00
370.07	0.00
370.27	0.00
370.47	2.34
370.66	53.83
370.86	86.60
371.06	177.88
371.25	187.24
371.45	140.43
371.65	145.11
371.84	128.73
372.04	173.20
372.24	147.45
372.44	138.09
372.63	187.24
372.83	140.43
373.03	236.39
373.22	163.84
373.42	222.35
373.62	301.93
373.81	259.80
374.01	229.37
374.21	224.69
374.40	245.76
374.60	243.42
374.79	201.29
374.99	215.33
375.19	285.55
375.38	257.46
375.58	259.80
375.78	280.86
375.97	306.61
376.17	313.63
376.37	210.65
376.56	266.82
376.76	276.18
376.95	241.08
377.15	203.63
377.35	227.03
377.54	285.55
377.74	227.03
377.93	217.67
378.13	287.89
378.33	313.63
378.52	264.48
378.72	208.31
378.91	318.31
379.11	269.16
379.31	287.89
379.50	224.69
379.70	322.99
379.89	327.68
380.09	301.93
380.28	243.42
380.48	238.73
380.68	297.25
380.87	222.35
381.07	355.76
381.26	365.12
381.46	297.25
381.65	231.71
381.85	327.68
382.04	362.78
382.24	341.72
382.43	339.38
382.63	320.65
382.83	306.61
383.02	351.08
383.22	407.25
383.41	395.55
383.61	283.20
383.80	461.09
384.00	414.27
384.19	313.63
384.39	376.83
384.58	367.46
384.78	379.17
384.97	390.87
385.17	353.42
385.36	390.87
385.56	421.30
385.75	374.49
385.95	383.85
386.14	388.53
386.34	416.62
386.53	418.96
386.72	402.57
386.92	428.32
387.11	477.47
387.31	512.58
387.50	454.06
387.70	332.36
387.89	379.17
388.09	416.62
388.28	477.47
388.48	418.96
388.67	578.11
388.86	435.34
389.06	472.79
389.25	444.70
389.45	463.43
389.64	465.77
389.84	486.83
390.03	540.66
390.22	493.85
390.42	540.66
390.61	519.60
390.81	596.84
391.00	564.07
391.19	528.96
391.39	519.60
391.58	531.30
391.78	543.00
391.97	531.30
392.16	456.40
392.36	507.90
392.55	449.38
392.75	468.11
392.94	559.39
393.13	524.28
393.33	540.66
393.52	615.56
393.71	566.41
393.91	482.15
394.10	550.03
394.29	594.50
394.49	514.92
394.68	594.50
394.88	528.96
395.07	676.41
395.26	615.56
395.46	615.56
395.65	711.52
395.84	599.18
396.04	615.56
396.23	638.97
396.42	746.63
396.62	608.54
396.81	685.78
397.00	697.48
397.19	648.33
397.39	681.10
397.58	753.65
397.77	683.44
397.97	697.48
398.16	711.52
398.35	685.78
398.55	643.65
398.74	716.20
398.93	741.95
399.12	753.65
399.32	718.54
399.51	716.20
399.70	791.10
399.90	704.50
400.09	760.67
400.28	725.57
400.47	814.51
400.67	816.85
400.86	814.51
401.05	847.27
401.24	830.89
401.44	758.33
401.63	795.78
401.82	774.72
402.01	861.32
402.21	774.72
402.40	830.89
402.59	844.93
402.78	891.74
402.97	805.14
403.17	912.81
403.36	957.28
403.55	814.51
403.74	926.85
403.93	929.19
404.13	950.26
404.32	940.90
404.51	987.71
404.70	915.15
404.89	971.32
405.09	1083.67
405.28	968.98
405.47	968.98
405.66	1004.09
405.85	938.55
406.05	1060.26
406.24	1048.56
406.43	1015.79
406.62	1008.77
406.81	1029.84
407.00	987.71
407.20	1001.75
407.39	959.62
407.58	1064.94
407.77	1057.92
407.96	1001.75
408.15	1032.18
408.34	1004.09
408.54	1102.39
408.73	1146.86
408.92	1142.18
409.11	1015.79
409.30	1217.08
409.49	1163.25
409.68	1181.97
409.87	1139.84
410.07	1097.71
410.26	1170.27
410.45	1146.86
410.64	1191.33
410.83	1200.69
411.02	1226.44
411.21	1273.25
411.40	1205.38
411.59	1331.76
411.78	1299.00
411.98	1350.49
412.17	1378.58
412.36	1275.59
412.55	1380.92
412.74	1362.19
412.93	1406.66
413.12	1303.68
413.31	1427.73
413.50	1380.92
413.69	1385.60
413.88	1519.01
414.07	1451.13
414.26	1439.43
414.45	1460.49
414.64	1455.81
414.83	1558.80
415.02	1521.35
415.22	1479.22
415.41	1577.52
415.60	1472.20
415.79	1640.72
415.98	1589.22
416.17	1643.06
416.36	1640.72
416.55	1579.86
416.74	1657.10
416.93	1652.42
417.12	1708.59
417.31	1743.70
417.50	1767.10
417.69	1755.40
417.88	1804.55
418.07	1760.08
418.26	1678.16
418.45	1811.57
418.64	1788.17
418.83	1727.32
419.02	1844.34
419.21	1842.00
419.39	1785.83
419.58	1863.07
419.77	1729.66
419.96	1830.30
420.15	1977.75
420.34	1842.00
420.53	1928.60
420.72	1872.43
420.91	1844.34
421.10	1998.82
421.29	1921.58
421.48	1914.56
421.67	1984.77
421.86	2012.86
422.05	2052.65
422.24	1961.37
422.43	1811.57
422.61	2052.65
422.80	2036.27
422.99	2122.87
423.18	2026.90
423.37	2062.01
423.56	1923.92
423.75	2064.35
423.94	2038.61
424.13	1842.00
424.32	2017.54
424.50	2148.61
424.69	2118.18
424.88	1994.14
425.07	1959.03
425.26	2050.31
425.45	2071.37
425.64	1954.35
425.83	2108.82
426.01	2024.56
426.20	2040.95
426.39	2106.48
426.58	2083.08
426.77	2097.12
426.96	2097.12
427.15	2139.25
427.33	2087.76
427.52	2022.22
427.71	2129.89
427.90	2132.23
428.09	2186.06
428.28	2303.09
428.46	2230.53
428.65	2204.78
428.84	2200.10
429.03	2249.25
429.22	2169.68
429.40	2310.11
429.59	2108.82
429.78	2087.76
429.97	2111.16
430.16	2246.91
430.34	2167.34
430.53	2377.98
430.72	2298.41
430.91	2246.91
431.10	2300.75
431.28	2361.60
431.47	2237.55
431.66	2502.03
431.85	2314.79
432.03	2434.16
432.22	2380.32
432.41	2520.76
432.60	2441.18
432.79	2429.48
432.97	2583.95
433.16	2504.37
433.35	2466.92
433.54	2520.76
433.72	2588.63
433.91	2387.35
434.10	2506.71
434.28	2469.27
434.47	2590.97
434.66	2548.84
434.85	2602.68
435.03	2581.61
435.22	2574.59
435.41	2581.61
435.59	2614.38
435.78	2635.44
435.97	2630.76
436.16	2686.94
436.34	2628.42
436.53	2672.89
436.72	2937.37
436.90	2672.89
437.09	2738.43
437.28	2796.94
437.46	2672.89
437.65	2785.24
437.84	2771.19
438.02	2794.60
438.21	2782.90
438.40	2841.41
438.58	2825.03
438.77	2848.43
438.96	2883.54
439.14	2981.84
439.33	2850.77
439.52	2965.46
439.70	3007.59
439.89	3075.46
440.08	3068.44
440.26	3045.04
440.45	3112.91
440.63	2981.84
440.82	3094.19
441.01	3119.93
441.19	3243.98
441.38	3187.81
441.57	3157.38
441.75	3180.79
441.94	3164.40
442.12	3246.32
442.31	3274.41
442.50	3321.22
442.68	3255.69
442.87	3269.73
443.05	3351.65
443.24	3379.73
443.43	3375.05
443.61	3463.99
443.80	3583.36
443.98	3396.12
444.17	3281.43
444.35	3405.48
444.54	3389.10
444.73	3377.39
444.91	3475.70
445.10	3435.91
445.28	3407.82
445.47	3543.57
445.65	3349.31
445.84	3445.27
446.02	3503.78
446.21	3407.82
446.39	3456.97
446.58	3499.10
446.77	3487.40
446.95	3445.27
447.14	3529.53
447.32	3517.83
447.51	3559.95
447.69	3543.57
447.88	3482.72
448.06	3761.24
448.25	3466.33
448.43	3529.53
448.62	3496.76
448.80	3438.25
448.99	3590.38
449.17	3499.10
449.36	3473.36
449.54	3669.96
449.73	3700.39
449.91	3569.32
450.10	3679.32
450.28	3768.26
450.46	3578.68
450.65	3684.00
450.83	3740.18
451.02	3838.48
451.20	3733.15
451.39	3761.24
451.57	3775.28
451.76	3714.43
451.94	3922.74
452.13	3812.73
452.31	3936.78
452.49	3744.86
452.68	3880.61
452.86	3882.95
453.05	3922.74
453.23	4049.13
453.42	3953.16
453.60	3889.97
453.78	3971.89
453.97	3957.85
454.15	3997.64
454.34	3934.44
454.52	4011.68
454.70	3880.61
454.89	4102.96
455.07	4117.00
455.26	4042.11
455.44	4245.73
455.62	4205.94
455.81	4229.35
455.99	3995.29
456.17	4306.59
456.36	4276.16
456.54	4175.52
456.73	4311.27
456.91	4360.42
457.09	4184.88
457.28	4477.44
457.46	4301.90
457.64	4425.95
457.83	4374.46
458.01	4290.20
458.19	4390.84
458.38	4299.56
458.56	4444.68
458.74	4477.44
458.93	4224.67
459.11	4423.61
459.29	4339.35
459.48	4585.11
459.66	4521.92
459.84	4606.17
460.03	4669.37
460.21	4517.23
460.39	4674.05
460.57	4416.59
460.76	4484.47
460.94	4582.77
461.12	4629.58
461.31	4652.98
461.49	4645.96
461.67	4599.15
461.85	4812.14
462.04	4620.22
462.22	4755.97
462.40	4732.56
462.59	4746.61
462.77	4706.82
462.95	4772.35
463.13	4725.54
463.32	4798.10
463.50	4819.16
463.68	4945.55
463.86	4828.53
464.05	4692.77
464.23	4833.21
464.41	4718.52
464.59	4795.76
464.78	4947.89
464.96	4952.57
465.14	4875.34
465.32	4873.00
465.50	5067.26
465.69	4943.21
465.87	4802.78
466.05	4966.62
466.23	4936.19
466.41	5128.11
466.60	5273.23
466.78	5001.72
466.96	5004.07
467.14	5041.51
467.32	5011.09
467.51	5116.41
467.69	5102.37
467.87	5160.88
468.05	5160.88
468.23	5188.97
468.41	5050.88
468.60	5095.35
468.78	5305.99
468.96	5139.82
469.14	5373.87
469.32	5380.89
469.50	5298.97
469.69	5397.28
469.87	5277.91
470.05	5383.23
470.23	5411.32
470.41	5322.38
470.59	5497.92
470.77	5500.26
470.95	5495.58
471.14	5437.06
471.32	5345.78
471.50	5544.73
471.68	5783.46
471.86	5692.18
472.04	5631.33
472.22	5839.64
472.40	5678.14
472.58	5937.94
472.77	5764.74
472.95	5795.17
473.13	5973.05
473.31	5797.51
473.49	5769.42
473.67	5872.40
473.85	5912.19
474.03	5996.45
474.21	6073.69
474.39	6043.26
474.57	5954.32
474.75	6146.25
474.93	6129.86
475.12	6167.31
475.30	6246.89
475.48	6164.97
475.66	6155.61
475.84	6181.35
476.02	6305.40
476.20	6321.79
476.38	6548.82
476.56	6658.82
476.74	6569.88
476.92	6420.09
477.10	6464.56
477.28	6761.81
477.46	6445.84
477.64	6707.98
477.82	6841.39
478.00	7007.56
478.18	6881.18
478.36	6993.52
478.54	6956.07
478.72	7103.53
478.90	7047.35
479.08	7080.12
479.26	7337.58
479.44	7236.94
479.62	7358.64
479.80	7330.56
479.98	7456.95
480.16	7737.81
480.34	7517.80
480.52	7513.12
480.70	7721.43
480.88	7672.28
481.06	7801.01
481.24	7737.81
481.41	7812.71
481.59	8049.10
481.77	8049.10
481.95	8194.22
482.13	8126.34
482.31	8016.33
482.49	8170.81
482.67	8322.94
482.85	8423.59
483.03	8652.96
483.21	8709.13
483.39	8596.79
483.57	8664.66
483.74	8798.07
483.92	8767.65
484.10	8683.39
484.28	9018.08
484.46	9053.19
484.64	9165.54
484.82	8849.57
485.00	9071.92
485.18	9240.44
485.35	9345.76
485.53	9179.58
485.71	9596.20
485.89	9638.33
486.07	9619.60
486.25	9659.39
486.43	9675.77
486.61	9795.14
486.78	9790.46
486.96	10083.03
487.14	10057.28
487.32	10043.24
487.50	10174.31
487.68	10338.15
487.85	10176.65
488.03	10457.51
488.21	10663.48
488.39	10602.63
488.57	10628.37
488.75	10787.53
488.92	10801.57
489.10	11091.80
489.28	10871.79
489.46	10871.79
489.64	11098.82
489.81	11456.92
489.99	11386.71
490.17	11538.84
490.35	11407.77
490.53	11506.07
490.70	11641.82
490.88	11763.53
491.06	11683.95
491.24	11637.14
491.41	11995.25
491.59	12070.14
491.77	11992.90
491.95	12093.55
492.13	12212.92
492.30	12294.83
492.48	12147.38
492.66	12358.03
492.84	12341.64
493.01	12549.95
493.19	12601.44
493.37	12681.02
493.54	12531.23
493.72	12643.57
493.90	12709.11
494.08	13308.29
494.25	13160.83
494.43	13238.07
494.61	13256.79
494.79	13331.69
494.96	13378.50
495.14	13635.96
495.32	13364.46
495.49	13568.09
495.67	13600.85
495.85	13743.63
496.02	14108.75
496.20	13923.85
496.38	13825.54
496.55	13935.55
496.73	14373.23
496.91	14094.71
497.09	14232.80
497.26	14504.30
497.44	14260.88
497.62	14396.64
497.79	14576.86
497.97	14450.47
498.14	14813.25
498.32	14934.96
498.50	14604.94
498.67	14984.11
498.85	15026.24
499.03	15213.48
499.20	15470.94
499.38	15159.65
499.56	15005.17
499.73	15494.35
499.91	15126.88
500.08	15435.83
500.26	15232.21
500.44	15470.94
500.61	15396.04
500.79	15506.05
500.97	15686.27
501.14	15618.39
501.32	16152.04
501.49	16004.58
501.67	15999.90
501.84	15857.13
502.02	15948.41
502.20	16091.18
502.37	16269.06
502.55	16051.39
502.72	16238.64
502.90	16411.84
503.07	16219.91
503.25	16269.06
503.43	16070.12
503.60	16678.66
503.78	16753.55
503.95	16404.81
504.13	16498.44
504.30	16746.53
504.48	16489.07
504.65	16826.11
504.83	16915.05
505.01	16886.97
505.18	17252.09
505.36	17242.73
505.53	16858.88
505.71	17128.04
505.88	17305.92
506.06	16952.50
506.23	17399.54
506.41	17451.03
506.58	17507.21
506.76	17275.49
506.93	17600.83
507.11	17729.56
507.28	17418.27
507.46	17748.28
507.63	17881.69
507.81	17731.90
507.98	17558.70
508.16	17776.37
508.33	17642.96
508.50	18118.09
508.68	18132.13
508.85	18265.54
509.03	18090.00
509.20	18106.38
509.38	18101.70
509.55	18492.57
509.73	18427.04
509.90	18251.50
510.08	18274.90
510.25	18207.03
510.42	18635.35
510.60	18845.99
510.77	18801.52
510.95	18906.85
511.12	18604.92
511.30	18520.66
511.47	18960.68
511.64	18920.89
511.82	19084.73
511.99	19248.57
512.17	19044.94
512.34	19201.76
512.51	19276.65
512.69	19187.71
512.86	19349.21
513.04	19484.96
513.21	19573.90
513.38	19410.06
513.56	19569.22
513.73	19517.73
513.90	19417.08
514.08	19534.11
514.25	19859.45
514.43	19690.93
514.60	19981.15
514.77	19857.10
514.95	20194.14
515.12	19796.25
515.29	19714.33
515.47	20360.32
515.64	20212.87
515.81	20180.10
515.99	20123.93
516.16	20393.09
516.33	20449.26
516.51	20365.00
516.68	20063.07
516.85	20489.05
517.03	20283.08
517.20	20507.77
517.37	20407.13
517.54	20706.72
517.72	20868.22
517.89	20739.49
518.06	20711.40
518.24	20643.52
518.41	20669.27
518.58	20720.76
518.75	20847.15
518.93	20795.66
519.10	20959.50
519.27	21371.43
519.45	21132.70
519.62	21036.74
519.79	21165.46
519.96	21013.33
520.14	20805.02
520.31	21078.86
520.48	21355.05
520.65	21303.56
520.83	21359.73
521.00	21434.63
521.17	21448.67
521.34	21294.19
521.52	21366.75
521.69	21493.14
521.86	21766.98
522.03	21788.05
522.20	22155.51
522.38	21975.29
522.55	21893.37
522.72	21884.01
522.89	21881.67
523.07	22038.48
523.24	22019.76
523.41	22155.51
523.58	22064.23
523.75	22277.22
523.92	22005.72
524.10	22059.55
524.27	22499.57
524.44	22286.58
524.61	22595.53
524.78	22466.80
524.96	22403.61
525.13	22462.12
525.30	22314.67
525.47	22506.59
525.64	22637.66
525.81	23054.28
525.98	23037.89
526.16	22574.47
526.33	22834.27
526.50	23075.34
526.67	22537.02
526.84	22843.63
527.01	22600.21
527.18	22892.78
527.36	23271.95
527.53	23187.69
527.70	23625.37
527.87	23541.11
528.04	23154.92
528.21	23435.78
528.38	23527.06
528.55	23257.90
528.72	23260.24
528.89	23484.94
529.07	23403.02
529.24	23616.01
529.41	23414.72
529.58	23391.31
529.75	23543.45
529.92	23379.61
530.09	23999.85
530.26	23784.52
530.43	23686.22
530.60	23758.78
530.77	23939.00
530.94	24063.05
531.11	23885.17
531.28	23723.67
531.46	23948.36
531.63	23711.97
531.80	24086.45
531.97	23967.09
532.14	24109.86
532.31	24151.99
532.48	24121.56
532.65	24528.81
532.82	23927.30
532.99	23999.85
533.16	24084.11
533.33	24592.01
533.50	24194.12
533.67	24381.36
533.84	24290.08
534.01	23910.91
534.18	24596.69
534.35	24790.95
534.52	24404.77
534.69	24788.61
534.86	24744.14
535.03	24367.32
535.20	24711.38
535.37	24769.89
535.54	24877.55
535.71	24783.93
535.88	24898.62
536.05	24669.25
536.22	25163.10
536.38	25041.39
536.55	25172.46
536.72	25081.18
536.89	24992.24
537.06	25060.12
537.23	25528.22
537.40	24954.79
537.57	25230.98
537.74	25212.25
537.91	25432.26
538.08	25322.26
538.25	25081.18
538.42	25233.32
538.59	25326.94
538.75	25397.15
538.92	25376.09
539.09	25680.36
539.26	25326.94
539.43	25729.51
539.60	25963.56
539.77	25614.82
539.94	25792.70
540.11	25575.03
540.28	25858.24
540.44	26059.52
540.61	25703.76
540.78	25598.44
540.95	25979.95
541.12	25874.62
541.29	25762.28
541.46	25813.77
541.62	25685.04
541.79	26003.35
541.96	25699.08
542.13	25366.73
542.30	25846.54
542.47	26033.78
542.63	26429.33
542.80	26129.74
542.97	26230.38
543.14	26822.54
543.31	26398.90
543.48	26188.25
543.64	26639.98
543.81	26761.69
543.98	26588.49
544.15	26576.78
544.32	26614.23
544.48	26831.90
544.65	26602.53
544.82	26551.04
544.99	26551.04
545.16	26642.32
545.32	26766.37
545.49	26808.50
545.66	27138.51
545.83	27080.00
546.00	26951.27
546.16	26857.65
546.33	26862.33
546.50	26567.42
546.67	27061.27
546.83	26534.65
547.00	26939.57
547.17	26878.71
547.34	27056.59
547.50	27229.79
547.67	27098.72
547.84	27056.59
548.00	27161.92
548.17	27199.37
548.34	27080.00
548.51	27339.80
548.67	27608.96
548.84	27232.13
549.01	27229.79
549.18	27398.31
549.34	27431.08
549.51	27281.28
549.68	27108.08
549.84	27421.72
550.01	27466.19
550.18	27398.31
550.34	27435.76
550.51	27452.14
550.68	27641.73
550.84	27138.51
551.01	27700.24
551.18	27260.22
551.34	27412.35
551.51	27484.91
551.68	27515.34
551.84	27452.14
552.01	27768.12
552.18	27597.26
552.34	27716.62
552.51	27630.02
552.68	27627.68
552.84	27735.35
553.01	28203.46
553.18	27950.68
553.34	27924.93
553.51	28137.92
553.67	28032.60
553.84	28098.13
554.01	28006.85
554.17	27981.10
554.34	28196.43
554.51	28451.55
554.67	28093.45
554.84	27962.38
555.00	28212.82
555.17	27889.82
555.33	27915.57
555.50	28510.07
555.67	28182.39
555.83	27826.63
556.00	28376.66
556.16	28472.62
556.33	28091.11
556.50	28449.21
556.66	28102.81
556.83	28467.94
556.99	28795.61
557.16	28851.78
557.32	28762.84
557.49	28552.20
557.65	28367.29
557.82	28575.60
557.98	28456.23
558.15	28676.24
558.32	28734.76
558.48	28472.62
558.65	28830.72
558.81	28512.41
558.98	29081.16
559.14	28772.21
559.31	28889.23
559.47	28776.89
559.64	28535.81
559.80	28648.16
559.97	29134.99
560.13	28393.04
560.30	28559.22
560.46	28879.87
560.63	28788.59
560.79	28973.49
560.96	28779.23
561.12	28720.71
561.29	28886.89
561.45	28811.99
561.61	28868.17
561.78	29024.98
561.94	29118.60
562.11	28755.82
562.27	29170.10
562.44	28980.51
562.60	29088.18
562.77	29116.26
562.93	28879.87
563.10	29298.83
563.26	29200.52
563.42	29500.11
563.59	29177.12
563.75	29242.65
563.92	29102.22
564.08	29219.25
564.24	29022.64
564.41	29071.79
564.57	29036.69
564.74	29022.64
564.90	29366.70
565.07	29312.87
565.23	28968.81
565.39	29127.97
565.56	29589.05
565.72	29528.20
565.88	29432.24
566.05	28947.75
566.21	29088.18
566.38	29495.43
566.54	29582.03
566.70	29530.54
566.87	29759.91
567.03	29357.34
567.19	29596.07
567.36	29298.83
567.52	29605.44
567.68	29303.51
567.85	29380.74
568.01	29165.42
568.17	29212.23
568.34	29696.72
568.50	29565.65
568.66	29766.93
568.83	29933.11
568.99	29750.55
569.15	29462.66
569.32	29186.48
569.48	29277.76
569.64	29338.62
569.81	29750.55
569.97	29727.14
570.13	29841.83
570.30	29511.81
570.46	29839.49
570.62	29427.56
570.78	29406.49
570.95	29113.92
571.11	29366.70
571.27	29174.78
571.43	29357.34
571.60	29668.63
571.76	29734.17
571.92	29132.65
572.09	29350.32
572.25	29900.34
572.41	29603.10
572.57	29415.85
572.74	29993.97
572.90	29567.99
573.06	29652.25
573.22	29233.29
573.38	29762.25
573.55	29589.05
573.71	29755.23
573.87	29883.96
574.03	29827.79
574.20	29577.35
574.36	29837.15
574.52	29677.99
574.68	29376.06
574.84	29750.55
575.01	29724.80
575.17	29589.05
575.33	29738.85
575.49	29984.60
575.65	30008.01
575.82	29806.72
575.98	29565.65
576.14	29928.43
576.30	29563.31
576.46	29837.15
576.62	29514.16
576.79	29701.40
576.95	29820.77
577.11	29963.54
577.27	29867.58
577.43	29926.09
577.59	29736.51
577.75	29509.47
577.92	29497.77
578.08	29816.08
578.24	29448.62
578.40	29598.41
578.56	30066.52
578.72	29933.11
578.88	30181.21
579.04	29916.73
579.21	29881.62
579.37	29954.18
579.53	29968.22
579.69	29841.83
579.85	29476.71
580.01	29954.18
580.17	29638.20
580.33	29963.54
580.49	29670.97
580.65	29996.31
580.82	29549.26
580.98	29844.17
581.14	29713.10
581.30	29998.65
581.46	29958.86
581.62	30284.19
581.78	29809.06
581.94	29879.28
582.10	29614.80
582.26	29795.02
582.42	30008.01
582.58	29972.90
582.74	29858.21
582.90	30249.08
583.06	29900.34
583.22	30122.69
583.38	30192.91
583.54	29961.20
583.70	29560.97
583.86	29907.37
584.02	29883.96
584.18	30286.53
584.34	30235.04
584.50	30110.99
584.66	30281.85
584.82	29493.09
584.98	29839.49
585.14	29876.94
585.30	29652.25
585.46	30043.12
585.62	30183.55
585.78	29888.64
585.94	29497.77
586.10	29762.25
586.26	29764.59
586.42	30167.16
586.58	30312.28
586.74	29907.37
586.90	29869.92
587.06	29867.58
587.22	30061.84
587.38	29968.22
587.54	30089.93
587.70	30008.01
587.86	29699.06
588.02	30373.13
588.18	30274.83
588.34	30286.53
588.49	30302.92
588.65	29940.13
588.81	30178.87
588.97	29951.84
589.13	30110.99
589.29	30029.07
589.45	29844.17
589.61	29912.05
589.77	30520.59
589.93	30492.50
590.08	30780.39
590.24	30642.29
590.40	30293.55
590.56	30094.61
590.72	30127.38
590.88	30480.80
591.04	30183.55
591.20	30274.83
591.35	30747.62
591.51	31140.83
591.67	30300.58
591.83	30904.43
591.99	30504.20
