SpectraSuite Data File
++++++++++++++++++++++++++++++++++++
Date: Fri Oct 18 13:58:08 GMT-05:00 2013
User: bianchi
Dark Spectrum Present: No
Reference Spectrum Present: No
Number of Sampled Component Spectra: 1
Spectrometers: USB2+H05261
Integration Time (usec): 50000 (USB2+H05261)
Spectra Averaged: 1 (USB2+H05261)
Boxcar Smoothing: 0 (USB2+H05261)
Correct for Electrical Dark: No (USB2+H05261)
Strobe/Lamp Enabled: No (USB2+H05261)
Correct for Detector Non-linearity: No (USB2+H05261)
Correct for Stray Light: No (USB2+H05261)
Number of Pixels in Processed Spectrum: 2048
>>>>>Begin Processed Spectral Data<<<<<
365.73	0.00
365.92	0.00
366.12	0.00
366.32	0.00
366.52	0.00
366.72	0.00
366.91	0.00
367.11	0.00
367.31	0.00
367.51	0.00
367.70	0.00
367.90	0.00
368.10	0.00
368.30	0.00
368.49	0.00
368.69	0.00
368.89	0.00
369.09	0.00
369.28	0.00
369.48	0.00
369.68	0.00
369.87	0.00
370.07	0.00
370.27	0.00
370.47	0.00
370.66	124.05
370.86	63.19
371.06	131.07
371.25	154.48
371.45	177.88
371.65	138.09
371.84	173.20
372.04	138.09
372.24	154.48
372.44	210.65
372.63	168.52
372.83	252.78
373.03	227.03
373.22	217.67
373.42	224.69
373.62	196.60
373.81	222.35
374.01	173.20
374.21	189.58
374.40	189.58
374.60	257.46
374.79	212.99
374.99	238.73
375.19	243.42
375.38	304.27
375.58	271.50
375.78	264.48
375.97	278.52
376.17	252.78
376.37	252.78
376.56	271.50
376.76	205.97
376.95	264.48
377.15	252.78
377.35	252.78
377.54	210.65
377.74	166.18
377.93	290.23
378.13	292.57
378.33	243.42
378.52	337.04
378.72	341.72
378.91	280.86
379.11	257.46
379.31	290.23
379.50	283.20
379.70	299.59
379.89	280.86
380.09	325.33
380.28	297.25
380.48	383.85
380.68	301.93
380.87	294.91
381.07	315.97
381.26	315.97
381.46	411.93
381.65	390.87
381.85	306.61
382.04	285.55
382.24	264.48
382.43	250.44
382.63	355.76
382.83	313.63
383.02	360.44
383.22	393.21
383.41	318.31
383.61	287.89
383.80	374.49
384.00	411.93
384.19	334.70
384.39	369.80
384.58	362.78
384.78	276.18
384.97	397.89
385.17	397.89
385.36	379.17
385.56	348.74
385.75	418.96
385.95	388.53
386.14	435.34
386.34	442.36
386.53	376.83
386.72	327.68
386.92	447.04
387.11	409.59
387.31	383.85
387.50	423.64
387.70	414.27
387.89	383.85
388.09	444.70
388.28	486.83
388.48	421.30
388.67	383.85
388.86	528.96
389.06	458.74
389.25	447.04
389.45	526.62
389.64	493.85
389.84	538.32
390.03	533.64
390.22	512.58
390.42	472.79
390.61	533.64
390.81	543.00
391.00	500.87
391.19	571.09
391.39	538.32
391.58	559.39
391.78	528.96
391.97	503.22
392.16	458.74
392.36	599.18
392.55	512.58
392.75	479.81
392.94	535.98
393.13	545.34
393.33	580.45
393.52	610.88
393.71	601.52
393.91	601.52
394.10	489.17
394.29	554.71
394.49	540.66
394.68	613.22
394.88	622.58
395.07	540.66
395.26	650.67
395.46	585.13
395.65	571.09
395.84	662.37
396.04	629.60
396.23	622.58
396.42	603.86
396.62	667.05
396.81	641.31
397.00	681.10
397.19	627.26
397.39	683.44
397.58	706.84
397.77	713.86
397.97	641.31
398.16	641.31
398.35	777.06
398.55	669.39
398.74	739.61
398.93	734.93
399.12	664.71
399.32	660.03
399.51	657.69
399.70	760.67
399.90	718.54
400.09	866.00
400.28	751.31
400.47	784.08
400.67	746.63
400.86	861.32
401.05	751.31
401.24	793.44
401.44	870.68
401.63	840.25
401.82	823.87
402.01	835.57
402.21	882.38
402.40	868.34
402.59	849.61
402.78	798.12
402.97	908.13
403.17	866.00
403.36	947.92
403.55	814.51
403.74	891.74
403.93	856.64
404.13	880.04
404.32	837.91
404.51	823.87
404.70	983.02
404.89	961.96
405.09	983.02
405.28	1107.07
405.47	957.28
405.66	1020.47
405.85	1004.09
406.05	961.96
406.24	983.02
406.43	980.68
406.62	966.64
406.81	1013.45
407.00	1034.52
407.20	1029.84
407.39	976.00
407.58	924.51
407.77	1029.84
407.96	1139.84
408.15	1116.44
408.34	1104.73
408.54	1118.78
408.73	1109.41
408.92	1263.89
409.11	1123.46
409.30	1069.62
409.49	1069.62
409.68	1181.97
409.87	1135.16
410.07	1240.48
410.26	1170.27
410.45	1256.87
410.64	1275.59
410.83	1252.19
411.02	1219.42
411.21	1188.99
411.40	1149.20
411.59	1261.55
411.78	1259.21
411.98	1320.06
412.17	1359.85
412.36	1387.94
412.55	1261.55
412.74	1266.23
412.93	1380.92
413.12	1355.17
413.31	1362.19
413.50	1362.19
413.69	1387.94
413.88	1387.94
414.07	1376.24
414.26	1441.77
414.45	1504.96
414.64	1521.35
414.83	1572.84
415.02	1591.56
415.22	1500.28
415.41	1556.46
415.60	1638.38
415.79	1563.48
415.98	1652.42
416.17	1591.56
416.36	1568.16
416.55	1673.48
416.74	1689.87
416.93	1664.12
417.12	1755.40
417.31	1715.61
417.50	1729.66
417.69	1769.44
417.88	1792.85
418.07	1795.19
418.26	1818.60
418.45	1771.79
418.64	1935.62
418.83	1811.57
419.02	1839.66
419.21	1757.74
419.39	1842.00
419.58	1832.64
419.77	1823.28
419.96	1797.53
420.15	1963.71
420.34	1900.52
420.53	1830.30
420.72	2003.50
420.91	1975.41
421.10	1856.04
421.29	1942.64
421.48	1870.09
421.67	1982.43
421.86	1956.69
422.05	1998.82
422.24	1996.48
422.43	1893.49
422.61	1980.09
422.80	1977.75
422.99	2064.35
423.18	2136.91
423.37	2052.65
423.56	2015.20
423.75	2005.84
423.94	2129.89
424.13	1860.73
424.32	1961.37
424.50	2111.16
424.69	2111.16
424.88	2059.67
425.07	1994.14
425.26	1977.75
425.45	2134.57
425.64	2022.22
425.83	2134.57
426.01	2150.95
426.20	2029.24
426.39	2012.86
426.58	2132.23
426.77	2017.54
426.96	2125.21
427.15	2022.22
427.33	2047.97
427.52	2122.87
427.71	2139.25
427.90	2073.71
428.09	2211.81
428.28	2193.08
428.46	2260.96
428.65	2326.49
428.84	2216.49
429.03	2352.24
429.22	2214.15
429.40	2176.70
429.59	2331.17
429.78	2139.25
429.97	2223.51
430.16	2312.45
430.34	2373.30
430.53	2429.48
430.72	2352.24
430.91	2314.79
431.10	2387.35
431.28	2415.43
431.47	2434.16
431.66	2478.63
431.85	2464.58
432.03	2497.35
432.22	2417.77
432.41	2356.92
432.60	2443.52
432.79	2506.71
432.97	2593.31
433.16	2476.29
433.35	2506.71
433.54	2612.04
433.72	2626.08
433.91	2420.11
434.10	2483.31
434.28	2583.95
434.47	2586.29
434.66	2621.40
434.85	2581.61
435.03	2574.59
435.22	2710.34
435.41	2752.47
435.59	2719.70
435.78	2558.21
435.97	2658.85
436.16	2586.29
436.34	2745.45
436.53	2583.95
436.72	2717.36
436.90	2738.43
437.09	2661.19
437.28	2679.91
437.46	2752.47
437.65	2752.47
437.84	2806.30
438.02	2789.92
438.21	2876.52
438.40	2656.51
438.58	2949.08
438.77	2902.26
438.96	2974.82
439.14	3068.44
439.33	2885.88
439.52	3009.93
439.70	3007.59
439.89	3087.17
440.08	3122.27
440.26	3016.95
440.45	2984.18
440.63	3227.60
440.82	3152.70
441.01	3002.91
441.19	3126.96
441.38	3255.69
441.57	3162.06
441.75	3283.77
441.94	3262.71
442.12	3370.37
442.31	3321.22
442.50	3529.53
442.68	3391.44
442.87	3262.71
443.05	3356.33
443.24	3346.97
443.43	3293.13
443.61	3363.35
443.80	3499.10
443.98	3346.97
444.17	3272.07
444.35	3452.29
444.54	3499.10
444.73	3396.12
444.91	3421.86
445.10	3571.66
445.28	3410.16
445.47	3447.61
445.65	3531.87
445.84	3515.48
446.02	3522.51
446.21	3508.46
446.39	3424.20
446.58	3485.06
446.77	3487.40
446.95	3421.86
447.14	3562.30
447.32	3510.80
447.51	3368.03
447.69	3569.32
447.88	3468.67
448.06	3370.37
448.25	3447.61
448.43	3597.40
448.62	3557.61
448.80	3494.42
448.99	3702.73
449.17	3552.93
449.36	3485.06
449.54	3639.53
449.73	3740.18
449.91	3723.79
450.10	3770.60
450.28	3817.41
450.46	3765.92
450.65	3674.64
450.83	3751.88
451.02	3819.75
451.20	3845.50
451.39	3838.48
451.57	3810.39
451.76	3864.22
451.94	3911.04
452.13	3861.88
452.31	3822.09
452.49	3808.05
452.68	3889.97
452.86	3901.67
453.05	3978.91
453.23	3934.44
453.42	3878.27
453.60	3950.82
453.78	4102.96
453.97	3941.46
454.15	4037.42
454.34	4098.28
454.52	4182.54
454.70	4016.36
454.89	4142.75
455.07	4131.05
455.26	4074.87
455.44	4180.20
455.62	4060.83
455.81	4117.00
455.99	4081.89
456.17	4159.13
456.36	4257.43
456.54	4142.75
456.73	4180.20
456.91	4250.41
457.09	4255.09
457.28	4472.76
457.46	4287.86
457.64	4292.54
457.83	4486.81
458.01	4276.16
458.19	4409.57
458.38	4271.48
458.56	4423.61
458.74	4437.66
458.93	4493.83
459.11	4388.50
459.29	4493.83
459.48	4599.15
459.66	4526.60
459.84	4594.47
460.03	4676.39
460.21	4629.58
460.39	4652.98
460.57	4498.51
460.76	4638.94
460.94	4568.73
461.12	4608.51
461.31	4723.20
461.49	4655.33
461.67	4784.06
461.85	4844.91
462.04	4716.18
462.22	5123.43
462.40	4748.95
462.59	4786.40
462.77	4821.50
462.95	4854.27
463.13	4690.43
463.32	4833.21
463.50	4961.94
463.68	4877.68
463.86	4884.70
464.05	4793.42
464.23	4882.36
464.41	4912.78
464.59	4917.47
464.78	5055.56
464.96	4994.70
465.14	4891.72
465.32	5104.71
465.50	5067.26
465.69	5078.96
465.87	4922.15
466.05	5184.29
466.23	5132.79
466.41	5018.11
466.60	5165.56
466.78	5107.05
466.96	5036.83
467.14	5046.20
467.32	5071.94
467.51	5289.61
467.69	5151.52
467.87	5254.50
468.05	5179.61
468.23	5050.88
468.41	5153.86
468.60	5298.97
468.78	5301.31
468.96	5294.29
469.14	5284.93
469.32	5453.45
469.50	5151.52
469.69	5469.83
469.87	5437.06
470.05	5495.58
470.23	5472.17
470.41	5394.93
470.59	5411.32
470.77	5453.45
470.95	5551.75
471.14	5788.14
471.32	5528.35
471.50	5640.69
471.68	5675.80
471.86	5731.97
472.04	5804.53
472.22	5923.90
472.40	5633.67
472.58	5774.10
472.77	5783.46
472.95	5724.95
473.13	5933.26
473.31	5863.04
473.49	5856.02
473.67	5818.57
473.85	5902.83
474.03	6050.28
474.21	5987.09
474.39	6071.35
474.57	6108.80
474.75	6190.72
474.93	6282.00
475.12	6314.77
475.30	6249.23
475.48	6274.98
475.66	6183.70
475.84	6195.40
476.02	6457.54
476.20	6565.20
476.38	6499.67
476.56	6621.38
476.74	6520.73
476.92	6677.55
477.10	6539.46
477.28	6724.36
477.46	6825.00
477.64	6771.17
477.82	6871.81
478.00	6846.07
478.18	7087.14
478.36	7000.54
478.54	7286.09
478.72	7091.82
478.90	7267.36
479.08	7466.31
479.26	7379.71
479.44	7330.56
479.62	7494.40
479.80	7595.04
479.98	7480.35
480.16	7559.93
480.34	7424.18
480.52	7747.17
480.70	7702.70
480.88	7679.30
481.06	7992.93
481.24	7889.95
481.41	7798.66
481.59	7960.16
481.77	8152.09
481.95	8039.74
482.13	8042.08
482.31	8208.26
482.49	8205.92
482.67	8421.25
482.85	8500.83
483.03	8594.45
483.21	8716.16
483.39	8667.00
483.57	8798.07
483.74	8690.41
483.92	8821.48
484.10	8861.27
484.28	9062.55
484.46	9013.40
484.64	9289.59
484.82	9116.39
485.00	9083.62
485.18	9415.98
485.35	9514.28
485.53	9472.15
485.71	9441.72
485.89	9790.46
486.07	9741.31
486.25	9652.37
486.43	9753.01
486.61	10036.22
486.78	10106.43
486.96	10043.24
487.14	10244.52
487.32	10246.87
487.50	10340.49
487.68	10274.95
487.85	10375.59
488.03	10492.62
488.21	10855.40
488.39	10689.23
488.57	10956.05
488.75	10864.77
488.92	10991.16
489.10	11255.64
489.28	11166.70
489.46	11183.08
489.64	11194.78
489.81	11342.24
489.99	11349.26
490.17	11480.33
490.35	11665.23
490.53	11559.91
490.70	11779.92
490.88	11932.05
491.06	12004.61
491.24	11700.34
491.41	11964.82
491.59	12208.23
491.77	12299.52
491.95	12336.96
492.13	12453.99
492.30	12262.07
492.48	12428.24
492.66	12578.04
492.84	12690.38
493.01	12479.74
493.19	12730.17
493.37	12837.84
493.54	12898.69
493.72	13053.17
493.90	12730.17
494.08	12912.74
494.25	13062.53
494.43	13341.05
494.61	13240.41
494.79	13369.14
494.96	13518.93
495.14	13600.85
495.32	13638.30
495.49	14047.90
495.67	13935.55
495.85	13841.93
496.02	14139.18
496.20	14162.58
496.38	14141.52
496.55	13809.16
496.73	14551.11
496.91	14143.86
497.09	14684.52
497.26	14483.24
497.44	14815.59
497.62	14555.79
497.79	14824.95
497.97	14586.22
498.14	14925.60
498.32	14923.26
498.50	14937.30
498.67	14977.09
498.85	15000.49
499.03	15192.42
499.20	15194.76
499.38	15281.36
499.56	15564.56
499.73	15499.03
499.91	15761.17
500.08	15632.44
500.26	15463.92
500.44	15777.55
500.61	15953.09
500.79	15683.93
500.97	15852.45
501.14	16194.17
501.32	16212.89
501.49	15899.26
501.67	15992.88
501.84	16081.82
502.02	16123.95
502.20	16147.36
502.37	16547.59
502.55	16348.64
502.72	16624.83
502.90	16503.12
503.07	16343.96
503.25	16390.77
503.43	16615.46
503.60	16744.19
503.78	16884.62
503.95	16730.15
504.13	17121.02
504.30	16863.56
504.48	16781.64
504.65	17060.16
504.83	17165.49
505.01	17348.05
505.18	17245.07
505.36	17205.28
505.53	17216.98
505.71	17235.70
505.88	17315.28
506.06	17153.79
506.23	17701.47
506.41	17745.94
506.58	17692.11
506.76	17708.49
506.93	17483.80
507.11	17647.64
507.28	17638.28
507.46	18195.32
507.63	18127.45
507.81	18050.21
507.98	17954.25
508.16	17954.25
508.33	17804.46
508.50	18001.06
508.68	18347.46
508.85	18436.40
509.03	18415.34
509.20	18197.67
509.38	18635.35
509.55	18637.69
509.73	18642.37
509.90	18647.05
510.08	18356.82
510.25	18799.18
510.42	18773.44
510.60	18876.42
510.77	18991.11
510.95	18995.79
511.12	18623.64
511.30	18874.08
511.47	19082.39
511.64	19180.69
511.82	19192.39
511.99	19541.13
512.17	19419.42
512.34	19248.57
512.51	19587.94
512.69	19721.35
512.86	19658.16
513.04	19569.22
513.21	19583.26
513.38	19566.88
513.56	19559.86
513.73	19950.73
513.90	19894.55
514.08	19723.69
514.25	20034.99
514.43	19983.49
514.60	19950.73
514.77	20212.87
514.95	19868.81
515.12	20074.77
515.29	20016.26
515.47	20397.77
515.64	20575.65
515.81	20521.82
515.99	20173.08
516.16	20418.83
516.33	20526.50
516.51	20788.64
516.68	21041.42
516.85	20573.31
517.03	20781.62
517.20	21053.12
517.37	21029.71
517.54	20793.32
517.72	20891.62
517.89	20732.47
518.06	21020.35
518.24	21071.84
518.41	20830.77
518.58	21118.65
518.75	21153.76
518.93	21364.41
519.10	21228.66
519.27	21106.95
519.45	21336.32
519.62	21415.90
519.79	21315.26
519.96	21474.42
520.14	21689.74
520.31	21455.69
520.48	21645.27
520.65	21701.45
520.83	21785.71
521.00	22127.42
521.17	21465.05
521.34	21713.15
521.52	21575.06
521.69	21869.97
521.86	22204.66
522.03	21919.12
522.20	22082.95
522.38	22104.02
522.55	22221.05
522.72	22129.77
522.89	22185.94
523.07	22370.84
523.24	22188.28
523.41	22380.20
523.58	22141.47
523.75	22644.68
523.92	22328.71
524.10	22260.84
524.27	22263.18
524.44	23016.83
524.61	22742.99
524.78	23073.00
524.96	22642.34
525.13	22600.21
525.30	23056.62
525.47	22911.50
525.64	23126.83
525.81	23019.17
525.98	23143.22
526.16	23311.74
526.33	23044.91
526.50	23667.50
526.67	23068.32
526.84	23089.38
527.01	22768.73
527.18	23459.19
527.36	23403.02
527.53	23625.37
527.70	24084.11
527.87	23597.28
528.04	23445.15
528.21	23669.84
528.38	23723.67
528.55	23765.80
528.72	23690.90
528.89	23929.64
529.07	24034.96
529.24	23864.10
529.41	23723.67
529.58	23894.53
529.75	24212.84
529.92	23793.89
530.09	24105.18
530.26	24376.68
530.43	24079.43
530.60	24421.15
530.77	24290.08
530.94	23894.53
531.11	24154.33
531.28	24304.12
531.46	24189.44
531.63	24577.97
531.80	24411.79
531.97	24456.26
532.14	24547.54
532.31	24201.14
532.48	24226.89
532.65	24638.82
532.82	24442.21
532.99	24652.86
533.16	24540.52
533.33	24797.98
533.50	24919.68
533.67	24816.70
533.84	24381.36
534.01	24823.72
534.18	24844.79
534.35	24891.60
534.52	24800.32
534.69	24884.58
534.86	25390.13
535.03	25099.90
535.20	24996.92
535.37	25336.30
535.54	25364.39
535.71	24650.52
535.88	24943.09
536.05	25228.63
536.22	25025.01
536.38	25434.60
536.55	25366.73
536.72	25102.25
536.89	25184.16
537.06	25214.59
537.23	25254.38
537.40	25212.25
537.57	25703.76
537.74	25427.58
537.91	25895.69
538.08	25722.49
538.25	25556.31
538.42	25500.14
538.59	25846.54
538.75	25748.23
538.92	25500.14
539.09	25968.24
539.26	25621.84
539.43	26015.05
539.60	26195.28
539.77	26150.81
539.94	25891.01
540.11	25486.09
540.28	25855.90
540.44	26096.97
540.61	26139.10
540.78	26211.66
540.95	26047.82
541.12	26504.23
541.29	26188.25
541.46	26206.98
541.62	26183.57
541.79	25909.73
541.96	26045.48
542.13	26174.21
542.30	26218.68
542.47	26305.28
542.63	26286.56
542.80	26803.82
542.97	26749.98
543.14	26827.22
543.31	26934.88
543.48	26555.72
543.64	26993.40
543.81	26803.82
543.98	27044.89
544.15	27054.25
544.32	27178.30
544.48	27377.25
544.65	26977.01
544.82	26478.48
544.99	27248.52
545.16	26960.63
545.32	27136.17
545.49	27248.52
545.66	27171.28
545.83	27482.57
546.00	27400.65
546.16	27168.94
546.33	27171.28
546.50	27016.80
546.67	27271.92
546.83	27054.25
547.00	27080.00
547.17	27978.76
547.34	27271.92
547.50	27686.20
547.67	27826.63
547.84	27637.05
548.00	27075.32
548.17	27260.22
548.34	27147.87
548.51	27889.82
548.67	27641.73
548.84	27967.06
549.01	27775.14
549.18	27398.31
549.34	27543.42
549.51	27676.83
549.68	27489.59
549.84	27704.92
550.01	27805.56
550.18	27817.27
550.34	27845.35
550.51	27992.81
550.68	28191.75
550.84	27534.06
551.01	27800.88
551.18	27969.40
551.34	28142.60
551.51	28034.94
551.68	28217.50
551.84	28362.61
552.01	28105.15
552.18	28290.06
552.34	28217.50
552.51	28224.52
552.68	28020.89
552.84	28154.30
553.01	28449.21
553.18	27924.93
553.34	28435.17
553.51	28521.77
553.67	28259.63
553.84	28716.03
554.01	28484.32
554.17	28521.77
554.34	28184.73
554.51	28650.50
554.67	28814.34
554.84	28741.78
555.00	28360.27
555.17	28549.85
555.33	28507.72
555.50	28460.91
555.67	28280.69
555.83	28556.88
556.00	28924.34
556.16	28893.91
556.33	28673.90
556.50	28762.84
556.66	28947.75
556.83	28961.79
556.99	28800.29
557.16	29076.48
557.32	29099.88
557.49	28659.86
557.65	28449.21
557.82	28526.45
557.98	28992.22
558.15	28837.74
558.32	29195.84
558.48	28872.85
558.65	29294.14
558.81	29467.34
558.98	28734.76
559.14	29081.16
559.31	29060.09
559.47	29357.34
559.64	29408.83
559.80	29055.41
559.97	29132.65
560.13	28924.34
560.30	28875.19
560.46	29163.08
560.63	28957.11
560.79	29476.71
560.96	29741.19
561.12	29160.73
561.29	29366.70
561.45	29090.52
561.61	29598.41
561.78	29638.20
561.94	29521.18
562.11	29582.03
562.27	29439.26
562.44	29186.48
562.60	29163.08
562.77	29268.40
562.93	29427.56
563.10	29127.97
563.26	29235.63
563.42	30246.74
563.59	29352.66
563.75	29736.51
563.92	29422.87
564.08	29287.12
564.24	29495.43
564.41	29446.28
564.57	29685.01
564.74	29345.64
564.90	29652.25
565.07	29745.87
565.23	29825.45
565.39	29647.57
565.56	29446.28
565.72	29610.12
565.88	29670.97
566.05	29773.95
566.21	29818.42
566.38	29755.23
566.54	29951.84
566.70	29816.08
566.87	30190.57
567.03	29748.21
567.19	30066.52
567.36	29881.62
567.52	29923.75
567.68	29773.95
567.85	29867.58
568.01	30171.85
568.17	29572.67
568.34	30181.21
568.50	29956.52
568.66	29469.69
568.83	29839.49
568.99	29582.03
569.15	29991.62
569.32	29818.42
569.48	29589.05
569.64	29883.96
569.81	30082.91
569.97	29762.25
570.13	30323.98
570.30	30157.80
570.46	30691.44
570.62	29837.15
570.78	29614.80
570.95	29724.80
571.11	29949.50
571.27	29928.43
571.43	29993.97
571.60	30242.06
571.76	30040.78
571.92	30211.64
572.09	30068.86
572.25	30043.12
572.41	29926.09
572.57	30410.58
572.74	30277.17
572.90	30052.48
573.06	29766.93
573.22	30316.96
573.38	30106.31
573.55	30326.32
573.71	30583.78
573.87	29893.32
574.03	29809.06
574.20	29998.65
574.36	29998.65
574.52	30373.13
574.68	30071.20
574.84	30185.89
575.01	30246.74
575.17	30539.31
575.33	30356.75
575.49	30415.26
575.65	30174.19
575.82	30015.03
575.98	30082.91
576.14	30251.42
576.30	29986.94
576.46	30251.42
576.62	30309.94
576.79	30534.63
576.95	30443.35
577.11	30272.49
577.27	30438.67
577.43	30295.89
577.59	30630.59
577.75	30352.07
577.92	30139.08
578.08	29954.18
578.24	30270.15
578.40	30228.02
578.56	30244.40
578.72	30256.11
578.88	30831.88
579.04	30792.09
579.21	30272.49
579.37	30366.11
579.53	30389.52
579.69	30103.97
579.85	30106.31
580.01	30466.75
580.17	30134.40
580.33	30581.44
580.49	30370.79
580.65	30644.63
580.82	30513.56
580.98	30445.69
581.14	30501.86
581.30	30377.81
581.46	30480.80
581.62	30403.56
581.78	30228.02
581.94	30438.67
582.10	30146.10
582.26	30511.22
582.42	30691.44
582.58	30604.84
582.74	30356.75
582.90	30352.07
583.06	30499.52
583.22	29986.94
583.38	30363.77
583.54	30209.29
583.70	30518.25
583.86	30501.86
584.02	29851.19
584.18	30927.84
584.34	30705.49
584.50	30792.09
584.66	30466.75
584.82	30457.39
584.98	30529.95
585.14	30382.49
585.30	29954.18
585.46	30253.76
585.62	30244.40
585.78	30611.87
585.94	30431.65
586.10	30663.36
586.26	30796.77
586.42	30670.38
586.58	30721.87
586.74	30375.47
586.90	30426.96
587.06	30436.33
587.22	30036.09
587.38	30307.60
587.54	30642.29
587.70	30600.16
587.86	30696.13
588.02	30817.83
588.18	30820.17
588.34	30824.86
588.49	30944.22
588.65	30616.55
588.81	30452.71
588.97	30902.09
589.13	30305.26
589.29	30562.72
589.45	30754.64
589.61	31096.36
589.77	30958.27
589.93	31040.18
590.08	31157.21
590.24	30976.99
590.40	31358.50
590.56	30937.20
590.72	30721.87
590.88	30691.44
591.04	30576.76
591.20	31405.31
591.35	31026.14
591.51	31253.17
591.67	31082.31
591.83	31402.97
591.99	30972.31
