SpectraSuite Data File
++++++++++++++++++++++++++++++++++++
Date: Fri Oct 18 13:58:10 GMT-05:00 2013
User: bianchi
Dark Spectrum Present: No
Reference Spectrum Present: No
Number of Sampled Component Spectra: 1
Spectrometers: USB2+H05261
Integration Time (usec): 50000 (USB2+H05261)
Spectra Averaged: 1 (USB2+H05261)
Boxcar Smoothing: 0 (USB2+H05261)
Correct for Electrical Dark: No (USB2+H05261)
Strobe/Lamp Enabled: No (USB2+H05261)
Correct for Detector Non-linearity: No (USB2+H05261)
Correct for Stray Light: No (USB2+H05261)
Number of Pixels in Processed Spectrum: 2048
>>>>>Begin Processed Spectral Data<<<<<
365.73	0.00
365.92	0.00
366.12	0.00
366.32	0.00
366.52	0.00
366.72	0.00
366.91	0.00
367.11	0.00
367.31	0.00
367.51	0.00
367.70	0.00
367.90	0.00
368.10	0.00
368.30	0.00
368.49	0.00
368.69	0.00
368.89	0.00
369.09	0.00
369.28	0.00
369.48	0.00
369.68	0.00
369.87	0.00
370.07	0.00
370.27	0.00
370.47	0.00
370.66	84.26
370.86	102.98
371.06	102.98
371.25	93.62
371.45	79.58
371.65	208.31
371.84	212.99
372.04	166.18
372.24	203.63
372.44	196.60
372.63	142.77
372.83	273.84
373.03	201.29
373.22	138.09
373.42	231.71
373.62	180.22
373.81	196.60
374.01	269.16
374.21	276.18
374.40	264.48
374.60	159.16
374.79	224.69
374.99	259.80
375.19	161.50
375.38	330.02
375.58	259.80
375.78	287.89
375.97	299.59
376.17	292.57
376.37	259.80
376.56	217.67
376.76	283.20
376.95	222.35
377.15	196.60
377.35	264.48
377.54	339.38
377.74	238.73
377.93	241.08
378.13	294.91
378.33	318.31
378.52	276.18
378.72	297.25
378.91	365.12
379.11	273.84
379.31	327.68
379.50	313.63
379.70	404.91
379.89	313.63
380.09	287.89
380.28	257.46
380.48	334.70
380.68	292.57
380.87	365.12
381.07	346.40
381.26	290.23
381.46	330.02
381.65	332.36
381.85	306.61
382.04	334.70
382.24	259.80
382.43	407.25
382.63	390.87
382.83	367.46
383.02	411.93
383.22	379.17
383.41	334.70
383.61	339.38
383.80	381.51
384.00	243.42
384.19	407.25
384.39	386.19
384.58	425.98
384.78	482.15
384.97	388.53
385.17	500.87
385.36	477.47
385.56	374.49
385.75	369.80
385.95	383.85
386.14	372.15
386.34	383.85
386.53	327.68
386.72	418.96
386.92	451.72
387.11	425.98
387.31	512.58
387.50	416.62
387.70	423.64
387.89	360.44
388.09	411.93
388.28	531.30
388.48	451.72
388.67	557.05
388.86	472.79
389.06	351.08
389.25	451.72
389.45	383.85
389.64	484.49
389.84	514.92
390.03	454.06
390.22	507.90
390.42	514.92
390.61	533.64
390.81	456.40
391.00	451.72
391.19	545.34
391.39	463.43
391.58	521.94
391.78	458.74
391.97	561.73
392.16	510.24
392.36	585.13
392.55	528.96
392.75	550.03
392.94	559.39
393.13	468.11
393.33	578.11
393.52	594.50
393.71	517.26
393.91	596.84
394.10	550.03
394.29	627.26
394.49	582.79
394.68	587.47
394.88	561.73
395.07	575.77
395.26	655.35
395.46	599.18
395.65	674.07
395.84	653.01
396.04	667.05
396.23	727.91
396.42	660.03
396.62	690.46
396.81	657.69
397.00	692.80
397.19	697.48
397.39	622.58
397.58	706.84
397.77	741.95
397.97	683.44
398.16	690.46
398.35	716.20
398.55	774.72
398.74	744.29
398.93	802.80
399.12	772.38
399.32	688.12
399.51	795.78
399.70	739.61
399.90	697.48
400.09	709.18
400.28	746.63
400.47	866.00
400.67	833.23
400.86	828.55
401.05	772.38
401.24	919.83
401.44	835.57
401.63	919.83
401.82	763.01
402.01	823.87
402.21	798.12
402.40	884.72
402.59	833.23
402.78	866.00
402.97	819.19
403.17	837.91
403.36	858.98
403.55	828.55
403.74	971.32
403.93	870.68
404.13	882.38
404.32	952.60
404.51	924.51
404.70	898.77
404.89	894.08
405.09	1015.79
405.28	961.96
405.47	983.02
405.66	1025.15
405.85	1071.97
406.05	954.94
406.24	943.24
406.43	931.53
406.62	1086.01
406.81	1039.20
407.00	971.32
407.20	980.68
407.39	1111.75
407.58	1104.73
407.77	1043.88
407.96	1135.16
408.15	1060.26
408.34	1100.05
408.54	1064.94
408.73	1022.81
408.92	1165.59
409.11	1156.22
409.30	1186.65
409.49	1116.44
409.68	1172.61
409.87	1228.78
410.07	1224.10
410.26	1198.35
410.45	1273.25
410.64	1142.18
410.83	1247.51
411.02	1158.57
411.21	1296.66
411.40	1263.89
411.59	1228.78
411.78	1273.25
411.98	1299.00
412.17	1369.21
412.36	1275.59
412.55	1416.02
412.74	1320.06
412.93	1390.28
413.12	1338.79
413.31	1432.41
413.50	1357.51
413.69	1397.30
413.88	1486.24
414.07	1451.13
414.26	1409.00
414.45	1493.26
414.64	1441.77
414.83	1556.46
415.02	1598.59
415.22	1591.56
415.41	1647.74
415.60	1495.60
415.79	1584.54
415.98	1558.80
416.17	1673.48
416.36	1626.67
416.55	1673.48
416.74	1661.78
416.93	1565.82
417.12	1713.27
417.31	1694.55
417.50	1636.03
417.69	1764.76
417.88	1799.87
418.07	1753.06
418.26	1762.42
418.45	1774.13
418.64	1928.60
418.83	1783.49
419.02	1809.23
419.21	1832.64
419.39	1802.21
419.58	1879.45
419.77	1886.47
419.96	1891.15
420.15	1952.01
420.34	1842.00
420.53	1912.22
420.72	1977.75
420.91	1949.67
421.10	1991.80
421.29	2026.90
421.48	1937.96
421.67	2031.58
421.86	2045.63
422.05	1912.22
422.24	2033.93
422.43	1961.37
422.61	2031.58
422.80	2062.01
422.99	2052.65
423.18	2106.48
423.37	2228.19
423.56	2101.80
423.75	2040.95
423.94	1956.69
424.13	1839.66
424.32	1961.37
424.50	2143.93
424.69	2078.40
424.88	2129.89
425.07	1973.07
425.26	2085.42
425.45	2143.93
425.64	2003.50
425.83	2015.20
426.01	2193.08
426.20	2080.74
426.39	2134.57
426.58	2092.44
426.77	2029.24
426.96	2059.67
427.15	2225.85
427.33	2113.50
427.52	2143.93
427.71	2120.53
427.90	2200.10
428.09	2204.78
428.28	2232.87
428.46	2186.06
428.65	2317.13
428.84	2275.00
429.03	2289.04
429.22	2347.56
429.40	2218.83
429.59	2305.43
429.78	2204.78
429.97	2108.82
430.16	2368.62
430.34	2370.96
430.53	2483.31
430.72	2429.48
430.91	2303.09
431.10	2321.81
431.28	2366.28
431.47	2305.43
431.66	2466.92
431.85	2403.73
432.03	2394.37
432.22	2623.74
432.41	2518.42
432.60	2478.63
432.79	2516.08
432.97	2452.88
433.16	2569.91
433.35	2520.76
433.54	2626.08
433.72	2534.80
433.91	2551.18
434.10	2642.46
434.28	2612.04
434.47	2485.65
434.66	2640.12
434.85	2647.15
435.03	2626.08
435.22	2649.49
435.41	2771.19
435.59	2691.62
435.78	2693.96
435.97	2708.00
436.16	2703.32
436.34	2672.89
436.53	2686.94
436.72	2825.03
436.90	2733.75
437.09	2782.90
437.28	2724.38
437.46	2754.81
437.65	2771.19
437.84	2768.85
438.02	2925.67
438.21	2757.15
438.40	2862.48
438.58	2942.05
438.77	2888.22
438.96	3009.93
439.14	2930.35
439.33	3082.49
439.52	3091.85
439.70	2958.44
439.89	3148.02
440.08	3112.91
440.26	3103.55
440.45	3009.93
440.63	3047.38
440.82	3082.49
441.01	3098.87
441.19	3169.09
441.38	3232.28
441.57	3166.74
441.75	3290.79
441.94	3318.88
442.12	3473.36
442.31	3412.50
442.50	3356.33
442.68	3368.03
442.87	3337.60
443.05	3433.57
443.24	3534.21
443.43	3468.67
443.61	3372.71
443.80	3545.91
443.98	3335.26
444.17	3222.92
444.35	3564.64
444.54	3478.04
444.73	3627.83
444.91	3473.36
445.10	3358.67
445.28	3431.23
445.47	3468.67
445.65	3492.08
445.84	3517.83
446.02	3571.66
446.21	3562.30
446.39	3403.14
446.58	3604.42
446.77	3466.33
446.95	3391.44
447.14	3487.40
447.32	3609.11
447.51	3618.47
447.69	3463.99
447.88	3595.06
448.06	3609.11
448.25	3712.09
448.43	3590.38
448.62	3590.38
448.80	3555.27
448.99	3728.47
449.17	3515.48
449.36	3625.49
449.54	3728.47
449.73	3758.90
449.91	3770.60
450.10	3772.94
450.28	3861.88
450.46	3648.90
450.65	3885.29
450.83	3899.33
451.02	3679.32
451.20	3932.10
451.39	3896.99
451.57	3901.67
451.76	3794.01
451.94	3885.29
452.13	3962.53
452.31	4074.87
452.49	3927.42
452.68	3971.89
452.86	3981.25
453.05	4037.42
453.23	3983.59
453.42	3957.85
453.60	3950.82
453.78	4004.66
453.97	3941.46
454.15	3889.97
454.34	4105.30
454.52	4018.70
454.70	4053.81
454.89	4060.83
455.07	4117.00
455.26	4306.59
455.44	4161.47
455.62	4093.60
455.81	4159.13
455.99	4243.39
456.17	4077.21
456.36	4285.52
456.54	4264.46
456.73	4428.29
456.91	4297.22
457.09	4376.80
457.28	4397.87
457.46	4339.35
457.64	4444.68
457.83	4456.38
458.01	4257.43
458.19	4395.53
458.38	4435.32
458.56	4655.33
458.74	4477.44
458.93	4432.97
459.11	4521.92
459.29	4657.67
459.48	4526.60
459.66	4451.70
459.84	4629.58
460.03	4425.95
460.21	4704.48
460.39	4734.90
460.57	4755.97
460.76	4772.35
460.94	4505.53
461.12	4517.23
461.31	4706.82
461.49	4688.09
461.67	4667.03
461.85	4781.71
462.04	4758.31
462.22	4997.04
462.40	4833.21
462.59	4788.74
462.77	4975.98
462.95	4954.91
463.13	4856.61
463.32	4840.23
463.50	4894.06
463.68	4889.38
463.86	4917.47
464.05	4849.59
464.23	4971.30
464.41	4950.23
464.59	4919.81
464.78	5048.54
464.96	5139.82
465.14	4968.96
465.32	5118.75
465.50	5039.17
465.69	5280.25
465.87	4924.49
466.05	4990.02
466.23	5022.79
466.41	5345.78
466.60	5275.57
466.78	5149.18
466.96	5055.56
467.14	5135.14
467.32	5235.78
467.51	5348.12
467.69	5074.28
467.87	5069.60
468.05	5198.33
468.23	5245.14
468.41	5179.61
468.60	5310.68
468.78	5284.93
468.96	5366.85
469.14	5327.06
469.32	5263.86
469.50	5282.59
469.69	5240.46
469.87	5380.89
470.05	5448.77
470.23	5521.32
470.41	5397.28
470.59	5605.58
470.77	5500.26
470.95	5584.52
471.14	5659.42
471.32	5486.22
471.50	5694.52
471.68	5692.18
471.86	5788.14
472.04	5687.50
472.22	5832.62
472.40	5839.64
472.58	5795.17
472.77	5678.14
472.95	5830.27
473.13	6171.99
473.31	6052.63
473.49	5987.09
473.67	5959.00
473.85	6040.92
474.03	6045.60
474.21	6204.76
474.39	6099.44
474.57	6106.46
474.75	6267.95
474.93	6111.14
475.12	6200.08
475.30	6406.05
475.48	6328.81
475.66	6307.74
475.84	6396.68
476.02	6459.88
476.20	6497.33
476.38	6558.18
476.56	6487.96
476.74	6466.90
476.92	6586.27
477.10	6647.12
477.28	6832.02
477.46	6724.36
477.64	6888.20
477.82	6862.45
478.00	7037.99
478.18	6991.18
478.36	7136.29
478.54	7176.08
478.72	7243.96
478.90	7236.94
479.08	7318.86
479.26	7487.37
479.44	7431.20
479.62	7353.96
479.80	7478.01
479.98	7515.46
480.16	7691.00
480.34	7686.32
480.52	7770.58
480.70	7801.01
480.88	7836.11
481.06	7801.01
481.24	7728.45
481.41	7829.09
481.59	8070.17
481.77	8140.38
481.95	8095.91
482.13	8332.31
482.31	8210.60
482.49	8372.10
482.67	8306.56
482.85	8482.10
483.03	8554.66
483.21	8734.88
483.39	8854.25
483.57	8720.84
483.74	8784.03
483.92	8744.24
484.10	8926.80
484.28	9097.66
484.46	9240.44
484.64	9589.17
484.82	9041.49
485.00	9305.97
485.18	9518.96
485.35	9687.48
485.53	9469.81
485.71	9430.02
485.89	9708.54
486.07	9743.65
486.25	9699.18
486.43	9778.76
486.61	9710.88
486.78	9994.09
486.96	10080.69
487.14	10139.20
487.32	10338.15
487.50	10539.43
487.68	10232.82
487.85	10579.22
488.03	10544.11
488.21	10843.70
488.39	10801.57
488.57	10714.97
488.75	10925.62
488.92	11082.44
489.10	11082.44
489.28	11257.98
489.46	11297.77
489.64	11461.60
489.81	11344.58
489.99	11332.87
490.17	11424.15
490.35	11506.07
490.53	11658.21
490.70	11995.25
490.88	11634.80
491.06	12058.44
491.24	11871.20
491.41	12095.89
491.59	12266.75
491.77	12343.99
491.95	12320.58
492.13	12453.99
492.30	12414.20
492.48	12655.28
492.66	12510.16
492.84	12507.82
493.01	12713.79
493.19	12814.43
493.37	12952.52
493.54	13025.08
493.72	12891.67
493.90	12957.21
494.08	13312.97
494.25	13228.71
494.43	13495.53
494.61	13418.29
494.79	13898.10
494.96	13380.84
495.14	13769.37
495.32	13933.21
495.49	14057.26
495.67	14122.79
495.85	14083.00
496.02	14153.22
496.20	14010.45
496.38	14340.46
496.55	14361.53
496.73	14895.17
496.91	14743.03
497.09	14618.99
497.26	14368.55
497.44	14710.27
497.62	14546.43
497.79	14869.42
497.97	15082.41
498.14	14953.68
498.32	15325.83
498.50	15279.02
498.67	15576.27
498.85	15382.00
499.03	15307.10
499.20	15379.66
499.38	15573.92
499.56	15513.07
499.73	15590.31
499.91	15576.27
500.08	15653.50
500.26	15489.67
500.44	15777.55
500.61	15740.10
500.79	15770.53
500.97	15793.94
501.14	15929.69
501.32	15983.52
501.49	16489.07
501.67	16315.87
501.84	16416.52
502.02	16395.45
502.20	16751.21
502.37	16556.95
502.55	16500.78
502.72	16428.22
502.90	16585.04
503.07	16783.98
503.25	16465.67
503.43	16624.83
503.60	16774.62
503.78	17165.49
503.95	17233.36
504.13	16652.91
504.30	16947.82
504.48	16879.94
504.65	17071.87
504.83	17132.72
505.01	17563.38
505.18	17647.64
505.36	17556.36
505.53	17415.93
505.71	17254.43
505.88	17563.38
506.06	17598.49
506.23	17708.49
506.41	17338.69
506.58	17818.50
506.76	17696.79
506.93	17593.81
507.11	17659.34
507.28	17678.07
507.46	18101.70
507.63	17734.24
507.81	18202.35
507.98	17987.02
508.16	18375.55
508.33	18249.16
508.50	18047.87
508.68	18188.30
508.85	18408.31
509.03	18438.74
509.20	18890.46
509.38	18759.39
509.55	18560.45
509.73	18602.58
509.90	18757.05
510.08	18757.05
510.25	18792.16
510.42	18778.12
510.60	19077.71
510.77	18937.27
510.95	19077.71
511.12	19012.17
511.30	18953.66
511.47	19089.41
511.64	18981.74
511.82	19194.73
511.99	19140.90
512.17	19349.21
512.34	19199.41
512.51	19648.80
512.69	19129.20
512.86	19726.04
513.04	19962.43
513.21	19838.38
513.38	19889.87
513.56	19929.66
513.73	19707.31
513.90	19932.00
514.08	19609.01
514.25	20189.46
514.43	20152.01
514.60	20119.24
514.77	19807.95
514.95	20245.63
515.12	20292.44
515.29	20304.15
515.47	20563.95
515.64	20517.14
515.81	20402.45
515.99	20585.01
516.16	21092.91
516.33	20666.93
516.51	20755.87
516.68	20676.29
516.85	20678.63
517.03	20877.58
517.20	20994.61
517.37	20814.38
517.54	20931.41
517.72	21172.49
517.89	20964.18
518.06	20950.14
518.24	21495.48
518.41	20994.61
518.58	21310.58
518.75	21392.50
518.93	21455.69
519.10	21397.18
519.27	21291.85
519.45	21249.72
519.62	21701.45
519.79	21528.25
519.96	21563.36
520.14	21951.88
520.31	21701.45
520.48	21853.58
520.65	21696.77
520.83	21968.27
521.00	21518.89
521.17	21881.67
521.34	21727.19
521.52	22155.51
521.69	21841.88
521.86	22148.49
522.03	22281.90
522.20	22375.52
522.38	22452.76
522.55	22209.34
522.72	22164.87
522.89	22391.91
523.07	22815.54
523.24	22457.44
523.41	22647.02
523.58	22464.46
523.75	22663.41
523.92	22644.68
524.10	22544.04
524.27	22682.13
524.44	22778.09
524.61	23019.17
524.78	22860.01
524.96	23152.58
525.13	22703.20
525.30	23187.69
525.47	23021.51
525.64	23051.94
525.81	23241.52
525.98	23438.12
526.16	23377.27
526.33	23297.69
526.50	23325.78
526.67	23276.63
526.84	23307.05
527.01	23435.78
527.18	23124.49
527.36	23606.64
527.53	23686.22
527.70	23866.44
527.87	23723.67
528.04	23405.36
528.21	23779.84
528.38	24137.94
528.55	23983.47
528.72	24142.63
528.89	23915.59
529.07	23796.23
529.24	24313.48
529.41	24269.01
529.58	23838.36
529.75	23737.71
529.92	24304.12
530.09	24170.71
530.26	24208.16
530.43	24334.55
530.60	23845.38
530.77	24320.51
530.94	24411.79
531.11	24311.14
531.28	24105.18
531.46	24510.09
531.63	24367.32
531.80	24163.69
531.97	24575.62
532.14	24886.92
532.31	24858.83
532.48	25006.28
532.65	24788.61
532.82	24779.25
532.99	24788.61
533.16	24912.66
533.33	24755.85
533.50	25003.94
533.67	25022.67
533.84	24505.41
534.01	24570.94
534.18	24584.99
534.35	25067.14
534.52	25207.57
534.69	25614.82
534.86	25270.76
535.03	25074.16
535.20	25425.24
535.37	25392.47
535.54	25228.63
535.71	25310.55
535.88	25340.98
536.05	25359.70
536.22	25750.57
536.38	25474.39
536.55	25591.42
536.72	25762.28
536.89	25551.63
537.06	25560.99
537.23	25535.24
537.40	25610.14
537.57	25837.17
537.74	25986.97
537.91	25745.89
538.08	25998.67
538.25	25759.94
538.42	25750.57
538.59	25781.00
538.75	25755.26
538.92	25678.02
539.09	26050.16
539.26	26136.76
539.43	26167.19
539.60	25745.89
539.77	26178.89
539.94	26263.15
540.11	26005.69
540.28	26359.11
540.44	26066.55
540.61	26164.85
540.78	26129.74
540.95	26333.37
541.12	26506.57
541.29	26408.26
541.46	26593.17
541.62	26211.66
541.79	26408.26
541.96	26005.69
542.13	26239.75
542.30	26602.53
542.47	26682.11
542.63	26838.92
542.80	27044.89
542.97	26810.84
543.14	26951.27
543.31	26717.22
543.48	26590.83
543.64	27215.75
543.81	26958.29
543.98	27096.38
544.15	27110.43
544.32	26972.33
544.48	26995.74
544.65	27204.05
544.82	27295.33
544.99	27030.85
545.16	27454.48
545.32	27246.18
545.49	27725.99
545.66	27552.79
545.83	27353.84
546.00	27655.77
546.16	27817.27
546.33	27084.68
546.50	27407.67
546.67	27756.41
546.83	27463.85
547.00	27349.16
547.17	27321.07
547.34	27747.05
547.50	27896.85
547.67	27709.60
547.84	27585.55
548.00	27885.14
548.17	27662.79
548.34	27632.36
548.51	28088.77
548.67	27990.47
548.84	27819.61
549.01	27611.30
549.18	27838.33
549.34	27449.80
549.51	28070.04
549.68	28032.60
549.84	28041.96
550.01	28063.02
550.18	27702.58
550.34	28053.66
550.51	28411.76
550.68	28168.35
550.84	27931.95
551.01	28402.40
551.18	28095.79
551.34	28123.88
551.51	27950.68
551.68	28418.78
551.84	28257.29
552.01	28210.48
552.18	28486.66
552.34	28648.16
552.51	28875.19
552.68	28098.13
552.84	28538.15
553.01	28898.59
553.18	28505.38
553.34	28236.22
553.51	28507.72
553.67	28903.28
553.84	28821.36
554.01	28797.95
554.17	28716.03
554.34	28725.39
554.51	28622.41
554.67	29020.30
554.84	28577.94
555.00	28718.37
555.17	28730.08
555.33	28910.30
555.50	28601.35
555.67	28683.27
555.83	28950.09
556.00	28989.88
556.16	29474.37
556.33	28868.17
556.50	28840.08
556.66	29244.99
556.83	29275.42
556.99	29422.87
557.16	29406.49
557.32	29149.03
557.49	29181.80
557.65	29118.60
557.82	29244.99
557.98	29050.73
558.15	29083.50
558.32	29401.81
558.48	29102.22
558.65	29624.16
558.81	29603.10
558.98	29467.34
559.14	29113.92
559.31	29219.25
559.47	29315.21
559.64	29591.39
559.80	29347.98
559.97	29198.18
560.13	29773.95
560.30	29331.59
560.46	29851.19
560.63	29240.31
560.79	29666.29
560.96	29352.66
561.12	29099.88
561.29	29270.74
561.45	29493.09
561.61	29902.68
561.78	29483.73
561.94	29467.34
562.11	30019.71
562.27	29462.66
562.44	29359.68
562.60	29687.36
562.77	29795.02
562.93	29666.29
563.10	29771.61
563.26	29816.08
563.42	29940.13
563.59	29666.29
563.75	29476.71
563.92	29921.41
564.08	29764.59
564.24	29525.86
564.41	29628.84
564.57	29607.78
564.74	30005.67
564.90	30122.69
565.07	30092.27
565.23	29598.41
565.39	30015.03
565.56	30080.56
565.72	30000.99
565.88	29823.11
566.05	29549.26
566.21	29301.17
566.38	29694.38
566.54	30148.44
566.70	29958.86
566.87	30141.42
567.03	29905.02
567.19	30089.93
567.36	30265.47
567.52	29926.09
567.68	29982.26
567.85	29862.90
568.01	30293.55
568.17	30176.53
568.34	30155.46
568.50	29778.64
568.66	30396.54
568.83	30354.41
568.99	30473.78
569.15	30237.38
569.32	29727.14
569.48	29795.02
569.64	30319.30
569.81	29982.26
569.97	30256.11
570.13	30366.11
570.30	29738.85
570.46	30010.35
570.62	30323.98
570.78	30314.62
570.95	30260.79
571.11	30164.82
571.27	30199.93
571.43	29832.47
571.60	30132.06
571.76	30221.00
571.92	30204.61
572.09	30499.52
572.25	30260.79
572.41	30347.39
572.57	30405.90
572.74	30604.84
572.90	30501.86
573.06	30103.97
573.22	30363.77
573.38	30490.16
573.55	30202.27
573.71	30382.49
573.87	30572.08
574.03	30099.29
574.20	30167.16
574.36	30422.28
574.52	30342.70
574.68	30345.05
574.84	30260.79
575.01	30375.47
575.17	30478.46
575.33	30183.55
575.49	30480.80
575.65	30548.67
575.82	30426.96
575.98	30239.72
576.14	30677.40
576.30	30862.30
576.46	30132.06
576.62	30363.77
576.79	30476.12
576.95	30288.87
577.11	30668.04
577.27	30485.48
577.43	30511.22
577.59	30424.62
577.75	30457.39
577.92	30380.15
578.08	30368.45
578.24	30174.19
578.40	30546.33
578.56	30525.27
578.72	30829.54
578.88	30597.82
579.04	30618.89
579.21	30312.28
579.37	30410.58
579.53	30876.35
579.69	30342.70
579.85	29996.31
580.01	30539.31
580.17	30181.21
580.33	30834.22
580.49	30452.71
580.65	30859.96
580.82	30635.27
580.98	30766.34
581.14	30792.09
581.30	30834.22
581.46	30490.16
581.62	30859.96
581.78	30522.93
581.94	30576.76
582.10	30567.40
582.26	30429.30
582.42	30597.82
582.58	30625.91
582.74	30398.88
582.90	30522.93
583.06	30700.81
583.22	30543.99
583.38	30508.88
583.54	30899.75
583.70	30644.63
583.86	30728.89
584.02	30955.93
584.18	30897.41
584.34	31016.78
584.50	31129.12
584.66	30466.75
584.82	30724.21
584.98	30649.32
585.14	30686.76
585.30	29977.58
585.46	30780.39
585.62	30494.84
585.78	30761.66
585.94	30436.33
586.10	30852.94
586.26	30642.29
586.42	30764.00
586.58	30649.32
586.74	30595.48
586.90	30960.61
587.06	30766.34
587.22	30581.44
587.38	30569.74
587.54	30838.90
587.70	31178.28
587.86	31253.17
588.02	31157.21
588.18	31096.36
588.34	30993.37
588.49	30888.05
588.65	30941.88
588.81	30752.30
588.97	31505.95
589.13	30661.02
589.29	30630.59
589.45	30567.40
589.61	30993.37
589.77	31452.12
589.93	31101.04
590.08	31358.50
590.24	30859.96
590.40	31337.43
590.56	31131.47
590.72	30595.48
590.88	30719.53
591.04	31159.55
591.20	31318.71
591.35	31332.75
591.51	31091.68
591.67	31246.15
591.83	31456.80
591.99	31328.07
