SpectraSuite Data File
++++++++++++++++++++++++++++++++++++
Date: Fri Oct 18 13:58:27 GMT-05:00 2013
User: bianchi
Dark Spectrum Present: No
Reference Spectrum Present: No
Number of Sampled Component Spectra: 1
Spectrometers: USB2+H05261
Integration Time (usec): 50000 (USB2+H05261)
Spectra Averaged: 1 (USB2+H05261)
Boxcar Smoothing: 0 (USB2+H05261)
Correct for Electrical Dark: No (USB2+H05261)
Strobe/Lamp Enabled: No (USB2+H05261)
Correct for Detector Non-linearity: No (USB2+H05261)
Correct for Stray Light: No (USB2+H05261)
Number of Pixels in Processed Spectrum: 2048
>>>>>Begin Processed Spectral Data<<<<<
365.73	0.00
365.92	0.00
366.12	0.00
366.32	0.00
366.52	0.00
366.72	0.00
366.91	0.00
367.11	0.00
367.31	0.00
367.51	0.00
367.70	0.00
367.90	0.00
368.10	0.00
368.30	0.00
368.49	0.00
368.69	0.00
368.89	0.00
369.09	0.00
369.28	0.00
369.48	0.00
369.68	0.00
369.87	0.00
370.07	0.00
370.27	0.00
370.47	0.00
370.66	72.56
370.86	182.56
371.06	140.43
371.25	154.48
371.45	182.56
371.65	84.26
371.84	124.05
372.04	220.01
372.24	161.50
372.44	227.03
372.63	159.16
372.83	234.05
373.03	191.92
373.22	177.88
373.42	187.24
373.62	276.18
373.81	294.91
374.01	135.75
374.21	234.05
374.40	191.92
374.60	208.31
374.79	231.71
374.99	243.42
375.19	245.76
375.38	273.84
375.58	252.78
375.78	238.73
375.97	264.48
376.17	304.27
376.37	231.71
376.56	208.31
376.76	257.46
376.95	318.31
377.15	297.25
377.35	283.20
377.54	290.23
377.74	311.29
377.93	217.67
378.13	266.82
378.33	332.36
378.52	306.61
378.72	271.50
378.91	259.80
379.11	306.61
379.31	273.84
379.50	283.20
379.70	255.12
379.89	283.20
380.09	311.29
380.28	304.27
380.48	271.50
380.68	395.55
380.87	358.10
381.07	294.91
381.26	346.40
381.46	234.05
381.65	299.59
381.85	353.42
382.04	355.76
382.24	339.38
382.43	348.74
382.63	315.97
382.83	327.68
383.02	313.63
383.22	313.63
383.41	365.12
383.61	379.17
383.80	360.44
384.00	301.93
384.19	458.74
384.39	353.42
384.58	367.46
384.78	369.80
384.97	454.06
385.17	400.23
385.36	346.40
385.56	407.25
385.75	404.91
385.95	376.83
386.14	444.70
386.34	395.55
386.53	463.43
386.72	358.10
386.92	365.12
387.11	393.21
387.31	390.87
387.50	411.93
387.70	449.38
387.89	447.04
388.09	428.32
388.28	442.36
388.48	456.40
388.67	493.85
388.86	463.43
389.06	379.17
389.25	449.38
389.45	381.51
389.64	447.04
389.84	521.94
390.03	421.30
390.22	514.92
390.42	479.81
390.61	435.34
390.81	458.74
391.00	484.49
391.19	489.17
391.39	521.94
391.58	491.51
391.78	486.83
391.97	479.81
392.16	477.47
392.36	498.53
392.55	496.19
392.75	550.03
392.94	538.32
393.13	524.28
393.33	585.13
393.52	580.45
393.71	540.66
393.91	540.66
394.10	622.58
394.29	587.47
394.49	645.99
394.68	629.60
394.88	653.01
395.07	610.88
395.26	599.18
395.46	540.66
395.65	676.41
395.84	627.26
396.04	641.31
396.23	638.97
396.42	606.20
396.62	699.82
396.81	713.86
397.00	667.05
397.19	681.10
397.39	615.56
397.58	681.10
397.77	648.33
397.97	760.67
398.16	662.37
398.35	758.33
398.55	662.37
398.74	650.67
398.93	718.54
399.12	676.41
399.32	678.76
399.51	739.61
399.70	718.54
399.90	774.72
400.09	793.44
400.28	746.63
400.47	716.20
400.67	903.45
400.86	772.38
401.05	737.27
401.24	819.19
401.44	891.74
401.63	844.93
401.82	812.17
402.01	851.96
402.21	753.65
402.40	786.42
402.59	837.91
402.78	800.46
402.97	858.98
403.17	915.15
403.36	798.12
403.55	772.38
403.74	891.74
403.93	866.00
404.13	844.93
404.32	753.65
404.51	950.26
404.70	915.15
404.89	887.06
405.09	933.87
405.28	861.32
405.47	987.71
405.66	1004.09
405.85	971.32
406.05	1053.24
406.24	950.26
406.43	1048.56
406.62	950.26
406.81	1116.44
407.00	985.37
407.20	961.96
407.39	912.81
407.58	1048.56
407.77	1086.01
407.96	1102.39
408.15	1018.13
408.34	1043.88
408.54	1090.69
408.73	1048.56
408.92	1109.41
409.11	1081.33
409.30	1132.82
409.49	1107.07
409.68	1137.50
409.87	1146.86
410.07	1097.71
410.26	1135.16
410.45	1205.38
410.64	1144.52
410.83	1139.84
411.02	1184.31
411.21	1207.72
411.40	1224.10
411.59	1291.98
411.78	1196.01
411.98	1280.27
412.17	1224.10
412.36	1324.74
412.55	1322.40
412.74	1284.95
412.93	1203.04
413.12	1287.29
413.31	1430.07
413.50	1301.34
413.69	1451.13
413.88	1392.62
414.07	1291.98
414.26	1446.45
414.45	1409.00
414.64	1453.47
414.83	1554.12
415.02	1509.65
415.22	1547.09
415.41	1614.97
415.60	1584.54
415.79	1603.27
415.98	1570.50
416.17	1593.90
416.36	1549.43
416.55	1542.41
416.74	1657.10
416.93	1696.89
417.12	1664.12
417.31	1720.29
417.50	1626.67
417.69	1699.23
417.88	1692.21
418.07	1703.91
418.26	1689.87
418.45	1781.15
418.64	1884.13
418.83	1778.81
419.02	1743.70
419.21	1830.30
419.39	1785.83
419.58	1748.38
419.77	1776.47
419.96	1802.21
420.15	1933.28
420.34	1858.39
420.53	1872.43
420.72	1954.35
420.91	1818.60
421.10	1905.20
421.29	2024.56
421.48	1792.85
421.67	1919.24
421.86	1989.46
422.05	1966.05
422.24	1944.99
422.43	1863.07
422.61	1989.46
422.80	1998.82
422.99	1952.01
423.18	1984.77
423.37	2036.27
423.56	1984.77
423.75	1975.41
423.94	2033.93
424.13	1823.28
424.32	1989.46
424.50	2186.06
424.69	1961.37
424.88	2010.52
425.07	2080.74
425.26	1980.09
425.45	1991.80
425.64	2015.20
425.83	2045.63
426.01	2017.54
426.20	2012.86
426.39	2113.50
426.58	2078.40
426.77	2001.16
426.96	1942.64
427.15	2111.16
427.33	2157.97
427.52	2071.37
427.71	2141.59
427.90	2190.74
428.09	2129.89
428.28	2179.04
428.46	2209.47
428.65	2200.10
428.84	2319.47
429.03	2340.54
429.22	2080.74
429.40	2155.63
429.59	2232.87
429.78	2167.34
429.97	2249.25
430.16	2228.19
430.34	2200.10
430.53	2429.48
430.72	2354.58
430.91	2230.53
431.10	2298.41
431.28	2244.57
431.47	2228.19
431.66	2277.34
431.85	2380.32
432.03	2373.30
432.22	2373.30
432.41	2385.01
432.60	2375.64
432.79	2413.09
432.97	2424.80
433.16	2417.77
433.35	2445.86
433.54	2466.92
433.72	2471.61
433.91	2429.48
434.10	2427.14
434.28	2403.73
434.47	2569.91
434.66	2544.16
434.85	2492.67
435.03	2661.19
435.22	2537.14
435.41	2675.23
435.59	2525.44
435.78	2555.86
435.97	2541.82
436.16	2654.17
436.34	2537.14
436.53	2670.55
436.72	2780.56
436.90	2684.59
437.09	2672.89
437.28	2672.89
437.46	2855.45
437.65	2715.02
437.84	2684.59
438.02	2773.53
438.21	2855.45
438.40	2806.30
438.58	2841.41
438.77	2822.69
438.96	2850.77
439.14	2867.16
439.33	2862.48
439.52	3014.61
439.70	2902.26
439.89	3009.93
440.08	3054.40
440.26	3019.29
440.45	3005.25
440.63	3047.38
440.82	3239.30
441.01	3112.91
441.19	3183.13
441.38	3213.56
441.57	3194.83
441.75	3229.94
441.94	3428.88
442.12	3234.62
442.31	3321.22
442.50	3337.60
442.68	3283.77
442.87	3269.73
443.05	3197.17
443.24	3382.07
443.43	3337.60
443.61	3379.73
443.80	3421.86
443.98	3192.49
444.17	3201.85
444.35	3433.57
444.54	3625.49
444.73	3440.59
444.91	3482.72
445.10	3379.73
445.28	3442.93
445.47	3459.31
445.65	3459.31
445.84	3412.50
446.02	3487.40
446.21	3508.46
446.39	3456.97
446.58	3503.78
446.77	3515.48
446.95	3372.71
447.14	3571.66
447.32	3445.27
447.51	3356.33
447.69	3545.91
447.88	3499.10
448.06	3557.61
448.25	3475.70
448.43	3592.72
448.62	3365.69
448.80	3414.84
448.99	3574.00
449.17	3576.34
449.36	3545.91
449.54	3574.00
449.73	3672.30
449.91	3705.07
450.10	3597.40
450.28	3716.77
450.46	3627.83
450.65	3691.02
450.83	3691.02
451.02	3653.58
451.20	3779.97
451.39	3679.32
451.57	3637.19
451.76	3599.74
451.94	3763.58
452.13	3735.50
452.31	3749.54
452.49	3714.43
452.68	3812.73
452.86	3796.35
453.05	3960.19
453.23	3969.55
453.42	3782.31
453.60	3772.94
453.78	3941.46
453.97	3927.42
454.15	3971.89
454.34	3861.88
454.52	3978.91
454.70	3967.21
454.89	3999.98
455.07	3737.84
455.26	4187.22
455.44	3971.89
455.62	4088.92
455.81	4168.49
455.99	3948.48
456.17	4042.11
456.36	4102.96
456.54	4227.01
456.73	4124.02
456.91	4306.59
457.09	4503.19
457.28	4217.65
457.46	4334.67
457.64	4322.97
457.83	4266.80
458.01	4210.62
458.19	4358.08
458.38	4269.14
458.56	4339.35
458.74	4320.63
458.93	4341.69
459.11	4395.53
459.29	4421.27
459.48	4470.42
459.66	4566.39
459.84	4550.00
460.03	4517.23
460.21	4493.83
460.39	4582.77
460.57	4493.83
460.76	4550.00
460.94	4550.00
461.12	4648.30
461.31	4451.70
461.49	4643.62
461.67	4671.71
461.85	4823.84
462.04	4606.17
462.22	4676.39
462.40	4720.86
462.59	4662.35
462.77	4587.45
462.95	4884.70
463.13	4833.21
463.32	4781.71
463.50	4601.49
463.68	4793.42
463.86	4847.25
464.05	4816.82
464.23	4645.96
464.41	4926.83
464.59	4793.42
464.78	4957.25
464.96	4896.40
465.14	4772.35
465.32	4947.89
465.50	5104.71
465.69	4964.28
465.87	4898.74
466.05	4905.76
466.23	5039.17
466.41	5011.09
466.60	5245.14
466.78	4980.66
466.96	4830.87
467.14	4947.89
467.32	5036.83
467.51	5020.45
467.69	5032.15
467.87	5107.05
468.05	5231.10
468.23	5041.51
468.41	5107.05
468.60	5151.52
468.78	5247.48
468.96	5195.99
469.14	5240.46
469.32	5163.22
469.50	5085.98
469.69	5303.65
469.87	5401.96
470.05	5416.00
470.23	5453.45
470.41	5408.98
470.59	5441.75
470.77	5448.77
470.95	5406.64
471.14	5631.33
471.32	5495.58
471.50	5577.50
471.68	5675.80
471.86	5530.69
472.04	5593.88
472.22	5722.61
472.40	5666.44
472.58	5565.79
472.77	5720.27
472.95	5820.91
473.13	5813.89
473.31	5996.45
473.49	5877.09
473.67	5837.30
473.85	5933.26
474.03	5942.62
474.21	5987.09
474.39	5994.11
474.57	5989.43
474.75	6164.97
474.93	6195.40
475.12	6017.52
475.30	6054.97
475.48	6272.64
475.66	6293.70
475.84	6214.12
476.02	6265.61
476.20	6111.14
476.38	6345.19
476.56	6581.59
476.74	6317.11
476.92	6480.94
477.10	6413.07
477.28	6441.15
477.46	6434.13
477.64	6665.85
477.82	6876.49
478.00	6745.42
478.18	6813.30
478.36	7157.36
478.54	7005.22
478.72	6825.00
478.90	7019.27
479.08	7323.54
479.26	7012.24
479.44	7293.11
479.62	7297.79
479.80	7382.05
479.98	7487.37
480.16	7630.15
480.34	7478.01
480.52	7466.31
480.70	7583.34
480.88	7368.01
481.06	7676.96
481.24	7784.62
481.41	7719.09
481.59	7864.20
481.77	7868.88
481.95	8079.53
482.13	8084.21
482.31	8142.72
482.49	8325.29
482.67	8112.30
482.85	8095.91
483.03	8446.99
483.21	8432.95
483.39	8486.78
483.57	8571.04
483.74	8737.22
483.92	8596.79
484.10	8610.83
484.28	8854.25
484.46	9011.06
484.64	9165.54
484.82	9076.60
485.00	8961.91
485.18	9153.84
485.35	9373.85
485.53	9172.56
485.71	9455.76
485.89	9645.35
486.07	9563.43
486.25	9420.66
486.43	9631.30
486.61	9579.81
486.78	9703.86
486.96	9982.38
487.14	10059.62
487.32	10003.45
487.50	10101.75
487.68	10286.65
487.85	10228.14
488.03	10434.11
488.21	10359.21
488.39	10389.64
488.57	10417.72
488.75	10593.26
488.92	11061.37
489.10	10867.11
489.28	10998.18
489.46	11169.04
489.64	10920.94
489.81	11052.01
489.99	11063.71
490.17	11363.30
490.35	11393.73
490.53	11391.39
490.70	11683.95
490.88	11578.63
491.06	11681.61
491.24	11627.78
491.41	11662.89
491.59	11515.44
491.77	11791.62
491.95	11960.14
492.13	12114.61
492.30	12140.36
492.48	12114.61
492.66	12152.06
492.84	12262.07
493.01	12545.27
493.19	12428.24
493.37	12542.93
493.54	12580.38
493.72	12776.98
493.90	12512.50
494.08	12816.77
494.25	12875.29
494.43	12975.93
494.61	13004.02
494.79	13099.98
494.96	13118.70
495.14	13341.05
495.32	13366.80
495.49	13476.80
495.67	13542.34
495.85	13858.31
496.02	13605.53
496.20	13841.93
496.38	13926.19
496.55	13855.97
496.73	14200.03
496.91	13909.80
497.09	14183.65
497.26	14242.16
497.44	14157.90
497.62	14141.52
497.79	14487.92
497.97	14600.26
498.14	14436.42
498.32	14600.26
498.50	14640.05
498.67	14717.29
498.85	14710.27
499.03	14846.02
499.20	14574.52
499.38	14785.16
499.56	15166.67
499.73	15009.86
499.91	15468.60
500.08	15229.87
500.26	15040.28
500.44	15374.98
500.61	15358.60
500.79	15297.74
500.97	15405.41
501.14	15969.48
501.32	15836.06
501.49	15594.99
501.67	15695.63
501.84	15775.21
502.02	15686.27
502.20	15735.42
502.37	15810.32
502.55	15962.45
502.72	16187.14
502.90	16128.63
503.07	16137.99
503.25	16130.97
503.43	15953.09
503.60	16346.30
503.78	16570.99
503.95	16414.18
504.13	16238.64
504.30	16453.97
504.48	16393.11
504.65	16608.44
504.83	16676.32
505.01	16624.83
505.18	16987.61
505.36	16982.93
505.53	16901.01
505.71	16592.06
505.88	16940.80
506.06	17020.38
506.23	17298.90
506.41	16971.22
506.58	17362.09
506.76	17310.60
506.93	17539.97
507.11	17458.06
507.28	17336.35
507.46	17371.46
507.63	17549.34
507.81	17544.66
507.98	17554.02
508.16	17764.67
508.33	17556.36
508.50	17907.44
508.68	17947.23
508.85	18223.41
509.03	17937.87
509.20	18017.44
509.38	18099.36
509.55	18176.60
509.73	18064.25
509.90	18115.75
510.08	18312.35
510.25	18155.54
510.42	18497.25
510.60	18370.86
510.77	18640.03
510.95	18544.06
511.12	17940.21
511.30	18492.57
511.47	18485.55
511.64	18654.07
511.82	18785.14
511.99	18771.10
512.17	19044.94
512.34	18625.98
512.51	18979.40
512.69	19192.39
512.86	18965.36
513.04	19229.84
513.21	18995.79
513.38	19089.41
513.56	19377.30
513.73	19215.80
513.90	19323.46
514.08	19407.72
514.25	19491.98
514.43	19246.23
514.60	19527.09
514.77	19719.01
514.95	19943.70
515.12	19550.49
515.29	19768.16
515.47	19609.01
515.64	19899.23
515.81	19826.68
515.99	20011.58
516.16	20388.41
516.33	20215.21
516.51	20121.59
516.68	19969.45
516.85	19948.39
517.03	20500.75
517.20	20084.14
517.37	20374.36
517.54	20292.44
517.72	20318.19
517.89	20339.26
518.06	20458.62
518.24	20582.67
518.41	20592.03
518.58	20521.82
518.75	20219.89
518.93	20723.10
519.10	20547.56
519.27	20645.87
519.45	20685.65
519.62	20940.77
519.79	20903.32
519.96	21277.81
520.14	21352.71
520.31	21027.37
520.48	20795.66
520.65	20908.01
520.83	21053.12
521.00	21451.01
521.17	21305.90
521.34	21500.16
521.52	21570.38
521.69	21371.43
521.86	21259.09
522.03	21563.36
522.20	21605.49
522.38	21329.30
522.55	21593.78
522.72	21762.30
522.89	21493.14
523.07	22089.98
523.24	22162.53
523.41	22104.02
523.58	21678.04
523.75	22085.30
523.92	22017.42
524.10	22001.04
524.27	21771.66
524.44	22125.08
524.61	22478.50
524.78	22558.08
524.96	22361.48
525.13	22190.62
525.30	21979.97
525.47	22380.20
525.64	22368.50
525.81	22272.54
525.98	23091.73
526.16	22696.17
526.33	22558.08
526.50	22684.47
526.67	22541.70
526.84	22410.63
527.01	22792.14
527.18	22532.34
527.36	22541.70
527.53	23007.47
527.70	23190.03
527.87	23026.19
528.04	22981.72
528.21	23180.67
528.38	22904.48
528.55	23426.42
528.72	22864.69
528.89	23091.73
529.07	23627.71
529.24	23087.04
529.41	23461.53
529.58	22731.28
529.75	23147.90
529.92	23309.40
530.09	23208.75
530.26	23433.44
530.43	23454.51
530.60	23180.67
530.77	23405.36
530.94	23543.45
531.11	23716.65
531.28	23473.23
531.46	23903.89
531.63	23601.96
531.80	23810.27
531.97	23590.26
532.14	24114.54
532.31	23667.50
532.48	23843.04
532.65	24074.75
532.82	23644.09
532.99	23686.22
533.16	24098.16
533.33	24325.19
533.50	24456.26
533.67	24238.59
533.84	23988.15
534.01	23805.59
534.18	24254.97
534.35	24503.07
534.52	24114.54
534.69	24617.75
534.86	24446.90
535.03	24173.05
535.20	24542.86
535.37	24566.26
535.54	24652.86
535.71	24673.93
535.88	24346.25
536.05	24372.00
536.22	24662.22
536.38	24968.84
536.55	24886.92
536.72	24638.82
536.89	24863.51
537.06	24851.81
537.23	24772.23
537.40	24746.48
537.57	24666.91
537.74	24737.12
537.91	25226.29
538.08	25090.54
538.25	24863.51
538.42	25139.69
538.59	25055.43
538.75	24961.81
538.92	25135.01
539.09	25095.22
539.26	25259.06
539.43	25322.26
539.60	25048.41
539.77	25289.49
539.94	25441.62
540.11	24807.34
540.28	25450.99
540.44	24987.56
540.61	25539.93
540.78	25525.88
540.95	25558.65
541.12	25191.19
541.29	25383.11
541.46	25624.18
541.62	25558.65
541.79	25846.54
541.96	25460.35
542.13	25439.28
542.30	25530.56
542.47	25322.26
542.63	25862.92
542.80	25989.31
542.97	25806.75
543.14	26108.68
543.31	26040.80
543.48	26155.49
543.64	26349.75
543.81	26174.21
543.98	26361.45
544.15	26644.66
544.32	26204.64
544.48	26487.84
544.65	25867.60
544.82	26410.60
544.99	25972.92
545.16	25886.32
545.32	26328.69
545.49	26466.78
545.66	26394.22
545.83	26359.11
546.00	26864.67
546.16	26551.04
546.33	26216.34
546.50	26221.02
546.67	26459.76
546.83	26338.05
547.00	26593.17
547.17	26448.05
547.34	26925.52
547.50	26778.07
547.67	27072.98
547.84	26609.55
548.00	26642.32
548.17	26822.54
548.34	26988.72
548.51	26824.88
548.67	26895.10
548.84	26906.80
549.01	27255.54
549.18	26960.63
549.34	26906.80
549.51	26981.70
549.68	27014.46
549.84	26869.35
550.01	26981.70
550.18	26962.97
550.34	27288.31
550.51	27424.06
550.68	27332.78
550.84	26960.63
551.01	27665.13
551.18	26885.73
551.34	26754.66
551.51	27096.38
551.68	27192.34
551.84	27601.94
552.01	27147.87
552.18	27646.41
552.34	27557.47
552.51	27693.22
552.68	27487.25
552.84	27599.60
553.01	27702.58
553.18	27555.13
553.34	27353.84
553.51	27566.83
553.67	27583.21
553.84	27908.55
554.01	28177.71
554.17	27573.85
554.34	27910.89
554.51	27711.94
554.67	27660.45
554.84	27510.66
555.00	27854.72
555.17	27770.46
555.33	27473.21
555.50	27775.14
555.67	27728.33
555.83	27630.02
556.00	27716.62
556.16	28503.04
556.33	27777.48
556.50	27742.37
556.66	28041.96
556.83	28240.90
556.99	28371.97
557.16	28437.51
557.32	27955.36
557.49	28151.96
557.65	27920.25
557.82	27955.36
557.98	28056.00
558.15	28212.82
558.32	28341.55
558.48	28259.63
558.65	28549.85
558.81	28477.30
558.98	28566.24
559.14	28325.16
559.31	28095.79
559.47	28460.91
559.64	28500.70
559.80	28563.90
559.97	28697.31
560.13	28334.53
560.30	28215.16
560.46	28493.68
560.63	28596.67
560.79	28393.04
560.96	28514.75
561.12	28290.06
561.29	28140.26
561.45	28486.66
561.61	28624.75
561.78	28650.50
561.94	28730.08
562.11	28800.29
562.27	28720.71
562.44	28173.03
562.60	28704.33
562.77	28676.24
562.93	28638.80
563.10	28804.97
563.26	28819.02
563.42	28837.74
563.59	28940.72
563.75	28950.09
563.92	28477.30
564.08	28671.56
564.24	28489.00
564.41	28334.53
564.57	28879.87
564.74	28510.07
564.90	29170.10
565.07	28524.11
565.23	28819.02
565.39	29064.77
565.56	28713.69
565.72	28713.69
565.88	28444.53
566.05	28868.17
566.21	28725.39
566.38	28765.18
566.54	29041.37
566.70	29134.99
566.87	29252.02
567.03	28914.98
567.19	29326.91
567.36	29411.17
567.52	29156.05
567.68	29109.24
567.85	29069.45
568.01	28961.79
568.17	28666.88
568.34	29001.58
568.50	29146.69
568.66	28870.51
568.83	29401.81
568.99	28861.15
569.15	28922.00
569.32	29120.95
569.48	29013.28
569.64	28980.51
569.81	29465.00
569.97	28966.47
570.13	28683.27
570.30	28917.32
570.46	29319.89
570.62	29216.91
570.78	29193.50
570.95	28758.16
571.11	29371.38
571.27	28912.64
571.43	28968.81
571.60	29350.32
571.76	29420.53
571.92	29088.18
572.09	29530.54
572.25	29366.70
572.41	29472.03
572.57	29347.98
572.74	29476.71
572.90	29132.65
573.06	28870.51
573.22	29500.11
573.38	28945.41
573.55	29172.44
573.71	29715.44
573.87	29773.95
574.03	29221.59
574.20	29046.05
574.36	29287.12
574.52	29177.12
574.68	29577.35
574.84	29432.24
575.01	29235.63
575.17	29411.17
575.33	29521.18
575.49	29291.80
575.65	29486.07
575.82	29237.97
575.98	29163.08
576.14	29675.65
576.30	29350.32
576.46	29429.90
576.62	29123.29
576.79	29289.46
576.95	28875.19
577.11	29170.10
577.27	29645.23
577.43	29565.65
577.59	29338.62
577.75	29619.48
577.92	29149.03
578.08	29507.13
578.24	29294.14
578.40	29439.26
578.56	29252.02
578.72	29329.25
578.88	29876.94
579.04	29649.91
579.21	29502.45
579.37	29436.92
579.53	29736.51
579.69	29614.80
579.85	29507.13
580.01	29802.04
580.17	29312.87
580.33	29607.78
580.49	29333.93
580.65	29706.08
580.82	29621.82
580.98	29483.73
581.14	29553.94
581.30	29905.02
581.46	29233.29
581.62	29715.44
581.78	29626.50
581.94	29504.79
582.10	29254.36
582.26	29301.17
582.42	29605.44
582.58	29560.97
582.74	29841.83
582.90	29638.20
583.06	29832.47
583.22	29572.67
583.38	29645.23
583.54	29530.54
583.70	29467.34
583.86	29699.06
584.02	29521.18
584.18	29252.02
584.34	29371.38
584.50	29975.24
584.66	29294.14
584.82	29053.07
584.98	29535.22
585.14	29343.30
585.30	29647.57
585.46	29490.75
585.62	29465.00
585.78	29266.06
585.94	29242.65
586.10	29937.79
586.26	29406.49
586.42	29682.67
586.58	29860.55
586.74	29645.23
586.90	29411.17
587.06	29422.87
587.22	29645.23
587.38	29661.61
587.54	29804.38
587.70	29895.66
587.86	29661.61
588.02	29654.59
588.18	30019.71
588.34	29649.91
588.49	29535.22
588.65	29656.93
588.81	29886.30
588.97	29881.62
589.13	29722.46
589.29	29504.79
589.45	29469.69
589.61	29876.94
589.77	30068.86
589.93	30085.25
590.08	29816.08
590.24	30087.59
590.40	30150.78
590.56	29755.23
590.72	29898.00
590.88	29640.54
591.04	29577.35
591.20	29888.64
591.35	30225.68
591.51	30443.35
591.67	29474.37
591.83	30157.80
591.99	29556.28
