SpectraSuite Data File
++++++++++++++++++++++++++++++++++++
Date: Fri Oct 18 13:58:07 GMT-05:00 2013
User: bianchi
Dark Spectrum Present: No
Reference Spectrum Present: No
Number of Sampled Component Spectra: 1
Spectrometers: USB2+H05261
Integration Time (usec): 50000 (USB2+H05261)
Spectra Averaged: 1 (USB2+H05261)
Boxcar Smoothing: 0 (USB2+H05261)
Correct for Electrical Dark: No (USB2+H05261)
Strobe/Lamp Enabled: No (USB2+H05261)
Correct for Detector Non-linearity: No (USB2+H05261)
Correct for Stray Light: No (USB2+H05261)
Number of Pixels in Processed Spectrum: 2048
>>>>>Begin Processed Spectral Data<<<<<
365.73	0.00
365.92	0.00
366.12	0.00
366.32	0.00
366.52	0.00
366.72	0.00
366.91	0.00
367.11	0.00
367.31	0.00
367.51	0.00
367.70	0.00
367.90	0.00
368.10	0.00
368.30	0.00
368.49	0.00
368.69	0.00
368.89	0.00
369.09	0.00
369.28	0.00
369.48	0.00
369.68	0.00
369.87	0.00
370.07	0.00
370.27	0.00
370.47	0.00
370.66	79.58
370.86	170.86
371.06	119.37
371.25	95.96
371.45	84.26
371.65	121.71
371.84	217.67
372.04	119.37
372.24	173.20
372.44	191.92
372.63	154.48
372.83	262.14
373.03	205.97
373.22	236.39
373.42	180.22
373.62	196.60
373.81	177.88
374.01	322.99
374.21	262.14
374.40	248.10
374.60	262.14
374.79	252.78
374.99	269.16
375.19	259.80
375.38	248.10
375.58	259.80
375.78	280.86
375.97	278.52
376.17	327.68
376.37	259.80
376.56	269.16
376.76	257.46
376.95	266.82
377.15	276.18
377.35	294.91
377.54	297.25
377.74	252.78
377.93	266.82
378.13	262.14
378.33	276.18
378.52	360.44
378.72	341.72
378.91	344.06
379.11	341.72
379.31	348.74
379.50	313.63
379.70	241.08
379.89	346.40
380.09	315.97
380.28	208.31
380.48	304.27
380.68	318.31
380.87	257.46
381.07	304.27
381.26	341.72
381.46	339.38
381.65	287.89
381.85	278.52
382.04	344.06
382.24	346.40
382.43	355.76
382.63	383.85
382.83	304.27
383.02	451.72
383.22	365.12
383.41	369.80
383.61	360.44
383.80	315.97
384.00	395.55
384.19	402.57
384.39	355.76
384.58	416.62
384.78	362.78
384.97	402.57
385.17	348.74
385.36	367.46
385.56	449.38
385.75	351.08
385.95	451.72
386.14	428.32
386.34	365.12
386.53	383.85
386.72	423.64
386.92	397.89
387.11	400.23
387.31	505.56
387.50	423.64
387.70	393.21
387.89	404.91
388.09	477.47
388.28	463.43
388.48	444.70
388.67	444.70
388.86	470.45
389.06	430.66
389.25	486.83
389.45	458.74
389.64	472.79
389.84	500.87
390.03	500.87
390.22	517.26
390.42	477.47
390.61	472.79
390.81	559.39
391.00	479.81
391.19	528.96
391.39	496.19
391.58	475.13
391.78	538.32
391.97	489.17
392.16	479.81
392.36	514.92
392.55	568.75
392.75	610.88
392.94	547.69
393.13	514.92
393.33	613.22
393.52	559.39
393.71	601.52
393.91	596.84
394.10	566.41
394.29	510.24
394.49	554.71
394.68	629.60
394.88	648.33
395.07	627.26
395.26	667.05
395.46	685.78
395.65	585.13
395.84	592.16
396.04	777.06
396.23	671.73
396.42	638.97
396.62	634.29
396.81	622.58
397.00	622.58
397.19	650.67
397.39	655.35
397.58	697.48
397.77	671.73
397.97	704.50
398.16	767.70
398.35	727.91
398.55	730.25
398.74	748.97
398.93	765.36
399.12	748.97
399.32	734.93
399.51	655.35
399.70	819.19
399.90	751.31
400.09	770.04
400.28	774.72
400.47	802.80
400.67	770.04
400.86	866.00
401.05	835.57
401.24	882.38
401.44	755.99
401.63	748.97
401.82	821.53
402.01	770.04
402.21	823.87
402.40	720.88
402.59	866.00
402.78	772.38
402.97	924.51
403.17	922.17
403.36	952.60
403.55	926.85
403.74	926.85
403.93	910.47
404.13	915.15
404.32	922.17
404.51	887.06
404.70	898.77
404.89	910.47
405.09	940.90
405.28	978.34
405.47	1013.45
405.66	936.21
405.85	961.96
406.05	985.37
406.24	978.34
406.43	964.30
406.62	1020.47
406.81	1055.58
407.00	940.90
407.20	950.26
407.39	1018.13
407.58	999.41
407.77	1043.88
407.96	1043.88
408.15	1107.07
408.34	1111.75
408.54	1170.27
408.73	1114.10
408.92	1081.33
409.11	1193.67
409.30	1088.35
409.49	1100.05
409.68	1142.18
409.87	1118.78
410.07	1289.64
410.26	1191.33
410.45	1118.78
410.64	1233.46
410.83	1142.18
411.02	1221.76
411.21	1320.06
411.40	1226.44
411.59	1301.34
411.78	1331.76
411.98	1275.59
412.17	1310.70
412.36	1301.34
412.55	1317.72
412.74	1303.68
412.93	1413.68
413.12	1322.40
413.31	1441.77
413.50	1313.04
413.69	1516.67
413.88	1500.28
414.07	1444.11
414.26	1369.21
414.45	1502.62
414.64	1488.58
414.83	1495.60
415.02	1544.75
415.22	1537.73
415.41	1540.07
415.60	1565.82
415.79	1603.27
415.98	1593.90
416.17	1598.59
416.36	1631.35
416.55	1666.46
416.74	1664.12
416.93	1720.29
417.12	1680.50
417.31	1736.68
417.50	1734.34
417.69	1724.97
417.88	1750.72
418.07	1736.68
418.26	1743.70
418.45	1863.07
418.64	1710.93
418.83	1776.47
419.02	1710.93
419.21	1788.17
419.39	1865.41
419.58	1893.49
419.77	1942.64
419.96	1818.60
420.15	1818.60
420.34	1806.89
420.53	1912.22
420.72	1977.75
420.91	1905.20
421.10	1912.22
421.29	1952.01
421.48	1989.46
421.67	1956.69
421.86	1968.39
422.05	1996.48
422.24	1874.77
422.43	2008.18
422.61	1996.48
422.80	2179.04
422.99	2031.58
423.18	2064.35
423.37	2029.24
423.56	2022.22
423.75	1980.09
423.94	1954.35
424.13	1930.94
424.32	1884.13
424.50	2146.27
424.69	2085.42
424.88	2275.00
425.07	2029.24
425.26	1982.43
425.45	2052.65
425.64	2017.54
425.83	2069.03
426.01	2073.71
426.20	2026.90
426.39	2069.03
426.58	2090.10
426.77	2057.33
426.96	2094.78
427.15	2127.55
427.33	2064.35
427.52	2113.50
427.71	2181.38
427.90	2104.14
428.09	2148.61
428.28	2132.23
428.46	2230.53
428.65	2148.61
428.84	2242.23
429.03	2324.15
429.22	2232.87
429.40	2223.51
429.59	2160.31
429.78	2289.04
429.97	2134.57
430.16	2246.91
430.34	2272.66
430.53	2345.22
430.72	2321.81
430.91	2317.13
431.10	2298.41
431.28	2368.62
431.47	2410.75
431.66	2377.98
431.85	2361.60
432.03	2443.52
432.22	2464.58
432.41	2567.57
432.60	2431.82
432.79	2373.30
432.97	2469.27
433.16	2513.74
433.35	2537.14
433.54	2368.62
433.72	2504.37
433.91	2438.84
434.10	2445.86
434.28	2539.48
434.47	2495.01
434.66	2675.23
434.85	2593.31
435.03	2593.31
435.22	2602.68
435.41	2738.43
435.59	2623.74
435.78	2717.36
435.97	2729.06
436.16	2759.49
436.34	2703.32
436.53	2712.68
436.72	2773.53
436.90	2736.09
437.09	2630.76
437.28	2738.43
437.46	2731.41
437.65	2801.62
437.84	2747.79
438.02	2785.24
438.21	2904.60
438.40	2820.35
438.58	2958.44
438.77	2949.08
438.96	2946.73
439.14	2932.69
439.33	2960.78
439.52	2986.52
439.70	2974.82
439.89	2981.84
440.08	3063.76
440.26	3117.59
440.45	3122.27
440.63	3089.51
440.82	3260.37
441.01	3126.96
441.19	3199.51
441.38	3162.06
441.57	3353.99
441.75	3288.45
441.94	3318.88
442.12	3330.58
442.31	3459.31
442.50	3234.62
442.68	3346.97
442.87	3162.06
443.05	3328.24
443.24	3342.28
443.43	3349.31
443.61	3400.80
443.80	3545.91
443.98	3328.24
444.17	3206.53
444.35	3503.78
444.54	3452.29
444.73	3499.10
444.91	3424.20
445.10	3393.78
445.28	3384.41
445.47	3365.69
445.65	3403.14
445.84	3522.51
446.02	3435.91
446.21	3384.41
446.39	3468.67
446.58	3625.49
446.77	3641.87
446.95	3461.65
447.14	3433.57
447.32	3597.40
447.51	3557.61
447.69	3552.93
447.88	3424.20
448.06	3576.34
448.25	3625.49
448.43	3646.55
448.62	3538.89
448.80	3552.93
448.99	3648.90
449.17	3597.40
449.36	3634.85
449.54	3770.60
449.73	3861.88
449.91	3801.03
450.10	3693.37
450.28	3840.82
450.46	3695.71
450.65	3761.24
450.83	3808.05
451.02	3786.99
451.20	3758.90
451.39	3735.50
451.57	3812.73
451.76	3754.22
451.94	3906.35
452.13	3852.52
452.31	3873.59
452.49	3899.33
452.68	3962.53
452.86	3810.39
453.05	3948.48
453.23	3955.51
453.42	3948.48
453.60	3747.20
453.78	3922.74
453.97	3971.89
454.15	3868.91
454.34	3995.29
454.52	4018.70
454.70	4063.17
454.89	3957.85
455.07	4098.28
455.26	3988.27
455.44	4215.30
455.62	4011.68
455.81	4105.30
455.99	4262.12
456.17	4229.35
456.36	4231.69
456.54	4140.41
456.73	4306.59
456.91	4360.42
457.09	4273.82
457.28	4376.80
457.46	4318.29
457.64	4484.47
457.83	4512.55
458.01	4400.21
458.19	4500.85
458.38	4397.87
458.56	4493.83
458.74	4470.42
458.93	4503.19
459.11	4332.33
459.29	4411.91
459.48	4557.02
459.66	4631.92
459.84	4528.94
460.03	4589.79
460.21	4482.13
460.39	4641.28
460.57	4521.92
460.76	4711.50
460.94	4734.90
461.12	4638.94
461.31	4692.77
461.49	4774.69
461.67	4702.14
461.85	4816.82
462.04	4847.25
462.22	5008.75
462.40	4788.74
462.59	4851.93
462.77	4772.35
462.95	4978.32
463.13	4709.16
463.32	4844.91
463.50	4922.15
463.68	5085.98
463.86	4851.93
464.05	4833.21
464.23	4924.49
464.41	4802.78
464.59	4856.61
464.78	5043.85
464.96	4961.94
465.14	4844.91
465.32	4910.44
465.50	4868.31
465.69	5114.07
465.87	5085.98
466.05	5135.14
466.23	5032.15
466.41	5118.75
466.60	5280.25
466.78	5315.36
466.96	5165.56
467.14	5039.17
467.32	5034.49
467.51	5364.51
467.69	5074.28
467.87	5275.57
468.05	5060.24
468.23	5132.79
468.41	5238.12
468.60	5142.16
468.78	5298.97
468.96	5329.40
469.14	5420.68
469.32	5383.23
469.50	5355.15
469.69	5315.36
469.87	5394.93
470.05	5509.62
470.23	5488.56
470.41	5474.51
470.59	5504.94
470.77	5472.17
470.95	5502.60
471.14	5628.99
471.32	5551.75
471.50	5781.12
471.68	5650.05
471.86	5612.60
472.04	5490.90
472.22	5888.79
472.40	5741.33
472.58	5652.39
472.77	5708.57
472.95	5877.09
473.13	5973.05
473.31	5820.91
473.49	5804.53
473.67	5898.15
473.85	5935.60
474.03	6113.48
474.21	6043.26
474.39	6094.76
474.57	6188.38
474.75	6251.57
474.93	6157.95
475.12	6340.51
475.30	6225.82
475.48	6305.40
475.66	6286.68
475.84	6518.39
476.02	6623.72
476.20	6237.53
476.38	6588.61
476.56	6726.70
476.74	6602.65
476.92	6583.93
477.10	6600.31
477.28	6619.04
477.46	6820.32
477.64	6722.02
477.82	6970.12
478.00	6920.96
478.18	7016.93
478.36	7098.84
478.54	7056.72
478.72	6970.12
478.90	7091.82
479.08	7272.04
479.26	7372.69
479.44	7316.51
479.62	7480.35
479.80	7454.61
479.98	7531.84
480.16	7569.29
480.34	7510.78
480.52	7691.00
480.70	7822.07
480.88	7728.45
481.06	7616.10
481.24	7864.20
481.41	7957.82
481.59	8182.51
481.77	7939.10
481.95	8198.90
482.13	8210.60
482.31	8306.56
482.49	8177.83
482.67	8493.80
482.85	8325.29
483.03	8526.57
483.21	8830.84
483.39	8737.22
483.57	8589.77
483.74	8753.60
483.92	8847.22
484.10	8634.24
484.28	9001.70
484.46	9158.52
484.64	9383.21
484.82	9142.13
485.00	9109.36
485.18	9355.12
485.35	9460.45
485.53	9511.94
485.71	9432.36
485.89	9715.56
486.07	9621.94
486.25	9788.12
486.43	9654.71
486.61	9989.41
486.78	10097.07
486.96	10127.50
487.14	10164.95
487.32	10188.35
487.50	10506.66
487.68	10263.25
487.85	10216.44
488.03	10689.23
488.21	10768.80
488.39	10647.10
488.57	10934.98
488.75	10869.45
488.92	10981.79
489.10	11183.08
489.28	10939.66
489.46	11042.65
489.64	11290.74
489.81	11321.17
489.99	11454.58
490.17	11337.56
490.35	11550.54
490.53	11620.76
490.70	11655.87
490.88	11573.95
491.06	11915.67
491.24	11829.07
491.41	11983.54
491.59	12006.95
491.77	12088.87
491.95	12456.33
492.13	12142.70
492.30	12404.84
492.48	12542.93
492.66	12322.92
492.84	12521.87
493.01	12690.38
493.19	12561.66
493.37	12982.95
493.54	13011.04
493.72	12915.08
493.90	12741.88
494.08	13090.62
494.25	13282.54
494.43	13444.04
494.61	13277.86
494.79	13518.93
494.96	13451.06
495.14	13530.64
495.32	13694.47
495.49	13738.94
495.67	13713.20
495.85	14118.11
496.02	14017.47
496.20	14097.05
496.38	14104.07
496.55	13671.07
496.73	14565.15
496.91	14274.93
497.09	14499.62
497.26	14361.53
497.44	14558.13
497.62	14406.00
497.79	14892.83
497.97	14387.27
498.14	14899.85
498.32	14941.98
498.50	15147.95
498.67	15246.25
498.85	15321.15
499.03	15026.24
499.20	15115.18
499.38	15253.27
499.56	15506.05
499.73	15302.42
499.91	15543.50
500.08	15658.18
500.26	15545.84
500.44	15660.52
500.61	15777.55
500.79	15894.58
500.97	15913.30
501.14	16271.40
501.32	16070.12
501.49	16095.86
501.67	15997.56
501.84	15901.60
502.02	16407.16
502.20	16250.34
502.37	16128.63
502.55	16248.00
502.72	16603.76
502.90	16460.99
503.07	16301.83
503.25	16470.35
503.43	16767.60
503.60	16655.25
503.78	16666.95
503.95	16903.35
504.13	16837.81
504.30	16746.53
504.48	16755.90
504.65	16940.80
504.83	17128.04
505.01	17062.51
505.18	17200.60
505.36	17252.09
505.53	17118.68
505.71	17018.04
505.88	17411.25
506.06	17317.62
506.23	17413.59
506.41	17572.74
506.58	17315.28
506.76	17640.62
506.93	17638.28
507.11	17549.34
507.28	17980.00
507.46	17605.51
507.63	17933.18
507.81	18015.10
507.98	17734.24
508.16	17958.93
508.33	18090.00
508.50	18368.52
508.68	18136.81
508.85	18382.57
509.03	18558.11
509.20	18471.51
509.38	18354.48
509.55	18792.16
509.73	18560.45
509.90	18483.21
510.08	18490.23
510.25	18382.57
510.42	18799.18
510.60	18656.41
510.77	19082.39
510.95	18771.10
511.12	19124.52
511.30	18988.77
511.47	19215.80
511.64	19012.17
511.82	19360.91
511.99	19150.26
512.17	19353.89
512.34	19257.93
512.51	19325.80
512.69	19789.23
512.86	19290.70
513.04	19613.69
513.21	19772.85
513.38	19431.13
513.56	19594.96
513.73	19859.45
513.90	19735.40
514.08	19604.33
514.25	19992.86
514.43	19763.48
514.60	20130.95
514.77	19917.96
514.95	20013.92
515.12	20018.60
515.29	19939.02
515.47	20159.03
515.64	20149.67
515.81	20393.09
515.99	20755.87
516.16	20533.52
516.33	20500.75
516.51	20849.49
516.68	20659.91
516.85	20294.79
517.03	20641.18
517.20	20617.78
517.37	20720.76
517.54	21097.59
517.72	21228.66
517.89	21076.52
518.06	20542.88
518.24	20861.19
518.41	21020.35
518.58	20776.94
518.75	21120.99
518.93	21324.62
519.10	21525.91
519.27	21460.37
519.45	21603.14
519.62	21104.61
519.79	21537.61
519.96	21092.91
520.14	21446.33
520.31	21408.88
520.48	21532.93
520.65	21429.94
520.83	21926.14
521.00	21867.63
521.17	21823.16
521.34	21572.72
521.52	21589.10
521.69	21891.03
521.86	21834.86
522.03	22066.57
522.20	21994.01
522.38	22246.79
522.55	22274.88
522.72	22361.48
522.89	22195.30
523.07	22522.98
523.24	22244.45
523.41	22434.03
523.58	22382.54
523.75	22644.68
523.92	22405.95
524.10	22441.06
524.27	22527.66
524.44	22487.87
524.61	22855.33
524.78	22576.81
524.96	22679.79
525.13	22588.51
525.30	22944.27
525.47	22850.65
525.64	22998.10
525.81	22890.44
525.98	22707.88
526.16	23211.09
526.33	23276.63
526.50	23276.63
526.67	23147.90
526.84	23190.03
527.01	22979.38
527.18	23300.03
527.36	23197.05
527.53	23571.54
527.70	23447.49
527.87	23763.46
528.04	23625.37
528.21	23576.22
528.38	23393.65
528.55	23798.57
528.72	23197.05
528.89	23857.08
529.07	23857.08
529.24	23620.69
529.41	23761.12
529.58	23616.01
529.75	23735.37
529.92	23960.06
530.09	23669.84
530.26	23812.61
530.43	24294.76
530.60	23789.20
530.77	24159.01
530.94	24201.14
531.11	23679.20
531.28	24325.19
531.46	24201.14
531.63	24287.74
531.80	24264.33
531.97	24360.30
532.14	24545.20
532.31	24418.81
532.48	24800.32
532.65	24622.44
532.82	24603.71
532.99	24723.08
533.16	24507.75
533.33	24613.07
533.50	24751.17
533.67	24854.15
533.84	24374.34
534.01	24872.87
534.18	24872.87
534.35	24840.11
534.52	24837.76
534.69	24886.92
534.86	25167.78
535.03	24802.66
535.20	24823.72
535.37	24912.66
535.54	24940.75
535.71	25013.31
535.88	24957.13
536.05	25025.01
536.22	25048.41
536.38	25160.76
536.55	25186.50
536.72	25479.07
536.89	25205.23
537.06	25160.76
537.23	25596.10
537.40	25106.93
537.57	25062.46
537.74	25961.22
537.91	25781.00
538.08	25612.48
538.25	25429.92
538.42	25418.22
538.59	25703.76
538.75	25689.72
538.92	25781.00
539.09	25486.09
539.26	25769.30
539.43	25577.37
539.60	26017.40
539.77	26057.18
539.94	25916.75
540.11	25958.88
540.28	26022.08
540.44	25696.74
540.61	25743.55
540.78	25652.27
540.95	25862.92
541.12	26237.41
541.29	26075.91
541.46	26099.31
541.62	26008.03
541.79	26202.30
541.96	25869.94
542.13	25970.58
542.30	26373.16
542.47	26106.34
542.63	26778.07
542.80	26663.38
542.97	26665.72
543.14	26684.45
543.31	26487.84
543.48	26621.25
543.64	26518.27
543.81	26665.72
543.98	26649.34
544.15	26529.97
544.32	27309.37
544.48	27178.30
544.65	26717.22
544.82	26841.26
544.99	26829.56
545.16	26822.54
545.32	26948.93
545.49	27194.68
545.66	27285.97
545.83	26789.77
546.00	27154.90
546.16	27199.37
546.33	27063.61
546.50	26965.31
546.67	27051.91
546.83	26920.84
547.00	27091.70
547.17	27295.33
547.34	27433.42
547.50	27381.93
547.67	27707.26
547.84	27365.54
548.00	27255.54
548.17	27597.26
548.34	27424.06
548.51	27840.67
548.67	27428.74
548.84	27751.73
549.01	27484.91
549.18	27566.83
549.34	27477.89
549.51	27297.67
549.68	27405.33
549.84	27798.54
550.01	27761.09
550.18	27513.00
550.34	27922.59
550.51	28079.41
550.68	28081.75
550.84	27620.66
551.01	27913.23
551.18	27873.44
551.34	27585.55
551.51	27798.54
551.68	27946.00
551.84	27660.45
552.01	27854.72
552.18	28304.10
552.34	27852.38
552.51	27990.47
552.68	27807.90
552.84	27941.32
553.01	28531.13
553.18	28278.35
553.34	28423.47
553.51	28121.54
553.67	28594.32
553.84	28371.97
554.01	28631.77
554.17	28594.32
554.34	28332.18
554.51	28306.44
554.67	28580.28
554.84	28503.04
555.00	28350.91
555.17	28428.15
555.33	28463.25
555.50	28435.17
555.67	28444.53
555.83	28755.82
556.00	28804.97
556.16	29263.72
556.33	28472.62
556.50	28774.55
556.66	29163.08
556.83	28423.47
556.99	28416.44
557.16	29160.73
557.32	28936.04
557.49	28786.25
557.65	28622.41
557.82	28552.20
557.98	28875.19
558.15	29050.73
558.32	29404.15
558.48	28826.04
558.65	28992.22
558.81	29179.46
558.98	28863.49
559.14	29151.37
559.31	28772.21
559.47	28788.59
559.64	28896.25
559.80	29062.43
559.97	29184.14
560.13	29071.79
560.30	29242.65
560.46	29219.25
560.63	29177.12
560.79	29053.07
560.96	29240.31
561.12	29259.04
561.29	29532.88
561.45	29235.63
561.61	29268.40
561.78	29406.49
561.94	29060.09
562.11	29373.72
562.27	29350.32
562.44	29432.24
562.60	29048.39
562.77	29640.54
562.93	29294.14
563.10	29549.26
563.26	29113.92
563.42	29420.53
563.59	29404.15
563.75	29628.84
563.92	29518.84
564.08	29780.98
564.24	29544.58
564.41	29053.07
564.57	29160.73
564.74	29268.40
564.90	29862.90
565.07	29680.33
565.23	29322.23
565.39	29930.77
565.56	29862.90
565.72	29556.28
565.88	29504.79
566.05	29310.53
566.21	29422.87
566.38	29799.70
566.54	29811.40
566.70	29893.32
566.87	29762.25
567.03	29610.12
567.19	30237.38
567.36	30008.01
567.52	29804.38
567.68	29876.94
567.85	29752.89
568.01	29675.65
568.17	29937.79
568.34	29811.40
568.50	29900.34
568.66	30082.91
568.83	30132.06
568.99	30061.84
569.15	29865.24
569.32	29659.27
569.48	29741.19
569.64	29851.19
569.81	30314.62
569.97	29921.41
570.13	30071.20
570.30	29649.91
570.46	29975.24
570.62	30101.63
570.78	29832.47
570.95	29738.85
571.11	29687.36
571.27	29890.98
571.43	29544.58
571.60	29820.77
571.76	29827.79
571.92	29757.57
572.09	29954.18
572.25	30162.48
572.41	30029.07
572.57	29759.91
572.74	29989.28
572.90	30015.03
573.06	29923.75
573.22	30267.81
573.38	29991.62
573.55	30038.44
573.71	29949.50
573.87	30429.30
574.03	30408.24
574.20	29860.55
574.36	30029.07
574.52	30045.46
574.68	30005.67
574.84	30162.48
575.01	30188.23
575.17	30146.10
575.33	29944.81
575.49	30345.05
575.65	30405.90
575.82	30272.49
575.98	30314.62
576.14	30401.22
576.30	30120.35
576.46	30153.12
576.62	30155.46
576.79	30457.39
576.95	29839.49
577.11	30291.21
577.27	30071.20
577.43	30345.05
577.59	30052.48
577.75	30536.97
577.92	30094.61
578.08	30017.37
578.24	30000.99
578.40	30628.25
578.56	30529.95
578.72	30115.67
578.88	30738.26
579.04	30602.50
579.21	30518.25
579.37	30249.08
579.53	30621.23
579.69	30352.07
579.85	29958.86
580.01	30494.84
580.17	30143.76
580.33	29888.64
580.49	30237.38
580.65	30354.41
580.82	30593.14
580.98	30010.35
581.14	30347.39
581.30	30630.59
581.46	30462.07
581.62	30333.34
581.78	29986.94
581.94	30270.15
582.10	30174.19
582.26	30558.03
582.42	30471.43
582.58	30101.63
582.74	30483.14
582.90	30609.53
583.06	30773.36
583.22	30061.84
583.38	30302.92
583.54	30359.09
583.70	30235.04
583.86	30724.21
584.02	30199.93
584.18	30719.53
584.34	30382.49
584.50	30473.78
584.66	30366.11
584.82	30122.69
584.98	30260.79
585.14	30747.62
585.30	30412.92
585.46	30183.55
585.62	30625.91
585.78	30370.79
585.94	30125.04
586.10	30473.78
586.26	30359.09
586.42	30639.95
586.58	30693.79
586.74	30651.66
586.90	30415.26
587.06	30796.77
587.22	30438.67
587.38	30370.79
587.54	30810.81
587.70	30560.37
587.86	30569.74
588.02	30684.42
588.18	30485.48
588.34	30771.02
588.49	30312.28
588.65	30426.96
588.81	30384.83
588.97	30845.92
589.13	30728.89
589.29	30785.07
589.45	31000.40
589.61	30754.64
589.77	31222.75
589.93	30934.86
590.08	31211.04
590.24	30981.67
590.40	30899.75
590.56	31124.44
590.72	30707.83
590.88	30450.37
591.04	30689.10
591.20	31274.24
591.35	30923.16
591.51	31227.43
591.67	30981.67
591.83	31019.12
591.99	30927.84
