SpectraSuite Data File
++++++++++++++++++++++++++++++++++++
Date: Fri Oct 18 13:57:58 GMT-05:00 2013
User: bianchi
Dark Spectrum Present: No
Reference Spectrum Present: No
Number of Sampled Component Spectra: 1
Spectrometers: USB2+H05261
Integration Time (usec): 50000 (USB2+H05261)
Spectra Averaged: 1 (USB2+H05261)
Boxcar Smoothing: 0 (USB2+H05261)
Correct for Electrical Dark: No (USB2+H05261)
Strobe/Lamp Enabled: No (USB2+H05261)
Correct for Detector Non-linearity: No (USB2+H05261)
Correct for Stray Light: No (USB2+H05261)
Number of Pixels in Processed Spectrum: 2048
>>>>>Begin Processed Spectral Data<<<<<
365.73	16.38
365.92	16.38
366.12	16.38
366.32	0.00
366.52	0.00
366.72	0.00
366.91	0.00
367.11	0.00
367.31	0.00
367.51	0.00
367.70	0.00
367.90	0.00
368.10	0.00
368.30	0.00
368.49	0.00
368.69	0.00
368.89	0.00
369.09	0.00
369.28	0.00
369.48	0.00
369.68	0.00
369.87	0.00
370.07	0.00
370.27	0.00
370.47	0.00
370.66	126.39
370.86	114.69
371.06	145.11
371.25	196.60
371.45	131.07
371.65	93.62
371.84	74.90
372.04	147.45
372.24	201.29
372.44	205.97
372.63	147.45
372.83	201.29
373.03	215.33
373.22	163.84
373.42	184.90
373.62	175.54
373.81	245.76
374.01	205.97
374.21	306.61
374.40	205.97
374.60	287.89
374.79	262.14
374.99	248.10
375.19	266.82
375.38	327.68
375.58	245.76
375.78	311.29
375.97	205.97
376.17	210.65
376.37	276.18
376.56	280.86
376.76	264.48
376.95	292.57
377.15	322.99
377.35	245.76
377.54	259.80
377.74	252.78
377.93	266.82
378.13	308.95
378.33	341.72
378.52	280.86
378.72	241.08
378.91	325.33
379.11	245.76
379.31	318.31
379.50	297.25
379.70	334.70
379.89	334.70
380.09	306.61
380.28	290.23
380.48	285.55
380.68	299.59
380.87	379.17
381.07	332.36
381.26	327.68
381.46	248.10
381.65	337.04
381.85	301.93
382.04	311.29
382.24	390.87
382.43	449.38
382.63	360.44
382.83	320.65
383.02	372.15
383.22	308.95
383.41	341.72
383.61	411.93
383.80	374.49
384.00	341.72
384.19	400.23
384.39	353.42
384.58	388.53
384.78	337.04
384.97	383.85
385.17	344.06
385.36	444.70
385.56	416.62
385.75	362.78
385.95	397.89
386.14	341.72
386.34	358.10
386.53	390.87
386.72	423.64
386.92	435.34
387.11	444.70
387.31	449.38
387.50	348.74
387.70	437.68
387.89	456.40
388.09	421.30
388.28	442.36
388.48	493.85
388.67	458.74
388.86	393.21
389.06	437.68
389.25	423.64
389.45	416.62
389.64	514.92
389.84	484.49
390.03	540.66
390.22	444.70
390.42	463.43
390.61	559.39
390.81	416.62
391.00	451.72
391.19	423.64
391.39	528.96
391.58	472.79
391.78	493.85
391.97	528.96
392.16	507.90
392.36	610.88
392.55	566.41
392.75	500.87
392.94	557.05
393.13	510.24
393.33	491.51
393.52	592.16
393.71	671.73
393.91	608.54
394.10	580.45
394.29	585.13
394.49	589.82
394.68	622.58
394.88	578.11
395.07	655.35
395.26	585.13
395.46	648.33
395.65	606.20
395.84	622.58
396.04	631.94
396.23	671.73
396.42	608.54
396.62	730.25
396.81	671.73
397.00	702.16
397.19	727.91
397.39	697.48
397.58	709.18
397.77	613.22
397.97	676.41
398.16	734.93
398.35	685.78
398.55	706.84
398.74	725.57
398.93	683.44
399.12	662.37
399.32	774.72
399.51	777.06
399.70	798.12
399.90	807.48
400.09	704.50
400.28	732.59
400.47	746.63
400.67	828.55
400.86	863.66
401.05	842.59
401.24	866.00
401.44	798.12
401.63	795.78
401.82	720.88
402.01	718.54
402.21	807.48
402.40	931.53
402.59	847.27
402.78	861.32
402.97	901.11
403.17	891.74
403.36	837.91
403.55	936.21
403.74	919.83
403.93	880.04
404.13	992.39
404.32	1018.13
404.51	875.36
404.70	1006.43
404.89	966.64
405.09	1013.45
405.28	997.07
405.47	990.05
405.66	889.40
405.85	971.32
406.05	992.39
406.24	966.64
406.43	954.94
406.62	1025.15
406.81	1114.10
407.00	1039.20
407.20	1022.81
407.39	1025.15
407.58	1081.33
407.77	1046.22
407.96	1111.75
408.15	1067.28
408.34	1046.22
408.54	1144.52
408.73	1160.91
408.92	1114.10
409.11	1158.57
409.30	1163.25
409.49	1226.44
409.68	1184.31
409.87	1184.31
410.07	1130.48
410.26	1125.80
410.45	1188.99
410.64	1179.63
410.83	1259.21
411.02	1146.86
411.21	1306.02
411.40	1219.42
411.59	1336.45
411.78	1247.51
411.98	1313.04
412.17	1303.68
412.36	1228.78
412.55	1385.60
412.74	1401.98
412.93	1483.90
413.12	1430.07
413.31	1385.60
413.50	1378.58
413.69	1394.96
413.88	1476.88
414.07	1451.13
414.26	1526.03
414.45	1476.88
414.64	1568.16
414.83	1636.03
415.02	1626.67
415.22	1561.14
415.41	1584.54
415.60	1558.80
415.79	1652.42
415.98	1650.08
416.17	1720.29
416.36	1692.21
416.55	1593.90
416.74	1675.82
416.93	1661.78
417.12	1715.61
417.31	1694.55
417.50	1729.66
417.69	1872.43
417.88	1764.76
418.07	1778.81
418.26	1739.02
418.45	1729.66
418.64	1905.20
418.83	1804.55
419.02	1764.76
419.21	1781.15
419.39	1788.17
419.58	1907.54
419.77	1851.36
419.96	1902.86
420.15	1849.02
420.34	1902.86
420.53	1930.94
420.72	1991.80
420.91	2045.63
421.10	2026.90
421.29	2043.29
421.48	1874.77
421.67	2001.16
421.86	1921.58
422.05	2111.16
422.24	1902.86
422.43	1919.24
422.61	1970.73
422.80	2024.56
422.99	2052.65
423.18	2059.67
423.37	2176.70
423.56	2106.48
423.75	2033.93
423.94	2008.18
424.13	1839.66
424.32	1846.68
424.50	2087.76
424.69	2221.17
424.88	2113.50
425.07	2024.56
425.26	2015.20
425.45	2076.06
425.64	1975.41
425.83	2026.90
426.01	2097.12
426.20	2066.69
426.39	2090.10
426.58	2134.57
426.77	2169.68
426.96	2190.74
427.15	2157.97
427.33	2160.31
427.52	2097.12
427.71	2040.95
427.90	2106.48
428.09	2153.29
428.28	2321.81
428.46	2146.27
428.65	2314.79
428.84	2253.94
429.03	2342.88
429.22	2195.42
429.40	2249.25
429.59	2401.39
429.78	2303.09
429.97	2221.17
430.16	2246.91
430.34	2361.60
430.53	2436.50
430.72	2347.56
430.91	2356.92
431.10	2258.62
431.28	2516.08
431.47	2471.61
431.66	2597.99
431.85	2399.05
432.03	2539.48
432.22	2518.42
432.41	2457.56
432.60	2518.42
432.79	2436.50
432.97	2401.39
433.16	2427.14
433.35	2452.88
433.54	2565.23
433.72	2630.76
433.91	2600.34
434.10	2581.61
434.28	2623.74
434.47	2635.44
434.66	2689.28
434.85	2740.77
435.03	2586.29
435.22	2712.68
435.41	2708.00
435.59	2621.40
435.78	2757.15
435.97	2829.71
436.16	2722.04
436.34	2733.75
436.53	2759.49
436.72	2801.62
436.90	2733.75
437.09	2771.19
437.28	2593.31
437.46	2696.30
437.65	2789.92
437.84	2890.56
438.02	2698.64
438.21	2888.22
438.40	2860.13
438.58	2937.37
438.77	2972.48
438.96	2993.55
439.14	2935.03
439.33	3054.40
439.52	3026.31
439.70	3030.99
439.89	3117.59
440.08	2993.55
440.26	3089.51
440.45	3124.62
440.63	3190.15
440.82	3192.49
441.01	3248.66
441.19	3234.62
441.38	3199.51
441.57	3251.00
441.75	3351.65
441.94	3318.88
442.12	3391.44
442.31	3358.67
442.50	3370.37
442.68	3386.76
442.87	3353.99
443.05	3449.95
443.24	3581.02
443.43	3480.38
443.61	3384.41
443.80	3634.85
443.98	3492.08
444.17	3342.28
444.35	3393.78
444.54	3510.80
444.73	3543.57
444.91	3487.40
445.10	3382.07
445.28	3496.76
445.47	3431.23
445.65	3414.84
445.84	3552.93
446.02	3541.23
446.21	3520.17
446.39	3578.68
446.58	3606.77
446.77	3648.90
446.95	3466.33
447.14	3545.91
447.32	3609.11
447.51	3639.53
447.69	3641.87
447.88	3604.42
448.06	3548.25
448.25	3595.06
448.43	3646.55
448.62	3513.14
448.80	3625.49
448.99	3637.19
449.17	3660.60
449.36	3595.06
449.54	3648.90
449.73	3777.62
449.91	3864.22
450.10	3803.37
450.28	3861.88
450.46	3735.50
450.65	3782.31
450.83	3796.35
451.02	4002.32
451.20	3861.88
451.39	3733.15
451.57	3822.09
451.76	3971.89
451.94	3805.71
452.13	4091.26
452.31	4002.32
452.49	3896.99
452.68	4016.36
452.86	3953.16
453.05	4065.51
453.23	4105.30
453.42	3808.05
453.60	3936.78
453.78	4049.13
453.97	3992.95
454.15	3971.89
454.34	3992.95
454.52	4198.92
454.70	4243.39
454.89	4091.26
455.07	4098.28
455.26	4170.83
455.44	4196.58
455.62	4215.30
455.81	4210.62
455.99	4180.20
456.17	4107.64
456.36	4250.41
456.54	4379.14
456.73	4318.29
456.91	4273.82
457.09	4425.95
457.28	4397.87
457.46	4320.63
457.64	4493.83
457.83	4379.14
458.01	4535.96
458.19	4376.80
458.38	4636.60
458.56	4554.68
458.74	4468.08
458.93	4585.11
459.11	4409.57
459.29	4503.19
459.48	4528.94
459.66	4594.47
459.84	4791.08
460.03	4826.18
460.21	4533.62
460.39	4636.60
460.57	4624.90
460.76	4753.63
460.94	4770.01
461.12	4777.03
461.31	4697.46
461.49	4713.84
461.67	4774.69
461.85	4753.63
462.04	4699.80
462.22	5172.58
462.40	4788.74
462.59	4894.06
462.77	4809.80
462.95	4737.24
463.13	4919.81
463.32	4978.32
463.50	5006.41
463.68	4919.81
463.86	4901.08
464.05	4964.28
464.23	4994.70
464.41	4940.87
464.59	4945.55
464.78	5142.16
464.96	4912.78
465.14	5013.43
465.32	5022.79
465.50	5165.56
465.69	5144.50
465.87	5013.43
466.05	5135.14
466.23	5109.39
466.41	5224.08
466.60	5329.40
466.78	5231.10
466.96	5144.50
467.14	5095.35
467.32	5277.91
467.51	5296.63
467.69	5291.95
467.87	5193.65
468.05	5308.34
468.23	5200.67
468.41	5219.39
468.60	5320.04
468.78	5439.40
468.96	5359.83
469.14	5345.78
469.32	5535.37
469.50	5348.12
469.69	5549.41
469.87	5605.58
470.05	5504.94
470.23	5537.71
470.41	5584.52
470.59	5495.58
470.77	5584.52
470.95	5715.59
471.14	5722.61
471.32	5703.89
471.50	5851.34
471.68	5617.29
471.86	5757.72
472.04	5951.98
472.22	5900.49
472.40	5687.50
472.58	5909.85
472.77	5977.73
472.95	5954.32
473.13	6207.10
473.31	5968.37
473.49	5935.60
473.67	5762.40
473.85	6024.54
474.03	6246.89
474.21	6141.57
474.39	6047.94
474.57	6120.50
474.75	6113.48
474.93	6384.98
475.12	6228.17
475.30	6338.17
475.48	6270.30
475.66	6455.20
475.84	6494.99
476.02	6544.14
476.20	6565.20
476.38	6686.91
476.56	6738.40
476.74	6693.93
476.92	6862.45
477.10	6590.95
477.28	6752.45
477.46	6869.47
477.64	6881.18
477.82	6869.47
478.00	7150.34
478.18	7183.10
478.36	7129.27
478.54	7180.76
478.72	7206.51
478.90	7309.49
479.08	7391.41
479.26	7433.54
479.44	7487.37
479.62	7581.00
479.80	7712.07
479.98	7531.84
480.16	7604.40
480.34	7613.76
480.52	7735.47
480.70	7786.96
480.88	7676.96
481.06	7822.07
481.24	7803.35
481.41	8042.08
481.59	8056.12
481.77	7936.76
481.95	8109.96
482.13	8243.37
482.31	8212.94
482.49	8533.59
482.67	8454.02
482.85	8606.15
483.03	8751.26
483.21	8711.47
483.39	8826.16
483.57	8692.75
483.74	8868.29
483.92	8903.40
484.10	8898.72
484.28	9118.73
484.46	9355.12
484.64	9446.40
484.82	9254.48
485.00	9301.29
485.18	9626.62
485.35	9486.19
485.53	9659.39
485.71	9722.59
485.89	9820.89
486.07	9783.44
486.25	9823.23
486.43	9771.74
486.61	10085.37
486.78	10087.71
486.96	10260.91
487.14	10509.01
487.32	10396.66
487.50	10373.25
487.68	10382.62
487.85	10480.92
488.03	10745.40
488.21	10764.12
488.39	10869.45
488.57	10883.49
488.75	11002.86
488.92	11199.46
489.10	11140.95
489.28	11211.17
489.46	11300.11
489.64	11400.75
489.81	11707.36
489.99	11740.13
490.17	11456.92
490.35	11948.43
490.53	11730.76
490.70	11826.73
490.88	11868.86
491.06	12140.36
491.24	12079.50
491.41	11852.47
491.59	12123.98
491.77	12205.89
491.95	12446.97
492.13	12571.02
492.30	12587.40
492.48	12704.43
492.66	12409.52
492.84	12678.68
493.01	12915.08
493.19	13209.98
493.37	13102.32
493.54	13062.53
493.72	13254.45
493.90	13130.41
494.08	13212.32
494.25	13544.68
494.43	13502.55
494.61	13645.32
494.79	13696.82
494.96	13774.05
495.14	13774.05
495.32	13776.39
495.49	13781.07
495.67	14218.75
495.85	14185.99
496.02	14185.99
496.20	14181.31
496.38	14476.21
496.55	14436.42
496.73	14544.09
496.91	14583.88
497.09	14773.46
497.26	14576.86
497.44	14675.16
497.62	14719.63
497.79	14862.40
497.97	14759.42
498.14	15293.06
498.32	15161.99
498.50	15199.44
498.67	15543.50
498.85	15506.05
499.03	15625.42
499.20	15452.22
499.38	15407.75
499.56	15562.22
499.73	15824.36
499.91	15541.16
500.08	15728.40
500.26	15775.21
500.44	15716.70
500.61	15887.56
500.79	16058.42
500.97	16297.15
501.14	16500.78
501.32	16313.53
501.49	16159.06
501.67	16446.94
501.84	16255.02
502.02	16269.06
502.20	16294.81
502.37	16620.14
502.55	16559.29
502.72	16987.61
502.90	16676.32
503.07	16542.91
503.25	16746.53
503.43	16781.64
503.60	16982.93
503.78	17020.38
503.95	17078.89
504.13	17090.59
504.30	17088.25
504.48	17085.91
504.65	17577.42
504.83	17387.84
505.01	17481.46
505.18	17308.26
505.36	17912.12
505.53	17362.09
505.71	17675.73
505.88	17511.89
506.06	17561.04
506.23	17788.07
506.41	17834.88
506.58	18118.09
506.76	17839.56
506.93	17872.33
507.11	17729.56
507.28	17921.48
507.46	18295.97
507.63	18087.66
507.81	18249.16
507.98	18122.77
508.16	18476.19
508.33	18207.03
508.50	18530.02
508.68	18462.15
508.85	18462.15
509.03	19009.83
509.20	18518.32
509.38	18860.04
509.55	18916.21
509.73	19066.00
509.90	19122.18
510.08	18993.45
510.25	18647.05
510.42	18965.36
510.60	18963.02
510.77	19136.22
510.95	19154.94
511.12	19241.54
511.30	19168.99
511.47	19424.11
511.64	19609.01
511.82	19716.67
511.99	19660.50
512.17	19946.05
512.34	19548.15
512.51	19587.94
512.69	19941.36
512.86	19922.64
513.04	19803.27
513.21	20074.77
513.38	20144.99
513.56	19829.02
513.73	20135.63
513.90	19770.51
514.08	19747.10
514.25	20149.67
514.43	20493.73
514.60	20599.05
514.77	20636.50
514.95	20666.93
515.12	20365.00
515.29	20128.61
515.47	20582.67
515.64	20870.56
515.81	20933.75
515.99	20620.12
516.16	20741.83
516.33	20851.83
516.51	20851.83
516.68	20912.69
516.85	20821.41
517.03	20975.88
517.20	21322.28
517.37	20861.19
517.54	21537.61
517.72	21284.83
517.89	21177.17
518.06	21488.46
518.24	21259.09
518.41	21303.56
518.58	21504.84
518.75	21359.73
518.93	21589.10
519.10	21446.33
519.27	21799.75
519.45	21535.27
519.62	21561.02
519.79	21593.78
519.96	21865.28
520.14	21584.42
520.31	21762.30
520.48	22029.12
520.65	22026.78
520.83	22174.24
521.00	22045.51
521.17	21788.05
521.34	22302.96
521.52	22214.02
521.69	21844.22
521.86	22387.22
522.03	22574.47
522.20	22253.81
522.38	22618.94
522.55	22429.35
522.72	22307.65
522.89	22412.97
523.07	22843.63
523.24	22881.08
523.41	22948.95
523.58	22410.63
523.75	22834.27
523.92	22644.68
524.10	23234.50
524.27	23021.51
524.44	23131.51
524.61	23225.14
524.78	23180.67
524.96	23183.01
525.13	23161.94
525.30	23161.94
525.47	23278.97
525.64	22998.10
525.81	23520.04
525.98	23683.88
526.16	23463.87
526.33	23386.63
526.50	23623.03
526.67	23248.54
526.84	23349.18
527.01	23328.12
527.18	23590.26
527.36	23503.66
527.53	24002.19
527.70	24070.07
527.87	23953.04
528.04	23981.13
528.21	23817.29
528.38	23632.39
528.55	23915.59
528.72	23992.83
528.89	24147.31
529.07	24357.96
529.24	24126.24
529.41	23922.62
529.58	24334.55
529.75	24077.09
529.92	24151.99
530.09	24301.78
530.26	24418.81
530.43	24774.57
530.60	24383.70
530.77	24311.14
530.94	24592.01
531.11	24219.86
531.28	24772.23
531.46	24269.01
531.63	24783.93
531.80	25029.69
531.97	24711.38
532.14	25057.78
532.31	24559.24
532.48	24725.42
532.65	24741.80
532.82	24858.83
532.99	25113.95
533.16	24884.58
533.33	25259.06
533.50	25074.16
533.67	25017.99
533.84	25043.73
534.01	25158.42
534.18	25233.32
534.35	25497.80
534.52	25209.91
534.69	25312.89
534.86	25591.42
535.03	25102.25
535.20	25614.82
535.37	25455.67
535.54	25411.20
535.71	25228.63
535.88	25439.28
536.05	25500.14
536.22	25675.68
536.38	25748.23
536.55	25584.40
536.72	25708.44
536.89	25434.60
537.06	25727.17
537.23	25659.29
537.40	25659.29
537.57	25848.88
537.74	26008.03
537.91	25724.83
538.08	25809.09
538.25	25811.43
538.42	26061.87
538.59	26113.36
538.75	25750.57
538.92	26019.74
539.09	26321.66
539.26	26085.27
539.43	26462.10
539.60	26349.75
539.77	26092.29
539.94	26513.59
540.11	26057.18
540.28	26703.17
540.44	26132.08
540.61	26483.16
540.78	26574.44
540.95	26565.08
541.12	26387.20
541.29	26632.96
541.46	26595.51
541.62	26668.06
541.79	26670.40
541.96	26249.11
542.13	26401.24
542.30	26588.49
542.47	26536.99
542.63	27089.36
542.80	27182.98
542.97	27145.53
543.14	27255.54
543.31	27087.02
543.48	26799.13
543.64	27487.25
543.81	27627.68
543.98	27166.60
544.15	27171.28
544.32	27377.25
544.48	27316.39
544.65	27215.75
544.82	27264.90
544.99	26820.20
545.16	27580.87
545.32	27227.45
545.49	27330.44
545.66	27541.08
545.83	27817.27
546.00	27880.46
546.16	27337.46
546.33	27496.61
546.50	27276.60
546.67	27410.01
546.83	27503.64
547.00	27536.40
547.17	27592.58
547.34	27536.40
547.50	27674.49
547.67	28079.41
547.84	27845.35
548.00	28065.36
548.17	28229.20
548.34	27407.67
548.51	28346.23
548.67	28465.60
548.84	28161.33
549.01	27765.78
549.18	28189.41
549.34	28095.79
549.51	28027.92
549.68	27789.18
549.84	28261.97
550.01	28467.94
550.18	28283.03
550.34	28374.31
550.51	28325.16
550.68	28226.86
550.84	28297.08
551.01	28512.41
551.18	28371.97
551.34	28198.77
551.51	28191.75
551.68	28570.92
551.84	28393.04
552.01	28669.22
552.18	28641.14
552.34	28645.82
552.51	28706.67
552.68	28271.33
552.84	28638.80
553.01	28643.48
553.18	28130.90
553.34	29010.94
553.51	29050.73
553.67	28711.35
553.84	28957.11
554.01	28910.30
554.17	29076.48
554.34	28762.84
554.51	28877.53
554.67	28989.88
554.84	28950.09
555.00	29039.03
555.17	28793.27
555.33	28936.04
555.50	29020.30
555.67	29102.22
555.83	28748.80
556.00	28952.43
556.16	29116.26
556.33	29111.58
556.50	28994.56
556.66	29504.79
556.83	29071.79
556.99	29493.09
557.16	29390.11
557.32	29404.15
557.49	29223.93
557.65	28863.49
557.82	29308.19
557.98	29212.23
558.15	29137.33
558.32	29376.06
558.48	29043.71
558.65	29195.84
558.81	29230.95
558.98	29486.07
559.14	29575.01
559.31	29685.01
559.47	29757.57
559.64	29509.47
559.80	29972.90
559.97	29745.87
560.13	29294.14
560.30	29380.74
560.46	29486.07
560.63	29661.61
560.79	30040.78
560.96	29982.26
561.12	29326.91
561.29	29724.80
561.45	29865.24
561.61	30031.41
561.78	29610.12
561.94	29607.78
562.11	29820.77
562.27	29914.39
562.44	29816.08
562.60	30024.39
562.77	29963.54
562.93	29816.08
563.10	29954.18
563.26	29792.68
563.42	30089.93
563.59	30202.27
563.75	30370.79
563.92	29708.42
564.08	29642.88
564.24	30050.14
564.41	29893.32
564.57	29820.77
564.74	30061.84
564.90	29827.79
565.07	30157.80
565.23	30127.38
565.39	30017.37
565.56	30501.86
565.72	30195.25
565.88	29912.05
566.05	30134.40
566.21	30094.61
566.38	29914.39
566.54	30356.75
566.70	30120.35
566.87	30288.87
567.03	30415.26
567.19	30342.70
567.36	30242.06
567.52	30024.39
567.68	30396.54
567.85	30333.34
568.01	30382.49
568.17	30265.47
568.34	30433.99
568.50	30403.56
568.66	30408.24
568.83	30747.62
568.99	30560.37
569.15	30382.49
569.32	30450.37
569.48	30040.78
569.64	30433.99
569.81	30586.12
569.97	30258.45
570.13	30319.30
570.30	30668.04
570.46	30342.70
570.62	30216.32
570.78	30483.14
570.95	30129.72
571.11	30670.38
571.27	30424.62
571.43	30331.00
571.60	30551.01
571.76	30249.08
571.92	30845.92
572.09	30340.36
572.25	30569.74
572.41	30506.54
572.57	30773.36
572.74	30298.23
572.90	30476.12
573.06	30522.93
573.22	30487.82
573.38	30618.89
573.55	30504.20
573.71	31065.93
573.87	30824.86
574.03	30621.23
574.20	30785.07
574.36	30522.93
574.52	31030.82
574.68	30551.01
574.84	30445.69
575.01	30445.69
575.17	30670.38
575.33	30665.70
575.49	30827.20
575.65	30855.28
575.82	30761.66
575.98	30721.87
576.14	30831.88
576.30	30815.49
576.46	30628.25
576.62	30419.94
576.79	30721.87
576.95	30749.96
577.11	30668.04
577.27	30452.71
577.43	30529.95
577.59	30864.64
577.75	31058.91
577.92	30441.01
578.08	30918.48
578.24	30567.40
578.40	31049.55
578.56	30946.56
578.72	30855.28
578.88	30958.27
579.04	31108.06
579.21	30586.12
579.37	30848.26
579.53	30761.66
579.69	30700.81
579.85	30787.41
580.01	30796.77
580.17	30665.70
580.33	30494.84
580.49	30967.63
580.65	30932.52
580.82	30909.11
580.98	30581.44
581.14	30778.04
581.30	31119.76
581.46	31009.76
581.62	30792.09
581.78	30939.54
581.94	31091.68
582.10	30548.67
582.26	30974.65
582.42	30724.21
582.58	31138.49
582.74	30747.62
582.90	30672.72
583.06	31103.38
583.22	30902.09
583.38	31026.14
583.54	30799.11
583.70	30808.47
583.86	30651.66
584.02	31161.89
584.18	30916.14
584.34	31239.13
584.50	31278.92
584.66	31063.59
584.82	30558.03
584.98	31035.50
585.14	31012.10
585.30	30726.55
585.46	31283.60
585.62	30841.24
585.78	31550.42
585.94	31197.00
586.10	31311.69
586.26	30927.84
586.42	31297.64
586.58	31267.22
586.74	31136.15
586.90	31285.94
587.06	30499.52
587.22	31180.62
587.38	30976.99
587.54	30600.16
587.70	31234.45
587.86	31335.09
588.02	31412.33
588.18	31580.85
588.34	30955.93
588.49	31143.17
588.65	31056.57
588.81	31005.08
588.97	31318.71
589.13	30988.69
589.29	31204.02
589.45	31026.14
589.61	31351.48
589.77	31363.18
589.93	31372.54
590.08	31690.85
590.24	31604.25
590.40	31398.29
590.56	31271.90
590.72	31395.95
590.88	31384.24
591.04	31026.14
591.20	31854.69
591.35	31409.99
591.51	31622.98
591.67	31735.32
591.83	31819.58
