SpectraSuite Data File
++++++++++++++++++++++++++++++++++++
Date: Fri Oct 18 13:58:30 GMT-05:00 2013
User: bianchi
Dark Spectrum Present: No
Reference Spectrum Present: No
Number of Sampled Component Spectra: 1
Spectrometers: USB2+H05261
Integration Time (usec): 50000 (USB2+H05261)
Spectra Averaged: 1 (USB2+H05261)
Boxcar Smoothing: 0 (USB2+H05261)
Correct for Electrical Dark: No (USB2+H05261)
Strobe/Lamp Enabled: No (USB2+H05261)
Correct for Detector Non-linearity: No (USB2+H05261)
Correct for Stray Light: No (USB2+H05261)
Number of Pixels in Processed Spectrum: 2048
>>>>>Begin Processed Spectral Data<<<<<
365.73	0.00
365.92	0.00
366.12	0.00
366.32	0.00
366.52	0.00
366.72	0.00
366.91	0.00
367.11	0.00
367.31	0.00
367.51	0.00
367.70	0.00
367.90	0.00
368.10	0.00
368.30	0.00
368.49	0.00
368.69	0.00
368.89	0.00
369.09	0.00
369.28	0.00
369.48	0.00
369.68	0.00
369.87	0.00
370.07	0.00
370.27	0.00
370.47	0.00
370.66	77.24
370.86	84.26
371.06	140.43
371.25	159.16
371.45	133.41
371.65	114.69
371.84	88.94
372.04	131.07
372.24	161.50
372.44	114.69
372.63	198.95
372.83	210.65
373.03	238.73
373.22	191.92
373.42	210.65
373.62	227.03
373.81	217.67
374.01	189.58
374.21	266.82
374.40	243.42
374.60	264.48
374.79	285.55
374.99	203.63
375.19	229.37
375.38	236.39
375.58	194.26
375.78	292.57
375.97	271.50
376.17	252.78
376.37	205.97
376.56	297.25
376.76	255.12
376.95	224.69
377.15	271.50
377.35	313.63
377.54	322.99
377.74	222.35
377.93	243.42
378.13	236.39
378.33	304.27
378.52	276.18
378.72	294.91
378.91	287.89
379.11	194.26
379.31	278.52
379.50	269.16
379.70	341.72
379.89	220.01
380.09	294.91
380.28	266.82
380.48	290.23
380.68	358.10
380.87	320.65
381.07	283.20
381.26	325.33
381.46	243.42
381.65	299.59
381.85	372.15
382.04	372.15
382.24	315.97
382.43	395.55
382.63	311.29
382.83	341.72
383.02	367.46
383.22	362.78
383.41	332.36
383.61	327.68
383.80	433.00
384.00	330.02
384.19	404.91
384.39	383.85
384.58	360.44
384.78	372.15
384.97	341.72
385.17	344.06
385.36	383.85
385.56	428.32
385.75	313.63
385.95	367.46
386.14	369.80
386.34	416.62
386.53	353.42
386.72	400.23
386.92	447.04
387.11	444.70
387.31	395.55
387.50	376.83
387.70	367.46
387.89	447.04
388.09	433.00
388.28	421.30
388.48	477.47
388.67	564.07
388.86	409.59
389.06	397.89
389.25	484.49
389.45	477.47
389.64	458.74
389.84	482.15
390.03	395.55
390.22	440.02
390.42	449.38
390.61	500.87
390.81	472.79
391.00	489.17
391.19	437.68
391.39	475.13
391.58	496.19
391.78	512.58
391.97	444.70
392.16	479.81
392.36	512.58
392.55	627.26
392.75	564.07
392.94	503.22
393.13	582.79
393.33	465.77
393.52	557.05
393.71	521.94
393.91	606.20
394.10	547.69
394.29	514.92
394.49	500.87
394.68	589.82
394.88	540.66
395.07	582.79
395.26	580.45
395.46	650.67
395.65	645.99
395.84	648.33
396.04	660.03
396.23	617.90
396.42	566.41
396.62	629.60
396.81	566.41
397.00	617.90
397.19	620.24
397.39	641.31
397.58	587.47
397.77	657.69
397.97	758.33
398.16	631.94
398.35	641.31
398.55	669.39
398.74	713.86
398.93	737.27
399.12	697.48
399.32	734.93
399.51	706.84
399.70	755.99
399.90	723.23
400.09	674.07
400.28	777.06
400.47	784.08
400.67	821.53
400.86	793.44
401.05	786.42
401.24	765.36
401.44	828.55
401.63	772.38
401.82	884.72
402.01	767.70
402.21	828.55
402.40	854.30
402.59	727.91
402.78	805.14
402.97	791.10
403.17	765.36
403.36	702.16
403.55	826.21
403.74	903.45
403.93	826.21
404.13	814.51
404.32	901.11
404.51	945.58
404.70	952.60
404.89	858.98
405.09	910.47
405.28	943.24
405.47	901.11
405.66	961.96
405.85	1032.18
406.05	976.00
406.24	983.02
406.43	903.45
406.62	901.11
406.81	1004.09
407.00	1041.54
407.20	1036.86
407.39	1088.35
407.58	1036.86
407.77	1074.31
407.96	1076.65
408.15	1083.67
408.34	1001.75
408.54	1043.88
408.73	1100.05
408.92	1050.90
409.11	1006.43
409.30	1207.72
409.49	1050.90
409.68	1116.44
409.87	1135.16
410.07	1078.99
410.26	1282.61
410.45	1095.37
410.64	1200.69
410.83	1184.31
411.02	1144.52
411.21	1238.14
411.40	1172.61
411.59	1284.95
411.78	1245.16
411.98	1261.55
412.17	1348.15
412.36	1289.64
412.55	1263.89
412.74	1313.04
412.93	1310.70
413.12	1268.57
413.31	1369.21
413.50	1385.60
413.69	1366.87
413.88	1495.60
414.07	1413.68
414.26	1547.09
414.45	1460.49
414.64	1392.62
414.83	1523.69
415.02	1413.68
415.22	1472.20
415.41	1675.82
415.60	1556.46
415.79	1650.08
415.98	1640.72
416.17	1444.11
416.36	1596.25
416.55	1554.12
416.74	1544.75
416.93	1521.35
417.12	1607.95
417.31	1657.10
417.50	1844.34
417.69	1643.06
417.88	1755.40
418.07	1589.22
418.26	1689.87
418.45	1675.82
418.64	1809.23
418.83	1755.40
419.02	1636.03
419.21	1785.83
419.39	1708.59
419.58	1802.21
419.77	1788.17
419.96	1888.81
420.15	1813.92
420.34	1771.79
420.53	1842.00
420.72	1825.62
420.91	1802.21
421.10	2003.50
421.29	1980.09
421.48	1867.75
421.67	1888.81
421.86	1905.20
422.05	1921.58
422.24	1914.56
422.43	1970.73
422.61	1947.33
422.80	1944.99
422.99	1914.56
423.18	1966.05
423.37	1973.07
423.56	1905.20
423.75	1912.22
423.94	1860.73
424.13	1788.17
424.32	1912.22
424.50	2057.33
424.69	1991.80
424.88	1987.11
425.07	1935.62
425.26	1991.80
425.45	1954.35
425.64	2029.24
425.83	1977.75
426.01	2031.58
426.20	2113.50
426.39	2036.27
426.58	2104.14
426.77	2052.65
426.96	1984.77
427.15	2022.22
427.33	2029.24
427.52	2115.84
427.71	2104.14
427.90	2172.02
428.09	2064.35
428.28	2083.08
428.46	2113.50
428.65	2195.42
428.84	2150.95
429.03	2267.98
429.22	2195.42
429.40	2087.76
429.59	2228.19
429.78	2122.87
429.97	2125.21
430.16	2190.74
430.34	2256.28
430.53	2267.98
430.72	2300.75
430.91	2258.62
431.10	2265.64
431.28	2406.07
431.47	2300.75
431.66	2389.69
431.85	2342.88
432.03	2352.24
432.22	2434.16
432.41	2328.83
432.60	2385.01
432.79	2394.37
432.97	2410.75
433.16	2345.22
433.35	2335.85
433.54	2457.56
433.72	2338.20
433.91	2347.56
434.10	2509.05
434.28	2349.90
434.47	2495.01
434.66	2548.84
434.85	2504.37
435.03	2574.59
435.22	2541.82
435.41	2654.17
435.59	2534.80
435.78	2593.31
435.97	2661.19
436.16	2593.31
436.34	2574.59
436.53	2703.32
436.72	2609.70
436.90	2586.29
437.09	2747.79
437.28	2691.62
437.46	2663.53
437.65	2710.34
437.84	2738.43
438.02	2881.20
438.21	2829.71
438.40	2675.23
438.58	2883.54
438.77	2906.95
438.96	2778.22
439.14	2981.84
439.33	2846.09
439.52	2937.37
439.70	2988.86
439.89	2789.92
440.08	2857.79
440.26	3094.19
440.45	3056.74
440.63	3009.93
440.82	3063.76
441.01	3040.36
441.19	3040.36
441.38	3201.85
441.57	3155.04
441.75	3243.98
441.94	3201.85
442.12	3197.17
442.31	3363.35
442.50	3265.05
442.68	3178.45
442.87	3389.10
443.05	3323.56
443.24	3180.79
443.43	3246.32
443.61	3201.85
443.80	3356.33
443.98	3290.79
444.17	3145.68
444.35	3321.22
444.54	3398.46
444.73	3398.46
444.91	3260.37
445.10	3513.14
445.28	3442.93
445.47	3300.16
445.65	3421.86
445.84	3447.61
446.02	3513.14
446.21	3412.50
446.39	3435.91
446.58	3389.10
446.77	3487.40
446.95	3323.56
447.14	3485.06
447.32	3365.69
447.51	3393.78
447.69	3494.42
447.88	3517.83
448.06	3454.63
448.25	3510.80
448.43	3627.83
448.62	3503.78
448.80	3552.93
448.99	3421.86
449.17	3438.25
449.36	3557.61
449.54	3667.62
449.73	3707.41
449.91	3686.34
450.10	3620.81
450.28	3634.85
450.46	3630.17
450.65	3623.15
450.83	3761.24
451.02	3653.58
451.20	3679.32
451.39	3758.90
451.57	3691.02
451.76	3581.02
451.94	3662.94
452.13	3777.62
452.31	3845.50
452.49	3817.41
452.68	3777.62
452.86	3728.47
453.05	3782.31
453.23	3918.06
453.42	3761.24
453.60	3829.12
453.78	3824.44
453.97	3669.96
454.15	3667.62
454.34	3721.45
454.52	3922.74
454.70	3908.69
454.89	3885.29
455.07	3922.74
455.26	3946.14
455.44	4128.70
455.62	3939.12
455.81	4060.83
455.99	3922.74
456.17	4109.98
456.36	4086.58
456.54	4088.92
456.73	4070.19
456.91	4353.40
457.09	4257.43
457.28	4154.45
457.46	4196.58
457.64	4234.03
457.83	4182.54
458.01	4320.63
458.19	4299.56
458.38	4205.94
458.56	4337.01
458.74	4475.10
458.93	4287.86
459.11	4416.59
459.29	4337.01
459.48	4521.92
459.66	4500.85
459.84	4622.56
460.03	4535.96
460.21	4273.82
460.39	4531.28
460.57	4519.57
460.76	4461.06
460.94	4517.23
461.12	4554.68
461.31	4404.89
461.49	4437.66
461.67	4599.15
461.85	4674.05
462.04	4505.53
462.22	4580.43
462.40	4638.94
462.59	4681.07
462.77	4599.15
462.95	4613.20
463.13	4606.17
463.32	4594.47
463.50	4793.42
463.68	4741.93
463.86	4746.61
464.05	4688.09
464.23	4734.90
464.41	4835.55
464.59	4683.41
464.78	4903.42
464.96	4807.46
465.14	4755.97
465.32	4746.61
465.50	4968.96
465.69	4903.42
465.87	4784.06
466.05	4966.62
466.23	4968.96
466.41	4917.47
466.60	5123.43
466.78	5039.17
466.96	5025.13
467.14	4973.64
467.32	5046.20
467.51	5043.85
467.69	4802.78
467.87	5022.79
468.05	5018.11
468.23	4985.34
468.41	5004.07
468.60	5022.79
468.78	5135.14
468.96	5093.01
469.14	5053.22
469.32	5081.30
469.50	5135.14
469.69	5378.55
469.87	5366.85
470.05	5210.03
470.23	5406.64
470.41	5380.89
470.59	5352.81
470.77	5320.04
470.95	5373.87
471.14	5502.60
471.32	5226.42
471.50	5551.75
471.68	5327.06
471.86	5359.83
472.04	5481.53
472.22	5664.10
472.40	5427.70
472.58	5713.25
472.77	5792.83
472.95	5650.05
473.13	5816.23
473.31	5806.87
473.49	5703.89
473.67	5666.44
473.85	5891.13
474.03	5893.47
474.21	5884.11
474.39	5994.11
474.57	6139.23
474.75	6029.22
474.93	6066.67
475.12	6012.84
475.30	6108.80
475.48	6083.05
475.66	6174.33
475.84	6071.35
476.02	6349.87
476.20	6120.50
476.38	6125.18
476.56	6289.02
476.74	6328.81
476.92	6342.85
477.10	6431.79
477.28	6644.78
477.46	6581.59
477.64	6558.18
477.82	6644.78
478.00	6890.54
478.18	6752.45
478.36	6792.23
478.54	6853.09
478.72	6860.11
478.90	6988.84
479.08	7105.87
479.26	7236.94
479.44	7229.91
479.62	7183.10
479.80	7410.14
479.98	7206.51
480.16	7405.46
480.34	7368.01
480.52	7534.18
480.70	7693.34
480.88	7419.50
481.06	7623.12
481.24	7637.17
481.41	7630.15
481.59	7653.55
481.77	8025.70
481.95	7822.07
482.13	7756.54
482.31	7887.61
482.49	8035.06
482.67	8138.04
482.85	8241.03
483.03	8128.68
483.21	8322.94
483.39	8540.61
483.57	8395.50
483.74	8746.58
483.92	8346.35
484.10	8601.47
484.28	8751.26
484.46	8690.41
484.64	9022.77
484.82	8795.73
485.00	8828.50
485.18	9146.81
485.35	9371.50
485.53	9254.48
485.71	9336.40
485.89	9441.72
486.07	9394.91
486.25	9261.50
486.43	9401.93
486.61	9582.15
486.78	9619.60
486.96	9635.99
487.14	9935.57
487.32	9666.41
487.50	9853.66
487.68	10019.83
487.85	10054.94
488.03	10235.16
488.21	10300.70
488.39	10291.34
488.57	10363.89
488.75	10565.18
488.92	10796.89
489.10	10745.40
489.28	10527.73
489.46	10824.98
489.64	10750.08
489.81	10949.03
489.99	11070.73
490.17	11019.24
490.35	11332.87
490.53	11187.76
490.70	11463.94
490.88	11470.97
491.06	11452.24
491.24	11454.58
491.41	11412.45
491.59	11861.84
491.77	11868.86
491.95	11800.98
492.13	11709.70
492.30	12070.14
492.48	11777.58
492.66	12109.93
492.84	12039.72
493.01	12278.45
493.19	12339.30
493.37	12524.21
493.54	12519.53
493.72	12627.19
493.90	12641.23
494.08	12730.17
494.25	12578.04
494.43	12982.95
494.61	13151.47
494.79	13025.08
494.96	13001.68
495.14	13240.41
495.32	13249.77
495.49	13219.35
495.67	13530.64
495.85	13476.80
496.02	13429.99
496.20	13521.27
496.38	13792.78
496.55	13715.54
496.73	14001.08
496.91	13921.51
497.09	14101.73
497.26	13919.17
497.44	14207.05
497.62	14148.54
497.79	14249.18
497.97	14183.65
498.14	14431.74
498.32	14508.98
498.50	14682.18
498.67	14728.99
498.85	14633.03
499.03	14855.38
499.20	14817.93
499.38	14787.50
499.56	15103.48
499.73	14918.57
499.91	14869.42
500.08	14775.80
500.26	15042.62
500.44	15040.28
500.61	15180.71
500.79	15201.78
500.97	15309.44
501.14	15660.52
501.32	15377.32
501.49	15440.51
501.67	15311.78
501.84	15445.20
502.02	15613.71
502.20	16004.58
502.37	15990.54
502.55	15892.24
502.72	15875.85
502.90	15913.30
503.07	16098.20
503.25	16002.24
503.43	16114.59
503.60	16093.52
503.78	16393.11
503.95	16369.71
504.13	16306.51
504.30	16245.66
504.48	16018.63
504.65	16322.90
504.83	16645.89
505.01	16676.32
505.18	16688.02
505.36	16905.69
505.53	17036.76
505.71	16631.85
505.88	16657.59
506.06	16657.59
506.23	16690.36
506.41	16854.20
506.58	16856.54
506.76	17177.19
506.93	16987.61
507.11	16788.66
507.28	17336.35
507.46	17184.21
507.63	17294.22
507.81	17448.69
507.98	17568.06
508.16	17427.63
508.33	17671.04
508.50	17619.55
508.68	17752.96
508.85	17757.64
509.03	17982.34
509.20	18038.51
509.38	18090.00
509.55	17980.00
509.73	18157.88
509.90	18029.15
510.08	17891.06
510.25	17696.79
510.42	18216.39
510.60	18562.79
510.77	18389.59
510.95	18237.45
511.12	18164.90
511.30	18417.68
511.47	18415.34
511.64	18487.89
511.82	18862.38
511.99	18764.07
512.17	18214.05
512.34	18766.42
512.51	18925.57
512.69	18679.82
512.86	18864.72
513.04	18590.88
513.21	18956.00
513.38	18977.06
513.56	19206.44
513.73	19068.34
513.90	19302.40
514.08	19073.03
514.25	19250.91
514.43	19290.70
514.60	19480.28
514.77	19491.98
514.95	19733.06
515.12	19461.55
515.29	19157.28
515.47	19669.86
515.64	19812.63
515.81	19641.78
515.99	19693.27
516.16	20339.26
516.33	19735.40
516.51	19971.79
516.68	19674.54
516.85	19990.52
517.03	19871.15
517.20	20217.55
517.37	19950.73
517.54	19997.54
517.72	20264.36
517.89	20084.14
518.06	20229.25
518.24	19997.54
518.41	20147.33
518.58	20327.55
518.75	20418.83
518.93	20554.58
519.10	20496.07
519.27	20699.70
519.45	20114.56
519.62	20599.05
519.79	20472.67
519.96	20695.02
520.14	20980.56
520.31	20685.65
520.48	20856.51
520.65	20669.27
520.83	20819.07
521.00	20854.17
521.17	20842.47
521.34	21039.08
521.52	21139.72
521.69	21188.87
521.86	21202.91
522.03	21188.87
522.20	21577.40
522.38	21050.78
522.55	21198.23
522.72	21411.22
522.89	21373.77
523.07	21390.16
523.24	21472.07
523.41	21673.36
523.58	21476.76
523.75	21603.14
523.92	21458.03
524.10	21891.03
524.27	21642.93
524.44	22141.47
524.61	22038.48
524.78	22434.03
524.96	22024.44
525.13	21926.14
525.30	22050.19
525.47	22258.49
525.64	21933.16
525.81	22221.05
525.98	22401.27
526.16	22160.19
526.33	22260.84
526.50	22277.22
526.67	21986.99
526.84	22169.55
527.01	21989.33
527.18	22349.78
527.36	22338.07
527.53	22925.55
527.70	23255.56
527.87	22937.25
528.04	22623.62
528.21	22677.45
528.38	22829.59
528.55	22852.99
528.72	22965.34
528.89	23192.37
529.07	22988.74
529.24	22923.21
529.41	22904.48
529.58	23236.84
529.75	23206.41
529.92	23274.29
530.09	23164.28
530.26	23552.81
530.43	23274.29
530.60	23075.34
530.77	23260.24
530.94	23201.73
531.11	23173.64
531.28	23058.96
531.46	23374.93
531.63	23632.39
531.80	23779.84
531.97	23480.25
532.14	23749.42
532.31	23763.46
532.48	23552.81
532.65	23695.58
532.82	23363.23
532.99	23639.41
533.16	23510.68
533.33	23885.17
533.50	24379.02
533.67	24013.90
533.84	23917.93
534.01	23431.10
534.18	23737.71
534.35	24128.58
534.52	23948.36
534.69	24212.84
534.86	24196.46
535.03	23824.31
535.20	24116.88
535.37	24217.52
535.54	23997.51
535.71	23875.80
535.88	24210.50
536.05	24376.68
536.22	24294.76
536.38	24486.68
536.55	24510.09
536.72	24400.08
536.89	24287.74
537.06	24315.83
537.23	24713.72
537.40	24332.21
537.57	24421.15
537.74	24596.69
537.91	24910.32
538.08	25034.37
538.25	24584.99
538.42	24383.70
538.59	25013.31
538.75	24678.61
538.92	24833.08
539.09	24903.30
539.26	25135.01
539.43	24905.64
539.60	24847.13
539.77	24938.41
539.94	24931.39
540.11	24723.08
540.28	25205.23
540.44	25294.17
540.61	24847.13
540.78	25277.79
540.95	25008.62
541.12	25418.22
541.29	25205.23
541.46	25226.29
541.62	25287.15
541.79	25202.89
541.96	24980.54
542.13	25350.34
542.30	25652.27
542.47	25680.36
542.63	25572.69
542.80	25778.66
542.97	25570.35
543.14	25467.37
543.31	25551.63
543.48	25514.18
543.64	25734.19
543.81	25874.62
543.98	26031.44
544.15	25638.23
544.32	25867.60
544.48	26129.74
544.65	25972.92
544.82	25656.95
544.99	25373.75
545.16	25961.22
545.32	25825.47
545.49	26270.17
545.66	26178.89
545.83	26277.19
546.00	26125.06
546.16	25832.49
546.33	26206.98
546.50	25851.22
546.67	26115.70
546.83	26188.25
547.00	26082.93
547.17	26389.54
547.34	26511.25
547.50	26356.77
547.67	26342.73
547.84	26078.25
548.00	26211.66
548.17	26726.58
548.34	26223.36
548.51	26668.06
548.67	26593.17
548.84	26682.11
549.01	26539.33
549.18	26981.70
549.34	26181.23
549.51	26459.76
549.68	26642.32
549.84	26838.92
550.01	26562.74
550.18	26590.83
550.34	26782.75
550.51	26787.43
550.68	26675.09
550.84	26637.64
551.01	26677.43
551.18	26773.39
551.34	26689.13
551.51	26787.43
551.68	26965.31
551.84	26874.03
552.01	26888.07
552.18	26850.63
552.34	27035.53
552.51	27215.75
552.68	27185.32
552.84	27197.02
553.01	27103.40
553.18	27428.74
553.34	27300.01
553.51	27185.32
553.67	27484.91
553.84	27356.18
554.01	27665.13
554.17	27330.44
554.34	27445.12
554.51	26969.99
554.67	27428.74
554.84	27346.82
555.00	27351.50
555.17	27426.40
555.33	27501.29
555.50	27187.66
555.67	27538.74
555.83	27754.07
556.00	27442.78
556.16	27592.58
556.33	27246.18
556.50	27435.76
556.66	27957.70
556.83	27651.09
556.99	27892.16
557.16	27754.07
557.32	27428.74
557.49	28147.28
557.65	27679.18
557.82	27960.04
557.98	27707.26
558.15	27896.85
558.32	28009.19
558.48	27831.31
558.65	27718.96
558.81	27894.50
558.98	27765.78
559.14	28107.49
559.31	27821.95
559.47	27835.99
559.64	27688.54
559.80	28032.60
559.97	28009.19
560.13	27953.02
560.30	28098.13
560.46	27913.23
560.63	27721.30
560.79	27885.14
560.96	27929.61
561.12	27850.03
561.29	28133.24
561.45	28350.91
561.61	28142.60
561.78	28257.29
561.94	28182.39
562.11	28470.28
562.27	28154.30
562.44	28280.69
562.60	28147.28
562.77	28474.96
562.93	27742.37
563.10	28409.42
563.26	28613.05
563.42	28669.22
563.59	28369.63
563.75	28477.30
563.92	28205.80
564.08	28481.98
564.24	28348.57
564.41	28037.28
564.57	28449.21
564.74	28486.66
564.90	28407.08
565.07	28734.76
565.23	28503.04
565.39	28294.74
565.56	28823.70
565.72	28748.80
565.88	28421.13
566.05	28364.95
566.21	28552.20
566.38	28105.15
566.54	28233.88
566.70	28636.45
566.87	28617.73
567.03	28540.49
567.19	28673.90
567.36	28786.25
567.52	28489.00
567.68	28680.92
567.85	28751.14
568.01	28800.29
568.17	28596.67
568.34	28617.73
568.50	28687.95
568.66	28725.39
568.83	29120.95
568.99	28575.60
569.15	28772.21
569.32	28652.84
569.48	28332.18
569.64	28755.82
569.81	28631.77
569.97	28994.56
570.13	28397.72
570.30	28580.28
570.46	28343.89
570.62	28533.47
570.78	28680.92
570.95	28762.84
571.11	28652.84
571.27	28407.08
571.43	28479.64
571.60	28622.41
571.76	28744.12
571.92	28863.49
572.09	28912.64
572.25	29165.42
572.41	29001.58
572.57	28776.89
572.74	29106.90
572.90	28528.79
573.06	28685.61
573.22	28870.51
573.38	28725.39
573.55	28964.13
573.71	28950.09
573.87	29120.95
574.03	29209.89
574.20	28821.36
574.36	28903.28
574.52	28776.89
574.68	29003.92
574.84	28512.41
575.01	28737.10
575.17	29041.37
575.33	28774.55
575.49	28896.25
575.65	28723.05
575.82	29193.50
575.98	29029.66
576.14	29008.60
576.30	29027.32
576.46	28900.94
576.62	28680.92
576.79	29017.96
576.95	28725.39
577.11	29254.36
577.27	28922.00
577.43	29010.94
577.59	28603.69
577.75	28847.10
577.92	28917.32
578.08	28999.24
578.24	28760.50
578.40	28987.53
578.56	29163.08
578.72	28723.05
578.88	28996.90
579.04	29287.12
579.21	28914.98
579.37	29029.66
579.53	29399.47
579.69	28952.43
579.85	28760.50
580.01	29170.10
580.17	28959.45
580.33	29097.54
580.49	29139.67
580.65	29142.01
580.82	29053.07
580.98	28982.85
581.14	29237.97
581.30	29256.70
581.46	28767.52
581.62	29439.26
581.78	28865.83
581.94	28863.49
582.10	28896.25
582.26	29273.08
582.42	29214.57
582.58	29383.09
582.74	29111.58
582.90	28926.68
583.06	28755.82
583.22	29322.23
583.38	29109.24
583.54	29039.03
583.70	28837.74
583.86	29090.52
584.02	29041.37
584.18	29282.44
584.34	29507.13
584.50	29149.03
584.66	28978.17
584.82	29088.18
584.98	29158.39
585.14	29151.37
585.30	28835.40
585.46	29048.39
585.62	28673.90
585.78	29481.39
585.94	28943.06
586.10	29153.71
586.26	29237.97
586.42	29383.09
586.58	29296.49
586.74	29060.09
586.90	29048.39
587.06	28624.75
587.22	29207.55
587.38	28868.17
587.54	29357.34
587.70	29226.27
587.86	29282.44
588.02	29247.33
588.18	29326.91
588.34	29486.07
588.49	29296.49
588.65	29123.29
588.81	29465.00
588.97	29282.44
589.13	29235.63
589.29	29132.65
589.45	29113.92
589.61	29352.66
589.77	29645.23
589.93	29596.07
590.08	29441.60
590.24	29453.30
590.40	29722.46
590.56	29460.32
590.72	29659.27
590.88	29305.85
591.04	29357.34
591.20	29656.93
591.35	29806.72
591.51	29883.96
591.67	29682.67
591.83	29830.13
591.99	29675.65
