SpectraSuite Data File
++++++++++++++++++++++++++++++++++++
Date: Fri Oct 18 13:57:54 GMT-05:00 2013
User: bianchi
Dark Spectrum Present: No
Reference Spectrum Present: No
Number of Sampled Component Spectra: 1
Spectrometers: USB2+H05261
Integration Time (usec): 50000 (USB2+H05261)
Spectra Averaged: 1 (USB2+H05261)
Boxcar Smoothing: 0 (USB2+H05261)
Correct for Electrical Dark: No (USB2+H05261)
Strobe/Lamp Enabled: No (USB2+H05261)
Correct for Detector Non-linearity: No (USB2+H05261)
Correct for Stray Light: No (USB2+H05261)
Number of Pixels in Processed Spectrum: 2048
>>>>>Begin Processed Spectral Data<<<<<
365.73	0.00
365.92	0.00
366.12	0.00
366.32	0.00
366.52	0.00
366.72	0.00
366.91	0.00
367.11	0.00
367.31	0.00
367.51	0.00
367.70	0.00
367.90	0.00
368.10	0.00
368.30	0.00
368.49	0.00
368.69	0.00
368.89	0.00
369.09	0.00
369.28	0.00
369.48	0.00
369.68	0.00
369.87	0.00
370.07	0.00
370.27	0.00
370.47	0.00
370.66	65.54
370.86	168.52
371.06	184.90
371.25	135.75
371.45	133.41
371.65	163.84
371.84	140.43
372.04	255.12
372.24	147.45
372.44	117.03
372.63	156.82
372.83	194.26
373.03	177.88
373.22	201.29
373.42	212.99
373.62	224.69
373.81	208.31
374.01	203.63
374.21	257.46
374.40	257.46
374.60	250.44
374.79	278.52
374.99	278.52
375.19	313.63
375.38	290.23
375.58	290.23
375.78	280.86
375.97	290.23
376.17	229.37
376.37	227.03
376.56	248.10
376.76	252.78
376.95	278.52
377.15	334.70
377.35	297.25
377.54	306.61
377.74	278.52
377.93	290.23
378.13	301.93
378.33	248.10
378.52	330.02
378.72	271.50
378.91	337.04
379.11	278.52
379.31	337.04
379.50	280.86
379.70	294.91
379.89	243.42
380.09	327.68
380.28	234.05
380.48	320.65
380.68	278.52
380.87	418.96
381.07	269.16
381.26	318.31
381.46	276.18
381.65	264.48
381.85	407.25
382.04	297.25
382.24	362.78
382.43	393.21
382.63	376.83
382.83	294.91
383.02	301.93
383.22	367.46
383.41	346.40
383.61	315.97
383.80	428.32
384.00	470.45
384.19	397.89
384.39	330.02
384.58	367.46
384.78	304.27
384.97	390.87
385.17	404.91
385.36	355.76
385.56	414.27
385.75	351.08
385.95	456.40
386.14	393.21
386.34	414.27
386.53	337.04
386.72	386.19
386.92	351.08
387.11	409.59
387.31	400.23
387.50	440.02
387.70	451.72
387.89	421.30
388.09	479.81
388.28	479.81
388.48	440.02
388.67	454.06
388.86	535.98
389.06	440.02
389.25	442.36
389.45	440.02
389.64	444.70
389.84	458.74
390.03	505.56
390.22	428.32
390.42	498.53
390.61	482.15
390.81	449.38
391.00	477.47
391.19	535.98
391.39	557.05
391.58	503.22
391.78	507.90
391.97	510.24
392.16	566.41
392.36	622.58
392.55	496.19
392.75	533.64
392.94	491.51
393.13	547.69
393.33	519.60
393.52	538.32
393.71	540.66
393.91	514.92
394.10	554.71
394.29	599.18
394.49	613.22
394.68	676.41
394.88	519.60
395.07	669.39
395.26	662.37
395.46	550.03
395.65	683.44
395.84	643.65
396.04	699.82
396.23	709.18
396.42	636.63
396.62	685.78
396.81	669.39
397.00	699.82
397.19	585.13
397.39	627.26
397.58	615.56
397.77	706.84
397.97	685.78
398.16	641.31
398.35	732.59
398.55	624.92
398.74	720.88
398.93	662.37
399.12	692.80
399.32	711.52
399.51	744.29
399.70	734.93
399.90	650.67
400.09	739.61
400.28	723.23
400.47	784.08
400.67	770.04
400.86	739.61
401.05	861.32
401.24	816.85
401.44	856.64
401.63	828.55
401.82	844.93
402.01	854.30
402.21	830.89
402.40	774.72
402.59	784.08
402.78	842.59
402.97	842.59
403.17	966.64
403.36	943.24
403.55	957.28
403.74	999.41
403.93	940.90
404.13	835.57
404.32	964.30
404.51	954.94
404.70	950.26
404.89	954.94
405.09	1029.84
405.28	905.79
405.47	1039.20
405.66	938.55
405.85	1013.45
406.05	1128.14
406.24	990.05
406.43	945.58
406.62	1015.79
406.81	1086.01
407.00	1001.75
407.20	1004.09
407.39	1015.79
407.58	1137.50
407.77	1018.13
407.96	1144.52
408.15	1011.11
408.34	1107.07
408.54	1090.69
408.73	1078.99
408.92	1167.93
409.11	1022.81
409.30	1205.38
409.49	1228.78
409.68	1156.22
409.87	1172.61
410.07	1158.57
410.26	1196.01
410.45	1151.54
410.64	1231.12
410.83	1217.08
411.02	1287.29
411.21	1259.21
411.40	1228.78
411.59	1196.01
411.78	1254.53
411.98	1306.02
412.17	1296.66
412.36	1219.42
412.55	1371.55
412.74	1378.58
412.93	1420.71
413.12	1418.36
413.31	1514.33
413.50	1458.15
413.69	1411.34
413.88	1448.79
414.07	1451.13
414.26	1409.00
414.45	1416.02
414.64	1474.54
414.83	1502.62
415.02	1561.14
415.22	1521.35
415.41	1586.88
415.60	1476.88
415.79	1593.90
415.98	1661.78
416.17	1720.29
416.36	1650.08
416.55	1624.33
416.74	1727.32
416.93	1722.63
417.12	1729.66
417.31	1732.00
417.50	1652.42
417.69	1741.36
417.88	1790.51
418.07	1771.79
418.26	1809.23
418.45	1804.55
418.64	1895.83
418.83	1888.81
419.02	1893.49
419.21	1827.96
419.39	1888.81
419.58	1809.23
419.77	1809.23
419.96	1956.69
420.15	1837.32
420.34	1926.26
420.53	1937.96
420.72	2008.18
420.91	1989.46
421.10	2045.63
421.29	2045.63
421.48	1877.11
421.67	1898.17
421.86	2087.76
422.05	2078.40
422.24	1970.73
422.43	2080.74
422.61	2024.56
422.80	2094.78
422.99	2019.88
423.18	2125.21
423.37	2104.14
423.56	2015.20
423.75	1977.75
423.94	2101.80
424.13	1902.86
424.32	1937.96
424.50	2054.99
424.69	2204.78
424.88	2275.00
425.07	2099.46
425.26	2129.89
425.45	1982.43
425.64	2040.95
425.83	2024.56
426.01	2113.50
426.20	2092.44
426.39	2087.76
426.58	2136.91
426.77	2136.91
426.96	2157.97
427.15	2094.78
427.33	2167.34
427.52	2277.34
427.71	2176.70
427.90	2148.61
428.09	2136.91
428.28	2218.83
428.46	2195.42
428.65	2174.36
428.84	2289.04
429.03	2399.05
429.22	2211.81
429.40	2345.22
429.59	2328.83
429.78	2286.70
429.97	2239.89
430.16	2340.54
430.34	2387.35
430.53	2429.48
430.72	2363.94
430.91	2277.34
431.10	2431.82
431.28	2427.14
431.47	2291.38
431.66	2518.42
431.85	2415.43
432.03	2438.84
432.22	2520.76
432.41	2434.16
432.60	2415.43
432.79	2487.99
432.97	2502.03
433.16	2551.18
433.35	2558.21
433.54	2675.23
433.72	2480.97
433.91	2569.91
434.10	2438.84
434.28	2525.44
434.47	2612.04
434.66	2553.52
434.85	2602.68
435.03	2665.87
435.22	2766.51
435.41	2778.22
435.59	2574.59
435.78	2516.08
435.97	2621.40
436.16	2775.88
436.34	2644.81
436.53	2731.41
436.72	2738.43
436.90	2710.34
437.09	2822.69
437.28	2665.87
437.46	2832.05
437.65	2860.13
437.84	2822.69
438.02	2818.00
438.21	2818.00
438.40	2902.26
438.58	2993.55
438.77	2827.37
438.96	2813.32
439.14	3054.40
439.33	2932.69
439.52	2956.10
439.70	3098.87
439.89	3133.98
440.08	3176.11
440.26	3243.98
440.45	3152.70
440.63	3103.55
440.82	3155.04
441.01	3199.51
441.19	3119.93
441.38	3208.87
441.57	3325.90
441.75	3236.96
441.94	3229.94
442.12	3400.80
442.31	3426.54
442.50	3349.31
442.68	3375.05
442.87	3307.18
443.05	3384.41
443.24	3520.17
443.43	3356.33
443.61	3499.10
443.80	3604.42
443.98	3515.48
444.17	3386.76
444.35	3382.07
444.54	3585.70
444.73	3480.38
444.91	3585.70
445.10	3368.03
445.28	3421.86
445.47	3623.15
445.65	3494.42
445.84	3674.64
446.02	3693.37
446.21	3510.80
446.39	3557.61
446.58	3604.42
446.77	3538.89
446.95	3510.80
447.14	3527.19
447.32	3524.85
447.51	3623.15
447.69	3508.46
447.88	3646.55
448.06	3595.06
448.25	3529.53
448.43	3517.83
448.62	3627.83
448.80	3578.68
448.99	3613.79
449.17	3616.13
449.36	3651.24
449.54	3864.22
449.73	3843.16
449.91	3740.18
450.10	3843.16
450.28	3826.78
450.46	3840.82
450.65	3735.50
450.83	3885.29
451.02	3801.03
451.20	3826.78
451.39	3812.73
451.57	3801.03
451.76	3861.88
451.94	3992.95
452.13	3889.97
452.31	4009.34
452.49	3871.25
452.68	3957.85
452.86	4046.79
453.05	3962.53
453.23	4131.05
453.42	3978.91
453.60	3803.37
453.78	3941.46
453.97	3829.12
454.15	3981.25
454.34	4081.89
454.52	4133.39
454.70	4168.49
454.89	4081.89
455.07	3957.85
455.26	4070.19
455.44	4079.55
455.62	4067.85
455.81	4222.33
455.99	4227.01
456.17	4175.52
456.36	4224.67
456.54	4098.28
456.73	4367.44
456.91	4339.35
457.09	4461.06
457.28	4425.95
457.46	4269.14
457.64	4451.70
457.83	4353.40
458.01	4383.82
458.19	4613.20
458.38	4500.85
458.56	4507.87
458.74	4550.00
458.93	4470.42
459.11	4608.51
459.29	4521.92
459.48	4573.41
459.66	4678.73
459.84	4564.04
460.03	4711.50
460.21	4699.80
460.39	4652.98
460.57	4533.62
460.76	4835.55
460.94	4889.38
461.12	4709.16
461.31	4744.27
461.49	4603.83
461.67	4816.82
461.85	4915.12
462.04	4828.53
462.22	5050.88
462.40	4795.76
462.59	4809.80
462.77	4809.80
462.95	4884.70
463.13	4858.95
463.32	4898.74
463.50	4910.44
463.68	4861.29
463.86	5004.07
464.05	4802.78
464.23	4919.81
464.41	5043.85
464.59	4798.10
464.78	5088.32
464.96	4987.68
465.14	5055.56
465.32	5032.15
465.50	5139.82
465.69	5200.67
465.87	5100.03
466.05	5172.58
466.23	5118.75
466.41	5177.26
466.60	5207.69
466.78	5181.95
466.96	5270.89
467.14	5160.88
467.32	5235.78
467.51	5277.91
467.69	5055.56
467.87	5149.18
468.05	5217.05
468.23	5057.90
468.41	5118.75
468.60	5221.74
468.78	5460.47
468.96	5259.18
469.14	5413.66
469.32	5453.45
469.50	5364.51
469.69	5441.75
469.87	5533.03
470.05	5626.65
470.23	5528.35
470.41	5518.98
470.59	5636.01
470.77	5645.37
470.95	5554.09
471.14	5795.17
471.32	5549.41
471.50	5809.21
471.68	5706.23
471.86	5715.59
472.04	5731.97
472.22	5816.23
472.40	5884.11
472.58	5914.53
472.77	5804.53
472.95	5935.60
473.13	6179.01
473.31	5991.77
473.49	5823.25
473.67	5928.58
473.85	5975.39
474.03	5977.73
474.21	6113.48
474.39	6155.61
474.57	6179.01
474.75	6263.27
474.93	6164.97
475.12	6207.10
475.30	6413.07
475.48	6389.66
475.66	6422.43
475.84	6436.47
476.02	6483.28
476.20	6490.31
476.38	6717.34
476.56	6595.63
476.74	6724.36
476.92	6630.74
477.10	6644.78
477.28	6857.77
477.46	6839.05
477.64	6771.17
477.82	6869.47
478.00	7171.40
478.18	7007.56
478.36	7185.44
478.54	7152.68
478.72	7286.09
478.90	7344.60
479.08	7325.88
479.26	7286.09
479.44	7346.94
479.62	7421.84
479.80	7552.91
479.98	7492.05
480.16	7946.12
480.34	7571.63
480.52	7836.11
480.70	7939.10
480.88	7864.20
481.06	7868.88
481.24	7936.76
481.41	7761.22
481.59	8152.09
481.77	8131.02
481.95	8187.19
482.13	8318.26
482.31	8238.69
482.49	8418.91
482.67	8486.78
482.85	8627.21
483.03	8643.60
483.21	8805.10
483.39	8835.52
483.57	8769.99
483.74	8816.80
483.92	8816.80
484.10	8795.73
484.28	9170.22
484.46	9202.99
484.64	9399.59
484.82	9338.74
485.00	9364.48
485.18	9432.36
485.35	9708.54
485.53	9598.54
485.71	9612.58
485.89	9956.64
486.07	9582.15
486.25	9888.76
486.43	9788.12
486.61	9881.74
486.78	9914.51
486.96	10031.54
487.14	10319.42
487.32	10263.25
487.50	10415.38
487.68	10672.84
487.85	10581.56
488.03	10724.33
488.21	10757.10
488.39	10635.39
488.57	10930.30
488.75	10876.47
488.92	11171.38
489.10	11215.85
489.28	11147.97
489.46	11393.73
489.64	11337.56
489.81	11452.24
489.99	11548.20
490.17	11513.10
490.35	11999.93
490.53	11730.76
490.70	11918.01
490.88	12011.63
491.06	11962.48
491.24	11833.75
491.41	12297.17
491.59	12315.90
491.77	12201.21
491.95	12414.20
492.13	12381.43
492.30	12652.94
492.48	12571.02
492.66	12554.63
492.84	12681.02
493.01	12573.36
493.19	12585.06
493.37	12849.54
493.54	12982.95
493.72	13128.06
493.90	13336.37
494.08	13245.09
494.25	13324.67
494.43	13406.59
494.61	13582.13
494.79	13441.70
494.96	13650.00
495.14	13607.87
495.32	13675.75
495.49	13851.29
495.67	13893.42
495.85	14038.53
496.02	14134.50
496.20	14160.24
496.38	14178.97
496.55	14237.48
496.73	14572.18
496.91	14366.21
497.09	14618.99
497.26	14731.33
497.44	14501.96
497.62	14839.00
497.79	14916.23
497.97	15131.56
498.14	15367.96
498.32	14843.68
498.50	15094.11
498.67	15143.27
498.85	15073.05
499.03	15293.06
499.20	15435.83
499.38	15269.66
499.56	15398.38
499.73	15510.73
499.91	15602.01
500.08	15840.75
500.26	15824.36
500.44	15803.30
500.61	15885.22
500.79	15943.73
500.97	15899.26
501.14	16456.31
501.32	16184.80
501.49	16376.73
501.67	16336.94
501.84	16053.73
502.02	16262.04
502.20	16493.76
502.37	16475.03
502.55	16636.53
502.72	16393.11
502.90	16805.05
503.07	16774.62
503.25	16634.19
503.43	16519.50
503.60	16938.46
503.78	16872.92
503.95	16896.33
504.13	17074.21
504.30	17118.68
504.48	16945.48
504.65	17085.91
504.83	17214.64
505.01	17472.10
505.18	17294.22
505.36	17661.68
505.53	17394.86
505.71	17338.69
505.88	17317.62
506.06	17514.23
506.23	17785.73
506.41	17694.45
506.58	17783.39
506.76	18022.12
506.93	18181.28
507.11	17764.67
507.28	17865.31
507.46	17652.32
507.63	18052.55
507.81	18377.89
507.98	17958.93
508.16	18057.23
508.33	18211.71
508.50	18244.48
508.68	18761.73
508.85	18693.86
509.03	18527.68
509.20	18813.23
509.38	18843.65
509.55	18747.69
509.73	19021.53
509.90	18810.89
510.08	19014.51
510.25	18808.54
510.42	18993.45
510.60	19183.03
510.77	19229.84
510.95	19082.39
511.12	19131.54
511.30	18918.55
511.47	19482.62
511.64	19173.67
511.82	19393.68
511.99	19386.66
512.17	19751.78
512.34	19487.30
512.51	19517.73
512.69	19693.27
512.86	19438.15
513.04	19758.80
513.21	20095.84
513.38	20074.77
513.56	19779.87
513.73	19824.34
513.90	20002.22
514.08	19882.85
514.25	20149.67
514.43	20203.50
514.60	20198.82
514.77	20463.30
514.95	20732.47
515.12	20170.74
515.29	20395.43
515.47	20348.62
515.64	20704.38
515.81	20744.17
515.99	20603.74
516.16	20994.61
516.33	20957.16
516.51	20741.83
516.68	20727.78
516.85	20999.29
517.03	20800.34
517.20	20840.13
517.37	20809.70
517.54	21135.04
517.72	21247.38
517.89	21415.90
518.06	21142.06
518.24	21235.68
518.41	21055.46
518.58	21359.73
518.75	21322.28
518.93	21205.25
519.10	21523.57
519.27	21422.92
519.45	21504.84
519.62	21825.50
519.79	21799.75
519.96	21617.19
520.14	21935.50
520.31	21401.86
520.48	21937.84
520.65	21703.79
520.83	22132.11
521.00	21994.01
521.17	21972.95
521.34	22132.11
521.52	21944.86
521.69	21909.75
521.86	22352.12
522.03	22469.14
522.20	22272.54
522.38	22434.03
522.55	22443.40
522.72	22548.72
522.89	22480.85
523.07	22925.55
523.24	22377.86
523.41	22703.20
523.58	22471.48
523.75	22609.58
523.92	22457.44
524.10	22649.36
524.27	22810.86
524.44	23126.83
524.61	22946.61
524.78	22981.72
524.96	23049.60
525.13	22981.72
525.30	23058.96
525.47	23222.80
525.64	23201.73
525.81	23290.67
525.98	23559.83
526.16	23396.00
526.33	23503.66
526.50	23314.08
526.67	23424.08
526.84	23587.92
527.01	23283.65
527.18	23520.04
527.36	23843.04
527.53	23744.73
527.70	23821.97
527.87	23976.45
528.04	24086.45
528.21	23618.35
528.38	23847.72
528.55	24109.86
528.72	24079.43
528.89	24067.73
529.07	23871.12
529.24	23962.40
529.41	24215.18
529.58	24149.65
529.75	23999.85
529.92	24063.05
530.09	24098.16
530.26	24559.24
530.43	24261.99
530.60	23920.28
530.77	24189.44
530.94	24514.77
531.11	24219.86
531.28	24376.68
531.46	23772.82
531.63	24690.31
531.80	24671.59
531.97	24870.53
532.14	24641.16
532.31	24877.55
532.48	24940.75
532.65	25123.31
532.82	24240.93
532.99	24952.45
533.16	24800.32
533.33	25174.80
533.50	25125.65
533.67	24875.21
533.84	24978.20
534.01	24999.26
534.18	24812.02
534.35	25149.06
534.52	25476.73
534.69	25357.36
534.86	25013.31
535.03	25146.72
535.20	25462.69
535.37	25324.60
535.54	25394.81
535.71	25294.17
535.88	25509.50
536.05	25418.22
536.22	25434.60
536.38	25638.23
536.55	25675.68
536.72	25958.88
536.89	25462.69
537.06	25813.77
537.23	26087.61
537.40	25783.34
537.57	25752.91
537.74	25685.04
537.91	25977.61
538.08	25699.08
538.25	25701.42
538.42	25907.39
538.59	25762.28
538.75	25907.39
538.92	25902.71
539.09	26288.90
539.26	26148.46
539.43	26316.98
539.60	26281.88
539.77	26139.10
539.94	25898.03
540.11	26452.73
540.28	26146.12
540.44	26054.84
540.61	26321.66
540.78	26176.55
540.95	26733.60
541.12	26647.00
541.29	26096.97
541.46	26562.74
541.62	26176.55
541.79	27002.76
541.96	25965.90
542.13	26878.71
542.30	26822.54
542.47	26541.68
542.63	26951.27
542.80	26719.56
542.97	26902.12
543.14	26911.48
543.31	26576.78
543.48	27007.44
543.64	27330.44
543.81	27206.39
543.98	27054.25
544.15	27304.69
544.32	27037.87
544.48	27129.15
544.65	26918.50
544.82	27604.28
544.99	26881.05
545.16	27894.50
545.32	27190.00
545.49	28041.96
545.66	27953.02
545.83	27725.99
546.00	27793.86
546.16	27412.35
546.33	27515.34
546.50	27232.13
546.67	27503.64
546.83	27442.78
547.00	27810.25
547.17	27505.98
547.34	27899.19
547.50	27800.88
547.67	27758.75
547.84	27697.90
548.00	27597.26
548.17	27988.13
548.34	27552.79
548.51	28060.68
548.67	27791.52
548.84	27953.02
549.01	28067.70
549.18	27791.52
549.34	27791.52
549.51	28070.04
549.68	27995.15
549.84	28339.21
550.01	27978.76
550.18	27852.38
550.34	27803.22
550.51	28278.35
550.68	28327.50
550.84	28142.60
551.01	28166.01
551.18	28285.37
551.34	28315.80
551.51	28236.22
551.68	28350.91
551.84	28407.08
552.01	28652.84
552.18	28264.31
552.34	27995.15
552.51	28250.27
552.68	28304.10
552.84	28332.18
553.01	28767.52
553.18	28437.51
553.34	28989.88
553.51	28294.74
553.67	28856.46
553.84	28971.15
554.01	28835.40
554.17	28943.06
554.34	29050.73
554.51	28783.91
554.67	28732.42
554.84	28643.48
555.00	28641.14
555.17	28603.69
555.33	28940.72
555.50	28704.33
555.67	29284.78
555.83	29429.90
556.00	28868.17
556.16	29039.03
556.33	29043.71
556.50	29179.46
556.66	29401.81
556.83	29137.33
556.99	29130.31
557.16	29455.64
557.32	29268.40
557.49	29247.33
557.65	28900.94
557.82	29158.39
557.98	29069.45
558.15	29179.46
558.32	29032.00
558.48	29118.60
558.65	29509.47
558.81	29434.58
558.98	29439.26
559.14	29109.24
559.31	29359.68
559.47	29333.93
559.64	29336.27
559.80	29191.16
559.97	29441.60
560.13	29270.74
560.30	29486.07
560.46	29434.58
560.63	29347.98
560.79	29727.14
560.96	29898.00
561.12	29322.23
561.29	29731.83
561.45	29490.75
561.61	29804.38
561.78	29881.62
561.94	29535.22
562.11	30115.67
562.27	29923.75
562.44	29942.47
562.60	29631.18
562.77	29263.72
562.93	29792.68
563.10	30127.38
563.26	29879.28
563.42	29923.75
563.59	30286.53
563.75	29837.15
563.92	29776.30
564.08	29797.36
564.24	29991.62
564.41	29666.29
564.57	29802.04
564.74	29682.67
564.90	29851.19
565.07	30129.72
565.23	29703.74
565.39	29914.39
565.56	29933.11
565.72	29795.02
565.88	30132.06
566.05	30206.95
566.21	29680.33
566.38	30057.16
566.54	30298.23
566.70	30228.02
566.87	30160.14
567.03	30321.64
567.19	30256.11
567.36	30258.45
567.52	30239.72
567.68	30253.76
567.85	30284.19
568.01	30242.06
568.17	30284.19
568.34	29914.39
568.50	30424.62
568.66	30146.10
568.83	30548.67
568.99	30438.67
569.15	30298.23
569.32	30223.34
569.48	29806.72
569.64	30384.83
569.81	30424.62
569.97	30398.88
570.13	30370.79
570.30	30096.95
570.46	30328.66
570.62	30003.33
570.78	30597.82
570.95	30052.48
571.11	30162.48
571.27	29837.15
571.43	30483.14
571.60	30096.95
571.76	30408.24
571.92	30433.99
572.09	30696.13
572.25	30195.25
572.41	30775.70
572.57	30436.33
572.74	30396.54
572.90	30487.82
573.06	30455.05
573.22	30015.03
573.38	30356.75
573.55	30562.72
573.71	31007.42
573.87	30480.80
574.03	30359.09
574.20	30794.43
574.36	30054.82
574.52	30515.90
574.68	30572.08
574.84	30689.10
575.01	30352.07
575.17	30590.80
575.33	30551.01
575.49	30216.32
575.65	30590.80
575.82	30583.78
575.98	30607.19
576.14	31042.53
576.30	30237.38
576.46	30419.94
576.62	30649.32
576.79	30656.34
576.95	30181.21
577.11	30654.00
577.27	30478.46
577.43	31110.40
577.59	30508.88
577.75	30300.58
577.92	30471.43
578.08	30384.83
578.24	30665.70
578.40	30639.95
578.56	30548.67
578.72	30752.30
578.88	31035.50
579.04	30703.15
579.21	30717.19
579.37	30927.84
579.53	30314.62
579.69	30677.40
579.85	30642.29
580.01	30590.80
580.17	30415.26
580.33	30717.19
580.49	30569.74
580.65	30693.79
580.82	30897.41
580.98	30888.05
581.14	30831.88
581.30	30679.74
581.46	30932.52
581.62	30944.22
581.78	30670.38
581.94	30916.14
582.10	30836.56
582.26	30632.93
582.42	30651.66
582.58	30258.45
582.74	30916.14
582.90	30642.29
583.06	30850.60
583.22	30426.96
583.38	30593.14
583.54	30548.67
583.70	30630.59
583.86	30817.83
584.02	30969.97
584.18	31056.57
584.34	30951.24
584.50	30902.09
584.66	30862.30
584.82	30756.98
584.98	31063.59
585.14	30892.73
585.30	30513.56
585.46	30864.64
585.62	30710.17
585.78	30958.27
585.94	30438.67
586.10	31084.65
586.26	30417.60
586.42	31178.28
586.58	30984.01
586.74	30993.37
586.90	30888.05
587.06	30668.04
587.22	30998.06
587.38	30738.26
587.54	30916.14
587.70	30925.50
587.86	31295.30
588.02	30927.84
588.18	31267.22
588.34	31304.67
588.49	31421.69
588.65	30808.47
588.81	31070.61
588.97	30986.35
589.13	30958.27
589.29	31154.87
589.45	31281.26
589.61	30927.84
589.77	31033.16
589.93	31349.14
590.08	31189.98
590.24	31250.83
590.40	31400.63
590.56	31257.85
590.72	31154.87
590.88	31063.59
591.04	31452.12
591.20	31552.76
591.35	31428.71
591.51	31325.73
591.67	31393.61
591.83	31613.62
