SpectraSuite Data File
++++++++++++++++++++++++++++++++++++
Date: Fri Oct 18 13:58:38 GMT-05:00 2013
User: bianchi
Dark Spectrum Present: No
Reference Spectrum Present: No
Number of Sampled Component Spectra: 1
Spectrometers: USB2+H05261
Integration Time (usec): 50000 (USB2+H05261)
Spectra Averaged: 1 (USB2+H05261)
Boxcar Smoothing: 0 (USB2+H05261)
Correct for Electrical Dark: No (USB2+H05261)
Strobe/Lamp Enabled: No (USB2+H05261)
Correct for Detector Non-linearity: No (USB2+H05261)
Correct for Stray Light: No (USB2+H05261)
Number of Pixels in Processed Spectrum: 2048
>>>>>Begin Processed Spectral Data<<<<<
365.73	0.00
365.92	0.00
366.12	0.00
366.32	0.00
366.52	0.00
366.72	0.00
366.91	0.00
367.11	0.00
367.31	0.00
367.51	0.00
367.70	0.00
367.90	0.00
368.10	0.00
368.30	0.00
368.49	0.00
368.69	0.00
368.89	0.00
369.09	0.00
369.28	0.00
369.48	0.00
369.68	0.00
369.87	0.00
370.07	0.00
370.27	0.00
370.47	0.00
370.66	142.77
370.86	93.62
371.06	128.73
371.25	152.13
371.45	189.58
371.65	154.48
371.84	112.35
372.04	128.73
372.24	131.07
372.44	159.16
372.63	236.39
372.83	222.35
373.03	187.24
373.22	217.67
373.42	212.99
373.62	273.84
373.81	262.14
374.01	224.69
374.21	208.31
374.40	212.99
374.60	191.92
374.79	187.24
374.99	229.37
375.19	269.16
375.38	224.69
375.58	280.86
375.78	187.24
375.97	264.48
376.17	208.31
376.37	177.88
376.56	262.14
376.76	266.82
376.95	287.89
377.15	327.68
377.35	353.42
377.54	304.27
377.74	294.91
377.93	222.35
378.13	255.12
378.33	292.57
378.52	220.01
378.72	327.68
378.91	306.61
379.11	301.93
379.31	294.91
379.50	278.52
379.70	294.91
379.89	304.27
380.09	360.44
380.28	351.08
380.48	269.16
380.68	334.70
380.87	353.42
381.07	215.33
381.26	327.68
381.46	318.31
381.65	381.51
381.85	365.12
382.04	292.57
382.24	346.40
382.43	304.27
382.63	358.10
382.83	292.57
383.02	369.80
383.22	397.89
383.41	386.19
383.61	358.10
383.80	393.21
384.00	358.10
384.19	393.21
384.39	358.10
384.58	365.12
384.78	388.53
384.97	397.89
385.17	355.76
385.36	393.21
385.56	465.77
385.75	376.83
385.95	339.38
386.14	444.70
386.34	425.98
386.53	346.40
386.72	395.55
386.92	379.17
387.11	404.91
387.31	369.80
387.50	381.51
387.70	404.91
387.89	458.74
388.09	451.72
388.28	404.91
388.48	416.62
388.67	402.57
388.86	348.74
389.06	461.09
389.25	411.93
389.45	486.83
389.64	465.77
389.84	479.81
390.03	482.15
390.22	526.62
390.42	454.06
390.61	437.68
390.81	458.74
391.00	573.43
391.19	519.60
391.39	472.79
391.58	484.49
391.78	552.37
391.97	568.75
392.16	500.87
392.36	617.90
392.55	538.32
392.75	531.30
392.94	653.01
393.13	493.85
393.33	580.45
393.52	550.03
393.71	566.41
393.91	585.13
394.10	505.56
394.29	573.43
394.49	617.90
394.68	531.30
394.88	554.71
395.07	660.03
395.26	622.58
395.46	610.88
395.65	653.01
395.84	543.00
396.04	678.76
396.23	636.63
396.42	671.73
396.62	610.88
396.81	615.56
397.00	610.88
397.19	627.26
397.39	690.46
397.58	805.14
397.77	660.03
397.97	634.29
398.16	671.73
398.35	699.82
398.55	774.72
398.74	690.46
398.93	638.97
399.12	669.39
399.32	718.54
399.51	664.71
399.70	636.63
399.90	798.12
400.09	807.48
400.28	798.12
400.47	653.01
400.67	798.12
400.86	788.76
401.05	725.57
401.24	868.34
401.44	816.85
401.63	763.01
401.82	758.33
402.01	833.23
402.21	887.06
402.40	781.74
402.59	791.10
402.78	854.30
402.97	814.51
403.17	849.61
403.36	858.98
403.55	819.19
403.74	830.89
403.93	894.08
404.13	884.72
404.32	891.74
404.51	910.47
404.70	802.80
404.89	968.98
405.09	856.64
405.28	903.45
405.47	894.08
405.66	1053.24
405.85	1020.47
406.05	889.40
406.24	924.51
406.43	978.34
406.62	952.60
406.81	980.68
407.00	1011.11
407.20	1008.77
407.39	1027.50
407.58	1125.80
407.77	1053.24
407.96	1078.99
408.15	1048.56
408.34	1043.88
408.54	1006.43
408.73	1116.44
408.92	1116.44
409.11	1231.12
409.30	1125.80
409.49	1165.59
409.68	1177.29
409.87	1151.54
410.07	1188.99
410.26	1181.97
410.45	1240.48
410.64	1212.40
410.83	1149.20
411.02	1242.82
411.21	1233.46
411.40	1221.76
411.59	1174.95
411.78	1200.69
411.98	1153.88
412.17	1289.64
412.36	1357.51
412.55	1277.93
412.74	1366.87
412.93	1338.79
413.12	1329.42
413.31	1458.15
413.50	1446.45
413.69	1371.55
413.88	1423.05
414.07	1371.55
414.26	1392.62
414.45	1455.81
414.64	1483.90
414.83	1472.20
415.02	1465.18
415.22	1455.81
415.41	1481.56
415.60	1547.09
415.79	1565.82
415.98	1504.96
416.17	1614.97
416.36	1521.35
416.55	1643.06
416.74	1495.60
416.93	1666.46
417.12	1610.29
417.31	1661.78
417.50	1743.70
417.69	1771.79
417.88	1788.17
418.07	1720.29
418.26	1762.42
418.45	1729.66
418.64	1806.89
418.83	1750.72
419.02	1874.77
419.21	1811.57
419.39	1820.94
419.58	1837.32
419.77	1923.92
419.96	1785.83
420.15	1959.03
420.34	1813.92
420.53	1907.54
420.72	1891.15
420.91	1893.49
421.10	1895.83
421.29	1933.28
421.48	1891.15
421.67	1968.39
421.86	1944.99
422.05	1923.92
422.24	1799.87
422.43	1961.37
422.61	1973.07
422.80	1963.71
422.99	1991.80
423.18	1973.07
423.37	2085.42
423.56	1935.62
423.75	1944.99
423.94	1935.62
424.13	1846.68
424.32	1926.26
424.50	1963.71
424.69	2115.84
424.88	2148.61
425.07	2005.84
425.26	1968.39
425.45	1984.77
425.64	2005.84
425.83	2062.01
426.01	2073.71
426.20	2090.10
426.39	2090.10
426.58	2066.69
426.77	2001.16
426.96	2092.44
427.15	2040.95
427.33	2094.78
427.52	2064.35
427.71	2230.53
427.90	2242.23
428.09	2108.82
428.28	2190.74
428.46	2242.23
428.65	2253.94
428.84	2221.17
429.03	2310.11
429.22	2143.93
429.40	2129.89
429.59	2197.76
429.78	2165.00
429.97	2167.34
430.16	2225.85
430.34	2298.41
430.53	2200.10
430.72	2298.41
430.91	2300.75
431.10	2279.68
431.28	2310.11
431.47	2359.26
431.66	2338.20
431.85	2291.38
432.03	2431.82
432.22	2382.67
432.41	2335.85
432.60	2581.61
432.79	2401.39
432.97	2499.69
433.16	2427.14
433.35	2502.03
433.54	2478.63
433.72	2553.52
433.91	2473.95
434.10	2490.33
434.28	2567.57
434.47	2612.04
434.66	2553.52
434.85	2593.31
435.03	2621.40
435.22	2651.83
435.41	2612.04
435.59	2637.78
435.78	2497.35
435.97	2553.52
436.16	2647.15
436.34	2626.08
436.53	2609.70
436.72	2775.88
436.90	2572.25
437.09	2698.64
437.28	2551.18
437.46	2506.71
437.65	2726.72
437.84	2696.30
438.02	2766.51
438.21	2722.04
438.40	2619.06
438.58	2867.16
438.77	2923.33
438.96	2897.58
439.14	2953.76
439.33	3028.65
439.52	2913.97
439.70	2885.88
439.89	3030.99
440.08	2937.37
440.26	3009.93
440.45	2911.63
440.63	3213.56
440.82	3084.83
441.01	3148.02
441.19	3075.46
441.38	3145.68
441.57	3047.38
441.75	3241.64
441.94	3197.17
442.12	3117.59
442.31	3309.52
442.50	3325.90
442.68	3302.50
442.87	3241.64
443.05	3356.33
443.24	3269.73
443.43	3304.84
443.61	3295.47
443.80	3574.00
443.98	3405.48
444.17	3215.90
444.35	3419.52
444.54	3325.90
444.73	3398.46
444.91	3400.80
445.10	3529.53
445.28	3421.86
445.47	3440.59
445.65	3442.93
445.84	3386.76
446.02	3473.36
446.21	3492.08
446.39	3461.65
446.58	3578.68
446.77	3520.17
446.95	3382.07
447.14	3618.47
447.32	3522.51
447.51	3550.59
447.69	3571.66
447.88	3564.64
448.06	3618.47
448.25	3646.55
448.43	3428.88
448.62	3517.83
448.80	3499.10
448.99	3510.80
449.17	3492.08
449.36	3538.89
449.54	3616.13
449.73	3637.19
449.91	3714.43
450.10	3824.44
450.28	3686.34
450.46	3660.60
450.65	3676.98
450.83	3637.19
451.02	3660.60
451.20	3854.86
451.39	3648.90
451.57	3660.60
451.76	3791.67
451.94	3770.60
452.13	3796.35
452.31	3843.16
452.49	3798.69
452.68	3789.33
452.86	3698.05
453.05	3782.31
453.23	3868.91
453.42	3857.20
453.60	3925.08
453.78	3815.07
453.97	3943.80
454.15	3887.63
454.34	3789.33
454.52	3985.93
454.70	3941.46
454.89	4067.85
455.07	4142.75
455.26	3974.23
455.44	4128.70
455.62	4140.41
455.81	4079.55
455.99	4131.05
456.17	4046.79
456.36	4060.83
456.54	4320.63
456.73	4114.66
456.91	4236.37
457.09	4329.99
457.28	4222.33
457.46	4290.20
457.64	4301.90
457.83	4245.73
458.01	4163.81
458.19	4531.28
458.38	4259.78
458.56	4287.86
458.74	4491.49
458.93	4454.04
459.11	4299.56
459.29	4339.35
459.48	4505.53
459.66	4348.72
459.84	4561.70
460.03	4519.57
460.21	4430.63
460.39	4447.02
460.57	4554.68
460.76	4503.19
460.94	4648.30
461.12	4575.75
461.31	4557.02
461.49	4585.11
461.67	4641.28
461.85	4601.49
462.04	4585.11
462.22	4613.20
462.40	4744.27
462.59	4868.31
462.77	4795.76
462.95	4814.48
463.13	4681.07
463.32	4835.55
463.50	4786.40
463.68	4643.62
463.86	4826.18
464.05	4823.84
464.23	4821.50
464.41	5039.17
464.59	4744.27
464.78	4915.12
464.96	4873.00
465.14	4718.52
465.32	4837.89
465.50	4978.32
465.69	4858.95
465.87	5074.28
466.05	4770.01
466.23	4896.40
466.41	5163.22
466.60	4966.62
466.78	4947.89
466.96	4975.98
467.14	4997.04
467.32	4975.98
467.51	5062.58
467.69	4840.23
467.87	5275.57
468.05	5247.48
468.23	5212.37
468.41	5090.67
468.60	5111.73
468.78	5280.25
468.96	4915.12
469.14	5270.89
469.32	5177.26
469.50	5266.21
469.69	5350.46
469.87	5528.35
470.05	5497.92
470.23	5392.59
470.41	5380.89
470.59	5329.40
470.77	5504.94
470.95	5341.10
471.14	5451.11
471.32	5343.44
471.50	5483.88
471.68	5558.77
471.86	5411.32
472.04	5799.85
472.22	5774.10
472.40	5621.97
472.58	5631.33
472.77	5673.46
472.95	5795.17
473.13	5984.75
473.31	5846.66
473.49	5624.31
473.67	5921.56
473.85	5905.17
474.03	5996.45
474.21	6059.65
474.39	6111.14
474.57	6005.81
474.75	6031.56
474.93	6148.59
475.12	6164.97
475.30	6069.01
475.48	6064.33
475.66	6207.10
475.84	6200.08
476.02	6293.70
476.20	6403.71
476.38	6480.94
476.56	6483.28
476.74	6406.05
476.92	6480.94
477.10	6431.79
477.28	6431.79
477.46	6513.71
477.64	6715.00
477.82	6672.87
478.00	7063.74
478.18	6902.24
478.36	6850.75
478.54	7052.03
478.72	7105.87
478.90	6841.39
479.08	7180.76
479.26	7087.14
479.44	7152.68
479.62	7297.79
479.80	7258.00
479.98	7513.12
480.16	7698.02
480.34	7531.84
480.52	7470.99
480.70	7747.17
480.88	7597.38
481.06	7578.65
481.24	7564.61
481.41	7765.90
481.59	7782.28
481.77	8116.98
481.95	7901.65
482.13	8124.00
482.31	8004.63
482.49	8170.81
482.67	8135.70
482.85	8493.80
483.03	8463.38
483.21	8507.85
483.39	8601.47
483.57	8306.56
483.74	8594.45
483.92	8690.41
484.10	8620.19
484.28	8615.51
484.46	8884.67
484.64	9132.77
484.82	8912.76
485.00	8858.93
485.18	9261.50
485.35	9385.55
485.53	9362.14
485.71	9523.64
485.89	9554.07
486.07	9570.45
486.25	9479.17
486.43	9404.27
486.61	9769.40
486.78	9724.93
486.96	9823.23
487.14	10097.07
487.32	9811.53
487.50	10139.20
487.68	10076.01
487.85	10253.89
488.03	10286.65
488.21	10466.88
488.39	10370.91
488.57	10721.99
488.75	10363.89
488.92	10808.59
489.10	10796.89
489.28	10925.62
489.46	10988.82
489.64	11014.56
489.81	11129.25
489.99	11398.41
490.17	11274.36
490.35	11459.26
490.53	11328.19
490.70	11545.86
490.88	11281.38
491.06	11672.25
491.24	11756.51
491.41	11847.79
491.59	11927.37
491.77	11723.74
491.95	12004.61
492.13	11988.22
492.30	12325.26
492.48	12262.07
492.66	12217.60
492.84	12580.38
493.01	12475.06
493.19	12416.54
493.37	12589.74
493.54	12638.89
493.72	12725.49
493.90	12662.30
494.08	13053.17
494.25	12755.92
494.43	13146.79
494.61	13191.26
494.79	13291.90
494.96	13146.79
495.14	13284.88
495.32	13345.73
495.49	13235.73
495.67	13408.93
495.85	13547.02
496.02	13535.32
496.20	13762.35
496.38	14059.60
496.55	13886.40
496.73	14033.85
496.91	13919.17
497.09	14265.57
497.26	14324.08
497.44	14455.15
497.62	14324.08
497.79	14413.02
497.97	14377.91
498.14	14513.66
498.32	14675.16
498.50	14611.96
498.67	14843.68
498.85	14637.71
499.03	14834.32
499.20	15033.26
499.38	15051.99
499.56	14831.97
499.73	15033.26
499.91	15360.94
500.08	15286.04
500.26	15213.48
500.44	15295.40
500.61	15620.74
500.79	15405.41
500.97	15461.58
501.14	15630.10
501.32	15899.26
501.49	15800.96
501.67	15466.26
501.84	15807.98
502.02	16098.20
502.20	16175.44
502.37	16039.69
502.55	16058.42
502.72	16042.03
502.90	16173.10
503.07	16018.63
503.25	16248.00
503.43	16116.93
503.60	16582.70
503.78	16191.83
503.95	16500.78
504.13	16477.37
504.30	16561.63
504.48	16240.98
504.65	16830.79
504.83	16629.51
505.01	16912.71
505.18	16882.28
505.36	17116.34
505.53	16711.42
505.71	16727.81
505.88	16718.45
506.06	16783.98
506.23	17083.57
506.41	17179.53
506.58	17146.76
506.76	17139.74
506.93	17132.72
507.11	17160.81
507.28	17530.61
507.46	17343.37
507.63	17415.93
507.81	17797.43
507.98	17516.57
508.16	17958.93
508.33	17413.59
508.50	17689.77
508.68	17886.37
508.85	17891.06
509.03	18043.19
509.20	18111.07
509.38	18207.03
509.55	18368.52
509.73	18274.90
509.90	18054.89
510.08	18054.89
510.25	18153.20
510.42	18298.31
510.60	18314.69
510.77	18434.06
510.95	18520.66
511.12	18525.34
511.30	18462.15
511.47	18520.66
511.64	18817.91
511.82	19157.28
511.99	18881.10
512.17	18796.84
512.34	18771.10
512.51	18956.00
512.69	18885.78
512.86	19112.81
513.04	19243.88
513.21	19304.74
513.38	19346.87
513.56	19527.09
513.73	19077.71
513.90	19080.05
514.08	19445.17
514.25	19468.58
514.43	19676.88
514.60	19721.35
514.77	19709.65
514.95	19814.98
515.12	19616.03
515.29	19396.02
515.47	19924.98
515.64	19901.58
515.81	19941.36
515.99	20107.54
516.16	20102.86
516.33	20107.54
516.51	20140.31
516.68	20182.44
516.85	19882.85
517.03	20018.60
517.20	20400.11
517.37	20582.67
517.54	20400.11
517.72	20294.79
517.89	20273.72
518.06	20212.87
518.24	20161.37
518.41	20212.87
518.58	20547.56
518.75	20306.49
518.93	20699.70
519.10	20601.40
519.27	20812.04
519.45	20755.87
519.62	20823.75
519.79	20638.84
519.96	20470.33
520.14	21074.18
520.31	20922.05
520.48	21195.89
520.65	21163.12
520.83	21111.63
521.00	21558.67
521.17	21083.55
521.34	21238.02
521.52	21525.91
521.69	21488.46
521.86	21963.59
522.03	21584.42
522.20	21736.56
522.38	21654.64
522.55	21465.05
522.72	21617.19
522.89	21671.02
523.07	21954.22
523.24	21647.61
523.41	21998.70
523.58	21532.93
523.75	21813.79
523.92	22258.49
524.10	22132.11
524.27	22153.17
524.44	22045.51
524.61	22403.61
524.78	22293.60
524.96	22232.75
525.13	22370.84
525.30	22483.19
525.47	22366.16
525.64	22656.39
525.81	22630.64
525.98	22501.91
526.16	22965.34
526.33	22604.89
526.50	22614.26
526.67	22363.82
526.84	22869.37
527.01	22682.13
527.18	22998.10
527.36	22698.52
527.53	23049.60
527.70	23126.83
527.87	22993.42
528.04	22860.01
528.21	23204.07
528.38	23119.81
528.55	22883.42
528.72	22906.82
528.89	23316.42
529.07	23360.89
529.24	23241.52
529.41	23613.66
529.58	23403.02
529.75	23290.67
529.92	23267.27
530.09	23569.19
530.26	23623.03
530.43	23548.13
530.60	23428.76
530.77	23541.11
530.94	23782.18
531.11	23510.68
531.28	23440.47
531.46	23440.47
531.63	23887.51
531.80	23953.04
531.97	24051.34
532.14	24051.34
532.31	23534.09
532.48	24250.29
532.65	23906.23
532.82	24025.60
532.99	24233.91
533.16	23927.30
533.33	24489.03
533.50	23981.13
533.67	24491.37
533.84	24074.75
534.01	24142.63
534.18	24203.48
534.35	24599.03
534.52	24210.50
534.69	24348.59
534.86	24542.86
535.03	24657.54
535.20	24758.19
535.37	24482.00
535.54	24599.03
535.71	24517.11
535.88	24463.28
536.05	24524.13
536.22	24332.21
536.38	24704.35
536.55	24697.33
536.72	24945.43
536.89	24570.94
537.06	24683.29
537.23	24783.93
537.40	24762.87
537.57	24898.62
537.74	25069.48
537.91	25263.74
538.08	24954.79
538.25	25186.50
538.42	24905.64
538.59	25149.06
538.75	24912.66
538.92	25301.19
539.09	25177.14
539.26	25343.32
539.43	25127.99
539.60	25270.76
539.77	25490.77
539.94	25441.62
540.11	25312.89
540.28	25458.01
540.44	25149.06
540.61	25193.53
540.78	25692.06
540.95	25523.54
541.12	25266.08
541.29	25743.55
541.46	25233.32
541.62	25631.21
541.79	25462.69
541.96	25401.83
542.13	25628.87
542.30	25474.39
542.47	26139.10
542.63	26202.30
542.80	26153.15
542.97	26125.06
543.14	26120.38
543.31	26071.23
543.48	25769.30
543.64	26277.19
543.81	26263.15
543.98	26450.39
544.15	26422.31
544.32	26225.70
544.48	26590.83
544.65	26424.65
544.82	26316.98
544.99	26003.35
545.16	26024.42
545.32	26195.28
545.49	26785.09
545.66	26726.58
545.83	26609.55
546.00	26345.07
546.16	26576.78
546.33	26185.91
546.50	25914.41
546.67	26604.87
546.83	26569.76
547.00	26696.15
547.17	26761.69
547.34	26850.63
547.50	26544.02
547.67	27084.68
547.84	26871.69
548.00	26808.50
548.17	27358.52
548.34	26792.11
548.51	26998.08
548.67	27222.77
548.84	27157.24
549.01	26930.20
549.18	26993.40
549.34	27154.90
549.51	27143.19
549.68	27014.46
549.84	26813.18
550.01	27257.88
550.18	27168.94
550.34	26986.38
550.51	27002.76
550.68	27302.35
550.84	27246.18
551.01	27674.49
551.18	27122.13
551.34	27040.21
551.51	27218.09
551.68	27236.81
551.84	27384.27
552.01	27398.31
552.18	27688.54
552.34	27197.02
552.51	27592.58
552.68	27421.72
552.84	27428.74
553.01	27630.02
553.18	27431.08
553.34	28109.83
553.51	27211.07
553.67	27644.07
553.84	27950.68
554.01	28168.35
554.17	27997.49
554.34	27241.50
554.51	27995.15
554.67	27428.74
554.84	27917.91
555.00	27573.85
555.17	27786.84
555.33	27683.86
555.50	27768.12
555.67	27681.52
555.83	28292.40
556.00	27906.21
556.16	28151.96
556.33	28051.32
556.50	27878.12
556.66	28254.95
556.83	28011.53
556.99	28276.01
557.16	28233.88
557.32	28044.30
557.49	28233.88
557.65	27913.23
557.82	28161.33
557.98	27728.33
558.15	28210.48
558.32	28280.69
558.48	28266.65
558.65	28414.10
558.81	28074.73
558.98	28446.87
559.14	28266.65
559.31	28739.44
559.47	28776.89
559.64	28243.24
559.80	28388.36
559.97	28807.31
560.13	28367.29
560.30	28435.17
560.46	28737.10
560.63	28451.55
560.79	28538.15
560.96	28716.03
561.12	28446.87
561.29	28243.24
561.45	28280.69
561.61	28381.34
561.78	28748.80
561.94	28348.57
562.11	28828.38
562.27	28341.55
562.44	28435.17
562.60	28776.89
562.77	28830.72
562.93	28264.31
563.10	28802.63
563.26	28617.73
563.42	28985.19
563.59	28940.72
563.75	28924.34
563.92	28641.14
564.08	28804.97
564.24	28706.67
564.41	28870.51
564.57	28959.45
564.74	28877.53
564.90	28797.95
565.07	28762.84
565.23	29010.94
565.39	29233.29
565.56	29322.23
565.72	28739.44
565.88	28914.98
566.05	28758.16
566.21	28751.14
566.38	28900.94
566.54	29242.65
566.70	29205.20
566.87	29139.67
567.03	28912.64
567.19	29493.09
567.36	29460.32
567.52	29067.11
567.68	29792.68
567.85	28697.31
568.01	29294.14
568.17	29085.84
568.34	29177.12
568.50	29064.77
568.66	29244.99
568.83	29422.87
568.99	28891.57
569.15	29364.36
569.32	29139.67
569.48	28891.57
569.64	28973.49
569.81	29303.51
569.97	28968.81
570.13	29153.71
570.30	29118.60
570.46	29050.73
570.62	29308.19
570.78	29266.06
570.95	28865.83
571.11	29280.10
571.27	28978.17
571.43	28891.57
571.60	29788.00
571.76	29537.56
571.92	29055.41
572.09	29537.56
572.25	29474.37
572.41	29118.60
572.57	29060.09
572.74	29633.52
572.90	29364.36
573.06	29158.39
573.22	29214.57
573.38	29457.98
573.55	29165.42
573.71	29308.19
573.87	29385.43
574.03	29563.31
574.20	29069.45
574.36	29479.05
574.52	29413.51
574.68	29216.91
574.84	29191.16
575.01	29270.74
575.17	29193.50
575.33	29064.77
575.49	28931.36
575.65	29860.55
575.82	29577.35
575.98	29488.41
576.14	29851.19
576.30	29600.76
576.46	29472.03
576.62	29008.60
576.79	29050.73
576.95	29490.75
577.11	29769.27
577.27	29750.55
577.43	29132.65
577.59	29149.03
577.75	29364.36
577.92	29397.13
578.08	29649.91
578.24	29362.02
578.40	29338.62
578.56	29235.63
578.72	29291.80
578.88	29677.99
579.04	29631.18
579.21	29448.62
579.37	29479.05
579.53	29558.63
579.69	29439.26
579.85	29230.95
580.01	29881.62
580.17	29446.28
580.33	29298.83
580.49	29373.72
580.65	29626.50
580.82	29500.11
580.98	29603.10
581.14	29301.17
581.30	29780.98
581.46	29619.48
581.62	29696.72
581.78	29469.69
581.94	29420.53
582.10	29287.12
582.26	29284.78
582.42	29305.85
582.58	30005.67
582.74	29872.26
582.90	29315.21
583.06	29766.93
583.22	29296.49
583.38	29778.64
583.54	29956.52
583.70	29305.85
583.86	29408.83
584.02	29612.46
584.18	29682.67
584.34	29895.66
584.50	29916.73
584.66	29804.38
584.82	29598.41
584.98	29610.12
585.14	29624.16
585.30	29331.59
585.46	29324.57
585.62	29570.33
585.78	29972.90
585.94	29198.18
586.10	29626.50
586.26	29446.28
586.42	29905.02
586.58	29649.91
586.74	29357.34
586.90	29488.41
587.06	29425.22
587.22	29467.34
587.38	29539.90
587.54	29935.45
587.70	30251.42
587.86	30008.01
588.02	30059.50
588.18	29764.59
588.34	29752.89
588.49	29670.97
588.65	29446.28
588.81	29628.84
588.97	29748.21
589.13	29741.19
589.29	29668.63
589.45	29715.44
589.61	29895.66
589.77	29773.95
589.93	30008.01
590.08	30136.74
590.24	30153.12
590.40	29816.08
590.56	30178.87
590.72	29759.91
590.88	29832.47
591.04	29626.50
591.20	30141.42
591.35	29905.02
591.51	30492.50
591.67	29876.94
591.83	30314.62
591.99	30054.82
