SpectraSuite Data File
++++++++++++++++++++++++++++++++++++
Date: Fri Oct 18 13:58:18 GMT-05:00 2013
User: bianchi
Dark Spectrum Present: No
Reference Spectrum Present: No
Number of Sampled Component Spectra: 1
Spectrometers: USB2+H05261
Integration Time (usec): 50000 (USB2+H05261)
Spectra Averaged: 1 (USB2+H05261)
Boxcar Smoothing: 0 (USB2+H05261)
Correct for Electrical Dark: No (USB2+H05261)
Strobe/Lamp Enabled: No (USB2+H05261)
Correct for Detector Non-linearity: No (USB2+H05261)
Correct for Stray Light: No (USB2+H05261)
Number of Pixels in Processed Spectrum: 2048
>>>>>Begin Processed Spectral Data<<<<<
365.73	0.00
365.92	0.00
366.12	0.00
366.32	0.00
366.52	0.00
366.72	0.00
366.91	0.00
367.11	0.00
367.31	0.00
367.51	0.00
367.70	0.00
367.90	0.00
368.10	0.00
368.30	0.00
368.49	0.00
368.69	0.00
368.89	0.00
369.09	0.00
369.28	0.00
369.48	0.00
369.68	0.00
369.87	0.00
370.07	0.00
370.27	0.00
370.47	0.00
370.66	53.83
370.86	107.66
371.06	93.62
371.25	112.35
371.45	79.58
371.65	220.01
371.84	124.05
372.04	147.45
372.24	161.50
372.44	177.88
372.63	191.92
372.83	266.82
373.03	184.90
373.22	110.01
373.42	205.97
373.62	227.03
373.81	170.86
374.01	220.01
374.21	159.16
374.40	224.69
374.60	243.42
374.79	259.80
374.99	248.10
375.19	215.33
375.38	227.03
375.58	238.73
375.78	306.61
375.97	252.78
376.17	308.95
376.37	269.16
376.56	222.35
376.76	229.37
376.95	325.33
377.15	262.14
377.35	264.48
377.54	348.74
377.74	276.18
377.93	187.24
378.13	283.20
378.33	290.23
378.52	264.48
378.72	311.29
378.91	318.31
379.11	227.03
379.31	320.65
379.50	231.71
379.70	404.91
379.89	348.74
380.09	297.25
380.28	227.03
380.48	264.48
380.68	322.99
380.87	320.65
381.07	337.04
381.26	341.72
381.46	315.97
381.65	320.65
381.85	411.93
382.04	393.21
382.24	346.40
382.43	308.95
382.63	322.99
382.83	292.57
383.02	358.10
383.22	330.02
383.41	337.04
383.61	341.72
383.80	388.53
384.00	304.27
384.19	381.51
384.39	318.31
384.58	341.72
384.78	404.91
384.97	400.23
385.17	376.83
385.36	337.04
385.56	344.06
385.75	416.62
385.95	437.68
386.14	390.87
386.34	444.70
386.53	423.64
386.72	393.21
386.92	397.89
387.11	402.57
387.31	418.96
387.50	369.80
387.70	353.42
387.89	496.19
388.09	423.64
388.28	465.77
388.48	435.34
388.67	355.76
388.86	465.77
389.06	440.02
389.25	535.98
389.45	470.45
389.64	463.43
389.84	470.45
390.03	486.83
390.22	444.70
390.42	517.26
390.61	491.51
390.81	503.22
391.00	451.72
391.19	461.09
391.39	400.23
391.58	531.30
391.78	489.17
391.97	433.00
392.16	470.45
392.36	451.72
392.55	500.87
392.75	606.20
392.94	498.53
393.13	498.53
393.33	528.96
393.52	507.90
393.71	587.47
393.91	552.37
394.10	528.96
394.29	512.58
394.49	559.39
394.68	587.47
394.88	585.13
395.07	603.86
395.26	592.16
395.46	650.67
395.65	643.65
395.84	550.03
396.04	683.44
396.23	657.69
396.42	613.22
396.62	660.03
396.81	589.82
397.00	641.31
397.19	725.57
397.39	720.88
397.58	653.01
397.77	678.76
397.97	660.03
398.16	716.20
398.35	650.67
398.55	723.23
398.74	681.10
398.93	613.22
399.12	753.65
399.32	660.03
399.51	653.01
399.70	746.63
399.90	758.33
400.09	800.46
400.28	772.38
400.47	763.01
400.67	772.38
400.86	823.87
401.05	788.76
401.24	880.04
401.44	816.85
401.63	791.10
401.82	777.06
402.01	781.74
402.21	877.70
402.40	842.59
402.59	821.53
402.78	788.76
402.97	781.74
403.17	863.66
403.36	858.98
403.55	873.02
403.74	924.51
403.93	945.58
404.13	894.08
404.32	908.13
404.51	898.77
404.70	875.36
404.89	917.49
405.09	987.71
405.28	887.06
405.47	957.28
405.66	1046.22
405.85	926.85
406.05	922.17
406.24	987.71
406.43	903.45
406.62	973.66
406.81	1053.24
407.00	1006.43
407.20	976.00
407.39	1067.28
407.58	1039.20
407.77	997.07
407.96	1139.84
408.15	1053.24
408.34	1029.84
408.54	1083.67
408.73	1032.18
408.92	1050.90
409.11	1116.44
409.30	1219.42
409.49	1111.75
409.68	1109.41
409.87	1128.14
410.07	1226.44
410.26	1163.25
410.45	1179.63
410.64	1181.97
410.83	1186.65
411.02	1256.87
411.21	1186.65
411.40	1256.87
411.59	1277.93
411.78	1315.38
411.98	1352.83
412.17	1238.14
412.36	1242.82
412.55	1224.10
412.74	1329.42
412.93	1308.36
413.12	1423.05
413.31	1401.98
413.50	1247.51
413.69	1420.71
413.88	1404.32
414.07	1439.43
414.26	1540.07
414.45	1390.28
414.64	1479.22
414.83	1516.67
415.02	1535.39
415.22	1476.88
415.41	1504.96
415.60	1565.82
415.79	1516.67
415.98	1523.69
416.17	1638.38
416.36	1540.07
416.55	1568.16
416.74	1617.31
416.93	1636.03
417.12	1699.23
417.31	1654.76
417.50	1708.59
417.69	1724.97
417.88	1811.57
418.07	1666.46
418.26	1739.02
418.45	1769.44
418.64	1769.44
418.83	1795.19
419.02	1762.42
419.21	1935.62
419.39	1886.47
419.58	1778.81
419.77	1874.77
419.96	1818.60
420.15	2015.20
420.34	1872.43
420.53	1760.08
420.72	1949.67
420.91	1863.07
421.10	1839.66
421.29	2040.95
421.48	1912.22
421.67	1902.86
421.86	1914.56
422.05	1947.33
422.24	1994.14
422.43	1902.86
422.61	1977.75
422.80	2099.46
422.99	1991.80
423.18	2054.99
423.37	2033.93
423.56	2001.16
423.75	2008.18
423.94	2080.74
424.13	1839.66
424.32	1921.58
424.50	2099.46
424.69	2139.25
424.88	2040.95
425.07	1984.77
425.26	2036.27
425.45	2017.54
425.64	2019.88
425.83	2017.54
426.01	2167.34
426.20	1994.14
426.39	2085.42
426.58	2134.57
426.77	2139.25
426.96	2150.95
427.15	2076.06
427.33	2038.61
427.52	2111.16
427.71	2148.61
427.90	2111.16
428.09	2101.80
428.28	2190.74
428.46	2267.98
428.65	2289.04
428.84	2312.45
429.03	2363.94
429.22	2083.08
429.40	2157.97
429.59	2239.89
429.78	2132.23
429.97	2165.00
430.16	2277.34
430.34	2249.25
430.53	2291.38
430.72	2324.15
430.91	2349.90
431.10	2307.77
431.28	2347.56
431.47	2370.96
431.66	2459.90
431.85	2319.47
432.03	2380.32
432.22	2417.77
432.41	2296.07
432.60	2487.99
432.79	2410.75
432.97	2450.54
433.16	2436.50
433.35	2534.80
433.54	2480.97
433.72	2583.95
433.91	2534.80
434.10	2532.46
434.28	2630.76
434.47	2499.69
434.66	2539.48
434.85	2663.53
435.03	2562.89
435.22	2349.90
435.41	2675.23
435.59	2572.25
435.78	2642.46
435.97	2663.53
436.16	2600.34
436.34	2693.96
436.53	2684.59
436.72	2682.25
436.90	2686.94
437.09	2696.30
437.28	2736.09
437.46	2693.96
437.65	2733.75
437.84	2853.11
438.02	2672.89
438.21	2801.62
438.40	2640.12
438.58	2916.31
438.77	2956.10
438.96	2834.39
439.14	2801.62
439.33	2960.78
439.52	2897.58
439.70	2822.69
439.89	3030.99
440.08	2937.37
440.26	2932.69
440.45	3152.70
440.63	2995.89
440.82	3208.87
441.01	3178.45
441.19	3133.98
441.38	3206.53
441.57	3225.26
441.75	3314.20
441.94	3206.53
442.12	3288.45
442.31	3316.54
442.50	3375.05
442.68	3276.75
442.87	3372.71
443.05	3208.87
443.24	3372.71
443.43	3449.95
443.61	3442.93
443.80	3468.67
443.98	3316.54
444.17	3253.34
444.35	3344.63
444.54	3361.01
444.73	3499.10
444.91	3435.91
445.10	3375.05
445.28	3445.27
445.47	3419.52
445.65	3424.20
445.84	3581.02
446.02	3515.48
446.21	3454.63
446.39	3543.57
446.58	3637.19
446.77	3426.54
446.95	3447.61
447.14	3471.01
447.32	3653.58
447.51	3536.55
447.69	3524.85
447.88	3566.98
448.06	3492.08
448.25	3559.95
448.43	3559.95
448.62	3592.72
448.80	3634.85
448.99	3639.53
449.17	3686.34
449.36	3646.55
449.54	3686.34
449.73	3709.75
449.91	3667.62
450.10	3674.64
450.28	3733.15
450.46	3751.88
450.65	3646.55
450.83	3815.07
451.02	3730.81
451.20	3737.84
451.39	3852.52
451.57	3847.84
451.76	3794.01
451.94	3843.16
452.13	3927.42
452.31	3658.26
452.49	3805.71
452.68	3906.35
452.86	3730.81
453.05	3861.88
453.23	3943.80
453.42	3864.22
453.60	3845.50
453.78	3943.80
453.97	3971.89
454.15	3889.97
454.34	3878.27
454.52	4011.68
454.70	4032.74
454.89	3957.85
455.07	4014.02
455.26	4016.36
455.44	4063.17
455.62	4133.39
455.81	4156.79
455.99	4271.48
456.17	4182.54
456.36	4067.85
456.54	4170.83
456.73	4215.30
456.91	4308.93
457.09	4334.67
457.28	4329.99
457.46	4276.16
457.64	4430.63
457.83	4278.50
458.01	4229.35
458.19	4322.97
458.38	4341.69
458.56	4418.93
458.74	4456.38
458.93	4498.51
459.11	4486.81
459.29	4334.67
459.48	4477.44
459.66	4414.25
459.84	4624.90
460.03	4650.64
460.21	4681.07
460.39	4430.63
460.57	4550.00
460.76	4652.98
460.94	4592.13
461.12	4622.56
461.31	4599.15
461.49	4652.98
461.67	4627.24
461.85	4814.48
462.04	4905.76
462.22	4952.57
462.40	4767.67
462.59	4730.22
462.77	4781.71
462.95	4849.59
463.13	4706.82
463.32	4774.69
463.50	4865.97
463.68	4973.64
463.86	5032.15
464.05	4767.67
464.23	4908.10
464.41	4802.78
464.59	4821.50
464.78	4926.83
464.96	4802.78
465.14	4945.55
465.32	5004.07
465.50	4947.89
465.69	5078.96
465.87	4891.72
466.05	4898.74
466.23	4891.72
466.41	5036.83
466.60	5114.07
466.78	4964.28
466.96	4957.25
467.14	4987.68
467.32	5135.14
467.51	5114.07
467.69	5076.62
467.87	5266.21
468.05	5062.58
468.23	5118.75
468.41	5170.24
468.60	5160.88
468.78	5200.67
468.96	5062.58
469.14	5261.52
469.32	5350.46
469.50	5121.09
469.69	5371.53
469.87	5305.99
470.05	5427.70
470.23	5467.49
470.41	5408.98
470.59	5357.49
470.77	5371.53
470.95	5355.15
471.14	5633.67
471.32	5619.63
471.50	5556.43
471.68	5563.45
471.86	5455.79
472.04	5535.37
472.22	5764.74
472.40	5675.80
472.58	5727.29
472.77	5617.29
472.95	5708.57
473.13	6083.05
473.31	5753.04
473.49	5902.83
473.67	5881.77
473.85	5916.87
474.03	6090.07
474.21	6031.56
474.39	6099.44
474.57	6143.91
474.75	6113.48
474.93	6176.67
475.12	6073.69
475.30	6169.65
475.48	6312.42
475.66	6298.38
475.84	6204.76
476.02	6361.58
476.20	6356.90
476.38	6384.98
476.56	6502.01
476.74	6616.69
476.92	6368.60
477.10	6509.03
477.28	6752.45
477.46	6623.72
477.64	6799.26
477.82	6801.60
478.00	6820.32
478.18	6789.89
478.36	7094.16
478.54	7162.04
478.72	6958.41
478.90	7077.78
479.08	7260.34
479.26	7396.09
479.44	7323.54
479.62	7370.35
479.80	7393.75
479.98	7407.80
480.16	7503.76
480.34	7653.55
480.52	7712.07
480.70	7524.82
480.88	7562.27
481.06	7861.86
481.24	7782.28
481.41	7840.79
481.59	7836.11
481.77	7948.46
481.95	7997.61
482.13	8074.85
482.31	7997.61
482.49	8355.71
482.67	8290.18
482.85	8409.54
483.03	8531.25
483.21	8531.25
483.39	8463.38
483.57	8615.51
483.74	8762.97
483.92	8805.10
484.10	8582.74
484.28	8762.97
484.46	9029.79
484.64	9039.15
484.82	9025.11
485.00	8964.25
485.18	9334.06
485.35	9525.98
485.53	9221.71
485.71	9521.30
485.89	9715.56
486.07	9387.89
486.25	9537.68
486.43	9818.55
486.61	9738.97
486.78	9888.76
486.96	10120.48
487.14	10101.75
487.32	10129.84
487.50	10171.97
487.68	10253.89
487.85	10483.26
488.03	10457.51
488.21	10733.70
488.39	10518.37
488.57	10600.29
488.75	10766.46
488.92	10766.46
489.10	10923.28
489.28	11012.22
489.46	11234.57
489.64	10988.82
489.81	11068.39
489.99	11555.22
490.17	11475.65
490.35	11468.62
490.53	11424.15
490.70	11705.02
490.88	11363.30
491.06	11754.17
491.24	11775.24
491.41	11810.34
491.59	11859.49
491.77	11990.56
491.95	11889.92
492.13	12131.00
492.30	12276.11
492.48	12292.49
492.66	12325.26
492.84	12262.07
493.01	12575.70
493.19	12739.54
493.37	12699.75
493.54	13008.70
493.72	12863.58
493.90	12889.33
494.08	13034.44
494.25	13177.22
494.43	12994.65
494.61	13139.77
494.79	13310.63
494.96	13448.72
495.14	13399.57
495.32	13724.90
495.49	13369.14
495.67	13563.40
495.85	13638.30
496.02	13998.74
496.20	13671.07
496.38	13743.63
496.55	13788.10
496.73	14075.98
496.91	14015.13
497.09	14424.72
497.26	14555.79
497.44	14363.87
497.62	14295.99
497.79	14490.26
497.97	14462.17
498.14	14537.07
498.32	15005.17
498.50	14927.94
498.67	14839.00
498.85	15096.46
499.03	14817.93
499.20	14836.66
499.38	15012.20
499.56	15279.02
499.73	15213.48
499.91	15335.19
500.08	15426.47
500.26	15201.78
500.44	15070.71
500.61	15503.71
500.79	15218.16
500.97	15658.18
501.14	15775.21
501.32	15875.85
501.49	15604.35
501.67	15742.44
501.84	15770.53
502.02	15829.04
502.20	15995.22
502.37	16294.81
502.55	16006.92
502.72	16294.81
502.90	16486.73
503.07	16009.26
503.25	16458.65
503.43	16358.00
503.60	16435.24
503.78	16444.60
503.95	16404.81
504.13	16638.87
504.30	16978.25
504.48	16678.66
504.65	16706.74
504.83	16842.50
505.01	16879.94
505.18	16952.50
505.36	16893.99
505.53	16982.93
505.71	17055.48
505.88	17111.66
506.06	17025.06
506.23	17371.46
506.41	17111.66
506.58	17376.14
506.76	17287.20
506.93	17254.43
507.11	17408.90
507.28	17334.01
507.46	17514.23
507.63	17778.71
507.81	17874.67
507.98	17802.11
508.16	17898.08
508.33	17778.71
508.50	17956.59
508.68	18099.36
508.85	18434.06
509.03	17987.02
509.20	18359.16
509.38	18513.64
509.55	18532.36
509.73	18368.52
509.90	18405.97
510.08	18342.78
510.25	18466.83
510.42	18347.46
510.60	18665.77
510.77	18663.43
510.95	18803.86
511.12	18621.30
511.30	18412.99
511.47	18815.57
511.64	18981.74
511.82	19206.44
511.99	19023.87
512.17	19178.35
512.34	19199.41
512.51	19014.51
512.69	18897.49
512.86	19271.97
513.04	19304.74
513.21	19550.49
513.38	19447.51
513.56	19480.28
513.73	19227.50
513.90	19372.61
514.08	19637.09
514.25	19365.59
514.43	19571.56
514.60	19840.72
514.77	19894.55
514.95	19775.19
515.12	19810.29
515.29	19737.74
515.47	20322.87
515.64	20243.29
515.81	20250.32
515.99	20016.26
516.16	20514.80
516.33	20393.09
516.51	20102.86
516.68	20217.55
516.85	20203.50
517.03	20360.32
517.20	20535.86
517.37	20308.83
517.54	20552.24
517.72	20510.11
517.89	20662.25
518.06	20439.90
518.24	20692.68
518.41	20709.06
518.58	20800.34
518.75	20475.01
518.93	20978.22
519.10	20982.90
519.27	20893.96
519.45	20936.09
519.62	20875.24
519.79	20769.91
519.96	20968.86
520.14	21132.70
520.31	21280.15
520.48	21142.06
520.65	20863.54
520.83	21582.08
521.00	21432.29
521.17	21280.15
521.34	21472.07
521.52	21785.71
521.69	21495.48
521.86	21720.17
522.03	21841.88
522.20	21879.33
522.38	21797.41
522.55	21766.98
522.72	21614.85
522.89	21788.05
523.07	22195.30
523.24	22043.17
523.41	22253.81
523.58	22010.40
523.75	22113.38
523.92	22249.13
524.10	22469.14
524.27	22291.26
524.44	22328.71
524.61	22618.94
524.78	22544.04
524.96	22368.50
525.13	22644.68
525.30	22618.94
525.47	22438.72
525.64	22731.28
525.81	22611.92
525.98	22654.05
526.16	22394.25
526.33	22953.63
526.50	22691.49
526.67	22930.23
526.84	22761.71
527.01	22923.21
527.18	23007.47
527.36	22998.10
527.53	23026.19
527.70	23307.05
527.87	22986.40
528.04	23297.69
528.21	23082.36
528.38	23124.49
528.55	23817.29
528.72	23580.90
528.89	23763.46
529.07	23489.62
529.24	23417.06
529.41	23658.14
529.58	23206.41
529.75	23597.28
529.92	23564.51
530.09	23379.61
530.26	23653.45
530.43	23927.30
530.60	23749.42
530.77	23814.95
530.94	23798.57
531.11	23534.09
531.28	23653.45
531.46	23861.76
531.63	23957.72
531.80	24498.39
531.97	23950.70
532.14	23934.32
532.31	24077.09
532.48	23892.19
532.65	24149.65
532.82	24086.45
532.99	24095.82
533.16	24013.90
533.33	24273.70
533.50	24638.82
533.67	24393.06
533.84	24189.44
534.01	24208.16
534.18	23983.47
534.35	24505.41
534.52	24477.32
534.69	24723.08
534.86	24584.99
535.03	24683.29
535.20	24851.81
535.37	24594.35
535.54	24945.43
535.71	24622.44
535.88	24847.13
536.05	24854.15
536.22	24922.02
536.38	25113.95
536.55	25029.69
536.72	25071.82
536.89	24968.84
537.06	25043.73
537.23	25163.10
537.40	25308.21
537.57	25149.06
537.74	25034.37
537.91	25132.67
538.08	25008.62
538.25	25092.88
538.42	25448.64
538.59	25399.49
538.75	25348.00
538.92	25160.76
539.09	25219.27
539.26	25600.78
539.43	25743.55
539.60	25235.66
539.77	25776.32
539.94	25645.25
540.11	25687.38
540.28	25460.35
540.44	25394.81
540.61	25202.89
540.78	25343.32
540.95	25715.47
541.12	25649.93
541.29	25811.43
541.46	25645.25
541.62	26167.19
541.79	25422.90
541.96	25469.71
542.13	26005.69
542.30	25771.64
542.47	26181.23
542.63	26162.51
542.80	25722.49
542.97	26455.08
543.14	26485.50
543.31	26010.37
543.48	26244.43
543.64	26452.73
543.81	26214.00
543.98	26567.42
544.15	26087.61
544.32	26635.30
544.48	26632.96
544.65	26483.16
544.82	26405.92
544.99	26274.85
545.16	26944.25
545.32	26749.98
545.49	26497.20
545.66	26787.43
545.83	27072.98
546.00	26815.52
546.16	27005.10
546.33	26586.15
546.50	26714.87
546.67	26972.33
546.83	26473.80
547.00	26937.23
547.17	26792.11
547.34	27033.19
547.50	27342.14
547.67	27253.20
547.84	27281.28
548.00	27276.60
548.17	27262.56
548.34	27192.34
548.51	27508.32
548.67	27182.98
548.84	27033.19
549.01	27379.59
549.18	27211.07
549.34	27229.79
549.51	27222.77
549.68	27002.76
549.84	27065.96
550.01	27374.91
550.18	27243.84
550.34	27365.54
550.51	27592.58
550.68	27388.95
550.84	27491.93
551.01	27700.24
551.18	27278.94
551.34	27283.62
551.51	27288.31
551.68	27292.99
551.84	27688.54
552.01	27667.47
552.18	27620.66
552.34	27608.96
552.51	27569.17
552.68	27688.54
552.84	27934.29
553.01	27517.68
553.18	27931.95
553.34	27779.82
553.51	28023.23
553.67	27950.68
553.84	28098.13
554.01	28350.91
554.17	28079.41
554.34	28006.85
554.51	28158.99
554.67	28154.30
554.84	28219.84
555.00	28123.88
555.17	28301.76
555.33	28109.83
555.50	28292.40
555.67	27908.55
555.83	28126.22
556.00	28334.53
556.16	28219.84
556.33	28226.86
556.50	28102.81
556.66	28315.80
556.83	28582.62
556.99	28624.75
557.16	28367.29
557.32	28573.26
557.49	28624.75
557.65	28402.40
557.82	28297.08
557.98	28238.56
558.15	28245.58
558.32	28479.64
558.48	28341.55
558.65	28339.21
558.81	28788.59
558.98	28486.66
559.14	28463.25
559.31	28617.73
559.47	28697.31
559.64	28568.58
559.80	28987.53
559.97	28821.36
560.13	28631.77
560.30	28694.97
560.46	28774.55
560.63	29032.00
560.79	28449.21
560.96	28795.61
561.12	28802.63
561.29	28570.92
561.45	28830.72
561.61	28795.61
561.78	29001.58
561.94	29125.63
562.11	28793.27
562.27	28823.70
562.44	28837.74
562.60	29027.32
562.77	29081.16
562.93	29062.43
563.10	29287.12
563.26	28950.09
563.42	29376.06
563.59	29324.57
563.75	29099.88
563.92	29270.74
564.08	28957.11
564.24	28959.45
564.41	28746.46
564.57	29081.16
564.74	29340.96
564.90	29244.99
565.07	28709.01
565.23	29500.11
565.39	29127.97
565.56	29120.95
565.72	29116.26
565.88	29572.67
566.05	29041.37
566.21	28872.85
566.38	29219.25
566.54	29266.06
566.70	29359.68
566.87	29556.28
567.03	29525.86
567.19	29713.10
567.36	29785.66
567.52	28889.23
567.68	29425.22
567.85	29408.83
568.01	29783.32
568.17	29024.98
568.34	29385.43
568.50	29542.24
568.66	29268.40
568.83	29450.96
568.99	29537.56
569.15	29516.50
569.32	29305.85
569.48	29219.25
569.64	29443.94
569.81	29539.90
569.97	29340.96
570.13	29167.76
570.30	29586.71
570.46	29748.21
570.62	29738.85
570.78	29549.26
570.95	29284.78
571.11	29462.66
571.27	29308.19
571.43	28931.36
571.60	29558.63
571.76	29425.22
571.92	29713.10
572.09	29291.80
572.25	29663.95
572.41	29399.47
572.57	29593.73
572.74	29778.64
572.90	29509.47
573.06	29514.16
573.22	29495.43
573.38	29642.88
573.55	29465.00
573.71	29954.18
573.87	29694.38
574.03	29743.53
574.20	29591.39
574.36	29490.75
574.52	29635.86
574.68	29624.16
574.84	29785.66
575.01	29336.27
575.17	29757.57
575.33	29715.44
575.49	29795.02
575.65	29727.14
575.82	29731.83
575.98	29804.38
576.14	29717.78
576.30	29380.74
576.46	29621.82
576.62	29516.50
576.79	29642.88
576.95	29544.58
577.11	29750.55
577.27	29743.53
577.43	29762.25
577.59	29694.38
577.75	30019.71
577.92	29415.85
578.08	29673.31
578.24	29685.01
578.40	29504.79
578.56	29675.65
578.72	29764.59
578.88	29998.65
579.04	30064.18
579.21	29769.27
579.37	29626.50
579.53	30115.67
579.69	29963.54
579.85	29415.85
580.01	29560.97
580.17	29715.44
580.33	29619.48
580.49	30071.20
580.65	29937.79
580.82	29949.50
580.98	29886.30
581.14	29780.98
581.30	30221.00
581.46	29537.56
581.62	29741.19
581.78	29516.50
581.94	29848.85
582.10	29804.38
582.26	29855.87
582.42	29776.30
582.58	30352.07
582.74	29663.95
582.90	29989.28
583.06	29890.98
583.22	29495.43
583.38	29701.40
583.54	29743.53
583.70	29579.69
583.86	30103.97
584.02	29701.40
584.18	30370.79
584.34	30225.68
584.50	30307.60
584.66	30082.91
584.82	29979.92
584.98	29986.94
585.14	30050.14
585.30	29720.12
585.46	29832.47
585.62	29741.19
585.78	29940.13
585.94	29645.23
586.10	30047.80
586.26	30192.91
586.42	30403.56
586.58	30230.36
586.74	30148.44
586.90	29862.90
587.06	29542.24
587.22	29663.95
587.38	29670.97
587.54	30384.83
587.70	30272.49
587.86	29825.45
588.02	30148.44
588.18	30295.89
588.34	29837.15
588.49	30232.70
588.65	29778.64
588.81	30022.05
588.97	30115.67
589.13	30302.92
589.29	30129.72
589.45	30263.13
589.61	30309.94
589.77	30192.91
589.93	30295.89
590.08	30361.43
590.24	30068.86
590.40	30209.29
590.56	30579.10
590.72	30096.95
590.88	30136.74
591.04	29993.97
591.20	30719.53
591.35	30539.31
591.51	30707.83
591.67	30422.28
591.83	30600.16
591.99	30450.37
