SpectraSuite Data File
++++++++++++++++++++++++++++++++++++
Date: Fri Oct 18 13:57:54 GMT-05:00 2013
User: bianchi
Dark Spectrum Present: No
Reference Spectrum Present: No
Number of Sampled Component Spectra: 1
Spectrometers: USB2+H05261
Integration Time (usec): 50000 (USB2+H05261)
Spectra Averaged: 1 (USB2+H05261)
Boxcar Smoothing: 0 (USB2+H05261)
Correct for Electrical Dark: No (USB2+H05261)
Strobe/Lamp Enabled: No (USB2+H05261)
Correct for Detector Non-linearity: No (USB2+H05261)
Correct for Stray Light: No (USB2+H05261)
Number of Pixels in Processed Spectrum: 2048
>>>>>Begin Processed Spectral Data<<<<<
365.73	0.00
365.92	0.00
366.12	0.00
366.32	0.00
366.52	0.00
366.72	0.00
366.91	0.00
367.11	0.00
367.31	0.00
367.51	0.00
367.70	0.00
367.90	0.00
368.10	0.00
368.30	0.00
368.49	0.00
368.69	0.00
368.89	0.00
369.09	0.00
369.28	0.00
369.48	0.00
369.68	0.00
369.87	0.00
370.07	0.00
370.27	0.00
370.47	35.11
370.66	105.32
370.86	119.37
371.06	142.77
371.25	70.22
371.45	152.13
371.65	175.54
371.84	182.56
372.04	131.07
372.24	86.60
372.44	215.33
372.63	229.37
372.83	212.99
373.03	227.03
373.22	177.88
373.42	212.99
373.62	273.84
373.81	227.03
374.01	250.44
374.21	283.20
374.40	259.80
374.60	257.46
374.79	301.93
374.99	311.29
375.19	308.95
375.38	290.23
375.58	294.91
375.78	224.69
375.97	297.25
376.17	248.10
376.37	271.50
376.56	269.16
376.76	322.99
376.95	198.95
377.15	301.93
377.35	245.76
377.54	278.52
377.74	271.50
377.93	248.10
378.13	203.63
378.33	234.05
378.52	264.48
378.72	273.84
378.91	215.33
379.11	313.63
379.31	325.33
379.50	337.04
379.70	318.31
379.89	379.17
380.09	266.82
380.28	308.95
380.48	290.23
380.68	351.08
380.87	264.48
381.07	381.51
381.26	320.65
381.46	334.70
381.65	320.65
381.85	362.78
382.04	425.98
382.24	280.86
382.43	358.10
382.63	287.89
382.83	341.72
383.02	308.95
383.22	241.08
383.41	294.91
383.61	444.70
383.80	367.46
384.00	341.72
384.19	411.93
384.39	400.23
384.58	383.85
384.78	341.72
384.97	395.55
385.17	418.96
385.36	386.19
385.56	479.81
385.75	374.49
385.95	355.76
386.14	442.36
386.34	334.70
386.53	379.17
386.72	390.87
386.92	362.78
387.11	463.43
387.31	411.93
387.50	440.02
387.70	386.19
387.89	430.66
388.09	468.11
388.28	465.77
388.48	411.93
388.67	531.30
388.86	437.68
389.06	477.47
389.25	496.19
389.45	447.04
389.64	447.04
389.84	585.13
390.03	538.32
390.22	533.64
390.42	538.32
390.61	491.51
390.81	475.13
391.00	517.26
391.19	512.58
391.39	573.43
391.58	479.81
391.78	517.26
391.97	531.30
392.16	482.15
392.36	617.90
392.55	528.96
392.75	608.54
392.94	557.05
393.13	608.54
393.33	552.37
393.52	510.24
393.71	594.50
393.91	613.22
394.10	645.99
394.29	545.34
394.49	582.79
394.68	634.29
394.88	531.30
395.07	601.52
395.26	662.37
395.46	608.54
395.65	688.12
395.84	713.86
396.04	697.48
396.23	629.60
396.42	624.92
396.62	748.97
396.81	695.14
397.00	690.46
397.19	730.25
397.39	676.41
397.58	704.50
397.77	667.05
397.97	671.73
398.16	746.63
398.35	748.97
398.55	667.05
398.74	704.50
398.93	643.65
399.12	657.69
399.32	709.18
399.51	732.59
399.70	660.03
399.90	777.06
400.09	697.48
400.28	805.14
400.47	767.70
400.67	774.72
400.86	800.46
401.05	793.44
401.24	814.51
401.44	898.77
401.63	833.23
401.82	877.70
402.01	809.83
402.21	868.34
402.40	798.12
402.59	889.40
402.78	812.17
402.97	774.72
403.17	840.25
403.36	915.15
403.55	880.04
403.74	908.13
403.93	950.26
404.13	968.98
404.32	926.85
404.51	929.19
404.70	992.39
404.89	936.21
405.09	959.62
405.28	926.85
405.47	1004.09
405.66	1055.58
405.85	1074.31
406.05	1071.97
406.24	903.45
406.43	1064.94
406.62	1109.41
406.81	1046.22
407.00	1029.84
407.20	1004.09
407.39	1048.56
407.58	1123.46
407.77	1100.05
407.96	1097.71
408.15	1086.01
408.34	1130.48
408.54	1184.31
408.73	1090.69
408.92	1090.69
409.11	1170.27
409.30	1188.99
409.49	1174.95
409.68	1149.20
409.87	1100.05
410.07	1284.95
410.26	1188.99
410.45	1282.61
410.64	1207.72
410.83	1289.64
411.02	1291.98
411.21	1306.02
411.40	1322.40
411.59	1306.02
411.78	1313.04
411.98	1336.45
412.17	1299.00
412.36	1294.32
412.55	1329.42
412.74	1366.87
412.93	1345.81
413.12	1378.58
413.31	1472.20
413.50	1460.49
413.69	1479.22
413.88	1561.14
414.07	1448.79
414.26	1427.73
414.45	1537.73
414.64	1488.58
414.83	1439.43
415.02	1584.54
415.22	1621.99
415.41	1535.39
415.60	1502.62
415.79	1614.97
415.98	1586.88
416.17	1732.00
416.36	1671.14
416.55	1638.38
416.74	1703.91
416.93	1631.35
417.12	1755.40
417.31	1788.17
417.50	1715.61
417.69	1856.04
417.88	1844.34
418.07	1734.34
418.26	1664.12
418.45	1891.15
418.64	1863.07
418.83	1746.04
419.02	1849.02
419.21	1792.85
419.39	1923.92
419.58	1872.43
419.77	1839.66
419.96	1874.77
420.15	1980.09
420.34	1886.47
420.53	1980.09
420.72	1914.56
420.91	1930.94
421.10	2026.90
421.29	2038.61
421.48	1926.26
421.67	2076.06
421.86	2038.61
422.05	2024.56
422.24	2043.29
422.43	2015.20
422.61	2132.23
422.80	2080.74
422.99	2148.61
423.18	2073.71
423.37	2169.68
423.56	2080.74
423.75	2094.78
423.94	2001.16
424.13	1966.05
424.32	2120.53
424.50	2008.18
424.69	2141.59
424.88	2132.23
425.07	2001.16
425.26	2005.84
425.45	2029.24
425.64	2174.36
425.83	2036.27
426.01	2195.42
426.20	2094.78
426.39	2099.46
426.58	2010.52
426.77	2090.10
426.96	2146.27
427.15	2113.50
427.33	2148.61
427.52	2120.53
427.71	2134.57
427.90	2223.51
428.09	2157.97
428.28	2232.87
428.46	2256.28
428.65	2349.90
428.84	2305.43
429.03	2406.07
429.22	2305.43
429.40	2244.57
429.59	2256.28
429.78	2277.34
429.97	2153.29
430.16	2289.04
430.34	2272.66
430.53	2366.28
430.72	2434.16
430.91	2356.92
431.10	2232.87
431.28	2483.31
431.47	2551.18
431.66	2452.88
431.85	2389.69
432.03	2520.76
432.22	2497.35
432.41	2476.29
432.60	2520.76
432.79	2525.44
432.97	2527.78
433.16	2495.01
433.35	2605.02
433.54	2630.76
433.72	2562.89
433.91	2644.81
434.10	2644.81
434.28	2546.50
434.47	2576.93
434.66	2609.70
434.85	2588.63
435.03	2612.04
435.22	2708.00
435.41	2794.60
435.59	2597.99
435.78	2754.81
435.97	2708.00
436.16	2705.66
436.34	2693.96
436.53	2853.11
436.72	2808.64
436.90	2864.82
437.09	2775.88
437.28	2799.28
437.46	2712.68
437.65	3002.91
437.84	2860.13
438.02	2820.35
438.21	2911.63
438.40	2780.56
438.58	3038.02
438.77	3002.91
438.96	2984.18
439.14	2958.44
439.33	3126.96
439.52	3056.74
439.70	3222.92
439.89	3108.23
440.08	2988.86
440.26	3220.58
440.45	3089.51
440.63	3218.24
440.82	3190.15
441.01	3276.75
441.19	3103.55
441.38	3239.30
441.57	3110.57
441.75	3276.75
441.94	3304.84
442.12	3328.24
442.31	3494.42
442.50	3426.54
442.68	3435.91
442.87	3454.63
443.05	3478.04
443.24	3529.53
443.43	3473.36
443.61	3604.42
443.80	3508.46
443.98	3515.48
444.17	3370.37
444.35	3536.55
444.54	3475.70
444.73	3480.38
444.91	3557.61
445.10	3496.76
445.28	3473.36
445.47	3489.74
445.65	3461.65
445.84	3487.40
446.02	3499.10
446.21	3466.33
446.39	3597.40
446.58	3581.02
446.77	3571.66
446.95	3541.23
447.14	3581.02
447.32	3735.50
447.51	3522.51
447.69	3599.74
447.88	3665.28
448.06	3747.20
448.25	3662.94
448.43	3571.66
448.62	3651.24
448.80	3520.17
448.99	3578.68
449.17	3667.62
449.36	3796.35
449.54	3871.25
449.73	3772.94
449.91	3765.92
450.10	3824.44
450.28	3889.97
450.46	3864.22
450.65	3817.41
450.83	3815.07
451.02	4037.42
451.20	3899.33
451.39	3894.65
451.57	3875.93
451.76	3889.97
451.94	3936.78
452.13	4011.68
452.31	3974.23
452.49	4032.74
452.68	3969.55
452.86	3957.85
453.05	4077.21
453.23	4102.96
453.42	4032.74
453.60	4095.94
453.78	4102.96
453.97	4056.15
454.15	4084.23
454.34	3974.23
454.52	4119.34
454.70	4131.05
454.89	4212.96
455.07	4187.22
455.26	4217.65
455.44	4095.94
455.62	4063.17
455.81	4236.37
455.99	4210.62
456.17	4318.29
456.36	4259.78
456.54	4259.78
456.73	4329.99
456.91	4428.29
457.09	4334.67
457.28	4533.62
457.46	4297.22
457.64	4393.19
457.83	4421.27
458.01	4367.44
458.19	4498.51
458.38	4465.74
458.56	4727.88
458.74	4533.62
458.93	4449.36
459.11	4552.34
459.29	4596.81
459.48	4564.04
459.66	4524.26
459.84	4660.01
460.03	4931.51
460.21	4641.28
460.39	4819.16
460.57	4620.22
460.76	4631.92
460.94	4842.57
461.12	4709.16
461.31	4746.61
461.49	4648.30
461.67	4695.11
461.85	4931.51
462.04	4819.16
462.22	5104.71
462.40	4882.36
462.59	4919.81
462.77	4940.87
462.95	4992.36
463.13	5001.72
463.32	4980.66
463.50	5060.24
463.68	4870.65
463.86	5088.32
464.05	4917.47
464.23	4901.08
464.41	5100.03
464.59	4964.28
464.78	5039.17
464.96	5043.85
465.14	5093.01
465.32	5107.05
465.50	5060.24
465.69	5149.18
465.87	5165.56
466.05	5137.48
466.23	5109.39
466.41	5322.38
466.60	5392.59
466.78	5331.74
466.96	5277.91
467.14	5186.63
467.32	5252.16
467.51	5310.68
467.69	5245.14
467.87	5214.71
468.05	5355.15
468.23	5439.40
468.41	5284.93
468.60	5261.52
468.78	5392.59
468.96	5357.49
469.14	5460.47
469.32	5530.69
469.50	5404.30
469.69	5479.19
469.87	5582.18
470.05	5570.48
470.23	5563.45
470.41	5432.38
470.59	5692.18
470.77	5486.22
470.95	5626.65
471.14	5710.91
471.32	5654.73
471.50	5715.59
471.68	5781.12
471.86	5923.90
472.04	5837.30
472.22	6008.16
472.40	5724.95
472.58	5963.68
472.77	5846.66
472.95	6069.01
473.13	6207.10
473.31	6076.03
473.49	6073.69
473.67	6040.92
473.85	6160.29
474.03	6132.20
474.21	6312.42
474.39	6179.01
474.57	6310.08
474.75	6356.90
474.93	6375.62
475.12	6487.96
475.30	6464.56
475.48	6532.44
475.66	6490.31
475.84	6298.38
476.02	6415.41
476.20	6609.67
476.38	6738.40
476.56	6817.98
476.74	6619.04
476.92	6719.68
477.10	6743.08
477.28	6801.60
477.46	6745.42
477.64	6932.67
477.82	6988.84
478.00	7080.12
478.18	7246.30
478.36	7110.55
478.54	7274.38
478.72	7208.85
478.90	7562.27
479.08	7323.54
479.26	7585.68
479.44	7585.68
479.62	7494.40
479.80	7676.96
479.98	7625.47
480.16	7847.82
480.34	7882.92
480.52	7934.42
480.70	7908.67
480.88	7859.52
481.06	7932.08
481.24	7932.08
481.41	8063.15
481.59	8159.11
481.77	8086.55
481.95	8341.67
482.13	8264.43
482.31	8341.67
482.49	8444.65
482.67	8538.27
482.85	8706.79
483.03	8997.02
483.21	8919.78
483.39	8926.80
483.57	8772.33
483.74	9146.81
483.92	9004.04
484.10	9057.87
484.28	9128.09
484.46	9284.91
484.64	9266.18
484.82	9308.31
485.00	9266.18
485.18	9423.00
485.35	9863.02
485.53	9659.39
485.71	9734.29
485.89	9949.62
486.07	9966.00
486.25	9797.48
486.43	9909.83
486.61	10076.01
486.78	10389.64
486.96	10274.95
487.14	10590.92
487.32	10373.25
487.50	10619.01
487.68	10417.72
487.85	10511.35
488.03	10679.86
488.21	10897.53
488.39	11068.39
488.57	10871.79
488.75	11012.22
488.92	11169.04
489.10	11337.56
489.28	11220.53
489.46	11515.44
489.64	11513.10
489.81	11695.66
489.99	11503.73
490.17	11590.33
490.35	11967.16
490.53	12119.29
490.70	12123.98
490.88	12262.07
491.06	12126.32
491.24	12184.83
491.41	12212.92
491.59	12241.00
491.77	12280.79
491.95	12383.77
492.13	12383.77
492.30	12608.47
492.48	12725.49
492.66	12737.20
492.84	12552.29
493.01	13221.69
493.19	13107.00
493.37	13114.02
493.54	13020.40
493.72	13149.13
493.90	13242.75
494.08	13509.57
494.25	13500.21
494.43	13451.06
494.61	13727.24
494.79	13804.48
494.96	13685.11
495.14	13862.99
495.32	13984.70
495.49	14029.17
495.67	14059.60
495.85	14155.56
496.02	14181.31
496.20	14338.12
496.38	14583.88
496.55	14448.13
496.73	14794.53
496.91	14513.66
497.09	14813.25
497.26	14740.69
497.44	14597.92
497.62	14864.74
497.79	15311.78
497.97	15124.54
498.14	15070.71
498.32	15119.86
498.50	15257.95
498.67	15510.73
498.85	15566.90
499.03	15782.23
499.20	15587.97
499.38	15501.37
499.56	15868.83
499.73	15562.22
499.91	15847.77
500.08	16081.82
500.26	15826.70
500.44	15992.88
500.61	16161.40
500.79	15932.03
500.97	16329.92
501.14	16563.97
501.32	16599.08
501.49	16184.80
501.67	16482.05
501.84	16570.99
502.02	16414.18
502.20	16620.14
502.37	16996.97
502.55	16940.80
502.72	16791.00
502.90	16610.78
503.07	16629.51
503.25	16809.73
503.43	16882.28
503.60	17259.11
503.78	16926.75
503.95	17006.33
504.13	17254.43
504.30	17099.95
504.48	17109.32
504.65	17336.35
504.83	17233.36
505.01	18026.81
505.18	17577.42
505.36	17666.36
505.53	17420.61
505.71	17680.41
505.88	17867.65
506.06	17652.32
506.23	17809.14
506.41	17972.97
506.58	17958.93
506.76	18064.25
506.93	18188.30
507.11	18237.45
507.28	18129.79
507.46	18286.61
507.63	18476.19
507.81	18525.34
507.98	18176.60
508.16	18464.49
508.33	18427.04
508.50	18382.57
508.68	18546.40
508.85	18860.04
509.03	18565.13
509.20	19019.19
509.38	19030.90
509.55	19391.34
509.73	18941.96
509.90	19276.65
510.08	18689.18
510.25	19049.62
510.42	19133.88
510.60	19358.57
510.77	19461.55
510.95	19332.82
511.12	19234.52
511.30	19365.59
511.47	19386.66
511.64	19391.34
511.82	19791.57
511.99	19590.28
512.17	19899.23
512.34	19754.12
512.51	19896.89
512.69	19967.11
512.86	19983.49
513.04	20046.69
513.21	20058.39
513.38	20042.01
513.56	20247.97
513.73	20203.50
513.90	20266.70
514.08	20425.86
514.25	20238.61
514.43	20573.31
514.60	20498.41
514.77	20697.36
514.95	20732.47
515.12	20439.90
515.29	20250.32
515.47	20575.65
515.64	20748.85
515.81	20678.63
515.99	21057.80
516.16	21090.57
516.33	20856.51
516.51	21010.99
516.68	20978.22
516.85	20980.56
517.03	21092.91
517.20	21160.78
517.37	21467.39
517.54	21621.87
517.72	21214.62
517.89	21261.43
518.06	21352.71
518.24	21406.54
518.41	21113.97
518.58	21640.59
518.75	21607.83
518.93	21319.94
519.10	21633.57
519.27	21930.82
519.45	21551.65
519.62	21975.29
519.79	21935.50
519.96	21762.30
520.14	21806.77
520.31	21893.37
520.48	22139.13
520.65	22022.10
520.83	22097.00
521.00	22389.56
521.17	21909.75
521.34	22408.29
521.52	22511.27
521.69	22113.38
521.86	22401.27
522.03	22703.20
522.20	22583.83
522.38	22618.94
522.55	22593.19
522.72	22473.82
522.89	22815.54
523.07	22897.46
523.24	22761.71
523.41	23026.19
523.58	22796.82
523.75	23126.83
523.92	22855.33
524.10	22923.21
524.27	23136.20
524.44	23246.20
524.61	23274.29
524.78	23396.00
524.96	23335.14
525.13	23150.24
525.30	23215.77
525.47	23386.63
525.64	23405.36
525.81	23557.49
525.98	23555.15
526.16	23571.54
526.33	23779.84
526.50	23894.53
526.67	23152.58
526.84	23424.08
527.01	23793.89
527.18	23807.93
527.36	24004.53
527.53	23922.62
527.70	24364.98
527.87	23709.63
528.04	24238.59
528.21	23992.83
528.38	23962.40
528.55	24133.26
528.72	23992.83
528.89	24285.40
529.07	24147.31
529.24	24161.35
529.41	24482.00
529.58	24166.03
529.75	24163.69
529.92	24402.43
530.09	24142.63
530.26	24563.92
530.43	24390.72
530.60	24570.94
530.77	24673.93
530.94	24704.35
531.11	24926.71
531.28	24482.00
531.46	24683.29
531.63	24802.66
531.80	25083.52
531.97	24802.66
532.14	24922.02
532.31	24952.45
532.48	24783.93
532.65	25071.82
532.82	24673.93
532.99	25127.99
533.16	24931.39
533.33	24992.24
533.50	25671.00
533.67	25308.21
533.84	25362.04
534.01	25195.87
534.18	25027.35
534.35	25142.03
534.52	25322.26
534.69	25614.82
534.86	25568.01
535.03	25226.29
535.20	25291.83
535.37	25764.62
535.54	25472.05
535.71	25415.88
535.88	25453.33
536.05	26040.80
536.22	25696.74
536.38	26342.73
536.55	25858.24
536.72	25731.85
536.89	25818.45
537.06	25706.10
537.23	26522.95
537.40	25628.87
537.57	26073.57
537.74	25773.98
537.91	26209.32
538.08	26225.70
538.25	26167.19
538.42	25984.63
538.59	26237.41
538.75	26188.25
538.92	26211.66
539.09	26555.72
539.26	26384.86
539.43	26316.98
539.60	26316.98
539.77	26335.71
539.94	26092.29
540.11	26249.11
540.28	26410.60
540.44	26742.96
540.61	26581.46
540.78	26878.71
540.95	26848.29
541.12	26906.80
541.29	26775.73
541.46	27117.45
541.62	27061.27
541.79	26827.22
541.96	26410.60
542.13	26759.34
542.30	26881.05
542.47	27295.33
542.63	27030.85
542.80	26986.38
542.97	27122.13
543.14	27234.47
543.31	27225.11
543.48	27208.73
543.64	27538.74
543.81	27438.10
543.98	27730.67
544.15	27531.72
544.32	27466.19
544.48	27569.17
544.65	27470.87
544.82	27466.19
544.99	27559.81
545.16	27693.22
545.32	27487.25
545.49	28133.24
545.66	27953.02
545.83	27723.65
546.00	27676.83
546.16	28276.01
546.33	27623.00
546.50	27466.19
546.67	27599.60
546.83	27388.95
547.00	27812.59
547.17	27770.46
547.34	28072.39
547.50	28283.03
547.67	28290.06
547.84	28175.37
548.00	27990.47
548.17	28587.30
548.34	28327.50
548.51	28278.35
548.67	28446.87
548.84	28699.65
549.01	28222.18
549.18	27981.10
549.34	28334.53
549.51	28364.95
549.68	27887.48
549.84	28133.24
550.01	28582.62
550.18	28201.11
550.34	28629.43
550.51	28444.53
550.68	28802.63
550.84	28208.14
551.01	28694.97
551.18	28563.90
551.34	28577.94
551.51	28355.59
551.68	28510.07
551.84	28907.96
552.01	28884.55
552.18	28622.41
552.34	28664.54
552.51	28561.56
552.68	28830.72
552.84	29158.39
553.01	29252.02
553.18	28959.45
553.34	29095.20
553.51	28945.41
553.67	29134.99
553.84	29413.51
554.01	28840.08
554.17	28938.38
554.34	29125.63
554.51	29032.00
554.67	29172.44
554.84	29336.27
555.00	29415.85
555.17	29338.62
555.33	29193.50
555.50	28907.96
555.67	29362.02
555.83	28952.43
556.00	29369.04
556.16	29687.36
556.33	29102.22
556.50	29280.10
556.66	29642.88
556.83	29453.30
556.99	29762.25
557.16	29907.37
557.32	29855.87
557.49	29905.02
557.65	29254.36
557.82	29432.24
557.98	29380.74
558.15	29820.77
558.32	29483.73
558.48	29666.29
558.65	29963.54
558.81	30000.99
558.98	29563.31
559.14	29806.72
559.31	29818.42
559.47	29689.70
559.64	29916.73
559.80	30043.12
559.97	29851.19
560.13	29465.00
560.30	29764.59
560.46	30115.67
560.63	30118.01
560.79	30005.67
560.96	30043.12
561.12	29858.21
561.29	30331.00
561.45	30113.33
561.61	30106.31
561.78	29893.32
561.94	30206.95
562.11	30031.41
562.27	30382.49
562.44	30176.53
562.60	30157.80
562.77	30092.27
562.93	29986.94
563.10	29802.04
563.26	30045.46
563.42	30799.11
563.59	29862.90
563.75	30452.71
563.92	30258.45
564.08	30066.52
564.24	30455.05
564.41	30164.82
564.57	30010.35
564.74	30529.95
564.90	30543.99
565.07	30373.13
565.23	30225.68
565.39	30543.99
565.56	30412.92
565.72	30108.65
565.88	30270.15
566.05	29982.26
566.21	30050.14
566.38	30204.61
566.54	30551.01
566.70	30494.84
566.87	30843.58
567.03	30588.46
567.19	30806.13
567.36	30565.06
567.52	30543.99
567.68	30281.85
567.85	30424.62
568.01	30707.83
568.17	30387.18
568.34	30682.08
568.50	30916.14
568.66	30831.88
568.83	30756.98
568.99	30586.12
569.15	30593.14
569.32	30583.78
569.48	30377.81
569.64	30466.75
569.81	30773.36
569.97	30548.67
570.13	30597.82
570.30	30441.01
570.46	30958.27
570.62	30831.88
570.78	30654.00
570.95	30693.79
571.11	31065.93
571.27	30745.28
571.43	30586.12
571.60	30644.63
571.76	30621.23
571.92	31077.63
572.09	30995.71
572.25	30976.99
572.41	30969.97
572.57	31194.66
572.74	30852.94
572.90	30480.80
573.06	30976.99
573.22	30693.79
573.38	31108.06
573.55	30345.05
573.71	31189.98
573.87	30845.92
574.03	30644.63
574.20	30827.20
574.36	30644.63
574.52	31112.74
574.68	30616.55
574.84	30672.72
575.01	30759.32
575.17	31072.95
575.33	31159.55
575.49	30829.54
575.65	31386.58
575.82	31115.08
575.98	30878.69
576.14	31007.42
576.30	30986.35
576.46	30693.79
576.62	31122.10
576.79	30967.63
576.95	30766.34
577.11	30951.24
577.27	31047.21
577.43	30946.56
577.59	30941.88
577.75	31166.57
577.92	30817.83
578.08	30984.01
578.24	30588.46
578.40	31028.48
578.56	30946.56
578.72	31023.80
578.88	31285.94
579.04	31555.10
579.21	31309.35
579.37	30960.61
579.53	31145.51
579.69	31084.65
579.85	30801.45
580.01	30773.36
580.17	30558.03
580.33	31136.15
580.49	31002.74
580.65	30871.67
580.82	31192.32
580.98	31187.64
581.14	30923.16
581.30	31349.14
581.46	31178.28
581.62	30829.54
581.78	30810.81
581.94	31079.97
582.10	30934.86
582.26	31089.34
582.42	31131.47
582.58	31484.89
582.74	31264.88
582.90	31189.98
583.06	30981.67
583.22	31009.76
583.38	31325.73
583.54	30972.31
583.70	30993.37
583.86	31185.30
584.02	30888.05
584.18	31295.30
584.34	31461.48
584.50	31232.11
584.66	31290.62
584.82	31269.56
584.98	31594.89
585.14	31089.34
585.30	31292.96
585.46	31353.82
585.62	30976.99
585.78	31133.81
585.94	30794.43
586.10	31049.55
586.26	31243.81
586.42	31501.27
586.58	31337.43
586.74	31325.73
586.90	31208.70
587.06	31063.59
587.22	31033.16
587.38	30920.82
587.54	31328.07
587.70	31646.38
587.86	31646.38
588.02	31941.29
588.18	31896.82
588.34	31505.95
588.49	31395.95
588.65	31058.91
588.81	31531.70
588.97	31459.14
589.13	31470.84
589.29	31178.28
589.45	31548.08
589.61	31372.54
589.77	32095.77
589.93	31585.53
590.08	31775.11
590.24	31665.11
590.40	31756.39
590.56	32098.11
590.72	31552.76
590.88	31302.32
591.04	31637.02
591.20	31854.69
591.35	31658.09
591.51	31875.76
591.67	31697.88
591.83	32065.34
