SpectraSuite Data File
++++++++++++++++++++++++++++++++++++
Date: Fri Oct 18 13:57:54 GMT-05:00 2013
User: bianchi
Dark Spectrum Present: No
Reference Spectrum Present: No
Number of Sampled Component Spectra: 1
Spectrometers: USB2+H05261
Integration Time (usec): 50000 (USB2+H05261)
Spectra Averaged: 1 (USB2+H05261)
Boxcar Smoothing: 0 (USB2+H05261)
Correct for Electrical Dark: No (USB2+H05261)
Strobe/Lamp Enabled: No (USB2+H05261)
Correct for Detector Non-linearity: No (USB2+H05261)
Correct for Stray Light: No (USB2+H05261)
Number of Pixels in Processed Spectrum: 2048
>>>>>Begin Processed Spectral Data<<<<<
365.73	0.00
365.92	0.00
366.12	0.00
366.32	0.00
366.52	0.00
366.72	0.00
366.91	0.00
367.11	0.00
367.31	0.00
367.51	0.00
367.70	0.00
367.90	0.00
368.10	0.00
368.30	0.00
368.49	0.00
368.69	0.00
368.89	0.00
369.09	0.00
369.28	0.00
369.48	0.00
369.68	0.00
369.87	0.00
370.07	0.00
370.27	0.00
370.47	0.00
370.66	53.83
370.86	105.32
371.06	112.35
371.25	149.79
371.45	100.64
371.65	119.37
371.84	77.24
372.04	142.77
372.24	149.79
372.44	147.45
372.63	135.75
372.83	182.56
373.03	252.78
373.22	182.56
373.42	194.26
373.62	154.48
373.81	231.71
374.01	205.97
374.21	271.50
374.40	259.80
374.60	227.03
374.79	255.12
374.99	304.27
375.19	217.67
375.38	203.63
375.58	205.97
375.78	266.82
375.97	238.73
376.17	353.42
376.37	212.99
376.56	299.59
376.76	241.08
376.95	231.71
377.15	227.03
377.35	276.18
377.54	280.86
377.74	287.89
377.93	264.48
378.13	271.50
378.33	304.27
378.52	243.42
378.72	287.89
378.91	273.84
379.11	189.58
379.31	290.23
379.50	346.40
379.70	327.68
379.89	287.89
380.09	283.20
380.28	276.18
380.48	297.25
380.68	259.80
380.87	257.46
381.07	351.08
381.26	334.70
381.46	290.23
381.65	383.85
381.85	383.85
382.04	337.04
382.24	430.66
382.43	322.99
382.63	341.72
382.83	397.89
383.02	407.25
383.22	418.96
383.41	327.68
383.61	348.74
383.80	353.42
384.00	365.12
384.19	351.08
384.39	381.51
384.58	395.55
384.78	348.74
384.97	472.79
385.17	440.02
385.36	374.49
385.56	451.72
385.75	386.19
385.95	351.08
386.14	477.47
386.34	463.43
386.53	440.02
386.72	341.72
386.92	489.17
387.11	433.00
387.31	461.09
387.50	397.89
387.70	468.11
387.89	428.32
388.09	402.57
388.28	409.59
388.48	510.24
388.67	444.70
388.86	440.02
389.06	472.79
389.25	557.05
389.45	533.64
389.64	449.38
389.84	454.06
390.03	393.21
390.22	437.68
390.42	489.17
390.61	521.94
390.81	484.49
391.00	500.87
391.19	526.62
391.39	533.64
391.58	491.51
391.78	561.73
391.97	575.77
392.16	533.64
392.36	638.97
392.55	528.96
392.75	550.03
392.94	634.29
393.13	629.60
393.33	498.53
393.52	629.60
393.71	634.29
393.91	571.09
394.10	552.37
394.29	552.37
394.49	669.39
394.68	566.41
394.88	592.16
395.07	561.73
395.26	573.43
395.46	599.18
395.65	664.71
395.84	660.03
396.04	695.14
396.23	629.60
396.42	664.71
396.62	720.88
396.81	624.92
397.00	709.18
397.19	657.69
397.39	603.86
397.58	697.48
397.77	662.37
397.97	667.05
398.16	699.82
398.35	741.95
398.55	734.93
398.74	753.65
398.93	718.54
399.12	755.99
399.32	692.80
399.51	760.67
399.70	723.23
399.90	683.44
400.09	851.96
400.28	812.17
400.47	746.63
400.67	856.64
400.86	807.48
401.05	814.51
401.24	793.44
401.44	889.40
401.63	755.99
401.82	828.55
402.01	791.10
402.21	823.87
402.40	877.70
402.59	823.87
402.78	873.02
402.97	922.17
403.17	861.32
403.36	828.55
403.55	847.27
403.74	940.90
403.93	816.85
404.13	908.13
404.32	912.81
404.51	1006.43
404.70	966.64
404.89	903.45
405.09	1018.13
405.28	1015.79
405.47	983.02
405.66	1006.43
405.85	1020.47
406.05	1050.90
406.24	1043.88
406.43	976.00
406.62	1020.47
406.81	1027.50
407.00	1039.20
407.20	1048.56
407.39	1076.65
407.58	1118.78
407.77	1046.22
407.96	1053.24
408.15	1046.22
408.34	1043.88
408.54	1097.71
408.73	1071.97
408.92	1116.44
409.11	1181.97
409.30	1102.39
409.49	1125.80
409.68	1165.59
409.87	1153.88
410.07	1219.42
410.26	1266.23
410.45	1249.85
410.64	1263.89
410.83	1275.59
411.02	1221.76
411.21	1376.24
411.40	1289.64
411.59	1299.00
411.78	1313.04
411.98	1366.87
412.17	1296.66
412.36	1338.79
412.55	1275.59
412.74	1460.49
412.93	1493.26
413.12	1355.17
413.31	1306.02
413.50	1406.66
413.69	1306.02
413.88	1394.96
414.07	1516.67
414.26	1458.15
414.45	1568.16
414.64	1542.41
414.83	1614.97
415.02	1495.60
415.22	1446.45
415.41	1582.20
415.60	1657.10
415.79	1593.90
415.98	1558.80
416.17	1565.82
416.36	1497.94
416.55	1624.33
416.74	1652.42
416.93	1703.91
417.12	1640.72
417.31	1717.95
417.50	1743.70
417.69	1851.36
417.88	1764.76
418.07	1727.32
418.26	1799.87
418.45	1851.36
418.64	1788.17
418.83	1781.15
419.02	1858.39
419.21	1781.15
419.39	1839.66
419.58	1778.81
419.77	1895.83
419.96	1970.73
420.15	1989.46
420.34	1877.11
420.53	1879.45
420.72	1919.24
420.91	2024.56
421.10	2029.24
421.29	1926.26
421.48	1940.30
421.67	2090.10
421.86	1980.09
422.05	1994.14
422.24	1954.35
422.43	2108.82
422.61	1949.67
422.80	1975.41
422.99	2064.35
423.18	1952.01
423.37	2073.71
423.56	2015.20
423.75	2054.99
423.94	2036.27
424.13	1888.81
424.32	1944.99
424.50	2043.29
424.69	2129.89
424.88	2113.50
425.07	2038.61
425.26	2015.20
425.45	2031.58
425.64	2078.40
425.83	2069.03
426.01	2059.67
426.20	2106.48
426.39	2087.76
426.58	2165.00
426.77	2249.25
426.96	2214.15
427.15	2108.82
427.33	2113.50
427.52	2209.47
427.71	2157.97
427.90	2190.74
428.09	2181.38
428.28	2104.14
428.46	2132.23
428.65	2232.87
428.84	2335.85
429.03	2305.43
429.22	2263.30
429.40	2298.41
429.59	2333.51
429.78	2211.81
429.97	2160.31
430.16	2249.25
430.34	2289.04
430.53	2286.70
430.72	2342.88
430.91	2312.45
431.10	2359.26
431.28	2392.03
431.47	2466.92
431.66	2410.75
431.85	2239.89
432.03	2450.54
432.22	2443.52
432.41	2555.86
432.60	2452.88
432.79	2434.16
432.97	2597.99
433.16	2551.18
433.35	2530.12
433.54	2626.08
433.72	2590.97
433.91	2670.55
434.10	2551.18
434.28	2471.61
434.47	2513.74
434.66	2670.55
434.85	2679.91
435.03	2661.19
435.22	2736.09
435.41	2668.21
435.59	2715.02
435.78	2698.64
435.97	2635.44
436.16	2651.83
436.34	2782.90
436.53	2794.60
436.72	2808.64
436.90	2693.96
437.09	2803.96
437.28	2813.32
437.46	2920.99
437.65	2792.26
437.84	2850.77
438.02	2825.03
438.21	3002.91
438.40	2892.90
438.58	2951.42
438.77	2967.80
438.96	2815.66
439.14	2883.54
439.33	2904.60
439.52	2942.05
439.70	3030.99
439.89	3087.17
440.08	3141.00
440.26	3220.58
440.45	3126.96
440.63	3129.30
440.82	3173.77
441.01	3183.13
441.19	3162.06
441.38	3321.22
441.57	3311.86
441.75	3339.94
441.94	3342.28
442.12	3386.76
442.31	3403.14
442.50	3538.89
442.68	3330.58
442.87	3541.23
443.05	3435.91
443.24	3480.38
443.43	3424.20
443.61	3487.40
443.80	3524.85
443.98	3358.67
444.17	3274.41
444.35	3466.33
444.54	3496.76
444.73	3606.77
444.91	3571.66
445.10	3403.14
445.28	3557.61
445.47	3456.97
445.65	3323.56
445.84	3506.12
446.02	3644.21
446.21	3459.31
446.39	3616.13
446.58	3660.60
446.77	3527.19
446.95	3620.81
447.14	3599.74
447.32	3618.47
447.51	3669.96
447.69	3581.02
447.88	3454.63
448.06	3555.27
448.25	3571.66
448.43	3660.60
448.62	3604.42
448.80	3517.83
448.99	3695.71
449.17	3723.79
449.36	3655.92
449.54	3728.47
449.73	3733.15
449.91	3838.48
450.10	3857.20
450.28	3721.45
450.46	3845.50
450.65	3756.56
450.83	3852.52
451.02	3868.91
451.20	3847.84
451.39	3978.91
451.57	3836.14
451.76	3974.23
451.94	3817.41
452.13	3983.59
452.31	3950.82
452.49	3927.42
452.68	3920.40
452.86	3894.65
453.05	4009.34
453.23	4138.07
453.42	3941.46
453.60	3964.87
453.78	4009.34
453.97	4009.34
454.15	4014.02
454.34	3957.85
454.52	4091.26
454.70	4124.02
454.89	4046.79
455.07	4203.60
455.26	4142.75
455.44	4266.80
455.62	4231.69
455.81	4128.70
455.99	4259.78
456.17	4250.41
456.36	4259.78
456.54	4432.97
456.73	4360.42
456.91	4393.19
457.09	4454.04
457.28	4557.02
457.46	4486.81
457.64	4400.21
457.83	4496.17
458.01	4287.86
458.19	4559.36
458.38	4454.04
458.56	4545.32
458.74	4484.47
458.93	4374.46
459.11	4432.97
459.29	4526.60
459.48	4568.73
459.66	4571.07
459.84	4498.51
460.03	4631.92
460.21	4676.39
460.39	4762.99
460.57	4645.96
460.76	4631.92
460.94	4720.86
461.12	4786.40
461.31	4746.61
461.49	4643.62
461.67	4690.43
461.85	4851.93
462.04	4924.49
462.22	4990.02
462.40	4973.64
462.59	4959.60
462.77	4983.00
462.95	5027.47
463.13	4929.17
463.32	4901.08
463.50	4926.83
463.68	4919.81
463.86	4999.38
464.05	4863.63
464.23	4978.32
464.41	4994.70
464.59	4912.78
464.78	5109.39
464.96	5242.80
465.14	4980.66
465.32	5025.13
465.50	5149.18
465.69	5226.42
465.87	4950.23
466.05	5139.82
466.23	5170.24
466.41	5102.37
466.60	5210.03
466.78	5191.31
466.96	5380.89
467.14	5247.48
467.32	5200.67
467.51	5322.38
467.69	5020.45
467.87	5298.97
468.05	5282.59
468.23	5224.08
468.41	5217.05
468.60	5219.39
468.78	5406.64
468.96	5366.85
469.14	5430.04
469.32	5502.60
469.50	5427.70
469.69	5488.56
469.87	5624.31
470.05	5479.19
470.23	5535.37
470.41	5544.73
470.59	5511.96
470.77	5603.24
470.95	5748.36
471.14	5804.53
471.32	5502.60
471.50	5614.95
471.68	5724.95
471.86	5750.70
472.04	5736.65
472.22	5966.03
472.40	5783.46
472.58	5870.06
472.77	5902.83
472.95	5982.41
473.13	6141.57
473.31	6076.03
473.49	5991.77
473.67	6050.28
473.85	6097.10
474.03	6094.76
474.21	6141.57
474.39	6345.19
474.57	6319.45
474.75	6314.77
474.93	6282.00
475.12	6310.08
475.30	6228.17
475.48	6384.98
475.66	6370.94
475.84	6298.38
476.02	6551.16
476.20	6537.12
476.38	6607.33
476.56	6871.81
476.74	6963.09
476.92	6668.19
477.10	6743.08
477.28	6937.35
477.46	6593.29
477.64	6810.96
477.82	6944.37
478.00	7253.32
478.18	7070.76
478.36	7101.19
478.54	7180.76
478.72	7440.56
478.90	7461.63
479.08	7250.98
479.26	7454.61
479.44	7513.12
479.62	7414.82
479.80	7524.82
479.98	7653.55
480.16	7723.77
480.34	7573.97
480.52	7742.49
480.70	7688.66
480.88	7871.22
481.06	7847.82
481.24	7789.30
481.41	8126.34
481.59	8175.49
481.77	8231.66
481.95	8219.96
482.13	8224.64
482.31	8297.20
482.49	8468.06
482.67	8564.02
482.85	8650.62
483.03	8683.39
483.21	8891.70
483.39	8919.78
483.57	8674.03
483.74	9114.05
483.92	9057.87
484.10	9158.52
484.28	8975.95
484.46	9240.44
484.64	9511.94
484.82	9245.12
485.00	9167.88
485.18	9373.85
485.35	9671.09
485.53	9680.46
485.71	9776.42
485.89	9792.80
486.07	10038.56
486.25	9870.04
486.43	9930.89
486.61	9961.32
486.78	10263.25
486.96	10270.27
487.14	10499.64
487.32	10349.85
487.50	10406.02
487.68	10696.25
487.85	10710.29
488.03	10729.02
488.21	10841.36
488.39	10984.13
488.57	11096.48
488.75	11042.65
488.92	10932.64
489.10	11023.92
489.28	11126.91
489.46	11386.71
489.64	11243.93
489.81	11723.74
489.99	11721.40
490.17	11417.13
490.35	11943.75
490.53	11761.19
490.70	12180.15
490.88	12009.29
491.06	12222.28
491.24	12112.27
491.41	12182.49
491.59	12341.64
491.77	12442.29
491.95	12435.27
492.13	12587.40
492.30	12648.26
492.48	12479.74
492.66	12482.08
492.84	12662.30
493.01	13027.42
493.19	12669.32
493.37	13135.09
493.54	13111.68
493.72	13095.30
493.90	13266.16
494.08	13355.10
494.25	13605.53
494.43	13387.86
494.61	13823.20
494.79	13642.98
494.96	13659.37
495.14	13785.76
495.32	13846.61
495.49	13991.72
495.67	13956.61
495.85	14050.24
496.02	14188.33
496.20	14342.80
496.38	14232.80
496.55	14277.27
496.73	14565.15
496.91	14527.71
497.09	14581.54
497.26	14785.16
497.44	14813.25
497.62	14843.68
497.79	15115.18
497.97	14883.47
498.14	15227.53
498.32	15208.80
498.50	15351.57
498.67	15599.67
498.85	15332.85
499.03	15440.51
499.20	15309.44
499.38	15234.55
499.56	15604.35
499.73	15496.69
499.91	15786.91
500.08	16011.60
500.26	15559.88
500.44	15932.03
500.61	15936.71
500.79	15845.43
500.97	16135.65
501.14	16456.31
501.32	16411.84
501.49	16091.18
501.67	16215.23
501.84	16320.56
502.02	16374.39
502.20	16360.34
502.37	16568.65
502.55	16648.23
502.72	16842.50
502.90	16678.66
503.07	16517.16
503.25	16830.79
503.43	16542.91
503.60	17221.66
503.78	17224.00
503.95	16973.56
504.13	17048.46
504.30	17434.65
504.48	17097.61
504.65	17200.60
504.83	17385.50
505.01	17516.57
505.18	17696.79
505.36	17771.69
505.53	17486.14
505.71	17694.45
505.88	17376.14
506.06	17713.17
506.23	17949.57
506.41	17954.25
506.58	17614.87
506.76	17874.67
506.93	17727.22
507.11	17898.08
507.28	18237.45
507.46	17958.93
507.63	18029.15
507.81	18122.77
507.98	18492.57
508.16	18338.10
508.33	18387.25
508.50	18553.43
508.68	18572.15
508.85	18607.26
509.03	18860.04
509.20	18815.57
509.38	18731.31
509.55	18951.32
509.73	18726.63
509.90	19040.26
510.08	18738.33
510.25	19295.38
510.42	18927.91
510.60	19016.85
510.77	19337.51
510.95	19213.46
511.12	19295.38
511.30	19213.46
511.47	19555.18
511.64	19594.96
511.82	19536.45
511.99	19262.61
512.17	19709.65
512.34	19447.51
512.51	20142.65
512.69	19403.04
512.86	19726.04
513.04	20088.82
513.21	19873.49
513.38	19864.13
513.56	20163.72
513.73	20182.44
513.90	20046.69
514.08	20245.63
514.25	20259.68
514.43	20231.59
514.60	20659.91
514.77	20215.21
514.95	20400.11
515.12	20240.95
515.29	20325.21
515.47	20442.24
515.64	20456.28
515.81	20559.27
515.99	20760.55
516.16	20676.29
516.33	20739.49
516.51	20870.56
516.68	20718.42
516.85	20959.50
517.03	21036.74
517.20	21177.17
517.37	20734.81
517.54	21240.36
517.72	21493.14
517.89	21355.05
518.06	21319.94
518.24	21254.40
518.41	21467.39
518.58	21488.46
518.75	21315.26
518.93	21357.39
519.10	21439.31
519.27	21291.85
519.45	21380.79
519.62	21425.26
519.79	21778.68
519.96	21390.16
520.14	21984.65
520.31	21769.32
520.48	21947.20
520.65	21851.24
520.83	21694.43
521.00	22291.26
521.17	21905.07
521.34	22022.10
521.52	22335.73
521.69	22190.62
521.86	22600.21
522.03	22670.43
522.20	22422.33
522.38	22724.26
522.55	22504.25
522.72	22565.10
522.89	22789.80
523.07	22810.86
523.24	22810.86
523.41	22958.31
523.58	22686.81
523.75	22920.87
523.92	22712.56
524.10	22796.82
524.27	23035.55
524.44	23285.99
524.61	23515.36
524.78	23346.84
524.96	23157.26
525.13	23211.09
525.30	23295.35
525.47	23396.00
525.64	23150.24
525.81	23248.54
525.98	23508.34
526.16	23510.68
526.33	23716.65
526.50	23672.18
526.67	23456.85
526.84	23791.55
527.01	23435.78
527.18	23386.63
527.36	23859.42
527.53	23962.40
527.70	23943.68
527.87	24159.01
528.04	23929.64
528.21	23709.63
528.38	23824.31
528.55	23899.21
528.72	23906.23
528.89	24208.16
529.07	24159.01
529.24	23936.66
529.41	24346.25
529.58	24039.64
529.75	24496.05
529.92	24053.69
530.09	24109.86
530.26	24592.01
530.43	24446.90
530.60	24231.57
530.77	24374.34
530.94	24273.70
531.11	24072.41
531.28	24500.73
531.46	24397.74
531.63	24678.61
531.80	24807.34
531.97	24954.79
532.14	24907.98
532.31	24755.85
532.48	24741.80
532.65	24903.30
532.82	24823.72
532.99	24854.15
533.16	24767.55
533.33	25104.59
533.50	25575.03
533.67	25226.29
533.84	24957.13
534.01	25027.35
534.18	24926.71
534.35	25233.32
534.52	25308.21
534.69	25652.27
534.86	25577.37
535.03	25511.84
535.20	25238.00
535.37	25539.93
535.54	25483.75
535.71	25238.00
535.88	25771.64
536.05	25486.09
536.22	25773.98
536.38	25591.42
536.55	25844.20
536.72	25359.70
536.89	25509.50
537.06	25619.50
537.23	25886.32
537.40	25638.23
537.57	25729.51
537.74	25926.11
537.91	26204.64
538.08	25834.83
538.25	25919.09
538.42	25881.64
538.59	25970.58
538.75	26005.69
538.92	25970.58
539.09	26249.11
539.26	26103.99
539.43	26239.75
539.60	26036.12
539.77	26457.42
539.94	26366.13
540.11	26300.60
540.28	26642.32
540.44	26352.09
540.61	26829.56
540.78	26326.35
540.95	26466.78
541.12	26649.34
541.29	26604.87
541.46	26487.84
541.62	26401.24
541.79	26574.44
541.96	26239.75
542.13	26672.74
542.30	26405.92
542.47	27138.51
542.63	27054.25
542.80	26927.86
542.97	27384.27
543.14	27255.54
543.31	27161.92
543.48	27218.09
543.64	27248.52
543.81	27332.78
543.98	27534.06
544.15	27498.95
544.32	27213.41
544.48	27653.43
544.65	27201.71
544.82	27330.44
544.99	27058.93
545.16	27260.22
545.32	27328.10
545.49	27573.85
545.66	27915.57
545.83	27573.85
546.00	27955.36
546.16	27859.40
546.33	27632.36
546.50	27496.61
546.67	27606.62
546.83	27241.50
547.00	27700.24
547.17	27417.04
547.34	27700.24
547.50	28016.21
547.67	28081.75
547.84	27751.73
548.00	27725.99
548.17	28109.83
548.34	28009.19
548.51	28173.03
548.67	28149.62
548.84	28439.85
549.01	28079.41
549.18	28353.25
549.34	27969.40
549.51	28341.55
549.68	28292.40
549.84	28088.77
550.01	28353.25
550.18	27964.72
550.34	28397.72
550.51	28411.76
550.68	28622.41
550.84	28304.10
551.01	28472.62
551.18	28233.88
551.34	28198.77
551.51	28725.39
551.68	28683.27
551.84	28889.23
552.01	28837.74
552.18	28521.77
552.34	28467.94
552.51	28645.82
552.68	28748.80
552.84	28645.82
553.01	28526.45
553.18	28533.47
553.34	28811.99
553.51	28730.08
553.67	28856.46
553.84	29027.32
554.01	29165.42
554.17	29053.07
554.34	29315.21
554.51	28992.22
554.67	28919.66
554.84	28943.06
555.00	28898.59
555.17	29083.50
555.33	29167.76
555.50	28879.87
555.67	29160.73
555.83	29273.08
556.00	29064.77
556.16	29319.89
556.33	29130.31
556.50	29017.96
556.66	29593.73
556.83	29500.11
556.99	29549.26
557.16	29476.71
557.32	29483.73
557.49	29511.81
557.65	28940.72
557.82	29078.82
557.98	29366.70
558.15	29411.17
558.32	29371.38
558.48	29514.16
558.65	29715.44
558.81	29535.22
558.98	29567.99
559.14	29631.18
559.31	29418.19
559.47	29586.71
559.64	29514.16
559.80	29769.27
559.97	29495.43
560.13	29448.62
560.30	29741.19
560.46	29923.75
560.63	30120.35
560.79	29685.01
560.96	29944.81
561.12	29521.18
561.29	29567.99
561.45	29935.45
561.61	30099.29
561.78	30122.69
561.94	30122.69
562.11	29944.81
562.27	29813.74
562.44	29743.53
562.60	29703.74
562.77	29755.23
562.93	29750.55
563.10	30192.91
563.26	30246.74
563.42	30129.72
563.59	30078.22
563.75	30005.67
563.92	30382.49
564.08	29809.06
564.24	29949.50
564.41	29830.13
564.57	29425.22
564.74	30118.01
564.90	30551.01
565.07	30391.86
565.23	30150.78
565.39	30106.31
565.56	30576.76
565.72	30071.20
565.88	30286.53
566.05	29947.15
566.21	30099.29
566.38	30103.97
566.54	29738.85
566.70	30452.71
566.87	30321.64
567.03	30548.67
567.19	30597.82
567.36	30323.98
567.52	30438.67
567.68	30628.25
567.85	30134.40
568.01	30773.36
568.17	30408.24
568.34	30951.24
568.50	30581.44
568.66	30267.81
568.83	30295.89
568.99	30206.95
569.15	30602.50
569.32	30497.18
569.48	30071.20
569.64	30375.47
569.81	30204.61
569.97	30689.10
570.13	30558.03
570.30	30171.85
570.46	30230.36
570.62	30522.93
570.78	30536.97
570.95	30319.30
571.11	30700.81
571.27	30125.04
571.43	30700.81
571.60	30689.10
571.76	30668.04
571.92	30443.35
572.09	30984.01
572.25	30923.16
572.41	30658.68
572.57	30436.33
572.74	30808.47
572.90	30197.59
573.06	30408.24
573.22	30368.45
573.38	30883.37
573.55	30579.10
573.71	31129.12
573.87	30686.76
574.03	30874.01
574.20	30560.37
574.36	30560.37
574.52	30785.07
574.68	30726.55
574.84	30300.58
575.01	30658.68
575.17	31255.51
575.33	30558.03
575.49	30941.88
575.65	30672.72
575.82	30656.34
575.98	30600.16
576.14	30588.46
576.30	30740.60
576.46	30448.03
576.62	30204.61
576.79	30764.00
576.95	30497.18
577.11	30670.38
577.27	31234.45
577.43	30698.47
577.59	30969.97
577.75	30967.63
577.92	30756.98
578.08	30590.80
578.24	30768.68
578.40	30948.90
578.56	30368.45
578.72	30876.35
578.88	30976.99
579.04	31119.76
579.21	30586.12
579.37	30881.03
579.53	30995.71
579.69	30862.30
579.85	31030.82
580.01	30871.67
580.17	30590.80
580.33	31147.85
580.49	30733.57
580.65	31002.74
580.82	31040.18
580.98	31150.19
581.14	30874.01
581.30	31232.11
581.46	30848.26
581.62	30651.66
581.78	30642.29
581.94	30649.32
582.10	30815.49
582.26	30948.90
582.42	31569.15
582.58	30981.67
582.74	30911.46
582.90	31143.17
583.06	31014.44
583.22	31108.06
583.38	30836.56
583.54	30897.41
583.70	30794.43
583.86	30848.26
584.02	31070.61
584.18	30918.48
584.34	31007.42
584.50	31377.22
584.66	31201.68
584.82	30752.30
584.98	31377.22
585.14	31215.72
585.30	30288.87
585.46	30866.98
585.62	31248.49
585.78	30813.15
585.94	31150.19
586.10	31213.38
586.26	31009.76
586.42	31105.72
586.58	31016.78
586.74	31248.49
586.90	30974.65
587.06	30518.25
587.22	31028.48
587.38	30897.41
587.54	31395.95
587.70	31255.51
587.86	31307.01
588.02	31295.30
588.18	31700.22
588.34	31311.69
588.49	31545.74
588.65	30459.73
588.81	31054.23
588.97	31070.61
589.13	31005.08
589.29	31309.35
589.45	31262.54
589.61	31309.35
589.77	31555.10
589.93	31417.01
590.08	31351.48
590.24	31161.89
590.40	31262.54
590.56	31622.98
590.72	31407.65
590.88	31290.62
591.04	30803.79
591.20	31634.68
591.35	31393.61
591.51	31747.03
591.67	31644.04
591.83	31587.87
