SpectraSuite Data File
++++++++++++++++++++++++++++++++++++
Date: Fri Oct 18 13:58:42 GMT-05:00 2013
User: bianchi
Dark Spectrum Present: No
Reference Spectrum Present: No
Number of Sampled Component Spectra: 1
Spectrometers: USB2+H05261
Integration Time (usec): 50000 (USB2+H05261)
Spectra Averaged: 1 (USB2+H05261)
Boxcar Smoothing: 0 (USB2+H05261)
Correct for Electrical Dark: No (USB2+H05261)
Strobe/Lamp Enabled: No (USB2+H05261)
Correct for Detector Non-linearity: No (USB2+H05261)
Correct for Stray Light: No (USB2+H05261)
Number of Pixels in Processed Spectrum: 2048
>>>>>Begin Processed Spectral Data<<<<<
365.73	0.00
365.92	0.00
366.12	0.00
366.32	0.00
366.52	0.00
366.72	0.00
366.91	0.00
367.11	0.00
367.31	0.00
367.51	0.00
367.70	0.00
367.90	0.00
368.10	0.00
368.30	0.00
368.49	0.00
368.69	0.00
368.89	0.00
369.09	0.00
369.28	0.00
369.48	0.00
369.68	0.00
369.87	0.00
370.07	0.00
370.27	0.00
370.47	0.00
370.66	95.96
370.86	114.69
371.06	93.62
371.25	100.64
371.45	93.62
371.65	86.60
371.84	135.75
372.04	138.09
372.24	105.32
372.44	196.60
372.63	175.54
372.83	152.13
373.03	238.73
373.22	159.16
373.42	238.73
373.62	210.65
373.81	229.37
374.01	262.14
374.21	196.60
374.40	194.26
374.60	231.71
374.79	255.12
374.99	220.01
375.19	231.71
375.38	362.78
375.58	278.52
375.78	264.48
375.97	276.18
376.17	278.52
376.37	212.99
376.56	255.12
376.76	208.31
376.95	220.01
377.15	259.80
377.35	285.55
377.54	283.20
377.74	264.48
377.93	311.29
378.13	276.18
378.33	255.12
378.52	222.35
378.72	271.50
378.91	205.97
379.11	301.93
379.31	222.35
379.50	231.71
379.70	266.82
379.89	241.08
380.09	287.89
380.28	308.95
380.48	327.68
380.68	339.38
380.87	320.65
381.07	318.31
381.26	360.44
381.46	346.40
381.65	383.85
381.85	278.52
382.04	292.57
382.24	327.68
382.43	285.55
382.63	313.63
382.83	327.68
383.02	367.46
383.22	334.70
383.41	341.72
383.61	376.83
383.80	376.83
384.00	416.62
384.19	390.87
384.39	397.89
384.58	369.80
384.78	404.91
384.97	395.55
385.17	348.74
385.36	383.85
385.56	447.04
385.75	416.62
385.95	383.85
386.14	428.32
386.34	337.04
386.53	449.38
386.72	416.62
386.92	397.89
387.11	545.34
387.31	386.19
387.50	337.04
387.70	442.36
387.89	374.49
388.09	435.34
388.28	402.57
388.48	451.72
388.67	463.43
388.86	442.36
389.06	449.38
389.25	519.60
389.45	484.49
389.64	500.87
389.84	484.49
390.03	531.30
390.22	543.00
390.42	461.09
390.61	486.83
390.81	465.77
391.00	470.45
391.19	503.22
391.39	547.69
391.58	475.13
391.78	505.56
391.97	582.79
392.16	491.51
392.36	557.05
392.55	575.77
392.75	531.30
392.94	414.27
393.13	543.00
393.33	507.90
393.52	561.73
393.71	503.22
393.91	550.03
394.10	582.79
394.29	503.22
394.49	566.41
394.68	594.50
394.88	566.41
395.07	608.54
395.26	624.92
395.46	631.94
395.65	627.26
395.84	617.90
396.04	596.84
396.23	674.07
396.42	667.05
396.62	674.07
396.81	589.82
397.00	634.29
397.19	660.03
397.39	720.88
397.58	627.26
397.77	620.24
397.97	624.92
398.16	648.33
398.35	704.50
398.55	702.16
398.74	697.48
398.93	725.57
399.12	697.48
399.32	746.63
399.51	690.46
399.70	674.07
399.90	823.87
400.09	720.88
400.28	837.91
400.47	791.10
400.67	765.36
400.86	795.78
401.05	765.36
401.24	868.34
401.44	830.89
401.63	828.55
401.82	863.66
402.01	828.55
402.21	805.14
402.40	828.55
402.59	807.48
402.78	835.57
402.97	842.59
403.17	896.43
403.36	772.38
403.55	908.13
403.74	976.00
403.93	924.51
404.13	933.87
404.32	889.40
404.51	887.06
404.70	931.53
404.89	884.72
405.09	964.30
405.28	980.68
405.47	924.51
405.66	870.68
405.85	938.55
406.05	1069.62
406.24	966.64
406.43	1020.47
406.62	959.62
406.81	1050.90
407.00	1088.35
407.20	1053.24
407.39	1039.20
407.58	947.92
407.77	976.00
407.96	1090.69
408.15	1107.07
408.34	1144.52
408.54	1034.52
408.73	1090.69
408.92	1121.12
409.11	1160.91
409.30	1163.25
409.49	1093.03
409.68	1116.44
409.87	1116.44
410.07	1142.18
410.26	1156.22
410.45	1184.31
410.64	1252.19
410.83	1174.95
411.02	1240.48
411.21	1275.59
411.40	1263.89
411.59	1345.81
411.78	1287.29
411.98	1263.89
412.17	1296.66
412.36	1280.27
412.55	1245.16
412.74	1261.55
412.93	1357.51
413.12	1308.36
413.31	1441.77
413.50	1277.93
413.69	1383.26
413.88	1376.24
414.07	1483.90
414.26	1504.96
414.45	1432.41
414.64	1399.64
414.83	1458.15
415.02	1488.58
415.22	1551.78
415.41	1558.80
415.60	1542.41
415.79	1544.75
415.98	1547.09
416.17	1645.40
416.36	1619.65
416.55	1589.22
416.74	1633.69
416.93	1586.88
417.12	1764.76
417.31	1671.14
417.50	1577.52
417.69	1741.36
417.88	1727.32
418.07	1680.50
418.26	1685.19
418.45	1774.13
418.64	1827.96
418.83	1755.40
419.02	1755.40
419.21	1834.98
419.39	1699.23
419.58	1811.57
419.77	1856.04
419.96	1820.94
420.15	1872.43
420.34	1926.26
420.53	1879.45
420.72	1959.03
420.91	1923.92
421.10	1926.26
421.29	1928.60
421.48	1846.68
421.67	1952.01
421.86	1849.02
422.05	1870.09
422.24	1937.96
422.43	1940.30
422.61	2036.27
422.80	2038.61
422.99	2029.24
423.18	2012.86
423.37	2017.54
423.56	2083.08
423.75	1921.58
423.94	1980.09
424.13	1933.28
424.32	1877.11
424.50	2087.76
424.69	2129.89
424.88	2010.52
425.07	2008.18
425.26	1949.67
425.45	2080.74
425.64	2040.95
425.83	2120.53
426.01	2146.27
426.20	2047.97
426.39	2031.58
426.58	2069.03
426.77	2092.44
426.96	2186.06
427.15	1961.37
427.33	2148.61
427.52	2108.82
427.71	2136.91
427.90	2108.82
428.09	2087.76
428.28	2073.71
428.46	2235.21
428.65	2113.50
428.84	2340.54
429.03	2221.17
429.22	2190.74
429.40	2211.81
429.59	2195.42
429.78	2022.22
429.97	2106.48
430.16	2221.17
430.34	2186.06
430.53	2310.11
430.72	2328.83
430.91	2321.81
431.10	2312.45
431.28	2450.54
431.47	2462.24
431.66	2403.73
431.85	2256.28
432.03	2480.97
432.22	2466.92
432.41	2478.63
432.60	2583.95
432.79	2413.09
432.97	2452.88
433.16	2448.20
433.35	2431.82
433.54	2410.75
433.72	2551.18
433.91	2469.27
434.10	2377.98
434.28	2513.74
434.47	2579.27
434.66	2553.52
434.85	2612.04
435.03	2654.17
435.22	2513.74
435.41	2780.56
435.59	2640.12
435.78	2544.16
435.97	2504.37
436.16	2684.59
436.34	2642.46
436.53	2656.51
436.72	2757.15
436.90	2607.36
437.09	2708.00
437.28	2642.46
437.46	2663.53
437.65	2839.07
437.84	2712.68
438.02	2705.66
438.21	2705.66
438.40	2757.15
438.58	2803.96
438.77	2909.29
438.96	2794.60
439.14	2881.20
439.33	2839.07
439.52	2963.12
439.70	2993.55
439.89	3068.44
440.08	3068.44
440.26	3052.06
440.45	3061.42
440.63	3166.74
440.82	3054.40
441.01	3098.87
441.19	3194.83
441.38	3178.45
441.57	3222.92
441.75	3297.81
441.94	3274.41
442.12	3297.81
442.31	3323.56
442.50	3239.30
442.68	3274.41
442.87	3346.97
443.05	3262.71
443.24	3510.80
443.43	3393.78
443.61	3311.86
443.80	3454.63
443.98	3375.05
444.17	3251.00
444.35	3438.25
444.54	3466.33
444.73	3265.05
444.91	3492.08
445.10	3365.69
445.28	3449.95
445.47	3403.14
445.65	3508.46
445.84	3592.72
446.02	3449.95
446.21	3389.10
446.39	3419.52
446.58	3442.93
446.77	3494.42
446.95	3393.78
447.14	3534.21
447.32	3463.99
447.51	3426.54
447.69	3414.84
447.88	3492.08
448.06	3581.02
448.25	3538.89
448.43	3398.46
448.62	3581.02
448.80	3438.25
448.99	3433.57
449.17	3597.40
449.36	3702.73
449.54	3620.81
449.73	3730.81
449.91	3655.92
450.10	3644.21
450.28	3758.90
450.46	3651.24
450.65	3618.47
450.83	3735.50
451.02	3854.86
451.20	3761.24
451.39	3784.65
451.57	3719.11
451.76	3786.99
451.94	3754.22
452.13	3920.40
452.31	3995.29
452.49	3765.92
452.68	3803.37
452.86	3676.98
453.05	3913.38
453.23	3971.89
453.42	3765.92
453.60	3969.55
453.78	4042.11
453.97	4016.36
454.15	3936.78
454.34	3915.72
454.52	4042.11
454.70	3927.42
454.89	3974.23
455.07	3997.64
455.26	4100.62
455.44	4009.34
455.62	4053.81
455.81	4152.11
455.99	4030.40
456.17	4154.45
456.36	4191.90
456.54	4191.90
456.73	4156.79
456.91	4290.20
457.09	4280.84
457.28	4407.23
457.46	4285.52
457.64	4269.14
457.83	4325.31
458.01	4306.59
458.19	4269.14
458.38	4276.16
458.56	4468.08
458.74	4339.35
458.93	4360.42
459.11	4432.97
459.29	4353.40
459.48	4505.53
459.66	4432.97
459.84	4627.24
460.03	4505.53
460.21	4554.68
460.39	4449.36
460.57	4404.89
460.76	4608.51
460.94	4571.07
461.12	4550.00
461.31	4695.11
461.49	4571.07
461.67	4582.77
461.85	4662.35
462.04	4727.88
462.22	4880.02
462.40	4751.29
462.59	4793.42
462.77	4753.63
462.95	4671.71
463.13	4711.50
463.32	4945.55
463.50	4971.30
463.68	4842.57
463.86	4887.04
464.05	4688.09
464.23	4816.82
464.41	4910.44
464.59	4762.99
464.78	4833.21
464.96	4898.74
465.14	4870.65
465.32	4777.03
465.50	5041.51
465.69	4903.42
465.87	5083.64
466.05	4945.55
466.23	4968.96
466.41	4875.34
466.60	5191.31
466.78	5104.71
466.96	4933.85
467.14	5067.26
467.32	5029.81
467.51	5128.11
467.69	4924.49
467.87	5001.72
468.05	5174.92
468.23	5163.22
468.41	5172.58
468.60	5226.42
468.78	5179.61
468.96	5128.11
469.14	5212.37
469.32	5238.12
469.50	5203.01
469.69	5228.76
469.87	5549.41
470.05	5401.96
470.23	5310.68
470.41	5547.07
470.59	5444.09
470.77	5401.96
470.95	5455.79
471.14	5497.92
471.32	5542.39
471.50	5404.30
471.68	5549.41
471.86	5439.40
472.04	5563.45
472.22	5760.06
472.40	5537.71
472.58	5783.46
472.77	5722.61
472.95	5853.68
473.13	5980.07
473.31	5839.64
473.49	5858.36
473.67	5923.90
473.85	5792.83
474.03	6066.67
474.21	6001.13
474.39	6104.12
474.57	6120.50
474.75	6314.77
474.93	6146.25
475.12	6183.70
475.30	6209.44
475.48	6111.14
475.66	6183.70
475.84	6441.15
476.02	6399.02
476.20	6122.84
476.38	6303.06
476.56	6626.06
476.74	6373.28
476.92	6565.20
477.10	6504.35
477.28	6700.95
477.46	6581.59
477.64	6630.74
477.82	6822.66
478.00	7054.37
478.18	6944.37
478.36	6946.71
478.54	7098.84
478.72	7169.06
478.90	7262.68
479.08	7136.29
479.26	7190.13
479.44	7358.64
479.62	7346.94
479.80	7435.88
479.98	7541.21
480.16	7573.97
480.34	7513.12
480.52	7473.33
480.70	7681.64
480.88	7545.89
481.06	7557.59
481.24	7770.58
481.41	7705.04
481.59	7882.92
481.77	7812.71
481.95	7995.27
482.13	8187.19
482.31	8023.36
482.49	8145.06
482.67	8255.07
482.85	8339.33
483.03	8383.80
483.21	8463.38
483.39	8512.53
483.57	8517.21
483.74	8573.38
483.92	8933.82
484.10	8641.26
484.28	8968.93
484.46	8990.00
484.64	9198.31
484.82	8968.93
485.00	9097.66
485.18	9284.91
485.35	9490.87
485.53	9511.94
485.71	9305.97
485.89	9488.53
486.07	9334.06
486.25	9659.39
486.43	9640.67
486.61	9589.17
486.78	9753.01
486.96	9975.36
487.14	10017.49
487.32	9947.28
487.50	9916.85
487.68	10003.45
487.85	10436.45
488.03	10312.40
488.21	10499.64
488.39	10607.31
488.57	10698.59
488.75	10904.56
488.92	10600.29
489.10	11012.22
489.28	11152.65
489.46	11288.40
489.64	10972.43
489.81	11147.97
489.99	11103.50
490.17	11314.15
490.35	11529.48
490.53	11382.03
490.70	11452.24
490.88	11419.47
491.06	11564.59
491.24	11644.17
491.41	11698.00
491.59	11868.86
491.77	11740.13
491.95	12182.49
492.13	12077.16
492.30	12074.82
492.48	12128.66
492.66	12236.32
492.84	12243.34
493.01	12648.26
493.19	12807.41
493.37	12666.98
493.54	12521.87
493.72	12739.54
493.90	12842.52
494.08	12875.29
494.25	12999.34
494.43	13046.15
494.61	13383.18
494.79	13324.67
494.96	13376.16
495.14	13205.30
495.32	13298.92
495.49	13722.56
495.67	13675.75
495.85	13642.98
496.02	13738.94
496.20	13731.92
496.38	13989.38
496.55	13961.30
496.73	14223.44
496.91	13942.57
497.09	14022.15
497.26	14483.24
497.44	14176.62
497.62	14097.05
497.79	14541.75
497.97	14274.93
498.14	14626.01
498.32	14661.12
498.50	14836.66
498.67	15007.52
498.85	14937.30
499.03	14927.94
499.20	14949.00
499.38	15206.46
499.56	15173.69
499.73	15101.14
499.91	15346.89
500.08	15335.19
500.26	15054.33
500.44	15470.94
500.61	15461.58
500.79	15508.39
500.97	15611.37
501.14	15758.83
501.32	15864.15
501.49	15573.92
501.67	15845.43
501.84	15805.64
502.02	15733.08
502.20	15873.51
502.37	16152.04
502.55	16067.78
502.72	15850.11
502.90	16175.44
503.07	15985.86
503.25	16283.11
503.43	16343.96
503.60	16350.98
503.78	16753.55
503.95	16360.34
504.13	16184.80
504.30	16601.42
504.48	16458.65
504.65	16809.73
504.83	16643.55
505.01	16877.60
505.18	16856.54
505.36	17345.71
505.53	17027.40
505.71	17228.68
505.88	17228.68
506.06	16879.94
506.23	17249.75
506.41	17069.53
506.58	17408.90
506.76	17334.01
506.93	17486.14
507.11	17294.22
507.28	17326.99
507.46	17617.21
507.63	17666.36
507.81	17682.75
507.98	17373.80
508.16	17659.34
508.33	17687.43
508.50	17638.28
508.68	17942.55
508.85	18326.39
509.03	17879.35
509.20	17963.61
509.38	18579.17
509.55	18082.98
509.73	18391.93
509.90	18260.86
510.08	18328.74
510.25	18113.41
510.42	18558.11
510.60	18553.43
510.77	18464.49
510.95	18684.50
511.12	18637.69
511.30	18494.91
511.47	18616.62
511.64	19023.87
511.82	18654.07
511.99	18614.28
512.17	18838.97
512.34	19009.83
512.51	18967.70
512.69	19084.73
512.86	18970.04
513.04	19124.52
513.21	19262.61
513.38	19499.00
513.56	19342.19
513.73	19707.31
513.90	19559.86
514.08	19396.02
514.25	19630.07
514.43	19758.80
514.60	19627.73
514.77	19740.08
514.95	19910.94
515.12	19793.91
515.29	19702.63
515.47	20149.67
515.64	19873.49
515.81	19882.85
515.99	20072.43
516.16	20315.85
516.33	20210.53
516.51	20428.20
516.68	19967.11
516.85	19819.66
517.03	20255.00
517.20	20266.70
517.37	20191.80
517.54	20336.91
517.72	20673.95
517.89	20570.97
518.06	20531.18
518.24	20491.39
518.41	20629.48
518.58	20540.54
518.75	20477.35
518.93	20587.35
519.10	20959.50
519.27	20746.51
519.45	20872.90
519.62	21252.06
519.79	20915.03
519.96	20877.58
520.14	21326.96
520.31	21029.71
520.48	21149.08
520.65	21083.55
520.83	21214.62
521.00	21256.75
521.17	20905.66
521.34	21036.74
521.52	21338.66
521.69	21481.44
521.86	21619.53
522.03	21874.65
522.20	21774.00
522.38	21802.09
522.55	21701.45
522.72	21909.75
522.89	21759.96
523.07	22136.79
523.24	22057.21
523.41	21954.22
523.58	21612.51
523.75	22295.94
523.92	21823.16
524.10	21977.63
524.27	22340.41
524.44	21942.52
524.61	22513.61
524.78	22462.12
524.96	22057.21
525.13	22286.58
525.30	22328.71
525.47	22284.24
525.64	22398.93
525.81	22586.17
525.98	22888.10
526.16	22609.58
526.33	22757.03
526.50	23094.07
526.67	22724.26
526.84	22551.06
527.01	22714.90
527.18	22766.39
527.36	22747.67
527.53	22946.61
527.70	23161.94
527.87	23323.44
528.04	23236.84
528.21	23140.88
528.38	23204.07
528.55	23033.21
528.72	23133.86
528.89	23381.95
529.07	23365.57
529.24	23328.12
529.41	23318.76
529.58	23304.71
529.75	23353.87
529.92	23578.56
530.09	23323.44
530.26	23295.35
530.43	23440.47
530.60	23676.86
530.77	23683.88
530.94	23726.01
531.11	23536.43
531.28	23536.43
531.46	23667.50
531.63	23943.68
531.80	23573.88
531.97	23981.13
532.14	24084.11
532.31	24194.12
532.48	24027.94
532.65	24079.43
532.82	23740.05
532.99	24025.60
533.16	24156.67
533.33	24100.50
533.50	24566.26
533.67	24245.61
533.84	24105.18
534.01	24353.27
534.18	24294.76
534.35	24664.57
534.52	24322.85
534.69	24730.10
534.86	24608.39
535.03	24460.94
535.20	24428.17
535.37	24297.10
535.54	24159.01
535.71	24580.31
535.88	24561.58
536.05	24720.74
536.22	24858.83
536.38	24861.17
536.55	24730.10
536.72	25039.05
536.89	24732.44
537.06	24669.25
537.23	24882.24
537.40	24549.88
537.57	24685.63
537.74	24907.98
537.91	25174.80
538.08	24966.49
538.25	24994.58
538.42	25195.87
538.59	25469.71
538.75	25048.41
538.92	25259.06
539.09	25586.74
539.26	25078.84
539.43	25296.51
539.60	25434.60
539.77	25455.67
539.94	25645.25
540.11	25336.30
540.28	25235.66
540.44	25507.16
540.61	25589.08
540.78	25383.11
540.95	25247.36
541.12	25537.59
541.29	25532.90
541.46	25804.41
541.62	25436.94
541.79	25408.86
541.96	25722.49
542.13	25556.31
542.30	25790.36
542.47	26122.72
542.63	25811.43
542.80	26066.55
542.97	26001.01
543.14	26356.77
543.31	25982.29
543.48	26349.75
543.64	26443.37
543.81	26204.64
543.98	26192.94
544.15	26298.26
544.32	26443.37
544.48	26679.77
544.65	26211.66
544.82	26431.67
544.99	26394.22
545.16	25991.65
545.32	26225.70
545.49	26782.75
545.66	26806.16
545.83	26649.34
546.00	26747.64
546.16	26757.00
546.33	26693.81
546.50	26214.00
546.67	26717.22
546.83	26541.68
547.00	26883.39
547.17	26981.70
547.34	26595.51
547.50	27276.60
547.67	26869.35
547.84	26726.58
548.00	26691.47
548.17	26885.73
548.34	26677.43
548.51	27040.21
548.67	27147.87
548.84	27068.30
549.01	27356.18
549.18	27234.47
549.34	27204.05
549.51	26766.37
549.68	27192.34
549.84	26962.97
550.01	27197.02
550.18	27620.66
550.34	27253.20
550.51	27421.72
550.68	27608.96
550.84	27117.45
551.01	27452.14
551.18	27644.07
551.34	27187.66
551.51	27414.69
551.68	27274.26
551.84	27852.38
552.01	27393.63
552.18	27882.80
552.34	27683.86
552.51	27440.44
552.68	27445.12
552.84	27676.83
553.01	27747.05
553.18	27695.56
553.34	27690.88
553.51	27503.64
553.67	28091.11
553.84	27927.27
554.01	28187.07
554.17	27929.61
554.34	27817.27
554.51	27604.28
554.67	28308.78
554.84	27859.40
555.00	28091.11
555.17	27838.33
555.33	28224.52
555.50	27950.68
555.67	27978.76
555.83	28037.28
556.00	27838.33
556.16	28409.42
556.33	28287.71
556.50	28308.78
556.66	28510.07
556.83	28189.41
556.99	28353.25
557.16	28126.22
557.32	28416.44
557.49	28203.46
557.65	27843.01
557.82	28517.09
557.98	28222.18
558.15	28121.54
558.32	28732.42
558.48	28154.30
558.65	28634.11
558.81	28734.76
558.98	28407.08
559.14	28297.08
559.31	28507.72
559.47	28264.31
559.64	28355.59
559.80	28655.18
559.97	28861.15
560.13	28573.26
560.30	28500.70
560.46	28716.03
560.63	28629.43
560.79	28725.39
560.96	28659.86
561.12	28641.14
561.29	28393.04
561.45	28746.46
561.61	29149.03
561.78	28762.84
561.94	28694.97
562.11	28896.25
562.27	28811.99
562.44	28638.80
562.60	28645.82
562.77	28505.38
562.93	28243.24
563.10	28910.30
563.26	28528.79
563.42	28957.11
563.59	29090.52
563.75	28762.84
563.92	28891.57
564.08	28641.14
564.24	28985.19
564.41	29001.58
564.57	28624.75
564.74	28961.79
564.90	29102.22
565.07	29043.71
565.23	29329.25
565.39	29029.66
565.56	29186.48
565.72	28919.66
565.88	28891.57
566.05	29006.26
566.21	28732.42
566.38	28835.40
566.54	29493.09
566.70	29048.39
566.87	29076.48
567.03	29123.29
567.19	29177.12
567.36	29460.32
567.52	28779.23
567.68	29240.31
567.85	29261.38
568.01	29301.17
568.17	29336.27
568.34	29418.19
568.50	29259.04
568.66	29530.54
568.83	29376.06
568.99	29207.55
569.15	29254.36
569.32	29579.69
569.48	29067.11
569.64	29247.33
569.81	29282.44
569.97	29193.50
570.13	29500.11
570.30	29008.60
570.46	29448.62
570.62	29144.35
570.78	28978.17
570.95	29198.18
571.11	29043.71
571.27	29244.99
571.43	29202.86
571.60	29369.04
571.76	29376.06
571.92	29170.10
572.09	29748.21
572.25	29413.51
572.41	29572.67
572.57	29610.12
572.74	29591.39
572.90	29479.05
573.06	29401.81
573.22	29411.17
573.38	29439.26
573.55	29696.72
573.71	29628.84
573.87	29371.38
574.03	29434.58
574.20	29954.18
574.36	29324.57
574.52	29509.47
574.68	29289.46
574.84	29560.97
575.01	29645.23
575.17	29619.48
575.33	29291.80
575.49	29626.50
575.65	29347.98
575.82	29958.86
575.98	29219.25
576.14	29577.35
576.30	29467.34
576.46	29472.03
576.62	29811.40
576.79	29137.33
576.95	29235.63
577.11	29818.42
577.27	29823.11
577.43	29804.38
577.59	29905.02
577.75	29839.49
577.92	29607.78
578.08	29668.63
578.24	29493.09
578.40	29663.95
578.56	29469.69
578.72	29631.18
578.88	29736.51
579.04	29645.23
579.21	29502.45
579.37	29710.76
579.53	29546.92
579.69	29797.36
579.85	29621.82
580.01	29624.16
580.17	28900.94
580.33	29287.12
580.49	29699.06
580.65	29874.60
580.82	29883.96
580.98	29905.02
581.14	29425.22
581.30	29909.71
581.46	29542.24
581.62	29682.67
581.78	29507.13
581.94	29848.85
582.10	29757.57
582.26	29879.28
582.42	29799.70
582.58	29685.01
582.74	29706.08
582.90	30024.39
583.06	30008.01
583.22	29685.01
583.38	29598.41
583.54	30089.93
583.70	29493.09
583.86	29558.63
584.02	29783.32
584.18	29640.54
584.34	29607.78
584.50	30132.06
584.66	29462.66
584.82	29677.99
584.98	29830.13
585.14	29722.46
585.30	29680.33
585.46	29724.80
585.62	29448.62
585.78	29621.82
585.94	29645.23
586.10	29879.28
586.26	30015.03
586.42	30012.69
586.58	29802.04
586.74	29893.32
586.90	29439.26
587.06	29647.57
587.22	29780.98
587.38	29369.04
587.54	29977.58
587.70	29872.26
587.86	30129.72
588.02	29743.53
588.18	30221.00
588.34	29905.02
588.49	30000.99
588.65	30143.76
588.81	29818.42
588.97	29607.78
589.13	29682.67
589.29	29993.97
589.45	29956.52
589.61	29727.14
589.77	29982.26
589.93	30164.82
590.08	30108.65
590.24	30398.88
590.40	29928.43
590.56	30171.85
590.72	29984.60
590.88	29776.30
591.04	30089.93
591.20	30218.66
591.35	30015.03
591.51	30529.95
591.67	30389.52
591.83	30661.02
591.99	30265.47
