SpectraSuite Data File
++++++++++++++++++++++++++++++++++++
Date: Fri Oct 18 13:58:44 GMT-05:00 2013
User: bianchi
Dark Spectrum Present: No
Reference Spectrum Present: No
Number of Sampled Component Spectra: 1
Spectrometers: USB2+H05261
Integration Time (usec): 50000 (USB2+H05261)
Spectra Averaged: 1 (USB2+H05261)
Boxcar Smoothing: 0 (USB2+H05261)
Correct for Electrical Dark: No (USB2+H05261)
Strobe/Lamp Enabled: No (USB2+H05261)
Correct for Detector Non-linearity: No (USB2+H05261)
Correct for Stray Light: No (USB2+H05261)
Number of Pixels in Processed Spectrum: 2048
>>>>>Begin Processed Spectral Data<<<<<
365.73	0.00
365.92	0.00
366.12	0.00
366.32	0.00
366.52	0.00
366.72	0.00
366.91	0.00
367.11	0.00
367.31	0.00
367.51	0.00
367.70	0.00
367.90	0.00
368.10	0.00
368.30	0.00
368.49	0.00
368.69	0.00
368.89	0.00
369.09	0.00
369.28	0.00
369.48	0.00
369.68	0.00
369.87	0.00
370.07	0.00
370.27	0.00
370.47	0.00
370.66	100.64
370.86	93.62
371.06	175.54
371.25	138.09
371.45	95.96
371.65	161.50
371.84	95.96
372.04	163.84
372.24	159.16
372.44	159.16
372.63	168.52
372.83	257.46
373.03	215.33
373.22	215.33
373.42	168.52
373.62	184.90
373.81	241.08
374.01	278.52
374.21	224.69
374.40	264.48
374.60	227.03
374.79	180.22
374.99	278.52
375.19	217.67
375.38	255.12
375.58	196.60
375.78	264.48
375.97	224.69
376.17	262.14
376.37	320.65
376.56	283.20
376.76	161.50
376.95	222.35
377.15	243.42
377.35	227.03
377.54	276.18
377.74	273.84
377.93	248.10
378.13	285.55
378.33	259.80
378.52	301.93
378.72	318.31
378.91	276.18
379.11	318.31
379.31	290.23
379.50	248.10
379.70	292.57
379.89	280.86
380.09	325.33
380.28	334.70
380.48	393.21
380.68	369.80
380.87	355.76
381.07	252.78
381.26	313.63
381.46	346.40
381.65	341.72
381.85	402.57
382.04	322.99
382.24	379.17
382.43	250.44
382.63	269.16
382.83	278.52
383.02	285.55
383.22	299.59
383.41	362.78
383.61	311.29
383.80	397.89
384.00	407.25
384.19	306.61
384.39	346.40
384.58	325.33
384.78	393.21
384.97	322.99
385.17	344.06
385.36	283.20
385.56	369.80
385.75	351.08
385.95	402.57
386.14	379.17
386.34	360.44
386.53	386.19
386.72	299.59
386.92	428.32
387.11	428.32
387.31	470.45
387.50	465.77
387.70	374.49
387.89	489.17
388.09	325.33
388.28	442.36
388.48	395.55
388.67	491.51
388.86	468.11
389.06	461.09
389.25	510.24
389.45	409.59
389.64	365.12
389.84	503.22
390.03	554.71
390.22	482.15
390.42	496.19
390.61	505.56
390.81	444.70
391.00	507.90
391.19	454.06
391.39	479.81
391.58	535.98
391.78	561.73
391.97	533.64
392.16	472.79
392.36	535.98
392.55	568.75
392.75	510.24
392.94	482.15
393.13	545.34
393.33	550.03
393.52	528.96
393.71	622.58
393.91	638.97
394.10	578.11
394.29	582.79
394.49	519.60
394.68	554.71
394.88	601.52
395.07	552.37
395.26	601.52
395.46	671.73
395.65	624.92
395.84	641.31
396.04	660.03
396.23	629.60
396.42	620.24
396.62	653.01
396.81	592.16
397.00	587.47
397.19	704.50
397.39	671.73
397.58	657.69
397.77	615.56
397.97	648.33
398.16	688.12
398.35	718.54
398.55	690.46
398.74	662.37
398.93	737.27
399.12	716.20
399.32	786.42
399.51	821.53
399.70	763.01
399.90	760.67
400.09	744.29
400.28	725.57
400.47	746.63
400.67	723.23
400.86	781.74
401.05	727.91
401.24	786.42
401.44	704.50
401.63	851.96
401.82	840.25
402.01	795.78
402.21	744.29
402.40	809.83
402.59	786.42
402.78	814.51
402.97	770.04
403.17	798.12
403.36	847.27
403.55	854.30
403.74	992.39
403.93	847.27
404.13	903.45
404.32	929.19
404.51	847.27
404.70	866.00
404.89	898.77
405.09	884.72
405.28	983.02
405.47	983.02
405.66	1020.47
405.85	898.77
406.05	1039.20
406.24	961.96
406.43	964.30
406.62	1027.50
406.81	1029.84
407.00	922.17
407.20	978.34
407.39	1006.43
407.58	1018.13
407.77	1086.01
407.96	1025.15
408.15	1083.67
408.34	1041.54
408.54	1118.78
408.73	1090.69
408.92	1160.91
409.11	1144.52
409.30	1144.52
409.49	1053.24
409.68	1207.72
409.87	1170.27
410.07	1090.69
410.26	1256.87
410.45	1196.01
410.64	1240.48
410.83	1102.39
411.02	1179.63
411.21	1228.78
411.40	1207.72
411.59	1273.25
411.78	1235.80
411.98	1219.42
412.17	1280.27
412.36	1200.69
412.55	1334.11
412.74	1352.83
412.93	1315.38
413.12	1287.29
413.31	1413.68
413.50	1380.92
413.69	1404.32
413.88	1462.83
414.07	1371.55
414.26	1423.05
414.45	1430.07
414.64	1390.28
414.83	1535.39
415.02	1474.54
415.22	1523.69
415.41	1413.68
415.60	1537.73
415.79	1554.12
415.98	1572.84
416.17	1678.16
416.36	1607.95
416.55	1490.92
416.74	1549.43
416.93	1629.01
417.12	1666.46
417.31	1591.56
417.50	1617.31
417.69	1671.14
417.88	1720.29
418.07	1708.59
418.26	1715.61
418.45	1715.61
418.64	1778.81
418.83	1741.36
419.02	1767.10
419.21	1851.36
419.39	1746.04
419.58	1783.49
419.77	1797.53
419.96	1795.19
420.15	1888.81
420.34	1884.13
420.53	1877.11
420.72	1867.75
420.91	1944.99
421.10	1860.73
421.29	1949.67
421.48	1863.07
421.67	2043.29
421.86	2029.24
422.05	1921.58
422.24	1923.92
422.43	2001.16
422.61	1961.37
422.80	2019.88
422.99	1954.35
423.18	2019.88
423.37	2078.40
423.56	1970.73
423.75	1984.77
423.94	1991.80
424.13	1926.26
424.32	1980.09
424.50	2008.18
424.69	2043.29
424.88	2008.18
425.07	1973.07
425.26	2047.97
425.45	1959.03
425.64	2087.76
425.83	2120.53
426.01	1989.46
426.20	2036.27
426.39	1935.62
426.58	2040.95
426.77	2097.12
426.96	2083.08
427.15	2078.40
427.33	2122.87
427.52	2031.58
427.71	2064.35
427.90	2069.03
428.09	2146.27
428.28	2214.15
428.46	2342.88
428.65	2204.78
428.84	2207.13
429.03	2230.53
429.22	2225.85
429.40	2148.61
429.59	2272.66
429.78	2141.59
429.97	2115.84
430.16	2256.28
430.34	2251.60
430.53	2321.81
430.72	2312.45
430.91	2338.20
431.10	2258.62
431.28	2406.07
431.47	2279.68
431.66	2445.86
431.85	2324.15
432.03	2420.11
432.22	2487.99
432.41	2513.74
432.60	2450.54
432.79	2417.77
432.97	2415.43
433.16	2436.50
433.35	2429.48
433.54	2443.52
433.72	2593.31
433.91	2457.56
434.10	2569.91
434.28	2567.57
434.47	2532.46
434.66	2504.37
434.85	2614.38
435.03	2616.72
435.22	2560.55
435.41	2682.25
435.59	2640.12
435.78	2562.89
435.97	2595.65
436.16	2567.57
436.34	2689.28
436.53	2738.43
436.72	2792.26
436.90	2602.68
437.09	2621.40
437.28	2626.08
437.46	2597.99
437.65	2715.02
437.84	2782.90
438.02	2623.74
438.21	2850.77
438.40	2834.39
438.58	2839.07
438.77	2841.41
438.96	2909.29
439.14	2881.20
439.33	3042.70
439.52	3035.67
439.70	2970.14
439.89	3054.40
440.08	3061.42
440.26	3038.02
440.45	3035.67
440.63	3155.04
440.82	3138.66
441.01	3101.21
441.19	3066.10
441.38	3089.51
441.57	3035.67
441.75	3171.43
441.94	3199.51
442.12	3260.37
442.31	3325.90
442.50	3396.12
442.68	3220.58
442.87	3262.71
443.05	3330.58
443.24	3382.07
443.43	3197.17
443.61	3386.76
443.80	3421.86
443.98	3342.28
444.17	3204.19
444.35	3426.54
444.54	3574.00
444.73	3431.23
444.91	3386.76
445.10	3389.10
445.28	3604.42
445.47	3412.50
445.65	3515.48
445.84	3382.07
446.02	3412.50
446.21	3468.67
446.39	3456.97
446.58	3552.93
446.77	3559.95
446.95	3426.54
447.14	3566.98
447.32	3623.15
447.51	3503.78
447.69	3454.63
447.88	3588.04
448.06	3576.34
448.25	3566.98
448.43	3604.42
448.62	3445.27
448.80	3543.57
448.99	3529.53
449.17	3665.28
449.36	3620.81
449.54	3623.15
449.73	3531.87
449.91	3588.04
450.10	3609.11
450.28	3756.56
450.46	3761.24
450.65	3660.60
450.83	3564.64
451.02	3749.54
451.20	3754.22
451.39	3943.80
451.57	3719.11
451.76	3719.11
451.94	3737.84
452.13	3812.73
452.31	3878.27
452.49	3805.71
452.68	3852.52
452.86	3754.22
453.05	3716.77
453.23	3960.19
453.42	3915.72
453.60	3908.69
453.78	3796.35
453.97	3829.12
454.15	3805.71
454.34	3922.74
454.52	3995.29
454.70	4039.76
454.89	3906.35
455.07	3922.74
455.26	3932.10
455.44	3999.98
455.62	3992.95
455.81	4070.19
455.99	4184.88
456.17	3936.78
456.36	4149.77
456.54	4170.83
456.73	4175.52
456.91	4215.30
457.09	4189.56
457.28	4329.99
457.46	4170.83
457.64	4294.88
457.83	4325.31
458.01	4259.78
458.19	4339.35
458.38	4365.10
458.56	4430.63
458.74	4477.44
458.93	4442.34
459.11	4283.18
459.29	4489.15
459.48	4383.82
459.66	4517.23
459.84	4477.44
460.03	4484.47
460.21	4645.96
460.39	4552.34
460.57	4411.91
460.76	4505.53
460.94	4594.47
461.12	4706.82
461.31	4638.94
461.49	4704.48
461.67	4430.63
461.85	4624.90
462.04	4608.51
462.22	4770.01
462.40	4873.00
462.59	4741.93
462.77	4585.11
462.95	4667.03
463.13	4704.48
463.32	4798.10
463.50	4819.16
463.68	4669.37
463.86	4816.82
464.05	4830.87
464.23	4901.08
464.41	5001.72
464.59	4702.14
464.78	4889.38
464.96	5085.98
465.14	4870.65
465.32	5088.32
465.50	5046.20
465.69	4865.97
465.87	4870.65
466.05	4957.25
466.23	4980.66
466.41	5011.09
466.60	5064.92
466.78	4894.06
466.96	5088.32
467.14	5025.13
467.32	5195.99
467.51	5071.94
467.69	4983.00
467.87	5057.90
468.05	5078.96
468.23	5123.43
468.41	4936.19
468.60	5069.60
468.78	5238.12
468.96	5247.48
469.14	5170.24
469.32	5294.29
469.50	5104.71
469.69	5341.10
469.87	5345.78
470.05	5509.62
470.23	5310.68
470.41	5373.87
470.59	5394.93
470.77	5268.55
470.95	5554.09
471.14	5572.82
471.32	5378.55
471.50	5596.22
471.68	5511.96
471.86	5537.71
472.04	5853.68
472.22	5762.40
472.40	5652.39
472.58	5661.76
472.77	5692.18
472.95	5645.37
473.13	5966.03
473.31	5895.81
473.49	5900.49
473.67	5720.27
473.85	5809.21
474.03	5809.21
474.21	5820.91
474.39	6010.50
474.57	6069.01
474.75	6162.63
474.93	6179.01
475.12	5832.62
475.30	6136.88
475.48	6010.50
475.66	6033.90
475.84	6286.68
476.02	6317.11
476.20	6289.02
476.38	6431.79
476.56	6569.88
476.74	6525.41
476.92	6356.90
477.10	6546.48
477.28	6457.54
477.46	6651.80
477.64	6670.53
477.82	6822.66
478.00	6640.10
478.18	6909.26
478.36	6885.86
478.54	6953.73
478.72	6967.77
478.90	6953.73
479.08	7232.26
479.26	7248.64
479.44	7360.98
479.62	7332.90
479.80	7283.75
479.98	7180.76
480.16	7386.73
480.34	7412.48
480.52	7487.37
480.70	7590.36
480.88	7513.12
481.06	7700.36
481.24	7754.19
481.41	7768.24
481.59	7978.89
481.77	7847.82
481.95	7777.60
482.13	7936.76
482.31	8032.72
482.49	8114.64
482.67	8241.03
482.85	8173.15
483.03	8503.17
483.21	8400.18
483.39	8500.83
483.57	8533.59
483.74	8535.93
483.92	8781.69
484.10	8650.62
484.28	8968.93
484.46	9088.30
484.64	9092.98
484.82	8901.06
485.00	9048.51
485.18	9195.96
485.35	9348.10
485.53	9198.31
485.71	9334.06
485.89	9774.08
486.07	9303.63
486.25	9540.02
486.43	9673.43
486.61	9867.70
486.78	9762.37
486.96	9921.53
487.14	10008.13
487.32	10073.67
487.50	10043.24
487.68	10143.88
487.85	10284.31
488.03	10279.63
488.21	10438.79
488.39	10691.57
488.57	10696.25
488.75	10698.59
488.92	10736.04
489.10	10759.44
489.28	11021.58
489.46	10993.50
489.64	10883.49
489.81	11157.33
489.99	11332.87
490.17	11222.87
490.35	11180.74
490.53	11382.03
490.70	11573.95
490.88	11459.26
491.06	11625.44
491.24	11337.56
491.41	11623.10
491.59	11679.27
491.77	11969.50
491.95	11978.86
492.13	12147.38
492.30	12093.55
492.48	12245.68
492.66	12273.77
492.84	12252.70
493.01	12465.69
493.19	12343.99
493.37	12699.75
493.54	12678.68
493.72	12924.44
493.90	12751.24
494.08	12737.20
494.25	12788.69
494.43	12844.86
494.61	13097.64
494.79	13200.62
494.96	13123.38
495.14	13301.26
495.32	13537.66
495.49	13437.02
495.67	13310.63
495.85	13607.87
496.02	13804.48
496.20	13862.99
496.38	14008.11
496.55	13956.61
496.73	13879.38
496.91	14059.60
497.09	14375.57
497.26	14012.79
497.44	14384.93
497.62	14223.44
497.79	14640.05
497.97	14370.89
498.14	14516.00
498.32	14768.78
498.50	14607.28
498.67	14920.92
498.85	14677.50
499.03	14813.25
499.20	15037.94
499.38	14803.89
499.56	15138.58
499.73	15075.39
499.91	15459.24
500.08	15454.56
500.26	15019.22
500.44	15351.57
500.61	15372.64
500.79	15232.21
500.97	15496.69
501.14	15784.57
501.32	15943.73
501.49	15597.33
501.67	15449.88
501.84	15747.12
502.02	15908.62
502.20	15829.04
502.37	16006.92
502.55	16219.91
502.72	16255.02
502.90	16343.96
503.07	16168.42
503.25	16198.85
503.43	16208.21
503.60	16400.13
503.78	16400.13
503.95	16463.33
504.13	16369.71
504.30	16463.33
504.48	16519.50
504.65	16769.94
504.83	16858.88
505.01	16896.33
505.18	16842.50
505.36	16996.97
505.53	16807.39
505.71	16872.92
505.88	17137.40
506.06	17142.08
506.23	17312.94
506.41	17263.79
506.58	17432.31
506.76	17352.73
506.93	17261.45
507.11	17422.95
507.28	17446.35
507.46	17539.97
507.63	17633.60
507.81	17532.95
507.98	17619.55
508.16	17687.43
508.33	17647.64
508.50	17738.92
508.68	17748.28
508.85	17851.27
509.03	18111.07
509.20	18242.14
509.38	18298.31
509.55	18111.07
509.73	18059.57
509.90	18478.53
510.08	18066.60
510.25	17954.25
510.42	18408.31
510.60	18466.83
510.77	18602.58
510.95	18979.40
511.12	18412.99
511.30	18689.18
511.47	18569.81
511.64	18625.98
511.82	19012.17
511.99	18834.29
512.17	18981.74
512.34	19037.92
512.51	18920.89
512.69	19187.71
512.86	19154.94
513.04	19281.33
513.21	19346.87
513.38	19274.31
513.56	19185.37
513.73	19040.26
513.90	19363.25
514.08	19154.94
514.25	19440.49
514.43	19566.88
514.60	19840.72
514.77	19601.99
514.95	19948.39
515.12	19632.41
515.29	19585.60
515.47	19704.97
515.64	19948.39
515.81	20233.93
515.99	20170.74
516.16	20285.42
516.33	20114.56
516.51	20346.28
516.68	20311.17
516.85	20144.99
517.03	20465.64
517.20	20341.60
517.37	20088.82
517.54	20657.57
517.72	20449.26
517.89	20439.90
518.06	20123.93
518.24	20652.89
518.41	20528.84
518.58	20423.51
518.75	20659.91
518.93	20837.79
519.10	20629.48
519.27	20868.22
519.45	20821.41
519.62	20870.56
519.79	21018.01
519.96	21113.97
520.14	20996.95
520.31	21130.36
520.48	21362.07
520.65	21579.74
520.83	21053.12
521.00	21336.32
521.17	21249.72
521.34	21411.22
521.52	21568.04
521.69	21441.65
521.86	21902.73
522.03	21577.40
522.20	21537.61
522.38	21432.29
522.55	21675.70
522.72	21912.10
522.89	21404.20
523.07	21996.35
523.24	22155.51
523.41	22139.13
523.58	21696.77
523.75	22328.71
523.92	22024.44
524.10	22148.49
524.27	22150.83
524.44	22272.54
524.61	22387.22
524.78	22286.58
524.96	22382.54
525.13	22441.06
525.30	22366.16
525.47	22312.33
525.64	22401.27
525.81	22373.18
525.98	22888.10
526.16	22742.99
526.33	22525.32
526.50	22686.81
526.67	22635.32
526.84	22618.94
527.01	22665.75
527.18	22829.59
527.36	22731.28
527.53	22785.12
527.70	23190.03
527.87	23550.47
528.04	23281.31
528.21	22576.81
528.38	23133.86
528.55	23302.37
528.72	23218.11
528.89	23367.91
529.07	23442.81
529.24	23175.98
529.41	23056.62
529.58	23073.00
529.75	23384.29
529.92	23377.27
530.09	23456.85
530.26	23772.82
530.43	23220.45
530.60	23613.66
530.77	23351.52
530.94	24081.77
531.11	23438.12
531.28	23491.96
531.46	23445.15
531.63	23812.61
531.80	23737.71
531.97	23908.57
532.14	24306.46
532.31	23859.42
532.48	24109.86
532.65	23948.36
532.82	23737.71
532.99	23899.21
533.16	24376.68
533.33	23988.15
533.50	24638.82
533.67	24346.25
533.84	24334.55
534.01	24208.16
534.18	24297.10
534.35	24222.20
534.52	24357.96
534.69	24491.37
534.86	24772.23
535.03	24280.72
535.20	24414.13
535.37	24458.60
535.54	24615.41
535.71	24100.50
535.88	24926.71
536.05	24849.47
536.22	24755.85
536.38	24690.31
536.55	25062.46
536.72	24964.15
536.89	24800.32
537.06	24711.38
537.23	24980.54
537.40	25109.27
537.57	24505.41
537.74	25036.71
537.91	25212.25
538.08	25448.64
538.25	25041.39
538.42	25008.62
538.59	25460.35
538.75	24938.41
538.92	24999.26
539.09	25027.35
539.26	25230.98
539.43	25392.47
539.60	25383.11
539.77	25242.68
539.94	25717.81
540.11	25460.35
540.28	25614.82
540.44	25081.18
540.61	25350.34
540.78	25460.35
540.95	25689.72
541.12	25598.44
541.29	25776.32
541.46	25872.28
541.62	25502.48
541.79	25539.93
541.96	25551.63
542.13	25701.42
542.30	26031.44
542.47	26085.27
542.63	26071.23
542.80	25891.01
542.97	26216.34
543.14	25921.43
543.31	25912.07
543.48	26190.59
543.64	26307.62
543.81	26424.65
543.98	26218.68
544.15	26370.82
544.32	26366.13
544.48	26672.74
544.65	26094.63
544.82	26349.75
544.99	25989.31
545.16	26246.77
545.32	26302.94
545.49	26749.98
545.66	26665.72
545.83	26827.22
546.00	26738.28
546.16	26604.87
546.33	26380.18
546.50	26253.79
546.67	26888.07
546.83	26920.84
547.00	26827.22
547.17	26684.45
547.34	26611.89
547.50	27096.38
547.67	27168.94
547.84	27033.19
548.00	26927.86
548.17	26948.93
548.34	27016.80
548.51	26883.39
548.67	27363.20
548.84	27096.38
549.01	27019.14
549.18	26927.86
549.34	27227.45
549.51	26962.97
549.68	27070.64
549.84	27175.96
550.01	27098.72
550.18	27068.30
550.34	27143.19
550.51	27147.87
550.68	27623.00
550.84	27047.23
551.01	27023.83
551.18	26918.50
551.34	26993.40
551.51	27049.57
551.68	27438.10
551.84	27667.47
552.01	27571.51
552.18	27901.53
552.34	27513.00
552.51	27653.43
552.68	27346.82
552.84	27601.94
553.01	27143.19
553.18	27524.70
553.34	27587.89
553.51	27440.44
553.67	28100.47
553.84	27892.16
554.01	27749.39
554.17	27864.08
554.34	27917.91
554.51	27782.16
554.67	27819.61
554.84	28025.57
555.00	27971.74
555.17	27936.63
555.33	27924.93
555.50	27782.16
555.67	27938.97
555.83	27938.97
556.00	27924.93
556.16	28109.83
556.33	27969.40
556.50	28180.05
556.66	28353.25
556.83	28285.37
556.99	28386.02
557.16	28121.54
557.32	28067.70
557.49	28081.75
557.65	28048.98
557.82	28116.86
557.98	28451.55
558.15	28465.60
558.32	28215.16
558.48	28512.41
558.65	28573.26
558.81	28109.83
558.98	28465.60
559.14	28395.38
559.31	28458.57
559.47	28112.17
559.64	28514.75
559.80	28264.31
559.97	28491.34
560.13	28474.96
560.30	28512.41
560.46	28451.55
560.63	28741.78
560.79	28802.63
560.96	28458.57
561.12	28278.35
561.29	28308.78
561.45	28308.78
561.61	28744.12
561.78	28643.48
561.94	28697.31
562.11	29193.50
562.27	28554.54
562.44	28961.79
562.60	28924.34
562.77	28781.57
562.93	28491.34
563.10	28858.81
563.26	28746.46
563.42	29085.84
563.59	28517.09
563.75	29193.50
563.92	29069.45
564.08	28486.66
564.24	28760.50
564.41	28898.59
564.57	28676.24
564.74	28826.04
564.90	28774.55
565.07	28709.01
565.23	28924.34
565.39	29149.03
565.56	28872.85
565.72	28804.97
565.88	28704.33
566.05	28776.89
566.21	28872.85
566.38	29083.50
566.54	28954.77
566.70	29111.58
566.87	29453.30
567.03	29228.61
567.19	29214.57
567.36	29373.72
567.52	29221.59
567.68	29039.03
567.85	29069.45
568.01	28936.04
568.17	29172.44
568.34	29256.70
568.50	28996.90
568.66	29315.21
568.83	29205.20
568.99	29010.94
569.15	29291.80
569.32	28704.33
569.48	29003.92
569.64	29544.58
569.81	28936.04
569.97	29050.73
570.13	29347.98
570.30	28900.94
570.46	29142.01
570.62	29338.62
570.78	29001.58
570.95	29062.43
571.11	29376.06
571.27	29303.51
571.43	29216.91
571.60	29319.89
571.76	29326.91
571.92	29390.11
572.09	29614.80
572.25	29273.08
572.41	29472.03
572.57	29474.37
572.74	29582.03
572.90	29347.98
573.06	29209.89
573.22	29366.70
573.38	29708.42
573.55	29249.67
573.71	30029.07
573.87	29619.48
574.03	29450.96
574.20	29352.66
574.36	29219.25
574.52	29420.53
574.68	29156.05
574.84	29343.30
575.01	29579.69
575.17	29188.82
575.33	29329.25
575.49	29434.58
575.65	29331.59
575.82	29439.26
575.98	29355.00
576.14	29324.57
576.30	29970.56
576.46	29263.72
576.62	29551.60
576.79	29694.38
576.95	29317.55
577.11	29429.90
577.27	29670.97
577.43	29598.41
577.59	29385.43
577.75	29446.28
577.92	29179.46
578.08	29567.99
578.24	29682.67
578.40	29734.17
578.56	29455.64
578.72	29743.53
578.88	29785.66
579.04	29883.96
579.21	29380.74
579.37	29832.47
579.53	29607.78
579.69	29448.62
579.85	29649.91
580.01	29944.81
580.17	29788.00
580.33	29514.16
580.49	29603.10
580.65	30064.18
580.82	29624.16
580.98	29603.10
581.14	29518.84
581.30	29731.83
581.46	29687.36
581.62	29663.95
581.78	29556.28
581.94	29762.25
582.10	29422.87
582.26	29745.87
582.42	29532.88
582.58	29457.98
582.74	29509.47
582.90	29628.84
583.06	30008.01
583.22	29785.66
583.38	29551.60
583.54	29776.30
583.70	29675.65
583.86	29481.39
584.02	29287.12
584.18	29558.63
584.34	29703.74
584.50	29832.47
584.66	29708.42
584.82	29474.37
584.98	29853.53
585.14	29895.66
585.30	29394.79
585.46	29544.58
585.62	29240.31
585.78	29771.61
585.94	29462.66
586.10	29584.37
586.26	29792.68
586.42	29912.05
586.58	30326.32
586.74	29589.05
586.90	29495.43
587.06	29158.39
587.22	29764.59
587.38	29401.81
587.54	29879.28
587.70	30110.99
587.86	29933.11
588.02	30036.09
588.18	30010.35
588.34	30066.52
588.49	29909.71
588.65	29881.62
588.81	29619.48
588.97	29668.63
589.13	29355.00
589.29	29867.58
589.45	30148.44
589.61	30050.14
589.77	30408.24
589.93	29734.17
590.08	29905.02
590.24	30263.13
590.40	29759.91
590.56	29844.17
590.72	30176.53
590.88	30024.39
591.04	29764.59
591.20	30192.91
591.35	30221.00
591.51	30359.09
591.67	30094.61
591.83	30150.78
591.99	30441.01
