SpectraSuite Data File
++++++++++++++++++++++++++++++++++++
Date: Fri Oct 18 13:58:34 GMT-05:00 2013
User: bianchi
Dark Spectrum Present: No
Reference Spectrum Present: No
Number of Sampled Component Spectra: 1
Spectrometers: USB2+H05261
Integration Time (usec): 50000 (USB2+H05261)
Spectra Averaged: 1 (USB2+H05261)
Boxcar Smoothing: 0 (USB2+H05261)
Correct for Electrical Dark: No (USB2+H05261)
Strobe/Lamp Enabled: No (USB2+H05261)
Correct for Detector Non-linearity: No (USB2+H05261)
Correct for Stray Light: No (USB2+H05261)
Number of Pixels in Processed Spectrum: 2048
>>>>>Begin Processed Spectral Data<<<<<
365.73	0.00
365.92	0.00
366.12	0.00
366.32	0.00
366.52	0.00
366.72	0.00
366.91	0.00
367.11	0.00
367.31	0.00
367.51	0.00
367.70	0.00
367.90	0.00
368.10	0.00
368.30	0.00
368.49	0.00
368.69	0.00
368.89	0.00
369.09	0.00
369.28	0.00
369.48	0.00
369.68	0.00
369.87	0.00
370.07	0.00
370.27	0.00
370.47	0.00
370.66	84.26
370.86	58.51
371.06	112.35
371.25	154.48
371.45	194.26
371.65	177.88
371.84	180.22
372.04	100.64
372.24	161.50
372.44	187.24
372.63	163.84
372.83	191.92
373.03	201.29
373.22	196.60
373.42	215.33
373.62	182.56
373.81	147.45
374.01	248.10
374.21	224.69
374.40	252.78
374.60	217.67
374.79	238.73
374.99	271.50
375.19	220.01
375.38	255.12
375.58	189.58
375.78	301.93
375.97	259.80
376.17	334.70
376.37	257.46
376.56	313.63
376.76	278.52
376.95	311.29
377.15	313.63
377.35	238.73
377.54	229.37
377.74	252.78
377.93	248.10
378.13	327.68
378.33	264.48
378.52	287.89
378.72	318.31
378.91	318.31
379.11	348.74
379.31	313.63
379.50	273.84
379.70	304.27
379.89	294.91
380.09	161.50
380.28	299.59
380.48	210.65
380.68	322.99
380.87	311.29
381.07	299.59
381.26	325.33
381.46	294.91
381.65	330.02
381.85	290.23
382.04	285.55
382.24	339.38
382.43	348.74
382.63	341.72
382.83	390.87
383.02	318.31
383.22	355.76
383.41	381.51
383.61	283.20
383.80	320.65
384.00	383.85
384.19	285.55
384.39	393.21
384.58	360.44
384.78	379.17
384.97	393.21
385.17	407.25
385.36	376.83
385.56	402.57
385.75	425.98
385.95	348.74
386.14	390.87
386.34	344.06
386.53	418.96
386.72	330.02
386.92	388.53
387.11	358.10
387.31	402.57
387.50	418.96
387.70	369.80
387.89	440.02
388.09	397.89
388.28	355.76
388.48	486.83
388.67	383.85
388.86	430.66
389.06	458.74
389.25	475.13
389.45	491.51
389.64	428.32
389.84	517.26
390.03	554.71
390.22	421.30
390.42	505.56
390.61	547.69
390.81	465.77
391.00	475.13
391.19	477.47
391.39	528.96
391.58	528.96
391.78	491.51
391.97	528.96
392.16	456.40
392.36	519.60
392.55	528.96
392.75	594.50
392.94	669.39
393.13	573.43
393.33	559.39
393.52	587.47
393.71	531.30
393.91	589.82
394.10	566.41
394.29	538.32
394.49	648.33
394.68	606.20
394.88	514.92
395.07	538.32
395.26	596.84
395.46	627.26
395.65	650.67
395.84	587.47
396.04	599.18
396.23	585.13
396.42	634.29
396.62	627.26
396.81	660.03
397.00	671.73
397.19	596.84
397.39	631.94
397.58	720.88
397.77	676.41
397.97	641.31
398.16	571.09
398.35	631.94
398.55	681.10
398.74	730.25
398.93	697.48
399.12	608.54
399.32	706.84
399.51	706.84
399.70	732.59
399.90	678.76
400.09	774.72
400.28	765.36
400.47	791.10
400.67	840.25
400.86	730.25
401.05	718.54
401.24	744.29
401.44	784.08
401.63	748.97
401.82	755.99
402.01	746.63
402.21	861.32
402.40	830.89
402.59	868.34
402.78	788.76
402.97	814.51
403.17	910.47
403.36	830.89
403.55	877.70
403.74	861.32
403.93	910.47
404.13	957.28
404.32	826.21
404.51	854.30
404.70	933.87
404.89	952.60
405.09	933.87
405.28	861.32
405.47	863.66
405.66	905.79
405.85	922.17
406.05	954.94
406.24	957.28
406.43	1015.79
406.62	1025.15
406.81	1086.01
407.00	1027.50
407.20	903.45
407.39	997.07
407.58	1050.90
407.77	1032.18
407.96	1090.69
408.15	1025.15
408.34	1078.99
408.54	1001.75
408.73	1118.78
408.92	1086.01
409.11	1090.69
409.30	1130.48
409.49	1111.75
409.68	1172.61
409.87	1083.67
410.07	1135.16
410.26	1196.01
410.45	1188.99
410.64	1109.41
410.83	1191.33
411.02	1144.52
411.21	1254.53
411.40	1097.71
411.59	1153.88
411.78	1261.55
411.98	1184.31
412.17	1259.21
412.36	1226.44
412.55	1198.35
412.74	1273.25
412.93	1345.81
413.12	1263.89
413.31	1380.92
413.50	1207.72
413.69	1394.96
413.88	1418.36
414.07	1373.89
414.26	1486.24
414.45	1404.32
414.64	1413.68
414.83	1481.56
415.02	1453.47
415.22	1502.62
415.41	1570.50
415.60	1413.68
415.79	1476.88
415.98	1577.52
416.17	1591.56
416.36	1565.82
416.55	1600.93
416.74	1565.82
416.93	1640.72
417.12	1636.03
417.31	1678.16
417.50	1732.00
417.69	1694.55
417.88	1621.99
418.07	1715.61
418.26	1764.76
418.45	1797.53
418.64	1753.06
418.83	1813.92
419.02	1706.25
419.21	1884.13
419.39	1739.02
419.58	1774.13
419.77	1746.04
419.96	1771.79
420.15	1893.49
420.34	1933.28
420.53	1839.66
420.72	1762.42
420.91	1973.07
421.10	1944.99
421.29	1912.22
421.48	1935.62
421.67	1987.11
421.86	1867.75
422.05	1891.15
422.24	2026.90
422.43	2036.27
422.61	1954.35
422.80	2043.29
422.99	2017.54
423.18	2066.69
423.37	2057.33
423.56	2134.57
423.75	1994.14
423.94	1973.07
424.13	1902.86
424.32	1947.33
424.50	2003.50
424.69	2064.35
424.88	2080.74
425.07	1989.46
425.26	1914.56
425.45	2040.95
425.64	2094.78
425.83	2005.84
426.01	2181.38
426.20	2085.42
426.39	2043.29
426.58	1954.35
426.77	2052.65
426.96	2120.53
427.15	2122.87
427.33	2118.18
427.52	2127.55
427.71	2083.08
427.90	2207.13
428.09	2228.19
428.28	2122.87
428.46	2223.51
428.65	2207.13
428.84	2317.13
429.03	2242.23
429.22	2134.57
429.40	2150.95
429.59	2115.84
429.78	2113.50
429.97	2080.74
430.16	2204.78
430.34	2303.09
430.53	2438.84
430.72	2277.34
430.91	2382.67
431.10	2363.94
431.28	2263.30
431.47	2284.36
431.66	2424.80
431.85	2272.66
432.03	2438.84
432.22	2382.67
432.41	2434.16
432.60	2317.13
432.79	2427.14
432.97	2382.67
433.16	2438.84
433.35	2516.08
433.54	2483.31
433.72	2562.89
433.91	2640.12
434.10	2593.31
434.28	2530.12
434.47	2452.88
434.66	2605.02
434.85	2593.31
435.03	2548.84
435.22	2647.15
435.41	2656.51
435.59	2616.72
435.78	2579.27
435.97	2537.14
436.16	2663.53
436.34	2626.08
436.53	2628.42
436.72	2848.43
436.90	2590.97
437.09	2616.72
437.28	2647.15
437.46	2773.53
437.65	2658.85
437.84	2935.03
438.02	2820.35
438.21	2766.51
438.40	2745.45
438.58	2771.19
438.77	2860.13
438.96	2773.53
439.14	2818.00
439.33	2930.35
439.52	2967.80
439.70	2888.22
439.89	2895.24
440.08	3077.80
440.26	2986.52
440.45	3047.38
440.63	3117.59
440.82	3112.91
441.01	3070.78
441.19	3049.72
441.38	3094.19
441.57	3164.40
441.75	3187.81
441.94	3309.52
442.12	3262.71
442.31	3368.03
442.50	3276.75
442.68	3431.23
442.87	3393.78
443.05	3248.66
443.24	3372.71
443.43	3442.93
443.61	3314.20
443.80	3426.54
443.98	3384.41
444.17	3173.77
444.35	3269.73
444.54	3433.57
444.73	3475.70
444.91	3211.22
445.10	3253.34
445.28	3283.77
445.47	3449.95
445.65	3412.50
445.84	3433.57
446.02	3377.39
446.21	3440.59
446.39	3358.67
446.58	3487.40
446.77	3382.07
446.95	3431.23
447.14	3506.12
447.32	3543.57
447.51	3513.14
447.69	3468.67
447.88	3435.91
448.06	3396.12
448.25	3473.36
448.43	3599.74
448.62	3456.97
448.80	3506.12
448.99	3421.86
449.17	3529.53
449.36	3597.40
449.54	3569.32
449.73	3637.19
449.91	3578.68
450.10	3555.27
450.28	3602.08
450.46	3698.05
450.65	3871.25
450.83	3756.56
451.02	3777.62
451.20	3859.54
451.39	3815.07
451.57	3808.05
451.76	3754.22
451.94	3688.68
452.13	3943.80
452.31	3892.31
452.49	3866.56
452.68	3749.54
452.86	3772.94
453.05	3936.78
453.23	3796.35
453.42	3847.84
453.60	3843.16
453.78	3868.91
453.97	3878.27
454.15	3857.20
454.34	3946.14
454.52	4070.19
454.70	3906.35
454.89	4067.85
455.07	3964.87
455.26	4077.21
455.44	3976.57
455.62	4231.69
455.81	4107.64
455.99	4205.94
456.17	4131.05
456.36	4224.67
456.54	4306.59
456.73	4198.92
456.91	4250.41
457.09	4320.63
457.28	4517.23
457.46	4283.18
457.64	4278.50
457.83	4306.59
458.01	4372.12
458.19	4341.69
458.38	4212.96
458.56	4379.14
458.74	4432.97
458.93	4327.65
459.11	4407.23
459.29	4325.31
459.48	4489.15
459.66	4358.08
459.84	4517.23
460.03	4608.51
460.21	4358.08
460.39	4428.29
460.57	4601.49
460.76	4561.70
460.94	4575.75
461.12	4404.89
461.31	4449.36
461.49	4571.07
461.67	4587.45
461.85	4634.26
462.04	4671.71
462.22	4688.09
462.40	4720.86
462.59	4709.16
462.77	4688.09
462.95	4798.10
463.13	4676.39
463.32	4777.03
463.50	4765.33
463.68	4699.80
463.86	4671.71
464.05	4737.24
464.23	4681.07
464.41	4718.52
464.59	4681.07
464.78	5104.71
464.96	4861.29
465.14	4880.02
465.32	4903.42
465.50	5081.30
465.69	4950.23
465.87	4933.85
466.05	4826.18
466.23	4823.84
466.41	5006.41
466.60	5121.09
466.78	4980.66
466.96	4992.36
467.14	5048.54
467.32	4973.64
467.51	4922.15
467.69	4936.19
467.87	5083.64
468.05	5078.96
468.23	5062.58
468.41	5174.92
468.60	5100.03
468.78	5245.14
468.96	5069.60
469.14	5308.34
469.32	5280.25
469.50	5212.37
469.69	5289.61
469.87	5247.48
470.05	5376.21
470.23	5336.42
470.41	5378.55
470.59	5364.51
470.77	5432.38
470.95	5305.99
471.14	5490.90
471.32	5486.22
471.50	5584.52
471.68	5455.79
471.86	5444.09
472.04	5673.46
472.22	5689.84
472.40	5628.99
472.58	5678.14
472.77	5687.50
472.95	5703.89
473.13	5977.73
473.31	5701.54
473.49	5795.17
473.67	5916.87
473.85	5881.77
474.03	6019.86
474.21	5844.32
474.39	5991.77
474.57	6118.16
474.75	6061.99
474.93	6101.78
475.12	6230.51
475.30	6155.61
475.48	6111.14
475.66	6204.76
475.84	6181.35
476.02	6256.25
476.20	6272.64
476.38	6466.90
476.56	6628.40
476.74	6368.60
476.92	6368.60
477.10	6382.64
477.28	6569.88
477.46	6450.52
477.64	6759.47
477.82	6675.21
478.00	6902.24
478.18	6850.75
478.36	6841.39
478.54	6930.33
478.72	7059.06
478.90	7136.29
479.08	7117.57
479.26	7281.41
479.44	7255.66
479.62	7272.04
479.80	7410.14
479.98	7253.32
480.16	7466.31
480.34	7253.32
480.52	7566.95
480.70	7534.18
480.88	7398.43
481.06	7630.15
481.24	7672.28
481.41	7791.64
481.59	7705.04
481.77	8044.42
481.95	8025.70
482.13	8208.26
482.31	8175.49
482.49	8077.19
482.67	8273.79
482.85	8252.73
483.03	8344.01
483.21	8449.33
483.39	8531.25
483.57	8580.40
483.74	8657.64
483.92	8695.09
484.10	8596.79
484.28	8851.91
484.46	8959.57
484.64	9139.79
484.82	8940.85
485.00	9013.40
485.18	9254.48
485.35	9472.15
485.53	9455.76
485.71	9254.48
485.89	9549.39
486.07	9277.88
486.25	9603.22
486.43	9476.83
486.61	9781.10
486.78	9757.69
486.96	9956.64
487.14	9940.26
487.32	9926.21
487.50	10139.20
487.68	10099.41
487.85	10576.88
488.03	10118.14
488.21	10647.10
488.39	10408.36
488.57	10602.63
488.75	10342.83
488.92	10707.95
489.10	10909.24
489.28	10824.98
489.46	10965.41
489.64	10998.18
489.81	11115.20
489.99	11353.94
490.17	11236.91
490.35	11325.85
490.53	11309.47
490.70	11634.80
490.88	11529.48
491.06	11808.00
491.24	11559.91
491.41	11609.06
491.59	11815.02
491.77	11819.71
491.95	11922.69
492.13	12156.74
492.30	12025.67
492.48	12135.68
492.66	12453.99
492.84	12250.36
493.01	12482.08
493.19	12608.47
493.37	12503.14
493.54	12395.48
493.72	12655.28
493.90	12744.22
494.08	12835.50
494.25	12865.92
494.43	12973.59
494.61	12884.65
494.79	13043.81
494.96	13427.65
495.14	13420.63
495.32	13097.64
495.49	13338.71
495.67	13322.33
495.85	13661.71
496.02	13738.94
496.20	13659.37
496.38	14017.47
496.55	13757.67
496.73	14024.49
496.91	13844.27
497.09	14092.37
497.26	14197.69
497.44	14064.28
497.62	14347.48
497.79	14380.25
497.97	14406.00
498.14	14644.73
498.32	14705.59
498.50	14728.99
498.67	15002.83
498.85	14874.10
499.03	14614.30
499.20	14656.43
499.38	14897.51
499.56	15213.48
499.73	15136.24
499.91	15061.35
500.08	15304.76
500.26	15161.99
500.44	15370.30
500.61	15218.16
500.79	15257.95
500.97	15524.77
501.14	15714.36
501.32	15843.09
501.49	15566.90
501.67	15742.44
501.84	15826.70
502.02	15777.55
502.20	15709.68
502.37	15810.32
502.55	15852.45
502.72	16063.10
502.90	16037.35
503.07	15922.66
503.25	16306.51
503.43	16304.17
503.60	16152.04
503.78	16418.86
503.95	16423.54
504.13	16437.58
504.30	16685.68
504.48	16479.71
504.65	16615.46
504.83	16851.86
505.01	16957.18
505.18	16755.90
505.36	17048.46
505.53	16812.07
505.71	16915.05
505.88	16945.48
506.06	16936.12
506.23	17348.05
506.41	17247.41
506.58	17172.51
506.76	17209.96
506.93	17380.82
507.11	17139.74
507.28	17551.68
507.46	17291.88
507.63	17275.49
507.81	17764.67
507.98	17558.70
508.16	17694.45
508.33	17411.25
508.50	17769.35
508.68	17848.93
508.85	18047.87
509.03	17839.56
509.20	17825.52
509.38	18291.29
509.55	18293.63
509.73	18333.42
509.90	18307.67
510.08	18256.18
510.25	18003.40
510.42	18324.05
510.60	18515.98
510.77	18532.36
510.95	18937.27
511.12	18380.23
511.30	18434.06
511.47	18614.28
511.64	18623.64
511.82	18799.18
511.99	18941.96
512.17	19140.90
512.34	18434.06
512.51	19054.30
512.69	19014.51
512.86	19049.62
513.04	19012.17
513.21	19332.82
513.38	19213.46
513.56	19208.78
513.73	19370.27
513.90	19367.93
514.08	19660.50
514.25	19365.59
514.43	19344.53
514.60	19400.70
514.77	19367.93
514.95	19896.89
515.12	19995.20
515.29	19470.92
515.47	19412.40
515.64	19782.21
515.81	19955.41
515.99	20088.82
516.16	19826.68
516.33	20009.24
516.51	20273.72
516.68	19999.88
516.85	19875.83
517.03	20491.39
517.20	20093.50
517.37	20521.82
517.54	20250.32
517.72	20500.75
517.89	20276.06
518.06	20357.98
518.24	20519.48
518.41	20458.62
518.58	20442.24
518.75	20365.00
518.93	21095.25
519.10	20786.30
519.27	20893.96
519.45	20348.62
519.62	20559.27
519.79	21036.74
519.96	21170.15
520.14	20877.58
520.31	20760.55
520.48	21008.65
520.65	21085.89
520.83	20877.58
521.00	20950.14
521.17	21144.40
521.34	21324.62
521.52	21238.02
521.69	21355.05
521.86	21565.70
522.03	21680.38
522.20	21776.34
522.38	21624.21
522.55	21692.08
522.72	21715.49
522.89	21694.43
523.07	21886.35
523.24	21872.31
523.41	21818.47
523.58	21776.34
523.75	22082.95
523.92	21797.41
524.10	22001.04
524.27	22106.36
524.44	21977.63
524.61	22396.59
524.78	22237.43
524.96	22199.98
525.13	22253.81
525.30	22249.13
525.47	22221.05
525.64	22204.66
525.81	22391.91
525.98	22773.41
526.16	22850.65
526.33	22586.17
526.50	23014.49
526.67	22483.19
526.84	22288.92
527.01	22951.29
527.18	22703.20
527.36	22794.48
527.53	22838.95
527.70	22988.74
527.87	22829.59
528.04	23063.64
528.21	22995.76
528.38	22843.63
528.55	22986.40
528.72	22951.29
528.89	23161.94
529.07	22911.50
529.24	23232.16
529.41	23302.37
529.58	23194.71
529.75	23030.87
529.92	23309.40
530.09	23407.70
530.26	23335.14
530.43	23644.09
530.60	23129.17
530.77	23426.42
530.94	23880.49
531.11	23370.25
531.28	23414.72
531.46	23470.89
531.63	23601.96
531.80	23826.65
531.97	24105.18
532.14	23728.35
532.31	23728.35
532.48	23985.81
532.65	23789.20
532.82	23730.69
532.99	23953.04
533.16	23931.98
533.33	23953.04
533.50	24051.34
533.67	24500.73
533.84	24093.47
534.01	23892.19
534.18	23985.81
534.35	24404.77
534.52	24294.76
534.69	24023.26
534.86	24397.74
535.03	24247.95
535.20	24208.16
535.37	24465.62
535.54	24940.75
535.71	24542.86
535.88	24327.53
536.05	24437.53
536.22	24931.39
536.38	24540.52
536.55	24547.54
536.72	24793.29
536.89	24662.22
537.06	24561.58
537.23	24474.98
537.40	24819.04
537.57	24896.28
537.74	24964.15
537.91	24999.26
538.08	25095.22
538.25	25301.19
538.42	24994.58
538.59	24982.88
538.75	25043.73
538.92	25137.35
539.09	25069.48
539.26	25153.74
539.43	25242.68
539.60	25223.95
539.77	24823.72
539.94	25500.14
540.11	25397.15
540.28	25465.03
540.44	25268.42
540.61	25142.03
540.78	25631.21
540.95	25750.57
541.12	25528.22
541.29	25385.45
541.46	25504.82
541.62	25612.48
541.79	25254.38
541.96	25207.57
542.13	25420.56
542.30	25680.36
542.47	25975.27
542.63	25532.90
542.80	25968.24
542.97	26160.17
543.14	26340.39
543.31	25827.81
543.48	26012.71
543.64	26134.42
543.81	26686.79
543.98	26246.77
544.15	26272.51
544.32	26539.33
544.48	26302.94
544.65	26052.50
544.82	26298.26
544.99	26160.17
545.16	26015.05
545.32	26441.03
545.49	26703.17
545.66	26377.84
545.83	26426.99
546.00	26677.43
546.16	26520.61
546.33	26794.45
546.50	26459.76
546.67	26616.57
546.83	26132.08
547.00	26632.96
547.17	26630.62
547.34	26787.43
547.50	26675.09
547.67	27030.85
547.84	26991.06
548.00	26944.25
548.17	26820.20
548.34	26534.65
548.51	27108.08
548.67	27178.30
548.84	26969.99
549.01	26941.91
549.18	26588.49
549.34	26944.25
549.51	26969.99
549.68	27129.15
549.84	27047.23
550.01	27171.28
550.18	27040.21
550.34	27035.53
550.51	27288.31
550.68	27410.01
550.84	26738.28
551.01	27426.40
551.18	27054.25
551.34	26939.57
551.51	27021.48
551.68	27290.65
551.84	27388.95
552.01	27599.60
552.18	27573.85
552.34	27351.50
552.51	27613.64
552.68	27557.47
552.84	27461.51
553.01	27236.81
553.18	27199.37
553.34	27508.32
553.51	27337.46
553.67	27882.80
553.84	27545.76
554.01	27817.27
554.17	27765.78
554.34	27505.98
554.51	27606.62
554.67	27541.08
554.84	27543.42
555.00	27702.58
555.17	27929.61
555.33	27857.06
555.50	27866.42
555.67	27440.44
555.83	27910.89
556.00	28140.26
556.16	28208.14
556.33	27899.19
556.50	27880.46
556.66	27634.71
556.83	28016.21
556.99	27983.44
557.16	28173.03
557.32	28603.69
557.49	28149.62
557.65	28041.96
557.82	27946.00
557.98	27999.83
558.15	28364.95
558.32	28416.44
558.48	28194.09
558.65	28699.65
558.81	27910.89
558.98	28456.23
559.14	28121.54
559.31	28175.37
559.47	28414.10
559.64	28196.43
559.80	28533.47
559.97	28559.22
560.13	28397.72
560.30	28402.40
560.46	28802.63
560.63	28203.46
560.79	28617.73
560.96	28514.75
561.12	28371.97
561.29	28514.75
561.45	28301.76
561.61	28355.59
561.78	28680.92
561.94	28409.42
562.11	28201.11
562.27	28573.26
562.44	28224.52
562.60	28493.68
562.77	28697.31
562.93	28407.08
563.10	29282.44
563.26	28655.18
563.42	29017.96
563.59	28563.90
563.75	28577.94
563.92	28716.03
564.08	28540.49
564.24	28549.85
564.41	28905.62
564.57	28465.60
564.74	28772.21
564.90	28638.80
565.07	28966.47
565.23	28744.12
565.39	28830.72
565.56	28968.81
565.72	28987.53
565.88	29029.66
566.05	28694.97
566.21	28807.31
566.38	28797.95
566.54	28957.11
566.70	29097.54
566.87	29097.54
567.03	29156.05
567.19	29422.87
567.36	29160.73
567.52	28589.64
567.68	28987.53
567.85	28655.18
568.01	28664.54
568.17	28900.94
568.34	28985.19
568.50	28982.85
568.66	29235.63
568.83	28933.70
568.99	29415.85
569.15	29298.83
569.32	29242.65
569.48	28802.63
569.64	29275.42
569.81	29214.57
569.97	29338.62
570.13	29319.89
570.30	28807.31
570.46	29462.66
570.62	28833.06
570.78	28931.36
570.95	29254.36
571.11	29303.51
571.27	29188.82
571.43	29085.84
571.60	29647.57
571.76	29055.41
571.92	29263.72
572.09	28926.68
572.25	29589.05
572.41	29654.59
572.57	29149.03
572.74	29446.28
572.90	29144.35
573.06	29132.65
573.22	29301.17
573.38	29577.35
573.55	29380.74
573.71	29525.86
573.87	29322.23
574.03	29181.80
574.20	29532.88
574.36	29017.96
574.52	29661.61
574.68	29127.97
574.84	29151.37
575.01	29331.59
575.17	29336.27
575.33	29338.62
575.49	29244.99
575.65	29104.56
575.82	29294.14
575.98	29268.40
576.14	29109.24
576.30	29397.13
576.46	29118.60
576.62	29397.13
576.79	29666.29
576.95	29179.46
577.11	29773.95
577.27	29500.11
577.43	29605.44
577.59	29127.97
577.75	29312.87
577.92	29474.37
578.08	28996.90
578.24	29296.49
578.40	29404.15
578.56	29626.50
578.72	29593.73
578.88	29745.87
579.04	29502.45
579.21	29479.05
579.37	29614.80
579.53	29605.44
579.69	29413.51
579.85	29596.07
580.01	29443.94
580.17	29661.61
580.33	29645.23
580.49	29383.09
580.65	29486.07
580.82	29465.00
580.98	29493.09
581.14	29511.81
581.30	29462.66
581.46	29336.27
581.62	29497.77
581.78	29443.94
581.94	29645.23
582.10	29717.78
582.26	29699.06
582.42	29486.07
582.58	29811.40
582.74	29443.94
582.90	29921.41
583.06	29252.02
583.22	29518.84
583.38	29347.98
583.54	29937.79
583.70	29589.05
583.86	29441.60
584.02	29163.08
584.18	29610.12
584.34	29525.86
584.50	29710.76
584.66	29401.81
584.82	29970.56
584.98	29783.32
585.14	29355.00
585.30	29252.02
585.46	29104.56
585.62	29818.42
585.78	29521.18
585.94	29399.47
586.10	29675.65
586.26	29376.06
586.42	29790.34
586.58	29687.36
586.74	29734.17
586.90	29347.98
587.06	29415.85
587.22	29465.00
587.38	29223.93
587.54	30204.61
587.70	29792.68
587.86	29741.19
588.02	29890.98
588.18	29785.66
588.34	29860.55
588.49	29600.76
588.65	29530.54
588.81	29839.49
588.97	30094.61
589.13	29858.21
589.29	29752.89
589.45	29837.15
589.61	30019.71
589.77	30167.16
589.93	30080.56
590.08	29942.47
590.24	29982.26
590.40	29759.91
590.56	30061.84
590.72	29825.45
590.88	29972.90
591.04	29736.51
591.20	30527.61
591.35	29575.01
591.51	29860.55
591.67	30078.22
591.83	30408.24
591.99	29986.94
