SpectraSuite Data File
++++++++++++++++++++++++++++++++++++
Date: Fri Oct 18 13:58:29 GMT-05:00 2013
User: bianchi
Dark Spectrum Present: No
Reference Spectrum Present: No
Number of Sampled Component Spectra: 1
Spectrometers: USB2+H05261
Integration Time (usec): 50000 (USB2+H05261)
Spectra Averaged: 1 (USB2+H05261)
Boxcar Smoothing: 0 (USB2+H05261)
Correct for Electrical Dark: No (USB2+H05261)
Strobe/Lamp Enabled: No (USB2+H05261)
Correct for Detector Non-linearity: No (USB2+H05261)
Correct for Stray Light: No (USB2+H05261)
Number of Pixels in Processed Spectrum: 2048
>>>>>Begin Processed Spectral Data<<<<<
365.73	0.00
365.92	0.00
366.12	0.00
366.32	0.00
366.52	0.00
366.72	0.00
366.91	0.00
367.11	0.00
367.31	0.00
367.51	0.00
367.70	0.00
367.90	0.00
368.10	0.00
368.30	0.00
368.49	0.00
368.69	0.00
368.89	0.00
369.09	0.00
369.28	0.00
369.48	0.00
369.68	0.00
369.87	0.00
370.07	0.00
370.27	0.00
370.47	0.00
370.66	124.05
370.86	133.41
371.06	163.84
371.25	142.77
371.45	168.52
371.65	175.54
371.84	205.97
372.04	119.37
372.24	170.86
372.44	142.77
372.63	177.88
372.83	227.03
373.03	154.48
373.22	156.82
373.42	189.58
373.62	208.31
373.81	255.12
374.01	269.16
374.21	173.20
374.40	231.71
374.60	234.05
374.79	269.16
374.99	203.63
375.19	264.48
375.38	201.29
375.58	170.86
375.78	252.78
375.97	250.44
376.17	280.86
376.37	241.08
376.56	264.48
376.76	201.29
376.95	257.46
377.15	334.70
377.35	257.46
377.54	308.95
377.74	266.82
377.93	229.37
378.13	292.57
378.33	264.48
378.52	222.35
378.72	245.76
378.91	325.33
379.11	229.37
379.31	299.59
379.50	292.57
379.70	292.57
379.89	283.20
380.09	301.93
380.28	243.42
380.48	276.18
380.68	245.76
380.87	238.73
381.07	262.14
381.26	283.20
381.46	301.93
381.65	306.61
381.85	294.91
382.04	341.72
382.24	372.15
382.43	376.83
382.63	379.17
382.83	330.02
383.02	297.25
383.22	325.33
383.41	315.97
383.61	325.33
383.80	360.44
384.00	346.40
384.19	299.59
384.39	362.78
384.58	390.87
384.78	409.59
384.97	383.85
385.17	381.51
385.36	365.12
385.56	395.55
385.75	489.17
385.95	416.62
386.14	409.59
386.34	383.85
386.53	330.02
386.72	322.99
386.92	435.34
387.11	402.57
387.31	372.15
387.50	489.17
387.70	407.25
387.89	423.64
388.09	433.00
388.28	381.51
388.48	402.57
388.67	519.60
388.86	498.53
389.06	425.98
389.25	500.87
389.45	461.09
389.64	442.36
389.84	451.72
390.03	440.02
390.22	545.34
390.42	496.19
390.61	386.19
390.81	416.62
391.00	440.02
391.19	503.22
391.39	397.89
391.58	587.47
391.78	498.53
391.97	566.41
392.16	559.39
392.36	510.24
392.55	582.79
392.75	503.22
392.94	510.24
393.13	692.80
393.33	517.26
393.52	561.73
393.71	580.45
393.91	559.39
394.10	622.58
394.29	561.73
394.49	573.43
394.68	603.86
394.88	622.58
395.07	660.03
395.26	613.22
395.46	554.71
395.65	653.01
395.84	706.84
396.04	669.39
396.23	585.13
396.42	547.69
396.62	634.29
396.81	732.59
397.00	669.39
397.19	664.71
397.39	603.86
397.58	660.03
397.77	662.37
397.97	566.41
398.16	692.80
398.35	681.10
398.55	711.52
398.74	699.82
398.93	807.48
399.12	753.65
399.32	627.26
399.51	685.78
399.70	826.21
399.90	692.80
400.09	739.61
400.28	767.70
400.47	760.67
400.67	802.80
400.86	751.31
401.05	786.42
401.24	802.80
401.44	805.14
401.63	784.08
401.82	774.72
402.01	826.21
402.21	856.64
402.40	887.06
402.59	812.17
402.78	777.06
402.97	844.93
403.17	851.96
403.36	849.61
403.55	858.98
403.74	819.19
403.93	887.06
404.13	870.68
404.32	858.98
404.51	858.98
404.70	924.51
404.89	898.77
405.09	929.19
405.28	959.62
405.47	978.34
405.66	901.11
405.85	1039.20
406.05	915.15
406.24	983.02
406.43	957.28
406.62	1001.75
406.81	1006.43
407.00	1006.43
407.20	1015.79
407.39	1064.94
407.58	1060.26
407.77	1034.52
407.96	1135.16
408.15	1111.75
408.34	1067.28
408.54	1086.01
408.73	1032.18
408.92	1090.69
409.11	1104.73
409.30	1121.12
409.49	1088.35
409.68	1153.88
409.87	1163.25
410.07	1146.86
410.26	1153.88
410.45	1193.67
410.64	1146.86
410.83	1273.25
411.02	1238.14
411.21	1261.55
411.40	1114.10
411.59	1282.61
411.78	1291.98
411.98	1193.67
412.17	1196.01
412.36	1254.53
412.55	1348.15
412.74	1390.28
412.93	1256.87
413.12	1317.72
413.31	1373.89
413.50	1385.60
413.69	1437.09
413.88	1409.00
414.07	1385.60
414.26	1399.64
414.45	1406.66
414.64	1472.20
414.83	1519.01
415.02	1418.36
415.22	1535.39
415.41	1514.33
415.60	1540.07
415.79	1493.26
415.98	1526.03
416.17	1619.65
416.36	1575.18
416.55	1521.35
416.74	1579.86
416.93	1631.35
417.12	1701.57
417.31	1589.22
417.50	1633.69
417.69	1696.89
417.88	1762.42
418.07	1619.65
418.26	1689.87
418.45	1739.02
418.64	1769.44
418.83	1886.47
419.02	1792.85
419.21	1914.56
419.39	1778.81
419.58	1860.73
419.77	1816.26
419.96	1867.75
420.15	1952.01
420.34	1816.26
420.53	1825.62
420.72	1781.15
420.91	1872.43
421.10	1949.67
421.29	1893.49
421.48	1858.39
421.67	1935.62
421.86	1933.28
422.05	2022.22
422.24	1935.62
422.43	1902.86
422.61	1944.99
422.80	1970.73
422.99	2043.29
423.18	1947.33
423.37	2033.93
423.56	1994.14
423.75	1942.64
423.94	1980.09
424.13	1907.54
424.32	1947.33
424.50	2033.93
424.69	2083.08
424.88	1963.71
425.07	1919.24
425.26	1984.77
425.45	1940.30
425.64	2003.50
425.83	2052.65
426.01	2099.46
426.20	1977.75
426.39	2090.10
426.58	2054.99
426.77	2040.95
426.96	2181.38
427.15	2045.63
427.33	2132.23
427.52	2085.42
427.71	2263.30
427.90	2204.78
428.09	2218.83
428.28	2244.57
428.46	2076.06
428.65	2230.53
428.84	2155.63
429.03	2237.55
429.22	2162.66
429.40	2216.49
429.59	2253.94
429.78	2148.61
429.97	2270.32
430.16	2172.02
430.34	2218.83
430.53	2300.75
430.72	2317.13
430.91	2305.43
431.10	2228.19
431.28	2228.19
431.47	2340.54
431.66	2462.24
431.85	2340.54
432.03	2443.52
432.22	2450.54
432.41	2532.46
432.60	2347.56
432.79	2438.84
432.97	2394.37
433.16	2417.77
433.35	2504.37
433.54	2518.42
433.72	2511.39
433.91	2523.10
434.10	2497.35
434.28	2450.54
434.47	2408.41
434.66	2647.15
434.85	2586.29
435.03	2546.50
435.22	2527.78
435.41	2616.72
435.59	2544.16
435.78	2654.17
435.97	2597.99
436.16	2602.68
436.34	2509.05
436.53	2572.25
436.72	2818.00
436.90	2579.27
437.09	2719.70
437.28	2499.69
437.46	2722.04
437.65	2717.36
437.84	2698.64
438.02	2806.30
438.21	2766.51
438.40	2682.25
438.58	2881.20
438.77	2874.18
438.96	2871.84
439.14	2984.18
439.33	2949.08
439.52	2939.71
439.70	3056.74
439.89	2977.16
440.08	2916.31
440.26	3070.78
440.45	2953.76
440.63	3052.06
440.82	3101.21
441.01	3089.51
441.19	3117.59
441.38	3150.36
441.57	3131.64
441.75	3131.64
441.94	3201.85
442.12	3192.49
442.31	3323.56
442.50	3178.45
442.68	3258.03
442.87	3332.92
443.05	3311.86
443.24	3286.11
443.43	3398.46
443.61	3304.84
443.80	3466.33
443.98	3393.78
444.17	3248.66
444.35	3400.80
444.54	3435.91
444.73	3459.31
444.91	3431.23
445.10	3447.61
445.28	3342.28
445.47	3365.69
445.65	3375.05
445.84	3440.59
446.02	3447.61
446.21	3417.18
446.39	3459.31
446.58	3389.10
446.77	3466.33
446.95	3398.46
447.14	3510.80
447.32	3454.63
447.51	3494.42
447.69	3473.36
447.88	3510.80
448.06	3595.06
448.25	3510.80
448.43	3487.40
448.62	3590.38
448.80	3463.99
448.99	3538.89
449.17	3616.13
449.36	3536.55
449.54	3576.34
449.73	3705.07
449.91	3667.62
450.10	3669.96
450.28	3779.97
450.46	3641.87
450.65	3845.50
450.83	3665.28
451.02	3667.62
451.20	3688.68
451.39	3817.41
451.57	3777.62
451.76	3824.44
451.94	3808.05
452.13	3747.20
452.31	3772.94
452.49	3716.77
452.68	3761.24
452.86	3817.41
453.05	3974.23
453.23	3873.59
453.42	3808.05
453.60	3822.09
453.78	3889.97
453.97	3810.39
454.15	4002.32
454.34	3925.08
454.52	4014.02
454.70	3887.63
454.89	3946.14
455.07	3936.78
455.26	3960.19
455.44	4084.23
455.62	4126.36
455.81	4084.23
455.99	4112.32
456.17	4142.75
456.36	4138.07
456.54	4212.96
456.73	4152.11
456.91	4205.94
457.09	4278.50
457.28	4250.41
457.46	4278.50
457.64	4252.75
457.83	4205.94
458.01	4285.52
458.19	4409.57
458.38	4304.25
458.56	4367.44
458.74	4362.76
458.93	4425.95
459.11	4423.61
459.29	4376.80
459.48	4428.29
459.66	4425.95
459.84	4353.40
460.03	4500.85
460.21	4587.45
460.39	4503.19
460.57	4437.66
460.76	4631.92
460.94	4585.11
461.12	4624.90
461.31	4521.92
461.49	4631.92
461.67	4641.28
461.85	4765.33
462.04	4753.63
462.22	4889.38
462.40	4627.24
462.59	4737.24
462.77	4709.16
462.95	4793.42
463.13	4634.26
463.32	4711.50
463.50	4638.94
463.68	4737.24
463.86	4667.03
464.05	4580.43
464.23	4688.09
464.41	4990.02
464.59	4727.88
464.78	4922.15
464.96	4994.70
465.14	4802.78
465.32	5022.79
465.50	4910.44
465.69	4898.74
465.87	4809.80
466.05	4873.00
466.23	5151.52
466.41	4889.38
466.60	5109.39
466.78	4954.91
466.96	4882.36
467.14	5107.05
467.32	5186.63
467.51	5130.45
467.69	4964.28
467.87	5057.90
468.05	5289.61
468.23	5163.22
468.41	5179.61
468.60	5034.49
468.78	5275.57
468.96	5085.98
469.14	5252.16
469.32	5270.89
469.50	5083.64
469.69	5252.16
469.87	5411.32
470.05	5514.30
470.23	5341.10
470.41	5479.19
470.59	5430.04
470.77	5376.21
470.95	5423.02
471.14	5549.41
471.32	5472.17
471.50	5568.13
471.68	5507.28
471.86	5678.14
472.04	5563.45
472.22	5806.87
472.40	5696.86
472.58	5713.25
472.77	5614.95
472.95	5746.02
473.13	5959.00
473.31	5753.04
473.49	5830.27
473.67	5813.89
473.85	5895.81
474.03	5902.83
474.21	5942.62
474.39	5947.30
474.57	6057.31
474.75	6141.57
474.93	6256.25
475.12	6010.50
475.30	6181.35
475.48	6099.44
475.66	6012.84
475.84	6284.34
476.02	6265.61
476.20	6363.92
476.38	6434.13
476.56	6513.71
476.74	6670.53
476.92	6429.45
477.10	6452.86
477.28	6583.93
477.46	6602.65
477.64	6635.42
477.82	6890.54
478.00	6942.03
478.18	6895.22
478.36	7148.00
478.54	7073.10
478.72	7110.55
478.90	7140.97
479.08	7115.23
479.26	7309.49
479.44	7220.55
479.62	7204.17
479.80	7349.28
479.98	7300.13
480.16	7447.58
480.34	7356.30
480.52	7531.84
480.70	7433.54
480.88	7691.00
481.06	7470.99
481.24	7606.74
481.41	7805.69
481.59	7925.05
481.77	7880.58
481.95	7936.76
482.13	8226.98
482.31	8070.17
482.49	8250.39
482.67	8301.88
482.85	8292.52
483.03	8360.39
483.21	8397.84
483.39	8407.20
483.57	8320.60
483.74	8655.30
483.92	8737.22
484.10	8573.38
484.28	8931.48
484.46	8823.82
484.64	9170.22
484.82	8879.99
485.00	8957.23
485.18	9205.33
485.35	9362.14
485.53	9221.71
485.71	9240.44
485.89	9521.30
486.07	9493.21
486.25	9399.59
486.43	9830.25
486.61	9612.58
486.78	9778.76
486.96	9905.15
487.14	10010.47
487.32	9799.82
487.50	10384.96
487.68	10197.71
487.85	10335.81
488.03	10251.55
488.21	10401.34
488.39	10485.60
488.57	10593.26
488.75	10670.50
488.92	10471.56
489.10	10689.23
489.28	10864.77
489.46	10932.64
489.64	10899.87
489.81	11159.67
489.99	11255.64
490.17	11321.17
490.35	11370.32
490.53	11419.47
490.70	11538.84
490.88	11522.46
491.06	11442.88
491.24	11576.29
491.41	11726.08
491.59	11936.73
491.77	11810.34
491.95	12051.42
492.13	12114.61
492.30	12154.40
492.48	12039.72
492.66	12093.55
492.84	12383.77
493.01	12334.62
493.19	12531.23
493.37	12629.53
493.54	12774.64
493.72	12940.82
493.90	12655.28
494.08	12861.24
494.25	12985.29
494.43	12849.54
494.61	13165.51
494.79	13004.02
494.96	13322.33
495.14	13032.10
495.32	13130.41
495.49	13535.32
495.67	13483.83
495.85	13827.88
496.02	13820.86
496.20	14141.52
496.38	13893.42
496.55	13614.90
496.73	14249.18
496.91	14001.08
497.09	13930.87
497.26	14237.48
497.44	13973.00
497.62	14272.59
497.79	14483.24
497.97	14408.34
498.14	14537.07
498.32	14532.39
498.50	14569.83
498.67	14881.13
498.85	14801.55
499.03	14925.60
499.20	14927.94
499.38	14939.64
499.56	15178.37
499.73	15157.31
499.91	15363.28
500.08	15321.15
500.26	15267.31
500.44	15211.14
500.61	15314.13
500.79	15513.07
500.97	15742.44
501.14	15513.07
501.32	15697.97
501.49	15559.88
501.67	15641.80
501.84	15503.71
502.02	15704.99
502.20	16133.31
502.37	16109.91
502.55	15943.73
502.72	15873.51
502.90	16063.10
503.07	16004.58
503.25	16063.10
503.43	15967.13
503.60	15990.54
503.78	16264.38
503.95	16390.77
504.13	16603.76
504.30	16472.69
504.48	16498.44
504.65	16688.02
504.83	16875.26
505.01	16954.84
505.18	16959.52
505.36	16957.18
505.53	16795.68
505.71	16936.12
505.88	16973.56
506.06	17116.34
506.23	17296.56
506.41	17083.57
506.58	17099.95
506.76	17289.54
506.93	17579.76
507.11	17191.23
507.28	17221.66
507.46	17488.48
507.63	17373.80
507.81	17832.54
507.98	17565.72
508.16	17504.87
508.33	17785.73
508.50	17530.61
508.68	17687.43
508.85	17947.23
509.03	17886.37
509.20	18293.63
509.38	17998.72
509.55	18314.69
509.73	18010.42
509.90	18136.81
510.08	18181.28
510.25	18249.16
510.42	18246.82
510.60	18317.03
510.77	18572.15
510.95	18583.85
511.12	18579.17
511.30	18492.57
511.47	18654.07
511.64	18565.13
511.82	18995.79
511.99	18689.18
512.17	18948.98
512.34	18820.25
512.51	19066.00
512.69	18970.04
512.86	19047.28
513.04	18991.11
513.21	19529.43
513.38	19147.92
513.56	19316.44
513.73	19377.30
513.90	19456.87
514.08	18967.70
514.25	19578.58
514.43	19583.26
514.60	19700.29
514.77	19655.82
514.95	19845.40
515.12	19517.73
515.29	19646.46
515.47	19896.89
515.64	19758.80
515.81	20196.48
515.99	20049.03
516.16	20046.69
516.33	20137.97
516.51	20346.28
516.68	19927.32
516.85	19847.74
517.03	20411.81
517.20	20287.76
517.37	20458.62
517.54	20418.83
517.72	20589.69
517.89	20793.32
518.06	20287.76
518.24	20414.15
518.41	20215.21
518.58	20823.75
518.75	21013.33
518.93	20692.68
519.10	20985.24
519.27	20783.96
519.45	21144.40
519.62	20945.45
519.79	20783.96
519.96	21003.97
520.14	21296.53
520.31	21193.55
520.48	21186.53
520.65	21118.65
520.83	21462.71
521.00	21184.19
521.17	21254.40
521.34	21226.32
521.52	21362.07
521.69	21397.18
521.86	21357.39
522.03	21561.02
522.20	21645.27
522.38	21844.22
522.55	22061.89
522.72	21406.54
522.89	21851.24
523.07	21994.01
523.24	21525.91
523.41	22281.90
523.58	21596.12
523.75	22129.77
523.92	21905.07
524.10	22113.38
524.27	21991.67
524.44	22429.35
524.61	22607.23
524.78	22555.74
524.96	22637.66
525.13	22270.20
525.30	22078.27
525.47	22192.96
525.64	22731.28
525.81	22588.51
525.98	22850.65
526.16	22831.93
526.33	22742.99
526.50	22698.52
526.67	22274.88
526.84	22649.36
527.01	22904.48
527.18	22855.33
527.36	22867.03
527.53	23236.84
527.70	23164.28
527.87	23133.86
528.04	22750.01
528.21	23159.60
528.38	22675.11
528.55	22724.26
528.72	22890.44
528.89	23304.71
529.07	23171.30
529.24	23197.05
529.41	23068.32
529.58	23190.03
529.75	23314.08
529.92	23358.55
530.09	23190.03
530.26	23208.75
530.43	23571.54
530.60	23543.45
530.77	23503.66
530.94	23899.21
531.11	23271.95
531.28	23683.88
531.46	23498.98
531.63	24002.19
531.80	23833.68
531.97	23866.44
532.14	23831.33
532.31	23728.35
532.48	24023.26
532.65	24037.30
532.82	23655.79
532.99	24093.47
533.16	24170.71
533.33	24093.47
533.50	24290.08
533.67	24372.00
533.84	24271.36
534.01	23901.55
534.18	24072.41
534.35	24498.39
534.52	24105.18
534.69	24400.08
534.86	24374.34
535.03	24261.99
535.20	24556.90
535.37	24505.41
535.54	24767.55
535.71	24465.62
535.88	24655.20
536.05	24458.60
536.22	25078.84
536.38	24987.56
536.55	24634.14
536.72	25135.01
536.89	24372.00
537.06	24711.38
537.23	24765.21
537.40	24762.87
537.57	24945.43
537.74	24812.02
537.91	24936.07
538.08	25209.91
538.25	25177.14
538.42	24919.68
538.59	25149.06
538.75	25027.35
538.92	25008.62
539.09	25221.61
539.26	25048.41
539.43	25427.58
539.60	25378.43
539.77	25385.45
539.94	25809.09
540.11	25273.10
540.28	25326.94
540.44	25654.61
540.61	25088.20
540.78	25348.00
540.95	25656.95
541.12	25642.91
541.29	25240.34
541.46	25546.95
541.62	25371.41
541.79	25645.25
541.96	25167.78
542.13	25652.27
542.30	25663.97
542.47	25956.54
542.63	25940.16
542.80	25773.98
542.97	26120.38
543.14	26462.10
543.31	25853.56
543.48	25916.75
543.64	26139.10
543.81	26459.76
543.98	26223.36
544.15	26031.44
544.32	26464.44
544.48	26356.77
544.65	26192.94
544.82	26499.55
544.99	25806.75
545.16	26490.18
545.32	26527.63
545.49	26649.34
545.66	26410.60
545.83	26867.01
546.00	26408.26
546.16	26700.83
546.33	26700.83
546.50	26319.32
546.67	26586.15
546.83	26291.24
547.00	26759.34
547.17	26799.13
547.34	26799.13
547.50	27091.70
547.67	26883.39
547.84	26806.16
548.00	27140.85
548.17	27168.94
548.34	26848.29
548.51	27283.62
548.67	27126.81
548.84	26977.01
549.01	27358.52
549.18	27154.90
549.34	27166.60
549.51	27101.06
549.68	26965.31
549.84	27267.24
550.01	26998.08
550.18	27201.71
550.34	27026.17
550.51	27524.70
550.68	27367.88
550.84	27161.92
551.01	27590.24
551.18	27190.00
551.34	27300.01
551.51	27274.26
551.68	27433.42
551.84	27538.74
552.01	27222.77
552.18	27805.56
552.34	27377.25
552.51	27491.93
552.68	27620.66
552.84	27253.20
553.01	27564.49
553.18	28037.28
553.34	27601.94
553.51	27328.10
553.67	27761.09
553.84	27894.50
554.01	27990.47
554.17	27814.93
554.34	27625.34
554.51	27723.65
554.67	28236.22
554.84	27838.33
555.00	27798.54
555.17	27723.65
555.33	28261.97
555.50	28077.07
555.67	27725.99
555.83	27981.10
556.00	28327.50
556.16	27908.55
556.33	28077.07
556.50	27896.85
556.66	28056.00
556.83	27981.10
556.99	28716.03
557.16	28105.15
557.32	28128.56
557.49	28041.96
557.65	27728.33
557.82	28135.58
557.98	28105.15
558.15	28121.54
558.32	28390.70
558.48	28425.81
558.65	28699.65
558.81	28383.68
558.98	28596.67
559.14	28011.53
559.31	28105.15
559.47	28540.49
559.64	28533.47
559.80	28465.60
559.97	28772.21
560.13	28388.36
560.30	28634.11
560.46	28320.48
560.63	28491.34
560.79	28432.83
560.96	28683.27
561.12	28367.29
561.29	28278.35
561.45	28596.67
561.61	28276.01
561.78	28294.74
561.94	28430.49
562.11	28650.50
562.27	28503.04
562.44	28608.37
562.60	28678.58
562.77	28446.87
562.93	28481.98
563.10	28765.18
563.26	28673.90
563.42	29188.82
563.59	28603.69
563.75	28706.67
563.92	28943.06
564.08	28959.45
564.24	28418.78
564.41	28680.92
564.57	29195.84
564.74	28723.05
564.90	29046.05
565.07	28510.07
565.23	28940.72
565.39	28828.38
565.56	28734.76
565.72	28884.55
565.88	28837.74
566.05	28877.53
566.21	28645.82
566.38	28919.66
566.54	29184.14
566.70	28940.72
566.87	29446.28
567.03	29200.52
567.19	29305.85
567.36	29188.82
567.52	29097.54
567.68	29149.03
567.85	28645.82
568.01	28790.93
568.17	29233.29
568.34	28950.09
568.50	29256.70
568.66	28931.36
568.83	29291.80
568.99	29165.42
569.15	29184.14
569.32	28961.79
569.48	29151.37
569.64	29223.93
569.81	29223.93
569.97	28877.53
570.13	29364.36
570.30	29144.35
570.46	29472.03
570.62	28966.47
570.78	29081.16
570.95	29380.74
571.11	29109.24
571.27	28709.01
571.43	28952.43
571.60	29584.37
571.76	29097.54
571.92	29230.95
572.09	29165.42
572.25	29193.50
572.41	29221.59
572.57	29387.77
572.74	29434.58
572.90	28896.25
573.06	29495.43
573.22	29263.72
573.38	29242.65
573.55	29427.56
573.71	29579.69
573.87	29371.38
574.03	29003.92
574.20	29385.43
574.36	29338.62
574.52	29425.22
574.68	29324.57
574.84	29067.11
575.01	29661.61
575.17	29895.66
575.33	29806.72
575.49	29436.92
575.65	29486.07
575.82	29586.71
575.98	29422.87
576.14	29551.60
576.30	29380.74
576.46	29053.07
576.62	29076.48
576.79	29537.56
576.95	29078.82
577.11	29170.10
577.27	29708.42
577.43	29626.50
577.59	29511.81
577.75	29315.21
577.92	29347.98
578.08	29181.80
578.24	29553.94
578.40	29408.83
578.56	29553.94
578.72	29345.64
578.88	29750.55
579.04	29867.58
579.21	29350.32
579.37	29607.78
579.53	29720.12
579.69	29448.62
579.85	29032.00
580.01	29682.67
580.17	29106.90
580.33	29553.94
580.49	29434.58
580.65	29525.86
580.82	29865.24
580.98	29883.96
581.14	29483.73
581.30	29296.49
581.46	29514.16
581.62	29207.55
581.78	29621.82
581.94	29727.14
582.10	29509.47
582.26	29670.97
582.42	29322.23
582.58	29626.50
582.74	29818.42
582.90	29965.88
583.06	29841.83
583.22	29357.34
583.38	29544.58
583.54	29523.52
583.70	29530.54
583.86	29572.67
584.02	29710.76
584.18	29605.44
584.34	30038.44
584.50	29930.77
584.66	29731.83
584.82	29294.14
584.98	29809.06
585.14	29530.54
585.30	29577.35
585.46	29689.70
585.62	29769.27
585.78	29612.46
585.94	29696.72
586.10	29605.44
586.26	29596.07
586.42	29872.26
586.58	29900.34
586.74	29640.54
586.90	29256.70
587.06	29455.64
587.22	29617.14
587.38	29734.17
587.54	29647.57
587.70	30120.35
587.86	29970.56
588.02	29848.85
588.18	29764.59
588.34	29954.18
588.49	29745.87
588.65	29682.67
588.81	29357.34
588.97	29666.29
589.13	29523.52
589.29	29905.02
589.45	29972.90
589.61	29769.27
589.77	30415.26
589.93	29996.31
590.08	30003.33
590.24	29797.36
590.40	29996.31
590.56	30148.44
590.72	29776.30
590.88	30183.55
591.04	29895.66
591.20	30059.50
591.35	30342.70
591.51	30438.67
591.67	30225.68
591.83	30132.06
591.99	30382.49
