SpectraSuite Data File
++++++++++++++++++++++++++++++++++++
Date: Fri Oct 18 13:58:14 GMT-05:00 2013
User: bianchi
Dark Spectrum Present: No
Reference Spectrum Present: No
Number of Sampled Component Spectra: 1
Spectrometers: USB2+H05261
Integration Time (usec): 50000 (USB2+H05261)
Spectra Averaged: 1 (USB2+H05261)
Boxcar Smoothing: 0 (USB2+H05261)
Correct for Electrical Dark: No (USB2+H05261)
Strobe/Lamp Enabled: No (USB2+H05261)
Correct for Detector Non-linearity: No (USB2+H05261)
Correct for Stray Light: No (USB2+H05261)
Number of Pixels in Processed Spectrum: 2048
>>>>>Begin Processed Spectral Data<<<<<
365.73	0.00
365.92	0.00
366.12	0.00
366.32	0.00
366.52	0.00
366.72	0.00
366.91	0.00
367.11	0.00
367.31	0.00
367.51	0.00
367.70	0.00
367.90	0.00
368.10	0.00
368.30	0.00
368.49	0.00
368.69	0.00
368.89	0.00
369.09	0.00
369.28	0.00
369.48	0.00
369.68	0.00
369.87	0.00
370.07	0.00
370.27	0.00
370.47	0.00
370.66	42.13
370.86	21.06
371.06	196.60
371.25	117.03
371.45	117.03
371.65	138.09
371.84	184.90
372.04	166.18
372.24	161.50
372.44	131.07
372.63	121.71
372.83	208.31
373.03	119.37
373.22	180.22
373.42	222.35
373.62	182.56
373.81	301.93
374.01	208.31
374.21	212.99
374.40	229.37
374.60	161.50
374.79	212.99
374.99	234.05
375.19	269.16
375.38	271.50
375.58	332.36
375.78	180.22
375.97	259.80
376.17	304.27
376.37	292.57
376.56	212.99
376.76	283.20
376.95	269.16
377.15	271.50
377.35	227.03
377.54	229.37
377.74	220.01
377.93	248.10
378.13	348.74
378.33	320.65
378.52	266.82
378.72	227.03
378.91	297.25
379.11	283.20
379.31	252.78
379.50	322.99
379.70	346.40
379.89	327.68
380.09	311.29
380.28	271.50
380.48	332.36
380.68	297.25
380.87	304.27
381.07	351.08
381.26	294.91
381.46	414.27
381.65	278.52
381.85	344.06
382.04	334.70
382.24	404.91
382.43	369.80
382.63	292.57
382.83	325.33
383.02	330.02
383.22	348.74
383.41	283.20
383.61	320.65
383.80	376.83
384.00	367.46
384.19	393.21
384.39	353.42
384.58	421.30
384.78	322.99
384.97	379.17
385.17	411.93
385.36	409.59
385.56	435.34
385.75	341.72
385.95	430.66
386.14	425.98
386.34	428.32
386.53	376.83
386.72	388.53
386.92	425.98
387.11	449.38
387.31	451.72
387.50	409.59
387.70	381.51
387.89	411.93
388.09	418.96
388.28	409.59
388.48	507.90
388.67	540.66
388.86	496.19
389.06	533.64
389.25	433.00
389.45	498.53
389.64	435.34
389.84	482.15
390.03	486.83
390.22	521.94
390.42	482.15
390.61	458.74
390.81	503.22
391.00	531.30
391.19	571.09
391.39	514.92
391.58	521.94
391.78	543.00
391.97	540.66
392.16	519.60
392.36	571.09
392.55	601.52
392.75	514.92
392.94	606.20
393.13	559.39
393.33	564.07
393.52	564.07
393.71	507.90
393.91	547.69
394.10	559.39
394.29	631.94
394.49	545.34
394.68	575.77
394.88	606.20
395.07	571.09
395.26	622.58
395.46	638.97
395.65	638.97
395.84	671.73
396.04	662.37
396.23	671.73
396.42	702.16
396.62	601.52
396.81	720.88
397.00	634.29
397.19	667.05
397.39	692.80
397.58	732.59
397.77	613.22
397.97	627.26
398.16	788.76
398.35	730.25
398.55	692.80
398.74	716.20
398.93	765.36
399.12	744.29
399.32	734.93
399.51	653.01
399.70	697.48
399.90	765.36
400.09	777.06
400.28	767.70
400.47	718.54
400.67	734.93
400.86	837.91
401.05	788.76
401.24	770.04
401.44	781.74
401.63	774.72
401.82	847.27
402.01	802.80
402.21	936.21
402.40	844.93
402.59	990.05
402.78	849.61
402.97	870.68
403.17	882.38
403.36	788.76
403.55	835.57
403.74	915.15
403.93	889.40
404.13	926.85
404.32	940.90
404.51	936.21
404.70	915.15
404.89	933.87
405.09	959.62
405.28	976.00
405.47	884.72
405.66	947.92
405.85	976.00
406.05	957.28
406.24	964.30
406.43	999.41
406.62	987.71
406.81	1078.99
407.00	1053.24
407.20	968.98
407.39	940.90
407.58	992.39
407.77	1074.31
407.96	1123.46
408.15	1050.90
408.34	1086.01
408.54	1013.45
408.73	1172.61
408.92	1186.65
409.11	1186.65
409.30	1130.48
409.49	1107.07
409.68	1130.48
409.87	1212.40
410.07	1172.61
410.26	1083.67
410.45	1226.44
410.64	1231.12
410.83	1186.65
411.02	1212.40
411.21	1242.82
411.40	1163.25
411.59	1203.04
411.78	1275.59
411.98	1252.19
412.17	1263.89
412.36	1334.11
412.55	1299.00
412.74	1350.49
412.93	1296.66
413.12	1341.13
413.31	1472.20
413.50	1437.09
413.69	1427.73
413.88	1488.58
414.07	1479.22
414.26	1437.09
414.45	1430.07
414.64	1497.94
414.83	1558.80
415.02	1467.52
415.22	1565.82
415.41	1591.56
415.60	1526.03
415.79	1659.44
415.98	1746.04
416.17	1551.78
416.36	1647.74
416.55	1664.12
416.74	1600.93
416.93	1624.33
417.12	1760.08
417.31	1636.03
417.50	1645.40
417.69	1748.38
417.88	1727.32
418.07	1659.44
418.26	1696.89
418.45	1724.97
418.64	1811.57
418.83	1912.22
419.02	1797.53
419.21	1769.44
419.39	1863.07
419.58	1909.88
419.77	1842.00
419.96	1893.49
420.15	1842.00
420.34	1937.96
420.53	1879.45
420.72	1928.60
420.91	2022.22
421.10	1963.71
421.29	2076.06
421.48	1900.52
421.67	1912.22
421.86	1970.73
422.05	1959.03
422.24	2047.97
422.43	1893.49
422.61	2047.97
422.80	2017.54
422.99	2101.80
423.18	2017.54
423.37	2024.56
423.56	2012.86
423.75	2059.67
423.94	1933.28
424.13	1949.67
424.32	2019.88
424.50	2092.44
424.69	2019.88
424.88	2118.18
425.07	1994.14
425.26	2001.16
425.45	2146.27
425.64	2036.27
425.83	2106.48
426.01	2024.56
426.20	1989.46
426.39	2038.61
426.58	2094.78
426.77	2127.55
426.96	2125.21
427.15	2183.72
427.33	2129.89
427.52	2197.76
427.71	2186.06
427.90	2125.21
428.09	2106.48
428.28	2038.61
428.46	2286.70
428.65	2165.00
428.84	2202.44
429.03	2307.77
429.22	2169.68
429.40	2375.64
429.59	2214.15
429.78	2094.78
429.97	2235.21
430.16	2392.03
430.34	2377.98
430.53	2361.60
430.72	2476.29
430.91	2300.75
431.10	2244.57
431.28	2394.37
431.47	2345.22
431.66	2382.67
431.85	2387.35
432.03	2377.98
432.22	2651.83
432.41	2558.21
432.60	2457.56
432.79	2335.85
432.97	2490.33
433.16	2427.14
433.35	2476.29
433.54	2588.63
433.72	2516.08
433.91	2544.16
434.10	2513.74
434.28	2520.76
434.47	2499.69
434.66	2544.16
434.85	2616.72
435.03	2712.68
435.22	2553.52
435.41	2726.72
435.59	2715.02
435.78	2525.44
435.97	2628.42
436.16	2628.42
436.34	2640.12
436.53	2504.37
436.72	2729.06
436.90	2708.00
437.09	2759.49
437.28	2750.13
437.46	2719.70
437.65	2640.12
437.84	2785.24
438.02	2740.77
438.21	2923.33
438.40	2848.43
438.58	2747.79
438.77	2801.62
438.96	2942.05
439.14	2850.77
439.33	2876.52
439.52	2988.86
439.70	2967.80
439.89	3030.99
440.08	3073.12
440.26	3096.53
440.45	3117.59
440.63	3019.29
440.82	3101.21
441.01	3138.66
441.19	3248.66
441.38	3243.98
441.57	3302.50
441.75	3382.07
441.94	3389.10
442.12	3199.51
442.31	3281.43
442.50	3466.33
442.68	3314.20
442.87	3449.95
443.05	3339.94
443.24	3496.76
443.43	3361.01
443.61	3433.57
443.80	3557.61
443.98	3398.46
444.17	3290.79
444.35	3595.06
444.54	3431.23
444.73	3361.01
444.91	3473.36
445.10	3391.44
445.28	3368.03
445.47	3410.16
445.65	3328.24
445.84	3536.55
446.02	3538.89
446.21	3410.16
446.39	3527.19
446.58	3456.97
446.77	3695.71
446.95	3555.27
447.14	3534.21
447.32	3524.85
447.51	3597.40
447.69	3625.49
447.88	3475.70
448.06	3480.38
448.25	3646.55
448.43	3688.68
448.62	3606.77
448.80	3501.44
448.99	3557.61
449.17	3754.22
449.36	3592.72
449.54	3707.41
449.73	3878.27
449.91	3686.34
450.10	3840.82
450.28	3822.09
450.46	3784.65
450.65	3747.20
450.83	3824.44
451.02	3880.61
451.20	3822.09
451.39	3878.27
451.57	3761.24
451.76	3653.58
451.94	3770.60
452.13	3932.10
452.31	3892.31
452.49	3693.37
452.68	3857.20
452.86	3878.27
453.05	3957.85
453.23	3763.58
453.42	3868.91
453.60	3861.88
453.78	3976.57
453.97	3932.10
454.15	3950.82
454.34	4095.94
454.52	4121.68
454.70	4060.83
454.89	4107.64
455.07	3981.25
455.26	4058.49
455.44	4067.85
455.62	3988.27
455.81	4091.26
455.99	4154.45
456.17	4212.96
456.36	4191.90
456.54	4166.15
456.73	4348.72
456.91	4266.80
457.09	4346.37
457.28	4189.56
457.46	4276.16
457.64	4517.23
457.83	4416.59
458.01	4255.09
458.19	4545.32
458.38	4315.95
458.56	4458.72
458.74	4519.57
458.93	4491.49
459.11	4344.03
459.29	4449.36
459.48	4505.53
459.66	4566.39
459.84	4617.88
460.03	4645.96
460.21	4681.07
460.39	4648.30
460.57	4512.55
460.76	4624.90
460.94	4660.01
461.12	4519.57
461.31	4713.84
461.49	4652.98
461.67	4690.43
461.85	4713.84
462.04	4765.33
462.22	4858.95
462.40	4655.33
462.59	4727.88
462.77	4734.90
462.95	4767.67
463.13	4905.76
463.32	4940.87
463.50	5006.41
463.68	4786.40
463.86	4924.49
464.05	4884.70
464.23	5078.96
464.41	5029.81
464.59	4999.38
464.78	5093.01
464.96	5064.92
465.14	4961.94
465.32	5151.52
465.50	5172.58
465.69	5186.63
465.87	5160.88
466.05	4943.21
466.23	4990.02
466.41	5125.77
466.60	5242.80
466.78	5165.56
466.96	5013.43
467.14	5177.26
467.32	5100.03
467.51	5184.29
467.69	4919.81
467.87	5100.03
468.05	5205.35
468.23	5118.75
468.41	5181.95
468.60	5224.08
468.78	5263.86
468.96	5301.31
469.14	5334.08
469.32	5289.61
469.50	5151.52
469.69	5481.53
469.87	5715.59
470.05	5497.92
470.23	5451.11
470.41	5551.75
470.59	5586.86
470.77	5266.21
470.95	5500.26
471.14	5636.01
471.32	5458.13
471.50	5607.92
471.68	5631.33
471.86	5680.48
472.04	5724.95
472.22	5902.83
472.40	5671.12
472.58	5870.06
472.77	5837.30
472.95	5760.06
473.13	6099.44
473.31	5827.93
473.49	5776.44
473.67	6050.28
473.85	5846.66
474.03	6160.29
474.21	6099.44
474.39	6221.14
474.57	6012.84
474.75	6207.10
474.93	6361.58
475.12	6183.70
475.30	6338.17
475.48	6195.40
475.66	6221.14
475.84	6361.58
476.02	6466.90
476.20	6389.66
476.38	6693.93
476.56	6841.39
476.74	6663.51
476.92	6504.35
477.10	6743.08
477.28	6867.13
477.46	6738.40
477.64	6757.13
477.82	6916.28
478.00	7190.13
478.18	7152.68
478.36	6885.86
478.54	7059.06
478.72	7176.08
478.90	7283.75
479.08	7171.40
479.26	7375.03
479.44	7358.64
479.62	7414.82
479.80	7503.76
479.98	7613.76
480.16	7726.11
480.34	7510.78
480.52	7763.56
480.70	7756.54
480.88	7555.25
481.06	7920.37
481.24	7740.15
481.41	7992.93
481.59	8049.10
481.77	8177.83
481.95	8152.09
482.13	8229.32
482.31	8170.81
482.49	8367.42
482.67	8299.54
482.85	8425.93
483.03	8627.21
483.21	8559.34
483.39	8875.31
483.57	8662.32
483.74	8674.03
483.92	8765.31
484.10	8685.73
484.28	9097.66
484.46	9100.00
484.64	9397.25
484.82	9240.44
485.00	9210.01
485.18	9423.00
485.35	9425.34
485.53	9628.96
485.71	9511.94
485.89	9804.50
486.07	9605.56
486.25	9579.81
486.43	9881.74
486.61	9741.31
486.78	10153.24
486.96	9923.87
487.14	10314.74
487.32	9973.02
487.50	10260.91
487.68	10342.83
487.85	10560.50
488.03	10733.70
488.21	10679.86
488.39	10649.44
488.57	10719.65
488.75	10794.55
488.92	10972.43
489.10	11061.37
489.28	11098.82
489.46	11110.52
489.64	11150.31
489.81	11433.52
489.99	11384.37
490.17	11604.38
490.35	11644.17
490.53	11634.80
490.70	11679.27
490.88	11517.78
491.06	12046.74
491.24	11749.49
491.41	11925.03
491.59	12060.78
491.77	12320.58
491.95	12423.56
492.13	12592.08
492.30	12645.91
492.48	12493.78
492.66	12205.89
492.84	12411.86
493.01	12657.62
493.19	12716.13
493.37	12898.69
493.54	12912.74
493.72	12987.63
493.90	12964.23
494.08	13329.35
494.25	13343.39
494.43	13523.62
494.61	13188.92
494.79	13453.40
494.96	13507.23
495.14	13605.53
495.32	13923.85
495.49	13830.23
495.67	13839.59
495.85	14064.28
496.02	14106.41
496.20	14036.19
496.38	13926.19
496.55	14134.50
496.73	14588.56
496.91	14326.42
497.09	14548.77
497.26	14604.94
497.44	14534.73
497.62	14700.90
497.79	14916.23
497.97	14967.73
498.14	14953.68
498.32	15110.50
498.50	14963.04
498.67	15290.72
498.85	15150.29
499.03	15311.78
499.20	15311.78
499.38	15215.82
499.56	15693.29
499.73	15323.49
499.91	15576.27
500.08	15824.36
500.26	15573.92
500.44	15634.78
500.61	15594.99
500.79	15857.13
500.97	15831.38
501.14	16196.51
501.32	15878.19
501.49	15847.77
501.67	15917.98
501.84	16393.11
502.02	16374.39
502.20	16266.72
502.37	16547.59
502.55	16313.53
502.72	16353.32
502.90	16453.97
503.07	16137.99
503.25	16400.13
503.43	16596.74
503.60	16910.37
503.78	16692.70
503.95	16772.28
504.13	16524.18
504.30	16795.68
504.48	16809.73
504.65	16905.69
504.83	17163.15
505.01	17348.05
505.18	17350.39
505.36	17179.53
505.53	17153.79
505.71	17345.71
505.88	17132.72
506.06	17104.64
506.23	17614.87
506.41	17757.64
506.58	17638.28
506.76	17825.52
506.93	17855.95
507.11	17687.43
507.28	17919.14
507.46	18008.08
507.63	17991.70
507.81	17977.65
507.98	17762.33
508.16	18085.32
508.33	18232.77
508.50	18260.86
508.68	18003.40
508.85	18387.25
509.03	18228.09
509.20	18560.45
509.38	18541.72
509.55	18527.68
509.73	18689.18
509.90	18845.99
510.08	18747.69
510.25	18525.34
510.42	18757.05
510.60	18874.08
510.77	19108.13
510.95	19227.50
511.12	18888.12
511.30	18757.05
511.47	19154.94
511.64	18906.85
511.82	19344.53
511.99	19403.04
512.17	19396.02
512.34	19274.31
512.51	19396.02
512.69	19517.73
512.86	19337.51
513.04	19957.75
513.21	19562.20
513.38	19929.66
513.56	19889.87
513.73	19569.22
513.90	19716.67
514.08	19772.85
514.25	19632.41
514.43	19819.66
514.60	19723.69
514.77	20556.93
514.95	20510.11
515.12	20051.37
515.29	20393.09
515.47	20355.64
515.64	20350.96
515.81	20465.64
515.99	20510.11
516.16	20854.17
516.33	20552.24
516.51	20486.71
516.68	20456.28
516.85	20519.48
517.03	20891.62
517.20	20856.51
517.37	20774.60
517.54	20896.30
517.72	21003.97
517.89	20706.72
518.06	20718.42
518.24	20847.15
518.41	21184.19
518.58	21010.99
518.75	21205.25
518.93	21256.75
519.10	21039.08
519.27	21479.10
519.45	21301.22
519.62	21642.93
519.79	21474.42
519.96	21406.54
520.14	21561.02
520.31	21415.90
520.48	21710.81
520.65	21568.04
520.83	21638.25
521.00	21642.93
521.17	21624.21
521.34	21600.80
521.52	21951.88
521.69	21944.86
521.86	21905.07
522.03	22190.62
522.20	22368.50
522.38	22122.74
522.55	22298.28
522.72	21975.29
522.89	22089.98
523.07	22494.89
523.24	22576.81
523.41	22649.36
523.58	22195.30
523.75	22366.16
523.92	22331.05
524.10	22401.27
524.27	22415.31
524.44	22476.16
524.61	22677.45
524.78	22803.84
524.96	23035.55
525.13	22810.86
525.30	22930.23
525.47	22834.27
525.64	23044.91
525.81	23084.70
525.98	23220.45
526.16	23035.55
526.33	23000.44
526.50	23276.63
526.67	23136.20
526.84	23405.36
527.01	23241.52
527.18	23304.71
527.36	23285.99
527.53	23716.65
527.70	23751.76
527.87	23613.66
528.04	23592.60
528.21	23482.59
528.38	23770.48
528.55	23690.90
528.72	23648.77
528.89	23484.94
529.07	23843.04
529.24	23793.89
529.41	24222.20
529.58	23826.65
529.75	23782.18
529.92	23768.14
530.09	23702.61
530.26	24105.18
530.43	23924.96
530.60	24058.37
530.77	23833.68
530.94	24402.43
531.11	23974.11
531.28	24051.34
531.46	23995.17
531.63	24123.90
531.80	24404.77
531.97	24360.30
532.14	24191.78
532.31	24751.17
532.48	24489.03
532.65	24584.99
532.82	24465.62
532.99	24524.13
533.16	24538.18
533.33	24861.17
533.50	24767.55
533.67	24879.89
533.84	24261.99
534.01	24767.55
534.18	24706.70
534.35	25025.01
534.52	25062.46
534.69	24790.95
534.86	25348.00
535.03	24985.22
535.20	24889.26
535.37	25184.16
535.54	25277.79
535.71	24987.56
535.88	25219.27
536.05	25256.72
536.22	25500.14
536.38	25146.72
536.55	25563.33
536.72	25638.23
536.89	25149.06
537.06	25610.14
537.23	25355.02
537.40	25759.94
537.57	25652.27
537.74	25518.86
537.91	25895.69
538.08	25734.19
538.25	25570.35
538.42	25898.03
538.59	25439.28
538.75	25446.30
538.92	25806.75
539.09	25827.81
539.26	25680.36
539.43	26078.25
539.60	25968.24
539.77	25937.82
539.94	26150.81
540.11	26178.89
540.28	26228.04
540.44	25802.07
540.61	26101.65
540.78	26251.45
540.95	26251.45
541.12	26298.26
541.29	26361.45
541.46	26113.36
541.62	26096.97
541.79	26431.67
541.96	26188.25
542.13	26373.16
542.30	26251.45
542.47	26532.31
542.63	26565.08
542.80	26675.09
542.97	26862.33
543.14	26794.45
543.31	26761.69
543.48	26562.74
543.64	27168.94
543.81	26794.45
543.98	27192.34
544.15	27173.62
544.32	27192.34
544.48	27484.91
544.65	26714.87
544.82	27016.80
544.99	26913.82
545.16	27175.96
545.32	26647.00
545.49	27473.21
545.66	27440.44
545.83	27679.18
546.00	27255.54
546.16	27250.86
546.33	26647.00
546.50	27051.91
546.67	27171.28
546.83	27269.58
547.00	27229.79
547.17	27311.71
547.34	27372.57
547.50	27332.78
547.67	27510.66
547.84	27475.55
548.00	27508.32
548.17	27711.94
548.34	27686.20
548.51	27751.73
548.67	27693.22
548.84	27463.85
549.01	27611.30
549.18	27679.18
549.34	27744.71
549.51	27365.54
549.68	27632.36
549.84	27662.79
550.01	27807.90
550.18	27683.86
550.34	27833.65
550.51	28002.17
550.68	28173.03
550.84	27934.29
551.01	28121.54
551.18	27821.95
551.34	27740.03
551.51	27988.13
551.68	28191.75
551.84	28060.68
552.01	28081.75
552.18	28002.17
552.34	27971.74
552.51	28301.76
552.68	27917.91
552.84	28147.28
553.01	28411.76
553.18	27850.03
553.34	28313.46
553.51	28325.16
553.67	28807.31
553.84	28709.01
554.01	28404.74
554.17	28664.54
554.34	28568.58
554.51	28400.06
554.67	28472.62
554.84	28599.01
555.00	28313.46
555.17	28421.13
555.33	28411.76
555.50	28545.17
555.67	28666.88
555.83	28716.03
556.00	28840.08
556.16	28950.09
556.33	28432.83
556.50	28776.89
556.66	29064.77
556.83	28966.47
556.99	29244.99
557.16	29151.37
557.32	28947.75
557.49	29223.93
557.65	28666.88
557.82	28809.65
557.98	29069.45
558.15	28968.81
558.32	29001.58
558.48	28950.09
558.65	29369.04
558.81	28961.79
558.98	29345.64
559.14	28985.19
559.31	29095.20
559.47	29113.92
559.64	29371.38
559.80	29443.94
559.97	29296.49
560.13	29099.88
560.30	28900.94
560.46	29584.37
560.63	29401.81
560.79	29539.90
560.96	29390.11
561.12	29172.44
561.29	29006.26
561.45	29371.38
561.61	29336.27
561.78	29429.90
561.94	29329.25
562.11	29228.61
562.27	29223.93
562.44	29549.26
562.60	29373.72
562.77	29469.69
562.93	29457.98
563.10	29778.64
563.26	29778.64
563.42	29640.54
563.59	29518.84
563.75	29638.20
563.92	29188.82
564.08	29429.90
564.24	29427.56
564.41	29502.45
564.57	29642.88
564.74	29282.44
564.90	29956.52
565.07	29509.47
565.23	29621.82
565.39	29448.62
565.56	29780.98
565.72	29511.81
565.88	29525.86
566.05	29528.20
566.21	29347.98
566.38	29600.76
566.54	29729.48
566.70	29930.77
566.87	30029.07
567.03	30190.57
567.19	30412.92
567.36	30026.73
567.52	29773.95
567.68	30244.40
567.85	29570.33
568.01	29621.82
568.17	29851.19
568.34	29977.58
568.50	29591.39
568.66	29905.02
568.83	30078.22
568.99	29392.45
569.15	30012.69
569.32	29743.53
569.48	29593.73
569.64	30307.60
569.81	29855.87
569.97	29582.03
570.13	30436.33
570.30	30036.09
570.46	29898.00
570.62	29792.68
570.78	29720.12
570.95	29844.17
571.11	30092.27
571.27	29731.83
571.43	29888.64
571.60	30232.70
571.76	30321.64
571.92	30110.99
572.09	30078.22
572.25	30431.65
572.41	30120.35
572.57	30195.25
572.74	30323.98
572.90	30017.37
573.06	30326.32
573.22	30141.42
573.38	30394.20
573.55	30288.87
573.71	30450.37
573.87	30176.53
574.03	30223.34
574.20	30211.64
574.36	30188.23
574.52	30094.61
574.68	30040.78
574.84	30127.38
575.01	30518.25
575.17	30195.25
575.33	30015.03
575.49	30005.67
575.65	30132.06
575.82	30073.54
575.98	30216.32
576.14	30403.56
576.30	30155.46
576.46	30178.87
576.62	30366.11
576.79	30466.75
576.95	30319.30
577.11	30277.17
577.27	30480.80
577.43	30520.59
577.59	30281.85
577.75	30630.59
577.92	29975.24
578.08	30068.86
578.24	30265.47
578.40	30380.15
578.56	30405.90
578.72	30469.09
578.88	30785.07
579.04	30684.42
579.21	30504.20
579.37	30312.28
579.53	30600.16
579.69	30075.88
579.85	30270.15
580.01	30574.42
580.17	30012.69
580.33	30864.64
580.49	30429.30
580.65	30370.79
580.82	30136.74
580.98	30459.73
581.14	30595.48
581.30	30319.30
581.46	30415.26
581.62	30543.99
581.78	29701.40
581.94	30319.30
582.10	30541.65
582.26	30398.88
582.42	30431.65
582.58	30656.34
582.74	30398.88
582.90	30363.77
583.06	30354.41
583.22	30092.27
583.38	30401.22
583.54	30576.76
583.70	30876.35
583.86	30216.32
584.02	30361.43
584.18	30588.46
584.34	30410.58
584.50	31070.61
584.66	30323.98
584.82	30387.18
584.98	30731.23
585.14	30719.53
585.30	30316.96
585.46	30560.37
585.62	30120.35
585.78	30279.51
585.94	30501.86
586.10	31098.70
586.26	30352.07
586.42	30623.57
586.58	31166.57
586.74	30546.33
586.90	30604.84
587.06	30927.84
587.22	30499.52
587.38	30003.33
587.54	30976.99
587.70	30881.03
587.86	30939.54
588.02	30623.57
588.18	31204.02
588.34	30773.36
588.49	30649.32
588.65	30525.27
588.81	30684.42
588.97	30820.17
589.13	30586.12
589.29	30712.51
589.45	31129.12
589.61	30817.83
589.77	30834.22
589.93	31292.96
590.08	31140.83
590.24	31269.56
590.40	31068.27
590.56	31192.32
590.72	30754.64
590.88	30579.10
591.04	30859.96
591.20	30904.43
591.35	31009.76
591.51	31182.96
591.67	31082.31
591.83	31068.27
591.99	31157.21
