SpectraSuite Data File
++++++++++++++++++++++++++++++++++++
Date: Fri Oct 18 13:58:07 GMT-05:00 2013
User: bianchi
Dark Spectrum Present: No
Reference Spectrum Present: No
Number of Sampled Component Spectra: 1
Spectrometers: USB2+H05261
Integration Time (usec): 50000 (USB2+H05261)
Spectra Averaged: 1 (USB2+H05261)
Boxcar Smoothing: 0 (USB2+H05261)
Correct for Electrical Dark: No (USB2+H05261)
Strobe/Lamp Enabled: No (USB2+H05261)
Correct for Detector Non-linearity: No (USB2+H05261)
Correct for Stray Light: No (USB2+H05261)
Number of Pixels in Processed Spectrum: 2048
>>>>>Begin Processed Spectral Data<<<<<
365.73	0.00
365.92	0.00
366.12	0.00
366.32	0.00
366.52	0.00
366.72	0.00
366.91	0.00
367.11	0.00
367.31	0.00
367.51	0.00
367.70	0.00
367.90	0.00
368.10	0.00
368.30	0.00
368.49	0.00
368.69	0.00
368.89	0.00
369.09	0.00
369.28	0.00
369.48	0.00
369.68	0.00
369.87	0.00
370.07	0.00
370.27	0.00
370.47	0.00
370.66	112.35
370.86	117.03
371.06	180.22
371.25	128.73
371.45	110.01
371.65	184.90
371.84	63.19
372.04	98.30
372.24	173.20
372.44	175.54
372.63	184.90
372.83	222.35
373.03	203.63
373.22	191.92
373.42	201.29
373.62	325.33
373.81	250.44
374.01	259.80
374.21	215.33
374.40	194.26
374.60	292.57
374.79	205.97
374.99	285.55
375.19	220.01
375.38	208.31
375.58	234.05
375.78	308.95
375.97	220.01
376.17	311.29
376.37	276.18
376.56	311.29
376.76	210.65
376.95	278.52
377.15	311.29
377.35	259.80
377.54	264.48
377.74	271.50
377.93	196.60
378.13	280.86
378.33	320.65
378.52	220.01
378.72	325.33
378.91	318.31
379.11	245.76
379.31	339.38
379.50	297.25
379.70	280.86
379.89	301.93
380.09	292.57
380.28	259.80
380.48	315.97
380.68	304.27
380.87	358.10
381.07	346.40
381.26	266.82
381.46	346.40
381.65	266.82
381.85	273.84
382.04	304.27
382.24	337.04
382.43	325.33
382.63	374.49
382.83	315.97
383.02	334.70
383.22	454.06
383.41	325.33
383.61	355.76
383.80	348.74
384.00	308.95
384.19	423.64
384.39	362.78
384.58	437.68
384.78	374.49
384.97	348.74
385.17	313.63
385.36	332.36
385.56	472.79
385.75	428.32
385.95	351.08
386.14	402.57
386.34	400.23
386.53	365.12
386.72	407.25
386.92	393.21
387.11	400.23
387.31	442.36
387.50	404.91
387.70	463.43
387.89	383.85
388.09	461.09
388.28	318.31
388.48	461.09
388.67	442.36
388.86	498.53
389.06	510.24
389.25	428.32
389.45	540.66
389.64	442.36
389.84	477.47
390.03	423.64
390.22	456.40
390.42	559.39
390.61	449.38
390.81	440.02
391.00	500.87
391.19	400.23
391.39	498.53
391.58	559.39
391.78	519.60
391.97	528.96
392.16	458.74
392.36	571.09
392.55	557.05
392.75	517.26
392.94	470.45
393.13	540.66
393.33	594.50
393.52	587.47
393.71	620.24
393.91	596.84
394.10	650.67
394.29	610.88
394.49	589.82
394.68	615.56
394.88	603.86
395.07	655.35
395.26	543.00
395.46	589.82
395.65	610.88
395.84	671.73
396.04	657.69
396.23	561.73
396.42	669.39
396.62	592.16
396.81	685.78
397.00	683.44
397.19	650.67
397.39	681.10
397.58	748.97
397.77	657.69
397.97	695.14
398.16	711.52
398.35	688.12
398.55	730.25
398.74	751.31
398.93	772.38
399.12	657.69
399.32	699.82
399.51	732.59
399.70	795.78
399.90	643.65
400.09	718.54
400.28	746.63
400.47	748.97
400.67	765.36
400.86	798.12
401.05	814.51
401.24	788.76
401.44	798.12
401.63	711.52
401.82	823.87
402.01	884.72
402.21	770.04
402.40	877.70
402.59	807.48
402.78	816.85
402.97	805.14
403.17	896.43
403.36	861.32
403.55	903.45
403.74	915.15
403.93	880.04
404.13	898.77
404.32	894.08
404.51	936.21
404.70	877.70
404.89	926.85
405.09	929.19
405.28	1004.09
405.47	985.37
405.66	959.62
405.85	1013.45
406.05	1001.75
406.24	1050.90
406.43	1001.75
406.62	1057.92
406.81	1022.81
407.00	954.94
407.20	1032.18
407.39	964.30
407.58	1086.01
407.77	1060.26
407.96	1158.57
408.15	1011.11
408.34	1100.05
408.54	1156.22
408.73	1170.27
408.92	1050.90
409.11	1184.31
409.30	1196.01
409.49	1102.39
409.68	1135.16
409.87	1095.37
410.07	1212.40
410.26	1158.57
410.45	1193.67
410.64	1275.59
410.83	1252.19
411.02	1207.72
411.21	1212.40
411.40	1289.64
411.59	1219.42
411.78	1233.46
411.98	1256.87
412.17	1306.02
412.36	1233.46
412.55	1294.32
412.74	1430.07
412.93	1401.98
413.12	1385.60
413.31	1439.43
413.50	1350.49
413.69	1467.52
413.88	1462.83
414.07	1437.09
414.26	1476.88
414.45	1469.86
414.64	1458.15
414.83	1526.03
415.02	1561.14
415.22	1502.62
415.41	1610.29
415.60	1488.58
415.79	1537.73
415.98	1638.38
416.17	1638.38
416.36	1563.48
416.55	1680.50
416.74	1584.54
416.93	1652.42
417.12	1568.16
417.31	1708.59
417.50	1671.14
417.69	1799.87
417.88	1818.60
418.07	1813.92
418.26	1757.74
418.45	1729.66
418.64	1802.21
418.83	1923.92
419.02	1755.40
419.21	1846.68
419.39	1874.77
419.58	1844.34
419.77	1795.19
419.96	1834.98
420.15	1863.07
420.34	1865.41
420.53	1898.17
420.72	1886.47
420.91	1886.47
421.10	1898.17
421.29	1980.09
421.48	1949.67
421.67	1980.09
421.86	1991.80
422.05	2003.50
422.24	1991.80
422.43	1966.05
422.61	1898.17
422.80	1987.11
422.99	2111.16
423.18	2033.93
423.37	2054.99
423.56	2113.50
423.75	1991.80
423.94	1912.22
424.13	1975.41
424.32	1982.43
424.50	2008.18
424.69	2157.97
424.88	2080.74
425.07	2108.82
425.26	2134.57
425.45	1930.94
425.64	2059.67
425.83	2022.22
426.01	2057.33
426.20	2043.29
426.39	2062.01
426.58	2150.95
426.77	2008.18
426.96	2092.44
427.15	2085.42
427.33	2076.06
427.52	2120.53
427.71	2115.84
427.90	2165.00
428.09	2057.33
428.28	2289.04
428.46	2291.38
428.65	2225.85
428.84	2275.00
429.03	2265.64
429.22	2132.23
429.40	2291.38
429.59	2256.28
429.78	2167.34
429.97	2188.40
430.16	2228.19
430.34	2312.45
430.53	2312.45
430.72	2338.20
430.91	2267.98
431.10	2363.94
431.28	2448.20
431.47	2492.67
431.66	2525.44
431.85	2387.35
432.03	2490.33
432.22	2431.82
432.41	2441.18
432.60	2403.73
432.79	2455.22
432.97	2495.01
433.16	2431.82
433.35	2401.39
433.54	2551.18
433.72	2619.06
433.91	2553.52
434.10	2623.74
434.28	2525.44
434.47	2576.93
434.66	2518.42
434.85	2558.21
435.03	2480.97
435.22	2457.56
435.41	2743.11
435.59	2626.08
435.78	2644.81
435.97	2768.85
436.16	2710.34
436.34	2698.64
436.53	2677.57
436.72	2925.67
436.90	2654.17
437.09	2745.45
437.28	2626.08
437.46	2684.59
437.65	2609.70
437.84	2764.17
438.02	2787.58
438.21	2911.63
438.40	2703.32
438.58	2892.90
438.77	2874.18
438.96	2906.95
439.14	2918.65
439.33	2949.08
439.52	2871.84
439.70	2972.48
439.89	3012.27
440.08	3007.59
440.26	3016.95
440.45	3157.38
440.63	3117.59
440.82	3115.25
441.01	3133.98
441.19	3204.19
441.38	3192.49
441.57	3251.00
441.75	3162.06
441.94	3356.33
442.12	3269.73
442.31	3407.82
442.50	3346.97
442.68	3454.63
442.87	3372.71
443.05	3393.78
443.24	3389.10
443.43	3396.12
443.61	3471.01
443.80	3421.86
443.98	3421.86
444.17	3279.09
444.35	3323.56
444.54	3433.57
444.73	3426.54
444.91	3489.74
445.10	3452.29
445.28	3431.23
445.47	3351.65
445.65	3410.16
445.84	3487.40
446.02	3592.72
446.21	3419.52
446.39	3541.23
446.58	3562.30
446.77	3693.37
446.95	3485.06
447.14	3590.38
447.32	3566.98
447.51	3463.99
447.69	3592.72
447.88	3510.80
448.06	3534.21
448.25	3471.01
448.43	3588.04
448.62	3515.48
448.80	3588.04
448.99	3662.94
449.17	3693.37
449.36	3695.71
449.54	3751.88
449.73	3740.18
449.91	3765.92
450.10	3768.26
450.28	3772.94
450.46	3829.12
450.65	3831.46
450.83	3667.62
451.02	3796.35
451.20	3702.73
451.39	3892.31
451.57	3852.52
451.76	3779.97
451.94	3927.42
452.13	3955.51
452.31	3756.56
452.49	3866.56
452.68	3805.71
452.86	3845.50
453.05	3957.85
453.23	3838.48
453.42	3878.27
453.60	3843.16
453.78	3880.61
453.97	3995.29
454.15	4095.94
454.34	3918.06
454.52	4009.34
454.70	4011.68
454.89	4196.58
455.07	4011.68
455.26	4131.05
455.44	4243.39
455.62	4210.62
455.81	4170.83
455.99	4252.75
456.17	4243.39
456.36	4329.99
456.54	4161.47
456.73	4091.26
456.91	4444.68
457.09	4411.91
457.28	4397.87
457.46	4339.35
457.64	4407.23
457.83	4477.44
458.01	4292.54
458.19	4475.10
458.38	4332.33
458.56	4449.36
458.74	4402.55
458.93	4346.37
459.11	4449.36
459.29	4372.12
459.48	4496.17
459.66	4470.42
459.84	4608.51
460.03	4657.67
460.21	4514.89
460.39	4652.98
460.57	4596.81
460.76	4428.29
460.94	4674.05
461.12	4746.61
461.31	4617.88
461.49	4660.01
461.67	4606.17
461.85	4809.80
462.04	4657.67
462.22	4945.55
462.40	4868.31
462.59	4917.47
462.77	4847.25
462.95	4676.39
463.13	4805.12
463.32	4854.27
463.50	4877.68
463.68	4931.51
463.86	4851.93
464.05	4793.42
464.23	5053.22
464.41	4894.06
464.59	4751.29
464.78	4987.68
464.96	4966.62
465.14	5036.83
465.32	5142.16
465.50	5069.60
465.69	5074.28
465.87	4994.70
466.05	4980.66
466.23	5081.30
466.41	5149.18
466.60	5238.12
466.78	5142.16
466.96	4940.87
467.14	5001.72
467.32	5130.45
467.51	5329.40
467.69	5139.82
467.87	5254.50
468.05	5167.90
468.23	5156.20
468.41	5256.84
468.60	5256.84
468.78	5397.28
468.96	5289.61
469.14	5329.40
469.32	5399.62
469.50	5210.03
469.69	5444.09
469.87	5493.24
470.05	5547.07
470.23	5584.52
470.41	5526.00
470.59	5448.77
470.77	5390.25
470.95	5448.77
471.14	5591.54
471.32	5495.58
471.50	5561.11
471.68	5657.07
471.86	5614.95
472.04	5678.14
472.22	5624.31
472.40	5743.67
472.58	5809.21
472.77	5760.06
472.95	5738.99
473.13	6066.67
473.31	5846.66
473.49	5633.67
473.67	5888.79
473.85	5893.47
474.03	6176.67
474.21	6050.28
474.39	6054.97
474.57	6179.01
474.75	6279.66
474.93	6246.89
475.12	6193.06
475.30	6221.14
475.48	6204.76
475.66	6375.62
475.84	6307.74
476.02	6436.47
476.20	6415.41
476.38	6494.99
476.56	6827.34
476.74	6539.46
476.92	6614.35
477.10	6588.61
477.28	6679.89
477.46	6600.31
477.64	6810.96
477.82	6719.68
478.00	7155.02
478.18	7049.69
478.36	7030.97
478.54	7126.93
478.72	7171.40
478.90	7241.62
479.08	7176.08
479.26	7232.26
479.44	7229.91
479.62	7396.09
479.80	7339.92
479.98	7466.31
480.16	7674.62
480.34	7793.98
480.52	7805.69
480.70	7803.35
480.88	7606.74
481.06	7889.95
481.24	7740.15
481.41	8011.65
481.59	8079.53
481.77	8180.17
481.95	8147.40
482.13	7962.50
482.31	8224.64
482.49	8236.35
482.67	8425.93
482.85	8311.24
483.03	8540.61
483.21	8786.37
483.39	8531.25
483.57	8557.00
483.74	8898.72
483.92	8732.54
484.10	8786.37
484.28	9170.22
484.46	8992.34
484.64	9174.90
484.82	9380.87
485.00	9273.20
485.18	9423.00
485.35	9324.69
485.53	9476.83
485.71	9593.86
485.89	9729.61
486.07	9530.66
486.25	9640.67
486.43	9886.42
486.61	9991.75
486.78	9912.17
486.96	9935.57
487.14	10303.04
487.32	10310.06
487.50	10258.57
487.68	10265.59
487.85	10516.03
488.03	10509.01
488.21	10747.74
488.39	10670.50
488.57	10707.95
488.75	10595.61
488.92	10871.79
489.10	10949.03
489.28	10881.15
489.46	11267.34
489.64	11269.68
489.81	11569.27
489.99	11410.11
490.17	11552.88
490.35	11639.48
490.53	11557.57
490.70	11887.58
490.88	11698.00
491.06	12056.10
491.24	11892.26
491.41	12037.38
491.59	11925.03
491.77	12032.69
491.95	12294.83
492.13	12283.13
492.30	12528.89
492.48	12575.70
492.66	12465.69
492.84	12388.46
493.01	12762.94
493.19	12739.54
493.37	12636.55
493.54	12933.80
493.72	12816.77
493.90	12968.91
494.08	13071.89
494.25	13109.34
494.43	13425.31
494.61	13591.49
494.79	13493.19
494.96	13579.79
495.14	13420.63
495.32	13437.02
495.49	13687.45
495.67	13914.48
495.85	13930.87
496.02	14003.43
496.20	13790.44
496.38	14216.41
496.55	14277.27
496.73	14513.66
496.91	14132.15
497.09	14499.62
497.26	14471.53
497.44	14363.87
497.62	14429.40
497.79	14951.34
497.97	14675.16
498.14	15122.20
498.32	15000.49
498.50	14792.19
498.67	15185.40
498.85	14970.07
499.03	14953.68
499.20	15028.58
499.38	15372.64
499.56	15337.53
499.73	15108.16
499.91	15393.70
500.08	15513.07
500.26	15419.45
500.44	15529.45
500.61	15847.77
500.79	15758.83
500.97	15758.83
501.14	15957.77
501.32	15948.41
501.49	16123.95
501.67	16177.78
501.84	16100.55
502.02	15974.16
502.20	16395.45
502.37	16294.81
502.55	16645.89
502.72	16428.22
502.90	16381.41
503.07	16479.71
503.25	16512.48
503.43	16446.94
503.60	16718.45
503.78	16730.15
503.95	16650.57
504.13	16819.09
504.30	16650.57
504.48	16877.60
504.65	16863.56
504.83	17006.33
505.01	17202.94
505.18	17233.36
505.36	17167.83
505.53	16985.27
505.71	17448.69
505.88	17523.59
506.06	16882.28
506.23	17193.58
506.41	17525.93
506.58	17626.57
506.76	17699.13
506.93	17846.58
507.11	17413.59
507.28	17816.16
507.46	17818.50
507.63	18059.57
507.81	17853.61
507.98	18043.19
508.16	17909.78
508.33	17944.89
508.50	18216.39
508.68	18157.88
508.85	18363.84
509.03	18523.00
509.20	18455.12
509.38	18689.18
509.55	18492.57
509.73	18768.76
509.90	18628.32
510.08	18703.22
510.25	18572.15
510.42	18647.05
510.60	18953.66
510.77	18759.39
510.95	19002.81
511.12	19066.00
511.30	18801.52
511.47	18719.60
511.64	18967.70
511.82	19058.98
511.99	19487.30
512.17	19552.84
512.34	19012.17
512.51	19321.12
512.69	19433.47
512.86	19524.75
513.04	19594.96
513.21	19658.16
513.38	19658.16
513.56	19939.02
513.73	19709.65
513.90	19847.74
514.08	19555.18
514.25	19751.78
514.43	20086.48
514.60	19992.86
514.77	20140.31
514.95	20215.21
515.12	19807.95
515.29	19939.02
515.47	20081.80
515.64	20414.15
515.81	20367.34
515.99	20453.94
516.16	20641.18
516.33	20622.46
516.51	20615.44
516.68	20299.47
516.85	20386.07
517.03	20643.52
517.20	20662.25
517.37	20706.72
517.54	20849.49
517.72	20570.97
517.89	20868.22
518.06	20980.56
518.24	20727.78
518.41	20905.66
518.58	20716.08
518.75	21123.33
518.93	21518.89
519.10	21083.55
519.27	21277.81
519.45	21518.89
519.62	21436.97
519.79	21465.05
519.96	21390.16
520.14	21521.23
520.31	21502.50
520.48	21652.30
520.65	21263.77
520.83	21535.27
521.00	21715.49
521.17	21572.72
521.34	21645.27
521.52	21766.98
521.69	21720.17
521.86	22221.05
522.03	21921.46
522.20	21905.07
522.38	22279.56
522.55	21802.09
522.72	22183.60
522.89	22272.54
523.07	22246.79
523.24	22394.25
523.41	22459.78
523.58	22040.82
523.75	22485.53
523.92	22324.03
524.10	22417.65
524.27	22506.59
524.44	22412.97
524.61	22714.90
524.78	22948.95
524.96	22333.39
525.13	22483.19
525.30	22946.61
525.47	22611.92
525.64	22934.91
525.81	22618.94
525.98	23042.57
526.16	23164.28
526.33	23192.37
526.50	23206.41
526.67	22775.75
526.84	22850.65
527.01	23007.47
527.18	23042.57
527.36	23374.93
527.53	23323.44
527.70	23323.44
527.87	23379.61
528.04	23477.91
528.21	23449.83
528.38	23529.41
528.55	23758.78
528.72	23332.80
528.89	23845.38
529.07	23578.56
529.24	23693.24
529.41	23836.02
529.58	23583.24
529.75	23686.22
529.92	23927.30
530.09	23644.09
530.26	24201.14
530.43	24264.33
530.60	23742.39
530.77	24025.60
530.94	24559.24
531.11	24201.14
531.28	24126.24
531.46	24053.69
531.63	23983.47
531.80	24367.32
531.97	24173.05
532.14	24620.10
532.31	24397.74
532.48	24474.98
532.65	24566.26
532.82	24086.45
532.99	24486.68
533.16	24350.93
533.33	24620.10
533.50	24727.76
533.67	24491.37
533.84	24849.47
534.01	24662.22
534.18	24584.99
534.35	24812.02
534.52	24737.12
534.69	24790.95
534.86	24755.85
535.03	24919.68
535.20	25025.01
535.37	25027.35
535.54	25008.62
535.71	25170.12
535.88	25223.95
536.05	24982.88
536.22	25355.02
536.38	25556.31
536.55	25284.81
536.72	25551.63
536.89	24959.47
537.06	25116.29
537.23	25589.08
537.40	25345.66
537.57	25401.83
537.74	25523.54
537.91	25301.19
538.08	25465.03
538.25	25343.32
538.42	25851.22
538.59	25605.46
538.75	25308.21
538.92	25586.74
539.09	25883.98
539.26	25975.27
539.43	25895.69
539.60	26143.78
539.77	25879.30
539.94	26040.80
540.11	25633.55
540.28	25759.94
540.44	25553.97
540.61	25497.80
540.78	25998.67
540.95	26515.93
541.12	25876.96
541.29	26085.27
541.46	26108.68
541.62	25879.30
541.79	26202.30
541.96	25827.81
542.13	26263.15
542.30	26532.31
542.47	26354.43
542.63	26349.75
542.80	26630.62
542.97	26581.46
543.14	26611.89
543.31	26457.42
543.48	26710.19
543.64	26930.20
543.81	26513.59
543.98	27019.14
544.15	26869.35
544.32	27140.85
544.48	26998.08
544.65	26831.90
544.82	27084.68
544.99	26441.03
545.16	26960.63
545.32	26539.33
545.49	27089.36
545.66	26925.52
545.83	27255.54
546.00	27122.13
546.16	27000.42
546.33	27077.66
546.50	27136.17
546.67	27030.85
546.83	27035.53
547.00	26740.62
547.17	27049.57
547.34	27225.11
547.50	27798.54
547.67	27733.01
547.84	27414.69
548.00	27274.26
548.17	27770.46
548.34	27346.82
548.51	27938.97
548.67	27725.99
548.84	27658.11
549.01	27477.89
549.18	27417.04
549.34	27630.02
549.51	27655.77
549.68	27693.22
549.84	27351.50
550.01	27594.92
550.18	27449.80
550.34	27763.43
550.51	27725.99
550.68	28046.64
550.84	27728.33
551.01	27915.57
551.18	27679.18
551.34	27913.23
551.51	27964.72
551.68	28198.77
551.84	27948.34
552.01	28142.60
552.18	28161.33
552.34	27819.61
552.51	28058.34
552.68	28065.36
552.84	28353.25
553.01	27929.61
553.18	28109.83
553.34	28098.13
553.51	28271.33
553.67	27962.38
553.84	28278.35
554.01	28474.96
554.17	28634.11
554.34	28161.33
554.51	28416.44
554.67	28549.85
554.84	28634.11
555.00	28379.00
555.17	28477.30
555.33	28856.46
555.50	28652.84
555.67	28587.30
555.83	28484.32
556.00	28769.86
556.16	28657.52
556.33	28299.42
556.50	28811.99
556.66	28549.85
556.83	28659.86
556.99	28870.51
557.16	29275.42
557.32	28669.22
557.49	28840.08
557.65	28531.13
557.82	28526.45
557.98	28797.95
558.15	28926.68
558.32	28996.90
558.48	29043.71
558.65	29109.24
558.81	28936.04
558.98	28961.79
559.14	28760.50
559.31	28943.06
559.47	28807.31
559.64	28975.83
559.80	28950.09
559.97	29095.20
560.13	29097.54
560.30	28765.18
560.46	29144.35
560.63	29221.59
560.79	29184.14
560.96	29172.44
561.12	29132.65
561.29	28912.64
561.45	29308.19
561.61	29315.21
561.78	29560.97
561.94	29411.17
562.11	29504.79
562.27	29219.25
562.44	28910.30
562.60	29041.37
562.77	29179.46
562.93	28912.64
563.10	29371.38
563.26	29549.26
563.42	29411.17
563.59	29795.02
563.75	29408.83
563.92	29837.15
564.08	29193.50
564.24	29532.88
564.41	29254.36
564.57	29420.53
564.74	29457.98
564.90	29556.28
565.07	29965.88
565.23	29481.39
565.39	29900.34
565.56	29668.63
565.72	29336.27
565.88	29434.58
566.05	29666.29
566.21	29507.13
566.38	29865.24
566.54	29624.16
566.70	30052.48
566.87	30040.78
567.03	29893.32
567.19	30047.80
567.36	30122.69
567.52	29666.29
567.68	29823.11
567.85	29736.51
568.01	29675.65
568.17	29465.00
568.34	29933.11
568.50	29879.28
568.66	29811.40
568.83	30127.38
568.99	29809.06
569.15	30326.32
569.32	30052.48
569.48	29546.92
569.64	30059.50
569.81	29706.08
569.97	29612.46
570.13	29752.89
570.30	29806.72
570.46	30242.06
570.62	30068.86
570.78	29811.40
570.95	29731.83
571.11	29958.86
571.27	29385.43
571.43	29848.85
571.60	29790.34
571.76	30450.37
571.92	30174.19
572.09	30260.79
572.25	30197.59
572.41	30431.65
572.57	29869.92
572.74	29977.58
572.90	30068.86
573.06	29778.64
573.22	30412.92
573.38	30087.59
573.55	29916.73
573.71	30267.81
573.87	30417.60
574.03	30206.95
574.20	30459.73
574.36	29982.26
574.52	30178.87
574.68	29750.55
574.84	30277.17
575.01	29984.60
575.17	29947.15
575.33	29991.62
575.49	30141.42
575.65	29898.00
575.82	29804.38
575.98	30197.59
576.14	30157.80
576.30	30075.88
576.46	30263.13
576.62	30038.44
576.79	30134.40
576.95	30064.18
577.11	30256.11
577.27	30223.34
577.43	30199.93
577.59	30377.81
577.75	30204.61
577.92	30066.52
578.08	30026.73
578.24	29771.61
578.40	30129.72
578.56	30295.89
578.72	30403.56
578.88	30426.96
579.04	30450.37
579.21	30110.99
579.37	30127.38
579.53	30174.19
579.69	30064.18
579.85	30019.71
580.01	30216.32
580.17	30125.04
580.33	30307.60
580.49	30291.21
580.65	30609.53
580.82	30480.80
580.98	30064.18
581.14	30204.61
581.30	30532.29
581.46	30565.06
581.62	30045.46
581.78	29806.72
581.94	30352.07
582.10	30387.18
582.26	30405.90
582.42	30686.76
582.58	30508.88
582.74	30457.39
582.90	30560.37
583.06	30333.34
583.22	30471.43
583.38	30321.64
583.54	30113.33
583.70	30075.88
583.86	30342.70
584.02	30377.81
584.18	30518.25
584.34	30450.37
584.50	30396.54
584.66	30410.58
584.82	30260.79
584.98	30073.54
585.14	30218.66
585.30	30621.23
585.46	30347.39
585.62	30401.22
585.78	30623.57
585.94	30000.99
586.10	30270.15
586.26	30382.49
586.42	30412.92
586.58	30618.89
586.74	30373.13
586.90	30113.33
587.06	30361.43
587.22	30749.96
587.38	30235.04
587.54	30270.15
587.70	30651.66
587.86	30448.03
588.02	30799.11
588.18	30874.01
588.34	30539.31
588.49	30558.03
588.65	30312.28
588.81	30249.08
588.97	30590.80
589.13	30497.18
589.29	30485.48
589.45	31002.74
589.61	30511.22
589.77	31105.72
589.93	30616.55
590.08	30707.83
590.24	30719.53
590.40	30668.04
590.56	30888.05
590.72	30354.41
590.88	30696.13
591.04	30759.32
591.20	30925.50
591.35	30993.37
591.51	31267.22
591.67	31189.98
591.83	31103.38
591.99	30764.00
