SpectraSuite Data File
++++++++++++++++++++++++++++++++++++
Date: Fri Oct 18 13:58:07 GMT-05:00 2013
User: bianchi
Dark Spectrum Present: No
Reference Spectrum Present: No
Number of Sampled Component Spectra: 1
Spectrometers: USB2+H05261
Integration Time (usec): 50000 (USB2+H05261)
Spectra Averaged: 1 (USB2+H05261)
Boxcar Smoothing: 0 (USB2+H05261)
Correct for Electrical Dark: No (USB2+H05261)
Strobe/Lamp Enabled: No (USB2+H05261)
Correct for Detector Non-linearity: No (USB2+H05261)
Correct for Stray Light: No (USB2+H05261)
Number of Pixels in Processed Spectrum: 2048
>>>>>Begin Processed Spectral Data<<<<<
365.73	0.00
365.92	0.00
366.12	0.00
366.32	0.00
366.52	0.00
366.72	0.00
366.91	0.00
367.11	0.00
367.31	0.00
367.51	0.00
367.70	0.00
367.90	0.00
368.10	0.00
368.30	0.00
368.49	0.00
368.69	0.00
368.89	0.00
369.09	0.00
369.28	0.00
369.48	0.00
369.68	0.00
369.87	0.00
370.07	0.00
370.27	0.00
370.47	0.00
370.66	18.72
370.86	145.11
371.06	145.11
371.25	191.92
371.45	217.67
371.65	138.09
371.84	112.35
372.04	138.09
372.24	154.48
372.44	191.92
372.63	159.16
372.83	168.52
373.03	208.31
373.22	163.84
373.42	208.31
373.62	262.14
373.81	182.56
374.01	290.23
374.21	266.82
374.40	262.14
374.60	273.84
374.79	266.82
374.99	245.76
375.19	322.99
375.38	283.20
375.58	224.69
375.78	215.33
375.97	339.38
376.17	330.02
376.37	250.44
376.56	231.71
376.76	154.48
376.95	278.52
377.15	290.23
377.35	290.23
377.54	257.46
377.74	341.72
377.93	301.93
378.13	315.97
378.33	250.44
378.52	224.69
378.72	257.46
378.91	351.08
379.11	264.48
379.31	227.03
379.50	250.44
379.70	278.52
379.89	278.52
380.09	299.59
380.28	358.10
380.48	318.31
380.68	346.40
380.87	325.33
381.07	243.42
381.26	301.93
381.46	395.55
381.65	395.55
381.85	383.85
382.04	337.04
382.24	395.55
382.43	374.49
382.63	339.38
382.83	351.08
383.02	346.40
383.22	306.61
383.41	337.04
383.61	369.80
383.80	346.40
384.00	301.93
384.19	388.53
384.39	425.98
384.58	374.49
384.78	383.85
384.97	404.91
385.17	339.38
385.36	496.19
385.56	421.30
385.75	306.61
385.95	449.38
386.14	383.85
386.34	355.76
386.53	437.68
386.72	379.17
386.92	397.89
387.11	397.89
387.31	444.70
387.50	360.44
387.70	470.45
387.89	416.62
388.09	468.11
388.28	491.51
388.48	442.36
388.67	404.91
388.86	369.80
389.06	411.93
389.25	461.09
389.45	496.19
389.64	407.25
389.84	449.38
390.03	465.77
390.22	442.36
390.42	470.45
390.61	463.43
390.81	447.04
391.00	521.94
391.19	571.09
391.39	484.49
391.58	505.56
391.78	514.92
391.97	503.22
392.16	489.17
392.36	566.41
392.55	491.51
392.75	645.99
392.94	550.03
393.13	608.54
393.33	599.18
393.52	521.94
393.71	582.79
393.91	521.94
394.10	634.29
394.29	585.13
394.49	596.84
394.68	645.99
394.88	524.28
395.07	634.29
395.26	589.82
395.46	559.39
395.65	617.90
395.84	617.90
396.04	723.23
396.23	662.37
396.42	664.71
396.62	568.75
396.81	575.77
397.00	645.99
397.19	706.84
397.39	746.63
397.58	777.06
397.77	650.67
397.97	751.31
398.16	683.44
398.35	676.41
398.55	692.80
398.74	678.76
398.93	723.23
399.12	683.44
399.32	706.84
399.51	730.25
399.70	678.76
399.90	744.29
400.09	816.85
400.28	798.12
400.47	795.78
400.67	753.65
400.86	741.95
401.05	814.51
401.24	765.36
401.44	823.87
401.63	802.80
401.82	833.23
402.01	800.46
402.21	809.83
402.40	847.27
402.59	844.93
402.78	866.00
402.97	875.36
403.17	912.81
403.36	983.02
403.55	903.45
403.74	933.87
403.93	929.19
404.13	875.36
404.32	961.96
404.51	863.66
404.70	889.40
404.89	1027.50
405.09	908.13
405.28	971.32
405.47	985.37
405.66	1055.58
405.85	1015.79
406.05	994.73
406.24	1041.54
406.43	1006.43
406.62	1041.54
406.81	1008.77
407.00	1062.60
407.20	1013.45
407.39	1093.03
407.58	1036.86
407.77	1043.88
407.96	1078.99
408.15	1111.75
408.34	1146.86
408.54	1011.11
408.73	1104.73
408.92	1205.38
409.11	1128.14
409.30	1116.44
409.49	1160.91
409.68	1137.50
409.87	1235.80
410.07	1146.86
410.26	1146.86
410.45	1235.80
410.64	1097.71
410.83	1226.44
411.02	1231.12
411.21	1240.48
411.40	1284.95
411.59	1301.34
411.78	1207.72
411.98	1320.06
412.17	1380.92
412.36	1299.00
412.55	1343.47
412.74	1392.62
412.93	1273.25
413.12	1270.91
413.31	1488.58
413.50	1404.32
413.69	1434.75
413.88	1348.15
414.07	1418.36
414.26	1504.96
414.45	1434.75
414.64	1465.18
414.83	1495.60
415.02	1483.90
415.22	1507.30
415.41	1647.74
415.60	1554.12
415.79	1511.99
415.98	1423.05
416.17	1586.88
416.36	1600.93
416.55	1722.63
416.74	1654.76
416.93	1633.69
417.12	1659.44
417.31	1680.50
417.50	1657.10
417.69	1818.60
417.88	1736.68
418.07	1790.51
418.26	1797.53
418.45	1820.94
418.64	1909.88
418.83	1778.81
419.02	1823.28
419.21	1820.94
419.39	1806.89
419.58	1816.26
419.77	1846.68
419.96	1874.77
420.15	1933.28
420.34	1816.26
420.53	1830.30
420.72	1984.77
420.91	1994.14
421.10	2029.24
421.29	1867.75
421.48	2010.52
421.67	2076.06
421.86	2029.24
422.05	1930.94
422.24	2003.50
422.43	2036.27
422.61	1956.69
422.80	1975.41
422.99	1961.37
423.18	2019.88
423.37	2085.42
423.56	2045.63
423.75	2120.53
423.94	2073.71
424.13	1942.64
424.32	1785.83
424.50	2059.67
424.69	2169.68
424.88	2190.74
425.07	2113.50
425.26	2057.33
425.45	2148.61
425.64	2136.91
425.83	2101.80
426.01	2176.70
426.20	2033.93
426.39	2069.03
426.58	2050.31
426.77	2118.18
426.96	2232.87
427.15	2190.74
427.33	2047.97
427.52	2127.55
427.71	2162.66
427.90	2179.04
428.09	2094.78
428.28	2172.02
428.46	2298.41
428.65	2200.10
428.84	2270.32
429.03	2251.60
429.22	2200.10
429.40	2216.49
429.59	2345.22
429.78	2132.23
429.97	2115.84
430.16	2207.13
430.34	2260.96
430.53	2363.94
430.72	2307.77
430.91	2296.07
431.10	2345.22
431.28	2429.48
431.47	2296.07
431.66	2403.73
431.85	2394.37
432.03	2455.22
432.22	2555.86
432.41	2480.97
432.60	2399.05
432.79	2375.64
432.97	2473.95
433.16	2509.05
433.35	2572.25
433.54	2525.44
433.72	2487.99
433.91	2455.22
434.10	2558.21
434.28	2628.42
434.47	2576.93
434.66	2506.71
434.85	2600.34
435.03	2644.81
435.22	2658.85
435.41	2544.16
435.59	2651.83
435.78	2684.59
435.97	2703.32
436.16	2698.64
436.34	2686.94
436.53	2579.27
436.72	2855.45
436.90	2698.64
437.09	2829.71
437.28	2806.30
437.46	2757.15
437.65	2822.69
437.84	2813.32
438.02	2722.04
438.21	2853.11
438.40	2686.94
438.58	2857.79
438.77	2932.69
438.96	2860.13
439.14	2984.18
439.33	2937.37
439.52	2981.84
439.70	2963.12
439.89	3052.06
440.08	2998.23
440.26	3122.27
440.45	3089.51
440.63	3073.12
440.82	3220.58
441.01	3166.74
441.19	3126.96
441.38	3332.92
441.57	3241.64
441.75	3225.26
441.94	3190.15
442.12	3276.75
442.31	3239.30
442.50	3384.41
442.68	3363.35
442.87	3428.88
443.05	3272.07
443.24	3452.29
443.43	3382.07
443.61	3499.10
443.80	3421.86
443.98	3328.24
444.17	3283.77
444.35	3461.65
444.54	3571.66
444.73	3461.65
444.91	3513.14
445.10	3426.54
445.28	3440.59
445.47	3335.26
445.65	3368.03
445.84	3508.46
446.02	3545.91
446.21	3398.46
446.39	3534.21
446.58	3440.59
446.77	3555.27
446.95	3480.38
447.14	3555.27
447.32	3637.19
447.51	3592.72
447.69	3627.83
447.88	3442.93
448.06	3478.04
448.25	3485.06
448.43	3709.75
448.62	3569.32
448.80	3648.90
448.99	3597.40
449.17	3618.47
449.36	3559.95
449.54	3655.92
449.73	3707.41
449.91	3669.96
450.10	3829.12
450.28	3878.27
450.46	3822.09
450.65	3782.31
450.83	3798.69
451.02	3801.03
451.20	3772.94
451.39	3733.15
451.57	3817.41
451.76	3803.37
451.94	3784.65
452.13	3859.54
452.31	3840.82
452.49	3779.97
452.68	3885.29
452.86	3892.31
453.05	3974.23
453.23	3978.91
453.42	3911.04
453.60	3896.99
453.78	4004.66
453.97	3962.53
454.15	3852.52
454.34	3976.57
454.52	3960.19
454.70	4086.58
454.89	4025.72
455.07	4079.55
455.26	4203.60
455.44	4058.49
455.62	4196.58
455.81	4313.61
455.99	4140.41
456.17	4173.18
456.36	4262.12
456.54	4224.67
456.73	4276.16
456.91	4290.20
457.09	4355.74
457.28	4379.14
457.46	4257.43
457.64	4440.00
457.83	4402.55
458.01	4287.86
458.19	4498.51
458.38	4311.27
458.56	4393.19
458.74	4521.92
458.93	4552.34
459.11	4652.98
459.29	4484.47
459.48	4463.40
459.66	4507.87
459.84	4603.83
460.03	4657.67
460.21	4519.57
460.39	4564.04
460.57	4676.39
460.76	4725.54
460.94	4641.28
461.12	4737.24
461.31	4676.39
461.49	4550.00
461.67	4692.77
461.85	4748.95
462.04	4685.75
462.22	4978.32
462.40	4781.71
462.59	4882.36
462.77	4950.23
462.95	4938.53
463.13	4819.16
463.32	4901.08
463.50	4849.59
463.68	4809.80
463.86	4903.42
464.05	4919.81
464.23	4924.49
464.41	4997.04
464.59	4975.98
464.78	4978.32
464.96	5004.07
465.14	4826.18
465.32	5039.17
465.50	5195.99
465.69	5142.16
465.87	5064.92
466.05	5090.67
466.23	4990.02
466.41	5142.16
466.60	5359.83
466.78	5142.16
466.96	5153.86
467.14	5060.24
467.32	5060.24
467.51	5195.99
467.69	5046.20
467.87	5275.57
468.05	5242.80
468.23	5015.77
468.41	5341.10
468.60	5317.70
468.78	5322.38
468.96	5235.78
469.14	5420.68
469.32	5341.10
469.50	5291.95
469.69	5446.43
469.87	5502.60
470.05	5589.20
470.23	5593.88
470.41	5495.58
470.59	5586.86
470.77	5448.77
470.95	5425.36
471.14	5465.15
471.32	5446.43
471.50	5830.27
471.68	5703.89
471.86	5610.26
472.04	5767.08
472.22	5692.18
472.40	5703.89
472.58	5823.25
472.77	5762.40
472.95	5968.37
473.13	5933.26
473.31	5914.53
473.49	5984.75
473.67	6005.81
473.85	5954.32
474.03	6214.12
474.21	5916.87
474.39	6174.33
474.57	6246.89
474.75	6174.33
474.93	6272.64
475.12	6279.66
475.30	6181.35
475.48	6274.98
475.66	6200.08
475.84	6471.58
476.02	6511.37
476.20	6483.28
476.38	6527.75
476.56	6654.14
476.74	6719.68
476.92	6415.41
477.10	6668.19
477.28	6616.69
477.46	6665.85
477.64	6822.66
477.82	6953.73
478.00	7040.33
478.18	7014.59
478.36	7162.04
478.54	7152.68
478.72	7143.32
478.90	7368.01
479.08	7370.35
479.26	7185.44
479.44	7508.44
479.62	7363.33
479.80	7489.71
479.98	7506.10
480.16	7695.68
480.34	7604.40
480.52	7775.26
480.70	7705.04
480.88	7653.55
481.06	7831.43
481.24	7957.82
481.41	7705.04
481.59	8081.87
481.77	8147.40
481.95	8184.85
482.13	8369.76
482.31	8100.59
482.49	8386.14
482.67	8269.11
482.85	8507.85
483.03	8524.23
483.21	8624.87
483.39	8746.58
483.57	8676.37
483.74	8830.84
483.92	8807.44
484.10	8887.01
484.28	9163.20
484.46	9418.32
484.64	9181.92
484.82	9039.15
485.00	9198.31
485.18	9448.74
485.35	9661.73
485.53	9481.51
485.71	9509.60
485.89	9685.14
486.07	9877.06
486.25	9781.10
486.43	9750.67
486.61	9830.25
486.78	10026.86
486.96	10176.65
487.14	10225.80
487.32	10045.58
487.50	10164.95
487.68	10317.08
487.85	10487.94
488.03	10420.06
488.21	10562.84
488.39	10719.65
488.57	10822.64
488.75	10619.01
488.92	11272.02
489.10	11218.19
489.28	11070.73
489.46	11281.38
489.64	11211.17
489.81	11342.24
489.99	11438.20
490.17	11590.33
490.35	11700.34
490.53	11625.44
490.70	11599.70
490.88	11798.64
491.06	11918.01
491.24	11805.66
491.41	11840.77
491.59	12123.98
491.77	12030.35
491.95	12264.41
492.13	12390.80
492.30	12322.92
492.48	12400.16
492.66	12409.52
492.84	12390.80
493.01	12606.13
493.19	12760.60
493.37	12889.33
493.54	13165.51
493.72	13006.36
493.90	13015.72
494.08	13055.51
494.25	13252.11
494.43	13256.79
494.61	13521.27
494.79	13392.55
494.96	13483.83
495.14	13659.37
495.32	13893.42
495.49	13642.98
495.67	13818.52
495.85	13862.99
496.02	13846.61
496.20	13928.53
496.38	14256.20
496.55	14066.62
496.73	14508.98
496.91	14230.46
497.09	14464.51
497.26	14717.29
497.44	14663.46
497.62	14661.12
497.79	14518.34
497.97	14679.84
498.14	15019.22
498.32	15103.48
498.50	15023.90
498.67	15545.84
498.85	15070.71
499.03	15374.98
499.20	15272.00
499.38	15564.56
499.56	15492.01
499.73	15681.59
499.91	15482.64
500.08	15627.76
500.26	15309.44
500.44	15208.80
500.61	15616.05
500.79	15576.27
500.97	15908.62
501.14	16077.14
501.32	16105.23
501.49	16081.82
501.67	16130.97
501.84	16002.24
502.02	16128.63
502.20	16463.33
502.37	16524.18
502.55	16402.47
502.72	16636.53
502.90	16418.86
503.07	16409.50
503.25	16468.01
503.43	16741.85
503.60	16491.41
503.78	16833.13
503.95	16837.81
504.13	16842.50
504.30	17006.33
504.48	16823.77
504.65	17156.13
504.83	16891.65
505.01	17387.84
505.18	17317.62
505.36	17397.20
505.53	17160.81
505.71	17626.57
505.88	17486.14
506.06	17231.02
506.23	17645.30
506.41	17743.60
506.58	17556.36
506.76	17902.76
506.93	17776.37
507.11	17750.62
507.28	17610.19
507.46	17865.31
507.63	17998.72
507.81	17928.50
507.98	18171.92
508.16	18230.43
508.33	17708.49
508.50	18164.90
508.68	18326.39
508.85	18253.84
509.03	18305.33
509.20	18640.03
509.38	18801.52
509.55	18754.71
509.73	18621.30
509.90	18888.12
510.08	18600.24
510.25	18670.45
510.42	18958.34
510.60	19122.18
510.77	19103.45
510.95	19101.11
511.12	18813.23
511.30	18993.45
511.47	19267.29
511.64	19138.56
511.82	19396.02
511.99	19222.82
512.17	19480.28
512.34	19414.74
512.51	19431.13
512.69	19480.28
512.86	19323.46
513.04	19704.97
513.21	19953.07
513.38	19786.89
513.56	19971.79
513.73	19807.95
513.90	19765.82
514.08	19536.45
514.25	20194.14
514.43	20088.82
514.60	19985.83
514.77	20020.94
514.95	20453.94
515.12	19999.88
515.29	20215.21
515.47	20088.82
515.64	20346.28
515.81	20549.90
515.99	20514.80
516.16	20734.81
516.33	20449.26
516.51	20451.60
516.68	20381.38
516.85	20697.36
517.03	20830.77
517.20	20959.50
517.37	20947.79
517.54	21003.97
517.72	20978.22
517.89	20802.68
518.06	20657.57
518.24	20919.71
518.41	21109.29
518.58	21123.33
518.75	21238.02
518.93	21333.98
519.10	21191.21
519.27	21212.28
519.45	21582.08
519.62	21280.15
519.79	21333.98
519.96	21443.99
520.14	21549.31
520.31	21303.56
520.48	21415.90
520.65	21624.21
520.83	21593.78
521.00	22050.19
521.17	21708.47
521.34	21935.50
521.52	21745.92
521.69	22106.36
521.86	21860.60
522.03	22050.19
522.20	22408.29
522.38	22415.31
522.55	21963.59
522.72	22693.83
522.89	22148.49
523.07	22469.14
523.24	22295.94
523.41	22501.91
523.58	22476.16
523.75	22511.27
523.92	22363.82
524.10	22256.15
524.27	22286.58
524.44	22841.29
524.61	23080.02
524.78	22838.95
524.96	22974.70
525.13	22728.94
525.30	23019.17
525.47	22883.42
525.64	22764.05
525.81	23049.60
525.98	23414.72
526.16	23491.96
526.33	23077.68
526.50	23426.42
526.67	23068.32
526.84	23133.86
527.01	23285.99
527.18	23447.49
527.36	23515.36
527.53	23513.02
527.70	23917.93
527.87	23887.51
528.04	23372.59
528.21	23433.44
528.38	23358.55
528.55	23852.40
528.72	23496.64
528.89	23805.59
529.07	23735.37
529.24	24013.90
529.41	23934.32
529.58	23580.90
529.75	24009.22
529.92	24084.11
530.09	23765.80
530.26	24322.85
530.43	24030.28
530.60	23878.15
530.77	24182.42
530.94	23978.79
531.11	24093.47
531.28	24271.36
531.46	23784.52
531.63	24706.70
531.80	24692.65
531.97	24545.20
532.14	24451.58
532.31	24575.62
532.48	24563.92
532.65	24725.42
532.82	24460.94
532.99	24669.25
533.16	24376.68
533.33	24868.19
533.50	24755.85
533.67	24711.38
533.84	24657.54
534.01	24411.79
534.18	24971.18
534.35	24711.38
534.52	24936.07
534.69	24907.98
534.86	25165.44
535.03	25088.20
535.20	24828.40
535.37	24924.36
535.54	25415.88
535.71	25186.50
535.88	25207.57
536.05	24985.22
536.22	25003.94
536.38	25462.69
536.55	25448.64
536.72	25462.69
536.89	25380.77
537.06	25518.86
537.23	25425.24
537.40	25465.03
537.57	25352.68
537.74	25717.81
537.91	25914.41
538.08	25514.18
538.25	25277.79
538.42	25769.30
538.59	25895.69
538.75	25816.11
538.92	25500.14
539.09	25867.60
539.26	25750.57
539.43	26036.12
539.60	25958.88
539.77	25823.13
539.94	26008.03
540.11	25818.45
540.28	26036.12
540.44	25914.41
540.61	25883.98
540.78	25764.62
540.95	26204.64
541.12	26183.57
541.29	26139.10
541.46	26291.24
541.62	26338.05
541.79	26176.55
541.96	26089.95
542.13	26150.81
542.30	26312.30
542.47	26906.80
542.63	26654.02
542.80	26733.60
542.97	26824.88
543.14	26916.16
543.31	26808.50
543.48	26712.53
543.64	26614.23
543.81	26991.06
543.98	27051.91
544.15	26806.16
544.32	27131.49
544.48	27042.55
544.65	27021.48
544.82	27091.70
544.99	26939.57
545.16	26979.36
545.32	26845.94
545.49	26965.31
545.66	27098.72
545.83	26913.82
546.00	27339.80
546.16	27012.12
546.33	27438.10
546.50	26654.02
546.67	27117.45
546.83	27019.14
547.00	27592.58
547.17	27384.27
547.34	27374.91
547.50	27517.68
547.67	27641.73
547.84	27241.50
548.00	27632.36
548.17	27843.01
548.34	27545.76
548.51	27864.08
548.67	27976.42
548.84	27410.01
549.01	27861.74
549.18	27789.18
549.34	27391.29
549.51	27679.18
549.68	27992.81
549.84	27573.85
550.01	27779.82
550.18	27889.82
550.34	27644.07
550.51	28114.52
550.68	28041.96
550.84	27985.79
551.01	28074.73
551.18	27721.30
551.34	27723.65
551.51	27807.90
551.68	28636.45
551.84	28465.60
552.01	28343.89
552.18	28423.47
552.34	28065.36
552.51	28519.43
552.68	28311.12
552.84	28020.89
553.01	28531.13
553.18	28414.10
553.34	28339.21
553.51	28629.43
553.67	28474.96
553.84	28664.54
554.01	28266.65
554.17	28664.54
554.34	28624.75
554.51	28636.45
554.67	28538.15
554.84	28332.18
555.00	28400.06
555.17	28629.43
555.33	28381.34
555.50	28512.41
555.67	28503.04
555.83	28786.25
556.00	28622.41
556.16	28835.40
556.33	28676.24
556.50	28938.38
556.66	28898.59
556.83	28533.47
556.99	29240.31
557.16	29083.50
557.32	29008.60
557.49	28847.10
557.65	28779.23
557.82	29106.90
557.98	28814.34
558.15	28978.17
558.32	29039.03
558.48	29062.43
558.65	28947.75
558.81	28856.46
558.98	29113.92
559.14	28856.46
559.31	28870.51
559.47	28985.19
559.64	29158.39
559.80	29493.09
559.97	29448.62
560.13	29195.84
560.30	29443.94
560.46	29092.86
560.63	29593.73
560.79	29149.03
560.96	29656.93
561.12	28889.23
561.29	29151.37
561.45	29502.45
561.61	29090.52
561.78	29692.04
561.94	29507.13
562.11	29570.33
562.27	29184.14
562.44	29170.10
562.60	29448.62
562.77	29256.70
562.93	29221.59
563.10	29862.90
563.26	29184.14
563.42	29914.39
563.59	29642.88
563.75	29563.31
563.92	29436.92
564.08	29469.69
564.24	29525.86
564.41	29095.20
564.57	29600.76
564.74	29612.46
564.90	29961.20
565.07	29956.52
565.23	29708.42
565.39	29652.25
565.56	29670.97
565.72	29883.96
565.88	29546.92
566.05	30000.99
566.21	29509.47
566.38	29560.97
566.54	29635.86
566.70	29996.31
566.87	30026.73
567.03	29687.36
567.19	29970.56
567.36	30295.89
567.52	29731.83
567.68	29818.42
567.85	29701.40
568.01	29813.74
568.17	29682.67
568.34	29532.88
568.50	30167.16
568.66	30157.80
568.83	30202.27
568.99	30064.18
569.15	29930.77
569.32	30157.80
569.48	29717.78
569.64	30150.78
569.81	29937.79
569.97	30026.73
570.13	30235.04
570.30	30281.85
570.46	30190.57
570.62	30103.97
570.78	29965.88
570.95	29425.22
571.11	29537.56
571.27	29867.58
571.43	29912.05
571.60	30050.14
571.76	29881.62
571.92	30183.55
572.09	30312.28
572.25	30150.78
572.41	30375.47
572.57	30146.10
572.74	30052.48
572.90	30192.91
573.06	30040.78
573.22	29907.37
573.38	29752.89
573.55	30316.96
573.71	30279.51
573.87	30513.56
574.03	30562.72
574.20	30012.69
574.36	30096.95
574.52	29820.77
574.68	29895.66
574.84	30321.64
575.01	30113.33
575.17	30614.21
575.33	30178.87
575.49	30260.79
575.65	30251.42
575.82	30445.69
575.98	30242.06
576.14	30302.92
576.30	30543.99
576.46	30239.72
576.62	30436.33
576.79	30239.72
576.95	29853.53
577.11	30246.74
577.27	30405.90
577.43	30295.89
577.59	30096.95
577.75	30274.83
577.92	30071.20
578.08	29813.74
578.24	30134.40
578.40	30050.14
578.56	30555.69
578.72	30429.30
578.88	30965.29
579.04	30689.10
579.21	30710.17
579.37	30281.85
579.53	30555.69
579.69	30277.17
579.85	30520.59
580.01	30452.71
580.17	30195.25
580.33	30417.60
580.49	30155.46
580.65	30616.55
580.82	30721.87
580.98	30551.01
581.14	30302.92
581.30	30595.48
581.46	30438.67
581.62	30457.39
581.78	30431.65
581.94	30370.79
582.10	30462.07
582.26	30548.67
582.42	30436.33
582.58	30651.66
582.74	30651.66
582.90	30410.58
583.06	30543.99
583.22	30756.98
583.38	30506.54
583.54	30281.85
583.70	30511.22
583.86	30122.69
584.02	30389.52
584.18	30635.27
584.34	30721.87
584.50	30548.67
584.66	30438.67
584.82	30478.46
584.98	30752.30
585.14	30497.18
585.30	30279.51
585.46	30494.84
585.62	30398.88
585.78	30518.25
585.94	30593.14
586.10	30614.21
586.26	30698.47
586.42	30829.54
586.58	30588.46
586.74	30679.74
586.90	30532.29
587.06	30436.33
587.22	30513.56
587.38	30607.19
587.54	30728.89
587.70	31077.63
587.86	30962.95
588.02	30646.97
588.18	30986.35
588.34	31119.76
588.49	30759.32
588.65	30869.33
588.81	30167.16
588.97	30944.22
589.13	30845.92
589.29	30326.32
589.45	30820.17
589.61	30960.61
589.77	30988.69
589.93	30841.24
590.08	31014.44
590.24	30815.49
590.40	30864.64
590.56	30675.06
590.72	30679.74
590.88	30553.35
591.04	30923.16
591.20	30827.20
591.35	31030.82
591.51	31243.81
591.67	31136.15
591.83	31419.35
