SpectraSuite Data File
++++++++++++++++++++++++++++++++++++
Date: Fri Oct 18 13:58:40 GMT-05:00 2013
User: bianchi
Dark Spectrum Present: No
Reference Spectrum Present: No
Number of Sampled Component Spectra: 1
Spectrometers: USB2+H05261
Integration Time (usec): 50000 (USB2+H05261)
Spectra Averaged: 1 (USB2+H05261)
Boxcar Smoothing: 0 (USB2+H05261)
Correct for Electrical Dark: No (USB2+H05261)
Strobe/Lamp Enabled: No (USB2+H05261)
Correct for Detector Non-linearity: No (USB2+H05261)
Correct for Stray Light: No (USB2+H05261)
Number of Pixels in Processed Spectrum: 2048
>>>>>Begin Processed Spectral Data<<<<<
365.73	0.00
365.92	0.00
366.12	0.00
366.32	0.00
366.52	0.00
366.72	0.00
366.91	0.00
367.11	0.00
367.31	0.00
367.51	0.00
367.70	0.00
367.90	0.00
368.10	0.00
368.30	0.00
368.49	0.00
368.69	0.00
368.89	0.00
369.09	0.00
369.28	0.00
369.48	0.00
369.68	0.00
369.87	0.00
370.07	0.00
370.27	0.00
370.47	0.00
370.66	28.09
370.86	117.03
371.06	177.88
371.25	168.52
371.45	119.37
371.65	142.77
371.84	285.55
372.04	98.30
372.24	182.56
372.44	114.69
372.63	208.31
372.83	203.63
373.03	224.69
373.22	166.18
373.42	191.92
373.62	154.48
373.81	189.58
374.01	205.97
374.21	234.05
374.40	229.37
374.60	196.60
374.79	241.08
374.99	161.50
375.19	231.71
375.38	229.37
375.58	234.05
375.78	196.60
375.97	198.95
376.17	320.65
376.37	257.46
376.56	215.33
376.76	229.37
376.95	227.03
377.15	304.27
377.35	353.42
377.54	299.59
377.74	271.50
377.93	297.25
378.13	330.02
378.33	255.12
378.52	220.01
378.72	290.23
378.91	330.02
379.11	283.20
379.31	327.68
379.50	166.18
379.70	262.14
379.89	313.63
380.09	271.50
380.28	273.84
380.48	290.23
380.68	306.61
380.87	285.55
381.07	255.12
381.26	287.89
381.46	311.29
381.65	381.51
381.85	308.95
382.04	308.95
382.24	346.40
382.43	341.72
382.63	362.78
382.83	294.91
383.02	379.17
383.22	360.44
383.41	332.36
383.61	367.46
383.80	416.62
384.00	404.91
384.19	344.06
384.39	344.06
384.58	315.97
384.78	320.65
384.97	397.89
385.17	294.91
385.36	280.86
385.56	339.38
385.75	346.40
385.95	374.49
386.14	435.34
386.34	376.83
386.53	341.72
386.72	344.06
386.92	358.10
387.11	397.89
387.31	393.21
387.50	404.91
387.70	425.98
387.89	440.02
388.09	362.78
388.28	437.68
388.48	470.45
388.67	475.13
388.86	376.83
389.06	477.47
389.25	454.06
389.45	411.93
389.64	461.09
389.84	449.38
390.03	463.43
390.22	456.40
390.42	566.41
390.61	486.83
390.81	528.96
391.00	463.43
391.19	402.57
391.39	421.30
391.58	463.43
391.78	498.53
391.97	489.17
392.16	486.83
392.36	535.98
392.55	498.53
392.75	505.56
392.94	517.26
393.13	575.77
393.33	526.62
393.52	496.19
393.71	578.11
393.91	634.29
394.10	573.43
394.29	566.41
394.49	500.87
394.68	582.79
394.88	594.50
395.07	568.75
395.26	596.84
395.46	582.79
395.65	681.10
395.84	671.73
396.04	660.03
396.23	664.71
396.42	608.54
396.62	629.60
396.81	667.05
397.00	636.63
397.19	688.12
397.39	702.16
397.58	685.78
397.77	653.01
397.97	610.88
398.16	746.63
398.35	699.82
398.55	622.58
398.74	681.10
398.93	671.73
399.12	746.63
399.32	709.18
399.51	739.61
399.70	830.89
399.90	674.07
400.09	788.76
400.28	763.01
400.47	772.38
400.67	758.33
400.86	823.87
401.05	812.17
401.24	784.08
401.44	821.53
401.63	844.93
401.82	809.83
402.01	819.19
402.21	805.14
402.40	739.61
402.59	816.85
402.78	887.06
402.97	884.72
403.17	816.85
403.36	842.59
403.55	809.83
403.74	910.47
403.93	924.51
404.13	915.15
404.32	847.27
404.51	976.00
404.70	903.45
404.89	807.48
405.09	990.05
405.28	950.26
405.47	987.71
405.66	950.26
405.85	1039.20
406.05	959.62
406.24	1013.45
406.43	1043.88
406.62	912.81
406.81	1097.71
407.00	973.66
407.20	943.24
407.39	1027.50
407.58	1006.43
407.77	1032.18
407.96	1158.57
408.15	1118.78
408.34	1048.56
408.54	1118.78
408.73	1022.81
408.92	1048.56
409.11	1210.06
409.30	1172.61
409.49	1146.86
409.68	1064.94
409.87	1151.54
410.07	1268.57
410.26	1165.59
410.45	1109.41
410.64	1100.05
410.83	1226.44
411.02	1252.19
411.21	1221.76
411.40	1254.53
411.59	1156.22
411.78	1289.64
411.98	1196.01
412.17	1226.44
412.36	1301.34
412.55	1334.11
412.74	1348.15
412.93	1378.58
413.12	1245.16
413.31	1338.79
413.50	1376.24
413.69	1495.60
413.88	1373.89
414.07	1458.15
414.26	1390.28
414.45	1439.43
414.64	1418.36
414.83	1401.98
415.02	1540.07
415.22	1586.88
415.41	1535.39
415.60	1476.88
415.79	1509.65
415.98	1607.95
416.17	1500.28
416.36	1607.95
416.55	1483.90
416.74	1561.14
416.93	1638.38
417.12	1671.14
417.31	1682.85
417.50	1612.63
417.69	1694.55
417.88	1671.14
418.07	1703.91
418.26	1713.27
418.45	1699.23
418.64	1724.97
418.83	1811.57
419.02	1816.26
419.21	1830.30
419.39	1825.62
419.58	1776.47
419.77	1834.98
419.96	1825.62
420.15	1809.23
420.34	1760.08
420.53	1797.53
420.72	1912.22
420.91	1963.71
421.10	1923.92
421.29	2078.40
421.48	1802.21
421.67	2008.18
421.86	2040.95
422.05	1968.39
422.24	1914.56
422.43	1891.15
422.61	1998.82
422.80	1921.58
422.99	1933.28
423.18	1966.05
423.37	2001.16
423.56	1956.69
423.75	2015.20
423.94	2064.35
424.13	1879.45
424.32	1837.32
424.50	1966.05
424.69	2022.22
424.88	2043.29
425.07	1980.09
425.26	1858.39
425.45	2101.80
425.64	1937.96
425.83	2059.67
426.01	2188.40
426.20	2057.33
426.39	1991.80
426.58	2118.18
426.77	2043.29
426.96	2064.35
427.15	2054.99
427.33	1989.46
427.52	2092.44
427.71	2054.99
427.90	2092.44
428.09	2181.38
428.28	2195.42
428.46	2225.85
428.65	2186.06
428.84	2169.68
429.03	2108.82
429.22	2167.34
429.40	2272.66
429.59	2242.23
429.78	2120.53
429.97	2106.48
430.16	2179.04
430.34	2235.21
430.53	2291.38
430.72	2293.72
430.91	2214.15
431.10	2251.60
431.28	2148.61
431.47	2385.01
431.66	2408.41
431.85	2347.56
432.03	2401.39
432.22	2368.62
432.41	2394.37
432.60	2495.01
432.79	2399.05
432.97	2509.05
433.16	2356.92
433.35	2382.67
433.54	2492.67
433.72	2518.42
433.91	2462.24
434.10	2422.45
434.28	2438.84
434.47	2567.57
434.66	2586.29
434.85	2562.89
435.03	2548.84
435.22	2485.65
435.41	2747.79
435.59	2586.29
435.78	2581.61
435.97	2649.49
436.16	2698.64
436.34	2703.32
436.53	2710.34
436.72	2778.22
436.90	2637.78
437.09	2700.98
437.28	2567.57
437.46	2691.62
437.65	2764.17
437.84	2750.13
438.02	2757.15
438.21	2717.36
438.40	2672.89
438.58	2759.49
438.77	2768.85
438.96	2895.24
439.14	2829.71
439.33	2846.09
439.52	2855.45
439.70	2925.67
439.89	3033.33
440.08	2937.37
440.26	2986.52
440.45	2967.80
440.63	2977.16
440.82	3075.46
441.01	2993.55
441.19	3101.21
441.38	3218.24
441.57	3201.85
441.75	3108.23
441.94	3178.45
442.12	3199.51
442.31	3265.05
442.50	3283.77
442.68	3187.81
442.87	3403.14
443.05	3248.66
443.24	3274.41
443.43	3482.72
443.61	3480.38
443.80	3520.17
443.98	3234.62
444.17	3325.90
444.35	3283.77
444.54	3435.91
444.73	3272.07
444.91	3414.84
445.10	3370.37
445.28	3215.90
445.47	3393.78
445.65	3522.51
445.84	3452.29
446.02	3524.85
446.21	3372.71
446.39	3405.48
446.58	3557.61
446.77	3513.14
446.95	3452.29
447.14	3325.90
447.32	3456.97
447.51	3541.23
447.69	3562.30
447.88	3536.55
448.06	3478.04
448.25	3445.27
448.43	3417.18
448.62	3527.19
448.80	3414.84
448.99	3447.61
449.17	3496.76
449.36	3482.72
449.54	3578.68
449.73	3644.21
449.91	3688.68
450.10	3595.06
450.28	3681.66
450.46	3836.14
450.65	3829.12
450.83	3808.05
451.02	3564.64
451.20	3669.96
451.39	3749.54
451.57	3735.50
451.76	3754.22
451.94	3702.73
452.13	3812.73
452.31	3779.97
452.49	3702.73
452.68	3794.01
452.86	3676.98
453.05	3845.50
453.23	3875.93
453.42	3929.76
453.60	3885.29
453.78	3932.10
453.97	3847.84
454.15	3948.48
454.34	3950.82
454.52	3953.16
454.70	3978.91
454.89	3896.99
455.07	3967.21
455.26	4044.45
455.44	4002.32
455.62	4011.68
455.81	4074.87
455.99	4119.34
456.17	4159.13
456.36	4107.64
456.54	4189.56
456.73	4124.02
456.91	4308.93
457.09	4266.80
457.28	4358.08
457.46	4262.12
457.64	4449.36
457.83	4210.62
458.01	4245.73
458.19	4299.56
458.38	4241.05
458.56	4271.48
458.74	4477.44
458.93	4386.16
459.11	4475.10
459.29	4442.34
459.48	4454.04
459.66	4477.44
459.84	4503.19
460.03	4528.94
460.21	4561.70
460.39	4688.09
460.57	4517.23
460.76	4435.32
460.94	4535.96
461.12	4550.00
461.31	4657.67
461.49	4617.88
461.67	4554.68
461.85	4620.22
462.04	4699.80
462.22	4713.84
462.40	4751.29
462.59	4631.92
462.77	4716.18
462.95	4690.43
463.13	4688.09
463.32	4615.54
463.50	4727.88
463.68	4727.88
463.86	4777.03
464.05	4762.99
464.23	4851.93
464.41	4795.76
464.59	4772.35
464.78	4835.55
464.96	4912.78
465.14	4760.65
465.32	4947.89
465.50	4957.25
465.69	4884.70
465.87	4961.94
466.05	5039.17
466.23	4961.94
466.41	5041.51
466.60	5128.11
466.78	5011.09
466.96	5097.69
467.14	5027.47
467.32	5181.95
467.51	5125.77
467.69	4903.42
467.87	5018.11
468.05	5142.16
468.23	4922.15
468.41	5104.71
468.60	5004.07
468.78	5163.22
468.96	5195.99
469.14	5217.05
469.32	5252.16
469.50	5055.56
469.69	5219.39
469.87	5397.28
470.05	5270.89
470.23	5392.59
470.41	5369.19
470.59	5476.85
470.77	5383.23
470.95	5540.05
471.14	5390.25
471.32	5394.93
471.50	5598.56
471.68	5537.71
471.86	5636.01
472.04	5753.04
472.22	5788.14
472.40	5540.05
472.58	5584.52
472.77	5692.18
472.95	5771.76
473.13	6022.20
473.31	5724.95
473.49	5715.59
473.67	5837.30
473.85	5825.59
474.03	5935.60
474.21	6078.37
474.39	6092.41
474.57	6076.03
474.75	6216.46
474.93	6239.87
475.12	6188.38
475.30	6054.97
475.48	6050.28
475.66	6214.12
475.84	6209.44
476.02	6242.21
476.20	6265.61
476.38	6441.15
476.56	6665.85
476.74	6565.20
476.92	6452.86
477.10	6754.79
477.28	6684.57
477.46	6595.63
477.64	6689.25
477.82	6829.68
478.00	6705.63
478.18	6967.77
478.36	6841.39
478.54	6832.02
478.72	6993.52
478.90	7070.76
479.08	7068.42
479.26	7288.43
479.44	7339.92
479.62	7171.40
479.80	7435.88
479.98	7590.36
480.16	7438.22
480.34	7480.35
480.52	7503.76
480.70	7508.44
480.88	7520.14
481.06	7494.40
481.24	7463.97
481.41	7847.82
481.59	7861.86
481.77	7978.89
481.95	7887.61
482.13	8212.94
482.31	7920.37
482.49	8102.93
482.67	8226.98
482.85	8348.69
483.03	8542.96
483.21	8629.56
483.39	8557.00
483.57	8718.50
483.74	8592.11
483.92	8524.23
484.10	8547.64
484.28	8882.33
484.46	8903.40
484.64	9020.42
484.82	9085.96
485.00	9160.86
485.18	9291.93
485.35	9535.34
485.53	9170.22
485.71	9092.98
485.89	9509.60
486.07	9500.23
486.25	9483.85
486.43	9591.52
486.61	9666.41
486.78	9717.90
486.96	9907.49
487.14	10024.51
487.32	10097.07
487.50	10200.05
487.68	10036.22
487.85	10359.21
488.03	10406.02
488.21	10740.72
488.39	10501.98
488.57	10483.26
488.75	10403.68
488.92	10916.26
489.10	10916.26
489.28	11119.89
489.46	11084.78
489.64	10820.30
489.81	11073.07
489.99	11309.47
490.17	11276.70
490.35	11426.50
490.53	11304.79
490.70	11641.82
490.88	11527.14
491.06	11473.31
491.24	11550.54
491.41	11920.35
491.59	11934.39
491.77	11885.24
491.95	12180.15
492.13	12119.29
492.30	11985.88
492.48	12149.72
492.66	12159.08
492.84	12217.60
493.01	12393.14
493.19	12411.86
493.37	12716.13
493.54	12608.47
493.72	12685.70
493.90	12975.93
494.08	12751.24
494.25	12961.89
494.43	13034.44
494.61	13139.77
494.79	13158.49
494.96	13261.48
495.14	13198.28
495.32	13317.65
495.49	13551.70
495.67	13343.39
495.85	13540.00
496.02	13661.71
496.20	13776.39
496.38	13671.07
496.55	13743.63
496.73	14125.13
496.91	14045.55
497.09	14230.46
497.26	13930.87
497.44	14235.14
497.62	14305.35
497.79	14441.11
497.97	14356.85
498.14	14555.79
498.32	14691.54
498.50	14558.13
498.67	14871.76
498.85	14696.22
499.03	14892.83
499.20	14974.75
499.38	14855.38
499.56	15042.62
499.73	15009.86
499.91	15225.18
500.08	15524.77
500.26	15166.67
500.44	15087.09
500.61	15382.00
500.79	15597.33
500.97	15351.57
501.14	15889.90
501.32	15957.77
501.49	15641.80
501.67	15721.38
501.84	15735.42
502.02	15969.48
502.20	15779.89
502.37	16063.10
502.55	15737.76
502.72	15978.84
502.90	16123.95
503.07	15810.32
503.25	16198.85
503.43	16402.47
503.60	16088.84
503.78	16395.45
503.95	16255.02
504.13	16290.13
504.30	16428.22
504.48	16545.25
504.65	16631.85
504.83	16697.38
505.01	17238.05
505.18	16844.84
505.36	16877.60
505.53	16739.51
505.71	17011.01
505.88	17034.42
506.06	16931.44
506.23	16989.95
506.41	17144.42
506.58	17469.76
506.76	17181.87
506.93	17130.38
507.11	17177.19
507.28	17291.88
507.46	17383.16
507.63	17687.43
507.81	17511.89
507.98	17446.35
508.16	17659.34
508.33	17699.13
508.50	17724.88
508.68	18050.21
508.85	18104.04
509.03	17797.43
509.20	18162.56
509.38	18319.37
509.55	18403.63
509.73	18211.71
509.90	18567.47
510.08	18043.19
510.25	18300.65
510.42	18497.25
510.60	18258.52
510.77	19047.28
510.95	18892.80
511.12	18572.15
511.30	18611.94
511.47	18820.25
511.64	18597.90
511.82	18927.91
511.99	19199.41
512.17	18948.98
512.34	18944.30
512.51	18941.96
512.69	18726.63
512.86	18972.38
513.04	19066.00
513.21	19051.96
513.38	19239.20
513.56	19538.79
513.73	19515.39
513.90	19105.79
514.08	19197.07
514.25	19522.41
514.43	19468.58
514.60	19726.04
514.77	20025.62
514.95	19953.07
515.12	19623.05
515.29	19644.12
515.47	19758.80
515.64	19896.89
515.81	19894.55
515.99	20250.32
516.16	20425.86
516.33	20196.48
516.51	20088.82
516.68	19754.12
516.85	20252.66
517.03	20315.85
517.20	20002.22
517.37	20058.39
517.54	20531.18
517.72	20266.70
517.89	20182.44
518.06	20173.08
518.24	20477.35
518.41	20772.25
518.58	20528.84
518.75	20594.37
518.93	20662.25
519.10	20692.68
519.27	20727.78
519.45	20758.21
519.62	20695.02
519.79	21006.31
519.96	20659.91
520.14	21036.74
520.31	20954.82
520.48	21282.49
520.65	20954.82
520.83	21174.83
521.00	21034.39
521.17	21296.53
521.34	21532.93
521.52	21476.76
521.69	21586.76
521.86	21781.03
522.03	21479.10
522.20	21439.31
522.38	21458.03
522.55	21682.72
522.72	21652.30
522.89	21556.33
523.07	22073.59
523.24	21898.05
523.41	21867.63
523.58	21792.73
523.75	22075.93
523.92	21813.79
524.10	21577.40
524.27	21965.93
524.44	22162.53
524.61	22518.29
524.78	22221.05
524.96	22380.20
525.13	22328.71
525.30	22572.13
525.47	22518.29
525.64	22253.81
525.81	22579.15
525.98	22691.49
526.16	22649.36
526.33	22876.40
526.50	22963.00
526.67	22520.63
526.84	22707.88
527.01	22377.86
527.18	22789.80
527.36	22867.03
527.53	22878.74
527.70	22953.63
527.87	23239.18
528.04	23077.68
528.21	23068.32
528.38	23173.64
528.55	23124.49
528.72	23119.81
528.89	23403.02
529.07	23332.80
529.24	23517.70
529.41	23229.82
529.58	23199.39
529.75	23058.96
529.92	23122.15
530.09	23417.06
530.26	23456.85
530.43	23679.20
530.60	23374.93
530.77	23374.93
530.94	23718.99
531.11	23564.51
531.28	23908.57
531.46	23838.36
531.63	23711.97
531.80	23995.17
531.97	24065.39
532.14	23840.70
532.31	23840.70
532.48	24177.73
532.65	24278.38
532.82	23651.11
532.99	24032.62
533.16	23803.25
533.33	24423.49
533.50	24355.61
533.67	23967.09
533.84	24414.13
534.01	23896.87
534.18	24369.66
534.35	24236.25
534.52	24070.07
534.69	24449.24
534.86	24507.75
535.03	24444.56
535.20	24376.68
535.37	24290.08
535.54	24856.49
535.71	24559.24
535.88	24240.93
536.05	24404.77
536.22	24837.76
536.38	25113.95
536.55	24493.71
536.72	24865.85
536.89	24697.33
537.06	24774.57
537.23	24945.43
537.40	24573.28
537.57	25039.05
537.74	24865.85
537.91	25003.94
538.08	25329.28
538.25	25156.08
538.42	25043.73
538.59	25048.41
538.75	25109.27
538.92	25226.29
539.09	25104.59
539.26	24994.58
539.43	25427.58
539.60	25249.70
539.77	25446.30
539.94	25207.57
540.11	25296.51
540.28	25481.41
540.44	25120.97
540.61	25345.66
540.78	25378.43
540.95	25378.43
541.12	25481.41
541.29	25305.87
541.46	25245.02
541.62	25366.73
541.79	25448.64
541.96	25331.62
542.13	25671.00
542.30	25593.76
542.47	25951.86
542.63	26209.32
542.80	25855.90
542.97	26064.21
543.14	26066.55
543.31	26218.68
543.48	25680.36
543.64	26284.22
543.81	26047.82
543.98	26426.99
544.15	26448.05
544.32	25886.32
544.48	26375.50
544.65	26363.79
544.82	26405.92
544.99	26490.18
545.16	26272.51
545.32	26469.12
545.49	26506.57
545.66	26654.02
545.83	26625.93
546.00	26703.17
546.16	26838.92
546.33	26321.66
546.50	26223.36
546.67	26632.96
546.83	26616.57
547.00	26511.25
547.17	26515.93
547.34	26824.88
547.50	26745.30
547.67	27534.06
547.84	26569.76
548.00	26906.80
548.17	27171.28
548.34	27094.04
548.51	27117.45
548.67	27304.69
548.84	27325.75
549.01	27049.57
549.18	27197.02
549.34	26888.07
549.51	27225.11
549.68	27182.98
549.84	27150.21
550.01	26845.94
550.18	27037.87
550.34	27112.77
550.51	27428.74
550.68	27208.73
550.84	27386.61
551.01	27264.90
551.18	27342.14
551.34	27129.15
551.51	27051.91
551.68	27435.76
551.84	27501.29
552.01	27278.94
552.18	27475.55
552.34	27365.54
552.51	27793.86
552.68	27740.03
552.84	27552.79
553.01	28030.26
553.18	27599.60
553.34	27751.73
553.51	27655.77
553.67	27758.75
553.84	28091.11
554.01	27716.62
554.17	27775.14
554.34	28039.62
554.51	27920.25
554.67	27723.65
554.84	27758.75
555.00	27688.54
555.17	28002.17
555.33	27997.49
555.50	27826.63
555.67	27716.62
555.83	28109.83
556.00	27742.37
556.16	28126.22
556.33	27786.84
556.50	27721.30
556.66	28320.48
556.83	27971.74
556.99	28304.10
557.16	28123.88
557.32	28184.73
557.49	28266.65
557.65	28020.89
557.82	28105.15
557.98	27962.38
558.15	28404.74
558.32	28379.00
558.48	28334.53
558.65	28622.41
558.81	28692.63
558.98	28496.02
559.14	28280.69
559.31	28299.42
559.47	28226.86
559.64	28446.87
559.80	28357.93
559.97	28587.30
560.13	28421.13
560.30	28357.93
560.46	28627.09
560.63	28503.04
560.79	28414.10
560.96	28758.16
561.12	28456.23
561.29	28254.95
561.45	28458.57
561.61	28507.72
561.78	28613.05
561.94	28566.24
562.11	29088.18
562.27	28636.45
562.44	28636.45
562.60	28804.97
562.77	28510.07
562.93	28582.62
563.10	28982.85
563.26	28718.37
563.42	28872.85
563.59	28753.48
563.75	28804.97
563.92	29071.79
564.08	28491.34
564.24	28624.75
564.41	28692.63
564.57	28692.63
564.74	29116.26
564.90	28828.38
565.07	29010.94
565.23	28856.46
565.39	28872.85
565.56	29003.92
565.72	28966.47
565.88	28959.45
566.05	29046.05
566.21	28716.03
566.38	29130.31
566.54	29053.07
566.70	29378.40
566.87	29188.82
567.03	29340.96
567.19	29280.10
567.36	29156.05
567.52	29074.13
567.68	28987.53
567.85	29053.07
568.01	29383.09
568.17	28830.72
568.34	29039.03
568.50	28992.22
568.66	29483.73
568.83	29465.00
568.99	29429.90
569.15	28933.70
569.32	29340.96
569.48	29099.88
569.64	29172.44
569.81	29418.19
569.97	29041.37
570.13	28926.68
570.30	29088.18
570.46	29252.02
570.62	28863.49
570.78	29340.96
570.95	29275.42
571.11	29441.60
571.27	29134.99
571.43	28884.55
571.60	29280.10
571.76	29343.30
571.92	29340.96
572.09	29481.39
572.25	29729.48
572.41	29109.24
572.57	29497.77
572.74	29450.96
572.90	29090.52
573.06	29369.04
573.22	29120.95
573.38	29336.27
573.55	28863.49
573.71	29724.80
573.87	29092.86
574.03	29315.21
574.20	29497.77
574.36	29322.23
574.52	29277.76
574.68	29256.70
574.84	29659.27
575.01	29149.03
575.17	29277.76
575.33	29373.72
575.49	29333.93
575.65	29907.37
575.82	29825.45
575.98	29703.74
576.14	29502.45
576.30	29378.40
576.46	28919.66
576.62	29563.31
576.79	29575.01
576.95	29308.19
577.11	29542.24
577.27	29834.81
577.43	29633.52
577.59	29879.28
577.75	29436.92
577.92	29687.36
578.08	29118.60
578.24	29385.43
578.40	29652.25
578.56	29867.58
578.72	29710.76
578.88	29659.27
579.04	29806.72
579.21	29343.30
579.37	29488.41
579.53	29652.25
579.69	29032.00
579.85	29453.30
580.01	29235.63
580.17	29441.60
580.33	29766.93
580.49	29663.95
580.65	29628.84
580.82	29762.25
580.98	29570.33
581.14	29677.99
581.30	30092.27
581.46	29685.01
581.62	29619.48
581.78	29560.97
581.94	29617.14
582.10	29827.79
582.26	29493.09
582.42	29390.11
582.58	30426.96
582.74	29745.87
582.90	29631.18
583.06	30188.23
583.22	29839.49
583.38	29813.74
583.54	29317.55
583.70	29483.73
583.86	29649.91
584.02	29392.45
584.18	29820.77
584.34	29788.00
584.50	29514.16
584.66	29500.11
584.82	29441.60
584.98	29806.72
585.14	29537.56
585.30	29621.82
585.46	29862.90
585.62	29546.92
585.78	30000.99
585.94	29827.79
586.10	29790.34
586.26	29663.95
586.42	29940.13
586.58	29673.31
586.74	29649.91
586.90	29551.60
587.06	29472.03
587.22	29612.46
587.38	29532.88
587.54	29825.45
587.70	30263.13
587.86	29673.31
588.02	29991.62
588.18	29734.17
588.34	29537.56
588.49	29874.60
588.65	29441.60
588.81	29827.79
588.97	29563.31
589.13	29612.46
589.29	29591.39
589.45	29706.08
589.61	29692.04
589.77	29993.97
589.93	30277.17
590.08	30305.26
590.24	30199.93
590.40	30054.82
590.56	29860.55
590.72	29493.09
590.88	29940.13
591.04	29919.07
591.20	30274.83
591.35	29900.34
591.51	30101.63
591.67	30611.87
591.83	30600.16
591.99	29883.96
