SpectraSuite Data File
++++++++++++++++++++++++++++++++++++
Date: Fri Oct 18 13:58:24 GMT-05:00 2013
User: bianchi
Dark Spectrum Present: No
Reference Spectrum Present: No
Number of Sampled Component Spectra: 1
Spectrometers: USB2+H05261
Integration Time (usec): 50000 (USB2+H05261)
Spectra Averaged: 1 (USB2+H05261)
Boxcar Smoothing: 0 (USB2+H05261)
Correct for Electrical Dark: No (USB2+H05261)
Strobe/Lamp Enabled: No (USB2+H05261)
Correct for Detector Non-linearity: No (USB2+H05261)
Correct for Stray Light: No (USB2+H05261)
Number of Pixels in Processed Spectrum: 2048
>>>>>Begin Processed Spectral Data<<<<<
365.73	0.00
365.92	0.00
366.12	0.00
366.32	0.00
366.52	0.00
366.72	0.00
366.91	0.00
367.11	0.00
367.31	0.00
367.51	0.00
367.70	0.00
367.90	0.00
368.10	0.00
368.30	0.00
368.49	0.00
368.69	0.00
368.89	0.00
369.09	0.00
369.28	0.00
369.48	0.00
369.68	0.00
369.87	0.00
370.07	0.00
370.27	0.00
370.47	0.00
370.66	77.24
370.86	7.02
371.06	152.13
371.25	152.13
371.45	63.19
371.65	124.05
371.84	170.86
372.04	133.41
372.24	217.67
372.44	154.48
372.63	229.37
372.83	250.44
373.03	224.69
373.22	191.92
373.42	252.78
373.62	259.80
373.81	189.58
374.01	262.14
374.21	257.46
374.40	252.78
374.60	245.76
374.79	255.12
374.99	304.27
375.19	241.08
375.38	313.63
375.58	231.71
375.78	266.82
375.97	297.25
376.17	308.95
376.37	264.48
376.56	278.52
376.76	262.14
376.95	184.90
377.15	287.89
377.35	290.23
377.54	301.93
377.74	159.16
377.93	315.97
378.13	278.52
378.33	348.74
378.52	224.69
378.72	339.38
378.91	325.33
379.11	259.80
379.31	287.89
379.50	294.91
379.70	308.95
379.89	248.10
380.09	276.18
380.28	308.95
380.48	313.63
380.68	234.05
380.87	311.29
381.07	266.82
381.26	322.99
381.46	308.95
381.65	264.48
381.85	271.50
382.04	280.86
382.24	344.06
382.43	327.68
382.63	348.74
382.83	374.49
383.02	351.08
383.22	374.49
383.41	379.17
383.61	318.31
383.80	332.36
384.00	365.12
384.19	367.46
384.39	330.02
384.58	308.95
384.78	297.25
384.97	374.49
385.17	322.99
385.36	376.83
385.56	395.55
385.75	430.66
385.95	372.15
386.14	414.27
386.34	477.47
386.53	395.55
386.72	397.89
386.92	444.70
387.11	388.53
387.31	428.32
387.50	421.30
387.70	444.70
387.89	411.93
388.09	472.79
388.28	521.94
388.48	386.19
388.67	393.21
388.86	330.02
389.06	458.74
389.25	456.40
389.45	524.28
389.64	447.04
389.84	482.15
390.03	498.53
390.22	512.58
390.42	477.47
390.61	444.70
390.81	533.64
391.00	395.55
391.19	484.49
391.39	496.19
391.58	435.34
391.78	521.94
391.97	498.53
392.16	500.87
392.36	585.13
392.55	479.81
392.75	493.85
392.94	486.83
393.13	526.62
393.33	603.86
393.52	526.62
393.71	498.53
393.91	566.41
394.10	557.05
394.29	500.87
394.49	514.92
394.68	613.22
394.88	564.07
395.07	559.39
395.26	601.52
395.46	615.56
395.65	613.22
395.84	603.86
396.04	622.58
396.23	608.54
396.42	571.09
396.62	631.94
396.81	650.67
397.00	627.26
397.19	636.63
397.39	636.63
397.58	636.63
397.77	664.71
397.97	629.60
398.16	678.76
398.35	683.44
398.55	596.84
398.74	596.84
398.93	727.91
399.12	704.50
399.32	718.54
399.51	648.33
399.70	753.65
399.90	699.82
400.09	774.72
400.28	777.06
400.47	772.38
400.67	772.38
400.86	746.63
401.05	767.70
401.24	706.84
401.44	788.76
401.63	779.40
401.82	884.72
402.01	765.36
402.21	816.85
402.40	725.57
402.59	767.70
402.78	849.61
402.97	795.78
403.17	800.46
403.36	842.59
403.55	905.79
403.74	891.74
403.93	868.34
404.13	849.61
404.32	898.77
404.51	835.57
404.70	926.85
404.89	1004.09
405.09	1013.45
405.28	945.58
405.47	968.98
405.66	929.19
405.85	994.73
406.05	973.66
406.24	1062.60
406.43	1078.99
406.62	1011.11
406.81	994.73
407.00	997.07
407.20	973.66
407.39	1046.22
407.58	1013.45
407.77	987.71
407.96	1081.33
408.15	1060.26
408.34	1053.24
408.54	1109.41
408.73	1172.61
408.92	1069.62
409.11	1139.84
409.30	1086.01
409.49	1102.39
409.68	1069.62
409.87	1158.57
410.07	1144.52
410.26	1181.97
410.45	1160.91
410.64	1207.72
410.83	1200.69
411.02	1188.99
411.21	1217.08
411.40	1315.38
411.59	1284.95
411.78	1235.80
411.98	1249.85
412.17	1200.69
412.36	1322.40
412.55	1214.74
412.74	1252.19
412.93	1252.19
413.12	1203.04
413.31	1275.59
413.50	1355.17
413.69	1413.68
413.88	1423.05
414.07	1446.45
414.26	1369.21
414.45	1413.68
414.64	1451.13
414.83	1479.22
415.02	1474.54
415.22	1490.92
415.41	1575.18
415.60	1460.49
415.79	1577.52
415.98	1495.60
416.17	1647.74
416.36	1497.94
416.55	1558.80
416.74	1650.08
416.93	1624.33
417.12	1661.78
417.31	1631.35
417.50	1654.76
417.69	1696.89
417.88	1636.03
418.07	1739.02
418.26	1643.06
418.45	1720.29
418.64	1640.72
418.83	1706.25
419.02	1776.47
419.21	1823.28
419.39	1856.04
419.58	1785.83
419.77	1741.36
419.96	1849.02
420.15	1849.02
420.34	1839.66
420.53	1842.00
420.72	1834.98
420.91	1792.85
421.10	1963.71
421.29	2069.03
421.48	1750.72
421.67	1893.49
421.86	1923.92
422.05	1956.69
422.24	1867.75
422.43	1930.94
422.61	1942.64
422.80	1987.11
422.99	1973.07
423.18	1907.54
423.37	2043.29
423.56	2008.18
423.75	1923.92
423.94	1996.48
424.13	1891.15
424.32	1989.46
424.50	2076.06
424.69	2026.90
424.88	2143.93
425.07	1982.43
425.26	1942.64
425.45	1912.22
425.64	2005.84
425.83	2003.50
426.01	2094.78
426.20	1912.22
426.39	2073.71
426.58	1970.73
426.77	2118.18
426.96	2099.46
427.15	2129.89
427.33	2160.31
427.52	2022.22
427.71	2097.12
427.90	2097.12
428.09	2101.80
428.28	2104.14
428.46	2197.76
428.65	2221.17
428.84	2253.94
429.03	2230.53
429.22	2155.63
429.40	2193.08
429.59	2195.42
429.78	2029.24
429.97	2174.36
430.16	2136.91
430.34	2246.91
430.53	2282.02
430.72	2321.81
430.91	2342.88
431.10	2172.02
431.28	2197.76
431.47	2382.67
431.66	2258.62
431.85	2270.32
432.03	2363.94
432.22	2340.54
432.41	2387.35
432.60	2368.62
432.79	2401.39
432.97	2406.07
433.16	2429.48
433.35	2431.82
433.54	2478.63
433.72	2579.27
433.91	2495.01
434.10	2370.96
434.28	2537.14
434.47	2567.57
434.66	2518.42
434.85	2602.68
435.03	2518.42
435.22	2651.83
435.41	2677.57
435.59	2609.70
435.78	2579.27
435.97	2623.74
436.16	2605.02
436.34	2607.36
436.53	2726.72
436.72	2745.45
436.90	2588.63
437.09	2717.36
437.28	2700.98
437.46	2733.75
437.65	2757.15
437.84	2656.51
438.02	2820.35
438.21	2747.79
438.40	2719.70
438.58	2754.81
438.77	2965.46
438.96	2871.84
439.14	2796.94
439.33	2766.51
439.52	2942.05
439.70	2981.84
439.89	2960.78
440.08	2963.12
440.26	3049.72
440.45	3007.59
440.63	3009.93
440.82	3054.40
441.01	3159.72
441.19	3075.46
441.38	3143.34
441.57	3124.62
441.75	3115.25
441.94	3201.85
442.12	3096.53
442.31	3246.32
442.50	3393.78
442.68	3325.90
442.87	3370.37
443.05	3176.11
443.24	3363.35
443.43	3410.16
443.61	3318.88
443.80	3478.04
443.98	3323.56
444.17	3187.81
444.35	3307.18
444.54	3431.23
444.73	3353.99
444.91	3260.37
445.10	3365.69
445.28	3346.97
445.47	3241.64
445.65	3435.91
445.84	3529.53
446.02	3487.40
446.21	3517.83
446.39	3382.07
446.58	3578.68
446.77	3424.20
446.95	3328.24
447.14	3440.59
447.32	3363.35
447.51	3440.59
447.69	3463.99
447.88	3534.21
448.06	3475.70
448.25	3592.72
448.43	3562.30
448.62	3478.04
448.80	3393.78
448.99	3576.34
449.17	3611.45
449.36	3522.51
449.54	3676.98
449.73	3726.13
449.91	3639.53
450.10	3660.60
450.28	3702.73
450.46	3646.55
450.65	3744.86
450.83	3786.99
451.02	3569.32
451.20	3918.06
451.39	3676.98
451.57	3805.71
451.76	3758.90
451.94	3920.40
452.13	3894.65
452.31	3950.82
452.49	3707.41
452.68	3882.95
452.86	3723.79
453.05	3880.61
453.23	3824.44
453.42	3782.31
453.60	3904.01
453.78	3964.87
453.97	3726.13
454.15	3936.78
454.34	3758.90
454.52	3929.76
454.70	4058.49
454.89	3999.98
455.07	3960.19
455.26	4039.76
455.44	4173.18
455.62	4149.77
455.81	4117.00
455.99	4166.15
456.17	3992.95
456.36	4182.54
456.54	4117.00
456.73	4196.58
456.91	4184.88
457.09	4187.22
457.28	4416.59
457.46	4124.02
457.64	4229.35
457.83	4322.97
458.01	4227.01
458.19	4367.44
458.38	4266.80
458.56	4386.16
458.74	4468.08
458.93	4465.74
459.11	4379.14
459.29	4397.87
459.48	4554.68
459.66	4395.53
459.84	4486.81
460.03	4542.98
460.21	4615.54
460.39	4564.04
460.57	4603.83
460.76	4449.36
460.94	4477.44
461.12	4458.72
461.31	4594.47
461.49	4587.45
461.67	4449.36
461.85	4891.72
462.04	4765.33
462.22	4746.61
462.40	4732.56
462.59	4596.81
462.77	4746.61
462.95	4748.95
463.13	4777.03
463.32	4784.06
463.50	4863.63
463.68	4786.40
463.86	4786.40
464.05	4732.56
464.23	4770.01
464.41	4891.72
464.59	4952.57
464.78	4837.89
464.96	4931.51
465.14	4732.56
465.32	4957.25
465.50	4978.32
465.69	4983.00
465.87	4973.64
466.05	4898.74
466.23	4884.70
466.41	5132.79
466.60	5219.39
466.78	5104.71
466.96	5043.85
467.14	5123.43
467.32	5022.79
467.51	5163.22
467.69	4975.98
467.87	5020.45
468.05	5252.16
468.23	5097.69
468.41	5071.94
468.60	5186.63
468.78	5238.12
468.96	5067.26
469.14	5123.43
469.32	5277.91
469.50	5083.64
469.69	5256.84
469.87	5329.40
470.05	5324.72
470.23	5430.04
470.41	5336.42
470.59	5357.49
470.77	5310.68
470.95	5518.98
471.14	5509.62
471.32	5390.25
471.50	5495.58
471.68	5514.30
471.86	5626.65
472.04	5729.63
472.22	5734.31
472.40	5467.49
472.58	5636.01
472.77	5750.70
472.95	5650.05
473.13	5818.57
473.31	5734.31
473.49	5750.70
473.67	5790.49
473.85	5891.13
474.03	5942.62
474.21	5944.96
474.39	5886.45
474.57	5846.66
474.75	6052.63
474.93	6298.38
475.12	5975.39
475.30	6307.74
475.48	6155.61
475.66	6183.70
475.84	6228.17
476.02	6328.81
476.20	6174.33
476.38	6424.77
476.56	6406.05
476.74	6469.24
476.92	6387.32
477.10	6511.37
477.28	6525.41
477.46	6565.20
477.64	6759.47
477.82	6740.74
478.00	6789.89
478.18	6726.70
478.36	6841.39
478.54	6897.56
478.72	6939.69
478.90	7087.14
479.08	7218.21
479.26	7070.76
479.44	7365.67
479.62	7061.40
479.80	7302.47
479.98	7501.42
480.16	7658.23
480.34	7428.86
480.52	7513.12
480.70	7478.01
480.88	7524.82
481.06	7583.34
481.24	7616.10
481.41	7793.98
481.59	7899.31
481.77	7892.29
481.95	7705.04
482.13	8032.72
482.31	7992.93
482.49	8280.82
482.67	8201.24
482.85	8292.52
483.03	8390.82
483.21	8463.38
483.39	8491.46
483.57	8512.53
483.74	8468.06
483.92	8699.77
484.10	8484.44
484.28	8826.16
484.46	8744.24
484.64	9076.60
484.82	8908.08
485.00	8901.06
485.18	9497.89
485.35	9341.08
485.53	9259.16
485.71	9448.74
485.89	9385.55
486.07	9343.42
486.25	9572.79
486.43	9570.45
486.61	9755.35
486.78	9724.93
486.96	9635.99
487.14	9844.29
487.32	9923.87
487.50	10071.33
487.68	10122.82
487.85	10050.26
488.03	10466.88
488.21	10377.94
488.39	10415.38
488.57	10602.63
488.75	10485.60
488.92	10707.95
489.10	10874.13
489.28	10703.27
489.46	10808.59
489.64	10991.16
489.81	11171.38
489.99	11098.82
490.17	11365.64
490.35	11494.37
490.53	11494.37
490.70	11662.89
490.88	11583.31
491.06	11653.53
491.24	11620.76
491.41	11590.33
491.59	11854.81
491.77	11896.94
491.95	12002.27
492.13	12044.40
492.30	12219.94
492.48	12259.73
492.66	12222.28
492.84	12184.83
493.01	12379.09
493.19	12315.90
493.37	12615.49
493.54	12641.23
493.72	12463.35
493.90	12748.90
494.08	13001.68
494.25	12961.89
494.43	13219.35
494.61	13338.71
494.79	13303.60
494.96	13111.68
495.14	13284.88
495.32	13301.26
495.49	13474.46
495.67	13362.12
495.85	13472.12
496.02	13762.35
496.20	13638.30
496.38	13788.10
496.55	13488.51
496.73	14057.26
496.91	13989.38
497.09	13987.04
497.26	14361.53
497.44	14108.75
497.62	14417.70
497.79	14466.85
497.97	14513.66
498.14	14420.04
498.32	14700.90
498.50	14654.09
498.67	14796.87
498.85	14609.62
499.03	14778.14
499.20	14731.33
499.38	14939.64
499.56	14974.75
499.73	14984.11
499.91	15290.72
500.08	15084.75
500.26	15133.90
500.44	15332.85
500.61	15330.51
500.79	15187.74
500.97	15531.80
501.14	15515.41
501.32	15609.03
501.49	15782.23
501.67	15854.79
501.84	15747.12
502.02	15786.91
502.20	15894.58
502.37	16060.76
502.55	15714.36
502.72	16184.80
502.90	15917.98
503.07	15957.77
503.25	16004.58
503.43	16278.43
503.60	16538.23
503.78	16325.24
503.95	16140.33
504.13	16439.92
504.30	16372.05
504.48	16510.14
504.65	16629.51
504.83	16985.27
505.01	16727.81
505.18	16746.53
505.36	16980.59
505.53	16716.11
505.71	16889.31
505.88	16842.50
506.06	16758.24
506.23	17099.95
506.41	17085.91
506.58	17139.74
506.76	17177.19
506.93	17352.73
507.11	17273.15
507.28	17589.13
507.46	17387.84
507.63	17249.75
507.81	17575.08
507.98	17488.48
508.16	17350.39
508.33	17729.56
508.50	17591.47
508.68	17593.81
508.85	17937.87
509.03	17958.93
509.20	18045.53
509.38	17933.18
509.55	18185.96
509.73	18059.57
509.90	18200.01
510.08	18125.11
510.25	18286.61
510.42	18319.37
510.60	18286.61
510.77	18310.01
510.95	18661.09
511.12	18558.11
511.30	18665.77
511.47	18363.84
511.64	18803.86
511.82	19154.94
511.99	18827.27
512.17	18845.99
512.34	18654.07
512.51	19033.24
512.69	19225.16
512.86	19037.92
513.04	18867.06
513.21	18972.38
513.38	19187.71
513.56	19384.32
513.73	19398.36
513.90	19152.60
514.08	19122.18
514.25	19449.85
514.43	19410.06
514.60	19513.05
514.77	19527.09
514.95	19899.23
515.12	19531.77
515.29	19772.85
515.47	19988.18
515.64	19943.70
515.81	19618.37
515.99	19899.23
516.16	20084.14
516.33	20006.90
516.51	20020.94
516.68	19985.83
516.85	20067.75
517.03	19953.07
517.20	20297.13
517.37	20678.63
517.54	20510.11
517.72	20255.00
517.89	20400.11
518.06	20563.95
518.24	20306.49
518.41	20496.07
518.58	20175.42
518.75	20449.26
518.93	20421.17
519.10	20697.36
519.27	21128.02
519.45	20526.50
519.62	20807.36
519.79	20996.95
519.96	20767.57
520.14	21137.38
520.31	21205.25
520.48	21209.93
520.65	21113.97
520.83	21083.55
521.00	21399.52
521.17	21135.04
521.34	21359.73
521.52	21434.63
521.69	21277.81
521.86	21764.64
522.03	21406.54
522.20	21518.89
522.38	21666.34
522.55	21439.31
522.72	21624.21
522.89	21666.34
523.07	21647.61
523.24	21680.38
523.41	21916.78
523.58	21785.71
523.75	21996.35
523.92	22087.64
524.10	21788.05
524.27	22050.19
524.44	22043.17
524.61	22511.27
524.78	22485.53
524.96	22515.95
525.13	22380.20
525.30	22099.34
525.47	22106.36
525.64	22317.01
525.81	22373.18
525.98	22548.72
526.16	22239.77
526.33	22618.94
526.50	22766.39
526.67	22588.51
526.84	22679.79
527.01	22740.64
527.18	22670.43
527.36	22569.79
527.53	23009.81
527.70	22986.40
527.87	22972.36
528.04	22848.31
528.21	23070.66
528.38	22904.48
528.55	22995.76
528.72	22665.75
528.89	23328.12
529.07	23164.28
529.24	23171.30
529.41	23365.57
529.58	23215.77
529.75	23218.11
529.92	23267.27
530.09	23328.12
530.26	23278.97
530.43	23494.30
530.60	23250.88
530.77	23126.83
530.94	23625.37
531.11	23204.07
531.28	23601.96
531.46	23740.05
531.63	23300.03
531.80	23527.06
531.97	24144.97
532.14	23838.36
532.31	23793.89
532.48	23868.78
532.65	24116.88
532.82	23770.48
532.99	23969.43
533.16	23583.24
533.33	24290.08
533.50	24161.35
533.67	24208.16
533.84	23901.55
534.01	24144.97
534.18	24170.71
534.35	24334.55
534.52	24573.28
534.69	24620.10
534.86	24631.80
535.03	24091.13
535.20	24367.32
535.37	24493.71
535.54	24198.80
535.71	24510.09
535.88	24584.99
536.05	24266.67
536.22	24964.15
536.38	24950.11
536.55	24666.91
536.72	24432.85
536.89	24575.62
537.06	24915.00
537.23	24524.13
537.40	24816.70
537.57	24624.78
537.74	25060.12
537.91	24905.64
538.08	25216.93
538.25	24751.17
538.42	24669.25
538.59	25090.54
538.75	24669.25
538.92	24987.56
539.09	25022.67
539.26	24994.58
539.43	25078.84
539.60	25207.57
539.77	25242.68
539.94	25422.90
540.11	25242.68
540.28	25310.55
540.44	25223.95
540.61	25216.93
540.78	25242.68
540.95	25458.01
541.12	25130.33
541.29	25406.52
541.46	25406.52
541.62	25296.51
541.79	25137.35
541.96	25263.74
542.13	25434.60
542.30	25450.99
542.47	25649.93
542.63	25876.96
542.80	25837.17
542.97	25785.68
543.14	26082.93
543.31	26089.95
543.48	25895.69
543.64	26111.02
543.81	26293.58
543.98	25968.24
544.15	26625.93
544.32	26029.10
544.48	26412.95
544.65	26368.48
544.82	26134.42
544.99	26080.59
545.16	25986.97
545.32	26417.63
545.49	26532.31
545.66	26616.57
545.83	26370.82
546.00	26796.79
546.16	26696.15
546.33	26518.27
546.50	26214.00
546.67	26457.42
546.83	26216.34
547.00	26511.25
547.17	26876.37
547.34	26352.09
547.50	26497.20
547.67	26923.18
547.84	26789.77
548.00	26366.13
548.17	26979.36
548.34	27119.79
548.51	26639.98
548.67	27136.17
548.84	27014.46
549.01	26977.01
549.18	27023.83
549.34	26679.77
549.51	26778.07
549.68	26703.17
549.84	26953.61
550.01	27084.68
550.18	26941.91
550.34	27028.51
550.51	27180.64
550.68	27157.24
550.84	27126.81
551.01	27192.34
551.18	26969.99
551.34	26986.38
551.51	27103.40
551.68	26869.35
551.84	27225.11
552.01	27084.68
552.18	27470.87
552.34	27089.36
552.51	27517.68
552.68	27075.32
552.84	27379.59
553.01	27718.96
553.18	27571.51
553.34	27374.91
553.51	27541.08
553.67	27349.16
553.84	27660.45
554.01	27648.75
554.17	27435.76
554.34	27953.02
554.51	27246.18
554.67	27513.00
554.84	27690.88
555.00	27796.20
555.17	27765.78
555.33	27988.13
555.50	27620.66
555.67	27601.94
555.83	27468.53
556.00	27782.16
556.16	28224.52
556.33	28163.67
556.50	27978.76
556.66	27946.00
556.83	28350.91
556.99	28140.26
557.16	28486.66
557.32	28390.70
557.49	28149.62
557.65	27960.04
557.82	28245.58
557.98	28271.33
558.15	27999.83
558.32	27962.38
558.48	28311.12
558.65	28027.92
558.81	28168.35
558.98	28379.00
559.14	28222.18
559.31	28107.49
559.47	28465.60
559.64	28311.12
559.80	28505.38
559.97	28489.00
560.13	28278.35
560.30	28278.35
560.46	28608.37
560.63	28273.67
560.79	28535.81
560.96	28489.00
561.12	28423.47
561.29	28332.18
561.45	28512.41
561.61	28247.93
561.78	28526.45
561.94	28474.96
562.11	28503.04
562.27	28896.25
562.44	28629.43
562.60	28556.88
562.77	28395.38
562.93	28390.70
563.10	28575.60
563.26	28758.16
563.42	29027.32
563.59	29003.92
563.75	28737.10
563.92	28554.54
564.08	28283.03
564.24	28479.64
564.41	28395.38
564.57	28732.42
564.74	28638.80
564.90	28987.53
565.07	28753.48
565.23	28772.21
565.39	28725.39
565.56	28774.55
565.72	28652.84
565.88	29074.13
566.05	28720.71
566.21	28826.04
566.38	28886.89
566.54	29008.60
566.70	29153.71
566.87	29160.73
567.03	29200.52
567.19	29202.86
567.36	28875.19
567.52	28680.92
567.68	29039.03
567.85	28814.34
568.01	29071.79
568.17	28877.53
568.34	29453.30
568.50	28851.78
568.66	29270.74
568.83	29064.77
568.99	29036.69
569.15	29170.10
569.32	28786.25
569.48	29064.77
569.64	29055.41
569.81	29259.04
569.97	29268.40
570.13	29050.73
570.30	29207.55
570.46	29046.05
570.62	29207.55
570.78	29275.42
570.95	29254.36
571.11	28957.11
571.27	28936.04
571.43	29312.87
571.60	29102.22
571.76	29165.42
571.92	29343.30
572.09	29062.43
572.25	29125.63
572.41	29764.59
572.57	29226.27
572.74	29074.13
572.90	29242.65
573.06	29181.80
573.22	29259.04
573.38	29184.14
573.55	29146.69
573.71	29233.29
573.87	29364.36
574.03	29247.33
574.20	29465.00
574.36	29333.93
574.52	29099.88
574.68	28779.23
574.84	29137.33
575.01	28809.65
575.17	29216.91
575.33	29191.16
575.49	29474.37
575.65	29345.64
575.82	29521.18
575.98	29516.50
576.14	29525.86
576.30	29151.37
576.46	29202.86
576.62	29277.76
576.79	29542.24
576.95	29362.02
577.11	29504.79
577.27	29614.80
577.43	29472.03
577.59	29687.36
577.75	29710.76
577.92	29439.26
578.08	29266.06
578.24	28978.17
578.40	29605.44
578.56	29364.36
578.72	29050.73
578.88	29692.04
579.04	29694.38
579.21	29500.11
579.37	29692.04
579.53	29308.19
579.69	29207.55
579.85	29298.83
580.01	29280.10
580.17	29659.27
580.33	29294.14
580.49	29378.40
580.65	29617.14
580.82	29153.71
580.98	29975.24
581.14	29151.37
581.30	29125.63
581.46	29460.32
581.62	29343.30
581.78	29500.11
581.94	29383.09
582.10	29434.58
582.26	29380.74
582.42	29315.21
582.58	29879.28
582.74	29546.92
582.90	29598.41
583.06	29900.34
583.22	29406.49
583.38	29415.85
583.54	29883.96
583.70	29415.85
583.86	29469.69
584.02	29453.30
584.18	29612.46
584.34	29935.45
584.50	29507.13
584.66	29481.39
584.82	29195.84
584.98	29535.22
585.14	29612.46
585.30	29394.79
585.46	29074.13
585.62	29270.74
585.78	29600.76
585.94	29539.90
586.10	29694.38
586.26	29720.12
586.42	29722.46
586.58	29813.74
586.74	29542.24
586.90	29261.38
587.06	29546.92
587.22	29418.19
587.38	29682.67
587.54	29621.82
587.70	29677.99
587.86	29879.28
588.02	29816.08
588.18	29984.60
588.34	29612.46
588.49	29680.33
588.65	29862.90
588.81	29359.68
588.97	29802.04
589.13	30108.65
589.29	29610.12
589.45	29291.80
589.61	29663.95
589.77	30361.43
589.93	30361.43
590.08	30148.44
590.24	29598.41
590.40	30141.42
590.56	30064.18
590.72	29677.99
590.88	29668.63
591.04	29851.19
591.20	29958.86
591.35	29832.47
591.51	30487.82
591.67	30249.08
591.83	30490.16
591.99	29876.94
