SpectraSuite Data File
++++++++++++++++++++++++++++++++++++
Date: Fri Oct 18 13:58:07 GMT-05:00 2013
User: bianchi
Dark Spectrum Present: No
Reference Spectrum Present: No
Number of Sampled Component Spectra: 1
Spectrometers: USB2+H05261
Integration Time (usec): 50000 (USB2+H05261)
Spectra Averaged: 1 (USB2+H05261)
Boxcar Smoothing: 0 (USB2+H05261)
Correct for Electrical Dark: No (USB2+H05261)
Strobe/Lamp Enabled: No (USB2+H05261)
Correct for Detector Non-linearity: No (USB2+H05261)
Correct for Stray Light: No (USB2+H05261)
Number of Pixels in Processed Spectrum: 2048
>>>>>Begin Processed Spectral Data<<<<<
365.73	0.00
365.92	0.00
366.12	0.00
366.32	0.00
366.52	0.00
366.72	0.00
366.91	0.00
367.11	0.00
367.31	0.00
367.51	0.00
367.70	0.00
367.90	0.00
368.10	0.00
368.30	0.00
368.49	0.00
368.69	0.00
368.89	0.00
369.09	0.00
369.28	0.00
369.48	0.00
369.68	0.00
369.87	0.00
370.07	0.00
370.27	0.00
370.47	0.00
370.66	121.71
370.86	81.92
371.06	177.88
371.25	227.03
371.45	140.43
371.65	58.51
371.84	100.64
372.04	177.88
372.24	210.65
372.44	196.60
372.63	159.16
372.83	231.71
373.03	220.01
373.22	257.46
373.42	191.92
373.62	217.67
373.81	280.86
374.01	262.14
374.21	191.92
374.40	269.16
374.60	290.23
374.79	262.14
374.99	203.63
375.19	241.08
375.38	264.48
375.58	252.78
375.78	229.37
375.97	212.99
376.17	353.42
376.37	311.29
376.56	322.99
376.76	269.16
376.95	257.46
377.15	264.48
377.35	245.76
377.54	306.61
377.74	278.52
377.93	138.09
378.13	266.82
378.33	348.74
378.52	344.06
378.72	280.86
378.91	297.25
379.11	308.95
379.31	278.52
379.50	304.27
379.70	287.89
379.89	259.80
380.09	262.14
380.28	327.68
380.48	372.15
380.68	327.68
380.87	220.01
381.07	330.02
381.26	229.37
381.46	400.23
381.65	315.97
381.85	390.87
382.04	369.80
382.24	290.23
382.43	381.51
382.63	348.74
382.83	360.44
383.02	341.72
383.22	330.02
383.41	355.76
383.61	353.42
383.80	308.95
384.00	437.68
384.19	381.51
384.39	390.87
384.58	367.46
384.78	334.70
384.97	376.83
385.17	362.78
385.36	344.06
385.56	454.06
385.75	421.30
385.95	395.55
386.14	440.02
386.34	374.49
386.53	318.31
386.72	360.44
386.92	400.23
387.11	411.93
387.31	428.32
387.50	421.30
387.70	444.70
387.89	411.93
388.09	428.32
388.28	411.93
388.48	411.93
388.67	482.15
388.86	465.77
389.06	407.25
389.25	524.28
389.45	409.59
389.64	440.02
389.84	428.32
390.03	465.77
390.22	505.56
390.42	521.94
390.61	458.74
390.81	437.68
391.00	447.04
391.19	442.36
391.39	517.26
391.58	472.79
391.78	477.47
391.97	479.81
392.16	503.22
392.36	514.92
392.55	571.09
392.75	599.18
392.94	613.22
393.13	458.74
393.33	545.34
393.52	547.69
393.71	606.20
393.91	550.03
394.10	578.11
394.29	578.11
394.49	486.83
394.68	601.52
394.88	603.86
395.07	699.82
395.26	557.05
395.46	617.90
395.65	578.11
395.84	653.01
396.04	631.94
396.23	610.88
396.42	615.56
396.62	723.23
396.81	561.73
397.00	660.03
397.19	648.33
397.39	589.82
397.58	730.25
397.77	613.22
397.97	657.69
398.16	674.07
398.35	699.82
398.55	704.50
398.74	650.67
398.93	718.54
399.12	631.94
399.32	746.63
399.51	690.46
399.70	807.48
399.90	786.42
400.09	784.08
400.28	800.46
400.47	795.78
400.67	795.78
400.86	805.14
401.05	786.42
401.24	716.20
401.44	837.91
401.63	800.46
401.82	847.27
402.01	798.12
402.21	798.12
402.40	828.55
402.59	781.74
402.78	873.02
402.97	924.51
403.17	866.00
403.36	849.61
403.55	894.08
403.74	894.08
403.93	999.41
404.13	936.21
404.32	882.38
404.51	954.94
404.70	861.32
404.89	1039.20
405.09	908.13
405.28	1008.77
405.47	866.00
405.66	903.45
405.85	1011.11
406.05	999.41
406.24	856.64
406.43	1022.81
406.62	1057.92
406.81	1081.33
407.00	1004.09
407.20	1060.26
407.39	1043.88
407.58	1097.71
407.77	1025.15
407.96	1004.09
408.15	1121.12
408.34	1086.01
408.54	1069.62
408.73	1078.99
408.92	1050.90
409.11	1193.67
409.30	1078.99
409.49	1158.57
409.68	1081.33
409.87	1055.58
410.07	1137.50
410.26	1158.57
410.45	1116.44
410.64	1172.61
410.83	1212.40
411.02	1196.01
411.21	1355.17
411.40	1299.00
411.59	1193.67
411.78	1254.53
411.98	1259.21
412.17	1219.42
412.36	1228.78
412.55	1306.02
412.74	1362.19
412.93	1387.94
413.12	1479.22
413.31	1404.32
413.50	1362.19
413.69	1411.34
413.88	1437.09
414.07	1448.79
414.26	1394.96
414.45	1535.39
414.64	1458.15
414.83	1593.90
415.02	1654.76
415.22	1509.65
415.41	1598.59
415.60	1533.05
415.79	1610.29
415.98	1542.41
416.17	1624.33
416.36	1565.82
416.55	1535.39
416.74	1736.68
416.93	1682.85
417.12	1703.91
417.31	1603.27
417.50	1694.55
417.69	1762.42
417.88	1748.38
418.07	1750.72
418.26	1701.57
418.45	1863.07
418.64	1933.28
418.83	1795.19
419.02	1830.30
419.21	1799.87
419.39	1783.49
419.58	1687.53
419.77	1696.89
419.96	1919.24
420.15	1874.77
420.34	1839.66
420.53	1898.17
420.72	1895.83
420.91	1870.09
421.10	1900.52
421.29	1984.77
421.48	1858.39
421.67	2019.88
421.86	1949.67
422.05	1928.60
422.24	1921.58
422.43	1865.41
422.61	1961.37
422.80	2062.01
422.99	2015.20
423.18	2015.20
423.37	2078.40
423.56	1935.62
423.75	2069.03
423.94	1865.41
424.13	1881.79
424.32	1863.07
424.50	2012.86
424.69	1980.09
424.88	2087.76
425.07	2038.61
425.26	2062.01
425.45	2080.74
425.64	2017.54
425.83	2052.65
426.01	2062.01
426.20	2092.44
426.39	2122.87
426.58	2008.18
426.77	2022.22
426.96	2118.18
427.15	2057.33
427.33	2183.72
427.52	2113.50
427.71	2186.06
427.90	2193.08
428.09	2136.91
428.28	2188.40
428.46	2232.87
428.65	2174.36
428.84	2277.34
429.03	2305.43
429.22	2246.91
429.40	2377.98
429.59	2200.10
429.78	2139.25
429.97	2176.70
430.16	2244.57
430.34	2291.38
430.53	2230.53
430.72	2380.32
430.91	2377.98
431.10	2312.45
431.28	2340.54
431.47	2396.71
431.66	2429.48
431.85	2253.94
432.03	2483.31
432.22	2546.50
432.41	2487.99
432.60	2408.41
432.79	2525.44
432.97	2417.77
433.16	2476.29
433.35	2385.01
433.54	2525.44
433.72	2586.29
433.91	2478.63
434.10	2574.59
434.28	2553.52
434.47	2689.28
434.66	2574.59
434.85	2656.51
435.03	2670.55
435.22	2574.59
435.41	2633.10
435.59	2768.85
435.78	2651.83
435.97	2644.81
436.16	2619.06
436.34	2796.94
436.53	2719.70
436.72	2862.48
436.90	2675.23
437.09	2843.75
437.28	2818.00
437.46	2719.70
437.65	2733.75
437.84	2855.45
438.02	2724.38
438.21	2869.50
438.40	2616.72
438.58	2841.41
438.77	2937.37
438.96	2829.71
439.14	2916.31
439.33	2937.37
439.52	2986.52
439.70	3009.93
439.89	3038.02
440.08	2998.23
440.26	3082.49
440.45	2970.14
440.63	3066.10
440.82	3089.51
441.01	3166.74
441.19	3129.30
441.38	3225.26
441.57	3267.39
441.75	3236.96
441.94	3332.92
442.12	3279.09
442.31	3363.35
442.50	3356.33
442.68	3396.12
442.87	3358.67
443.05	3482.72
443.24	3428.88
443.43	3361.01
443.61	3325.90
443.80	3499.10
443.98	3361.01
444.17	3199.51
444.35	3545.91
444.54	3358.67
444.73	3414.84
444.91	3353.99
445.10	3496.76
445.28	3466.33
445.47	3386.76
445.65	3468.67
445.84	3571.66
446.02	3529.53
446.21	3513.14
446.39	3393.78
446.58	3447.61
446.77	3583.36
446.95	3515.48
447.14	3524.85
447.32	3475.70
447.51	3508.46
447.69	3576.34
447.88	3363.35
448.06	3454.63
448.25	3590.38
448.43	3616.13
448.62	3440.59
448.80	3611.45
448.99	3538.89
449.17	3499.10
449.36	3665.28
449.54	3772.94
449.73	3770.60
449.91	3831.46
450.10	3672.30
450.28	3749.54
450.46	3749.54
450.65	3714.43
450.83	3712.09
451.02	3669.96
451.20	3761.24
451.39	3669.96
451.57	3709.75
451.76	3770.60
451.94	3805.71
452.13	3784.65
452.31	3899.33
452.49	3925.08
452.68	3962.53
452.86	3896.99
453.05	3934.44
453.23	3875.93
453.42	3995.29
453.60	3878.27
453.78	4121.68
453.97	3896.99
454.15	4014.02
454.34	3908.69
454.52	4044.45
454.70	3939.12
454.89	3920.40
455.07	4004.66
455.26	3983.59
455.44	4154.45
455.62	3904.01
455.81	4124.02
455.99	4194.24
456.17	4259.78
456.36	4149.77
456.54	4119.34
456.73	4337.01
456.91	4313.61
457.09	4264.46
457.28	4491.49
457.46	4222.33
457.64	4414.25
457.83	4477.44
458.01	4278.50
458.19	4472.76
458.38	4339.35
458.56	4393.19
458.74	4514.89
458.93	4461.06
459.11	4524.26
459.29	4374.46
459.48	4425.95
459.66	4376.80
459.84	4613.20
460.03	4662.35
460.21	4456.38
460.39	4491.49
460.57	4566.39
460.76	4566.39
460.94	4615.54
461.12	4723.20
461.31	4842.57
461.49	4624.90
461.67	4610.86
461.85	4814.48
462.04	4812.14
462.22	4908.10
462.40	4858.95
462.59	4695.11
462.77	4788.74
462.95	4814.48
463.13	4760.65
463.32	4990.02
463.50	4940.87
463.68	4929.17
463.86	4819.16
464.05	4873.00
464.23	4809.80
464.41	4950.23
464.59	4903.42
464.78	5069.60
464.96	4952.57
465.14	5004.07
465.32	5055.56
465.50	4936.19
465.69	5247.48
465.87	5055.56
466.05	5181.95
466.23	5008.75
466.41	5156.20
466.60	5137.48
466.78	5043.85
466.96	5109.39
467.14	5064.92
467.32	5205.35
467.51	5273.23
467.69	5015.77
467.87	5210.03
468.05	5184.29
468.23	5198.33
468.41	5191.31
468.60	5177.26
468.78	5289.61
468.96	5296.63
469.14	5273.23
469.32	5437.06
469.50	5273.23
469.69	5329.40
469.87	5500.26
470.05	5394.93
470.23	5469.83
470.41	5280.25
470.59	5643.03
470.77	5343.44
470.95	5357.49
471.14	5523.66
471.32	5462.81
471.50	5633.67
471.68	5734.31
471.86	5561.11
472.04	5645.37
472.22	5977.73
472.40	5685.16
472.58	5797.51
472.77	5710.91
472.95	5818.57
473.13	5933.26
473.31	5834.96
473.49	5853.68
473.67	5994.11
473.85	5825.59
474.03	5881.77
474.21	5961.34
474.39	6153.27
474.57	5984.75
474.75	6169.65
474.93	6235.19
475.12	6202.42
475.30	6197.74
475.48	6340.51
475.66	6333.49
475.84	6267.95
476.02	6445.84
476.20	6459.88
476.38	6431.79
476.56	6569.88
476.74	6565.20
476.92	6410.73
477.10	6480.94
477.28	6637.76
477.46	6815.64
477.64	6766.49
477.82	6792.23
478.00	7101.19
478.18	6839.05
478.36	7119.91
478.54	7042.67
478.72	7070.76
478.90	7068.42
479.08	7234.60
479.26	7166.72
479.44	7555.25
479.62	7372.69
479.80	7445.24
479.98	7358.64
480.16	7599.72
480.34	7454.61
480.52	7662.91
480.70	7763.56
480.88	7644.19
481.06	7749.51
481.24	7705.04
481.41	7803.35
481.59	8112.30
481.77	8086.55
481.95	7943.78
482.13	8063.15
482.31	8112.30
482.49	8264.43
482.67	8294.86
482.85	8549.98
483.03	8606.15
483.21	8521.89
483.39	8709.13
483.57	8517.21
483.74	8681.05
483.92	8608.49
484.10	8669.34
484.28	9163.20
484.46	9158.52
484.64	9238.09
484.82	9128.09
485.00	9181.92
485.18	9542.36
485.35	9427.68
485.53	9341.08
485.71	9495.55
485.89	9865.36
486.07	9675.77
486.25	9614.92
486.43	9671.09
486.61	9654.71
486.78	9961.32
486.96	9975.36
487.14	10319.42
487.32	10436.45
487.50	10310.06
487.68	10289.00
487.85	10417.72
488.03	10738.38
488.21	10747.74
488.39	10642.42
488.57	10703.27
488.75	10689.23
488.92	11162.01
489.10	11098.82
489.28	10892.85
489.46	10890.51
489.64	11190.10
489.81	11510.75
489.99	11485.01
490.17	11396.07
490.35	11351.60
490.53	11754.17
490.70	11583.31
490.88	11702.68
491.06	11852.47
491.24	11716.72
491.41	11974.18
491.59	11843.11
491.77	12058.44
491.95	12229.30
492.13	12184.83
492.30	12388.46
492.48	12395.48
492.66	12519.53
492.84	12308.88
493.01	12809.75
493.19	12662.30
493.37	12844.86
493.54	13095.30
493.72	12861.24
493.90	12671.66
494.08	13025.08
494.25	13359.78
494.43	13188.92
494.61	13226.37
494.79	13350.42
494.96	13348.08
495.14	13422.97
495.32	13289.56
495.49	13813.84
495.67	13970.66
495.85	14068.96
496.02	13858.31
496.20	13994.06
496.38	14134.50
496.55	14101.73
496.73	14373.23
496.91	14417.70
497.09	14253.86
497.26	14511.32
497.44	14497.28
497.62	14471.53
497.79	14588.56
497.97	14424.72
498.14	14602.60
498.32	14897.51
498.50	14867.08
498.67	15122.20
498.85	15007.52
499.03	15080.07
499.20	14913.89
499.38	15344.55
499.56	15461.58
499.73	15454.56
499.91	15417.11
500.08	15632.44
500.26	15524.77
500.44	15456.90
500.61	15606.69
500.79	15669.89
500.97	15805.64
501.14	16042.03
501.32	16077.14
501.49	16093.52
501.67	15939.05
501.84	15990.54
502.02	15922.66
502.20	16243.32
502.37	16430.56
502.55	16123.95
502.72	16442.26
502.90	16421.20
503.07	16580.36
503.25	16622.48
503.43	16468.01
503.60	16629.51
503.78	16753.55
503.95	16652.91
504.13	16638.87
504.30	16776.96
504.48	16622.48
504.65	16762.92
504.83	17053.14
505.01	17085.91
505.18	17373.80
505.36	17296.56
505.53	17177.19
505.71	17399.54
505.88	17415.93
506.06	17188.89
506.23	17364.43
506.41	17291.88
506.58	17657.00
506.76	17614.87
506.93	17507.21
507.11	17652.32
507.28	17640.62
507.46	17582.10
507.63	18057.23
507.81	17645.30
507.98	17998.72
508.16	17942.55
508.33	17937.87
508.50	17877.01
508.68	18010.42
508.85	18181.28
509.03	18274.90
509.20	18171.92
509.38	18373.21
509.55	18625.98
509.73	18356.82
509.90	18637.69
510.08	18384.91
510.25	18242.14
510.42	18740.67
510.60	18700.88
510.77	18682.16
510.95	18794.50
511.12	18960.68
511.30	18672.79
511.47	18731.31
511.64	19012.17
511.82	19187.71
511.99	18995.79
512.17	19269.63
512.34	19168.99
512.51	19311.76
512.69	19524.75
512.86	19672.20
513.04	19824.34
513.21	19730.72
513.38	19477.94
513.56	19618.37
513.73	19908.60
513.90	19702.63
514.08	19580.92
514.25	19576.24
514.43	19817.32
514.60	19901.58
514.77	19826.68
514.95	19969.45
515.12	19960.09
515.29	20018.60
515.47	19967.11
515.64	19962.43
515.81	20180.10
515.99	20418.83
516.16	20475.01
516.33	20411.81
516.51	20460.96
516.68	20318.19
516.85	20290.10
517.03	20793.32
517.20	20786.30
517.37	20538.20
517.54	20695.02
517.72	20650.55
517.89	20730.12
518.06	21071.84
518.24	20610.76
518.41	20774.60
518.58	20856.51
518.75	21083.55
518.93	21348.03
519.10	21132.70
519.27	21228.66
519.45	21266.11
519.62	21460.37
519.79	21146.74
519.96	21081.21
520.14	21525.91
520.31	21511.86
520.48	21673.36
520.65	21612.51
520.83	21493.14
521.00	21436.97
521.17	21490.80
521.34	21645.27
521.52	21575.06
521.69	21851.24
521.86	21879.33
522.03	22106.36
522.20	22202.32
522.38	22305.31
522.55	21921.46
522.72	21928.48
522.89	22293.60
523.07	22298.28
523.24	22118.06
523.41	22494.89
523.58	22054.87
523.75	22562.76
523.92	21958.91
524.10	22471.48
524.27	22293.60
524.44	22731.28
524.61	22918.53
524.78	22492.55
524.96	22497.23
525.13	22848.31
525.30	22567.45
525.47	22874.06
525.64	22391.91
525.81	22951.29
525.98	22979.38
526.16	22918.53
526.33	22923.21
526.50	23297.69
526.67	23094.07
526.84	23344.50
527.01	23098.75
527.18	23122.15
527.36	23005.13
527.53	23454.51
527.70	23618.35
527.87	23618.35
528.04	23428.76
528.21	23569.19
528.38	23428.76
528.55	23381.95
528.72	23498.98
528.89	23506.00
529.07	23805.59
529.24	23414.72
529.41	23482.59
529.58	23737.71
529.75	23604.30
529.92	23779.84
530.09	23594.94
530.26	23857.08
530.43	23859.42
530.60	23838.36
530.77	24006.87
530.94	23833.68
531.11	23730.69
531.28	23974.11
531.46	23971.77
531.63	24343.91
531.80	24013.90
531.97	24376.68
532.14	24451.58
532.31	24416.47
532.48	24259.65
532.65	24528.81
532.82	24201.14
532.99	24451.58
533.16	24463.28
533.33	24404.77
533.50	24716.06
533.67	24730.10
533.84	24627.12
534.01	24561.58
534.18	24269.01
534.35	24620.10
534.52	24479.66
534.69	24893.94
534.86	25017.99
535.03	24634.14
535.20	24999.26
535.37	24788.61
535.54	25015.65
535.71	24847.13
535.88	25020.33
536.05	24980.54
536.22	25280.13
536.38	25460.35
536.55	24816.70
536.72	25448.64
536.89	25163.10
537.06	25034.37
537.23	25296.51
537.40	25399.49
537.57	25528.22
537.74	25294.17
537.91	25792.70
538.08	25326.94
538.25	25413.54
538.42	25729.51
538.59	25858.24
538.75	25610.14
538.92	25294.17
539.09	25497.80
539.26	25647.59
539.43	25666.31
539.60	25806.75
539.77	25708.44
539.94	26066.55
540.11	25898.03
540.28	25741.21
540.44	25507.16
540.61	25820.79
540.78	25614.82
540.95	25790.36
541.12	26141.44
541.29	26082.93
541.46	26359.11
541.62	25991.65
541.79	26459.76
541.96	26118.04
542.13	25825.47
542.30	26412.95
542.47	26167.19
542.63	26148.46
542.80	26513.59
542.97	26569.76
543.14	26932.54
543.31	26471.46
543.48	26246.77
543.64	26602.53
543.81	27077.66
543.98	26941.91
544.15	26443.37
544.32	26911.48
544.48	26920.84
544.65	27091.70
544.82	26801.47
544.99	26691.47
545.16	26857.65
545.32	26340.39
545.49	27056.59
545.66	27084.68
545.83	27725.99
546.00	27115.11
546.16	26775.73
546.33	26820.20
546.50	26295.92
546.67	27136.17
546.83	26951.27
547.00	27227.45
547.17	27225.11
547.34	27440.44
547.50	27704.92
547.67	27154.90
547.84	27300.01
548.00	27199.37
548.17	27735.35
548.34	27510.66
548.51	27824.29
548.67	27321.07
548.84	27398.31
549.01	27505.98
549.18	27573.85
549.34	27758.75
549.51	27463.85
549.68	27880.46
549.84	27494.27
550.01	27449.80
550.18	27410.01
550.34	27826.63
550.51	28100.47
550.68	27969.40
550.84	27459.16
551.01	27688.54
551.18	27288.31
551.34	27754.07
551.51	27758.75
551.68	27988.13
551.84	28257.29
552.01	27676.83
552.18	28013.87
552.34	27885.14
552.51	28002.17
552.68	27941.32
552.84	28252.61
553.01	28081.75
553.18	27955.36
553.34	28137.92
553.51	27974.08
553.67	28549.85
553.84	28376.66
554.01	28100.47
554.17	27861.74
554.34	28327.50
554.51	28240.90
554.67	28428.15
554.84	28617.73
555.00	28247.93
555.17	28350.91
555.33	28589.64
555.50	28570.92
555.67	28650.50
555.83	28231.54
556.00	28512.41
556.16	28678.58
556.33	28189.41
556.50	28442.19
556.66	28575.60
556.83	28526.45
556.99	28599.01
557.16	28861.15
557.32	28828.38
557.49	28835.40
557.65	28276.01
557.82	28753.48
557.98	28746.46
558.15	28676.24
558.32	28287.71
558.48	28774.55
558.65	28989.88
558.81	29385.43
558.98	29102.22
559.14	28999.24
559.31	28982.85
559.47	29006.26
559.64	28891.57
559.80	29039.03
559.97	29046.05
560.13	28868.17
560.30	28947.75
560.46	29032.00
560.63	29305.85
560.79	28914.98
560.96	29305.85
561.12	28943.06
561.29	29184.14
561.45	28896.25
561.61	29235.63
561.78	29434.58
561.94	28952.43
562.11	29076.48
562.27	29001.58
562.44	29266.06
562.60	29294.14
562.77	29149.03
562.93	29235.63
563.10	29631.18
563.26	29259.04
563.42	29343.30
563.59	29247.33
563.75	29226.27
563.92	29212.23
564.08	29308.19
564.24	29273.08
564.41	29132.65
564.57	29663.95
564.74	29441.60
564.90	29249.67
565.07	29301.17
565.23	29668.63
565.39	29607.78
565.56	29816.08
565.72	29453.30
565.88	29427.56
566.05	29301.17
566.21	29413.51
566.38	29535.22
566.54	29495.43
566.70	29923.75
566.87	29937.79
567.03	29783.32
567.19	29937.79
567.36	29912.05
567.52	29422.87
567.68	29839.49
567.85	29495.43
568.01	29680.33
568.17	29603.10
568.34	29680.33
568.50	30036.09
568.66	29600.76
568.83	29752.89
568.99	29816.08
569.15	29799.70
569.32	29755.23
569.48	29551.60
569.64	29518.84
569.81	29893.32
569.97	30078.22
570.13	30218.66
570.30	29912.05
570.46	30022.05
570.62	29729.48
570.78	29603.10
570.95	29656.93
571.11	29799.70
571.27	29525.86
571.43	29675.65
571.60	29907.37
571.76	30132.06
571.92	29832.47
572.09	30101.63
572.25	30019.71
572.41	29940.13
572.57	30230.36
572.74	29900.34
572.90	29989.28
573.06	29326.91
573.22	29816.08
573.38	29652.25
573.55	29724.80
573.71	29956.52
573.87	30429.30
574.03	29935.45
574.20	30373.13
574.36	30038.44
574.52	30066.52
574.68	30096.95
574.84	29989.28
575.01	29914.39
575.17	30160.14
575.33	29961.20
575.49	30082.91
575.65	29867.58
575.82	30087.59
575.98	30045.46
576.14	30024.39
576.30	29935.45
576.46	30054.82
576.62	30213.98
576.79	30017.37
576.95	29909.71
577.11	30260.79
577.27	30139.08
577.43	30356.75
577.59	30134.40
577.75	30078.22
577.92	29490.75
578.08	29855.87
578.24	29797.36
578.40	29858.21
578.56	30106.31
578.72	30251.42
578.88	30321.64
579.04	30373.13
579.21	30059.50
579.37	30178.87
579.53	30300.58
579.69	29902.68
579.85	30216.32
580.01	30216.32
580.17	29776.30
580.33	30202.27
580.49	30073.54
580.65	29986.94
580.82	30305.26
580.98	30436.33
581.14	30302.92
581.30	30284.19
581.46	30609.53
581.62	30101.63
581.78	30164.82
581.94	30218.66
582.10	30040.78
582.26	30045.46
582.42	29961.20
582.58	30040.78
582.74	30249.08
582.90	30059.50
583.06	29982.26
583.22	30452.71
583.38	30188.23
583.54	30394.20
583.70	30284.19
583.86	30469.09
584.02	30490.16
584.18	30078.22
584.34	30731.23
584.50	30761.66
584.66	30499.52
584.82	30382.49
584.98	30136.74
585.14	30438.67
585.30	30103.97
585.46	30096.95
585.62	30075.88
585.78	30429.30
585.94	30052.48
586.10	30604.84
586.26	30424.62
586.42	30373.13
586.58	30396.54
586.74	30270.15
586.90	29734.17
587.06	30560.37
587.22	30300.58
587.38	30302.92
587.54	30356.75
587.70	30778.04
587.86	30382.49
588.02	30433.99
588.18	30658.68
588.34	30572.08
588.49	30331.00
588.65	30331.00
588.81	30326.32
588.97	30335.68
589.13	30375.47
589.29	30382.49
589.45	30457.39
589.61	30525.27
589.77	30984.01
589.93	30785.07
590.08	30476.12
590.24	30478.46
590.40	30646.97
590.56	30866.98
590.72	30588.46
590.88	30359.09
591.04	30448.03
591.20	30969.97
591.35	30789.75
591.51	30778.04
591.67	31044.87
591.83	31175.94
591.99	30960.61
