SpectraSuite Data File
++++++++++++++++++++++++++++++++++++
Date: Fri Oct 18 13:58:31 GMT-05:00 2013
User: bianchi
Dark Spectrum Present: No
Reference Spectrum Present: No
Number of Sampled Component Spectra: 1
Spectrometers: USB2+H05261
Integration Time (usec): 50000 (USB2+H05261)
Spectra Averaged: 1 (USB2+H05261)
Boxcar Smoothing: 0 (USB2+H05261)
Correct for Electrical Dark: No (USB2+H05261)
Strobe/Lamp Enabled: No (USB2+H05261)
Correct for Detector Non-linearity: No (USB2+H05261)
Correct for Stray Light: No (USB2+H05261)
Number of Pixels in Processed Spectrum: 2048
>>>>>Begin Processed Spectral Data<<<<<
365.73	0.00
365.92	0.00
366.12	0.00
366.32	0.00
366.52	0.00
366.72	0.00
366.91	0.00
367.11	0.00
367.31	0.00
367.51	0.00
367.70	0.00
367.90	0.00
368.10	0.00
368.30	0.00
368.49	0.00
368.69	0.00
368.89	0.00
369.09	0.00
369.28	0.00
369.48	0.00
369.68	0.00
369.87	0.00
370.07	0.00
370.27	0.00
370.47	14.04
370.66	91.28
370.86	114.69
371.06	147.45
371.25	112.35
371.45	133.41
371.65	105.32
371.84	142.77
372.04	177.88
372.24	138.09
372.44	217.67
372.63	262.14
372.83	205.97
373.03	145.11
373.22	217.67
373.42	217.67
373.62	205.97
373.81	250.44
374.01	231.71
374.21	311.29
374.40	257.46
374.60	276.18
374.79	255.12
374.99	227.03
375.19	236.39
375.38	273.84
375.58	238.73
375.78	194.26
375.97	276.18
376.17	278.52
376.37	212.99
376.56	248.10
376.76	264.48
376.95	278.52
377.15	276.18
377.35	220.01
377.54	327.68
377.74	299.59
377.93	271.50
378.13	318.31
378.33	229.37
378.52	322.99
378.72	252.78
378.91	290.23
379.11	273.84
379.31	236.39
379.50	266.82
379.70	248.10
379.89	290.23
380.09	299.59
380.28	351.08
380.48	318.31
380.68	306.61
380.87	344.06
381.07	362.78
381.26	383.85
381.46	301.93
381.65	325.33
381.85	273.84
382.04	313.63
382.24	299.59
382.43	271.50
382.63	304.27
382.83	339.38
383.02	332.36
383.22	322.99
383.41	292.57
383.61	360.44
383.80	346.40
384.00	339.38
384.19	397.89
384.39	294.91
384.58	362.78
384.78	395.55
384.97	369.80
385.17	294.91
385.36	393.21
385.56	458.74
385.75	264.48
385.95	280.86
386.14	306.61
386.34	374.49
386.53	337.04
386.72	402.57
386.92	449.38
387.11	451.72
387.31	400.23
387.50	400.23
387.70	414.27
387.89	393.21
388.09	404.91
388.28	383.85
388.48	477.47
388.67	404.91
388.86	423.64
389.06	463.43
389.25	498.53
389.45	465.77
389.64	416.62
389.84	435.34
390.03	472.79
390.22	472.79
390.42	510.24
390.61	393.21
390.81	472.79
391.00	414.27
391.19	503.22
391.39	486.83
391.58	449.38
391.78	470.45
391.97	578.11
392.16	477.47
392.36	559.39
392.55	535.98
392.75	444.70
392.94	491.51
393.13	540.66
393.33	503.22
393.52	531.30
393.71	568.75
393.91	592.16
394.10	650.67
394.29	592.16
394.49	491.51
394.68	543.00
394.88	557.05
395.07	573.43
395.26	547.69
395.46	505.56
395.65	638.97
395.84	617.90
396.04	704.50
396.23	716.20
396.42	653.01
396.62	638.97
396.81	615.56
397.00	727.91
397.19	688.12
397.39	657.69
397.58	727.91
397.77	655.35
397.97	678.76
398.16	683.44
398.35	676.41
398.55	648.33
398.74	781.74
398.93	751.31
399.12	720.88
399.32	748.97
399.51	755.99
399.70	779.40
399.90	739.61
400.09	739.61
400.28	828.55
400.47	784.08
400.67	755.99
400.86	753.65
401.05	697.48
401.24	828.55
401.44	760.67
401.63	856.64
401.82	723.23
402.01	791.10
402.21	753.65
402.40	791.10
402.59	755.99
402.78	844.93
402.97	781.74
403.17	849.61
403.36	779.40
403.55	805.14
403.74	896.43
403.93	903.45
404.13	868.34
404.32	779.40
404.51	868.34
404.70	945.58
404.89	844.93
405.09	898.77
405.28	882.38
405.47	866.00
405.66	954.94
405.85	889.40
406.05	919.83
406.24	891.74
406.43	964.30
406.62	1018.13
406.81	1006.43
407.00	966.64
407.20	905.79
407.39	954.94
407.58	1071.97
407.77	968.98
407.96	990.05
408.15	1090.69
408.34	1046.22
408.54	1062.60
408.73	1039.20
408.92	1027.50
409.11	1076.65
409.30	1074.31
409.49	1090.69
409.68	1116.44
409.87	1069.62
410.07	1181.97
410.26	1109.41
410.45	1142.18
410.64	1130.48
410.83	1123.46
411.02	1226.44
411.21	1121.12
411.40	1191.33
411.59	1170.27
411.78	1249.85
411.98	1263.89
412.17	1149.20
412.36	1217.08
412.55	1378.58
412.74	1287.29
412.93	1322.40
413.12	1299.00
413.31	1373.89
413.50	1399.64
413.69	1247.51
413.88	1341.13
414.07	1409.00
414.26	1345.81
414.45	1331.76
414.64	1383.26
414.83	1474.54
415.02	1385.60
415.22	1497.94
415.41	1575.18
415.60	1584.54
415.79	1523.69
415.98	1509.65
416.17	1474.54
416.36	1617.31
416.55	1626.67
416.74	1636.03
416.93	1619.65
417.12	1465.18
417.31	1640.72
417.50	1626.67
417.69	1732.00
417.88	1774.13
418.07	1696.89
418.26	1736.68
418.45	1764.76
418.64	1764.76
418.83	1757.74
419.02	1757.74
419.21	1778.81
419.39	1909.88
419.58	1771.79
419.77	1755.40
419.96	1757.74
420.15	1757.74
420.34	1813.92
420.53	1902.86
420.72	1877.11
420.91	1881.79
421.10	1954.35
421.29	1916.90
421.48	1947.33
421.67	1827.96
421.86	1895.83
422.05	1977.75
422.24	1944.99
422.43	1834.98
422.61	1987.11
422.80	2052.65
422.99	1954.35
423.18	2012.86
423.37	1940.30
423.56	1996.48
423.75	2005.84
423.94	1842.00
424.13	1830.30
424.32	1944.99
424.50	2104.14
424.69	2010.52
424.88	2040.95
425.07	1902.86
425.26	2099.46
425.45	2031.58
425.64	2064.35
425.83	1968.39
426.01	2038.61
426.20	1973.07
426.39	2029.24
426.58	2026.90
426.77	1930.94
426.96	2008.18
427.15	2083.08
427.33	2085.42
427.52	2101.80
427.71	2076.06
427.90	2062.01
428.09	2132.23
428.28	2235.21
428.46	2113.50
428.65	2111.16
428.84	2230.53
429.03	2223.51
429.22	2136.91
429.40	2207.13
429.59	2242.23
429.78	2111.16
429.97	2141.59
430.16	2263.30
430.34	2277.34
430.53	2366.28
430.72	2321.81
430.91	2251.60
431.10	2359.26
431.28	2380.32
431.47	2303.09
431.66	2319.47
431.85	2310.11
432.03	2441.18
432.22	2434.16
432.41	2300.75
432.60	2368.62
432.79	2417.77
432.97	2380.32
433.16	2459.90
433.35	2394.37
433.54	2427.14
433.72	2317.13
433.91	2445.86
434.10	2420.11
434.28	2394.37
434.47	2429.48
434.66	2558.21
434.85	2483.31
435.03	2586.29
435.22	2499.69
435.41	2583.95
435.59	2590.97
435.78	2497.35
435.97	2576.93
436.16	2614.38
436.34	2583.95
436.53	2597.99
436.72	2668.21
436.90	2670.55
437.09	2757.15
437.28	2684.59
437.46	2656.51
437.65	2729.06
437.84	2715.02
438.02	2839.07
438.21	2684.59
438.40	2663.53
438.58	2836.73
438.77	2801.62
438.96	2796.94
439.14	2846.09
439.33	2902.26
439.52	2981.84
439.70	2988.86
439.89	2960.78
440.08	3005.25
440.26	2883.54
440.45	2963.12
440.63	3026.31
440.82	2913.97
441.01	3042.70
441.19	3122.27
441.38	3061.42
441.57	3176.11
441.75	3155.04
441.94	3178.45
442.12	3265.05
442.31	3267.39
442.50	3323.56
442.68	3199.51
442.87	3248.66
443.05	3236.96
443.24	3246.32
443.43	3405.48
443.61	3309.52
443.80	3382.07
443.98	3307.18
444.17	3150.36
444.35	3363.35
444.54	3337.60
444.73	3393.78
444.91	3407.82
445.10	3492.08
445.28	3461.65
445.47	3424.20
445.65	3253.34
445.84	3297.81
446.02	3386.76
446.21	3435.91
446.39	3414.84
446.58	3468.67
446.77	3309.52
446.95	3454.63
447.14	3456.97
447.32	3475.70
447.51	3506.12
447.69	3424.20
447.88	3513.14
448.06	3585.70
448.25	3440.59
448.43	3358.67
448.62	3438.25
448.80	3527.19
448.99	3590.38
449.17	3669.96
449.36	3480.38
449.54	3634.85
449.73	3581.02
449.91	3686.34
450.10	3604.42
450.28	3782.31
450.46	3758.90
450.65	3681.66
450.83	3803.37
451.02	3648.90
451.20	3700.39
451.39	3658.26
451.57	3719.11
451.76	3585.70
451.94	3719.11
452.13	3749.54
452.31	3737.84
452.49	3695.71
452.68	3843.16
452.86	3852.52
453.05	3758.90
453.23	3763.58
453.42	3836.14
453.60	3777.62
453.78	3861.88
453.97	3894.65
454.15	3772.94
454.34	3761.24
454.52	3908.69
454.70	3894.65
454.89	3908.69
455.07	4021.04
455.26	3948.48
455.44	4004.66
455.62	4056.15
455.81	3962.53
455.99	3904.01
456.17	4030.40
456.36	4100.62
456.54	4067.85
456.73	4074.87
456.91	4170.83
457.09	4095.94
457.28	4269.14
457.46	4119.34
457.64	4372.12
457.83	4182.54
458.01	4217.65
458.19	4229.35
458.38	4280.84
458.56	4308.93
458.74	4344.03
458.93	4287.86
459.11	4407.23
459.29	4395.53
459.48	4285.52
459.66	4262.12
459.84	4423.61
460.03	4638.94
460.21	4379.14
460.39	4414.25
460.57	4325.31
460.76	4517.23
460.94	4503.19
461.12	4526.60
461.31	4514.89
461.49	4573.41
461.67	4580.43
461.85	4589.79
462.04	4580.43
462.22	4727.88
462.40	4580.43
462.59	4554.68
462.77	4786.40
462.95	4716.18
463.13	4634.26
463.32	4800.44
463.50	4760.65
463.68	4620.22
463.86	4842.57
464.05	4851.93
464.23	4863.63
464.41	4835.55
464.59	4798.10
464.78	5027.47
464.96	4765.33
465.14	4849.59
465.32	4910.44
465.50	4777.03
465.69	4870.65
465.87	4973.64
466.05	4861.29
466.23	4940.87
466.41	4936.19
466.60	5015.77
466.78	4926.83
466.96	4959.60
467.14	4999.38
467.32	5029.81
467.51	5001.72
467.69	4800.44
467.87	5025.13
468.05	5081.30
468.23	5036.83
468.41	5132.79
468.60	5200.67
468.78	5205.35
468.96	5102.37
469.14	5221.74
469.32	5088.32
469.50	5067.26
469.69	5109.39
469.87	5263.86
470.05	5336.42
470.23	5259.18
470.41	5238.12
470.59	5413.66
470.77	5420.68
470.95	5390.25
471.14	5542.39
471.32	5324.72
471.50	5738.99
471.68	5378.55
471.86	5516.64
472.04	5556.43
472.22	5788.14
472.40	5561.11
472.58	5748.36
472.77	5675.80
472.95	5600.90
473.13	5813.89
473.31	5827.93
473.49	5596.22
473.67	5666.44
473.85	5717.93
474.03	5930.92
474.21	6005.81
474.39	5818.57
474.57	5905.17
474.75	5951.98
474.93	6193.06
475.12	6181.35
475.30	6066.67
475.48	6069.01
475.66	6097.10
475.84	6162.63
476.02	6200.08
476.20	6207.10
476.38	6436.47
476.56	6399.02
476.74	6438.81
476.92	6466.90
477.10	6483.28
477.28	6658.82
477.46	6502.01
477.64	6314.77
477.82	6642.44
478.00	6691.59
478.18	6799.26
478.36	6799.26
478.54	6953.73
478.72	7110.55
478.90	7162.04
479.08	7178.42
479.26	7063.74
479.44	7152.68
479.62	7059.06
479.80	7372.69
479.98	7206.51
480.16	7166.72
480.34	7297.79
480.52	7463.97
480.70	7651.21
480.88	7529.50
481.06	7503.76
481.24	7456.95
481.41	7651.21
481.59	7805.69
481.77	7688.66
481.95	7967.18
482.13	7889.95
482.31	7943.78
482.49	8236.35
482.67	7962.50
482.85	8028.04
483.03	8421.25
483.21	8320.60
483.39	8280.82
483.57	8617.85
483.74	8486.78
483.92	8643.60
484.10	8711.47
484.28	8676.37
484.46	8954.89
484.64	8798.07
484.82	8669.34
485.00	8706.79
485.18	9011.06
485.35	9149.15
485.53	9039.15
485.71	9226.39
485.89	9427.68
486.07	9420.66
486.25	9231.07
486.43	9579.81
486.61	9359.80
486.78	9565.77
486.96	9863.02
487.14	9834.93
487.32	9942.60
487.50	10183.67
487.68	10001.11
487.85	10015.15
488.03	10244.52
488.21	10363.89
488.39	10408.36
488.57	10530.07
488.75	10532.41
488.92	10438.79
489.10	10808.59
489.28	10661.14
489.46	10829.66
489.64	10855.40
489.81	10967.75
489.99	11075.42
490.17	11117.54
490.35	11250.96
490.53	11405.43
490.70	11573.95
490.88	11138.61
491.06	11250.96
491.24	11424.15
491.41	11557.57
491.59	11536.50
491.77	11723.74
491.95	12100.57
492.13	11880.56
492.30	11990.56
492.48	12128.66
492.66	12114.61
492.84	12119.29
493.01	12114.61
493.19	12358.03
493.37	12465.69
493.54	12547.61
493.72	12372.07
493.90	12587.40
494.08	12559.31
494.25	12886.99
494.43	12741.88
494.61	12858.90
494.79	13181.90
494.96	13284.88
495.14	12901.03
495.32	13242.75
495.49	13174.88
495.67	13090.62
495.85	13617.24
496.02	13362.12
496.20	13645.32
496.38	13762.35
496.55	13563.40
496.73	14101.73
496.91	13619.58
497.09	13973.00
497.26	13940.23
497.44	13984.70
497.62	14094.71
497.79	14326.42
497.97	14118.11
498.14	14204.71
498.32	14703.25
498.50	14487.92
498.67	14642.39
498.85	14621.33
499.03	14387.27
499.20	14731.33
499.38	14864.74
499.56	14761.76
499.73	14733.67
499.91	15061.35
500.08	15044.96
500.26	15040.28
500.44	15161.99
500.61	14883.47
500.79	15208.80
500.97	15159.65
501.14	15190.08
501.32	15484.98
501.49	15594.99
501.67	15492.01
501.84	15669.89
502.02	15667.55
502.20	15611.37
502.37	15817.34
502.55	15812.66
502.72	15683.93
502.90	15859.47
503.07	15702.65
503.25	15754.15
503.43	16032.67
503.60	16306.51
503.78	16095.86
503.95	16219.91
504.13	16327.58
504.30	16285.45
504.48	16266.72
504.65	16435.24
504.83	16575.67
505.01	16791.00
505.18	16685.68
505.36	16734.83
505.53	16514.82
505.71	16690.36
505.88	16849.52
506.06	16837.81
506.23	17163.15
506.41	17139.74
506.58	17020.38
506.76	17240.39
506.93	17067.19
507.11	17109.32
507.28	17425.29
507.46	17216.98
507.63	17163.15
507.81	17584.44
507.98	17305.92
508.16	17193.58
508.33	17465.08
508.50	17425.29
508.68	17518.91
508.85	17652.32
509.03	17666.36
509.20	17881.69
509.38	18066.60
509.55	18057.23
509.73	17921.48
509.90	18033.83
510.08	17844.24
510.25	18073.62
510.42	18010.42
510.60	18118.09
510.77	18515.98
510.95	18508.96
511.12	18284.26
511.30	18363.84
511.47	18347.46
511.64	18420.02
511.82	18642.37
511.99	18583.85
512.17	18663.43
512.34	18558.11
512.51	18649.39
512.69	18562.79
512.86	18752.37
513.04	18857.70
513.21	18904.51
513.38	19115.16
513.56	19171.33
513.73	18768.76
513.90	19138.56
514.08	19108.13
514.25	19042.60
514.43	19187.71
514.60	19227.50
514.77	19475.60
514.95	19543.47
515.12	19564.54
515.29	19213.46
515.47	19491.98
515.64	19566.88
515.81	19454.53
515.99	19817.32
516.16	19817.32
516.33	19697.95
516.51	19812.63
516.68	19737.74
516.85	19892.21
517.03	19999.88
517.20	19908.60
517.37	20074.77
517.54	19948.39
517.72	20348.62
517.89	19974.13
518.06	20503.09
518.24	20247.97
518.41	20121.59
518.58	20264.36
518.75	20126.27
518.93	20273.72
519.10	20613.10
519.27	20786.30
519.45	20472.67
519.62	20173.08
519.79	20535.86
519.96	20577.99
520.14	20908.01
520.31	20496.07
520.48	20877.58
520.65	20816.72
520.83	20968.86
521.00	20943.11
521.17	21008.65
521.34	20627.14
521.52	21085.89
521.69	21539.95
521.86	21436.97
522.03	21589.10
522.20	21277.81
522.38	21214.62
522.55	21326.96
522.72	21289.51
522.89	21221.64
523.07	21607.83
523.24	21713.15
523.41	21781.03
523.58	21467.39
523.75	21621.87
523.92	21467.39
524.10	21652.30
524.27	21694.43
524.44	21542.29
524.61	21937.84
524.78	21862.94
524.96	22155.51
525.13	22263.18
525.30	21998.70
525.47	21888.69
525.64	21879.33
525.81	22345.09
525.98	22429.35
526.16	21963.59
526.33	22029.12
526.50	22068.91
526.67	22199.98
526.84	22281.90
527.01	22307.65
527.18	22148.49
527.36	22487.87
527.53	22600.21
527.70	22899.80
527.87	22700.86
528.04	22640.00
528.21	22789.80
528.38	22471.48
528.55	22628.30
528.72	22860.01
528.89	23012.15
529.07	22677.45
529.24	23012.15
529.41	22860.01
529.58	22913.84
529.75	22958.31
529.92	22883.42
530.09	22995.76
530.26	22862.35
530.43	23061.30
530.60	22848.31
530.77	23108.11
530.94	23594.94
531.11	23157.26
531.28	23119.81
531.46	23229.82
531.63	23297.69
531.80	23527.06
531.97	23569.19
532.14	23562.17
532.31	23646.43
532.48	23646.43
532.65	23953.04
532.82	23358.55
532.99	23578.56
533.16	23381.95
533.33	23985.81
533.50	24053.69
533.67	23901.55
533.84	23697.92
534.01	23714.31
534.18	23718.99
534.35	24032.62
534.52	23578.56
534.69	24142.63
534.86	23854.74
535.03	23798.57
535.20	24140.29
535.37	24379.02
535.54	23887.51
535.71	24093.47
535.88	23929.64
536.05	24098.16
536.22	24458.60
536.38	24587.33
536.55	24367.32
536.72	24173.05
536.89	24166.03
537.06	24641.16
537.23	24112.20
537.40	24507.75
537.57	24418.81
537.74	24400.08
537.91	24926.71
538.08	24882.24
538.25	24460.94
538.42	24474.98
538.59	24826.06
538.75	24521.79
538.92	24669.25
539.09	24765.21
539.26	24898.62
539.43	24868.19
539.60	24936.07
539.77	25120.97
539.94	24840.11
540.11	25163.10
540.28	25228.63
540.44	25254.38
540.61	24772.23
540.78	25034.37
540.95	24779.25
541.12	24985.22
541.29	25371.41
541.46	25102.25
541.62	25315.23
541.79	25151.40
541.96	24732.44
542.13	25029.69
542.30	25277.79
542.47	25511.84
542.63	25696.74
542.80	25832.49
542.97	25610.14
543.14	25905.05
543.31	25556.31
543.48	25626.53
543.64	25825.47
543.81	26352.09
543.98	25883.98
544.15	25743.55
544.32	26080.59
544.48	25935.48
544.65	25785.68
544.82	26139.10
544.99	25668.66
545.16	26022.08
545.32	26078.25
545.49	26326.35
545.66	26199.96
545.83	26307.62
546.00	26157.83
546.16	26270.17
546.33	26391.88
546.50	25743.55
546.67	26214.00
546.83	26082.93
547.00	26253.79
547.17	26354.43
547.34	26204.64
547.50	26546.36
547.67	26665.72
547.84	26478.48
548.00	26520.61
548.17	26349.75
548.34	26834.24
548.51	26424.65
548.67	26656.36
548.84	26532.31
549.01	26705.51
549.18	26270.17
549.34	26691.47
549.51	26525.29
549.68	26663.38
549.84	26689.13
550.01	27009.78
550.18	26593.17
550.34	26757.00
550.51	27026.17
550.68	26740.62
550.84	26314.64
551.01	26967.65
551.18	26927.86
551.34	26651.68
551.51	26918.50
551.68	27367.88
551.84	27227.45
552.01	27080.00
552.18	27143.19
552.34	26497.20
552.51	27236.81
552.68	26848.29
552.84	26969.99
553.01	27122.13
553.18	26988.72
553.34	27002.76
553.51	27337.46
553.67	27676.83
553.84	27599.60
554.01	27484.91
554.17	27185.32
554.34	27070.64
554.51	27477.89
554.67	27454.48
554.84	27557.47
555.00	27075.32
555.17	27323.41
555.33	27789.18
555.50	27496.61
555.67	27438.10
555.83	27297.67
556.00	27175.96
556.16	27735.35
556.33	27681.52
556.50	27814.93
556.66	27662.79
556.83	27108.08
556.99	27821.95
557.16	27772.80
557.32	27962.38
557.49	28177.71
557.65	27641.73
557.82	27667.47
557.98	27763.43
558.15	27531.72
558.32	28070.04
558.48	27697.90
558.65	28325.16
558.81	27861.74
558.98	27931.95
559.14	27852.38
559.31	27623.00
559.47	27859.40
559.64	28229.20
559.80	28046.64
559.97	28196.43
560.13	28060.68
560.30	28088.77
560.46	27936.63
560.63	27950.68
560.79	28039.62
560.96	28259.63
561.12	28140.26
561.29	27971.74
561.45	27550.45
561.61	28517.09
561.78	27974.08
561.94	28208.14
562.11	28538.15
562.27	28596.67
562.44	27957.70
562.60	28196.43
562.77	28254.95
562.93	27990.47
563.10	28535.81
563.26	28556.88
563.42	28535.81
563.59	28084.09
563.75	28294.74
563.92	28301.76
564.08	28046.64
564.24	28208.14
564.41	27962.38
564.57	28105.15
564.74	28514.75
564.90	28322.82
565.07	28304.10
565.23	28594.32
565.39	28481.98
565.56	28734.76
565.72	28257.29
565.88	28404.74
566.05	28311.12
566.21	28481.98
566.38	28615.39
566.54	28603.69
566.70	28584.96
566.87	28521.77
567.03	28613.05
567.19	28716.03
567.36	28259.63
567.52	28428.15
567.68	28650.50
567.85	28554.54
568.01	28643.48
568.17	28489.00
568.34	28648.16
568.50	28664.54
568.66	28685.61
568.83	28734.76
568.99	28428.15
569.15	28725.39
569.32	28662.20
569.48	28187.07
569.64	28540.49
569.81	28781.57
569.97	28795.61
570.13	28730.08
570.30	28666.88
570.46	28533.47
570.62	28877.53
570.78	28879.87
570.95	28463.25
571.11	28716.03
571.27	28774.55
571.43	28701.99
571.60	28603.69
571.76	28751.14
571.92	28886.89
572.09	28517.09
572.25	28659.86
572.41	28849.44
572.57	28924.34
572.74	28926.68
572.90	28320.48
573.06	28788.59
573.22	28779.23
573.38	28858.81
573.55	28643.48
573.71	29032.00
573.87	28903.28
574.03	28870.51
574.20	28992.22
574.36	28940.72
574.52	28664.54
574.68	28772.21
574.84	28631.77
575.01	29067.11
575.17	28760.50
575.33	28779.23
575.49	28692.63
575.65	29013.28
575.82	29032.00
575.98	29088.18
576.14	29085.84
576.30	29298.83
576.46	28608.37
576.62	28760.50
576.79	28720.71
576.95	28737.10
577.11	28851.78
577.27	29132.65
577.43	29158.39
577.59	29097.54
577.75	28947.75
577.92	28940.72
578.08	28940.72
578.24	28587.30
578.40	28975.83
578.56	28900.94
578.72	29467.34
578.88	29467.34
579.04	29219.25
579.21	29326.91
579.37	29324.57
579.53	28833.06
579.69	28912.64
579.85	28786.25
580.01	29343.30
580.17	28936.04
580.33	28430.49
580.49	29284.78
580.65	29237.97
580.82	29027.32
580.98	29270.74
581.14	28922.00
581.30	29200.52
581.46	29151.37
581.62	29046.05
581.78	29053.07
581.94	28877.53
582.10	28748.80
582.26	29289.46
582.42	29048.39
582.58	29071.79
582.74	29280.10
582.90	29312.87
583.06	29462.66
583.22	29153.71
583.38	29102.22
583.54	28821.36
583.70	28753.48
583.86	28978.17
584.02	29362.02
584.18	29490.75
584.34	29324.57
584.50	29235.63
584.66	29099.88
584.82	28723.05
584.98	29284.78
585.14	29158.39
585.30	28786.25
585.46	28807.31
585.62	29064.77
585.78	29071.79
585.94	28680.92
586.10	29343.30
586.26	28999.24
586.42	29364.36
586.58	29289.46
586.74	29261.38
586.90	29221.59
587.06	28954.77
587.22	29137.33
587.38	29179.46
587.54	29221.59
587.70	29420.53
587.86	29249.67
588.02	29390.11
588.18	29439.26
588.34	29352.66
588.49	29322.23
588.65	29336.27
588.81	29593.73
588.97	28992.22
589.13	29305.85
589.29	29104.56
589.45	29111.58
589.61	29392.45
589.77	29315.21
589.93	29373.72
590.08	29729.48
590.24	29558.63
590.40	29446.28
590.56	29228.61
590.72	29301.17
590.88	29502.45
591.04	29259.04
591.20	29902.68
591.35	29809.06
591.51	29909.71
591.67	29575.01
591.83	29715.44
591.99	29252.02
