SpectraSuite Data File
++++++++++++++++++++++++++++++++++++
Date: Fri Oct 18 13:58:41 GMT-05:00 2013
User: bianchi
Dark Spectrum Present: No
Reference Spectrum Present: No
Number of Sampled Component Spectra: 1
Spectrometers: USB2+H05261
Integration Time (usec): 50000 (USB2+H05261)
Spectra Averaged: 1 (USB2+H05261)
Boxcar Smoothing: 0 (USB2+H05261)
Correct for Electrical Dark: No (USB2+H05261)
Strobe/Lamp Enabled: No (USB2+H05261)
Correct for Detector Non-linearity: No (USB2+H05261)
Correct for Stray Light: No (USB2+H05261)
Number of Pixels in Processed Spectrum: 2048
>>>>>Begin Processed Spectral Data<<<<<
365.73	0.00
365.92	0.00
366.12	0.00
366.32	0.00
366.52	0.00
366.72	0.00
366.91	0.00
367.11	0.00
367.31	0.00
367.51	0.00
367.70	0.00
367.90	0.00
368.10	0.00
368.30	0.00
368.49	0.00
368.69	0.00
368.89	0.00
369.09	0.00
369.28	0.00
369.48	0.00
369.68	0.00
369.87	0.00
370.07	0.00
370.27	0.00
370.47	18.72
370.66	126.39
370.86	119.37
371.06	88.94
371.25	180.22
371.45	117.03
371.65	140.43
371.84	142.77
372.04	189.58
372.24	159.16
372.44	166.18
372.63	198.95
372.83	203.63
373.03	177.88
373.22	220.01
373.42	229.37
373.62	180.22
373.81	241.08
374.01	177.88
374.21	212.99
374.40	234.05
374.60	222.35
374.79	292.57
374.99	241.08
375.19	301.93
375.38	280.86
375.58	259.80
375.78	276.18
375.97	262.14
376.17	283.20
376.37	196.60
376.56	299.59
376.76	313.63
376.95	259.80
377.15	243.42
377.35	278.52
377.54	264.48
377.74	208.31
377.93	236.39
378.13	280.86
378.33	339.38
378.52	301.93
378.72	229.37
378.91	259.80
379.11	255.12
379.31	311.29
379.50	266.82
379.70	390.87
379.89	369.80
380.09	294.91
380.28	341.72
380.48	196.60
380.68	285.55
380.87	322.99
381.07	365.12
381.26	367.46
381.46	351.08
381.65	381.51
381.85	367.46
382.04	308.95
382.24	367.46
382.43	404.91
382.63	351.08
382.83	241.08
383.02	365.12
383.22	355.76
383.41	320.65
383.61	278.52
383.80	409.59
384.00	369.80
384.19	297.25
384.39	337.04
384.58	306.61
384.78	362.78
384.97	337.04
385.17	430.66
385.36	395.55
385.56	433.00
385.75	327.68
385.95	330.02
386.14	397.89
386.34	428.32
386.53	428.32
386.72	386.19
386.92	433.00
387.11	435.34
387.31	475.13
387.50	409.59
387.70	360.44
387.89	423.64
388.09	456.40
388.28	472.79
388.48	454.06
388.67	369.80
388.86	533.64
389.06	418.96
389.25	437.68
389.45	489.17
389.64	435.34
389.84	496.19
390.03	535.98
390.22	465.77
390.42	505.56
390.61	449.38
390.81	496.19
391.00	447.04
391.19	554.71
391.39	418.96
391.58	533.64
391.78	470.45
391.97	517.26
392.16	514.92
392.36	573.43
392.55	552.37
392.75	557.05
392.94	482.15
393.13	482.15
393.33	531.30
393.52	500.87
393.71	545.34
393.91	601.52
394.10	540.66
394.29	601.52
394.49	573.43
394.68	648.33
394.88	554.71
395.07	603.86
395.26	606.20
395.46	603.86
395.65	650.67
395.84	610.88
396.04	641.31
396.23	655.35
396.42	636.63
396.62	636.63
396.81	697.48
397.00	620.24
397.19	732.59
397.39	599.18
397.58	660.03
397.77	685.78
397.97	711.52
398.16	655.35
398.35	685.78
398.55	720.88
398.74	723.23
398.93	751.31
399.12	723.23
399.32	648.33
399.51	758.33
399.70	755.99
399.90	760.67
400.09	826.21
400.28	784.08
400.47	748.97
400.67	837.91
400.86	777.06
401.05	748.97
401.24	791.10
401.44	793.44
401.63	725.57
401.82	765.36
402.01	751.31
402.21	786.42
402.40	709.18
402.59	854.30
402.78	828.55
402.97	856.64
403.17	866.00
403.36	788.76
403.55	887.06
403.74	950.26
403.93	1018.13
404.13	926.85
404.32	938.55
404.51	798.12
404.70	931.53
404.89	891.74
405.09	1015.79
405.28	924.51
405.47	983.02
405.66	931.53
405.85	1055.58
406.05	1011.11
406.24	882.38
406.43	945.58
406.62	980.68
406.81	1067.28
407.00	976.00
407.20	994.73
407.39	987.71
407.58	1074.31
407.77	1109.41
407.96	1001.75
408.15	1069.62
408.34	1088.35
408.54	1102.39
408.73	1062.60
408.92	1086.01
409.11	1174.95
409.30	1207.72
409.49	1083.67
409.68	1139.84
409.87	1254.53
410.07	1184.31
410.26	1160.91
410.45	1125.80
410.64	1196.01
410.83	1086.01
411.02	1144.52
411.21	1224.10
411.40	1226.44
411.59	1205.38
411.78	1277.93
411.98	1294.32
412.17	1308.36
412.36	1263.89
412.55	1327.08
412.74	1406.66
412.93	1336.45
413.12	1364.53
413.31	1392.62
413.50	1392.62
413.69	1441.77
413.88	1460.49
414.07	1528.37
414.26	1507.30
414.45	1462.83
414.64	1495.60
414.83	1427.73
415.02	1542.41
415.22	1537.73
415.41	1593.90
415.60	1500.28
415.79	1575.18
415.98	1526.03
416.17	1556.46
416.36	1575.18
416.55	1696.89
416.74	1746.04
416.93	1636.03
417.12	1619.65
417.31	1664.12
417.50	1678.16
417.69	1708.59
417.88	1771.79
418.07	1713.27
418.26	1713.27
418.45	1839.66
418.64	1717.95
418.83	1818.60
419.02	1797.53
419.21	1813.92
419.39	1872.43
419.58	1790.51
419.77	1921.58
419.96	1750.72
420.15	1816.26
420.34	1837.32
420.53	1844.34
420.72	1804.55
420.91	1884.13
421.10	1952.01
421.29	1994.14
421.48	1858.39
421.67	1959.03
421.86	1923.92
422.05	2036.27
422.24	1825.62
422.43	1923.92
422.61	2031.58
422.80	1994.14
422.99	1942.64
423.18	2083.08
423.37	2073.71
423.56	2005.84
423.75	1940.30
423.94	2022.22
424.13	1886.47
424.32	1980.09
424.50	2031.58
424.69	2008.18
424.88	1926.26
425.07	2136.91
425.26	2064.35
425.45	1959.03
425.64	2050.31
425.83	2059.67
426.01	2129.89
426.20	1940.30
426.39	2033.93
426.58	2040.95
426.77	2036.27
426.96	2038.61
427.15	2122.87
427.33	2064.35
427.52	2125.21
427.71	2085.42
427.90	2090.10
428.09	2232.87
428.28	2251.60
428.46	2073.71
428.65	2106.48
428.84	2113.50
429.03	2270.32
429.22	2214.15
429.40	2188.40
429.59	2267.98
429.78	2246.91
429.97	2160.31
430.16	2223.51
430.34	2214.15
430.53	2345.22
430.72	2387.35
430.91	2253.94
431.10	2370.96
431.28	2354.58
431.47	2363.94
431.66	2403.73
431.85	2361.60
432.03	2445.86
432.22	2455.22
432.41	2628.42
432.60	2502.03
432.79	2480.97
432.97	2516.08
433.16	2396.71
433.35	2525.44
433.54	2452.88
433.72	2441.18
433.91	2469.27
434.10	2480.97
434.28	2492.67
434.47	2537.14
434.66	2399.05
434.85	2640.12
435.03	2532.46
435.22	2600.34
435.41	2567.57
435.59	2635.44
435.78	2619.06
435.97	2651.83
436.16	2647.15
436.34	2619.06
436.53	2621.40
436.72	2787.58
436.90	2558.21
437.09	2693.96
437.28	2621.40
437.46	2813.32
437.65	2665.87
437.84	2668.21
438.02	2808.64
438.21	2775.88
438.40	2780.56
438.58	2799.28
438.77	2902.26
438.96	2832.05
439.14	2867.16
439.33	2965.46
439.52	3009.93
439.70	3054.40
439.89	3059.08
440.08	3080.14
440.26	3014.61
440.45	3047.38
440.63	3052.06
440.82	3098.87
441.01	3089.51
441.19	3260.37
441.38	3272.07
441.57	3136.32
441.75	3311.86
441.94	3262.71
442.12	3260.37
442.31	3403.14
442.50	3356.33
442.68	3368.03
442.87	3351.65
443.05	3431.23
443.24	3361.01
443.43	3344.63
443.61	3321.22
443.80	3597.40
443.98	3419.52
444.17	3239.30
444.35	3246.32
444.54	3396.12
444.73	3316.54
444.91	3520.17
445.10	3545.91
445.28	3349.31
445.47	3471.01
445.65	3562.30
445.84	3487.40
446.02	3405.48
446.21	3630.17
446.39	3449.95
446.58	3487.40
446.77	3489.74
446.95	3433.57
447.14	3384.41
447.32	3508.46
447.51	3599.74
447.69	3417.18
447.88	3473.36
448.06	3452.29
448.25	3590.38
448.43	3510.80
448.62	3585.70
448.80	3452.29
448.99	3623.15
449.17	3559.95
449.36	3620.81
449.54	3686.34
449.73	3676.98
449.91	3709.75
450.10	3630.17
450.28	3709.75
450.46	3751.88
450.65	3730.81
450.83	3765.92
451.02	3747.20
451.20	3913.38
451.39	3850.18
451.57	3723.79
451.76	3819.75
451.94	3801.03
452.13	3777.62
452.31	3859.54
452.49	3669.96
452.68	3765.92
452.86	3948.48
453.05	3864.22
453.23	3983.59
453.42	3896.99
453.60	3775.28
453.78	4002.32
453.97	3878.27
454.15	3899.33
454.34	3784.65
454.52	4011.68
454.70	3920.40
454.89	4067.85
455.07	3939.12
455.26	4009.34
455.44	4053.81
455.62	4095.94
455.81	4046.79
455.99	4149.77
456.17	4191.90
456.36	4250.41
456.54	4222.33
456.73	4229.35
456.91	4266.80
457.09	4304.25
457.28	4304.25
457.46	4159.13
457.64	4465.74
457.83	4477.44
458.01	4280.84
458.19	4311.27
458.38	4278.50
458.56	4344.03
458.74	4486.81
458.93	4454.04
459.11	4437.66
459.29	4442.34
459.48	4449.36
459.66	4535.96
459.84	4592.13
460.03	4578.09
460.21	4571.07
460.39	4472.76
460.57	4510.21
460.76	4498.51
460.94	4615.54
461.12	4669.37
461.31	4695.11
461.49	4603.83
461.67	4660.01
461.85	4837.89
462.04	4702.14
462.22	4638.94
462.40	4727.88
462.59	4772.35
462.77	4774.69
462.95	4699.80
463.13	4798.10
463.32	4784.06
463.50	4814.48
463.68	4805.12
463.86	4898.74
464.05	4849.59
464.23	4819.16
464.41	4842.57
464.59	4844.91
464.78	4798.10
464.96	4947.89
465.14	4865.97
465.32	4936.19
465.50	5048.54
465.69	5114.07
465.87	4826.18
466.05	5011.09
466.23	5053.22
466.41	5060.24
466.60	5107.05
466.78	5053.22
466.96	5034.49
467.14	5039.17
467.32	5158.54
467.51	5006.41
467.69	5104.71
467.87	5203.01
468.05	5287.27
468.23	5242.80
468.41	5310.68
468.60	5214.71
468.78	5240.46
468.96	5195.99
469.14	5259.18
469.32	5252.16
469.50	5226.42
469.69	5392.59
469.87	5380.89
470.05	5453.45
470.23	5378.55
470.41	5460.47
470.59	5423.02
470.77	5378.55
470.95	5444.09
471.14	5425.36
471.32	5385.57
471.50	5582.18
471.68	5544.73
471.86	5715.59
472.04	5598.56
472.22	5799.85
472.40	5614.95
472.58	5701.54
472.77	5626.65
472.95	5785.80
473.13	5947.30
473.31	5949.64
473.49	5818.57
473.67	5956.66
473.85	5954.32
474.03	5935.60
474.21	5944.96
474.39	6097.10
474.57	6134.54
474.75	6050.28
474.93	6204.76
475.12	6001.13
475.30	6289.02
475.48	6167.31
475.66	6169.65
475.84	6284.34
476.02	6265.61
476.20	6441.15
476.38	6441.15
476.56	6623.72
476.74	6499.67
476.92	6581.59
477.10	6534.78
477.28	6567.54
477.46	6684.57
477.64	6764.15
477.82	6892.88
478.00	6705.63
478.18	6726.70
478.36	7087.14
478.54	6904.58
478.72	7187.79
478.90	7178.42
479.08	7208.85
479.26	7229.91
479.44	7246.30
479.62	7407.80
479.80	7307.15
479.98	7468.65
480.16	7513.12
480.34	7435.88
480.52	7634.83
480.70	7639.51
480.88	7588.02
481.06	7733.13
481.24	7749.51
481.41	7641.85
481.59	8023.36
481.77	8177.83
481.95	8065.49
482.13	7981.23
482.31	8135.70
482.49	8053.78
482.67	8238.69
482.85	8208.26
483.03	8329.97
483.21	8465.72
483.39	8596.79
483.57	8521.89
483.74	8627.21
483.92	8681.05
484.10	8610.83
484.28	8781.69
484.46	8879.99
484.64	9135.11
484.82	8961.91
485.00	9032.13
485.18	9219.37
485.35	9408.95
485.53	9404.27
485.71	9315.33
485.89	9605.56
486.07	9469.81
486.25	9626.62
486.43	9643.01
486.61	9778.76
486.78	9858.34
486.96	9996.43
487.14	10045.58
487.32	10122.82
487.50	10087.71
487.68	10424.75
487.85	10466.88
488.03	10562.84
488.21	10450.49
488.39	10558.16
488.57	10829.66
488.75	10712.63
488.92	10890.51
489.10	10853.06
489.28	11019.24
489.46	11091.80
489.64	10925.62
489.81	11091.80
489.99	11342.24
490.17	11517.78
490.35	11470.97
490.53	11576.29
490.70	11679.27
490.88	11410.11
491.06	11754.17
491.24	11772.89
491.41	11838.43
491.59	11894.60
491.77	11742.47
491.95	12109.93
492.13	12072.48
492.30	12109.93
492.48	12301.86
492.66	12393.14
492.84	12498.46
493.01	12470.37
493.19	12608.47
493.37	12795.71
493.54	12395.48
493.72	13015.72
493.90	12826.14
494.08	13004.02
494.25	13315.31
494.43	13099.98
494.61	13240.41
494.79	13324.67
494.96	13352.76
495.14	13287.22
495.32	13469.78
495.49	13528.30
495.67	13741.29
495.85	13699.16
496.02	14036.19
496.20	13930.87
496.38	13874.70
496.55	13820.86
496.73	14188.33
496.91	14047.90
497.09	14471.53
497.26	14473.87
497.44	14328.76
497.62	14373.23
497.79	14501.96
497.97	14487.92
498.14	14703.25
498.32	14939.64
498.50	14731.33
498.67	14949.00
498.85	14846.02
499.03	14736.01
499.20	14977.09
499.38	15009.86
499.56	14972.41
499.73	15356.25
499.91	15302.42
500.08	15424.13
500.26	15276.68
500.44	15330.51
500.61	15382.00
500.79	15389.02
500.97	15665.21
501.14	15789.25
501.32	15782.23
501.49	15840.75
501.67	16006.92
501.84	15988.20
502.02	15936.71
502.20	16259.70
502.37	16060.76
502.55	16205.87
502.72	16198.85
502.90	16053.73
503.07	16077.14
503.25	16451.63
503.43	16416.52
503.60	16493.76
503.78	16236.30
503.95	16620.14
504.13	16767.60
504.30	16648.23
504.48	16659.93
504.65	16788.66
504.83	16861.22
505.01	16919.73
505.18	16882.28
505.36	17172.51
505.53	17020.38
505.71	17125.70
505.88	17036.76
506.06	16865.90
506.23	17596.15
506.41	17261.45
506.58	17357.41
506.76	17277.83
506.93	17481.46
507.11	17362.09
507.28	17174.85
507.46	17907.44
507.63	17537.63
507.81	17818.50
507.98	17837.22
508.16	17460.40
508.33	17589.13
508.50	18003.40
508.68	17947.23
508.85	17841.90
509.03	18031.49
509.20	18431.72
509.38	18225.75
509.55	18312.35
509.73	18623.64
509.90	18317.03
510.08	18302.99
510.25	18689.18
510.42	18766.42
510.60	18508.96
510.77	18836.63
510.95	18787.48
511.12	18394.27
511.30	18672.79
511.47	18773.44
511.64	18904.51
511.82	18874.08
511.99	18876.42
512.17	19037.92
512.34	19012.17
512.51	19190.05
512.69	19110.47
512.86	18998.13
513.04	19257.93
513.21	19454.53
513.38	19403.04
513.56	19531.77
513.73	19122.18
513.90	19606.67
514.08	19700.29
514.25	19342.19
514.43	19564.54
514.60	19704.97
514.77	19822.00
514.95	19878.17
515.12	19803.27
515.29	19459.21
515.47	19962.43
515.64	20077.12
515.81	19962.43
515.99	20030.30
516.16	20343.94
516.33	20308.83
516.51	20449.26
516.68	20123.93
516.85	20046.69
517.03	20458.62
517.20	20463.30
517.37	20783.96
517.54	20676.29
517.72	20444.58
517.89	20606.08
518.06	20304.15
518.24	20900.98
518.41	20685.65
518.58	20528.84
518.75	20809.70
518.93	21099.93
519.10	20945.45
519.27	21048.44
519.45	20844.81
519.62	21282.49
519.79	21443.99
519.96	20978.22
520.14	21362.07
520.31	21301.22
520.48	21179.51
520.65	21266.11
520.83	21465.05
521.00	21333.98
521.17	21294.19
521.34	21561.02
521.52	21614.85
521.69	21933.16
521.86	21752.94
522.03	21872.31
522.20	22075.93
522.38	21977.63
522.55	21624.21
522.72	21752.94
522.89	21759.96
523.07	22099.34
523.24	22164.87
523.41	22221.05
523.58	21855.92
523.75	21902.73
523.92	22352.12
524.10	22195.30
524.27	22036.14
524.44	22373.18
524.61	22408.29
524.78	22204.66
524.96	22588.51
525.13	22237.43
525.30	22869.37
525.47	22560.42
525.64	22504.25
525.81	22506.59
525.98	22630.64
526.16	23047.26
526.33	22637.66
526.50	23005.13
526.67	22792.14
526.84	22593.19
527.01	22757.03
527.18	22920.87
527.36	22963.00
527.53	22827.24
527.70	23098.75
527.87	23264.92
528.04	23197.05
528.21	23501.32
528.38	22963.00
528.55	23325.78
528.72	23482.59
528.89	23353.87
529.07	23339.82
529.24	23555.15
529.41	23662.82
529.58	23365.57
529.75	23386.63
529.92	23349.18
530.09	23587.92
530.26	23756.44
530.43	23660.48
530.60	23688.56
530.77	23939.00
530.94	24063.05
531.11	23623.03
531.28	23971.77
531.46	23854.74
531.63	23859.42
531.80	23644.09
531.97	24212.84
532.14	23948.36
532.31	23770.48
532.48	24166.03
532.65	24116.88
532.82	23871.12
532.99	24088.79
533.16	24002.19
533.33	24287.74
533.50	24542.86
533.67	24430.51
533.84	24084.11
534.01	24339.23
534.18	24430.51
534.35	24545.20
534.52	24301.78
534.69	24383.70
534.86	24645.84
535.03	24339.23
535.20	24521.79
535.37	24570.94
535.54	24606.05
535.71	24460.94
535.88	24959.47
536.05	24872.87
536.22	24687.97
536.38	24797.98
536.55	25158.42
536.72	25081.18
536.89	24896.28
537.06	25387.79
537.23	24849.47
537.40	25095.22
537.57	24907.98
537.74	25029.69
537.91	25645.25
538.08	25240.34
538.25	25081.18
538.42	25392.47
538.59	25329.28
538.75	25254.38
538.92	25490.77
539.09	25060.12
539.26	25434.60
539.43	25479.07
539.60	25153.74
539.77	25530.56
539.94	25331.62
540.11	25493.12
540.28	25387.79
540.44	25617.16
540.61	25593.76
540.78	25612.48
540.95	25343.32
541.12	25792.70
541.29	25584.40
541.46	25635.89
541.62	25659.29
541.79	25823.13
541.96	25731.85
542.13	25422.90
542.30	26136.76
542.47	26050.16
542.63	26352.09
542.80	26225.70
542.97	26438.69
543.14	26038.46
543.31	26211.66
543.48	25905.05
543.64	26583.80
543.81	26565.08
543.98	26527.63
544.15	26885.73
544.32	26536.99
544.48	26551.04
544.65	26473.80
544.82	26469.12
544.99	26127.40
545.16	26855.31
545.32	26305.28
545.49	26639.98
545.66	26717.22
545.83	26998.08
546.00	27351.50
546.16	26700.83
546.33	26630.62
546.50	26520.61
546.67	26977.01
546.83	26785.09
547.00	27002.76
547.17	26429.33
547.34	26871.69
547.50	26939.57
547.67	27246.18
547.84	26834.24
548.00	27103.40
548.17	27260.22
548.34	26960.63
548.51	27438.10
548.67	27309.37
548.84	27440.44
549.01	27131.49
549.18	27199.37
549.34	27477.89
549.51	27569.17
549.68	27136.17
549.84	26864.67
550.01	27468.53
550.18	27786.84
550.34	27168.94
550.51	27484.91
550.68	27438.10
550.84	27370.22
551.01	27505.98
551.18	27417.04
551.34	27300.01
551.51	27508.32
551.68	27438.10
551.84	27782.16
552.01	27503.64
552.18	27742.37
552.34	27517.68
552.51	27742.37
552.68	27599.60
552.84	27817.27
553.01	27623.00
553.18	27648.75
553.34	27686.20
553.51	28056.00
553.67	27803.22
553.84	28095.79
554.01	28306.44
554.17	27644.07
554.34	28177.71
554.51	27927.27
554.67	27953.02
554.84	28144.94
555.00	28357.93
555.17	28161.33
555.33	27934.29
555.50	28144.94
555.67	27969.40
555.83	28297.08
556.00	28018.55
556.16	28140.26
556.33	28308.78
556.50	28142.60
556.66	28374.31
556.83	28304.10
556.99	28720.71
557.16	28240.90
557.32	28489.00
557.49	28636.45
557.65	28453.89
557.82	28329.84
557.98	28205.80
558.15	28500.70
558.32	28662.20
558.48	28753.48
558.65	28744.12
558.81	28596.67
558.98	28479.64
559.14	28800.29
559.31	28570.92
559.47	28797.95
559.64	28240.90
559.80	28615.39
559.97	29142.01
560.13	28507.72
560.30	28783.91
560.46	28854.12
560.63	28734.76
560.79	28821.36
560.96	29003.92
561.12	28936.04
561.29	28376.66
561.45	28552.20
561.61	28814.34
561.78	29027.32
561.94	28903.28
562.11	28936.04
562.27	28720.71
562.44	28989.88
562.60	28926.68
562.77	28842.42
562.93	28734.76
563.10	29170.10
563.26	28926.68
563.42	29149.03
563.59	29109.24
563.75	28954.77
563.92	29048.39
564.08	28720.71
564.24	28926.68
564.41	28943.06
564.57	28489.00
564.74	29120.95
564.90	29336.27
565.07	29324.57
565.23	29432.24
565.39	29109.24
565.56	29149.03
565.72	29092.86
565.88	29565.65
566.05	29240.31
566.21	29200.52
566.38	29350.32
566.54	29142.01
566.70	29610.12
566.87	29675.65
567.03	29158.39
567.19	29429.90
567.36	29181.80
567.52	29216.91
567.68	29088.18
567.85	29034.35
568.01	29350.32
568.17	29434.58
568.34	29273.08
568.50	29422.87
568.66	29582.03
568.83	29369.04
568.99	29237.97
569.15	29392.45
569.32	29127.97
569.48	29436.92
569.64	29443.94
569.81	29598.41
569.97	29926.09
570.13	29825.45
570.30	29546.92
570.46	29483.73
570.62	29640.54
570.78	29441.60
570.95	29205.20
571.11	29654.59
571.27	29226.27
571.43	29062.43
571.60	29490.75
571.76	29273.08
571.92	29670.97
572.09	29472.03
572.25	29926.09
572.41	29823.11
572.57	29558.63
572.74	29715.44
572.90	29312.87
573.06	29675.65
573.22	29439.26
573.38	29647.57
573.55	29649.91
573.71	30078.22
573.87	29832.47
574.03	29577.35
574.20	29909.71
574.36	29703.74
574.52	29415.85
574.68	29607.78
574.84	29560.97
575.01	29724.80
575.17	29722.46
575.33	29638.20
575.49	29366.70
575.65	29694.38
575.82	29612.46
575.98	29977.58
576.14	29610.12
576.30	29677.99
576.46	29687.36
576.62	29422.87
576.79	29902.68
576.95	29481.39
577.11	29947.15
577.27	29661.61
577.43	29720.12
577.59	29724.80
577.75	29806.72
577.92	29778.64
578.08	29682.67
578.24	29532.88
578.40	29638.20
578.56	30017.37
578.72	29940.13
578.88	29670.97
579.04	29727.14
579.21	29422.87
579.37	29813.74
579.53	29780.98
579.69	29612.46
579.85	29472.03
580.01	29680.33
580.17	29347.98
580.33	29617.14
580.49	29883.96
580.65	29986.94
580.82	30108.65
580.98	29832.47
581.14	29951.84
581.30	30064.18
581.46	29371.38
581.62	29560.97
581.78	29579.69
581.94	29942.47
582.10	29404.15
582.26	30057.16
582.42	29591.39
582.58	29872.26
582.74	29895.66
582.90	30354.41
583.06	29860.55
583.22	29811.40
583.38	29893.32
583.54	29736.51
583.70	29860.55
583.86	30199.93
584.02	29467.34
584.18	29846.51
584.34	30431.65
584.50	30057.16
584.66	29717.78
584.82	29862.90
584.98	30085.25
585.14	30015.03
585.30	29890.98
585.46	29591.39
585.62	29699.06
585.78	30132.06
585.94	29720.12
586.10	30127.38
586.26	30139.08
586.42	29881.62
586.58	29958.86
586.74	29961.20
586.90	29839.49
587.06	29743.53
587.22	30096.95
587.38	29675.65
587.54	30265.47
587.70	30174.19
587.86	29977.58
588.02	29888.64
588.18	30609.53
588.34	29963.54
588.49	30160.14
588.65	30073.54
588.81	29605.44
588.97	30415.26
589.13	30066.52
589.29	30143.76
589.45	29991.62
589.61	30515.90
589.77	30698.47
589.93	30953.58
590.08	30141.42
590.24	30558.03
590.40	30068.86
590.56	30469.09
590.72	29935.45
590.88	30071.20
591.04	30305.26
591.20	30497.18
591.35	30347.39
591.51	30883.37
591.67	30417.60
591.83	30431.65
591.99	30562.72
