SpectraSuite Data File
++++++++++++++++++++++++++++++++++++
Date: Fri Oct 18 13:58:39 GMT-05:00 2013
User: bianchi
Dark Spectrum Present: No
Reference Spectrum Present: No
Number of Sampled Component Spectra: 1
Spectrometers: USB2+H05261
Integration Time (usec): 50000 (USB2+H05261)
Spectra Averaged: 1 (USB2+H05261)
Boxcar Smoothing: 0 (USB2+H05261)
Correct for Electrical Dark: No (USB2+H05261)
Strobe/Lamp Enabled: No (USB2+H05261)
Correct for Detector Non-linearity: No (USB2+H05261)
Correct for Stray Light: No (USB2+H05261)
Number of Pixels in Processed Spectrum: 2048
>>>>>Begin Processed Spectral Data<<<<<
365.73	0.00
365.92	0.00
366.12	0.00
366.32	0.00
366.52	0.00
366.72	0.00
366.91	0.00
367.11	0.00
367.31	0.00
367.51	0.00
367.70	0.00
367.90	0.00
368.10	0.00
368.30	0.00
368.49	0.00
368.69	0.00
368.89	0.00
369.09	0.00
369.28	0.00
369.48	0.00
369.68	0.00
369.87	0.00
370.07	0.00
370.27	0.00
370.47	0.00
370.66	93.62
370.86	135.75
371.06	56.17
371.25	142.77
371.45	135.75
371.65	105.32
371.84	114.69
372.04	177.88
372.24	208.31
372.44	227.03
372.63	159.16
372.83	208.31
373.03	205.97
373.22	234.05
373.42	168.52
373.62	252.78
373.81	189.58
374.01	266.82
374.21	227.03
374.40	140.43
374.60	248.10
374.79	217.67
374.99	255.12
375.19	311.29
375.38	271.50
375.58	262.14
375.78	159.16
375.97	299.59
376.17	311.29
376.37	266.82
376.56	266.82
376.76	234.05
376.95	278.52
377.15	294.91
377.35	320.65
377.54	264.48
377.74	297.25
377.93	318.31
378.13	297.25
378.33	308.95
378.52	266.82
378.72	262.14
378.91	330.02
379.11	285.55
379.31	264.48
379.50	220.01
379.70	306.61
379.89	325.33
380.09	353.42
380.28	294.91
380.48	299.59
380.68	290.23
380.87	250.44
381.07	269.16
381.26	322.99
381.46	372.15
381.65	346.40
381.85	259.80
382.04	330.02
382.24	325.33
382.43	351.08
382.63	346.40
382.83	280.86
383.02	337.04
383.22	344.06
383.41	271.50
383.61	318.31
383.80	332.36
384.00	337.04
384.19	353.42
384.39	337.04
384.58	243.42
384.78	308.95
384.97	414.27
385.17	383.85
385.36	376.83
385.56	383.85
385.75	369.80
385.95	430.66
386.14	351.08
386.34	369.80
386.53	500.87
386.72	486.83
386.92	463.43
387.11	454.06
387.31	430.66
387.50	425.98
387.70	374.49
387.89	465.77
388.09	493.85
388.28	510.24
388.48	463.43
388.67	505.56
388.86	440.02
389.06	491.51
389.25	479.81
389.45	416.62
389.64	454.06
389.84	503.22
390.03	496.19
390.22	465.77
390.42	393.21
390.61	461.09
390.81	449.38
391.00	484.49
391.19	580.45
391.39	381.51
391.58	479.81
391.78	535.98
391.97	519.60
392.16	475.13
392.36	519.60
392.55	493.85
392.75	521.94
392.94	528.96
393.13	461.09
393.33	564.07
393.52	538.32
393.71	566.41
393.91	543.00
394.10	533.64
394.29	566.41
394.49	491.51
394.68	617.90
394.88	538.32
395.07	653.01
395.26	629.60
395.46	669.39
395.65	683.44
395.84	587.47
396.04	671.73
396.23	641.31
396.42	683.44
396.62	650.67
396.81	720.88
397.00	634.29
397.19	645.99
397.39	641.31
397.58	699.82
397.77	615.56
397.97	695.14
398.16	650.67
398.35	777.06
398.55	702.16
398.74	671.73
398.93	702.16
399.12	699.82
399.32	692.80
399.51	706.84
399.70	725.57
399.90	702.16
400.09	727.91
400.28	739.61
400.47	819.19
400.67	681.10
400.86	737.27
401.05	765.36
401.24	835.57
401.44	793.44
401.63	823.87
401.82	753.65
402.01	844.93
402.21	802.80
402.40	854.30
402.59	823.87
402.78	858.98
402.97	910.47
403.17	880.04
403.36	919.83
403.55	866.00
403.74	858.98
403.93	866.00
404.13	884.72
404.32	896.43
404.51	830.89
404.70	891.74
404.89	889.40
405.09	950.26
405.28	926.85
405.47	891.74
405.66	1001.75
405.85	957.28
406.05	1018.13
406.24	947.92
406.43	987.71
406.62	1004.09
406.81	1090.69
407.00	947.92
407.20	1025.15
407.39	999.41
407.58	1086.01
407.77	997.07
407.96	1008.77
408.15	1125.80
408.34	1053.24
408.54	1144.52
408.73	1093.03
408.92	1116.44
409.11	1205.38
409.30	1088.35
409.49	1088.35
409.68	1188.99
409.87	1116.44
410.07	1149.20
410.26	1137.50
410.45	1109.41
410.64	1170.27
410.83	1186.65
411.02	1221.76
411.21	1184.31
411.40	1231.12
411.59	1254.53
411.78	1193.67
411.98	1270.91
412.17	1320.06
412.36	1240.48
412.55	1376.24
412.74	1352.83
412.93	1350.49
413.12	1212.40
413.31	1366.87
413.50	1362.19
413.69	1385.60
413.88	1465.18
414.07	1509.65
414.26	1458.15
414.45	1371.55
414.64	1420.71
414.83	1472.20
415.02	1483.90
415.22	1540.07
415.41	1523.69
415.60	1528.37
415.79	1551.78
415.98	1575.18
416.17	1542.41
416.36	1502.62
416.55	1600.93
416.74	1607.95
416.93	1596.25
417.12	1572.84
417.31	1776.47
417.50	1645.40
417.69	1729.66
417.88	1671.14
418.07	1724.97
418.26	1764.76
418.45	1689.87
418.64	1881.79
418.83	1811.57
419.02	1727.32
419.21	1809.23
419.39	1809.23
419.58	1856.04
419.77	1753.06
419.96	1849.02
420.15	1867.75
420.34	1863.07
420.53	1961.37
420.72	1937.96
420.91	1905.20
421.10	1909.88
421.29	1961.37
421.48	1902.86
421.67	1937.96
421.86	1886.47
422.05	1977.75
422.24	1954.35
422.43	1933.28
422.61	1980.09
422.80	2003.50
422.99	1987.11
423.18	2062.01
423.37	2050.31
423.56	2031.58
423.75	1952.01
423.94	2139.25
424.13	1893.49
424.32	1914.56
424.50	1942.64
424.69	2050.31
424.88	2146.27
425.07	1989.46
425.26	1987.11
425.45	1989.46
425.64	2113.50
425.83	2033.93
426.01	2045.63
426.20	2118.18
426.39	2033.93
426.58	1998.82
426.77	2076.06
426.96	2094.78
427.15	2106.48
427.33	2181.38
427.52	2064.35
427.71	2169.68
427.90	2174.36
428.09	2127.55
428.28	2125.21
428.46	2104.14
428.65	2190.74
428.84	2258.62
429.03	2190.74
429.22	2174.36
429.40	2221.17
429.59	2296.07
429.78	2127.55
429.97	2172.02
430.16	2071.37
430.34	2183.72
430.53	2359.26
430.72	2333.51
430.91	2160.31
431.10	2380.32
431.28	2375.64
431.47	2279.68
431.66	2326.49
431.85	2275.00
432.03	2375.64
432.22	2394.37
432.41	2410.75
432.60	2352.24
432.79	2471.61
432.97	2396.71
433.16	2466.92
433.35	2399.05
433.54	2527.78
433.72	2565.23
433.91	2455.22
434.10	2511.39
434.28	2478.63
434.47	2459.90
434.66	2534.80
434.85	2682.25
435.03	2434.16
435.22	2541.82
435.41	2717.36
435.59	2712.68
435.78	2619.06
435.97	2614.38
436.16	2773.53
436.34	2651.83
436.53	2637.78
436.72	2682.25
436.90	2633.10
437.09	2773.53
437.28	2623.74
437.46	2700.98
437.65	2703.32
437.84	2729.06
438.02	2654.17
438.21	2768.85
438.40	2684.59
438.58	2778.22
438.77	2787.58
438.96	2881.20
439.14	2939.71
439.33	2918.65
439.52	2939.71
439.70	2895.24
439.89	3061.42
440.08	3117.59
440.26	2958.44
440.45	3049.72
440.63	3119.93
440.82	3038.02
441.01	3056.74
441.19	3089.51
441.38	3201.85
441.57	3166.74
441.75	3332.92
441.94	3148.02
442.12	3279.09
442.31	3302.50
442.50	3314.20
442.68	3178.45
442.87	3386.76
443.05	3382.07
443.24	3424.20
443.43	3295.47
443.61	3382.07
443.80	3447.61
443.98	3279.09
444.17	3255.69
444.35	3461.65
444.54	3524.85
444.73	3550.59
444.91	3417.18
445.10	3316.54
445.28	3304.84
445.47	3358.67
445.65	3400.80
445.84	3424.20
446.02	3421.86
446.21	3454.63
446.39	3466.33
446.58	3531.87
446.77	3503.78
446.95	3442.93
447.14	3325.90
447.32	3452.29
447.51	3562.30
447.69	3421.86
447.88	3548.25
448.06	3550.59
448.25	3541.23
448.43	3480.38
448.62	3655.92
448.80	3517.83
448.99	3442.93
449.17	3543.57
449.36	3421.86
449.54	3693.37
449.73	3606.77
449.91	3676.98
450.10	3691.02
450.28	3686.34
450.46	3672.30
450.65	3648.90
450.83	3688.68
451.02	3616.13
451.20	3728.47
451.39	3822.09
451.57	3723.79
451.76	3927.42
451.94	3733.15
452.13	3868.91
452.31	3808.05
452.49	3775.28
452.68	3728.47
452.86	3655.92
453.05	3915.72
453.23	3988.27
453.42	3847.84
453.60	3857.20
453.78	3976.57
453.97	3812.73
454.15	3833.80
454.34	3859.54
454.52	4065.51
454.70	3974.23
454.89	3964.87
455.07	3943.80
455.26	3981.25
455.44	4056.15
455.62	3932.10
455.81	4070.19
455.99	4014.02
456.17	3990.61
456.36	4004.66
456.54	4147.43
456.73	4194.24
456.91	4208.28
457.09	4219.99
457.28	4339.35
457.46	4189.56
457.64	4374.46
457.83	4346.37
458.01	4227.01
458.19	4372.12
458.38	4180.20
458.56	4416.59
458.74	4428.29
458.93	4341.69
459.11	4369.78
459.29	4390.84
459.48	4451.70
459.66	4489.15
459.84	4514.89
460.03	4557.02
460.21	4582.77
460.39	4524.26
460.57	4638.94
460.76	4528.94
460.94	4461.06
461.12	4592.13
461.31	4559.36
461.49	4545.32
461.67	4519.57
461.85	4706.82
462.04	4648.30
462.22	4681.07
462.40	4655.33
462.59	4652.98
462.77	4681.07
462.95	4620.22
463.13	4770.01
463.32	4643.62
463.50	4755.97
463.68	4863.63
463.86	4709.16
464.05	4699.80
464.23	4821.50
464.41	4901.08
464.59	4664.69
464.78	4896.40
464.96	4732.56
465.14	4781.71
465.32	4826.18
465.50	4873.00
465.69	5018.11
465.87	4826.18
466.05	5006.41
466.23	4924.49
466.41	4987.68
466.60	5123.43
466.78	4812.14
466.96	5048.54
467.14	4964.28
467.32	4980.66
467.51	5053.22
467.69	4840.23
467.87	5057.90
468.05	5130.45
468.23	5064.92
468.41	4929.17
468.60	5195.99
468.78	5172.58
468.96	5006.41
469.14	5114.07
469.32	5221.74
469.50	5217.05
469.69	5320.04
469.87	5380.89
470.05	5441.75
470.23	5245.14
470.41	5277.91
470.59	5504.94
470.77	5366.85
470.95	5530.69
471.14	5579.84
471.32	5338.76
471.50	5528.35
471.68	5617.29
471.86	5528.35
472.04	5624.31
472.22	5579.84
472.40	5579.84
472.58	5701.54
472.77	5708.57
472.95	5916.87
473.13	5799.85
473.31	5654.73
473.49	5870.06
473.67	5874.74
473.85	5755.38
474.03	5935.60
474.21	5956.66
474.39	6045.60
474.57	6010.50
474.75	6202.42
474.93	6193.06
475.12	6171.99
475.30	6218.80
475.48	5961.34
475.66	6204.76
475.84	6162.63
476.02	6256.25
476.20	6326.47
476.38	6317.11
476.56	6558.18
476.74	6455.20
476.92	6441.15
477.10	6485.62
477.28	6565.20
477.46	6492.65
477.64	6567.54
477.82	6862.45
478.00	7012.24
478.18	6958.41
478.36	6888.20
478.54	7030.97
478.72	6986.50
478.90	6899.90
479.08	7103.53
479.26	7033.31
479.44	7176.08
479.62	7030.97
479.80	7379.71
479.98	7274.38
480.16	7459.29
480.34	7267.36
480.52	7552.91
480.70	7676.96
480.88	7632.49
481.06	7618.44
481.24	7513.12
481.41	7789.30
481.59	7786.96
481.77	8093.57
481.95	8093.57
482.13	8102.93
482.31	7850.16
482.49	8224.64
482.67	8224.64
482.85	8259.75
483.03	8280.82
483.21	8573.38
483.39	8645.94
483.57	8376.78
483.74	8671.68
483.92	8596.79
484.10	8592.11
484.28	8695.09
484.46	8964.25
484.64	8933.82
484.82	8882.33
485.00	9008.72
485.18	9149.15
485.35	9315.33
485.53	9355.12
485.71	9317.67
485.89	9483.85
486.07	9537.68
486.25	9373.85
486.43	9755.35
486.61	9745.99
486.78	9848.97
486.96	10015.15
487.14	10038.56
487.32	9898.13
487.50	9956.64
487.68	9975.36
487.85	10335.81
488.03	10387.30
488.21	10406.02
488.39	10359.21
488.57	10490.28
488.75	10691.57
488.92	10775.83
489.10	10576.88
489.28	10813.28
489.46	10944.34
489.64	10890.51
489.81	11309.47
489.99	10904.56
490.17	11293.08
490.35	11304.79
490.53	11417.13
490.70	11573.95
490.88	11648.85
491.06	11592.67
491.24	11522.46
491.41	11805.66
491.59	11903.96
491.77	12002.27
491.95	11969.50
492.13	12189.51
492.30	12084.19
492.48	12219.94
492.66	12231.64
492.84	12442.29
493.01	12285.47
493.19	12238.66
493.37	12676.34
493.54	12683.36
493.72	12601.44
493.90	12769.96
494.08	12704.43
494.25	12994.65
494.43	13004.02
494.61	13221.69
494.79	13074.23
494.96	13011.04
495.14	13163.17
495.32	13778.73
495.49	13488.51
495.67	13308.29
495.85	13722.56
496.02	13694.47
496.20	13568.09
496.38	13914.48
496.55	13778.73
496.73	13919.17
496.91	14066.62
497.09	13937.89
497.26	14235.14
497.44	14129.81
497.62	14270.25
497.79	14455.15
497.97	14256.20
498.14	14609.62
498.32	14537.07
498.50	14759.42
498.67	15459.24
498.85	15019.22
499.03	14728.99
499.20	14827.29
499.38	14855.38
499.56	15073.05
499.73	15101.14
499.91	15138.58
500.08	15468.60
500.26	15176.03
500.44	15183.06
500.61	15386.68
500.79	15101.14
500.97	15496.69
501.14	15707.34
501.32	15639.46
501.49	15805.64
501.67	15438.17
501.84	15599.67
502.02	15686.27
502.20	16009.26
502.37	16058.42
502.55	16004.58
502.72	16119.27
502.90	16215.23
503.07	15985.86
503.25	16208.21
503.43	16154.38
503.60	16215.23
503.78	16456.31
503.95	16563.97
504.13	16468.01
504.30	16573.33
504.48	16226.93
504.65	16624.83
504.83	16903.35
505.01	16786.32
505.18	16863.56
505.36	16826.11
505.53	16870.58
505.71	16535.88
505.88	16964.20
506.06	16835.47
506.23	17048.46
506.41	17046.12
506.58	17053.14
506.76	17383.16
506.93	17111.66
507.11	17186.55
507.28	17261.45
507.46	17263.79
507.63	17308.26
507.81	17572.74
507.98	17610.19
508.16	17928.50
508.33	17649.98
508.50	17596.15
508.68	17642.96
508.85	18099.36
509.03	17664.02
509.20	18061.91
509.38	18377.89
509.55	18256.18
509.73	18001.06
509.90	18387.25
510.08	18270.22
510.25	18298.31
510.42	18253.84
510.60	18480.87
510.77	18689.18
510.95	18459.81
511.12	18534.70
511.30	18677.48
511.47	18471.51
511.64	18822.59
511.82	18888.12
511.99	18883.44
512.17	18813.23
512.34	18897.49
512.51	18850.67
512.69	19082.39
512.86	19396.02
513.04	19077.71
513.21	19262.61
513.38	19295.38
513.56	19012.17
513.73	18845.99
513.90	19389.00
514.08	19145.58
514.25	19349.21
514.43	19374.95
514.60	19515.39
514.77	19604.33
514.95	20044.35
515.12	19609.01
515.29	19379.64
515.47	19899.23
515.64	19726.04
515.81	19857.10
515.99	19955.41
516.16	20013.92
516.33	20210.53
516.51	20357.98
516.68	19728.38
516.85	20088.82
517.03	20255.00
517.20	20065.41
517.37	20435.22
517.54	20704.38
517.72	20423.51
517.89	20322.87
518.06	20290.10
518.24	20531.18
518.41	20470.33
518.58	20491.39
518.75	20664.59
518.93	20695.02
519.10	20512.46
519.27	20636.50
519.45	20678.63
519.62	20968.86
519.79	20800.34
519.96	20872.90
520.14	20823.75
520.31	20912.69
520.48	21177.17
520.65	21181.85
520.83	21046.10
521.00	21338.66
521.17	21135.04
521.34	21343.35
521.52	21259.09
521.69	21071.84
521.86	21556.33
522.03	21322.28
522.20	21329.30
522.38	21680.38
522.55	21589.10
522.72	21425.26
522.89	21696.77
523.07	21977.63
523.24	21743.58
523.41	22057.21
523.58	21626.55
523.75	21954.22
523.92	21729.53
524.10	21839.54
524.27	21855.92
524.44	22345.09
524.61	22317.01
524.78	22045.51
524.96	22010.40
525.13	22057.21
525.30	22462.12
525.47	22366.16
525.64	22129.77
525.81	22651.70
525.98	22522.98
526.16	22527.66
526.33	22913.84
526.50	22305.31
526.67	22948.95
526.84	22548.72
527.01	22579.15
527.18	22714.90
527.36	22899.80
527.53	22794.48
527.70	23080.02
527.87	23019.17
528.04	23096.41
528.21	23012.15
528.38	22930.23
528.55	23030.87
528.72	23227.48
528.89	23335.14
529.07	23033.21
529.24	23140.88
529.41	23061.30
529.58	23091.73
529.75	22925.55
529.92	23194.71
530.09	23180.67
530.26	23339.82
530.43	23234.50
530.60	23632.39
530.77	23372.59
530.94	23534.09
531.11	23548.13
531.28	23419.40
531.46	23468.55
531.63	23711.97
531.80	23859.42
531.97	23784.52
532.14	24114.54
532.31	23571.54
532.48	23922.62
532.65	23690.90
532.82	23716.65
532.99	23953.04
533.16	23779.84
533.33	24229.23
533.50	24140.29
533.67	24222.20
533.84	24224.54
534.01	24065.39
534.18	23850.06
534.35	24278.38
534.52	24203.48
534.69	24093.47
534.86	24376.68
535.03	24203.48
535.20	24446.90
535.37	24465.62
535.54	24456.26
535.71	24107.52
535.88	24154.33
536.05	24292.42
536.22	24753.51
536.38	24809.68
536.55	24702.01
536.72	24805.00
536.89	24938.41
537.06	24706.70
537.23	24716.06
537.40	24727.76
537.57	24884.58
537.74	24849.47
537.91	24996.92
538.08	25284.81
538.25	24931.39
538.42	25039.05
538.59	25071.82
538.75	24746.48
538.92	25050.75
539.09	25025.01
539.26	25345.66
539.43	25158.42
539.60	25326.94
539.77	25455.67
539.94	25399.49
540.11	25394.81
540.28	25029.69
540.44	25144.38
540.61	25380.77
540.78	25411.20
540.95	25296.51
541.12	25441.62
541.29	25682.70
541.46	25326.94
541.62	25362.04
541.79	25364.39
541.96	25193.53
542.13	25193.53
542.30	25322.26
542.47	26143.78
542.63	25795.04
542.80	26209.32
542.97	25991.65
543.14	25986.97
543.31	25982.29
543.48	25965.90
543.64	25930.80
543.81	26120.38
543.98	26494.86
544.15	26314.64
544.32	26321.66
544.48	26466.78
544.65	26267.83
544.82	26244.43
544.99	26043.14
545.16	26483.16
545.32	26211.66
545.49	26712.53
545.66	26368.48
545.83	26670.40
546.00	26672.74
546.16	26441.03
546.33	26466.78
546.50	26061.87
546.67	26410.60
546.83	26185.91
547.00	26572.10
547.17	26654.02
547.34	26541.68
547.50	26953.61
547.67	27377.25
547.84	26235.06
548.00	26684.45
548.17	26906.80
548.34	26764.03
548.51	27016.80
548.67	27344.48
548.84	27084.68
549.01	27070.64
549.18	27112.77
549.34	26405.92
549.51	26721.90
549.68	27145.53
549.84	26757.00
550.01	27192.34
550.18	26892.76
550.34	27136.17
550.51	27278.94
550.68	27257.88
550.84	27103.40
551.01	27332.78
551.18	27288.31
551.34	27016.80
551.51	27285.97
551.68	27016.80
551.84	27637.05
552.01	27360.86
552.18	27344.48
552.34	27103.40
552.51	27627.68
552.68	27449.80
552.84	27321.07
553.01	27658.11
553.18	27288.31
553.34	27660.45
553.51	27782.16
553.67	27358.52
553.84	27786.84
554.01	27627.68
554.17	27796.20
554.34	27578.53
554.51	27594.92
554.67	27768.12
554.84	27751.73
555.00	27658.11
555.17	27847.69
555.33	28086.43
555.50	27929.61
555.67	27969.40
555.83	27831.31
556.00	27929.61
556.16	28147.28
556.33	27868.76
556.50	27733.01
556.66	27845.35
556.83	27751.73
556.99	28161.33
557.16	28388.36
557.32	28123.88
557.49	28507.72
557.65	28219.84
557.82	28063.02
557.98	27990.47
558.15	28278.35
558.32	28210.48
558.48	28238.56
558.65	28360.27
558.81	28217.50
558.98	28177.71
559.14	28329.84
559.31	27938.97
559.47	28479.64
559.64	28549.85
559.80	28540.49
559.97	28486.66
560.13	28322.82
560.30	28446.87
560.46	28280.69
560.63	28449.21
560.79	28610.71
560.96	28147.28
561.12	28709.01
561.29	28074.73
561.45	28767.52
561.61	28437.51
561.78	28861.15
561.94	28442.19
562.11	28638.80
562.27	28556.88
562.44	28554.54
562.60	28538.15
562.77	28512.41
562.93	28596.67
563.10	28432.83
563.26	28685.61
563.42	28575.60
563.59	28659.86
563.75	28903.28
563.92	28774.55
564.08	28634.11
564.24	28751.14
564.41	28449.21
564.57	28936.04
564.74	28987.53
564.90	28954.77
565.07	28870.51
565.23	28835.40
565.39	28940.72
565.56	28945.41
565.72	29043.71
565.88	28950.09
566.05	29113.92
566.21	28563.90
566.38	28898.59
566.54	28989.88
566.70	28484.32
566.87	29191.16
567.03	28776.89
567.19	29457.98
567.36	28730.08
567.52	28573.26
567.68	28842.42
567.85	29024.98
568.01	29039.03
568.17	28823.70
568.34	29212.23
568.50	28863.49
568.66	29015.62
568.83	29043.71
568.99	29003.92
569.15	29146.69
569.32	28804.97
569.48	28538.15
569.64	29202.86
569.81	29383.09
569.97	29078.82
570.13	29401.81
570.30	29436.92
570.46	29181.80
570.62	29130.31
570.78	28978.17
570.95	29132.65
571.11	28919.66
571.27	28914.98
571.43	29181.80
571.60	29432.24
571.76	28964.13
571.92	29195.84
572.09	29200.52
572.25	29420.53
572.41	28961.79
572.57	29015.62
572.74	29230.95
572.90	29383.09
573.06	29443.94
573.22	29170.10
573.38	29010.94
573.55	29198.18
573.71	29898.00
573.87	29429.90
574.03	29139.67
574.20	29567.99
574.36	29053.07
574.52	29252.02
574.68	29071.79
574.84	29212.23
575.01	29319.89
575.17	29113.92
575.33	29399.47
575.49	29057.75
575.65	29422.87
575.82	29345.64
575.98	29488.41
576.14	29455.64
576.30	29298.83
576.46	29053.07
576.62	29432.24
576.79	29465.00
576.95	29193.50
577.11	29448.62
577.27	29247.33
577.43	29816.08
577.59	29635.86
577.75	29558.63
577.92	29525.86
578.08	29310.53
578.24	29511.81
578.40	29387.77
578.56	29797.36
578.72	29350.32
578.88	29841.83
579.04	29668.63
579.21	29205.20
579.37	29462.66
579.53	29663.95
579.69	29088.18
579.85	29443.94
580.01	29404.15
580.17	29724.80
580.33	29340.96
580.49	29455.64
580.65	29380.74
580.82	29755.23
580.98	29549.26
581.14	29813.74
581.30	29586.71
581.46	29336.27
581.62	29743.53
581.78	29048.39
581.94	29729.48
582.10	29078.82
582.26	29649.91
582.42	29111.58
582.58	29834.81
582.74	29376.06
582.90	29401.81
583.06	29900.34
583.22	29237.97
583.38	29488.41
583.54	29710.76
583.70	29619.48
583.86	29406.49
584.02	29085.84
584.18	29535.22
584.34	29907.37
584.50	29479.05
584.66	29656.93
584.82	29273.08
584.98	29692.04
585.14	29575.01
585.30	29331.59
585.46	29392.45
585.62	29502.45
585.78	29656.93
585.94	29432.24
586.10	29465.00
586.26	29989.28
586.42	30029.07
586.58	29603.10
586.74	29947.15
586.90	29614.80
587.06	29404.15
587.22	29544.58
587.38	29268.40
587.54	29797.36
587.70	30251.42
587.86	29645.23
588.02	29579.69
588.18	29909.71
588.34	29862.90
588.49	29792.68
588.65	29750.55
588.81	29708.42
588.97	29439.26
589.13	29940.13
589.29	29638.20
589.45	29607.78
589.61	29453.30
589.77	30125.04
589.93	30036.09
590.08	30143.76
590.24	30122.69
590.40	30183.55
590.56	29710.76
590.72	29837.15
590.88	29722.46
591.04	30054.82
591.20	30438.67
591.35	30398.88
591.51	30300.58
591.67	29865.24
591.83	30403.56
591.99	30307.60
