SpectraSuite Data File
++++++++++++++++++++++++++++++++++++
Date: Fri Oct 18 13:57:58 GMT-05:00 2013
User: bianchi
Dark Spectrum Present: No
Reference Spectrum Present: No
Number of Sampled Component Spectra: 1
Spectrometers: USB2+H05261
Integration Time (usec): 50000 (USB2+H05261)
Spectra Averaged: 1 (USB2+H05261)
Boxcar Smoothing: 0 (USB2+H05261)
Correct for Electrical Dark: No (USB2+H05261)
Strobe/Lamp Enabled: No (USB2+H05261)
Correct for Detector Non-linearity: No (USB2+H05261)
Correct for Stray Light: No (USB2+H05261)
Number of Pixels in Processed Spectrum: 2048
>>>>>Begin Processed Spectral Data<<<<<
365.73	0.00
365.92	0.00
366.12	0.00
366.32	0.00
366.52	0.00
366.72	0.00
366.91	0.00
367.11	0.00
367.31	0.00
367.51	0.00
367.70	0.00
367.90	0.00
368.10	0.00
368.30	0.00
368.49	0.00
368.69	0.00
368.89	0.00
369.09	0.00
369.28	0.00
369.48	0.00
369.68	0.00
369.87	0.00
370.07	0.00
370.27	0.00
370.47	0.00
370.66	124.05
370.86	60.85
371.06	102.98
371.25	191.92
371.45	112.35
371.65	121.71
371.84	173.20
372.04	224.69
372.24	187.24
372.44	145.11
372.63	187.24
372.83	238.73
373.03	243.42
373.22	217.67
373.42	177.88
373.62	154.48
373.81	196.60
374.01	262.14
374.21	236.39
374.40	259.80
374.60	339.38
374.79	315.97
374.99	234.05
375.19	222.35
375.38	245.76
375.58	245.76
375.78	269.16
375.97	227.03
376.17	311.29
376.37	278.52
376.56	264.48
376.76	276.18
376.95	227.03
377.15	201.29
377.35	299.59
377.54	325.33
377.74	311.29
377.93	238.73
378.13	276.18
378.33	276.18
378.52	322.99
378.72	337.04
378.91	332.36
379.11	297.25
379.31	344.06
379.50	355.76
379.70	351.08
379.89	374.49
380.09	320.65
380.28	271.50
380.48	341.72
380.68	360.44
380.87	273.84
381.07	248.10
381.26	351.08
381.46	280.86
381.65	255.12
381.85	381.51
382.04	304.27
382.24	402.57
382.43	428.32
382.63	330.02
382.83	334.70
383.02	381.51
383.22	327.68
383.41	425.98
383.61	301.93
383.80	372.15
384.00	311.29
384.19	383.85
384.39	418.96
384.58	362.78
384.78	358.10
384.97	414.27
385.17	346.40
385.36	365.12
385.56	397.89
385.75	360.44
385.95	332.36
386.14	409.59
386.34	379.17
386.53	425.98
386.72	400.23
386.92	367.46
387.11	367.46
387.31	376.83
387.50	444.70
387.70	388.53
387.89	423.64
388.09	369.80
388.28	386.19
388.48	428.32
388.67	442.36
388.86	463.43
389.06	512.58
389.25	437.68
389.45	491.51
389.64	503.22
389.84	498.53
390.03	491.51
390.22	486.83
390.42	507.90
390.61	470.45
390.81	433.00
391.00	475.13
391.19	461.09
391.39	528.96
391.58	603.86
391.78	554.71
391.97	596.84
392.16	596.84
392.36	533.64
392.55	580.45
392.75	627.26
392.94	463.43
393.13	514.92
393.33	521.94
393.52	578.11
393.71	533.64
393.91	606.20
394.10	608.54
394.29	615.56
394.49	559.39
394.68	648.33
394.88	578.11
395.07	641.31
395.26	596.84
395.46	585.13
395.65	603.86
395.84	627.26
396.04	587.47
396.23	615.56
396.42	589.82
396.62	657.69
396.81	664.71
397.00	702.16
397.19	662.37
397.39	702.16
397.58	678.76
397.77	636.63
397.97	699.82
398.16	758.33
398.35	664.71
398.55	751.31
398.74	744.29
398.93	870.68
399.12	660.03
399.32	758.33
399.51	858.98
399.70	809.83
399.90	758.33
400.09	807.48
400.28	781.74
400.47	772.38
400.67	786.42
400.86	812.17
401.05	788.76
401.24	716.20
401.44	798.12
401.63	877.70
401.82	826.21
402.01	842.59
402.21	877.70
402.40	823.87
402.59	816.85
402.78	823.87
402.97	847.27
403.17	884.72
403.36	924.51
403.55	873.02
403.74	901.11
403.93	891.74
404.13	866.00
404.32	940.90
404.51	901.11
404.70	1069.62
404.89	891.74
405.09	1018.13
405.28	1001.75
405.47	994.73
405.66	1057.92
405.85	992.39
406.05	894.08
406.24	978.34
406.43	1048.56
406.62	1048.56
406.81	1100.05
407.00	1050.90
407.20	1057.92
407.39	1043.88
407.58	987.71
407.77	1071.97
407.96	1177.29
408.15	1095.37
408.34	1095.37
408.54	1018.13
408.73	1151.54
408.92	1135.16
409.11	1165.59
409.30	1235.80
409.49	1153.88
409.68	1214.74
409.87	1172.61
410.07	1221.76
410.26	1196.01
410.45	1219.42
410.64	1186.65
410.83	1170.27
411.02	1228.78
411.21	1287.29
411.40	1280.27
411.59	1308.36
411.78	1394.96
411.98	1247.51
412.17	1291.98
412.36	1331.76
412.55	1362.19
412.74	1315.38
412.93	1289.64
413.12	1306.02
413.31	1322.40
413.50	1350.49
413.69	1392.62
413.88	1441.77
414.07	1444.11
414.26	1537.73
414.45	1514.33
414.64	1490.92
414.83	1486.24
415.02	1507.30
415.22	1554.12
415.41	1647.74
415.60	1603.27
415.79	1638.38
415.98	1603.27
416.17	1514.33
416.36	1603.27
416.55	1680.50
416.74	1626.67
416.93	1706.25
417.12	1638.38
417.31	1710.93
417.50	1687.53
417.69	1767.10
417.88	1804.55
418.07	1722.63
418.26	1797.53
418.45	1809.23
418.64	1839.66
418.83	1689.87
419.02	1844.34
419.21	1895.83
419.39	1820.94
419.58	1923.92
419.77	1856.04
419.96	1788.17
420.15	1858.39
420.34	1900.52
420.53	1942.64
420.72	1977.75
420.91	1975.41
421.10	1970.73
421.29	1991.80
421.48	1907.54
421.67	1987.11
421.86	2043.29
422.05	2001.16
422.24	1975.41
422.43	1970.73
422.61	2031.58
422.80	2019.88
422.99	2019.88
423.18	2050.31
423.37	2010.52
423.56	2136.91
423.75	2094.78
423.94	1947.33
424.13	1912.22
424.32	1961.37
424.50	2047.97
424.69	2104.14
424.88	2076.06
425.07	2019.88
425.26	1956.69
425.45	2094.78
425.64	2069.03
425.83	2153.29
426.01	2195.42
426.20	2153.29
426.39	2024.56
426.58	2218.83
426.77	2050.31
426.96	2204.78
427.15	2134.57
427.33	2101.80
427.52	2200.10
427.71	2190.74
427.90	2202.44
428.09	2174.36
428.28	2172.02
428.46	2293.72
428.65	2275.00
428.84	2235.21
429.03	2249.25
429.22	2211.81
429.40	2270.32
429.59	2293.72
429.78	2141.59
429.97	2155.63
430.16	2293.72
430.34	2270.32
430.53	2314.79
430.72	2298.41
430.91	2270.32
431.10	2279.68
431.28	2342.88
431.47	2392.03
431.66	2511.39
431.85	2509.05
432.03	2574.59
432.22	2471.61
432.41	2459.90
432.60	2471.61
432.79	2502.03
432.97	2450.54
433.16	2462.24
433.35	2487.99
433.54	2464.58
433.72	2541.82
433.91	2609.70
434.10	2516.08
434.28	2525.44
434.47	2562.89
434.66	2630.76
434.85	2736.09
435.03	2635.44
435.22	2661.19
435.41	2801.62
435.59	2747.79
435.78	2644.81
435.97	2628.42
436.16	2743.11
436.34	2726.72
436.53	2813.32
436.72	2827.37
436.90	2705.66
437.09	2759.49
437.28	2696.30
437.46	2705.66
437.65	2698.64
437.84	2892.90
438.02	2850.77
438.21	2810.98
438.40	2920.99
438.58	2979.50
438.77	2897.58
438.96	2864.82
439.14	3045.04
439.33	2998.23
439.52	3035.67
439.70	2998.23
439.89	3073.12
440.08	3077.80
440.26	3068.44
440.45	3248.66
440.63	3162.06
440.82	3243.98
441.01	2981.84
441.19	3098.87
441.38	3307.18
441.57	3192.49
441.75	3384.41
441.94	3403.14
442.12	3389.10
442.31	3386.76
442.50	3384.41
442.68	3438.25
442.87	3452.29
443.05	3346.97
443.24	3478.04
443.43	3468.67
443.61	3543.57
443.80	3538.89
443.98	3534.21
444.17	3492.08
444.35	3400.80
444.54	3485.06
444.73	3428.88
444.91	3468.67
445.10	3487.40
445.28	3574.00
445.47	3492.08
445.65	3442.93
445.84	3651.24
446.02	3566.98
446.21	3459.31
446.39	3440.59
446.58	3665.28
446.77	3520.17
446.95	3485.06
447.14	3585.70
447.32	3674.64
447.51	3658.26
447.69	3543.57
447.88	3581.02
448.06	3609.11
448.25	3571.66
448.43	3679.32
448.62	3616.13
448.80	3625.49
448.99	3744.86
449.17	3691.02
449.36	3529.53
449.54	3742.52
449.73	3740.18
449.91	3847.84
450.10	3808.05
450.28	3829.12
450.46	3770.60
450.65	3857.20
450.83	3796.35
451.02	3754.22
451.20	3967.21
451.39	3871.25
451.57	3857.20
451.76	3817.41
451.94	3955.51
452.13	3981.25
452.31	3899.33
452.49	3714.43
452.68	3971.89
452.86	4084.23
453.05	3985.93
453.23	3985.93
453.42	3892.31
453.60	3880.61
453.78	4014.02
453.97	3929.76
454.15	4021.04
454.34	3974.23
454.52	4159.13
454.70	4145.09
454.89	4161.47
455.07	4124.02
455.26	4091.26
455.44	4271.48
455.62	4156.79
455.81	4189.56
455.99	4327.65
456.17	4320.63
456.36	4147.43
456.54	4266.80
456.73	4250.41
456.91	4386.16
457.09	4353.40
457.28	4400.21
457.46	4355.74
457.64	4517.23
457.83	4470.42
458.01	4358.08
458.19	4479.79
458.38	4381.48
458.56	4454.04
458.74	4512.55
458.93	4500.85
459.11	4603.83
459.29	4559.36
459.48	4519.57
459.66	4547.66
459.84	4641.28
460.03	4662.35
460.21	4830.87
460.39	4634.26
460.57	4697.46
460.76	4690.43
460.94	4833.21
461.12	4741.93
461.31	4770.01
461.49	4828.53
461.67	4741.93
461.85	4858.95
462.04	4961.94
462.22	5123.43
462.40	4929.17
462.59	4912.78
462.77	4887.04
462.95	4786.40
463.13	4854.27
463.32	4873.00
463.50	4943.21
463.68	4919.81
463.86	5048.54
464.05	5015.77
464.23	4971.30
464.41	4983.00
464.59	4840.23
464.78	5224.08
464.96	4964.28
465.14	4931.51
465.32	5139.82
465.50	5004.07
465.69	5057.90
465.87	4973.64
466.05	5015.77
466.23	5149.18
466.41	5146.84
466.60	5219.39
466.78	5158.54
466.96	5238.12
467.14	5224.08
467.32	5039.17
467.51	5373.87
467.69	5247.48
467.87	5224.08
468.05	5467.49
468.23	5179.61
468.41	5310.68
468.60	5427.70
468.78	5348.12
468.96	5451.11
469.14	5362.17
469.32	5376.21
469.50	5392.59
469.69	5465.15
469.87	5467.49
470.05	5640.69
470.23	5504.94
470.41	5521.32
470.59	5472.17
470.77	5486.22
470.95	5483.88
471.14	5682.82
471.32	5518.98
471.50	5818.57
471.68	5603.24
471.86	5647.71
472.04	5612.60
472.22	5987.09
472.40	5951.98
472.58	5778.78
472.77	5902.83
472.95	5877.09
473.13	6080.71
473.31	5781.12
473.49	5926.24
473.67	5867.72
473.85	6010.50
474.03	6143.91
474.21	6115.82
474.39	6218.80
474.57	6246.89
474.75	6164.97
474.93	6326.47
475.12	6270.30
475.30	6179.01
475.48	6368.60
475.66	6464.56
475.84	6434.13
476.02	6513.71
476.20	6497.33
476.38	6677.55
476.56	6764.15
476.74	6712.66
476.92	6686.91
477.10	6637.76
477.28	6848.41
477.46	6691.59
477.64	6764.15
477.82	6862.45
478.00	7197.15
478.18	7129.27
478.36	7192.47
478.54	7323.54
478.72	7323.54
478.90	7286.09
479.08	7258.00
479.26	7470.99
479.44	7330.56
479.62	7454.61
479.80	7655.89
479.98	7571.63
480.16	7887.61
480.34	7864.20
480.52	7770.58
480.70	7845.48
480.88	7681.64
481.06	7932.08
481.24	7885.26
481.41	8037.40
481.59	8203.58
481.77	8189.53
481.95	8325.29
482.13	8353.37
482.31	8283.16
482.49	8528.91
482.67	8568.70
482.85	8718.50
483.03	8657.64
483.21	8840.20
483.39	8826.16
483.57	8727.86
483.74	8835.52
483.92	9088.30
484.10	9036.81
484.28	8982.98
484.46	9207.67
484.64	9254.48
484.82	9217.03
485.00	9357.46
485.18	9521.30
485.35	9898.13
485.53	9635.99
485.71	9626.62
485.89	9863.02
486.07	9825.57
486.25	9795.14
486.43	9804.50
486.61	9769.40
486.78	9991.75
486.96	10073.67
487.14	10317.08
487.32	10415.38
487.50	10459.85
487.68	10494.96
487.85	10675.18
488.03	10574.54
488.21	10874.13
488.39	10839.02
488.57	10810.93
488.75	10789.87
488.92	11138.61
489.10	11370.32
489.28	11253.30
489.46	11531.82
489.64	11382.03
489.81	11492.03
489.99	11456.92
490.17	11393.73
490.35	11812.68
490.53	11831.41
490.70	12042.06
490.88	11894.60
491.06	12030.35
491.24	11978.86
491.41	12009.29
491.59	12276.11
491.77	12365.05
491.95	12409.52
492.13	12491.44
492.30	12819.11
492.48	12496.12
492.66	12552.29
492.84	12751.24
493.01	12908.05
493.19	12854.22
493.37	12992.31
493.54	12910.40
493.72	13217.01
493.90	13303.60
494.08	13441.70
494.25	13380.84
494.43	13493.19
494.61	13668.73
494.79	13635.96
494.96	13305.95
495.14	13699.16
495.32	14017.47
495.49	13727.24
495.67	13870.01
495.85	14221.10
496.02	14178.97
496.20	14239.82
496.38	14216.41
496.55	14312.38
496.73	14834.32
496.91	14326.42
497.09	14691.54
497.26	14881.13
497.44	14768.78
497.62	14703.25
497.79	15122.20
497.97	14839.00
498.14	15229.87
498.32	15403.07
498.50	15033.26
498.67	15246.25
498.85	15374.98
499.03	15279.02
499.20	15262.63
499.38	15447.54
499.56	15391.36
499.73	15566.90
499.91	15943.73
500.08	16163.74
500.26	15580.95
500.44	15768.19
500.61	16137.99
500.79	15887.56
500.97	16194.17
501.14	16072.46
501.32	16350.98
501.49	16180.12
501.67	16299.49
501.84	16360.34
502.02	16353.32
502.20	16231.62
502.37	16559.29
502.55	16594.40
502.72	16568.65
502.90	16922.07
503.07	16814.41
503.25	16727.81
503.43	16645.89
503.60	16702.06
503.78	17259.11
503.95	16798.02
504.13	16617.80
504.30	17200.60
504.48	17121.02
504.65	17357.41
504.83	17429.97
505.01	17514.23
505.18	17212.30
505.36	17804.46
505.53	17282.52
505.71	17420.61
505.88	17474.44
506.06	17628.92
506.23	17783.39
506.41	17617.21
506.58	17790.41
506.76	17757.64
506.93	18115.75
507.11	17809.14
507.28	17895.74
507.46	18033.83
507.63	18204.69
507.81	18497.25
507.98	18335.76
508.16	18263.20
508.33	18333.42
508.50	18525.34
508.68	18595.56
508.85	18677.48
509.03	18686.84
509.20	18441.08
509.38	18686.84
509.55	18867.06
509.73	19089.41
509.90	18705.56
510.08	18841.31
510.25	18595.56
510.42	18747.69
510.60	19201.76
510.77	19077.71
510.95	19236.86
511.12	19283.67
511.30	19056.64
511.47	19297.72
511.64	19779.87
511.82	19491.98
511.99	19585.60
512.17	19822.00
512.34	19442.83
512.51	19573.90
512.69	19749.44
512.86	19693.27
513.04	19754.12
513.21	19859.45
513.38	19770.51
513.56	19833.70
513.73	19915.62
513.90	20196.48
514.08	20283.08
514.25	20435.22
514.43	20273.72
514.60	20198.82
514.77	20292.44
514.95	20322.87
515.12	20205.84
515.29	20336.91
515.47	20606.08
515.64	20879.92
515.81	20568.63
515.99	20559.27
516.16	20886.94
516.33	20889.28
516.51	20905.66
516.68	20779.28
516.85	21097.59
517.03	20915.03
517.20	21060.14
517.37	21259.09
517.54	21193.55
517.72	21060.14
517.89	21333.98
518.06	20957.16
518.24	21280.15
518.41	21111.63
518.58	21055.46
518.75	21465.05
518.93	21666.34
519.10	21415.90
519.27	21621.87
519.45	21600.80
519.62	21692.08
519.79	21336.32
519.96	21348.03
520.14	21853.58
520.31	21731.87
520.48	22099.34
520.65	21795.07
520.83	21947.20
521.00	22094.66
521.17	21956.57
521.34	21951.88
521.52	22211.68
521.69	22192.96
521.86	22328.71
522.03	22515.95
522.20	22015.08
522.38	22654.05
522.55	22033.80
522.72	22087.64
522.89	22625.96
523.07	22785.12
523.24	22602.55
523.41	22452.76
523.58	22438.72
523.75	22923.21
523.92	22911.50
524.10	22967.68
524.27	22953.63
524.44	22944.27
524.61	23056.62
524.78	23410.04
524.96	23194.71
525.13	23213.43
525.30	23178.33
525.47	23122.15
525.64	23077.68
525.81	23297.69
525.98	23239.18
526.16	23386.63
526.33	23236.84
526.50	23349.18
526.67	23288.33
526.84	23515.36
527.01	23356.21
527.18	23641.75
527.36	23840.70
527.53	23344.50
527.70	23915.59
527.87	23887.51
528.04	23985.81
528.21	24086.45
528.38	23894.53
528.55	23995.17
528.72	23943.68
528.89	24144.97
529.07	24273.70
529.24	24119.22
529.41	24201.14
529.58	24226.89
529.75	24201.14
529.92	23875.80
530.09	24507.75
530.26	24325.19
530.43	24144.97
530.60	24166.03
530.77	24238.59
530.94	24573.28
531.11	24261.99
531.28	24449.24
531.46	24453.92
531.63	24613.07
531.80	24774.57
531.97	24404.77
532.14	24863.51
532.31	24404.77
532.48	24758.19
532.65	24694.99
532.82	24526.47
532.99	24861.17
533.16	24472.64
533.33	25039.05
533.50	25090.54
533.67	25259.06
533.84	24833.08
534.01	25120.97
534.18	24968.84
534.35	25486.09
534.52	25116.29
534.69	25233.32
534.86	25378.43
535.03	25579.71
535.20	25167.78
535.37	25399.49
535.54	25495.46
535.71	25448.64
535.88	25429.92
536.05	25741.21
536.22	25537.59
536.38	25790.36
536.55	25830.15
536.72	25465.03
536.89	25551.63
537.06	25813.77
537.23	26061.87
537.40	25640.57
537.57	25628.87
537.74	25771.64
537.91	25795.04
538.08	26199.96
538.25	25832.49
538.42	26073.57
538.59	26199.96
538.75	25799.73
538.92	25738.87
539.09	25996.33
539.26	25914.41
539.43	26473.80
539.60	26389.54
539.77	26279.54
539.94	26377.84
540.11	26092.29
540.28	26309.96
540.44	26178.89
540.61	26153.15
540.78	26139.10
540.95	26520.61
541.12	26464.44
541.29	26778.07
541.46	26476.14
541.62	26434.01
541.79	26567.42
541.96	26480.82
542.13	26569.76
542.30	26771.05
542.47	26778.07
542.63	26749.98
542.80	26726.58
542.97	27374.91
543.14	27194.68
543.31	27166.60
543.48	26771.05
543.64	27236.81
543.81	27321.07
543.98	27360.86
544.15	27124.47
544.32	27147.87
544.48	27290.65
544.65	27138.51
544.82	26911.48
544.99	26881.05
545.16	27283.62
545.32	27178.30
545.49	27793.86
545.66	27367.88
545.83	27625.34
546.00	27714.28
546.16	27281.28
546.33	27131.49
546.50	27468.53
546.67	27520.02
546.83	27168.94
547.00	27587.89
547.17	27473.21
547.34	27648.75
547.50	27583.21
547.67	27793.86
547.84	27969.40
548.00	27990.47
548.17	27847.69
548.34	28056.00
548.51	27920.25
548.67	28343.89
548.84	28217.50
549.01	27580.87
549.18	28023.23
549.34	28187.07
549.51	27812.59
549.68	27960.04
549.84	28041.96
550.01	28519.43
550.18	28456.23
550.34	28175.37
550.51	28329.84
550.68	28252.61
550.84	28077.07
551.01	28306.44
551.18	28217.50
551.34	28163.67
551.51	28222.18
551.68	28503.04
551.84	28737.10
552.01	28079.41
552.18	28559.22
552.34	28313.46
552.51	28811.99
552.68	28496.02
552.84	28973.49
553.01	28503.04
553.18	28465.60
553.34	28716.03
553.51	28439.85
553.67	28790.93
553.84	29029.66
554.01	29088.18
554.17	28802.63
554.34	28786.25
554.51	28987.53
554.67	28882.21
554.84	29186.48
555.00	29104.56
555.17	29067.11
555.33	29060.09
555.50	28795.61
555.67	28851.78
555.83	29422.87
556.00	28760.50
556.16	29312.87
556.33	29287.12
556.50	28905.62
556.66	29242.65
556.83	29095.20
556.99	29472.03
557.16	29376.06
557.32	29291.80
557.49	29340.96
557.65	29244.99
557.82	29219.25
557.98	29074.13
558.15	28992.22
558.32	29266.06
558.48	29244.99
558.65	29509.47
558.81	29310.53
558.98	29392.45
559.14	29563.31
559.31	29287.12
559.47	29476.71
559.64	29273.08
559.80	29514.16
559.97	29883.96
560.13	29322.23
560.30	29544.58
560.46	29804.38
560.63	29612.46
560.79	29476.71
560.96	29759.91
561.12	29383.09
561.29	29579.69
561.45	29668.63
561.61	29619.48
561.78	29443.94
561.94	29596.07
562.11	29467.34
562.27	29795.02
562.44	29933.11
562.60	29598.41
562.77	29626.50
562.93	29727.14
563.10	29956.52
563.26	29727.14
563.42	29834.81
563.59	29865.24
563.75	29876.94
563.92	29876.94
564.08	29890.98
564.24	29453.30
564.41	29851.19
564.57	30038.44
564.74	30052.48
564.90	29900.34
565.07	30143.76
565.23	30085.25
565.39	30099.29
565.56	30284.19
565.72	29883.96
565.88	30043.12
566.05	30148.44
566.21	30017.37
566.38	30118.01
566.54	29900.34
566.70	30169.51
566.87	30277.17
567.03	30033.75
567.19	30822.51
567.36	30546.33
567.52	30445.69
567.68	30387.18
567.85	30141.42
568.01	30225.68
568.17	29862.90
568.34	30426.96
568.50	30206.95
568.66	29937.79
568.83	30527.61
568.99	30408.24
569.15	30213.98
569.32	30391.86
569.48	30106.31
569.64	30225.68
569.81	30663.36
569.97	30469.09
570.13	30656.34
570.30	30178.87
570.46	30433.99
570.62	30101.63
570.78	30396.54
570.95	30141.42
571.11	30309.94
571.27	30211.64
571.43	30298.23
571.60	30764.00
571.76	30661.02
571.92	30375.47
572.09	30033.75
572.25	30361.43
572.41	30733.57
572.57	30632.93
572.74	30817.83
572.90	30054.82
573.06	30382.49
573.22	30279.51
573.38	30534.63
573.55	30216.32
573.71	30759.32
573.87	30480.80
574.03	30242.06
574.20	30792.09
574.36	30485.48
574.52	30230.36
574.68	30703.15
574.84	30347.39
575.01	30455.05
575.17	30817.83
575.33	30265.47
575.49	30799.11
575.65	30646.97
575.82	30859.96
575.98	30441.01
576.14	30600.16
576.30	30895.07
576.46	30810.81
576.62	30658.68
576.79	31103.38
576.95	30771.02
577.11	30806.13
577.27	30740.60
577.43	31194.66
577.59	31005.08
577.75	30871.67
577.92	30553.35
578.08	30394.20
578.24	30452.71
578.40	30930.18
578.56	30574.42
578.72	30813.15
578.88	30815.49
579.04	30962.95
579.21	30569.74
579.37	31173.60
579.53	30696.13
579.69	30621.23
579.85	30223.34
580.01	30309.94
580.17	30286.53
580.33	30925.50
580.49	30930.18
580.65	30890.39
580.82	30995.71
580.98	30986.35
581.14	30419.94
581.30	30871.67
581.46	30740.60
581.62	30845.92
581.78	30579.10
581.94	30621.23
582.10	30497.18
582.26	30618.89
582.42	30904.43
582.58	30883.37
582.74	30724.21
582.90	30831.88
583.06	30824.86
583.22	30637.61
583.38	30621.23
583.54	30635.27
583.70	30831.88
583.86	31129.12
584.02	30429.30
584.18	31002.74
584.34	31047.21
584.50	31087.00
584.66	31096.36
584.82	30553.35
584.98	30951.24
585.14	30492.50
585.30	30382.49
585.46	30817.83
585.62	30932.52
585.78	30639.95
585.94	30754.64
586.10	30775.70
586.26	30892.73
586.42	31143.17
586.58	31466.16
586.74	30897.41
586.90	30836.56
587.06	30731.23
587.22	30646.97
587.38	30792.09
587.54	31044.87
587.70	30965.29
587.86	31136.15
588.02	31002.74
588.18	31290.62
588.34	30820.17
588.49	30874.01
588.65	30684.42
588.81	30754.64
588.97	31084.65
589.13	30859.96
589.29	31260.20
589.45	30925.50
589.61	31304.67
589.77	31239.13
589.93	31618.30
590.08	31442.76
590.24	31697.88
590.40	31447.44
590.56	31243.81
590.72	31236.79
590.88	30635.27
591.04	30946.56
591.20	31543.40
591.35	31358.50
591.51	31253.17
591.67	31255.51
591.83	31463.82
