SpectraSuite Data File
++++++++++++++++++++++++++++++++++++
Date: Fri Oct 18 13:57:54 GMT-05:00 2013
User: bianchi
Dark Spectrum Present: No
Reference Spectrum Present: No
Number of Sampled Component Spectra: 1
Spectrometers: USB2+H05261
Integration Time (usec): 50000 (USB2+H05261)
Spectra Averaged: 1 (USB2+H05261)
Boxcar Smoothing: 0 (USB2+H05261)
Correct for Electrical Dark: No (USB2+H05261)
Strobe/Lamp Enabled: No (USB2+H05261)
Correct for Detector Non-linearity: No (USB2+H05261)
Correct for Stray Light: No (USB2+H05261)
Number of Pixels in Processed Spectrum: 2048
>>>>>Begin Processed Spectral Data<<<<<
365.73	0.00
365.92	0.00
366.12	0.00
366.32	0.00
366.52	0.00
366.72	0.00
366.91	0.00
367.11	0.00
367.31	0.00
367.51	0.00
367.70	0.00
367.90	0.00
368.10	0.00
368.30	0.00
368.49	0.00
368.69	0.00
368.89	0.00
369.09	0.00
369.28	0.00
369.48	0.00
369.68	0.00
369.87	0.00
370.07	0.00
370.27	0.00
370.47	0.00
370.66	100.64
370.86	124.05
371.06	142.77
371.25	184.90
371.45	191.92
371.65	140.43
371.84	184.90
372.04	217.67
372.24	131.07
372.44	184.90
372.63	234.05
372.83	177.88
373.03	243.42
373.22	205.97
373.42	203.63
373.62	231.71
373.81	231.71
374.01	308.95
374.21	245.76
374.40	252.78
374.60	297.25
374.79	257.46
374.99	184.90
375.19	264.48
375.38	182.56
375.58	280.86
375.78	280.86
375.97	259.80
376.17	252.78
376.37	273.84
376.56	262.14
376.76	198.95
376.95	259.80
377.15	322.99
377.35	292.57
377.54	327.68
377.74	292.57
377.93	306.61
378.13	308.95
378.33	351.08
378.52	297.25
378.72	252.78
378.91	322.99
379.11	259.80
379.31	351.08
379.50	322.99
379.70	269.16
379.89	276.18
380.09	306.61
380.28	332.36
380.48	283.20
380.68	290.23
380.87	318.31
381.07	346.40
381.26	294.91
381.46	367.46
381.65	362.78
381.85	248.10
382.04	269.16
382.24	358.10
382.43	344.06
382.63	351.08
382.83	348.74
383.02	374.49
383.22	430.66
383.41	360.44
383.61	362.78
383.80	358.10
384.00	447.04
384.19	433.00
384.39	433.00
384.58	341.72
384.78	369.80
384.97	421.30
385.17	369.80
385.36	381.51
385.56	440.02
385.75	390.87
385.95	358.10
386.14	379.17
386.34	379.17
386.53	472.79
386.72	414.27
386.92	470.45
387.11	458.74
387.31	470.45
387.50	463.43
387.70	421.30
387.89	470.45
388.09	500.87
388.28	407.25
388.48	425.98
388.67	456.40
388.86	430.66
389.06	505.56
389.25	489.17
389.45	540.66
389.64	475.13
389.84	566.41
390.03	449.38
390.22	575.77
390.42	404.91
390.61	500.87
390.81	510.24
391.00	493.85
391.19	496.19
391.39	514.92
391.58	547.69
391.78	514.92
391.97	533.64
392.16	486.83
392.36	610.88
392.55	512.58
392.75	526.62
392.94	554.71
393.13	554.71
393.33	585.13
393.52	568.75
393.71	573.43
393.91	681.10
394.10	615.56
394.29	606.20
394.49	585.13
394.68	575.77
394.88	627.26
395.07	655.35
395.26	641.31
395.46	606.20
395.65	683.44
395.84	711.52
396.04	723.23
396.23	678.76
396.42	655.35
396.62	706.84
396.81	667.05
397.00	596.84
397.19	683.44
397.39	695.14
397.58	765.36
397.77	702.16
397.97	737.27
398.16	650.67
398.35	688.12
398.55	681.10
398.74	826.21
398.93	725.57
399.12	702.16
399.32	767.70
399.51	755.99
399.70	887.06
399.90	763.01
400.09	816.85
400.28	737.27
400.47	861.32
400.67	805.14
400.86	858.98
401.05	802.80
401.24	823.87
401.44	809.83
401.63	819.19
401.82	887.06
402.01	795.78
402.21	891.74
402.40	938.55
402.59	809.83
402.78	924.51
402.97	854.30
403.17	933.87
403.36	898.77
403.55	882.38
403.74	894.08
403.93	936.21
404.13	961.96
404.32	936.21
404.51	861.32
404.70	971.32
404.89	943.24
405.09	1020.47
405.28	910.47
405.47	973.66
405.66	1015.79
405.85	964.30
406.05	1032.18
406.24	1055.58
406.43	1039.20
406.62	1067.28
406.81	1039.20
407.00	1041.54
407.20	1022.81
407.39	1128.14
407.58	1132.82
407.77	1032.18
407.96	1076.65
408.15	1156.22
408.34	1064.94
408.54	1111.75
408.73	1088.35
408.92	1097.71
409.11	1093.03
409.30	1167.93
409.49	1128.14
409.68	1221.76
409.87	1179.63
410.07	1249.85
410.26	1254.53
410.45	1268.57
410.64	1123.46
410.83	1184.31
411.02	1348.15
411.21	1324.74
411.40	1329.42
411.59	1226.44
411.78	1296.66
411.98	1247.51
412.17	1369.21
412.36	1329.42
412.55	1245.16
412.74	1451.13
412.93	1373.89
413.12	1329.42
413.31	1446.45
413.50	1451.13
413.69	1418.36
413.88	1533.05
414.07	1455.81
414.26	1502.62
414.45	1535.39
414.64	1476.88
414.83	1493.26
415.02	1558.80
415.22	1535.39
415.41	1633.69
415.60	1549.43
415.79	1568.16
415.98	1614.97
416.17	1607.95
416.36	1643.06
416.55	1598.59
416.74	1788.17
416.93	1774.13
417.12	1776.47
417.31	1633.69
417.50	1736.68
417.69	1790.51
417.88	1783.49
418.07	1771.79
418.26	1788.17
418.45	1891.15
418.64	1956.69
418.83	1816.26
419.02	1802.21
419.21	1919.24
419.39	1804.55
419.58	1825.62
419.77	1858.39
419.96	1811.57
420.15	1902.86
420.34	1926.26
420.53	2026.90
420.72	1961.37
420.91	1968.39
421.10	2059.67
421.29	2122.87
421.48	1952.01
421.67	2148.61
421.86	2104.14
422.05	2148.61
422.24	1949.67
422.43	2059.67
422.61	1991.80
422.80	2050.31
422.99	2064.35
423.18	2097.12
423.37	2083.08
423.56	2125.21
423.75	2087.76
423.94	2008.18
424.13	1961.37
424.32	2008.18
424.50	2125.21
424.69	2008.18
424.88	2155.63
425.07	2097.12
425.26	2033.93
425.45	2047.97
425.64	2026.90
425.83	2080.74
426.01	2057.33
426.20	2094.78
426.39	2211.81
426.58	2127.55
426.77	2017.54
426.96	2279.68
427.15	2181.38
427.33	2265.64
427.52	2157.97
427.71	2188.40
427.90	2307.77
428.09	2097.12
428.28	2298.41
428.46	2321.81
428.65	2305.43
428.84	2455.22
429.03	2314.79
429.22	2200.10
429.40	2286.70
429.59	2310.11
429.78	2249.25
429.97	2225.85
430.16	2253.94
430.34	2394.37
430.53	2401.39
430.72	2434.16
430.91	2387.35
431.10	2389.69
431.28	2427.14
431.47	2387.35
431.66	2448.20
431.85	2420.11
432.03	2539.48
432.22	2607.36
432.41	2532.46
432.60	2663.53
432.79	2431.82
432.97	2455.22
433.16	2459.90
433.35	2476.29
433.54	2619.06
433.72	2520.76
433.91	2614.38
434.10	2516.08
434.28	2602.68
434.47	2558.21
434.66	2588.63
434.85	2675.23
435.03	2633.10
435.22	2656.51
435.41	2771.19
435.59	2693.96
435.78	2644.81
435.97	2754.81
436.16	2850.77
436.34	2719.70
436.53	2848.43
436.72	2794.60
436.90	2778.22
437.09	2803.96
437.28	2747.79
437.46	2853.11
437.65	2942.05
437.84	2883.54
438.02	2853.11
438.21	2958.44
438.40	2818.00
438.58	2899.92
438.77	2871.84
438.96	3054.40
439.14	3000.57
439.33	3040.36
439.52	3002.91
439.70	3122.27
439.89	3141.00
440.08	3136.32
440.26	3103.55
440.45	3117.59
440.63	3089.51
440.82	3255.69
441.01	3243.98
441.19	3384.41
441.38	3215.90
441.57	3314.20
441.75	3248.66
441.94	3485.06
442.12	3307.18
442.31	3400.80
442.50	3286.11
442.68	3475.70
442.87	3398.46
443.05	3391.44
443.24	3503.78
443.43	3613.79
443.61	3431.23
443.80	3485.06
443.98	3473.36
444.17	3375.05
444.35	3442.93
444.54	3609.11
444.73	3529.53
444.91	3613.79
445.10	3487.40
445.28	3569.32
445.47	3468.67
445.65	3578.68
445.84	3662.94
446.02	3611.45
446.21	3531.87
446.39	3700.39
446.58	3662.94
446.77	3566.98
446.95	3508.46
447.14	3620.81
447.32	3648.90
447.51	3609.11
447.69	3730.81
447.88	3662.94
448.06	3564.64
448.25	3618.47
448.43	3709.75
448.62	3529.53
448.80	3618.47
448.99	3665.28
449.17	3527.19
449.36	3698.05
449.54	3817.41
449.73	3761.24
449.91	3843.16
450.10	3831.46
450.28	3845.50
450.46	3866.56
450.65	3772.94
450.83	3714.43
451.02	3831.46
451.20	3868.91
451.39	3946.14
451.57	3861.88
451.76	3831.46
451.94	3969.55
452.13	4095.94
452.31	3894.65
452.49	3936.78
452.68	3976.57
452.86	3999.98
453.05	3967.21
453.23	4196.58
453.42	4049.13
453.60	3826.78
453.78	4124.02
453.97	3985.93
454.15	4138.07
454.34	4063.17
454.52	4107.64
454.70	4065.51
454.89	4095.94
455.07	4009.34
455.26	4046.79
455.44	4049.13
455.62	4248.07
455.81	4292.54
455.99	4208.28
456.17	4271.48
456.36	4245.73
456.54	4306.59
456.73	4397.87
456.91	4475.10
457.09	4334.67
457.28	4416.59
457.46	4442.34
457.64	4585.11
457.83	4533.62
458.01	4402.55
458.19	4564.04
458.38	4479.79
458.56	4484.47
458.74	4447.02
458.93	4517.23
459.11	4547.66
459.29	4617.88
459.48	4657.67
459.66	4571.07
459.84	4404.89
460.03	4793.42
460.21	4706.82
460.39	4655.33
460.57	4732.56
460.76	4910.44
460.94	4751.29
461.12	4758.31
461.31	4873.00
461.49	4847.25
461.67	4758.31
461.85	4933.85
462.04	4777.03
462.22	5167.90
462.40	4943.21
462.59	5011.09
462.77	5071.94
462.95	4950.23
463.13	4858.95
463.32	4884.70
463.50	5036.83
463.68	5074.28
463.86	5123.43
464.05	4980.66
464.23	4915.12
464.41	4896.40
464.59	5022.79
464.78	5013.43
464.96	5135.14
465.14	4971.30
465.32	5163.22
465.50	5193.65
465.69	5057.90
465.87	5165.56
466.05	5132.79
466.23	5067.26
466.41	5130.45
466.60	5432.38
466.78	5053.22
466.96	5240.46
467.14	5071.94
467.32	5240.46
467.51	5305.99
467.69	5069.60
467.87	5394.93
468.05	5394.93
468.23	5228.76
468.41	5277.91
468.60	5434.72
468.78	5444.09
468.96	5394.93
469.14	5423.02
469.32	5397.28
469.50	5547.07
469.69	5556.43
469.87	5453.45
470.05	5547.07
470.23	5544.73
470.41	5446.43
470.59	5453.45
470.77	5617.29
470.95	5647.71
471.14	5746.02
471.32	5558.77
471.50	5678.14
471.68	5825.59
471.86	5689.84
472.04	5694.52
472.22	5863.04
472.40	5738.99
472.58	5762.40
472.77	6099.44
472.95	6008.16
473.13	6209.44
473.31	6228.17
473.49	5942.62
473.67	6059.65
473.85	6003.47
474.03	6242.21
474.21	6307.74
474.39	6244.55
474.57	6235.19
474.75	6471.58
474.93	6401.37
475.12	6450.52
475.30	6490.31
475.48	6328.81
475.66	6401.37
475.84	6665.85
476.02	6394.34
476.20	6579.25
476.38	6759.47
476.56	6665.85
476.74	6686.91
476.92	6698.61
477.10	6787.55
477.28	6965.43
477.46	6817.98
477.64	7042.67
477.82	7145.66
478.00	7201.83
478.18	7152.68
478.36	7187.79
478.54	7150.34
478.72	7180.76
478.90	7300.13
479.08	7475.67
479.26	7510.78
479.44	7433.54
479.62	7503.76
479.80	7606.74
479.98	7761.22
480.16	7709.72
480.34	7798.66
480.52	7927.39
480.70	7747.17
480.88	7772.92
481.06	7852.50
481.24	7964.84
481.41	8198.90
481.59	8205.92
481.77	8140.38
481.95	8149.75
482.13	8318.26
482.31	8231.66
482.49	8709.13
482.67	8531.25
482.85	8697.43
483.03	8926.80
483.21	8826.16
483.39	8865.95
483.57	8938.51
483.74	9055.53
483.92	9104.68
484.10	8982.98
484.28	9298.95
484.46	9135.11
484.64	9390.23
484.82	9226.39
485.00	9373.85
485.18	9689.82
485.35	9584.49
485.53	9605.56
485.71	9647.69
485.89	10047.92
486.07	9949.62
486.25	9858.34
486.43	10176.65
486.61	10078.35
486.78	10008.13
486.96	10420.06
487.14	10579.22
487.32	10303.04
487.50	10586.24
487.68	10654.12
487.85	10764.12
488.03	10740.72
488.21	10766.46
488.39	10895.19
488.57	10867.11
488.75	11054.35
488.92	11265.00
489.10	11232.23
489.28	11349.26
489.46	11517.78
489.64	11323.51
489.81	11761.19
489.99	11538.84
490.17	11723.74
490.35	11854.81
490.53	11840.77
490.70	11887.58
490.88	11929.71
491.06	12133.34
491.24	12100.57
491.41	12327.60
491.59	12343.99
491.77	12461.01
491.95	12713.79
492.13	12573.36
492.30	12634.21
492.48	12622.51
492.66	12786.35
492.84	12720.81
493.01	13041.46
493.19	13069.55
493.37	12994.65
493.54	13160.83
493.72	13193.60
493.90	13385.52
494.08	13600.85
494.25	13364.46
494.43	13659.37
494.61	13848.95
494.79	13525.96
494.96	13736.60
495.14	14080.66
495.32	14092.37
495.49	13930.87
495.67	14146.20
495.85	14345.14
496.02	14345.14
496.20	14286.63
496.38	14361.53
496.55	14244.50
496.73	14628.35
496.91	14635.37
497.09	14855.38
497.26	14815.59
497.44	14986.45
497.62	14792.19
497.79	15105.82
497.97	14993.47
498.14	15459.24
498.32	15227.53
498.50	15234.55
498.67	15761.17
498.85	15522.43
499.03	15552.86
499.20	15604.35
499.38	15545.84
499.56	15676.91
499.73	15779.89
499.91	15922.66
500.08	16287.79
500.26	15611.37
500.44	15826.70
500.61	15955.43
500.79	15810.32
500.97	16416.52
501.14	16610.78
501.32	16269.06
501.49	16416.52
501.67	16194.17
501.84	16463.33
502.02	16596.74
502.20	16723.13
502.37	16791.00
502.55	16830.79
502.72	16465.67
502.90	16673.98
503.07	16805.05
503.25	16975.91
503.43	16875.26
503.60	16987.61
503.78	17261.45
503.95	17099.95
504.13	17322.30
504.30	17394.86
504.48	17170.17
504.65	17319.96
504.83	17549.34
505.01	17844.24
505.18	17694.45
505.36	17659.34
505.53	17731.90
505.71	17619.55
505.88	17816.16
506.06	17642.96
506.23	17874.67
506.41	17813.82
506.58	17898.08
506.76	18218.73
506.93	18295.97
507.11	17980.00
507.28	18326.39
507.46	18008.08
507.63	18064.25
507.81	18724.29
507.98	18588.53
508.16	18459.81
508.33	18551.09
508.50	18473.85
508.68	18546.40
508.85	18590.88
509.03	18796.84
509.20	18995.79
509.38	18965.36
509.55	18871.74
509.73	19117.50
509.90	19185.37
510.08	18920.89
510.25	18874.08
510.42	19154.94
510.60	19276.65
510.77	19232.18
510.95	19435.81
511.12	19363.25
511.30	19412.40
511.47	19592.62
511.64	19302.40
511.82	19850.08
511.99	19573.90
512.17	19690.93
512.34	19524.75
512.51	19726.04
512.69	19599.65
512.86	19859.45
513.04	19924.98
513.21	19960.09
513.38	20470.33
513.56	20348.62
513.73	20297.13
513.90	20154.35
514.08	20273.72
514.25	20453.94
514.43	20620.12
514.60	20690.34
514.77	20458.62
514.95	20582.67
515.12	20498.41
515.29	20975.88
515.47	20554.58
515.64	20769.91
515.81	20947.79
515.99	21041.42
516.16	21308.24
516.33	20964.18
516.51	21055.46
516.68	20936.09
516.85	21048.44
517.03	20987.58
517.20	21259.09
517.37	21158.44
517.54	21291.85
517.72	21350.37
517.89	21680.38
518.06	21387.82
518.24	21249.72
518.41	21549.31
518.58	21479.10
518.75	21561.02
518.93	21699.11
519.10	21687.40
519.27	21961.25
519.45	21778.68
519.62	21891.03
519.79	21436.97
519.96	21876.99
520.14	22178.92
520.31	21902.73
520.48	22059.55
520.65	22108.70
520.83	22279.56
521.00	22427.01
521.17	22012.74
521.34	22600.21
521.52	22202.32
521.69	22429.35
521.86	22750.01
522.03	22670.43
522.20	22593.19
522.38	22614.26
522.55	22906.82
522.72	22499.57
522.89	22586.17
523.07	23002.78
523.24	22967.68
523.41	23026.19
523.58	22607.23
523.75	22712.56
523.92	23157.26
524.10	22993.42
524.27	23194.71
524.44	23101.09
524.61	23899.21
524.78	23693.24
524.96	23285.99
525.13	23508.34
525.30	23115.13
525.47	23276.63
525.64	23374.93
525.81	23403.02
525.98	23693.24
526.16	23716.65
526.33	23566.85
526.50	23763.46
526.67	23520.04
526.84	23562.17
527.01	23901.55
527.18	23779.84
527.36	23857.08
527.53	24093.47
527.70	24203.48
527.87	24098.16
528.04	24212.84
528.21	24379.02
528.38	24135.60
528.55	24198.80
528.72	24056.03
528.89	24575.62
529.07	24311.14
529.24	24128.58
529.41	24297.10
529.58	24830.74
529.75	24493.71
529.92	24657.54
530.09	24610.73
530.26	24671.59
530.43	24320.51
530.60	24336.89
530.77	24662.22
530.94	24524.13
531.11	24725.42
531.28	24482.00
531.46	24678.61
531.63	25099.90
531.80	24753.51
531.97	24786.27
532.14	25099.90
532.31	24922.02
532.48	25198.21
532.65	24833.08
532.82	24807.34
532.99	25048.41
533.16	25123.31
533.33	25273.10
533.50	25479.07
533.67	25724.83
533.84	25172.46
534.01	25308.21
534.18	25380.77
534.35	25806.75
534.52	25245.02
534.69	25582.06
534.86	25549.29
535.03	25572.69
535.20	25460.35
535.37	25806.75
535.54	25872.28
535.71	25504.82
535.88	25441.62
536.05	25792.70
536.22	25935.48
536.38	25759.94
536.55	25832.49
536.72	26054.84
536.89	25818.45
537.06	26176.55
537.23	26045.48
537.40	26246.77
537.57	25961.22
537.74	26176.55
537.91	26169.53
538.08	26305.28
538.25	26181.23
538.42	26129.74
538.59	26349.75
538.75	25977.61
538.92	26150.81
539.09	26232.72
539.26	26553.38
539.43	26279.54
539.60	26396.56
539.77	26773.39
539.94	26771.05
540.11	26647.00
540.28	26354.43
540.44	26724.24
540.61	26845.94
540.78	26747.64
540.95	26857.65
541.12	26679.77
541.29	26752.32
541.46	26668.06
541.62	26539.33
541.79	26658.70
541.96	26588.49
542.13	26738.28
542.30	26925.52
542.47	27159.58
542.63	26749.98
542.80	27171.28
542.97	27758.75
543.14	27400.65
543.31	26955.95
543.48	27613.64
543.64	27391.29
543.81	27803.22
543.98	27421.72
544.15	27538.74
544.32	27749.39
544.48	27627.68
544.65	27288.31
544.82	27709.60
544.99	27428.74
545.16	27826.63
545.32	27288.31
545.49	27859.40
545.66	27744.71
545.83	27707.26
546.00	27934.29
546.16	28041.96
546.33	27704.92
546.50	27761.09
546.67	27997.49
546.83	27442.78
547.00	28271.33
547.17	28048.98
547.34	28025.57
547.50	28313.46
547.67	28137.92
547.84	28194.09
548.00	28163.67
548.17	28496.02
548.34	28053.66
548.51	28360.27
548.67	28575.60
548.84	28112.17
549.01	27922.59
549.18	28266.65
549.34	28243.24
549.51	28435.17
549.68	28027.92
549.84	28170.69
550.01	28243.24
550.18	28421.13
550.34	28180.05
550.51	28332.18
550.68	28650.50
550.84	28465.60
551.01	28418.78
551.18	28533.47
551.34	28308.78
551.51	28603.69
551.68	28575.60
551.84	28840.08
552.01	28662.20
552.18	29350.32
552.34	28650.50
552.51	28964.13
552.68	28821.36
552.84	28608.37
553.01	28943.06
553.18	28889.23
553.34	29008.60
553.51	28971.15
553.67	29240.31
553.84	28884.55
554.01	29319.89
554.17	29432.24
554.34	29198.18
554.51	29041.37
554.67	29439.26
554.84	29188.82
555.00	29390.11
555.17	29134.99
555.33	29518.84
555.50	29280.10
555.67	29137.33
555.83	29149.03
556.00	29160.73
556.16	29596.07
556.33	29488.41
556.50	29486.07
556.66	29479.05
556.83	29235.63
556.99	29944.81
557.16	29874.60
557.32	29965.88
557.49	29439.26
557.65	29074.13
557.82	29364.36
557.98	29635.86
558.15	29474.37
558.32	29832.47
558.48	29612.46
558.65	29895.66
558.81	29174.78
558.98	29701.40
559.14	29738.85
559.31	29369.04
559.47	29584.37
559.64	30153.12
559.80	29645.23
559.97	29853.53
560.13	29748.21
560.30	29743.53
560.46	29582.03
560.63	29890.98
560.79	29682.67
560.96	30139.08
561.12	29975.24
561.29	29839.49
561.45	29682.67
561.61	29855.87
561.78	29916.73
561.94	30298.23
562.11	30139.08
562.27	30305.26
562.44	29778.64
562.60	30118.01
562.77	29935.45
562.93	30143.76
563.10	30288.87
563.26	29912.05
563.42	30478.46
563.59	30354.41
563.75	30356.75
563.92	30178.87
564.08	30054.82
564.24	30260.79
564.41	30445.69
564.57	30089.93
564.74	29996.31
564.90	30197.59
565.07	30401.22
565.23	30363.77
565.39	30501.86
565.56	30391.86
565.72	30483.14
565.88	30431.65
566.05	30478.46
566.21	30326.32
566.38	30471.43
566.54	30277.17
566.70	30857.62
566.87	30866.98
567.03	30565.06
567.19	30635.27
567.36	30576.76
567.52	30597.82
567.68	30553.35
567.85	30279.51
568.01	30527.61
568.17	30691.44
568.34	30670.38
568.50	30684.42
568.66	30717.19
568.83	30703.15
568.99	30462.07
569.15	30906.77
569.32	30787.41
569.48	30642.29
569.64	30476.12
569.81	31054.23
569.97	30689.10
570.13	30974.65
570.30	30785.07
570.46	30515.90
570.62	30742.94
570.78	30735.92
570.95	30464.41
571.11	31002.74
571.27	30384.83
571.43	30410.58
571.60	30813.15
571.76	30682.08
571.92	31201.68
572.09	30649.32
572.25	30888.05
572.41	31063.59
572.57	30642.29
572.74	30998.06
572.90	30513.56
573.06	30630.59
573.22	30717.19
573.38	30759.32
573.55	31056.57
573.71	31082.31
573.87	30820.17
574.03	31307.01
574.20	30974.65
574.36	30621.23
574.52	30759.32
574.68	31147.85
574.84	31012.10
575.01	31044.87
575.17	31215.72
575.33	31115.08
575.49	30955.93
575.65	31213.38
575.82	31180.62
575.98	30885.71
576.14	30707.83
576.30	31182.96
576.46	30965.29
576.62	30679.74
576.79	31042.53
576.95	30735.92
577.11	31105.72
577.27	31028.48
577.43	31112.74
577.59	31253.17
577.75	30953.58
577.92	30822.51
578.08	30728.89
578.24	30565.06
578.40	30696.13
578.56	31213.38
578.72	31028.48
578.88	31482.55
579.04	31391.26
579.21	31262.54
579.37	30911.46
579.53	30974.65
579.69	31328.07
579.85	31236.79
580.01	31281.26
580.17	31248.49
580.33	31145.51
580.49	30909.11
580.65	30984.01
580.82	31269.56
580.98	31166.57
581.14	31101.04
581.30	31250.83
581.46	31072.95
581.62	31363.18
581.78	30941.88
581.94	30913.80
582.10	31065.93
582.26	31072.95
582.42	31047.21
582.58	31084.65
582.74	31267.22
582.90	30981.67
583.06	31480.21
583.22	31253.17
583.38	31197.00
583.54	30967.63
583.70	31058.91
583.86	31417.01
584.02	30909.11
584.18	31648.72
584.34	31264.88
584.50	31353.82
584.66	31159.55
584.82	31225.09
584.98	31063.59
585.14	31234.45
585.30	30838.90
585.46	31529.36
585.62	31241.47
585.78	31377.22
585.94	31473.18
586.10	31367.86
586.26	31250.83
586.42	31374.88
586.58	31330.41
586.74	31339.77
586.90	30927.84
587.06	31028.48
587.22	31267.22
587.38	31133.81
587.54	31648.72
587.70	31620.64
587.86	31309.35
588.02	31679.15
588.18	31618.30
588.34	31943.63
588.49	31545.74
588.65	31072.95
588.81	31269.56
588.97	31302.32
589.13	31550.42
589.29	31299.98
589.45	31342.11
589.61	31580.85
589.77	31878.10
589.93	32025.55
590.08	31695.53
590.24	31592.55
590.40	31606.59
590.56	31833.63
590.72	31505.95
590.88	31421.69
591.04	31140.83
591.20	31534.04
591.35	31768.09
591.51	32313.44
591.67	31709.58
591.83	32039.59
