SpectraSuite Data File
++++++++++++++++++++++++++++++++++++
Date: Fri Oct 18 13:58:38 GMT-05:00 2013
User: bianchi
Dark Spectrum Present: No
Reference Spectrum Present: No
Number of Sampled Component Spectra: 1
Spectrometers: USB2+H05261
Integration Time (usec): 50000 (USB2+H05261)
Spectra Averaged: 1 (USB2+H05261)
Boxcar Smoothing: 0 (USB2+H05261)
Correct for Electrical Dark: No (USB2+H05261)
Strobe/Lamp Enabled: No (USB2+H05261)
Correct for Detector Non-linearity: No (USB2+H05261)
Correct for Stray Light: No (USB2+H05261)
Number of Pixels in Processed Spectrum: 2048
>>>>>Begin Processed Spectral Data<<<<<
365.73	0.00
365.92	0.00
366.12	0.00
366.32	0.00
366.52	0.00
366.72	0.00
366.91	0.00
367.11	0.00
367.31	0.00
367.51	0.00
367.70	0.00
367.90	0.00
368.10	0.00
368.30	0.00
368.49	0.00
368.69	0.00
368.89	0.00
369.09	0.00
369.28	0.00
369.48	0.00
369.68	0.00
369.87	0.00
370.07	0.00
370.27	0.00
370.47	0.00
370.66	72.56
370.86	114.69
371.06	98.30
371.25	194.26
371.45	72.56
371.65	215.33
371.84	135.75
372.04	163.84
372.24	77.24
372.44	173.20
372.63	156.82
372.83	203.63
373.03	147.45
373.22	215.33
373.42	220.01
373.62	238.73
373.81	152.13
374.01	271.50
374.21	205.97
374.40	208.31
374.60	280.86
374.79	180.22
374.99	166.18
375.19	315.97
375.38	273.84
375.58	243.42
375.78	297.25
375.97	198.95
376.17	243.42
376.37	224.69
376.56	308.95
376.76	210.65
376.95	201.29
377.15	313.63
377.35	220.01
377.54	287.89
377.74	203.63
377.93	332.36
378.13	294.91
378.33	290.23
378.52	292.57
378.72	250.44
378.91	341.72
379.11	205.97
379.31	320.65
379.50	313.63
379.70	411.93
379.89	283.20
380.09	325.33
380.28	301.93
380.48	227.03
380.68	330.02
380.87	290.23
381.07	397.89
381.26	344.06
381.46	397.89
381.65	362.78
381.85	301.93
382.04	320.65
382.24	379.17
382.43	304.27
382.63	255.12
382.83	318.31
383.02	334.70
383.22	430.66
383.41	400.23
383.61	353.42
383.80	442.36
384.00	381.51
384.19	308.95
384.39	386.19
384.58	327.68
384.78	395.55
384.97	369.80
385.17	346.40
385.36	325.33
385.56	372.15
385.75	337.04
385.95	315.97
386.14	388.53
386.34	479.81
386.53	381.51
386.72	447.04
386.92	358.10
387.11	449.38
387.31	458.74
387.50	423.64
387.70	472.79
387.89	503.22
388.09	458.74
388.28	447.04
388.48	402.57
388.67	409.59
388.86	407.25
389.06	437.68
389.25	500.87
389.45	482.15
389.64	393.21
389.84	465.77
390.03	507.90
390.22	547.69
390.42	468.11
390.61	411.93
390.81	433.00
391.00	526.62
391.19	477.47
391.39	456.40
391.58	524.28
391.78	500.87
391.97	477.47
392.16	507.90
392.36	550.03
392.55	547.69
392.75	557.05
392.94	493.85
393.13	552.37
393.33	528.96
393.52	519.60
393.71	580.45
393.91	554.71
394.10	589.82
394.29	610.88
394.49	624.92
394.68	627.26
394.88	587.47
395.07	645.99
395.26	723.23
395.46	603.86
395.65	554.71
395.84	596.84
396.04	657.69
396.23	641.31
396.42	674.07
396.62	664.71
396.81	688.12
397.00	702.16
397.19	697.48
397.39	603.86
397.58	667.05
397.77	664.71
397.97	753.65
398.16	620.24
398.35	770.04
398.55	737.27
398.74	662.37
398.93	660.03
399.12	760.67
399.32	723.23
399.51	657.69
399.70	767.70
399.90	695.14
400.09	805.14
400.28	746.63
400.47	772.38
400.67	788.76
400.86	723.23
401.05	812.17
401.24	793.44
401.44	798.12
401.63	837.91
401.82	765.36
402.01	793.44
402.21	760.67
402.40	772.38
402.59	891.74
402.78	880.04
402.97	786.42
403.17	849.61
403.36	833.23
403.55	873.02
403.74	915.15
403.93	870.68
404.13	938.55
404.32	905.79
404.51	997.07
404.70	971.32
404.89	936.21
405.09	976.00
405.28	884.72
405.47	875.36
405.66	945.58
405.85	943.24
406.05	992.39
406.24	983.02
406.43	1071.97
406.62	959.62
406.81	1055.58
407.00	1018.13
407.20	959.62
407.39	964.30
407.58	1034.52
407.77	1071.97
407.96	1076.65
408.15	1039.20
408.34	1090.69
408.54	1036.86
408.73	1083.67
408.92	1090.69
409.11	1137.50
409.30	1123.46
409.49	1095.37
409.68	1111.75
409.87	987.71
410.07	1174.95
410.26	1259.21
410.45	1249.85
410.64	1224.10
410.83	1210.06
411.02	1163.25
411.21	1146.86
411.40	1221.76
411.59	1329.42
411.78	1240.48
411.98	1231.12
412.17	1238.14
412.36	1299.00
412.55	1336.45
412.74	1373.89
412.93	1299.00
413.12	1303.68
413.31	1423.05
413.50	1280.27
413.69	1437.09
413.88	1441.77
414.07	1427.73
414.26	1507.30
414.45	1437.09
414.64	1437.09
414.83	1439.43
415.02	1558.80
415.22	1486.24
415.41	1528.37
415.60	1500.28
415.79	1521.35
415.98	1563.48
416.17	1551.78
416.36	1607.95
416.55	1575.18
416.74	1586.88
416.93	1614.97
417.12	1542.41
417.31	1661.78
417.50	1757.74
417.69	1703.91
417.88	1774.13
418.07	1645.40
418.26	1717.95
418.45	1799.87
418.64	1886.47
418.83	1900.52
419.02	1760.08
419.21	1872.43
419.39	1886.47
419.58	1685.19
419.77	1825.62
419.96	1851.36
420.15	1881.79
420.34	1893.49
420.53	1710.93
420.72	1933.28
420.91	1942.64
421.10	1853.70
421.29	1987.11
421.48	1998.82
421.67	2026.90
421.86	1884.13
422.05	2001.16
422.24	1912.22
422.43	1935.62
422.61	1949.67
422.80	2040.95
422.99	2015.20
423.18	1996.48
423.37	1935.62
423.56	2050.31
423.75	2005.84
423.94	1907.54
424.13	1830.30
424.32	1952.01
424.50	2010.52
424.69	2026.90
424.88	2047.97
425.07	2174.36
425.26	1991.80
425.45	2026.90
425.64	2017.54
425.83	2052.65
426.01	2062.01
426.20	2001.16
426.39	2090.10
426.58	2078.40
426.77	2043.29
426.96	2132.23
427.15	2057.33
427.33	2186.06
427.52	2162.66
427.71	2186.06
427.90	2263.30
428.09	2087.76
428.28	2136.91
428.46	2218.83
428.65	2293.72
428.84	2232.87
429.03	2253.94
429.22	2237.55
429.40	2239.89
429.59	2193.08
429.78	2214.15
429.97	2083.08
430.16	2221.17
430.34	2349.90
430.53	2340.54
430.72	2293.72
430.91	2223.51
431.10	2328.83
431.28	2359.26
431.47	2324.15
431.66	2452.88
431.85	2406.07
432.03	2434.16
432.22	2441.18
432.41	2438.84
432.60	2396.71
432.79	2340.54
432.97	2562.89
433.16	2532.46
433.35	2422.45
433.54	2516.08
433.72	2396.71
433.91	2427.14
434.10	2459.90
434.28	2495.01
434.47	2506.71
434.66	2471.61
434.85	2590.97
435.03	2511.39
435.22	2490.33
435.41	2654.17
435.59	2576.93
435.78	2642.46
435.97	2593.31
436.16	2647.15
436.34	2583.95
436.53	2640.12
436.72	2848.43
436.90	2689.28
437.09	2691.62
437.28	2766.51
437.46	2691.62
437.65	2703.32
437.84	2691.62
438.02	2850.77
438.21	2815.66
438.40	2855.45
438.58	2911.63
438.77	2897.58
438.96	2843.75
439.14	2923.33
439.33	2864.82
439.52	3038.02
439.70	3063.76
439.89	3126.96
440.08	2993.55
440.26	2953.76
440.45	3124.62
440.63	3162.06
440.82	3021.63
441.01	3002.91
441.19	3112.91
441.38	3096.53
441.57	3337.60
441.75	3150.36
441.94	3272.07
442.12	3332.92
442.31	3255.69
442.50	3391.44
442.68	3197.17
442.87	3356.33
443.05	3293.13
443.24	3321.22
443.43	3421.86
443.61	3253.34
443.80	3494.42
443.98	3314.20
444.17	3335.26
444.35	3365.69
444.54	3499.10
444.73	3414.84
444.91	3424.20
445.10	3459.31
445.28	3389.10
445.47	3480.38
445.65	3489.74
445.84	3426.54
446.02	3510.80
446.21	3531.87
446.39	3552.93
446.58	3646.55
446.77	3571.66
446.95	3442.93
447.14	3496.76
447.32	3531.87
447.51	3363.35
447.69	3440.59
447.88	3482.72
448.06	3524.85
448.25	3494.42
448.43	3660.60
448.62	3536.55
448.80	3524.85
448.99	3478.04
449.17	3611.45
449.36	3538.89
449.54	3735.50
449.73	3768.26
449.91	3695.71
450.10	3691.02
450.28	3719.11
450.46	3733.15
450.65	3662.94
450.83	3609.11
451.02	3735.50
451.20	3770.60
451.39	3730.81
451.57	3770.60
451.76	3723.79
451.94	3801.03
452.13	3908.69
452.31	3758.90
452.49	3803.37
452.68	3843.16
452.86	3859.54
453.05	3892.31
453.23	3829.12
453.42	3829.12
453.60	3784.65
453.78	3934.44
453.97	3829.12
454.15	3896.99
454.34	3840.82
454.52	4093.60
454.70	3983.59
454.89	4025.72
455.07	3889.97
455.26	3974.23
455.44	4135.73
455.62	4128.70
455.81	4074.87
455.99	4081.89
456.17	4131.05
456.36	4140.41
456.54	4245.73
456.73	4236.37
456.91	4264.46
457.09	4241.05
457.28	4376.80
457.46	4294.88
457.64	4273.82
457.83	4367.44
458.01	4227.01
458.19	4409.57
458.38	4407.23
458.56	4327.65
458.74	4479.79
458.93	4533.62
459.11	4386.16
459.29	4376.80
459.48	4545.32
459.66	4636.60
459.84	4514.89
460.03	4559.36
460.21	4734.90
460.39	4456.38
460.57	4458.72
460.76	4376.80
460.94	4688.09
461.12	4557.02
461.31	4641.28
461.49	4601.49
461.67	4603.83
461.85	4755.97
462.04	4606.17
462.22	4781.71
462.40	4873.00
462.59	4655.33
462.77	4697.46
462.95	4718.52
463.13	4638.94
463.32	4840.23
463.50	4823.84
463.68	4891.72
463.86	4889.38
464.05	4741.93
464.23	4896.40
464.41	4936.19
464.59	4774.69
464.78	4851.93
464.96	4877.68
465.14	4887.04
465.32	4873.00
465.50	4968.96
465.69	5219.39
465.87	4837.89
466.05	4816.82
466.23	4985.34
466.41	5090.67
466.60	5259.18
466.78	4975.98
466.96	5062.58
467.14	5008.75
467.32	5018.11
467.51	5263.86
467.69	4997.04
467.87	5142.16
468.05	5006.41
468.23	5064.92
468.41	5256.84
468.60	5130.45
468.78	5273.23
468.96	5263.86
469.14	5167.90
469.32	5151.52
469.50	5184.29
469.69	5322.38
469.87	5359.83
470.05	5469.83
470.23	5488.56
470.41	5364.51
470.59	5657.07
470.77	5399.62
470.95	5439.40
471.14	5453.45
471.32	5439.40
471.50	5675.80
471.68	5434.72
471.86	5530.69
472.04	5617.29
472.22	5846.66
472.40	5640.69
472.58	5736.65
472.77	5706.23
472.95	5893.47
473.13	6040.92
473.31	5734.31
473.49	5949.64
473.67	5902.83
473.85	5998.79
474.03	5991.77
474.21	5966.03
474.39	6066.67
474.57	6057.31
474.75	6043.26
474.93	6143.91
475.12	6232.85
475.30	6115.82
475.48	6181.35
475.66	6195.40
475.84	6054.97
476.02	6377.96
476.20	6452.86
476.38	6546.48
476.56	6623.72
476.74	6612.01
476.92	6338.17
477.10	6527.75
477.28	6705.63
477.46	6614.35
477.64	6630.74
477.82	6822.66
478.00	7021.61
478.18	6918.62
478.36	6953.73
478.54	7019.27
478.72	7040.33
478.90	7194.81
479.08	7138.63
479.26	7129.27
479.44	7140.97
479.62	7225.23
479.80	7288.43
479.98	7314.17
480.16	7438.22
480.34	7454.61
480.52	7508.44
480.70	7665.25
480.88	7573.97
481.06	7644.19
481.24	7772.92
481.41	7716.75
481.59	7896.97
481.77	8042.08
481.95	8056.12
482.13	8119.32
482.31	8035.06
482.49	8009.31
482.67	8339.33
482.85	8332.31
483.03	8255.07
483.21	8636.58
483.39	8383.80
483.57	8650.62
483.74	8533.59
483.92	8791.05
484.10	8634.24
484.28	8819.14
484.46	8903.40
484.64	9207.67
484.82	8990.00
485.00	9092.98
485.18	9298.95
485.35	9432.36
485.53	9214.69
485.71	9118.73
485.89	9565.77
486.07	9455.76
486.25	9413.63
486.43	9781.10
486.61	9827.91
486.78	9895.78
486.96	9722.59
487.14	10193.03
487.32	10178.99
487.50	10118.14
487.68	10010.47
487.85	10345.17
488.03	10289.00
488.21	10677.52
488.39	10450.49
488.57	10534.75
488.75	10604.97
488.92	10700.93
489.10	10883.49
489.28	10817.96
489.46	11030.94
489.64	11253.30
489.81	11101.16
489.99	11440.54
490.17	11510.75
490.35	11283.72
490.53	11382.03
490.70	11564.59
490.88	11634.80
491.06	11679.27
491.24	11719.06
491.41	11833.75
491.59	11992.90
491.77	11805.66
491.95	11967.16
492.13	12084.19
492.30	12149.72
492.48	12152.06
492.66	12119.29
492.84	12290.15
493.01	12517.18
493.19	12554.63
493.37	12847.20
493.54	12610.81
493.72	12723.15
493.90	12898.69
494.08	12947.84
494.25	12858.90
494.43	13111.68
494.61	13298.92
494.79	13135.09
494.96	13291.90
495.14	13509.57
495.32	13635.96
495.49	13448.72
495.67	13509.57
495.85	13642.98
496.02	13664.05
496.20	13832.57
496.38	14094.71
496.55	13804.48
496.73	14209.39
496.91	14115.77
497.09	14415.36
497.26	14403.66
497.44	14368.55
497.62	14218.75
497.79	14595.58
497.97	14513.66
498.14	14925.60
498.32	14628.35
498.50	14738.35
498.67	15000.49
498.85	15016.88
499.03	14878.79
499.20	15178.37
499.38	15171.35
499.56	15419.45
499.73	15089.43
499.91	15337.53
500.08	15274.34
500.26	14759.42
500.44	15056.67
500.61	15426.47
500.79	15405.41
500.97	15548.18
501.14	15866.49
501.32	15639.46
501.49	15655.84
501.67	15925.00
501.84	15906.28
502.02	15859.47
502.20	15728.40
502.37	16542.91
502.55	16173.10
502.72	16292.47
502.90	16074.80
503.07	16056.08
503.25	16219.91
503.43	16561.63
503.60	16458.65
503.78	16547.59
503.95	16365.03
504.13	16662.27
504.30	16601.42
504.48	16664.61
504.65	16622.48
504.83	17011.01
505.01	16723.13
505.18	17238.05
505.36	16893.99
505.53	17008.67
505.71	17160.81
505.88	17097.61
506.06	17081.23
506.23	17039.10
506.41	17359.75
506.58	17380.82
506.76	17167.83
506.93	17610.19
507.11	17422.95
507.28	17429.97
507.46	17738.92
507.63	17668.70
507.81	17687.43
507.98	17621.89
508.16	17701.47
508.33	17951.91
508.50	17862.97
508.68	17879.35
508.85	18080.64
509.03	18101.70
509.20	17956.59
509.38	18532.36
509.55	18120.43
509.73	18354.48
509.90	18258.52
510.08	18415.34
510.25	18558.11
510.42	18389.59
510.60	18712.58
510.77	18546.40
510.95	18515.98
511.12	18408.31
511.30	18546.40
511.47	18628.32
511.64	18658.75
511.82	18855.36
511.99	19190.05
512.17	19143.24
512.34	19194.73
512.51	19014.51
512.69	19405.38
512.86	19314.10
513.04	19241.54
513.21	19524.75
513.38	19426.45
513.56	19459.21
513.73	19115.16
513.90	19276.65
514.08	19477.94
514.25	19578.58
514.43	19653.48
514.60	19578.58
514.77	19934.34
514.95	19800.93
515.12	19585.60
515.29	19690.93
515.47	20058.39
515.64	20184.78
515.81	19852.42
515.99	20154.35
516.16	20229.25
516.33	20067.75
516.51	20372.02
516.68	20271.38
516.85	20201.16
517.03	20257.34
517.20	20582.67
517.37	20411.81
517.54	20643.52
517.72	20624.80
517.89	20299.47
518.06	20500.75
518.24	20336.91
518.41	20526.50
518.58	20833.11
518.75	20638.84
518.93	21029.71
519.10	20898.64
519.27	20741.83
519.45	20936.09
519.62	21083.55
519.79	20713.74
519.96	20964.18
520.14	21039.08
520.31	20908.01
520.48	21186.53
520.65	21252.06
520.83	21441.65
521.00	21294.19
521.17	21404.20
521.34	21591.44
521.52	21551.65
521.69	21771.66
521.86	21645.27
522.03	21706.13
522.20	21530.59
522.38	21774.00
522.55	21617.19
522.72	21886.35
522.89	21766.98
523.07	22015.08
523.24	21834.86
523.41	22054.87
523.58	21935.50
523.75	22214.02
523.92	21790.39
524.10	22075.93
524.27	22057.21
524.44	22328.71
524.61	22567.45
524.78	22434.03
524.96	22595.53
525.13	22141.47
525.30	22448.08
525.47	22600.21
525.64	22279.56
525.81	22436.38
525.98	22508.93
526.16	22625.96
526.33	22728.94
526.50	23037.89
526.67	22895.12
526.84	22939.59
527.01	22874.06
527.18	22607.23
527.36	22649.36
527.53	23007.47
527.70	23012.15
527.87	23339.82
528.04	22874.06
528.21	23246.20
528.38	23077.68
528.55	23363.23
528.72	23016.83
528.89	23372.59
529.07	23494.30
529.24	23454.51
529.41	23293.01
529.58	23222.80
529.75	23337.48
529.92	23414.72
530.09	23330.46
530.26	24034.96
530.43	23403.02
530.60	23840.70
530.77	23473.23
530.94	23873.46
531.11	23716.65
531.28	23484.94
531.46	23824.31
531.63	23576.22
531.80	23737.71
531.97	24063.05
532.14	23878.15
532.31	23772.82
532.48	23934.32
532.65	24133.26
532.82	23714.31
532.99	24245.61
533.16	24212.84
533.33	24273.70
533.50	24327.53
533.67	24322.85
533.84	23992.83
534.01	24442.21
534.18	24231.57
534.35	24570.94
534.52	24404.77
534.69	24556.90
534.86	24489.03
535.03	24400.08
535.20	24238.59
535.37	24809.68
535.54	24922.02
535.71	24210.50
535.88	24397.74
536.05	24844.79
536.22	24929.05
536.38	24694.99
536.55	24922.02
536.72	24929.05
536.89	24849.47
537.06	25041.39
537.23	25017.99
537.40	24699.67
537.57	24971.18
537.74	25317.57
537.91	25228.63
538.08	25170.12
538.25	24959.47
538.42	25362.04
538.59	25277.79
538.75	25139.69
538.92	25085.86
539.09	25294.17
539.26	25380.77
539.43	25376.09
539.60	25401.83
539.77	25102.25
539.94	25689.72
540.11	25343.32
540.28	25549.29
540.44	25207.57
540.61	25607.80
540.78	25603.12
540.95	25703.76
541.12	25708.44
541.29	25659.29
541.46	25720.15
541.62	25909.73
541.79	25535.24
541.96	25418.22
542.13	25900.37
542.30	26033.78
542.47	26022.08
542.63	25783.34
542.80	26162.51
542.97	26408.26
543.14	26265.49
543.31	26345.07
543.48	26242.09
543.64	26434.01
543.81	26487.84
543.98	26480.82
544.15	26490.18
544.32	26735.94
544.48	26749.98
544.65	26309.96
544.82	26183.57
544.99	26518.27
545.16	26352.09
545.32	26497.20
545.49	26813.18
545.66	26565.08
545.83	26806.16
546.00	27164.26
546.16	26719.56
546.33	26429.33
546.50	26534.65
546.67	26710.19
546.83	26078.25
547.00	26738.28
547.17	26768.71
547.34	26881.05
547.50	27063.61
547.67	26946.59
547.84	26684.45
548.00	27126.81
548.17	26977.01
548.34	27182.98
548.51	27391.29
548.67	27381.93
548.84	27098.72
549.01	27164.26
549.18	27143.19
549.34	27136.17
549.51	27012.12
549.68	27117.45
549.84	27206.39
550.01	27236.81
550.18	27541.08
550.34	27452.14
550.51	27410.01
550.68	27475.55
550.84	27601.94
551.01	27555.13
551.18	27641.73
551.34	27517.68
551.51	27271.92
551.68	27381.93
551.84	27796.20
552.01	27857.06
552.18	27552.79
552.34	27234.47
552.51	27927.27
552.68	27360.86
552.84	27868.76
553.01	27807.90
553.18	27957.70
553.34	27695.56
553.51	27466.19
553.67	27871.10
553.84	27662.79
554.01	28123.88
554.17	28287.71
554.34	27962.38
554.51	27960.04
554.67	28011.53
554.84	27964.72
555.00	28046.64
555.17	27840.67
555.33	27941.32
555.50	27782.16
555.67	27985.79
555.83	28034.94
556.00	28212.82
556.16	28404.74
556.33	28245.58
556.50	28648.16
556.66	28196.43
556.83	28098.13
556.99	28599.01
557.16	28496.02
557.32	28517.09
557.49	28290.06
557.65	27924.93
557.82	28512.41
557.98	28123.88
558.15	28109.83
558.32	28322.82
558.48	28156.64
558.65	28823.70
558.81	28531.13
558.98	28589.64
559.14	28271.33
559.31	28233.88
559.47	28364.95
559.64	28531.13
559.80	28526.45
559.97	28589.64
560.13	28685.61
560.30	28479.64
560.46	28449.21
560.63	28425.81
560.79	28400.06
560.96	28694.97
561.12	28678.58
561.29	28369.63
561.45	28624.75
561.61	28769.86
561.78	28599.01
561.94	28610.71
562.11	28783.91
562.27	28474.96
562.44	28940.72
562.60	28428.15
562.77	29048.39
562.93	28498.36
563.10	29106.90
563.26	28620.07
563.42	28879.87
563.59	29237.97
563.75	28903.28
563.92	28987.53
564.08	28823.70
564.24	29167.76
564.41	28844.76
564.57	28788.59
564.74	28954.77
564.90	29376.06
565.07	29043.71
565.23	29003.92
565.39	29144.35
565.56	29413.51
565.72	29006.26
565.88	28957.11
566.05	29123.29
566.21	28889.23
566.38	29153.71
566.54	29242.65
566.70	29181.80
566.87	29268.40
567.03	29046.05
567.19	29324.57
567.36	28938.38
567.52	29118.60
567.68	29539.90
567.85	28943.06
568.01	29261.38
568.17	29434.58
568.34	29270.74
568.50	29376.06
568.66	28978.17
568.83	29479.05
568.99	28968.81
569.15	29116.26
569.32	28973.49
569.48	28966.47
569.64	29369.04
569.81	29022.64
569.97	29120.95
570.13	29558.63
570.30	29001.58
570.46	29340.96
570.62	29624.16
570.78	28961.79
570.95	29291.80
571.11	29329.25
571.27	29259.04
571.43	29291.80
571.60	29488.41
571.76	29507.13
571.92	28926.68
572.09	29317.55
572.25	29603.10
572.41	29521.18
572.57	29249.67
572.74	29450.96
572.90	29514.16
573.06	29675.65
573.22	29556.28
573.38	29333.93
573.55	29481.39
573.71	29558.63
573.87	29450.96
574.03	29558.63
574.20	29294.14
574.36	29252.02
574.52	29469.69
574.68	29542.24
574.84	29699.06
575.01	29535.22
575.17	29579.69
575.33	28900.94
575.49	29692.04
575.65	29820.77
575.82	29692.04
575.98	29123.29
576.14	29537.56
576.30	29450.96
576.46	29312.87
576.62	29553.94
576.79	29207.55
576.95	29488.41
577.11	29605.44
577.27	29780.98
577.43	29537.56
577.59	29670.97
577.75	29434.58
577.92	29200.52
578.08	29830.13
578.24	29200.52
578.40	29680.33
578.56	29755.23
578.72	29591.39
578.88	29846.51
579.04	29834.81
579.21	29642.88
579.37	29514.16
579.53	29420.53
579.69	29584.37
579.85	29575.01
580.01	30073.54
580.17	29493.09
580.33	29890.98
580.49	29502.45
580.65	29848.85
580.82	29759.91
580.98	29844.17
581.14	29656.93
581.30	30000.99
581.46	29883.96
581.62	29818.42
581.78	29708.42
581.94	29970.56
582.10	29537.56
582.26	29935.45
582.42	29563.31
582.58	29778.64
582.74	29841.83
582.90	29844.17
583.06	29951.84
583.22	30008.01
583.38	29326.91
583.54	29551.60
583.70	29710.76
583.86	29710.76
584.02	29329.25
584.18	29961.20
584.34	29514.16
584.50	30003.33
584.66	29872.26
584.82	29762.25
584.98	29867.58
585.14	29535.22
585.30	29750.55
585.46	29509.47
585.62	29717.78
585.78	29570.33
585.94	29656.93
586.10	30195.25
586.26	29584.37
586.42	30061.84
586.58	29914.39
586.74	29848.85
586.90	29682.67
587.06	30040.78
587.22	29947.15
587.38	29474.37
587.54	30167.16
587.70	30066.52
587.86	29839.49
588.02	29958.86
588.18	30146.10
588.34	30120.35
588.49	29795.02
588.65	29844.17
588.81	29860.55
588.97	29874.60
589.13	29619.48
589.29	29816.08
589.45	30125.04
589.61	30178.87
589.77	30211.64
589.93	30075.88
590.08	30356.75
590.24	30649.32
590.40	30188.23
590.56	30237.38
590.72	29898.00
590.88	29921.41
591.04	30319.30
591.20	30405.90
591.35	30548.67
591.51	30817.83
591.67	30504.20
591.83	30431.65
591.99	30644.63
