SpectraSuite Data File
++++++++++++++++++++++++++++++++++++
Date: Fri Oct 18 13:58:24 GMT-05:00 2013
User: bianchi
Dark Spectrum Present: No
Reference Spectrum Present: No
Number of Sampled Component Spectra: 1
Spectrometers: USB2+H05261
Integration Time (usec): 50000 (USB2+H05261)
Spectra Averaged: 1 (USB2+H05261)
Boxcar Smoothing: 0 (USB2+H05261)
Correct for Electrical Dark: No (USB2+H05261)
Strobe/Lamp Enabled: No (USB2+H05261)
Correct for Detector Non-linearity: No (USB2+H05261)
Correct for Stray Light: No (USB2+H05261)
Number of Pixels in Processed Spectrum: 2048
>>>>>Begin Processed Spectral Data<<<<<
365.73	0.00
365.92	0.00
366.12	0.00
366.32	0.00
366.52	0.00
366.72	0.00
366.91	0.00
367.11	0.00
367.31	0.00
367.51	0.00
367.70	0.00
367.90	0.00
368.10	0.00
368.30	0.00
368.49	0.00
368.69	0.00
368.89	0.00
369.09	0.00
369.28	0.00
369.48	0.00
369.68	0.00
369.87	0.00
370.07	0.00
370.27	0.00
370.47	0.00
370.66	131.07
370.86	124.05
371.06	133.41
371.25	142.77
371.45	159.16
371.65	128.73
371.84	119.37
372.04	91.28
372.24	88.94
372.44	149.79
372.63	168.52
372.83	182.56
373.03	212.99
373.22	126.39
373.42	166.18
373.62	110.01
373.81	243.42
374.01	278.52
374.21	224.69
374.40	194.26
374.60	241.08
374.79	182.56
374.99	266.82
375.19	184.90
375.38	203.63
375.58	327.68
375.78	330.02
375.97	217.67
376.17	271.50
376.37	276.18
376.56	248.10
376.76	229.37
376.95	212.99
377.15	325.33
377.35	243.42
377.54	220.01
377.74	217.67
377.93	222.35
378.13	308.95
378.33	210.65
378.52	245.76
378.72	248.10
378.91	259.80
379.11	276.18
379.31	234.05
379.50	332.36
379.70	287.89
379.89	308.95
380.09	341.72
380.28	259.80
380.48	313.63
380.68	238.73
380.87	332.36
381.07	287.89
381.26	243.42
381.46	325.33
381.65	297.25
381.85	372.15
382.04	355.76
382.24	304.27
382.43	348.74
382.63	241.08
382.83	290.23
383.02	435.34
383.22	365.12
383.41	346.40
383.61	430.66
383.80	440.02
384.00	374.49
384.19	367.46
384.39	395.55
384.58	360.44
384.78	390.87
384.97	308.95
385.17	379.17
385.36	330.02
385.56	318.31
385.75	486.83
385.95	362.78
386.14	360.44
386.34	411.93
386.53	409.59
386.72	395.55
386.92	463.43
387.11	388.53
387.31	440.02
387.50	411.93
387.70	449.38
387.89	472.79
388.09	435.34
388.28	388.53
388.48	435.34
388.67	491.51
388.86	442.36
389.06	437.68
389.25	531.30
389.45	437.68
389.64	395.55
389.84	428.32
390.03	484.49
390.22	496.19
390.42	470.45
390.61	411.93
390.81	500.87
391.00	409.59
391.19	479.81
391.39	489.17
391.58	472.79
391.78	526.62
391.97	603.86
392.16	456.40
392.36	526.62
392.55	489.17
392.75	477.47
392.94	585.13
393.13	514.92
393.33	533.64
393.52	503.22
393.71	620.24
393.91	603.86
394.10	620.24
394.29	627.26
394.49	535.98
394.68	559.39
394.88	648.33
395.07	547.69
395.26	589.82
395.46	578.11
395.65	585.13
395.84	603.86
396.04	660.03
396.23	573.43
396.42	645.99
396.62	580.45
396.81	669.39
397.00	667.05
397.19	695.14
397.39	617.90
397.58	688.12
397.77	629.60
397.97	566.41
398.16	685.78
398.35	702.16
398.55	631.94
398.74	669.39
398.93	699.82
399.12	664.71
399.32	699.82
399.51	627.26
399.70	716.20
399.90	667.05
400.09	755.99
400.28	791.10
400.47	753.65
400.67	781.74
400.86	734.93
401.05	765.36
401.24	699.82
401.44	793.44
401.63	833.23
401.82	688.12
402.01	814.51
402.21	795.78
402.40	826.21
402.59	816.85
402.78	830.89
402.97	812.17
403.17	894.08
403.36	863.66
403.55	812.17
403.74	849.61
403.93	840.25
404.13	1036.86
404.32	919.83
404.51	849.61
404.70	849.61
404.89	957.28
405.09	950.26
405.28	957.28
405.47	896.43
405.66	961.96
405.85	959.62
406.05	919.83
406.24	994.73
406.43	823.87
406.62	926.85
406.81	1022.81
407.00	1062.60
407.20	968.98
407.39	1011.11
407.58	1041.54
407.77	1081.33
407.96	1109.41
408.15	1041.54
408.34	1107.07
408.54	1027.50
408.73	1064.94
408.92	1034.52
409.11	1102.39
409.30	1177.29
409.49	1102.39
409.68	1123.46
409.87	1146.86
410.07	1135.16
410.26	1116.44
410.45	1118.78
410.64	1233.46
410.83	1181.97
411.02	1196.01
411.21	1149.20
411.40	1137.50
411.59	1205.38
411.78	1214.74
411.98	1163.25
412.17	1320.06
412.36	1280.27
412.55	1289.64
412.74	1329.42
412.93	1387.94
413.12	1329.42
413.31	1394.96
413.50	1348.15
413.69	1439.43
413.88	1406.66
414.07	1462.83
414.26	1392.62
414.45	1451.13
414.64	1427.73
414.83	1502.62
415.02	1558.80
415.22	1481.56
415.41	1521.35
415.60	1467.52
415.79	1476.88
415.98	1614.97
416.17	1500.28
416.36	1654.76
416.55	1582.20
416.74	1624.33
416.93	1778.81
417.12	1617.31
417.31	1682.85
417.50	1650.08
417.69	1710.93
417.88	1727.32
418.07	1743.70
418.26	1739.02
418.45	1701.57
418.64	1832.64
418.83	1736.68
419.02	1753.06
419.21	1825.62
419.39	1783.49
419.58	1771.79
419.77	1919.24
419.96	1834.98
420.15	1867.75
420.34	1902.86
420.53	1886.47
420.72	1877.11
420.91	1884.13
421.10	1963.71
421.29	1942.64
421.48	1940.30
421.67	1989.46
421.86	1886.47
422.05	1994.14
422.24	1963.71
422.43	2076.06
422.61	1991.80
422.80	2017.54
422.99	1984.77
423.18	2017.54
423.37	1947.33
423.56	2064.35
423.75	2029.24
423.94	1851.36
424.13	1804.55
424.32	1991.80
424.50	2033.93
424.69	1991.80
424.88	2017.54
425.07	1991.80
425.26	2094.78
425.45	1966.05
425.64	2036.27
425.83	1891.15
426.01	2111.16
426.20	2118.18
426.39	2022.22
426.58	2052.65
426.77	2127.55
426.96	1996.48
427.15	2062.01
427.33	2125.21
427.52	2160.31
427.71	2113.50
427.90	2029.24
428.09	2200.10
428.28	2190.74
428.46	2246.91
428.65	2083.08
428.84	2204.78
429.03	2368.62
429.22	2202.44
429.40	2150.95
429.59	2200.10
429.78	2139.25
429.97	2038.61
430.16	2209.47
430.34	2307.77
430.53	2375.64
430.72	2356.92
430.91	2232.87
431.10	2392.03
431.28	2366.28
431.47	2223.51
431.66	2422.45
431.85	2333.51
432.03	2431.82
432.22	2502.03
432.41	2480.97
432.60	2427.14
432.79	2380.32
432.97	2382.67
433.16	2555.86
433.35	2459.90
433.54	2572.25
433.72	2455.22
433.91	2462.24
434.10	2539.48
434.28	2438.84
434.47	2506.71
434.66	2696.30
434.85	2605.02
435.03	2562.89
435.22	2661.19
435.41	2628.42
435.59	2619.06
435.78	2546.50
435.97	2672.89
436.16	2586.29
436.34	2626.08
436.53	2686.94
436.72	2661.19
436.90	2677.57
437.09	2621.40
437.28	2682.25
437.46	2635.44
437.65	2717.36
437.84	2757.15
438.02	2806.30
438.21	2888.22
438.40	2738.43
438.58	2913.97
438.77	2724.38
438.96	2909.29
439.14	2911.63
439.33	2932.69
439.52	2785.24
439.70	2991.20
439.89	2972.48
440.08	2970.14
440.26	3061.42
440.45	2993.55
440.63	2960.78
440.82	3164.40
441.01	3180.79
441.19	3162.06
441.38	3157.38
441.57	3126.96
441.75	3218.24
441.94	3307.18
442.12	3187.81
442.31	3283.77
442.50	3353.99
442.68	3389.10
442.87	3272.07
443.05	3316.54
443.24	3468.67
443.43	3316.54
443.61	3365.69
443.80	3442.93
443.98	3243.98
444.17	3295.47
444.35	3318.88
444.54	3382.07
444.73	3447.61
444.91	3412.50
445.10	3398.46
445.28	3342.28
445.47	3461.65
445.65	3384.41
445.84	3337.60
446.02	3482.72
446.21	3384.41
446.39	3393.78
446.58	3531.87
446.77	3604.42
446.95	3531.87
447.14	3442.93
447.32	3506.12
447.51	3438.25
447.69	3522.51
447.88	3550.59
448.06	3581.02
448.25	3562.30
448.43	3487.40
448.62	3393.78
448.80	3681.66
448.99	3564.64
449.17	3487.40
449.36	3611.45
449.54	3646.55
449.73	3611.45
449.91	3740.18
450.10	3723.79
450.28	3763.58
450.46	3770.60
450.65	3644.21
450.83	3637.19
451.02	3756.56
451.20	3723.79
451.39	3772.94
451.57	3770.60
451.76	3693.37
451.94	3817.41
452.13	3761.24
452.31	3693.37
452.49	3784.65
452.68	3742.52
452.86	3943.80
453.05	3953.16
453.23	3913.38
453.42	3901.67
453.60	3833.80
453.78	3960.19
453.97	3985.93
454.15	3950.82
454.34	3871.25
454.52	3861.88
454.70	3899.33
454.89	4133.39
455.07	4049.13
455.26	4044.45
455.44	4032.74
455.62	4037.42
455.81	3925.08
455.99	3943.80
456.17	4210.62
456.36	4070.19
456.54	4105.30
456.73	4278.50
456.91	4243.39
457.09	4320.63
457.28	4348.72
457.46	4334.67
457.64	4381.48
457.83	4306.59
458.01	4299.56
458.19	4292.54
458.38	4315.95
458.56	4458.72
458.74	4273.82
458.93	4409.57
459.11	4440.00
459.29	4475.10
459.48	4510.21
459.66	4320.63
459.84	4510.21
460.03	4587.45
460.21	4493.83
460.39	4451.70
460.57	4557.02
460.76	4526.60
460.94	4397.87
461.12	4528.94
461.31	4676.39
461.49	4606.17
461.67	4578.09
461.85	4737.24
462.04	4559.36
462.22	4802.78
462.40	4734.90
462.59	4606.17
462.77	4645.96
462.95	4606.17
463.13	4767.67
463.32	4748.95
463.50	4865.97
463.68	4704.48
463.86	4767.67
464.05	4760.65
464.23	4847.25
464.41	4835.55
464.59	4791.08
464.78	5032.15
464.96	4926.83
465.14	4889.38
465.32	4940.87
465.50	4884.70
465.69	4922.15
465.87	5146.84
466.05	5022.79
466.23	4809.80
466.41	4919.81
466.60	5376.21
466.78	4908.10
466.96	4931.51
467.14	4952.57
467.32	5228.76
467.51	5268.55
467.69	5025.13
467.87	5135.14
468.05	5090.67
468.23	5071.94
468.41	4938.53
468.60	5149.18
468.78	5352.81
468.96	5242.80
469.14	5277.91
469.32	5315.36
469.50	5121.09
469.69	5469.83
469.87	5270.89
470.05	5427.70
470.23	5446.43
470.41	5313.02
470.59	5434.72
470.77	5476.85
470.95	5502.60
471.14	5511.96
471.32	5614.95
471.50	5610.26
471.68	5411.32
471.86	5610.26
472.04	5518.98
472.22	5633.67
472.40	5596.22
472.58	5694.52
472.77	5757.72
472.95	5762.40
473.13	6029.22
473.31	5771.76
473.49	5923.90
473.67	5769.42
473.85	6012.84
474.03	5951.98
474.21	5982.41
474.39	6190.72
474.57	6005.81
474.75	6195.40
474.93	6176.67
475.12	6132.20
475.30	6167.31
475.48	6157.95
475.66	6235.19
475.84	6209.44
476.02	6375.62
476.20	6310.08
476.38	6483.28
476.56	6424.77
476.74	6511.37
476.92	6691.59
477.10	6455.20
477.28	6448.18
477.46	6548.82
477.64	6815.64
477.82	6696.27
478.00	6988.84
478.18	6949.05
478.36	7000.54
478.54	7077.78
478.72	6925.65
478.90	7061.40
479.08	7129.27
479.26	7215.87
479.44	7377.37
479.62	7290.77
479.80	7449.93
479.98	7375.03
480.16	7218.21
480.34	7440.56
480.52	7475.67
480.70	7541.21
480.88	7548.23
481.06	7632.49
481.24	7583.34
481.41	7681.64
481.59	7911.01
481.77	7978.89
481.95	8037.40
482.13	8140.38
482.31	8109.96
482.49	8318.26
482.67	8196.56
482.85	8554.66
483.03	8468.06
483.21	8327.63
483.39	8580.40
483.57	8383.80
483.74	8610.83
483.92	8664.66
484.10	8681.05
484.28	8809.78
484.46	8887.01
484.64	8954.89
484.82	8908.08
485.00	9121.07
485.18	9280.22
485.35	9362.14
485.53	9542.36
485.71	9561.09
485.89	9659.39
486.07	9717.90
486.25	9500.23
486.43	9413.63
486.61	9764.72
486.78	9895.78
486.96	9797.48
487.14	10209.42
487.32	9937.91
487.50	10223.46
487.68	9937.91
487.85	10120.48
488.03	10450.49
488.21	10562.84
488.39	10670.50
488.57	10478.58
488.75	10707.95
488.92	10913.92
489.10	10860.09
489.28	10820.30
489.46	11117.54
489.64	11157.33
489.81	11414.79
489.99	11098.82
490.17	11241.59
490.35	11325.85
490.53	11580.97
490.70	11714.38
490.88	11524.80
491.06	12004.61
491.24	11728.42
491.41	11960.14
491.59	11875.88
491.77	11892.26
491.95	12154.40
492.13	12088.87
492.30	12271.43
492.48	12077.16
492.66	12215.26
492.84	12175.47
493.01	12491.44
493.19	12535.91
493.37	12950.18
493.54	12699.75
493.72	12940.82
493.90	12564.00
494.08	12844.86
494.25	13067.21
494.43	13277.86
494.61	13046.15
494.79	13322.33
494.96	13341.05
495.14	13736.60
495.32	13563.40
495.49	13502.55
495.67	13750.65
495.85	13797.46
496.02	13867.67
496.20	13720.22
496.38	13752.99
496.55	13664.05
496.73	14139.18
496.91	14008.11
497.09	14384.93
497.26	14462.17
497.44	14279.61
497.62	14235.14
497.79	14485.58
497.97	14548.77
498.14	14731.33
498.32	14831.97
498.50	14796.87
498.67	14815.59
498.85	14864.74
499.03	15075.39
499.20	14724.31
499.38	15143.27
499.56	15178.37
499.73	15222.84
499.91	15377.32
500.08	15276.68
500.26	15150.29
500.44	15618.39
500.61	15398.38
500.79	15545.84
500.97	15480.30
501.14	15950.75
501.32	16025.65
501.49	15510.73
501.67	15590.31
501.84	15700.31
502.02	15903.94
502.20	16112.25
502.37	16245.66
502.55	15943.73
502.72	16133.31
502.90	16175.44
503.07	16210.55
503.25	16437.58
503.43	16224.59
503.60	16496.10
503.78	16688.02
503.95	16620.14
504.13	16444.60
504.30	16383.75
504.48	16269.06
504.65	16615.46
504.83	17057.82
505.01	16978.25
505.18	17074.21
505.36	17050.80
505.53	16957.18
505.71	16776.96
505.88	17048.46
506.06	16966.54
506.23	17205.28
506.41	17071.87
506.58	17525.93
506.76	17394.86
506.93	17387.84
507.11	17324.65
507.28	17418.27
507.46	17563.38
507.63	17776.37
507.81	17977.65
507.98	17476.78
508.16	17865.31
508.33	17818.50
508.50	17649.98
508.68	17715.51
508.85	18235.11
509.03	18317.03
509.20	18216.39
509.38	18277.24
509.55	18349.80
509.73	18211.71
509.90	18195.32
510.08	18508.96
510.25	18363.84
510.42	18412.99
510.60	18569.81
510.77	18621.30
510.95	19033.24
511.12	18181.28
511.30	18752.37
511.47	19066.00
511.64	18951.32
511.82	19190.05
511.99	19007.49
512.17	19239.20
512.34	18909.19
512.51	19131.54
512.69	19049.62
512.86	19370.27
513.04	19236.86
513.21	19335.17
513.38	19449.85
513.56	19377.30
513.73	19075.37
513.90	19295.38
514.08	19225.16
514.25	19438.15
514.43	19660.50
514.60	19655.82
514.77	19765.82
514.95	20023.28
515.12	19623.05
515.29	19719.01
515.47	19522.41
515.64	19859.45
515.81	19953.07
515.99	20266.70
516.16	20540.54
516.33	20128.61
516.51	20416.49
516.68	20095.84
516.85	19906.26
517.03	20283.08
517.20	20402.45
517.37	20098.18
517.54	20428.20
517.72	20369.68
517.89	20409.47
518.06	20510.11
518.24	20854.17
518.41	20748.85
518.58	20692.68
518.75	20760.55
518.93	20987.58
519.10	20737.15
519.27	21013.33
519.45	20847.15
519.62	21050.78
519.79	20819.07
519.96	20915.03
520.14	21078.86
520.31	21191.21
520.48	21355.05
520.65	21095.25
520.83	21472.07
521.00	21298.88
521.17	21338.66
521.34	21263.77
521.52	21472.07
521.69	21518.89
521.86	21476.76
522.03	21546.97
522.20	21617.19
522.38	21675.70
522.55	21919.12
522.72	21490.80
522.89	21687.40
523.07	22068.91
523.24	21624.21
523.41	22174.24
523.58	21750.60
523.75	21951.88
523.92	21582.08
524.10	22178.92
524.27	22242.11
524.44	22363.82
524.61	22506.59
524.78	22644.68
524.96	22354.46
525.13	22546.38
525.30	22562.76
525.47	22796.82
525.64	22675.11
525.81	22459.78
525.98	22473.82
526.16	22487.87
526.33	22700.86
526.50	23381.95
526.67	22707.88
526.84	22700.86
527.01	22733.62
527.18	22616.60
527.36	22766.39
527.53	23194.71
527.70	23119.81
527.87	23566.85
528.04	23124.49
528.21	23281.31
528.38	23239.18
528.55	23115.13
528.72	23236.84
528.89	23403.02
529.07	23388.97
529.24	23154.92
529.41	23515.36
529.58	23274.29
529.75	23821.97
529.92	23786.86
530.09	23370.25
530.26	23459.19
530.43	23765.80
530.60	23501.32
530.77	23754.10
530.94	23768.14
531.11	23513.02
531.28	23742.39
531.46	23655.79
531.63	23606.64
531.80	23765.80
531.97	24079.43
532.14	24149.65
532.31	23920.28
532.48	23831.33
532.65	23845.38
532.82	23845.38
532.99	24009.22
533.16	23782.18
533.33	24208.16
533.50	24645.84
533.67	24613.07
533.84	24287.74
534.01	24437.53
534.18	24159.01
534.35	24283.06
534.52	24409.45
534.69	24182.42
534.86	25001.60
535.03	24236.25
535.20	24353.27
535.37	24240.93
535.54	24826.06
535.71	24254.97
535.88	24570.94
536.05	24744.14
536.22	24940.75
536.38	25113.95
536.55	24886.92
536.72	24915.00
536.89	24800.32
537.06	25282.47
537.23	24690.31
537.40	24753.51
537.57	25020.33
537.74	25034.37
537.91	25357.36
538.08	25085.86
538.25	25064.80
538.42	25343.32
538.59	25724.83
538.75	25015.65
538.92	25275.45
539.09	25263.74
539.26	25315.23
539.43	25425.24
539.60	25727.17
539.77	25537.59
539.94	25420.56
540.11	25685.04
540.28	25425.24
540.44	25303.53
540.61	25415.88
540.78	25230.98
540.95	25429.92
541.12	25755.26
541.29	25905.05
541.46	25869.94
541.62	25713.13
541.79	25413.54
541.96	25607.80
542.13	25434.60
542.30	25619.50
542.47	26082.93
542.63	26214.00
542.80	25729.51
542.97	26094.63
543.14	26373.16
543.31	26494.86
543.48	25876.96
543.64	26155.49
543.81	26326.35
543.98	26408.26
544.15	26239.75
544.32	26162.51
544.48	26682.11
544.65	26672.74
544.82	26670.40
544.99	26160.17
545.16	26328.69
545.32	26384.86
545.49	26714.87
545.66	27108.08
545.83	26834.24
546.00	26731.26
546.16	26710.19
546.33	27075.32
546.50	26412.95
546.67	26682.11
546.83	26764.03
547.00	26703.17
547.17	26740.62
547.34	26759.34
547.50	27072.98
547.67	27550.45
547.84	26759.34
548.00	26998.08
548.17	27126.81
548.34	27552.79
548.51	27054.25
548.67	27110.43
548.84	27197.02
549.01	27047.23
549.18	27016.80
549.34	27159.58
549.51	26944.25
549.68	27442.78
549.84	26752.32
550.01	27466.19
550.18	27309.37
550.34	27234.47
550.51	27552.79
550.68	27426.40
550.84	27080.00
551.01	27524.70
551.18	27470.87
551.34	27522.36
551.51	27470.87
551.68	27828.97
551.84	27475.55
552.01	27468.53
552.18	27821.95
552.34	27292.99
552.51	27438.10
552.68	27541.08
552.84	27402.99
553.01	27803.22
553.18	27578.53
553.34	27672.15
553.51	27768.12
553.67	27623.00
553.84	27861.74
554.01	28137.92
554.17	28346.23
554.34	28194.09
554.51	27644.07
554.67	28166.01
554.84	28002.17
555.00	27995.15
555.17	27868.76
555.33	28184.73
555.50	27896.85
555.67	27871.10
555.83	28039.62
556.00	27992.81
556.16	28432.83
556.33	27948.34
556.50	28226.86
556.66	28472.62
556.83	28194.09
556.99	28510.07
557.16	28369.63
557.32	28453.89
557.49	28163.67
557.65	28318.14
557.82	28339.21
557.98	28346.23
558.15	28374.31
558.32	28376.66
558.48	28261.97
558.65	28809.65
558.81	28437.51
558.98	28648.16
559.14	28456.23
559.31	28638.80
559.47	28430.49
559.64	28662.20
559.80	28341.55
559.97	28538.15
560.13	28247.93
560.30	28884.55
560.46	28662.20
560.63	28264.31
560.79	28730.08
560.96	28781.57
561.12	28725.39
561.29	28636.45
561.45	28606.03
561.61	28566.24
561.78	28627.09
561.94	28919.66
562.11	29046.05
562.27	28723.05
562.44	28882.21
562.60	28842.42
562.77	28753.48
562.93	28531.13
563.10	29015.62
563.26	29041.37
563.42	29144.35
563.59	29259.04
563.75	29394.79
563.92	28760.50
564.08	28786.25
564.24	28865.83
564.41	28439.85
564.57	28549.85
564.74	29043.71
564.90	29261.38
565.07	29350.32
565.23	28940.72
565.39	28837.74
565.56	29600.76
565.72	28933.70
565.88	28666.88
566.05	28868.17
566.21	28959.45
566.38	28844.76
566.54	29125.63
566.70	29249.67
566.87	29429.90
567.03	28819.02
567.19	29170.10
567.36	29233.29
567.52	29198.18
567.68	29352.66
567.85	29184.14
568.01	29186.48
568.17	29317.55
568.34	29493.09
568.50	29221.59
568.66	29338.62
568.83	29228.61
568.99	29188.82
569.15	29188.82
569.32	29270.74
569.48	28961.79
569.64	29202.86
569.81	29331.59
569.97	29036.69
570.13	29521.18
570.30	29240.31
570.46	29273.08
570.62	29422.87
570.78	29385.43
570.95	29254.36
571.11	29249.67
571.27	29106.90
571.43	29261.38
571.60	29425.22
571.76	29350.32
571.92	29149.03
572.09	29607.78
572.25	29560.97
572.41	29811.40
572.57	29413.51
572.74	29673.31
572.90	29060.09
573.06	29160.73
573.22	29289.46
573.38	29640.54
573.55	29350.32
573.71	30043.12
573.87	29806.72
574.03	29467.34
574.20	29020.30
574.36	29731.83
574.52	29027.32
574.68	29336.27
574.84	29663.95
575.01	29652.25
575.17	29652.25
575.33	29191.16
575.49	29715.44
575.65	29771.61
575.82	29537.56
575.98	29387.77
576.14	29685.01
576.30	29727.14
576.46	29563.31
576.62	29067.11
576.79	30132.06
576.95	29855.87
577.11	29575.01
577.27	29799.70
577.43	29881.62
577.59	30005.67
577.75	29750.55
577.92	29254.36
578.08	29380.74
578.24	29448.62
578.40	29617.14
578.56	29825.45
578.72	29666.29
578.88	29940.13
579.04	29518.84
579.21	29572.67
579.37	29907.37
579.53	29715.44
579.69	29404.15
579.85	29975.24
580.01	29469.69
580.17	29572.67
580.33	29385.43
580.49	29811.40
580.65	29949.50
580.82	29514.16
580.98	29488.41
581.14	29675.65
581.30	29769.27
581.46	29933.11
581.62	29497.77
581.78	29883.96
581.94	29575.01
582.10	29694.38
582.26	29532.88
582.42	30029.07
582.58	29890.98
582.74	29795.02
582.90	29378.40
583.06	29612.46
583.22	30099.29
583.38	29661.61
583.54	29699.06
583.70	30178.87
583.86	29759.91
584.02	29357.34
584.18	30157.80
584.34	29811.40
584.50	30206.95
584.66	29734.17
584.82	29715.44
584.98	29853.53
585.14	29970.56
585.30	29699.06
585.46	29867.58
585.62	29670.97
585.78	29626.50
585.94	29216.91
586.10	29965.88
586.26	29926.09
586.42	29862.90
586.58	29972.90
586.74	29881.62
586.90	29598.41
587.06	29886.30
587.22	29720.12
587.38	29406.49
587.54	30017.37
587.70	30323.98
587.86	30321.64
588.02	30426.96
588.18	30342.70
588.34	29984.60
588.49	30253.76
588.65	29488.41
588.81	29734.17
588.97	29993.97
589.13	29914.39
589.29	29832.47
589.45	30031.41
589.61	30080.56
589.77	30249.08
589.93	30288.87
590.08	30150.78
590.24	30375.47
590.40	30157.80
590.56	30148.44
590.72	29883.96
590.88	29898.00
591.04	30071.20
591.20	30450.37
591.35	30253.76
591.51	30206.95
591.67	30382.49
591.83	30452.71
591.99	30309.94
