SpectraSuite Data File
++++++++++++++++++++++++++++++++++++
Date: Fri Oct 18 13:58:11 GMT-05:00 2013
User: bianchi
Dark Spectrum Present: No
Reference Spectrum Present: No
Number of Sampled Component Spectra: 1
Spectrometers: USB2+H05261
Integration Time (usec): 50000 (USB2+H05261)
Spectra Averaged: 1 (USB2+H05261)
Boxcar Smoothing: 0 (USB2+H05261)
Correct for Electrical Dark: No (USB2+H05261)
Strobe/Lamp Enabled: No (USB2+H05261)
Correct for Detector Non-linearity: No (USB2+H05261)
Correct for Stray Light: No (USB2+H05261)
Number of Pixels in Processed Spectrum: 2048
>>>>>Begin Processed Spectral Data<<<<<
365.73	0.00
365.92	0.00
366.12	0.00
366.32	0.00
366.52	0.00
366.72	0.00
366.91	0.00
367.11	0.00
367.31	0.00
367.51	0.00
367.70	0.00
367.90	0.00
368.10	0.00
368.30	0.00
368.49	0.00
368.69	0.00
368.89	0.00
369.09	0.00
369.28	0.00
369.48	0.00
369.68	0.00
369.87	0.00
370.07	0.00
370.27	0.00
370.47	0.00
370.66	95.96
370.86	121.71
371.06	114.69
371.25	32.77
371.45	88.94
371.65	170.86
371.84	170.86
372.04	138.09
372.24	145.11
372.44	224.69
372.63	220.01
372.83	262.14
373.03	217.67
373.22	222.35
373.42	175.54
373.62	175.54
373.81	210.65
374.01	252.78
374.21	322.99
374.40	224.69
374.60	201.29
374.79	191.92
374.99	271.50
375.19	236.39
375.38	234.05
375.58	292.57
375.78	215.33
375.97	290.23
376.17	273.84
376.37	294.91
376.56	203.63
376.76	290.23
376.95	334.70
377.15	212.99
377.35	304.27
377.54	264.48
377.74	269.16
377.93	306.61
378.13	257.46
378.33	315.97
378.52	290.23
378.72	229.37
378.91	285.55
379.11	287.89
379.31	315.97
379.50	273.84
379.70	341.72
379.89	318.31
380.09	306.61
380.28	358.10
380.48	252.78
380.68	365.12
380.87	397.89
381.07	290.23
381.26	339.38
381.46	348.74
381.65	369.80
381.85	294.91
382.04	315.97
382.24	318.31
382.43	369.80
382.63	421.30
382.83	337.04
383.02	393.21
383.22	442.36
383.41	304.27
383.61	365.12
383.80	388.53
384.00	407.25
384.19	372.15
384.39	381.51
384.58	414.27
384.78	421.30
384.97	374.49
385.17	376.83
385.36	367.46
385.56	369.80
385.75	390.87
385.95	407.25
386.14	369.80
386.34	477.47
386.53	425.98
386.72	397.89
386.92	402.57
387.11	418.96
387.31	414.27
387.50	404.91
387.70	456.40
387.89	454.06
388.09	376.83
388.28	475.13
388.48	479.81
388.67	465.77
388.86	449.38
389.06	444.70
389.25	498.53
389.45	517.26
389.64	564.07
389.84	517.26
390.03	519.60
390.22	503.22
390.42	461.09
390.61	512.58
390.81	423.64
391.00	538.32
391.19	564.07
391.39	482.15
391.58	404.91
391.78	482.15
391.97	589.82
392.16	543.00
392.36	645.99
392.55	575.77
392.75	484.49
392.94	550.03
393.13	538.32
393.33	631.94
393.52	573.43
393.71	592.16
393.91	596.84
394.10	540.66
394.29	566.41
394.49	599.18
394.68	573.43
394.88	554.71
395.07	643.65
395.26	641.31
395.46	608.54
395.65	610.88
395.84	624.92
396.04	578.11
396.23	697.48
396.42	613.22
396.62	683.44
396.81	713.86
397.00	706.84
397.19	737.27
397.39	711.52
397.58	723.23
397.77	638.97
397.97	627.26
398.16	629.60
398.35	774.72
398.55	711.52
398.74	674.07
398.93	695.14
399.12	697.48
399.32	741.95
399.51	765.36
399.70	704.50
399.90	739.61
400.09	755.99
400.28	786.42
400.47	798.12
400.67	767.70
400.86	840.25
401.05	847.27
401.24	812.17
401.44	821.53
401.63	823.87
401.82	854.30
402.01	774.72
402.21	819.19
402.40	835.57
402.59	784.08
402.78	784.08
402.97	873.02
403.17	786.42
403.36	833.23
403.55	877.70
403.74	812.17
403.93	779.40
404.13	896.43
404.32	880.04
404.51	976.00
404.70	987.71
404.89	994.73
405.09	1022.81
405.28	940.90
405.47	1006.43
405.66	1046.22
405.85	1067.28
406.05	931.53
406.24	1053.24
406.43	1020.47
406.62	1020.47
406.81	1090.69
407.00	1048.56
407.20	999.41
407.39	1083.67
407.58	1055.58
407.77	1125.80
407.96	1062.60
408.15	992.39
408.34	1090.69
408.54	1111.75
408.73	1081.33
408.92	1153.88
409.11	1095.37
409.30	1149.20
409.49	1193.67
409.68	1188.99
409.87	1139.84
410.07	1163.25
410.26	1210.06
410.45	1233.46
410.64	1275.59
410.83	1165.59
411.02	1233.46
411.21	1303.68
411.40	1268.57
411.59	1254.53
411.78	1275.59
411.98	1268.57
412.17	1282.61
412.36	1313.04
412.55	1495.60
412.74	1320.06
412.93	1418.36
413.12	1401.98
413.31	1427.73
413.50	1416.02
413.69	1392.62
413.88	1507.30
414.07	1500.28
414.26	1446.45
414.45	1533.05
414.64	1497.94
414.83	1540.07
415.02	1483.90
415.22	1453.47
415.41	1694.55
415.60	1514.33
415.79	1584.54
415.98	1624.33
416.17	1617.31
416.36	1558.80
416.55	1652.42
416.74	1668.80
416.93	1652.42
417.12	1673.48
417.31	1659.44
417.50	1643.06
417.69	1788.17
417.88	1846.68
418.07	1795.19
418.26	1757.74
418.45	1724.97
418.64	1844.34
418.83	1827.96
419.02	1753.06
419.21	1790.51
419.39	1809.23
419.58	1956.69
419.77	1813.92
419.96	1956.69
420.15	1914.56
420.34	1947.33
420.53	1909.88
420.72	1942.64
420.91	1970.73
421.10	2003.50
421.29	2050.31
421.48	1989.46
421.67	1998.82
421.86	1933.28
422.05	2085.42
422.24	1921.58
422.43	1916.90
422.61	1977.75
422.80	2010.52
422.99	2062.01
423.18	2115.84
423.37	2019.88
423.56	2062.01
423.75	2064.35
423.94	1961.37
424.13	1916.90
424.32	1916.90
424.50	2043.29
424.69	2120.53
424.88	2057.33
425.07	2064.35
425.26	2106.48
425.45	2085.42
425.64	2071.37
425.83	2059.67
426.01	2146.27
426.20	2104.14
426.39	2059.67
426.58	2050.31
426.77	2022.22
426.96	2094.78
427.15	2232.87
427.33	2111.16
427.52	2165.00
427.71	2244.57
427.90	2275.00
428.09	2209.47
428.28	2279.68
428.46	2169.68
428.65	2265.64
428.84	2382.67
429.03	2282.02
429.22	2232.87
429.40	2284.36
429.59	2246.91
429.78	2155.63
429.97	2190.74
430.16	2270.32
430.34	2275.00
430.53	2469.27
430.72	2258.62
430.91	2307.77
431.10	2319.47
431.28	2389.69
431.47	2443.52
431.66	2445.86
431.85	2410.75
432.03	2487.99
432.22	2427.14
432.41	2406.07
432.60	2567.57
432.79	2420.11
432.97	2450.54
433.16	2635.44
433.35	2436.50
433.54	2541.82
433.72	2509.05
433.91	2539.48
434.10	2530.12
434.28	2562.89
434.47	2581.61
434.66	2677.57
434.85	2567.57
435.03	2747.79
435.22	2532.46
435.41	2705.66
435.59	2801.62
435.78	2675.23
435.97	2832.05
436.16	2794.60
436.34	2703.32
436.53	2712.68
436.72	2726.72
436.90	2583.95
437.09	2712.68
437.28	2644.81
437.46	2878.86
437.65	2717.36
437.84	2796.94
438.02	2820.35
438.21	2979.50
438.40	2916.31
438.58	2834.39
438.77	2846.09
438.96	2977.16
439.14	3063.76
439.33	2988.86
439.52	2892.90
439.70	2913.97
439.89	3056.74
440.08	3136.32
440.26	3159.72
440.45	3080.14
440.63	3103.55
440.82	3213.56
441.01	3136.32
441.19	3190.15
441.38	3215.90
441.57	3269.73
441.75	3222.92
441.94	3353.99
442.12	3218.24
442.31	3426.54
442.50	3433.57
442.68	3328.24
442.87	3377.39
443.05	3368.03
443.24	3517.83
443.43	3412.50
443.61	3496.76
443.80	3583.36
443.98	3396.12
444.17	3480.38
444.35	3414.84
444.54	3478.04
444.73	3592.72
444.91	3520.17
445.10	3452.29
445.28	3419.52
445.47	3419.52
445.65	3581.02
445.84	3590.38
446.02	3531.87
446.21	3494.42
446.39	3510.80
446.58	3618.47
446.77	3576.34
446.95	3459.31
447.14	3672.30
447.32	3581.02
447.51	3566.98
447.69	3660.60
447.88	3597.40
448.06	3679.32
448.25	3552.93
448.43	3651.24
448.62	3566.98
448.80	3700.39
448.99	3632.51
449.17	3632.51
449.36	3655.92
449.54	3676.98
449.73	3707.41
449.91	3777.62
450.10	3707.41
450.28	3684.00
450.46	3824.44
450.65	3873.59
450.83	3829.12
451.02	3843.16
451.20	3836.14
451.39	3946.14
451.57	3735.50
451.76	3885.29
451.94	3964.87
452.13	3957.85
452.31	3941.46
452.49	3983.59
452.68	4011.68
452.86	3929.76
453.05	4035.08
453.23	4046.79
453.42	3932.10
453.60	3838.48
453.78	3967.21
453.97	4077.21
454.15	4095.94
454.34	4109.98
454.52	4046.79
454.70	4119.34
454.89	4154.45
455.07	4081.89
455.26	4098.28
455.44	4095.94
455.62	4194.24
455.81	4084.23
455.99	4187.22
456.17	4159.13
456.36	4278.50
456.54	4245.73
456.73	4383.82
456.91	4432.97
457.09	4545.32
457.28	4369.78
457.46	4348.72
457.64	4454.04
457.83	4395.53
458.01	4463.40
458.19	4397.87
458.38	4386.16
458.56	4559.36
458.74	4496.17
458.93	4395.53
459.11	4557.02
459.29	4510.21
459.48	4512.55
459.66	4514.89
459.84	4594.47
460.03	4585.11
460.21	4599.15
460.39	4669.37
460.57	4475.10
460.76	4655.33
460.94	4620.22
461.12	4557.02
461.31	4805.12
461.49	4521.92
461.67	4779.37
461.85	4606.17
462.04	4847.25
462.22	4992.36
462.40	4877.68
462.59	4786.40
462.77	4819.16
462.95	4931.51
463.13	4755.97
463.32	4865.97
463.50	4882.36
463.68	4945.55
463.86	5083.64
464.05	4954.91
464.23	4868.31
464.41	5102.37
464.59	4983.00
464.78	5055.56
464.96	5029.81
465.14	4940.87
465.32	4950.23
465.50	5069.60
465.69	5095.35
465.87	5090.67
466.05	5071.94
466.23	4943.21
466.41	5130.45
466.60	5284.93
466.78	5149.18
466.96	5172.58
467.14	5142.16
467.32	5247.48
467.51	5329.40
467.69	5093.01
467.87	5235.78
468.05	5301.31
468.23	5116.41
468.41	5249.82
468.60	5364.51
468.78	5380.89
468.96	5179.61
469.14	5352.81
469.32	5561.11
469.50	5305.99
469.69	5528.35
469.87	5549.41
470.05	5617.29
470.23	5542.39
470.41	5547.07
470.59	5619.63
470.77	5441.75
470.95	5540.05
471.14	5593.88
471.32	5589.20
471.50	5685.16
471.68	5837.30
471.86	5870.06
472.04	5596.22
472.22	5788.14
472.40	5909.85
472.58	5900.49
472.77	5947.30
472.95	6120.50
473.13	6076.03
473.31	5846.66
473.49	5713.25
473.67	6120.50
473.85	5956.66
474.03	6125.18
474.21	6143.91
474.39	6286.68
474.57	6157.95
474.75	6223.48
474.93	6321.79
475.12	6321.79
475.30	6263.27
475.48	6333.49
475.66	6464.56
475.84	6551.16
476.02	6516.05
476.20	6438.81
476.38	6623.72
476.56	6803.94
476.74	6733.72
476.92	6586.27
477.10	6878.83
477.28	6942.03
477.46	6874.15
477.64	7063.74
477.82	6920.96
478.00	6939.69
478.18	7019.27
478.36	7176.08
478.54	7077.78
478.72	7225.23
478.90	7328.22
479.08	7396.09
479.26	7368.01
479.44	7510.78
479.62	7431.20
479.80	7644.19
479.98	7552.91
480.16	7602.06
480.34	7817.39
480.52	7801.01
480.70	7889.95
480.88	8013.99
481.06	7864.20
481.24	7943.78
481.41	8100.59
481.59	8067.83
481.77	8285.50
481.95	8336.99
482.13	8297.20
482.31	8119.32
482.49	8645.94
482.67	8339.33
482.85	8648.28
483.03	8627.21
483.21	8517.21
483.39	8699.77
483.57	8674.03
483.74	8842.54
483.92	8767.65
484.10	8954.89
484.28	9069.58
484.46	9348.10
484.64	9521.30
484.82	9254.48
485.00	9413.63
485.18	9647.69
485.35	9692.16
485.53	9610.24
485.71	9776.42
485.89	9870.04
486.07	9731.95
486.25	9694.50
486.43	9951.96
486.61	10155.58
486.78	10001.11
486.96	10139.20
487.14	10399.00
487.32	10277.29
487.50	10005.79
487.68	10218.78
487.85	10651.78
488.03	10586.24
488.21	10881.15
488.39	10654.12
488.57	10860.09
488.75	10923.28
488.92	11037.97
489.10	11283.72
489.28	11323.51
489.46	11375.00
489.64	11365.64
489.81	11566.93
489.99	11393.73
490.17	11587.99
490.35	11791.62
490.53	11875.88
490.70	11810.34
490.88	12037.38
491.06	12042.06
491.24	12074.82
491.41	11976.52
491.59	12107.59
491.77	12304.20
491.95	12241.00
492.13	12540.59
492.30	12669.32
492.48	12882.31
492.66	12727.83
492.84	12697.41
493.01	12879.97
493.19	12861.24
493.37	13053.17
493.54	12964.23
493.72	13142.11
493.90	13083.59
494.08	13308.29
494.25	13277.86
494.43	13507.23
494.61	13537.66
494.79	13610.22
494.96	13717.88
495.14	13760.01
495.32	13954.27
495.49	13862.99
495.67	14225.78
495.85	14024.49
496.02	14260.88
496.20	14066.62
496.38	14200.03
496.55	14448.13
496.73	14448.13
496.91	14457.49
497.09	14487.92
497.26	14810.91
497.44	14745.38
497.62	14991.13
497.79	14881.13
497.97	14967.73
498.14	15260.29
498.32	15089.43
498.50	15396.04
498.67	15225.18
498.85	15185.40
499.03	15358.60
499.20	15215.82
499.38	15527.11
499.56	15384.34
499.73	15648.82
499.91	15641.80
500.08	15662.86
500.26	15531.80
500.44	15644.14
500.61	15829.04
500.79	15936.71
500.97	15985.86
501.14	16217.57
501.32	16187.14
501.49	16126.29
501.67	16119.27
501.84	16573.33
502.02	16313.53
502.20	16376.73
502.37	16538.23
502.55	16592.06
502.72	16664.61
502.90	16631.85
503.07	16596.74
503.25	16669.30
503.43	17018.04
503.60	16755.90
503.78	17118.68
503.95	16690.36
504.13	16893.99
504.30	17104.64
504.48	17048.46
504.65	17200.60
504.83	17165.49
505.01	17792.75
505.18	17572.74
505.36	17701.47
505.53	17408.90
505.71	17341.03
505.88	17462.74
506.06	17586.79
506.23	17916.80
506.41	17521.25
506.58	17790.41
506.76	17743.60
506.93	17762.33
507.11	17914.46
507.28	17994.04
507.46	18164.90
507.63	18134.47
507.81	18150.85
507.98	18448.10
508.16	18185.96
508.33	18464.49
508.50	18094.68
508.68	18242.14
508.85	18445.76
509.03	18939.62
509.20	18609.60
509.38	18649.39
509.55	18764.07
509.73	18712.58
509.90	18637.69
510.08	18953.66
510.25	18689.18
510.42	19058.98
510.60	19566.88
510.77	18991.11
510.95	19180.69
511.12	19208.78
511.30	18909.19
511.47	19047.28
511.64	19389.00
511.82	19377.30
511.99	19433.47
512.17	19590.28
512.34	19454.53
512.51	19791.57
512.69	19789.23
512.86	19674.54
513.04	19927.32
513.21	19625.39
513.38	20018.60
513.56	19915.62
513.73	19978.81
513.90	19908.60
514.08	20023.28
514.25	20332.23
514.43	20276.06
514.60	20306.49
514.77	20292.44
514.95	20374.36
515.12	20269.04
515.29	20568.63
515.47	20702.04
515.64	20439.90
515.81	20666.93
515.99	20734.81
516.16	21125.68
516.33	21027.37
516.51	20905.66
516.68	20636.50
516.85	20760.55
517.03	21064.82
517.20	21085.89
517.37	21151.42
517.54	21221.64
517.72	21500.16
517.89	20954.82
518.06	21083.55
518.24	21216.96
518.41	21146.74
518.58	21174.83
518.75	21301.22
518.93	21441.65
519.10	21284.83
519.27	21708.47
519.45	21523.57
519.62	21795.07
519.79	21642.93
519.96	21827.84
520.14	21874.65
520.31	21549.31
520.48	21923.80
520.65	21539.95
520.83	22010.40
521.00	21923.80
521.17	22106.36
521.34	22118.06
521.52	22548.72
521.69	22312.33
521.86	22363.82
522.03	22539.36
522.20	22286.58
522.38	22391.91
522.55	22302.96
522.72	22244.45
522.89	22410.63
523.07	22705.54
523.24	22799.16
523.41	22953.63
523.58	22602.55
523.75	23145.56
523.92	22546.38
524.10	22773.41
524.27	22998.10
524.44	22817.88
524.61	22951.29
524.78	22965.34
524.96	23239.18
525.13	23096.41
525.30	23363.23
525.47	23227.48
525.64	23115.13
525.81	23290.67
525.98	23171.30
526.16	23386.63
526.33	23487.28
526.50	23623.03
526.67	23559.83
526.84	23665.16
527.01	23578.56
527.18	23503.66
527.36	23606.64
527.53	23985.81
527.70	24063.05
527.87	23976.45
528.04	23765.80
528.21	23962.40
528.38	23831.33
528.55	23695.58
528.72	24037.30
528.89	24053.69
529.07	24198.80
529.24	24063.05
529.41	24114.54
529.58	23981.13
529.75	23955.38
529.92	24203.48
530.09	24357.96
530.26	24203.48
530.43	24184.76
530.60	24577.97
530.77	24339.23
530.94	24500.73
531.11	24460.94
531.28	24435.19
531.46	24271.36
531.63	24702.01
531.80	24828.40
531.97	24886.92
532.14	24898.62
532.31	24835.42
532.48	24830.74
532.65	24638.82
532.82	24706.70
532.99	24783.93
533.16	24652.86
533.33	24805.00
533.50	25132.67
533.67	25102.25
533.84	25160.76
534.01	25156.08
534.18	25095.22
534.35	25062.46
534.52	24982.88
534.69	25439.28
534.86	25284.81
535.03	25275.45
535.20	25474.39
535.37	25235.66
535.54	25429.92
535.71	25289.49
535.88	25216.93
536.05	25443.96
536.22	25598.44
536.38	25542.27
536.55	25720.15
536.72	26019.74
536.89	25605.46
537.06	25603.12
537.23	25902.71
537.40	25717.81
537.57	25710.78
537.74	25986.97
537.91	26185.91
538.08	26122.72
538.25	26291.24
538.42	25790.36
538.59	25968.24
538.75	25961.22
538.92	26092.29
539.09	26221.02
539.26	26171.87
539.43	26106.34
539.60	26478.48
539.77	26249.11
539.94	26401.24
540.11	26192.94
540.28	26436.35
540.44	26162.51
540.61	26106.34
540.78	26302.94
540.95	26249.11
541.12	26810.84
541.29	26497.20
541.46	26752.32
541.62	26438.69
541.79	26335.71
541.96	26328.69
542.13	26206.98
542.30	27168.94
542.47	26834.24
542.63	26958.29
542.80	26953.61
542.97	26820.20
543.14	27094.04
543.31	27072.98
543.48	27161.92
543.64	27213.41
543.81	27300.01
543.98	27260.22
544.15	27206.39
544.32	27321.07
544.48	27356.18
544.65	27250.86
544.82	27133.83
544.99	27161.92
545.16	27115.11
545.32	27351.50
545.49	27400.65
545.66	27623.00
545.83	27765.78
546.00	27709.60
546.16	27527.04
546.33	27613.64
546.50	27030.85
546.67	27513.00
546.83	27278.94
547.00	27440.44
547.17	27754.07
547.34	27555.13
547.50	27744.71
547.67	27756.41
547.84	27564.49
548.00	27697.90
548.17	28170.69
548.34	28130.90
548.51	27693.22
548.67	28095.79
548.84	28027.92
549.01	28135.58
549.18	27828.97
549.34	27899.19
549.51	27782.16
549.68	27714.28
549.84	28039.62
550.01	28067.70
550.18	27676.83
550.34	28058.34
550.51	28416.44
550.68	28205.80
550.84	28034.94
551.01	28334.53
551.18	27934.29
551.34	27999.83
551.51	28549.85
551.68	28744.12
551.84	28730.08
552.01	28552.20
552.18	28489.00
552.34	28315.80
552.51	28460.91
552.68	28484.32
552.84	28407.08
553.01	28519.43
553.18	28276.01
553.34	28968.81
553.51	28283.03
553.67	28762.84
553.84	28758.16
554.01	28503.04
554.17	28917.32
554.34	28896.25
554.51	28861.15
554.67	28936.04
554.84	29010.94
555.00	28872.85
555.17	28870.51
555.33	28933.70
555.50	28776.89
555.67	29109.24
555.83	28886.89
556.00	28957.11
556.16	29090.52
556.33	29298.83
556.50	29151.37
556.66	28968.81
556.83	29106.90
556.99	29659.27
557.16	29455.64
557.32	29563.31
557.49	29617.14
557.65	29127.97
557.82	28886.89
557.98	29425.22
558.15	29132.65
558.32	29078.82
558.48	29003.92
558.65	29675.65
558.81	29680.33
558.98	29476.71
559.14	29516.50
559.31	28879.87
559.47	29397.13
559.64	29074.13
559.80	29631.18
559.97	29699.06
560.13	29699.06
560.30	29556.28
560.46	29535.22
560.63	29567.99
560.79	29780.98
560.96	29846.51
561.12	29715.44
561.29	29427.56
561.45	29839.49
561.61	29844.17
561.78	29663.95
561.94	29902.68
562.11	29563.31
562.27	29933.11
562.44	29797.36
562.60	29799.70
562.77	29780.98
562.93	29720.12
563.10	29923.75
563.26	29823.11
563.42	30450.37
563.59	29886.30
563.75	30043.12
563.92	30263.13
564.08	29596.07
564.24	29628.84
564.41	29453.30
564.57	29785.66
564.74	29633.52
564.90	30239.72
565.07	30209.29
565.23	30195.25
565.39	30169.51
565.56	30335.68
565.72	30068.86
565.88	29937.79
566.05	30237.38
566.21	30089.93
566.38	30160.14
566.54	30169.51
566.70	30455.05
566.87	30431.65
567.03	30197.59
567.19	30614.21
567.36	30686.76
567.52	30024.39
567.68	30419.94
567.85	30225.68
568.01	30466.75
568.17	30164.82
568.34	30103.97
568.50	30412.92
568.66	30279.51
568.83	30497.18
568.99	30040.78
569.15	30300.58
569.32	30162.48
569.48	30005.67
569.64	30462.07
569.81	30263.13
569.97	30455.05
570.13	30726.55
570.30	30525.27
570.46	30366.11
570.62	30389.52
570.78	30534.63
570.95	29993.97
571.11	30658.68
571.27	30089.93
571.43	30305.26
571.60	30522.93
571.76	30300.58
571.92	30487.82
572.09	30558.03
572.25	30473.78
572.41	30668.04
572.57	30368.45
572.74	30686.76
572.90	30593.14
573.06	30551.01
573.22	30705.49
573.38	30370.79
573.55	30300.58
573.71	30679.74
573.87	30775.70
574.03	30967.63
574.20	30209.29
574.36	30288.87
574.52	30525.27
574.68	30073.54
574.84	30476.12
575.01	30513.56
575.17	30913.80
575.33	30424.62
575.49	30513.56
575.65	30494.84
575.82	30764.00
575.98	30426.96
576.14	30672.72
576.30	30499.52
576.46	30492.50
576.62	30576.76
576.79	30501.86
576.95	30808.47
577.11	30958.27
577.27	30534.63
577.43	30848.26
577.59	30738.26
577.75	30431.65
577.92	30490.16
578.08	30340.36
578.24	30684.42
578.40	30661.02
578.56	30623.57
578.72	30836.56
578.88	31049.55
579.04	31065.93
579.21	30717.19
579.37	30714.85
579.53	30658.68
579.69	30323.98
579.85	30831.88
580.01	30934.86
580.17	30635.27
580.33	30672.72
580.49	30464.41
580.65	30852.94
580.82	30829.54
580.98	30710.17
581.14	31072.95
581.30	30768.68
581.46	30792.09
581.62	30684.42
581.78	30817.83
581.94	30490.16
582.10	30595.48
582.26	30792.09
582.42	30796.77
582.58	30686.76
582.74	30916.14
582.90	30742.94
583.06	31152.53
583.22	30534.63
583.38	31098.70
583.54	30700.81
583.70	30712.51
583.86	30649.32
584.02	30892.73
584.18	30668.04
584.34	31061.25
584.50	30925.50
584.66	30923.16
584.82	30707.83
584.98	30820.17
585.14	31005.08
585.30	30628.25
585.46	30560.37
585.62	30756.98
585.78	30796.77
585.94	30913.80
586.10	30813.15
586.26	31030.82
586.42	31267.22
586.58	31299.98
586.74	31068.27
586.90	30834.22
587.06	30749.96
587.22	31009.76
587.38	31026.14
587.54	31335.09
587.70	31309.35
587.86	30855.28
588.02	30981.67
588.18	31487.23
588.34	31152.53
588.49	31129.12
588.65	30852.94
588.81	31002.74
588.97	30794.43
589.13	30756.98
589.29	31171.25
589.45	30888.05
589.61	31044.87
589.77	31391.26
589.93	31285.94
590.08	31227.43
590.24	31297.64
590.40	31276.58
590.56	31435.74
590.72	31061.25
590.88	31096.36
591.04	31173.60
591.20	31498.93
591.35	31658.09
591.51	31536.38
591.67	31550.42
591.83	31622.98
