SpectraSuite Data File
++++++++++++++++++++++++++++++++++++
Date: Fri Oct 18 13:58:38 GMT-05:00 2013
User: bianchi
Dark Spectrum Present: No
Reference Spectrum Present: No
Number of Sampled Component Spectra: 1
Spectrometers: USB2+H05261
Integration Time (usec): 50000 (USB2+H05261)
Spectra Averaged: 1 (USB2+H05261)
Boxcar Smoothing: 0 (USB2+H05261)
Correct for Electrical Dark: No (USB2+H05261)
Strobe/Lamp Enabled: No (USB2+H05261)
Correct for Detector Non-linearity: No (USB2+H05261)
Correct for Stray Light: No (USB2+H05261)
Number of Pixels in Processed Spectrum: 2048
>>>>>Begin Processed Spectral Data<<<<<
365.73	0.00
365.92	0.00
366.12	0.00
366.32	0.00
366.52	0.00
366.72	0.00
366.91	0.00
367.11	0.00
367.31	0.00
367.51	0.00
367.70	0.00
367.90	0.00
368.10	0.00
368.30	0.00
368.49	0.00
368.69	0.00
368.89	0.00
369.09	0.00
369.28	0.00
369.48	0.00
369.68	0.00
369.87	0.00
370.07	0.00
370.27	0.00
370.47	14.04
370.66	91.28
370.86	44.47
371.06	205.97
371.25	105.32
371.45	184.90
371.65	196.60
371.84	131.07
372.04	217.67
372.24	131.07
372.44	152.13
372.63	205.97
372.83	210.65
373.03	210.65
373.22	189.58
373.42	229.37
373.62	245.76
373.81	220.01
374.01	177.88
374.21	285.55
374.40	320.65
374.60	205.97
374.79	149.79
374.99	250.44
375.19	177.88
375.38	234.05
375.58	234.05
375.78	234.05
375.97	222.35
376.17	285.55
376.37	269.16
376.56	280.86
376.76	234.05
376.95	269.16
377.15	203.63
377.35	301.93
377.54	257.46
377.74	304.27
377.93	365.12
378.13	243.42
378.33	306.61
378.52	276.18
378.72	330.02
378.91	299.59
379.11	325.33
379.31	353.42
379.50	290.23
379.70	257.46
379.89	330.02
380.09	320.65
380.28	299.59
380.48	301.93
380.68	283.20
380.87	269.16
381.07	318.31
381.26	355.76
381.46	304.27
381.65	376.83
381.85	294.91
382.04	358.10
382.24	308.95
382.43	318.31
382.63	360.44
382.83	262.14
383.02	428.32
383.22	318.31
383.41	339.38
383.61	390.87
383.80	393.21
384.00	358.10
384.19	381.51
384.39	320.65
384.58	360.44
384.78	369.80
384.97	362.78
385.17	416.62
385.36	404.91
385.56	411.93
385.75	383.85
385.95	374.49
386.14	393.21
386.34	407.25
386.53	416.62
386.72	353.42
386.92	423.64
387.11	449.38
387.31	458.74
387.50	430.66
387.70	425.98
387.89	346.40
388.09	404.91
388.28	437.68
388.48	430.66
388.67	393.21
388.86	442.36
389.06	358.10
389.25	458.74
389.45	442.36
389.64	540.66
389.84	388.53
390.03	468.11
390.22	484.49
390.42	461.09
390.61	475.13
390.81	435.34
391.00	564.07
391.19	557.05
391.39	517.26
391.58	418.96
391.78	491.51
391.97	540.66
392.16	477.47
392.36	531.30
392.55	482.15
392.75	571.09
392.94	470.45
393.13	517.26
393.33	444.70
393.52	554.71
393.71	566.41
393.91	524.28
394.10	566.41
394.29	531.30
394.49	561.73
394.68	491.51
394.88	653.01
395.07	662.37
395.26	592.16
395.46	543.00
395.65	667.05
395.84	603.86
396.04	751.31
396.23	573.43
396.42	657.69
396.62	594.50
396.81	660.03
397.00	671.73
397.19	601.52
397.39	617.90
397.58	599.18
397.77	690.46
397.97	711.52
398.16	727.91
398.35	550.03
398.55	723.23
398.74	685.78
398.93	695.14
399.12	678.76
399.32	765.36
399.51	664.71
399.70	620.24
399.90	784.08
400.09	767.70
400.28	828.55
400.47	798.12
400.67	751.31
400.86	819.19
401.05	779.40
401.24	669.39
401.44	718.54
401.63	805.14
401.82	765.36
402.01	828.55
402.21	784.08
402.40	823.87
402.59	842.59
402.78	828.55
402.97	875.36
403.17	821.53
403.36	755.99
403.55	915.15
403.74	959.62
403.93	917.49
404.13	884.72
404.32	840.25
404.51	861.32
404.70	837.91
404.89	896.43
405.09	889.40
405.28	912.81
405.47	1001.75
405.66	931.53
405.85	912.81
406.05	990.05
406.24	919.83
406.43	1055.58
406.62	933.87
406.81	1090.69
407.00	1006.43
407.20	1022.81
407.39	994.73
407.58	1086.01
407.77	1086.01
407.96	919.83
408.15	1107.07
408.34	1093.03
408.54	1100.05
408.73	1095.37
408.92	1083.67
409.11	1170.27
409.30	1160.91
409.49	1107.07
409.68	1046.22
409.87	1090.69
410.07	1193.67
410.26	1163.25
410.45	1135.16
410.64	1048.56
410.83	1205.38
411.02	1167.93
411.21	1238.14
411.40	1226.44
411.59	1289.64
411.78	1210.06
411.98	1261.55
412.17	1165.59
412.36	1324.74
412.55	1331.76
412.74	1359.85
412.93	1301.34
413.12	1364.53
413.31	1266.23
413.50	1380.92
413.69	1380.92
413.88	1425.39
414.07	1350.49
414.26	1444.11
414.45	1446.45
414.64	1451.13
414.83	1399.64
415.02	1465.18
415.22	1502.62
415.41	1479.22
415.60	1516.67
415.79	1486.24
415.98	1556.46
416.17	1626.67
416.36	1598.59
416.55	1572.84
416.74	1483.90
416.93	1519.01
417.12	1614.97
417.31	1596.25
417.50	1638.38
417.69	1661.78
417.88	1650.08
418.07	1652.42
418.26	1619.65
418.45	1722.63
418.64	1818.60
418.83	1764.76
419.02	1797.53
419.21	1811.57
419.39	1853.70
419.58	1844.34
419.77	1776.47
419.96	1830.30
420.15	1942.64
420.34	1863.07
420.53	1867.75
420.72	1823.28
420.91	1886.47
421.10	1888.81
421.29	1895.83
421.48	1853.70
421.67	1884.13
421.86	1898.17
422.05	2026.90
422.24	2010.52
422.43	1933.28
422.61	1930.94
422.80	2076.06
422.99	2047.97
423.18	1968.39
423.37	2008.18
423.56	1905.20
423.75	1989.46
423.94	2010.52
424.13	1888.81
424.32	1968.39
424.50	2022.22
424.69	2033.93
424.88	2143.93
425.07	2017.54
425.26	1966.05
425.45	2064.35
425.64	1947.33
425.83	1961.37
426.01	2153.29
426.20	2076.06
426.39	2033.93
426.58	2040.95
426.77	2057.33
426.96	2092.44
427.15	2122.87
427.33	1977.75
427.52	2099.46
427.71	2134.57
427.90	2146.27
428.09	2232.87
428.28	2139.25
428.46	2251.60
428.65	2214.15
428.84	2263.30
429.03	2286.70
429.22	2235.21
429.40	2207.13
429.59	2209.47
429.78	2085.42
429.97	2207.13
430.16	2150.95
430.34	2239.89
430.53	2321.81
430.72	2239.89
430.91	2263.30
431.10	2230.53
431.28	2260.96
431.47	2340.54
431.66	2361.60
431.85	2363.94
432.03	2389.69
432.22	2478.63
432.41	2396.71
432.60	2403.73
432.79	2499.69
432.97	2532.46
433.16	2420.11
433.35	2403.73
433.54	2483.31
433.72	2455.22
433.91	2497.35
434.10	2462.24
434.28	2546.50
434.47	2469.27
434.66	2492.67
434.85	2567.57
435.03	2569.91
435.22	2733.75
435.41	2600.34
435.59	2462.24
435.78	2595.65
435.97	2628.42
436.16	2806.30
436.34	2609.70
436.53	2562.89
436.72	2649.49
436.90	2679.91
437.09	2686.94
437.28	2722.04
437.46	2684.59
437.65	2651.83
437.84	2822.69
438.02	2803.96
438.21	2663.53
438.40	2708.00
438.58	2635.44
438.77	2979.50
438.96	2984.18
439.14	2963.12
439.33	2899.92
439.52	2918.65
439.70	2918.65
439.89	3026.31
440.08	2853.11
440.26	3042.70
440.45	3042.70
440.63	3105.89
440.82	3030.99
441.01	3026.31
441.19	3105.89
441.38	3192.49
441.57	3192.49
441.75	3197.17
441.94	3344.63
442.12	3318.88
442.31	3194.83
442.50	3269.73
442.68	3300.16
442.87	3218.24
443.05	3258.03
443.24	3220.58
443.43	3192.49
443.61	3459.31
443.80	3426.54
443.98	3293.13
444.17	3220.58
444.35	3382.07
444.54	3454.63
444.73	3297.81
444.91	3382.07
445.10	3391.44
445.28	3417.18
445.47	3372.71
445.65	3314.20
445.84	3407.82
446.02	3428.88
446.21	3400.80
446.39	3485.06
446.58	3597.40
446.77	3510.80
446.95	3494.42
447.14	3304.84
447.32	3555.27
447.51	3351.65
447.69	3410.16
447.88	3400.80
448.06	3417.18
448.25	3503.78
448.43	3538.89
448.62	3524.85
448.80	3531.87
448.99	3644.21
449.17	3529.53
449.36	3545.91
449.54	3550.59
449.73	3524.85
449.91	3599.74
450.10	3602.08
450.28	3749.54
450.46	3639.53
450.65	3644.21
450.83	3775.28
451.02	3726.13
451.20	3618.47
451.39	3847.84
451.57	3747.20
451.76	3674.64
451.94	3644.21
452.13	3829.12
452.31	3808.05
452.49	3698.05
452.68	3829.12
452.86	3845.50
453.05	3756.56
453.23	3857.20
453.42	3946.14
453.60	3742.52
453.78	3868.91
453.97	3810.39
454.15	3826.78
454.34	3854.86
454.52	3929.76
454.70	3976.57
454.89	3967.21
455.07	3999.98
455.26	4063.17
455.44	4102.96
455.62	3988.27
455.81	4091.26
455.99	4100.62
456.17	3950.82
456.36	4023.38
456.54	4196.58
456.73	4046.79
456.91	4182.54
457.09	4329.99
457.28	4376.80
457.46	4311.27
457.64	4255.09
457.83	4339.35
458.01	4229.35
458.19	4212.96
458.38	4353.40
458.56	4362.76
458.74	4386.16
458.93	4327.65
459.11	4379.14
459.29	4372.12
459.48	4521.92
459.66	4421.27
459.84	4634.26
460.03	4505.53
460.21	4447.02
460.39	4430.63
460.57	4465.74
460.76	4493.83
460.94	4425.95
461.12	4566.39
461.31	4674.05
461.49	4524.26
461.67	4432.97
461.85	4751.29
462.04	4519.57
462.22	4858.95
462.40	4795.76
462.59	4594.47
462.77	4772.35
462.95	4753.63
463.13	4699.80
463.32	4727.88
463.50	4723.20
463.68	4664.69
463.86	4772.35
464.05	4816.82
464.23	4819.16
464.41	4891.72
464.59	4751.29
464.78	4985.34
464.96	4709.16
465.14	4971.30
465.32	4959.60
465.50	4931.51
465.69	4873.00
465.87	4915.12
466.05	4933.85
466.23	4905.76
466.41	4856.61
466.60	5025.13
466.78	5090.67
466.96	4905.76
467.14	5048.54
467.32	5025.13
467.51	5074.28
467.69	5025.13
467.87	5097.69
468.05	5130.45
468.23	5139.82
468.41	5029.81
468.60	5195.99
468.78	5394.93
468.96	5097.69
469.14	5191.31
469.32	5329.40
469.50	5046.20
469.69	5282.59
469.87	5245.14
470.05	5430.04
470.23	5294.29
470.41	5280.25
470.59	5364.51
470.77	5462.81
470.95	5366.85
471.14	5467.49
471.32	5399.62
471.50	5565.79
471.68	5511.96
471.86	5612.60
472.04	5556.43
472.22	5762.40
472.40	5554.09
472.58	5778.78
472.77	5767.08
472.95	5699.20
473.13	6015.18
473.31	5865.38
473.49	5633.67
473.67	5713.25
473.85	5701.54
474.03	5818.57
474.21	5834.96
474.39	5858.36
474.57	6038.58
474.75	6047.94
474.93	6162.63
475.12	5966.03
475.30	6150.93
475.48	6202.42
475.66	5963.68
475.84	6099.44
476.02	6296.04
476.20	6312.42
476.38	6265.61
476.56	6560.52
476.74	6427.11
476.92	6588.61
477.10	6464.56
477.28	6455.20
477.46	6569.88
477.64	6801.60
477.82	6647.12
478.00	6869.47
478.18	6925.65
478.36	6813.30
478.54	7094.16
478.72	7047.35
478.90	7061.40
479.08	7054.37
479.26	7246.30
479.44	7269.70
479.62	7236.94
479.80	7225.23
479.98	7187.79
480.16	7585.68
480.34	7286.09
480.52	7442.90
480.70	7487.37
480.88	7459.29
481.06	7543.55
481.24	7681.64
481.41	7852.50
481.59	7810.37
481.77	7866.54
481.95	8011.65
482.13	7896.97
482.31	8168.47
482.49	8173.15
482.67	8121.66
482.85	8224.64
483.03	8561.68
483.21	8351.03
483.39	8575.72
483.57	8449.33
483.74	8594.45
483.92	8767.65
484.10	8578.06
484.28	8772.33
484.46	8973.61
484.64	8952.55
484.82	8964.25
485.00	8954.89
485.18	9280.22
485.35	9376.19
485.53	9195.96
485.71	9210.01
485.89	9652.37
486.07	9200.65
486.25	9268.52
486.43	9706.20
486.61	9631.30
486.78	9790.46
486.96	9886.42
487.14	9853.66
487.32	9811.53
487.50	10193.03
487.68	10050.26
487.85	10171.97
488.03	10333.47
488.21	10541.77
488.39	10431.77
488.57	10326.44
488.75	10588.58
488.92	10773.49
489.10	10773.49
489.28	10829.66
489.46	10846.04
489.64	10843.70
489.81	11112.86
489.99	11304.79
490.17	11225.21
490.35	11269.68
490.53	11412.45
490.70	11435.86
490.88	11695.66
491.06	11531.82
491.24	11531.82
491.41	11550.54
491.59	11740.13
491.77	11754.17
491.95	12086.53
492.13	11864.18
492.30	12243.34
492.48	12016.31
492.66	12093.55
492.84	12077.16
493.01	12231.64
493.19	12418.88
493.37	12727.83
493.54	12545.27
493.72	12666.98
493.90	12561.66
494.08	12807.41
494.25	12870.61
494.43	12812.09
494.61	13160.83
494.79	12961.89
494.96	13046.15
495.14	13296.58
495.32	13277.86
495.49	13296.58
495.67	13530.64
495.85	13530.64
496.02	13666.39
496.20	13734.26
496.38	13806.82
496.55	14141.52
496.73	13912.14
496.91	13905.12
497.09	14408.34
497.26	14307.69
497.44	13919.17
497.62	14265.57
497.79	14705.59
497.97	14513.66
498.14	14544.09
498.32	14647.07
498.50	14626.01
498.67	14579.20
498.85	14862.40
499.03	14743.03
499.20	14677.50
499.38	15037.94
499.56	14803.89
499.73	15028.58
499.91	15220.50
500.08	15187.74
500.26	15030.92
500.44	15344.55
500.61	15246.25
500.79	15220.50
500.97	15630.10
501.14	15651.16
501.32	15463.92
501.49	15339.87
501.67	15669.89
501.84	15747.12
502.02	15704.99
502.20	16039.69
502.37	15796.28
502.55	15983.52
502.72	15892.24
502.90	15875.85
503.07	15812.66
503.25	16311.19
503.43	15908.62
503.60	16056.08
503.78	16264.38
503.95	16456.31
504.13	16156.72
504.30	16212.89
504.48	16306.51
504.65	16524.18
504.83	16662.27
505.01	16823.77
505.18	16491.41
505.36	16898.67
505.53	16793.34
505.71	16858.88
505.88	16912.71
506.06	16793.34
506.23	17043.78
506.41	16929.09
506.58	17198.26
506.76	17179.53
506.93	17205.28
507.11	17149.11
507.28	17184.21
507.46	17610.19
507.63	17504.87
507.81	17642.96
507.98	17586.79
508.16	17422.95
508.33	17657.00
508.50	17710.83
508.68	17919.14
508.85	17853.61
509.03	17881.69
509.20	18085.32
509.38	18310.01
509.55	18162.56
509.73	18218.73
509.90	18097.02
510.08	18111.07
510.25	18057.23
510.42	18473.85
510.60	18661.09
510.77	18558.11
510.95	18523.00
511.12	18403.63
511.30	18314.69
511.47	18527.68
511.64	18394.27
511.82	18892.80
511.99	18822.59
512.17	18977.06
512.34	18820.25
512.51	18902.17
512.69	18895.14
512.86	18981.74
513.04	18815.57
513.21	19482.62
513.38	19328.14
513.56	19185.37
513.73	19178.35
513.90	19211.12
514.08	19173.67
514.25	19391.34
514.43	19564.54
514.60	19405.38
514.77	19609.01
514.95	19854.76
515.12	19648.80
515.29	19286.01
515.47	19634.75
515.64	19866.47
515.81	19875.83
515.99	19932.00
516.16	19903.92
516.33	20194.14
516.51	20177.76
516.68	19770.51
516.85	20168.40
517.03	20226.91
517.20	19868.81
517.37	20383.73
517.54	20294.79
517.72	20432.88
517.89	20154.35
518.06	20135.63
518.24	20273.72
518.41	20292.44
518.58	20559.27
518.75	20765.23
518.93	20697.36
519.10	20669.27
519.27	20374.36
519.45	20655.23
519.62	20622.46
519.79	20814.38
519.96	20741.83
520.14	20922.05
520.31	21177.17
520.48	21034.39
520.65	20833.11
520.83	21160.78
521.00	21216.96
521.17	20819.07
521.34	21099.93
521.52	21174.83
521.69	21277.81
521.86	21027.37
522.03	21593.78
522.20	21568.04
522.38	21832.52
522.55	21348.03
522.72	21556.33
522.89	21605.49
523.07	21584.42
523.24	22139.13
523.41	21909.75
523.58	21635.91
523.75	21895.71
523.92	22052.53
524.10	22071.25
524.27	21928.48
524.44	22024.44
524.61	22328.71
524.78	22178.92
524.96	21942.52
525.13	22024.44
525.30	22349.78
525.47	22345.09
525.64	22089.98
525.81	22300.62
525.98	22562.76
526.16	22291.26
526.33	22473.82
526.50	22693.83
526.67	22207.00
526.84	22663.41
527.01	22377.86
527.18	22836.61
527.36	22813.20
527.53	22930.23
527.70	22932.57
527.87	23239.18
528.04	23040.23
528.21	23094.07
528.38	22635.32
528.55	22574.47
528.72	22995.76
528.89	22951.29
529.07	22923.21
529.24	23056.62
529.41	22876.40
529.58	23005.13
529.75	23082.36
529.92	22960.66
530.09	23180.67
530.26	23386.63
530.43	23688.56
530.60	23688.56
530.77	23101.09
530.94	23328.12
531.11	23590.26
531.28	23391.31
531.46	23580.90
531.63	23538.77
531.80	23414.72
531.97	24100.50
532.14	23742.39
532.31	23281.31
532.48	23824.31
532.65	23920.28
532.82	23800.91
532.99	24009.22
533.16	24011.56
533.33	23796.23
533.50	24219.86
533.67	24018.58
533.84	23859.42
534.01	24079.43
534.18	24238.59
534.35	23873.46
534.52	24084.11
534.69	24119.22
534.86	24383.70
535.03	24194.12
535.20	24432.85
535.37	24397.74
535.54	24250.29
535.71	24425.83
535.88	24273.70
536.05	24491.37
536.22	24610.73
536.38	24678.61
536.55	24610.73
536.72	24559.24
536.89	24173.05
537.06	24407.11
537.23	24657.54
537.40	24711.38
537.57	24723.08
537.74	24737.12
537.91	24697.33
538.08	24978.20
538.25	24519.45
538.42	24702.01
538.59	24915.00
538.75	24720.74
538.92	24615.41
539.09	25174.80
539.26	24889.26
539.43	24938.41
539.60	25266.08
539.77	25102.25
539.94	25064.80
540.11	25144.38
540.28	25130.33
540.44	24915.00
540.61	25427.58
540.78	25404.17
540.95	25348.00
541.12	25240.34
541.29	25518.86
541.46	25486.09
541.62	25191.19
541.79	25507.16
541.96	25380.77
542.13	25348.00
542.30	25343.32
542.47	25832.49
542.63	25848.88
542.80	25996.33
542.97	25979.95
543.14	25907.39
543.31	25738.87
543.48	25848.88
543.64	26078.25
543.81	26029.10
543.98	26033.78
544.15	26106.34
544.32	26092.29
544.48	26473.80
544.65	26359.11
544.82	26246.77
544.99	26045.48
545.16	26024.42
545.32	25654.61
545.49	26452.73
545.66	26511.25
545.83	26600.19
546.00	26548.70
546.16	26492.52
546.33	26324.01
546.50	26061.87
546.67	26455.08
546.83	26068.89
547.00	26562.74
547.17	26242.09
547.34	26686.79
547.50	26836.58
547.67	26946.59
547.84	26948.93
548.00	26792.11
548.17	26792.11
548.34	26757.00
548.51	26845.94
548.67	26969.99
548.84	26906.80
549.01	27140.85
549.18	26916.16
549.34	26801.47
549.51	26572.10
549.68	26836.58
549.84	26895.10
550.01	26948.93
550.18	26803.82
550.34	27246.18
550.51	27168.94
550.68	27342.14
550.84	26878.71
551.01	27271.92
551.18	27096.38
551.34	27229.79
551.51	27103.40
551.68	27463.85
551.84	27220.43
552.01	27220.43
552.18	27250.86
552.34	27192.34
552.51	27477.89
552.68	27538.74
552.84	27412.35
553.01	27534.06
553.18	27417.04
553.34	27314.05
553.51	27704.92
553.67	27803.22
553.84	27484.91
554.01	27817.27
554.17	27775.14
554.34	27442.78
554.51	27424.06
554.67	27676.83
554.84	27927.27
555.00	27798.54
555.17	27758.75
555.33	27690.88
555.50	27697.90
555.67	27379.59
555.83	27681.52
556.00	27641.73
556.16	28077.07
556.33	27651.09
556.50	28034.94
556.66	28175.37
556.83	27721.30
556.99	28254.95
557.16	28121.54
557.32	28002.17
557.49	28173.03
557.65	27721.30
557.82	28048.98
557.98	28060.68
558.15	28261.97
558.32	28280.69
558.48	28161.33
558.65	28283.03
558.81	28156.64
558.98	28339.21
559.14	28144.94
559.31	28332.18
559.47	28203.46
559.64	27875.78
559.80	28196.43
559.97	28273.67
560.13	27917.91
560.30	27962.38
560.46	28437.51
560.63	28208.14
560.79	28594.32
560.96	28339.21
561.12	28416.44
561.29	28662.20
561.45	28379.00
561.61	28603.69
561.78	28446.87
561.94	28716.03
562.11	28727.74
562.27	28512.41
562.44	28435.17
562.60	28465.60
562.77	28505.38
562.93	28119.20
563.10	28917.32
563.26	28505.38
563.42	28961.79
563.59	28676.24
563.75	28477.30
563.92	28531.13
564.08	28650.50
564.24	28402.40
564.41	28453.89
564.57	28484.32
564.74	28889.23
564.90	28629.43
565.07	28783.91
565.23	28748.80
565.39	28971.15
565.56	28865.83
565.72	28657.52
565.88	28652.84
566.05	28615.39
566.21	28428.15
566.38	29010.94
566.54	28828.38
566.70	29013.28
566.87	29256.70
567.03	28982.85
567.19	29106.90
567.36	28854.12
567.52	29230.95
567.68	28720.71
567.85	29188.82
568.01	28971.15
568.17	28952.43
568.34	28982.85
568.50	29111.58
568.66	29102.22
568.83	29371.38
568.99	28723.05
569.15	28879.87
569.32	28922.00
569.48	28725.39
569.64	29303.51
569.81	29076.48
569.97	29008.60
570.13	29015.62
570.30	29188.82
570.46	29010.94
570.62	29109.24
570.78	28903.28
570.95	28886.89
571.11	29113.92
571.27	28842.42
571.43	29118.60
571.60	29237.97
571.76	28802.63
571.92	29139.67
572.09	29308.19
572.25	29146.69
572.41	29280.10
572.57	29146.69
572.74	28865.83
572.90	28884.55
573.06	29008.60
573.22	29043.71
573.38	29331.59
573.55	29149.03
573.71	29460.32
573.87	29294.14
574.03	29345.64
574.20	29123.29
574.36	28971.15
574.52	29181.80
574.68	29188.82
574.84	29558.63
575.01	29230.95
575.17	29303.51
575.33	29373.72
575.49	29195.84
575.65	29359.68
575.82	29469.69
575.98	29174.78
576.14	29329.25
576.30	29495.43
576.46	29450.96
576.62	29266.06
576.79	29261.38
576.95	29345.64
577.11	29266.06
577.27	29434.58
577.43	29226.27
577.59	29261.38
577.75	29322.23
577.92	29254.36
578.08	28896.25
578.24	29198.18
578.40	29390.11
578.56	29558.63
578.72	29032.00
578.88	29406.49
579.04	29811.40
579.21	29291.80
579.37	29376.06
579.53	29809.06
579.69	29219.25
579.85	29242.65
580.01	29207.55
580.17	29092.86
580.33	29635.86
580.49	29509.47
580.65	29603.10
580.82	29415.85
580.98	29322.23
581.14	29631.18
581.30	29156.05
581.46	29315.21
581.62	29113.92
581.78	29106.90
581.94	29722.46
582.10	29317.55
582.26	29509.47
582.42	29560.97
582.58	29333.93
582.74	29057.75
582.90	29144.35
583.06	29340.96
583.22	29682.67
583.38	29776.30
583.54	29153.71
583.70	29373.72
583.86	29589.05
584.02	29427.56
584.18	29556.28
584.34	29652.25
584.50	29479.05
584.66	29418.19
584.82	29411.17
584.98	29780.98
585.14	29584.37
585.30	29057.75
585.46	29720.12
585.62	29366.70
585.78	29455.64
585.94	29296.49
586.10	29745.87
586.26	29507.13
586.42	29455.64
586.58	29881.62
586.74	29521.18
586.90	29214.57
587.06	29186.48
587.22	29518.84
587.38	29673.31
587.54	29694.38
587.70	29677.99
587.86	29649.91
588.02	29605.44
588.18	29584.37
588.34	29673.31
588.49	29600.76
588.65	29612.46
588.81	29699.06
588.97	29467.34
589.13	29661.61
589.29	29139.67
589.45	29523.52
589.61	29933.11
589.77	29673.31
589.93	29846.51
590.08	29834.81
590.24	29757.57
590.40	29888.64
590.56	30000.99
590.72	29731.83
590.88	29535.22
591.04	29563.31
591.20	29729.48
591.35	29923.75
591.51	30099.29
591.67	29600.76
591.83	30476.12
591.99	30061.84
