SpectraSuite Data File
++++++++++++++++++++++++++++++++++++
Date: Fri Oct 18 13:58:01 GMT-05:00 2013
User: bianchi
Dark Spectrum Present: No
Reference Spectrum Present: No
Number of Sampled Component Spectra: 1
Spectrometers: USB2+H05261
Integration Time (usec): 50000 (USB2+H05261)
Spectra Averaged: 1 (USB2+H05261)
Boxcar Smoothing: 0 (USB2+H05261)
Correct for Electrical Dark: No (USB2+H05261)
Strobe/Lamp Enabled: No (USB2+H05261)
Correct for Detector Non-linearity: No (USB2+H05261)
Correct for Stray Light: No (USB2+H05261)
Number of Pixels in Processed Spectrum: 2048
>>>>>Begin Processed Spectral Data<<<<<
365.73	0.00
365.92	0.00
366.12	0.00
366.32	0.00
366.52	0.00
366.72	0.00
366.91	0.00
367.11	0.00
367.31	0.00
367.51	0.00
367.70	0.00
367.90	0.00
368.10	0.00
368.30	0.00
368.49	0.00
368.69	0.00
368.89	0.00
369.09	0.00
369.28	0.00
369.48	0.00
369.68	0.00
369.87	0.00
370.07	0.00
370.27	0.00
370.47	23.41
370.66	102.98
370.86	100.64
371.06	79.58
371.25	152.13
371.45	67.88
371.65	198.95
371.84	70.22
372.04	131.07
372.24	124.05
372.44	84.26
372.63	222.35
372.83	187.24
373.03	168.52
373.22	159.16
373.42	196.60
373.62	168.52
373.81	205.97
374.01	205.97
374.21	210.65
374.40	212.99
374.60	294.91
374.79	243.42
374.99	294.91
375.19	224.69
375.38	248.10
375.58	194.26
375.78	252.78
375.97	194.26
376.17	362.78
376.37	222.35
376.56	308.95
376.76	315.97
376.95	259.80
377.15	306.61
377.35	243.42
377.54	315.97
377.74	241.08
377.93	227.03
378.13	238.73
378.33	266.82
378.52	266.82
378.72	351.08
378.91	337.04
379.11	257.46
379.31	355.76
379.50	322.99
379.70	313.63
379.89	369.80
380.09	297.25
380.28	292.57
380.48	292.57
380.68	301.93
380.87	339.38
381.07	264.48
381.26	299.59
381.46	325.33
381.65	322.99
381.85	334.70
382.04	299.59
382.24	294.91
382.43	383.85
382.63	269.16
382.83	322.99
383.02	360.44
383.22	449.38
383.41	348.74
383.61	299.59
383.80	269.16
384.00	416.62
384.19	376.83
384.39	402.57
384.58	416.62
384.78	353.42
384.97	308.95
385.17	381.51
385.36	358.10
385.56	400.23
385.75	372.15
385.95	393.21
386.14	472.79
386.34	395.55
386.53	393.21
386.72	383.85
386.92	400.23
387.11	465.77
387.31	507.90
387.50	381.51
387.70	421.30
387.89	449.38
388.09	402.57
388.28	442.36
388.48	425.98
388.67	430.66
388.86	409.59
389.06	416.62
389.25	433.00
389.45	500.87
389.64	388.53
389.84	484.49
390.03	503.22
390.22	566.41
390.42	594.50
390.61	461.09
390.81	505.56
391.00	477.47
391.19	482.15
391.39	491.51
391.58	477.47
391.78	596.84
391.97	594.50
392.16	589.82
392.36	587.47
392.55	564.07
392.75	573.43
392.94	472.79
393.13	606.20
393.33	524.28
393.52	510.24
393.71	606.20
393.91	568.75
394.10	505.56
394.29	575.77
394.49	578.11
394.68	601.52
394.88	592.16
395.07	617.90
395.26	566.41
395.46	596.84
395.65	589.82
395.84	620.24
396.04	669.39
396.23	643.65
396.42	674.07
396.62	669.39
396.81	660.03
397.00	765.36
397.19	706.84
397.39	653.01
397.58	713.86
397.77	739.61
397.97	648.33
398.16	699.82
398.35	692.80
398.55	599.18
398.74	664.71
398.93	704.50
399.12	713.86
399.32	791.10
399.51	676.41
399.70	734.93
399.90	741.95
400.09	641.31
400.28	737.27
400.47	767.70
400.67	763.01
400.86	734.93
401.05	716.20
401.24	770.04
401.44	826.21
401.63	823.87
401.82	758.33
402.01	828.55
402.21	826.21
402.40	833.23
402.59	847.27
402.78	767.70
402.97	866.00
403.17	777.06
403.36	938.55
403.55	844.93
403.74	917.49
403.93	835.57
404.13	844.93
404.32	842.59
404.51	945.58
404.70	1022.81
404.89	835.57
405.09	1048.56
405.28	917.49
405.47	968.98
405.66	971.32
405.85	1034.52
406.05	1083.67
406.24	983.02
406.43	1053.24
406.62	1095.37
406.81	1125.80
407.00	1053.24
407.20	961.96
407.39	1008.77
407.58	1064.94
407.77	1053.24
407.96	1071.97
408.15	1083.67
408.34	976.00
408.54	1001.75
408.73	1057.92
408.92	1217.08
409.11	1184.31
409.30	1090.69
409.49	1188.99
409.68	1093.03
409.87	1116.44
410.07	1177.29
410.26	1025.15
410.45	1128.14
410.64	1217.08
410.83	1165.59
411.02	1177.29
411.21	1203.04
411.40	1284.95
411.59	1299.00
411.78	1348.15
411.98	1299.00
412.17	1287.29
412.36	1294.32
412.55	1273.25
412.74	1310.70
412.93	1331.76
413.12	1467.52
413.31	1383.26
413.50	1362.19
413.69	1399.64
413.88	1455.81
414.07	1434.75
414.26	1420.71
414.45	1502.62
414.64	1521.35
414.83	1558.80
415.02	1544.75
415.22	1533.05
415.41	1600.93
415.60	1516.67
415.79	1423.05
415.98	1516.67
416.17	1570.50
416.36	1530.71
416.55	1720.29
416.74	1596.25
416.93	1666.46
417.12	1617.31
417.31	1664.12
417.50	1710.93
417.69	1790.51
417.88	1743.70
418.07	1781.15
418.26	1699.23
418.45	1746.04
418.64	1804.55
418.83	1837.32
419.02	1755.40
419.21	1895.83
419.39	1790.51
419.58	1760.08
419.77	1762.42
419.96	1849.02
420.15	1935.62
420.34	1865.41
420.53	1795.19
420.72	1984.77
420.91	1902.86
421.10	1949.67
421.29	1961.37
421.48	1884.13
421.67	1959.03
421.86	2010.52
422.05	2029.24
422.24	1996.48
422.43	1884.13
422.61	1923.92
422.80	1998.82
422.99	2083.08
423.18	2022.22
423.37	2033.93
423.56	2038.61
423.75	1942.64
423.94	1998.82
424.13	1842.00
424.32	1928.60
424.50	2073.71
424.69	2141.59
424.88	2043.29
425.07	1961.37
425.26	2148.61
425.45	2099.46
425.64	1982.43
425.83	1970.73
426.01	2033.93
426.20	2022.22
426.39	2174.36
426.58	2113.50
426.77	2066.69
426.96	2080.74
427.15	2052.65
427.33	2019.88
427.52	2157.97
427.71	2143.93
427.90	2188.40
428.09	2162.66
428.28	2193.08
428.46	2277.34
428.65	2190.74
428.84	2270.32
429.03	2356.92
429.22	2134.57
429.40	2183.72
429.59	2214.15
429.78	2165.00
429.97	2136.91
430.16	2181.38
430.34	2289.04
430.53	2286.70
430.72	2310.11
430.91	2352.24
431.10	2216.49
431.28	2328.83
431.47	2363.94
431.66	2359.26
431.85	2345.22
432.03	2413.09
432.22	2385.01
432.41	2445.86
432.60	2502.03
432.79	2464.58
432.97	2506.71
433.16	2389.69
433.35	2434.16
433.54	2537.14
433.72	2562.89
433.91	2532.46
434.10	2516.08
434.28	2558.21
434.47	2492.67
434.66	2525.44
434.85	2607.36
435.03	2595.65
435.22	2548.84
435.41	2693.96
435.59	2621.40
435.78	2672.89
435.97	2722.04
436.16	2644.81
436.34	2649.49
436.53	2729.06
436.72	2829.71
436.90	2712.68
437.09	2740.77
437.28	2670.55
437.46	2827.37
437.65	2719.70
437.84	2696.30
438.02	2846.09
438.21	2799.28
438.40	2766.51
438.58	2935.03
438.77	2867.16
438.96	2806.30
439.14	2974.82
439.33	2899.92
439.52	3023.97
439.70	2986.52
439.89	2911.63
440.08	2970.14
440.26	3035.67
440.45	3042.70
440.63	3026.31
440.82	3075.46
441.01	3091.85
441.19	3260.37
441.38	3148.02
441.57	3197.17
441.75	3241.64
441.94	3211.22
442.12	3323.56
442.31	3274.41
442.50	3201.85
442.68	3262.71
442.87	3346.97
443.05	3274.41
443.24	3463.99
443.43	3293.13
443.61	3438.25
443.80	3400.80
443.98	3370.37
444.17	3258.03
444.35	3351.65
444.54	3471.01
444.73	3459.31
444.91	3412.50
445.10	3473.36
445.28	3463.99
445.47	3480.38
445.65	3515.48
445.84	3426.54
446.02	3576.34
446.21	3438.25
446.39	3506.12
446.58	3524.85
446.77	3545.91
446.95	3466.33
447.14	3529.53
447.32	3581.02
447.51	3529.53
447.69	3424.20
447.88	3723.79
448.06	3576.34
448.25	3428.88
448.43	3566.98
448.62	3485.06
448.80	3503.78
448.99	3583.36
449.17	3574.00
449.36	3508.46
449.54	3726.13
449.73	3639.53
449.91	3756.56
450.10	3735.50
450.28	3784.65
450.46	3808.05
450.65	3691.02
450.83	3833.80
451.02	3810.39
451.20	3798.69
451.39	3784.65
451.57	3747.20
451.76	3602.08
451.94	3887.63
452.13	3957.85
452.31	3925.08
452.49	3845.50
452.68	3744.86
452.86	3810.39
453.05	3941.46
453.23	4014.02
453.42	3822.09
453.60	3906.35
453.78	3770.60
453.97	3927.42
454.15	4060.83
454.34	3833.80
454.52	3985.93
454.70	3971.89
454.89	4035.08
455.07	4070.19
455.26	4032.74
455.44	4049.13
455.62	4121.68
455.81	4149.77
455.99	4170.83
456.17	4168.49
456.36	4133.39
456.54	4238.71
456.73	4098.28
456.91	4404.89
457.09	4386.16
457.28	4360.42
457.46	4292.54
457.64	4353.40
457.83	4491.49
458.01	4250.41
458.19	4477.44
458.38	4383.82
458.56	4456.38
458.74	4421.27
458.93	4510.21
459.11	4505.53
459.29	4496.17
459.48	4428.29
459.66	4685.75
459.84	4526.60
460.03	4564.04
460.21	4514.89
460.39	4411.91
460.57	4596.81
460.76	4695.11
460.94	4437.66
461.12	4657.67
461.31	4652.98
461.49	4608.51
461.67	4620.22
461.85	4657.67
462.04	4690.43
462.22	4919.81
462.40	4887.04
462.59	4746.61
462.77	4751.29
462.95	4830.87
463.13	4805.12
463.32	4582.77
463.50	4910.44
463.68	4828.53
463.86	4901.08
464.05	4912.78
464.23	4746.61
464.41	4889.38
464.59	4819.16
464.78	5114.07
464.96	4957.25
465.14	4814.48
465.32	4975.98
465.50	5046.20
465.69	4983.00
465.87	5018.11
466.05	5071.94
466.23	4858.95
466.41	5069.60
466.60	5235.78
466.78	4952.57
466.96	5027.47
467.14	5067.26
467.32	5247.48
467.51	5268.55
467.69	5060.24
467.87	5135.14
468.05	5151.52
468.23	5214.71
468.41	5069.60
468.60	5212.37
468.78	5287.27
468.96	5172.58
469.14	5472.17
469.32	5453.45
469.50	5193.65
469.69	5493.24
469.87	5465.15
470.05	5493.24
470.23	5444.09
470.41	5575.16
470.59	5526.00
470.77	5378.55
470.95	5579.84
471.14	5598.56
471.32	5511.96
471.50	5614.95
471.68	5591.54
471.86	5589.20
472.04	5638.35
472.22	5776.44
472.40	5636.01
472.58	5788.14
472.77	5905.17
472.95	5907.51
473.13	6010.50
473.31	5746.02
473.49	5849.00
473.67	6001.13
473.85	5949.64
474.03	6193.06
474.21	6139.23
474.39	5975.39
474.57	6015.18
474.75	6193.06
474.93	6176.67
475.12	6153.27
475.30	6174.33
475.48	6141.57
475.66	6363.92
475.84	6331.15
476.02	6246.89
476.20	6338.17
476.38	6665.85
476.56	6640.10
476.74	6569.88
476.92	6420.09
477.10	6553.50
477.28	6597.97
477.46	6649.46
477.64	6738.40
477.82	6927.99
478.00	6967.77
478.18	7012.24
478.36	6995.86
478.54	7002.88
478.72	6993.52
478.90	7211.19
479.08	7389.07
479.26	7236.94
479.44	7365.67
479.62	7325.88
479.80	7463.97
479.98	7527.16
480.16	7728.45
480.34	7683.98
480.52	7503.76
480.70	7623.12
480.88	7613.76
481.06	7756.54
481.24	7700.36
481.41	7798.66
481.59	8215.28
481.77	7978.89
481.95	8166.13
482.13	8088.89
482.31	7976.55
482.49	8376.78
482.67	8271.45
482.85	8379.12
483.03	8498.49
483.21	8531.25
483.39	8657.64
483.57	8540.61
483.74	8865.95
483.92	8842.54
484.10	8615.51
484.28	9109.36
484.46	9041.49
484.64	8973.61
484.82	9167.88
485.00	9235.75
485.18	9050.85
485.35	9334.06
485.53	9516.62
485.71	9280.22
485.89	9816.21
486.07	9671.09
486.25	9556.41
486.43	9778.76
486.61	9940.26
486.78	9921.53
486.96	10068.98
487.14	10200.05
487.32	10120.48
487.50	10132.18
487.68	10181.33
487.85	10401.34
488.03	10710.29
488.21	10586.24
488.39	10452.83
488.57	10745.40
488.75	10789.87
488.92	11014.56
489.10	11070.73
489.28	11026.26
489.46	11335.21
489.64	11152.65
489.81	11613.74
489.99	11590.33
490.17	11522.46
490.35	11550.54
490.53	11501.39
490.70	11669.91
490.88	11789.28
491.06	11768.21
491.24	11892.26
491.41	11658.21
491.59	11953.12
491.77	12039.72
491.95	12245.68
492.13	12152.06
492.30	12594.42
492.48	12358.03
492.66	12491.44
492.84	12475.06
493.01	12666.98
493.19	12695.07
493.37	12559.31
493.54	12671.66
493.72	12762.94
493.90	12844.86
494.08	13275.52
494.25	13214.66
494.43	13352.76
494.61	13284.88
494.79	13231.05
494.96	13359.78
495.14	13380.84
495.32	13561.06
495.49	13818.52
495.67	13664.05
495.85	13951.93
496.02	13989.38
496.20	13980.02
496.38	14188.33
496.55	14033.85
496.73	14389.61
496.91	14136.84
497.09	14441.11
497.26	14597.92
497.44	14221.10
497.62	14396.64
497.79	14717.29
497.97	14710.27
498.14	15080.07
498.32	14860.06
498.50	14965.39
498.67	15190.08
498.85	15166.67
499.03	15236.89
499.20	15358.60
499.38	15082.41
499.56	14951.34
499.73	15412.43
499.91	15384.34
500.08	15417.11
500.26	15403.07
500.44	15489.67
500.61	15520.09
500.79	15541.16
500.97	15639.46
501.14	16128.63
501.32	16177.78
501.49	16039.69
501.67	15660.52
501.84	16166.08
502.02	16173.10
502.20	16044.37
502.37	16346.30
502.55	16142.67
502.72	16465.67
502.90	16622.48
503.07	16409.50
503.25	16472.69
503.43	16358.00
503.60	16594.40
503.78	16666.95
503.95	16585.04
504.13	16470.35
504.30	16676.32
504.48	16631.85
504.65	17111.66
504.83	16760.58
505.01	17032.08
505.18	17053.14
505.36	17334.01
505.53	17301.24
505.71	17142.08
505.88	17177.19
506.06	17144.42
506.23	17305.92
506.41	17577.42
506.58	17642.96
506.76	17383.16
506.93	17547.00
507.11	17619.55
507.28	17757.64
507.46	17687.43
507.63	18111.07
507.81	17788.07
507.98	18029.15
508.16	17832.54
508.33	17729.56
508.50	17717.86
508.68	17984.68
508.85	18291.29
509.03	18057.23
509.20	18420.02
509.38	18590.88
509.55	18293.63
509.73	18324.05
509.90	18555.77
510.08	18331.08
510.25	18724.29
510.42	18726.63
510.60	18658.75
510.77	18902.17
510.95	18909.19
511.12	18602.58
511.30	18831.95
511.47	19058.98
511.64	19033.24
511.82	19171.33
511.99	18878.76
512.17	19278.99
512.34	19183.03
512.51	19267.29
512.69	19468.58
512.86	19407.72
513.04	19601.99
513.21	19470.92
513.38	19669.86
513.56	19653.48
513.73	19857.10
513.90	19531.77
514.08	19513.05
514.25	19840.72
514.43	19782.21
514.60	19850.08
514.77	19632.41
514.95	19913.28
515.12	19793.91
515.29	19995.20
515.47	20037.33
515.64	19992.86
515.81	20032.65
515.99	19962.43
516.16	20353.30
516.33	20154.35
516.51	20444.58
516.68	20196.48
516.85	20467.98
517.03	20535.86
517.20	20690.34
517.37	20556.93
517.54	20634.16
517.72	20896.30
517.89	20842.47
518.06	20931.41
518.24	20664.59
518.41	20702.04
518.58	20783.96
518.75	20898.64
518.93	21036.74
519.10	21137.38
519.27	20952.48
519.45	21149.08
519.62	21062.48
519.79	21209.93
519.96	21282.49
520.14	21261.43
520.31	21333.98
520.48	21446.33
520.65	21181.85
520.83	21593.78
521.00	21561.02
521.17	21759.96
521.34	21544.63
521.52	21666.34
521.69	21671.02
521.86	21949.54
522.03	21909.75
522.20	21844.22
522.38	22099.34
522.55	22040.82
522.72	21799.75
522.89	22108.70
523.07	22328.71
523.24	22078.27
523.41	22195.30
523.58	22167.21
523.75	22305.31
523.92	22204.66
524.10	22520.63
524.27	22230.41
524.44	22700.86
524.61	22876.40
524.78	22483.19
524.96	22583.83
525.13	22644.68
525.30	22705.54
525.47	22831.93
525.64	22815.54
525.81	22616.60
525.98	23035.55
526.16	23005.13
526.33	22885.76
526.50	23229.82
526.67	22672.77
526.84	23154.92
527.01	22927.89
527.18	22967.68
527.36	23447.49
527.53	23262.58
527.70	23295.35
527.87	23520.04
528.04	23651.11
528.21	23435.78
528.38	23524.72
528.55	23611.32
528.72	23241.52
528.89	23953.04
529.07	23641.75
529.24	23623.03
529.41	23873.46
529.58	23765.80
529.75	23791.55
529.92	23948.36
530.09	23623.03
530.26	24030.28
530.43	23307.05
530.60	23641.75
530.77	24037.30
530.94	23707.29
531.11	23875.80
531.28	24240.93
531.46	24245.61
531.63	24280.72
531.80	24173.05
531.97	24236.25
532.14	24137.94
532.31	24460.94
532.48	24493.71
532.65	24353.27
532.82	24079.43
532.99	24311.14
533.16	24137.94
533.33	24655.20
533.50	24765.21
533.67	24479.66
533.84	24568.60
534.01	24528.81
534.18	24414.13
534.35	24893.94
534.52	24528.81
534.69	25008.62
534.86	24945.43
535.03	24793.29
535.20	24907.98
535.37	24917.34
535.54	24870.53
535.71	25025.01
535.88	24959.47
536.05	24889.26
536.22	24922.02
536.38	25205.23
536.55	25256.72
536.72	24924.36
536.89	25003.94
537.06	25205.23
537.23	25441.62
537.40	25198.21
537.57	25446.30
537.74	25462.69
537.91	25429.92
538.08	25818.45
538.25	25783.34
538.42	25125.65
538.59	25834.83
538.75	25214.59
538.92	25504.82
539.09	25778.66
539.26	25443.96
539.43	25680.36
539.60	25769.30
539.77	25230.98
539.94	26010.37
540.11	25949.52
540.28	25472.05
540.44	25713.13
540.61	25731.85
540.78	25724.83
540.95	25991.65
541.12	25495.46
541.29	26001.01
541.46	25989.31
541.62	26120.38
541.79	25996.33
541.96	25790.36
542.13	26031.44
542.30	26022.08
542.47	26349.75
542.63	26452.73
542.80	26518.27
542.97	26925.52
543.14	26719.56
543.31	26445.71
543.48	26602.53
543.64	26717.22
543.81	26639.98
543.98	26703.17
544.15	26857.65
544.32	26958.29
544.48	26778.07
544.65	26972.33
544.82	26668.06
544.99	26485.50
545.16	26410.60
545.32	26916.16
545.49	26752.32
545.66	26829.56
545.83	26892.76
546.00	27384.27
546.16	27110.43
546.33	26630.62
546.50	27023.83
546.67	26913.82
546.83	26913.82
547.00	27054.25
547.17	27395.97
547.34	27187.66
547.50	27292.99
547.67	27566.83
547.84	27461.51
548.00	27220.43
548.17	27480.23
548.34	27171.28
548.51	27702.58
548.67	27723.65
548.84	27611.30
549.01	27150.21
549.18	27405.33
549.34	27452.14
549.51	27573.85
549.68	27367.88
549.84	27449.80
550.01	27740.03
550.18	27763.43
550.34	27817.27
550.51	27632.36
550.68	27585.55
550.84	27758.75
551.01	27957.70
551.18	27613.64
551.34	27599.60
551.51	27651.09
551.68	27995.15
551.84	27597.26
552.01	27922.59
552.18	27852.38
552.34	27843.01
552.51	27983.44
552.68	28027.92
552.84	28119.20
553.01	27978.76
553.18	27992.81
553.34	28053.66
553.51	28250.27
553.67	28273.67
553.84	28563.90
554.01	28481.98
554.17	28116.86
554.34	28208.14
554.51	28091.11
554.67	28306.44
554.84	28608.37
555.00	28561.56
555.17	28290.06
555.33	28594.32
555.50	28201.11
555.67	28524.11
555.83	28629.43
556.00	28512.41
556.16	28781.57
556.33	28196.43
556.50	28570.92
556.66	28793.27
556.83	28505.38
556.99	28868.17
557.16	28772.21
557.32	28521.77
557.49	28980.51
557.65	28486.66
557.82	28706.67
557.98	28591.98
558.15	28835.40
558.32	29259.04
558.48	29003.92
558.65	28886.89
558.81	28687.95
558.98	28987.53
559.14	28875.19
559.31	28856.46
559.47	28893.91
559.64	29046.05
559.80	29343.30
559.97	29244.99
560.13	29055.41
560.30	29160.73
560.46	28823.70
560.63	28863.49
560.79	28907.96
560.96	29273.08
561.12	28807.31
561.29	28931.36
561.45	29340.96
561.61	28795.61
561.78	29401.81
561.94	29184.14
562.11	29071.79
562.27	29322.23
562.44	29411.17
562.60	29053.07
562.77	29207.55
562.93	29565.65
563.10	29214.57
563.26	29172.44
563.42	29371.38
563.59	29420.53
563.75	29483.73
563.92	29507.13
564.08	29345.64
564.24	29254.36
564.41	29191.16
564.57	29465.00
564.74	29364.36
564.90	29668.63
565.07	29406.49
565.23	29795.02
565.39	29373.72
565.56	29357.34
565.72	29104.56
565.88	29373.72
566.05	29123.29
566.21	29198.18
566.38	29376.06
566.54	29310.53
566.70	29935.45
566.87	29617.14
567.03	29567.99
567.19	29942.47
567.36	29647.57
567.52	29539.90
567.68	29448.62
567.85	29270.74
568.01	29675.65
568.17	29766.93
568.34	29603.10
568.50	29584.37
568.66	29415.85
568.83	29806.72
568.99	29647.57
569.15	29591.39
569.32	29846.51
569.48	29582.03
569.64	29596.07
569.81	29474.37
569.97	29572.67
570.13	30029.07
570.30	29600.76
570.46	29736.51
570.62	29237.97
570.78	29469.69
570.95	29476.71
571.11	29860.55
571.27	29766.93
571.43	29621.82
571.60	29673.31
571.76	30089.93
571.92	29802.04
572.09	29656.93
572.25	29773.95
572.41	29844.17
572.57	30143.76
572.74	29975.24
572.90	29947.15
573.06	30153.12
573.22	29701.40
573.38	30284.19
573.55	29766.93
573.71	30307.60
573.87	30106.31
574.03	29766.93
574.20	29851.19
574.36	29736.51
574.52	29743.53
574.68	29848.85
574.84	29771.61
575.01	29879.28
575.17	29926.09
575.33	29862.90
575.49	30057.16
575.65	30108.65
575.82	29628.84
575.98	30008.01
576.14	30321.64
576.30	29916.73
576.46	30204.61
576.62	30267.81
576.79	29846.51
576.95	30066.52
577.11	30300.58
577.27	30054.82
577.43	30291.21
577.59	30017.37
577.75	29930.77
577.92	30000.99
578.08	30206.95
578.24	29783.32
578.40	30298.23
578.56	30125.04
578.72	30045.46
578.88	30412.92
579.04	30436.33
579.21	29942.47
579.37	30237.38
579.53	30237.38
579.69	30064.18
579.85	29865.24
580.01	30199.93
580.17	29954.18
580.33	29743.53
580.49	29881.62
580.65	30450.37
580.82	30171.85
580.98	30281.85
581.14	30331.00
581.30	30443.35
581.46	30204.61
581.62	30160.14
581.78	30012.69
581.94	30387.18
582.10	30232.70
582.26	30019.71
582.42	30235.04
582.58	30396.54
582.74	30438.67
582.90	30206.95
583.06	30480.80
583.22	30253.76
583.38	30363.77
583.54	29926.09
583.70	30008.01
583.86	30265.47
584.02	30155.46
584.18	30136.74
584.34	30335.68
584.50	30560.37
584.66	30068.86
584.82	30061.84
584.98	30256.11
585.14	30122.69
585.30	29844.17
585.46	30387.18
585.62	30326.32
585.78	30204.61
585.94	30281.85
586.10	30174.19
586.26	30403.56
586.42	30349.73
586.58	30239.72
586.74	30485.48
586.90	29942.47
587.06	30321.64
587.22	30106.31
587.38	30338.02
587.54	30398.88
587.70	30270.15
587.86	30796.77
588.02	30476.12
588.18	30572.08
588.34	30883.37
588.49	30637.61
588.65	30286.53
588.81	30237.38
588.97	30370.79
589.13	30146.10
589.29	30366.11
589.45	30251.42
589.61	30382.49
589.77	30925.50
589.93	30639.95
590.08	30778.04
590.24	30644.63
590.40	30710.17
590.56	30801.45
590.72	30223.34
590.88	30078.22
591.04	30595.48
591.20	30773.36
591.35	30897.41
591.51	30986.35
591.67	30909.11
591.83	31068.27
591.99	30682.08
