SpectraSuite Data File
++++++++++++++++++++++++++++++++++++
Date: Fri Oct 18 13:58:03 GMT-05:00 2013
User: bianchi
Dark Spectrum Present: No
Reference Spectrum Present: No
Number of Sampled Component Spectra: 1
Spectrometers: USB2+H05261
Integration Time (usec): 50000 (USB2+H05261)
Spectra Averaged: 1 (USB2+H05261)
Boxcar Smoothing: 0 (USB2+H05261)
Correct for Electrical Dark: No (USB2+H05261)
Strobe/Lamp Enabled: No (USB2+H05261)
Correct for Detector Non-linearity: No (USB2+H05261)
Correct for Stray Light: No (USB2+H05261)
Number of Pixels in Processed Spectrum: 2048
>>>>>Begin Processed Spectral Data<<<<<
365.73	0.00
365.92	0.00
366.12	0.00
366.32	0.00
366.52	0.00
366.72	0.00
366.91	0.00
367.11	0.00
367.31	0.00
367.51	0.00
367.70	0.00
367.90	0.00
368.10	0.00
368.30	0.00
368.49	0.00
368.69	0.00
368.89	0.00
369.09	0.00
369.28	0.00
369.48	0.00
369.68	0.00
369.87	0.00
370.07	0.00
370.27	0.00
370.47	0.00
370.66	91.28
370.86	135.75
371.06	102.98
371.25	149.79
371.45	95.96
371.65	100.64
371.84	138.09
372.04	159.16
372.24	259.80
372.44	133.41
372.63	227.03
372.83	187.24
373.03	187.24
373.22	191.92
373.42	217.67
373.62	147.45
373.81	187.24
374.01	255.12
374.21	266.82
374.40	198.95
374.60	168.52
374.79	180.22
374.99	227.03
375.19	227.03
375.38	269.16
375.58	264.48
375.78	283.20
375.97	259.80
376.17	299.59
376.37	245.76
376.56	276.18
376.76	245.76
376.95	208.31
377.15	285.55
377.35	332.36
377.54	283.20
377.74	278.52
377.93	259.80
378.13	276.18
378.33	315.97
378.52	292.57
378.72	292.57
378.91	315.97
379.11	283.20
379.31	269.16
379.50	257.46
379.70	325.33
379.89	304.27
380.09	292.57
380.28	241.08
380.48	285.55
380.68	250.44
380.87	283.20
381.07	264.48
381.26	238.73
381.46	367.46
381.65	276.18
381.85	360.44
382.04	269.16
382.24	411.93
382.43	351.08
382.63	327.68
382.83	339.38
383.02	367.46
383.22	395.55
383.41	348.74
383.61	365.12
383.80	386.19
384.00	367.46
384.19	425.98
384.39	325.33
384.58	379.17
384.78	346.40
384.97	393.21
385.17	365.12
385.36	367.46
385.56	344.06
385.75	315.97
385.95	360.44
386.14	433.00
386.34	482.15
386.53	353.42
386.72	400.23
386.92	411.93
387.11	423.64
387.31	400.23
387.50	409.59
387.70	456.40
387.89	425.98
388.09	339.38
388.28	528.96
388.48	447.04
388.67	407.25
388.86	484.49
389.06	376.83
389.25	468.11
389.45	484.49
389.64	454.06
389.84	479.81
390.03	456.40
390.22	475.13
390.42	470.45
390.61	472.79
390.81	470.45
391.00	489.17
391.19	592.16
391.39	526.62
391.58	528.96
391.78	550.03
391.97	580.45
392.16	552.37
392.36	528.96
392.55	507.90
392.75	493.85
392.94	528.96
393.13	561.73
393.33	514.92
393.52	510.24
393.71	596.84
393.91	535.98
394.10	514.92
394.29	596.84
394.49	526.62
394.68	545.34
394.88	622.58
395.07	631.94
395.26	617.90
395.46	636.63
395.65	650.67
395.84	608.54
396.04	746.63
396.23	732.59
396.42	608.54
396.62	678.76
396.81	678.76
397.00	592.16
397.19	629.60
397.39	681.10
397.58	692.80
397.77	603.86
397.97	645.99
398.16	695.14
398.35	699.82
398.55	767.70
398.74	737.27
398.93	793.44
399.12	676.41
399.32	676.41
399.51	751.31
399.70	739.61
399.90	709.18
400.09	812.17
400.28	823.87
400.47	744.29
400.67	751.31
400.86	809.83
401.05	751.31
401.24	770.04
401.44	809.83
401.63	755.99
401.82	823.87
402.01	685.78
402.21	854.30
402.40	882.38
402.59	856.64
402.78	849.61
402.97	767.70
403.17	807.48
403.36	861.32
403.55	894.08
403.74	943.24
403.93	868.34
404.13	957.28
404.32	856.64
404.51	971.32
404.70	997.07
404.89	931.53
405.09	968.98
405.28	971.32
405.47	971.32
405.66	905.79
405.85	983.02
406.05	940.90
406.24	1029.84
406.43	987.71
406.62	1144.52
406.81	999.41
407.00	1088.35
407.20	1029.84
407.39	1088.35
407.58	1027.50
407.77	968.98
407.96	1158.57
408.15	1121.12
408.34	1046.22
408.54	1057.92
408.73	1083.67
408.92	1064.94
409.11	1078.99
409.30	1109.41
409.49	1104.73
409.68	1149.20
409.87	1144.52
410.07	1219.42
410.26	1118.78
410.45	1181.97
410.64	1170.27
410.83	1144.52
411.02	1306.02
411.21	1160.91
411.40	1221.76
411.59	1280.27
411.78	1273.25
411.98	1263.89
412.17	1252.19
412.36	1366.87
412.55	1299.00
412.74	1413.68
412.93	1451.13
413.12	1373.89
413.31	1437.09
413.50	1315.38
413.69	1336.45
413.88	1455.81
414.07	1385.60
414.26	1448.79
414.45	1516.67
414.64	1432.41
414.83	1486.24
415.02	1500.28
415.22	1526.03
415.41	1547.09
415.60	1544.75
415.79	1554.12
415.98	1593.90
416.17	1556.46
416.36	1668.80
416.55	1589.22
416.74	1605.61
416.93	1699.23
417.12	1647.74
417.31	1717.95
417.50	1767.10
417.69	1781.15
417.88	1652.42
418.07	1619.65
418.26	1701.57
418.45	1720.29
418.64	1870.09
418.83	1776.47
419.02	1715.61
419.21	1797.53
419.39	1811.57
419.58	1804.55
419.77	1757.74
419.96	1834.98
420.15	1785.83
420.34	1792.85
420.53	1792.85
420.72	1942.64
420.91	1858.39
421.10	1916.90
421.29	1930.94
421.48	1846.68
421.67	2001.16
421.86	1975.41
422.05	1961.37
422.24	1989.46
422.43	1954.35
422.61	2010.52
422.80	1968.39
422.99	1966.05
423.18	2003.50
423.37	2134.57
423.56	2052.65
423.75	2012.86
423.94	2052.65
424.13	1900.52
424.32	2010.52
424.50	2111.16
424.69	2076.06
424.88	2031.58
425.07	2043.29
425.26	2005.84
425.45	2003.50
425.64	1966.05
425.83	2052.65
426.01	1998.82
426.20	2099.46
426.39	2001.16
426.58	1980.09
426.77	2080.74
426.96	2146.27
427.15	1975.41
427.33	2069.03
427.52	2197.76
427.71	2106.48
427.90	2122.87
428.09	2216.49
428.28	2097.12
428.46	2148.61
428.65	2172.02
428.84	2225.85
429.03	2305.43
429.22	2267.98
429.40	2218.83
429.59	2256.28
429.78	2162.66
429.97	2059.67
430.16	2209.47
430.34	2200.10
430.53	2277.34
430.72	2272.66
430.91	2279.68
431.10	2305.43
431.28	2326.49
431.47	2368.62
431.66	2499.69
431.85	2356.92
432.03	2338.20
432.22	2455.22
432.41	2495.01
432.60	2441.18
432.79	2452.88
432.97	2417.77
433.16	2413.09
433.35	2506.71
433.54	2478.63
433.72	2520.76
433.91	2385.01
434.10	2497.35
434.28	2436.50
434.47	2527.78
434.66	2583.95
434.85	2588.63
435.03	2565.23
435.22	2576.93
435.41	2698.64
435.59	2654.17
435.78	2799.28
435.97	2600.34
436.16	2628.42
436.34	2703.32
436.53	2778.22
436.72	2780.56
436.90	2703.32
437.09	2693.96
437.28	2665.87
437.46	2626.08
437.65	2860.13
437.84	2750.13
438.02	2789.92
438.21	2855.45
438.40	2633.10
438.58	2726.72
438.77	2981.84
438.96	2813.32
439.14	2874.18
439.33	3075.46
439.52	2967.80
439.70	2960.78
439.89	3084.83
440.08	3080.14
440.26	3014.61
440.45	3148.02
440.63	3122.27
440.82	3187.81
441.01	3023.97
441.19	3232.28
441.38	3115.25
441.57	3232.28
441.75	3164.40
441.94	3054.40
442.12	3201.85
442.31	3473.36
442.50	3325.90
442.68	3386.76
442.87	3419.52
443.05	3330.58
443.24	3283.77
443.43	3473.36
443.61	3440.59
443.80	3421.86
443.98	3398.46
444.17	3342.28
444.35	3482.72
444.54	3426.54
444.73	3358.67
444.91	3459.31
445.10	3438.25
445.28	3396.12
445.47	3370.37
445.65	3400.80
445.84	3449.95
446.02	3499.10
446.21	3581.02
446.39	3372.71
446.58	3485.06
446.77	3503.78
446.95	3522.51
447.14	3517.83
447.32	3574.00
447.51	3452.29
447.69	3536.55
447.88	3471.01
448.06	3566.98
448.25	3506.12
448.43	3459.31
448.62	3449.95
448.80	3541.23
448.99	3545.91
449.17	3602.08
449.36	3604.42
449.54	3740.18
449.73	3681.66
449.91	3796.35
450.10	3627.83
450.28	3829.12
450.46	3676.98
450.65	3733.15
450.83	3524.85
451.02	3803.37
451.20	3733.15
451.39	3805.71
451.57	3810.39
451.76	3789.33
451.94	3817.41
452.13	3765.92
452.31	3721.45
452.49	3791.67
452.68	3826.78
452.86	3859.54
453.05	4091.26
453.23	3918.06
453.42	3847.84
453.60	3866.56
453.78	4030.40
453.97	3913.38
454.15	3955.51
454.34	3836.14
454.52	4032.74
454.70	4161.47
454.89	4070.19
455.07	4049.13
455.26	4032.74
455.44	4203.60
455.62	4182.54
455.81	4175.52
455.99	4084.23
456.17	4201.26
456.36	4140.41
456.54	4154.45
456.73	4283.18
456.91	4276.16
457.09	4365.10
457.28	4402.55
457.46	4351.06
457.64	4290.20
457.83	4313.61
458.01	4215.30
458.19	4435.32
458.38	4498.51
458.56	4449.36
458.74	4484.47
458.93	4367.44
459.11	4489.15
459.29	4297.22
459.48	4470.42
459.66	4571.07
459.84	4465.74
460.03	4447.02
460.21	4559.36
460.39	4559.36
460.57	4456.38
460.76	4774.69
460.94	4594.47
461.12	4519.57
461.31	4643.62
461.49	4683.41
461.67	4704.48
461.85	4723.20
462.04	4608.51
462.22	5034.49
462.40	4805.12
462.59	4690.43
462.77	4674.05
462.95	4791.08
463.13	4826.18
463.32	5006.41
463.50	4671.71
463.68	4767.67
463.86	4873.00
464.05	4863.63
464.23	4762.99
464.41	4924.49
464.59	4849.59
464.78	5039.17
464.96	4849.59
465.14	4973.64
465.32	5095.35
465.50	4992.36
465.69	5233.44
465.87	5020.45
466.05	4847.25
466.23	5069.60
466.41	5069.60
466.60	5301.31
466.78	5116.41
466.96	5121.09
467.14	5123.43
467.32	5172.58
467.51	5121.09
467.69	4999.38
467.87	5123.43
468.05	5343.44
468.23	5177.26
468.41	5153.86
468.60	5366.85
468.78	5233.44
468.96	5163.22
469.14	5390.25
469.32	5467.49
469.50	5081.30
469.69	5198.33
469.87	5383.23
470.05	5427.70
470.23	5530.69
470.41	5406.64
470.59	5547.07
470.77	5406.64
470.95	5303.65
471.14	5675.80
471.32	5467.49
471.50	5795.17
471.68	5465.15
471.86	5605.58
472.04	5825.59
472.22	5762.40
472.40	5523.66
472.58	5671.12
472.77	5849.00
472.95	5748.36
473.13	6001.13
473.31	5827.93
473.49	5806.87
473.67	5870.06
473.85	5872.40
474.03	6122.84
474.21	6076.03
474.39	5951.98
474.57	6083.05
474.75	6108.80
474.93	6289.02
475.12	6190.72
475.30	6155.61
475.48	6153.27
475.66	6317.11
475.84	6282.00
476.02	6504.35
476.20	6237.53
476.38	6684.57
476.56	6670.53
476.74	6651.80
476.92	6588.61
477.10	6572.22
477.28	6586.27
477.46	6616.69
477.64	6761.81
477.82	6738.40
478.00	7033.31
478.18	6974.80
478.36	7152.68
478.54	6965.43
478.72	7126.93
478.90	7201.83
479.08	7108.21
479.26	7276.73
479.44	7295.45
479.62	7337.58
479.80	7478.01
479.98	7440.56
480.16	7550.57
480.34	7630.15
480.52	7683.98
480.70	7571.63
480.88	7506.10
481.06	7660.57
481.24	7751.85
481.41	7915.69
481.59	8161.45
481.77	8142.72
481.95	8051.44
482.13	8112.30
482.31	8191.88
482.49	8341.67
482.67	8322.94
482.85	8336.99
483.03	8409.54
483.21	8596.79
483.39	8652.96
483.57	8641.26
483.74	8571.04
483.92	8814.46
484.10	8688.07
484.28	9006.38
484.46	8903.40
484.64	9151.49
484.82	8865.95
485.00	9254.48
485.18	9298.95
485.35	9476.83
485.53	9469.81
485.71	9245.12
485.89	9666.41
486.07	9500.23
486.25	9886.42
486.43	9884.08
486.61	9975.36
486.78	9860.68
486.96	10054.94
487.14	10036.22
487.32	10097.07
487.50	10246.87
487.68	10143.88
487.85	10396.66
488.03	10413.04
488.21	10541.77
488.39	10574.54
488.57	10736.04
488.75	10792.21
488.92	11007.54
489.10	10925.62
489.28	11007.54
489.46	11091.80
489.64	11002.86
489.81	11400.75
489.99	11211.17
490.17	11199.46
490.35	11382.03
490.53	11370.32
490.70	11791.62
490.88	11669.91
491.06	11559.91
491.24	11648.85
491.41	12023.33
491.59	12182.49
491.77	12042.06
491.95	12233.98
492.13	12311.22
492.30	12489.10
492.48	12348.67
492.66	12409.52
492.84	12437.61
493.01	12683.36
493.19	12547.61
493.37	12835.50
493.54	12636.55
493.72	12971.25
493.90	13022.74
494.08	12952.52
494.25	13146.79
494.43	13291.90
494.61	13497.87
494.79	13568.09
494.96	13614.90
495.14	13586.81
495.32	13874.70
495.49	13570.43
495.67	13933.21
495.85	14001.08
496.02	14036.19
496.20	14092.37
496.38	13968.32
496.55	14101.73
496.73	14190.67
496.91	14424.72
497.09	14354.51
497.26	14457.49
497.44	14139.18
497.62	14551.11
497.79	14590.90
497.97	14525.36
498.14	14717.29
498.32	14953.68
498.50	14960.70
498.67	15197.10
498.85	14630.69
499.03	14815.59
499.20	14890.49
499.38	14902.19
499.56	15101.14
499.73	15183.06
499.91	15445.20
500.08	15396.04
500.26	15370.30
500.44	15723.72
500.61	15489.67
500.79	15810.32
500.97	15922.66
501.14	15815.00
501.32	15836.06
501.49	15889.90
501.67	15960.11
501.84	16077.14
502.02	16233.96
502.20	16290.13
502.37	16346.30
502.55	16217.57
502.72	16159.06
502.90	16393.11
503.07	16161.40
503.25	16257.36
503.43	16290.13
503.60	16407.16
503.78	16631.85
503.95	16840.15
504.13	16393.11
504.30	16812.07
504.48	16767.60
504.65	16751.21
504.83	17221.66
505.01	17216.98
505.18	17123.36
505.36	17247.41
505.53	17081.23
505.71	17397.20
505.88	17158.47
506.06	16950.16
506.23	17315.28
506.41	17617.21
506.58	17568.06
506.76	17439.33
506.93	17479.12
507.11	17434.65
507.28	17649.98
507.46	17888.71
507.63	17769.35
507.81	17947.23
507.98	17874.67
508.16	18029.15
508.33	17982.34
508.50	18106.38
508.68	18167.24
508.85	18202.35
509.03	18232.77
509.20	18314.69
509.38	18427.04
509.55	18752.37
509.73	18160.22
509.90	18441.08
510.08	18579.17
510.25	18352.14
510.42	18644.71
510.60	18923.23
510.77	19019.19
510.95	18785.14
511.12	18508.96
511.30	18724.29
511.47	19066.00
511.64	18677.48
511.82	19040.26
511.99	18850.67
512.17	19185.37
512.34	19356.23
512.51	19389.00
512.69	19286.01
512.86	19176.01
513.04	19606.67
513.21	19470.92
513.38	19501.34
513.56	19651.14
513.73	19346.87
513.90	19550.49
514.08	19417.08
514.25	19887.53
514.43	19723.69
514.60	19756.46
514.77	20056.05
514.95	20276.06
515.12	20166.06
515.29	19934.34
515.47	20273.72
515.64	20112.22
515.81	20231.59
515.99	20503.09
516.16	20599.05
516.33	20402.45
516.51	20561.61
516.68	20393.09
516.85	19934.34
517.03	20582.67
517.20	20549.90
517.37	20442.24
517.54	20767.57
517.72	20730.12
517.89	20830.77
518.06	20982.90
518.24	20629.48
518.41	21097.59
518.58	21032.05
518.75	20854.17
518.93	20938.43
519.10	20711.40
519.27	21090.57
519.45	20739.49
519.62	21462.71
519.79	21345.69
519.96	21329.30
520.14	21532.93
520.31	21275.47
520.48	21493.14
520.65	21530.59
520.83	21551.65
521.00	21717.83
521.17	21366.75
521.34	21687.40
521.52	21556.33
521.69	21799.75
521.86	22010.40
522.03	22361.48
522.20	21914.44
522.38	22024.44
522.55	22038.48
522.72	22160.19
522.89	21879.33
523.07	22480.85
523.24	21996.35
523.41	22466.80
523.58	22001.04
523.75	22530.00
523.92	22314.67
524.10	22347.44
524.27	22361.48
524.44	22759.37
524.61	22759.37
524.78	22532.34
524.96	22532.34
525.13	22738.30
525.30	22689.15
525.47	22930.23
525.64	22815.54
525.81	23014.49
525.98	22906.82
526.16	23033.21
526.33	22710.22
526.50	23007.47
526.67	23159.60
526.84	22979.38
527.01	22960.66
527.18	23351.52
527.36	23288.33
527.53	23461.53
527.70	23690.90
527.87	23250.88
528.04	23506.00
528.21	23192.37
528.38	23276.63
528.55	23187.69
528.72	23538.77
528.89	23735.37
529.07	23456.85
529.24	23805.59
529.41	23941.34
529.58	23506.00
529.75	23318.76
529.92	23803.25
530.09	23901.55
530.26	24156.67
530.43	23625.37
530.60	23983.47
530.77	23566.85
530.94	23941.34
531.11	23651.11
531.28	23686.22
531.46	24093.47
531.63	24140.29
531.80	24271.36
531.97	24215.18
532.14	24549.88
532.31	24339.23
532.48	24222.20
532.65	24095.82
532.82	24011.56
532.99	24182.42
533.16	24596.69
533.33	24620.10
533.50	24594.35
533.67	24446.90
533.84	24512.43
534.01	24456.26
534.18	24606.05
534.35	24739.46
534.52	24961.81
534.69	24882.24
534.86	24812.02
535.03	24954.79
535.20	24767.55
535.37	24999.26
535.54	25078.84
535.71	24741.80
535.88	25034.37
536.05	25017.99
536.22	24940.75
536.38	25064.80
536.55	25120.97
536.72	25275.45
536.89	25240.34
537.06	25202.89
537.23	25259.06
537.40	25392.47
537.57	25240.34
537.74	25163.10
537.91	25420.56
538.08	25394.81
538.25	25144.38
538.42	25446.30
538.59	25495.46
538.75	25179.48
538.92	25586.74
539.09	25689.72
539.26	25490.77
539.43	25462.69
539.60	25778.66
539.77	25422.90
539.94	25638.23
540.11	25944.84
540.28	25759.94
540.44	25699.08
540.61	25542.27
540.78	25879.30
540.95	25844.20
541.12	25886.32
541.29	26204.64
541.46	25996.33
541.62	25743.55
541.79	26143.78
541.96	25818.45
542.13	25827.81
542.30	26134.42
542.47	26457.42
542.63	26312.30
542.80	26473.80
542.97	26707.85
543.14	26815.52
543.31	26431.67
543.48	26295.92
543.64	26651.68
543.81	26801.47
543.98	26787.43
544.15	26522.95
544.32	26621.25
544.48	26916.16
544.65	26558.06
544.82	26567.42
544.99	26595.51
545.16	26448.05
545.32	26590.83
545.49	26881.05
545.66	27274.26
545.83	26941.91
546.00	26972.33
546.16	27080.00
546.33	26859.99
546.50	26817.86
546.67	27058.93
546.83	26724.24
547.00	27044.89
547.17	27225.11
547.34	27292.99
547.50	27218.09
547.67	27786.84
547.84	27283.62
548.00	26883.39
548.17	27117.45
548.34	27337.46
548.51	27353.84
548.67	27454.48
548.84	27363.20
549.01	27454.48
549.18	27168.94
549.34	27480.23
549.51	27969.40
549.68	27391.29
549.84	27735.35
550.01	27569.17
550.18	27388.95
550.34	27644.07
550.51	27711.94
550.68	28074.73
550.84	27718.96
551.01	27543.42
551.18	27463.85
551.34	27948.34
551.51	27634.71
551.68	27658.11
551.84	27740.03
552.01	27885.14
552.18	27751.73
552.34	27922.59
552.51	27868.76
552.68	27978.76
552.84	28046.64
553.01	28093.45
553.18	28060.68
553.34	28041.96
553.51	27824.29
553.67	28177.71
553.84	28278.35
554.01	28205.80
554.17	28460.91
554.34	28388.36
554.51	28105.15
554.67	28072.39
554.84	28276.01
555.00	28229.20
555.17	28140.26
555.33	28268.99
555.50	28364.95
555.67	28362.61
555.83	28680.92
556.00	28505.38
556.16	28732.42
556.33	28236.22
556.50	28425.81
556.66	28737.10
556.83	28591.98
556.99	28858.81
557.16	28591.98
557.32	28823.70
557.49	28786.25
557.65	28491.34
557.82	28601.35
557.98	28985.19
558.15	28809.65
558.32	29013.28
558.48	28821.36
558.65	28861.15
558.81	29069.45
558.98	28631.77
559.14	29076.48
559.31	28599.01
559.47	29078.82
559.64	28978.17
559.80	29132.65
559.97	29076.48
560.13	28739.44
560.30	28701.99
560.46	29191.16
560.63	29036.69
560.79	29102.22
560.96	29380.74
561.12	28900.94
561.29	29127.97
561.45	29193.50
561.61	28641.14
561.78	29024.98
561.94	29050.73
562.11	28957.11
562.27	29137.33
562.44	29284.78
562.60	29071.79
562.77	29102.22
562.93	28783.91
563.10	29333.93
563.26	29511.81
563.42	29411.17
563.59	29109.24
563.75	29347.98
563.92	29383.09
564.08	29177.12
564.24	29200.52
564.41	29092.86
564.57	29289.46
564.74	29357.34
564.90	29692.04
565.07	29432.24
565.23	29516.50
565.39	29577.35
565.56	29436.92
565.72	29488.41
565.88	29610.12
566.05	29198.18
566.21	29244.99
566.38	29558.63
566.54	29553.94
566.70	29940.13
566.87	29607.78
567.03	29715.44
567.19	30052.48
567.36	29785.66
567.52	29418.19
567.68	29713.10
567.85	29816.08
568.01	29916.73
568.17	29626.50
568.34	30000.99
568.50	29635.86
568.66	29680.33
568.83	29579.69
568.99	29748.21
569.15	29202.86
569.32	29521.18
569.48	29560.97
569.64	29546.92
569.81	29778.64
569.97	29881.62
570.13	29912.05
570.30	29682.67
570.46	29998.65
570.62	29717.78
570.78	29827.79
570.95	29888.64
571.11	29397.13
571.27	29825.45
571.43	29495.43
571.60	29820.77
571.76	29694.38
571.92	29717.78
572.09	29689.70
572.25	30153.12
572.41	29951.84
572.57	29633.52
572.74	29778.64
572.90	29549.26
573.06	30059.50
573.22	30244.40
573.38	29888.64
573.55	30040.78
573.71	29961.20
573.87	30132.06
574.03	30218.66
574.20	30377.81
574.36	29729.48
574.52	29996.31
574.68	29912.05
574.84	29689.70
575.01	30031.41
575.17	30263.13
575.33	29703.74
575.49	29830.13
575.65	29750.55
575.82	30237.38
575.98	29818.42
576.14	30026.73
576.30	29956.52
576.46	29771.61
576.62	29818.42
576.79	29855.87
576.95	30054.82
577.11	29956.52
577.27	30396.54
577.43	30183.55
577.59	29659.27
577.75	30078.22
577.92	29879.28
578.08	29762.25
578.24	29907.37
578.40	29776.30
578.56	30040.78
578.72	30092.27
578.88	30433.99
579.04	30192.91
579.21	29909.71
579.37	30199.93
579.53	30127.38
579.69	29734.17
579.85	30068.86
580.01	29867.58
580.17	29558.63
580.33	30162.48
580.49	30518.25
580.65	30328.66
580.82	30267.81
580.98	30103.97
581.14	30005.67
581.30	30352.07
581.46	29872.26
581.62	29961.20
581.78	30202.27
581.94	30068.86
582.10	29888.64
582.26	30085.25
582.42	30160.14
582.58	30366.11
582.74	30312.28
582.90	30267.81
583.06	30162.48
583.22	30396.54
583.38	30103.97
583.54	30321.64
583.70	30300.58
583.86	30190.57
584.02	29905.02
584.18	30548.67
584.34	30162.48
584.50	30536.97
584.66	30270.15
584.82	29551.60
584.98	30448.03
585.14	30178.87
585.30	30139.08
585.46	30017.37
585.62	29869.92
585.78	30565.06
585.94	29968.22
586.10	30251.42
586.26	30206.95
586.42	30579.10
586.58	30267.81
586.74	30279.51
586.90	29958.86
587.06	29848.85
587.22	30181.21
587.38	30115.67
587.54	30314.62
587.70	30794.43
587.86	30274.83
588.02	30710.17
588.18	30532.29
588.34	30466.75
588.49	30522.93
588.65	30347.39
588.81	30260.79
588.97	30263.13
589.13	30433.99
589.29	30312.28
589.45	30448.03
589.61	30642.29
589.77	30642.29
589.93	30614.21
590.08	30906.77
590.24	30469.09
590.40	30691.44
590.56	30469.09
590.72	30480.80
590.88	30677.40
591.04	30485.48
591.20	30829.54
591.35	30637.61
591.51	30998.06
591.67	30787.41
591.83	31110.40
591.99	30899.75
