SpectraSuite Data File
++++++++++++++++++++++++++++++++++++
Date: Fri Oct 18 13:58:12 GMT-05:00 2013
User: bianchi
Dark Spectrum Present: No
Reference Spectrum Present: No
Number of Sampled Component Spectra: 1
Spectrometers: USB2+H05261
Integration Time (usec): 50000 (USB2+H05261)
Spectra Averaged: 1 (USB2+H05261)
Boxcar Smoothing: 0 (USB2+H05261)
Correct for Electrical Dark: No (USB2+H05261)
Strobe/Lamp Enabled: No (USB2+H05261)
Correct for Detector Non-linearity: No (USB2+H05261)
Correct for Stray Light: No (USB2+H05261)
Number of Pixels in Processed Spectrum: 2048
>>>>>Begin Processed Spectral Data<<<<<
365.73	0.00
365.92	0.00
366.12	0.00
366.32	0.00
366.52	0.00
366.72	0.00
366.91	0.00
367.11	0.00
367.31	0.00
367.51	0.00
367.70	0.00
367.90	0.00
368.10	0.00
368.30	0.00
368.49	0.00
368.69	0.00
368.89	0.00
369.09	0.00
369.28	0.00
369.48	0.00
369.68	0.00
369.87	0.00
370.07	0.00
370.27	0.00
370.47	0.00
370.66	63.19
370.86	70.22
371.06	100.64
371.25	126.39
371.45	142.77
371.65	131.07
371.84	81.92
372.04	168.52
372.24	196.60
372.44	262.14
372.63	177.88
372.83	203.63
373.03	234.05
373.22	177.88
373.42	227.03
373.62	220.01
373.81	170.86
374.01	292.57
374.21	269.16
374.40	224.69
374.60	191.92
374.79	252.78
374.99	255.12
375.19	229.37
375.38	264.48
375.58	304.27
375.78	262.14
375.97	334.70
376.17	306.61
376.37	266.82
376.56	243.42
376.76	255.12
376.95	318.31
377.15	266.82
377.35	245.76
377.54	266.82
377.74	334.70
377.93	299.59
378.13	283.20
378.33	248.10
378.52	304.27
378.72	318.31
378.91	315.97
379.11	252.78
379.31	360.44
379.50	308.95
379.70	229.37
379.89	344.06
380.09	290.23
380.28	320.65
380.48	229.37
380.68	306.61
380.87	264.48
381.07	250.44
381.26	313.63
381.46	346.40
381.65	280.86
381.85	297.25
382.04	341.72
382.24	311.29
382.43	320.65
382.63	285.55
382.83	428.32
383.02	435.34
383.22	308.95
383.41	365.12
383.61	311.29
383.80	351.08
384.00	386.19
384.19	330.02
384.39	409.59
384.58	442.36
384.78	409.59
384.97	367.46
385.17	402.57
385.36	421.30
385.56	383.85
385.75	433.00
385.95	400.23
386.14	442.36
386.34	330.02
386.53	388.53
386.72	400.23
386.92	479.81
387.11	379.17
387.31	421.30
387.50	496.19
387.70	468.11
387.89	425.98
388.09	475.13
388.28	472.79
388.48	407.25
388.67	468.11
388.86	472.79
389.06	440.02
389.25	435.34
389.45	512.58
389.64	503.22
389.84	526.62
390.03	479.81
390.22	486.83
390.42	535.98
390.61	535.98
390.81	498.53
391.00	430.66
391.19	510.24
391.39	535.98
391.58	475.13
391.78	531.30
391.97	550.03
392.16	491.51
392.36	615.56
392.55	596.84
392.75	545.34
392.94	503.22
393.13	559.39
393.33	533.64
393.52	566.41
393.71	634.29
393.91	587.47
394.10	561.73
394.29	575.77
394.49	617.90
394.68	657.69
394.88	599.18
395.07	575.77
395.26	573.43
395.46	702.16
395.65	636.63
395.84	596.84
396.04	681.10
396.23	627.26
396.42	725.57
396.62	720.88
396.81	767.70
397.00	681.10
397.19	690.46
397.39	669.39
397.58	720.88
397.77	655.35
397.97	676.41
398.16	751.31
398.35	702.16
398.55	697.48
398.74	706.84
398.93	739.61
399.12	732.59
399.32	730.25
399.51	685.78
399.70	805.14
399.90	793.44
400.09	844.93
400.28	748.97
400.47	805.14
400.67	833.23
400.86	795.78
401.05	851.96
401.24	910.47
401.44	770.04
401.63	903.45
401.82	861.32
402.01	884.72
402.21	800.46
402.40	861.32
402.59	819.19
402.78	842.59
402.97	837.91
403.17	903.45
403.36	767.70
403.55	809.83
403.74	966.64
403.93	936.21
404.13	933.87
404.32	873.02
404.51	858.98
404.70	954.94
404.89	1004.09
405.09	973.66
405.28	994.73
405.47	978.34
405.66	987.71
405.85	968.98
406.05	983.02
406.24	1071.97
406.43	1100.05
406.62	1039.20
406.81	1020.47
407.00	1128.14
407.20	1086.01
407.39	1090.69
407.58	1062.60
407.77	997.07
407.96	1095.37
408.15	1057.92
408.34	957.28
408.54	1076.65
408.73	1067.28
408.92	1081.33
409.11	1062.60
409.30	1193.67
409.49	1233.46
409.68	1184.31
409.87	1214.74
410.07	1238.14
410.26	1186.65
410.45	1205.38
410.64	1156.22
410.83	1273.25
411.02	1266.23
411.21	1181.97
411.40	1179.63
411.59	1221.76
411.78	1275.59
411.98	1240.48
412.17	1371.55
412.36	1308.36
412.55	1394.96
412.74	1263.89
412.93	1406.66
413.12	1345.81
413.31	1315.38
413.50	1446.45
413.69	1481.56
413.88	1554.12
414.07	1392.62
414.26	1441.77
414.45	1500.28
414.64	1530.71
414.83	1526.03
415.02	1535.39
415.22	1533.05
415.41	1629.01
415.60	1584.54
415.79	1593.90
415.98	1607.95
416.17	1600.93
416.36	1708.59
416.55	1551.78
416.74	1699.23
416.93	1659.44
417.12	1694.55
417.31	1645.40
417.50	1659.44
417.69	1797.53
417.88	1830.30
418.07	1748.38
418.26	1762.42
418.45	1682.85
418.64	1713.27
418.83	1881.79
419.02	1872.43
419.21	1853.70
419.39	1881.79
419.58	1834.98
419.77	1844.34
419.96	1811.57
420.15	1982.43
420.34	1832.64
420.53	1926.26
420.72	1956.69
420.91	1994.14
421.10	1872.43
421.29	1977.75
421.48	1940.30
421.67	1996.48
421.86	1930.94
422.05	2118.18
422.24	1982.43
422.43	1928.60
422.61	2059.67
422.80	2080.74
422.99	2050.31
423.18	1956.69
423.37	2050.31
423.56	1930.94
423.75	2043.29
423.94	2115.84
424.13	1865.41
424.32	1872.43
424.50	2132.23
424.69	2064.35
424.88	2120.53
425.07	2111.16
425.26	2024.56
425.45	1914.56
425.64	2113.50
425.83	2078.40
426.01	2141.59
426.20	2139.25
426.39	2139.25
426.58	2167.34
426.77	2108.82
426.96	2202.44
427.15	2139.25
427.33	2207.13
427.52	2085.42
427.71	2230.53
427.90	2204.78
428.09	2256.28
428.28	2162.66
428.46	2256.28
428.65	2310.11
428.84	2263.30
429.03	2260.96
429.22	2237.55
429.40	2293.72
429.59	2307.77
429.78	2106.48
429.97	2148.61
430.16	2230.53
430.34	2324.15
430.53	2352.24
430.72	2359.26
430.91	2354.58
431.10	2258.62
431.28	2338.20
431.47	2438.84
431.66	2462.24
431.85	2410.75
432.03	2319.47
432.22	2422.45
432.41	2445.86
432.60	2368.62
432.79	2525.44
432.97	2457.56
433.16	2616.72
433.35	2605.02
433.54	2506.71
433.72	2684.59
433.91	2616.72
434.10	2511.39
434.28	2457.56
434.47	2558.21
434.66	2614.38
434.85	2602.68
435.03	2658.85
435.22	2761.83
435.41	2754.81
435.59	2689.28
435.78	2736.09
435.97	2605.02
436.16	2609.70
436.34	2661.19
436.53	2733.75
436.72	2881.20
436.90	2626.08
437.09	2825.03
437.28	2759.49
437.46	2747.79
437.65	2759.49
437.84	2885.88
438.02	2857.79
438.21	2761.83
438.40	2841.41
438.58	2899.92
438.77	2991.20
438.96	3054.40
439.14	2843.75
439.33	3014.61
439.52	2979.50
439.70	3124.62
439.89	3021.63
440.08	3133.98
440.26	2970.14
440.45	3260.37
440.63	3152.70
440.82	3342.28
441.01	3197.17
441.19	3124.62
441.38	3199.51
441.57	3309.52
441.75	3339.94
441.94	3325.90
442.12	3361.01
442.31	3421.86
442.50	3351.65
442.68	3398.46
442.87	3288.45
443.05	3412.50
443.24	3412.50
443.43	3435.91
443.61	3393.78
443.80	3459.31
443.98	3419.52
444.17	3300.16
444.35	3442.93
444.54	3471.01
444.73	3461.65
444.91	3508.46
445.10	3447.61
445.28	3557.61
445.47	3499.10
445.65	3527.19
445.84	3346.97
446.02	3492.08
446.21	3536.55
446.39	3459.31
446.58	3576.34
446.77	3637.19
446.95	3543.57
447.14	3552.93
447.32	3513.14
447.51	3637.19
447.69	3641.87
447.88	3562.30
448.06	3585.70
448.25	3618.47
448.43	3613.79
448.62	3613.79
448.80	3618.47
448.99	3658.26
449.17	3660.60
449.36	3625.49
449.54	3698.05
449.73	3761.24
449.91	3784.65
450.10	3929.76
450.28	3770.60
450.46	3992.95
450.65	3932.10
450.83	3812.73
451.02	3735.50
451.20	3953.16
451.39	3857.20
451.57	3913.38
451.76	3838.48
451.94	3829.12
452.13	3943.80
452.31	3871.25
452.49	3943.80
452.68	3999.98
452.86	4007.00
453.05	3974.23
453.23	3990.61
453.42	3978.91
453.60	3981.25
453.78	4147.43
453.97	4030.40
454.15	3918.06
454.34	4105.30
454.52	4098.28
454.70	4131.05
454.89	4191.90
455.07	4149.77
455.26	4102.96
455.44	4166.15
455.62	4276.16
455.81	4149.77
455.99	4294.88
456.17	4252.75
456.36	4173.18
456.54	4229.35
456.73	4353.40
456.91	4241.05
457.09	4430.63
457.28	4294.88
457.46	4329.99
457.64	4519.57
457.83	4442.34
458.01	4367.44
458.19	4505.53
458.38	4430.63
458.56	4432.97
458.74	4486.81
458.93	4395.53
459.11	4571.07
459.29	4376.80
459.48	4606.17
459.66	4451.70
459.84	4603.83
460.03	4734.90
460.21	4657.67
460.39	4751.29
460.57	4594.47
460.76	4629.58
460.94	4819.16
461.12	4725.54
461.31	4770.01
461.49	4791.08
461.67	4550.00
461.85	4793.42
462.04	4770.01
462.22	4968.96
462.40	4830.87
462.59	4908.10
462.77	4861.29
462.95	4964.28
463.13	4835.55
463.32	4985.34
463.50	4985.34
463.68	4936.19
463.86	5067.26
464.05	4889.38
464.23	4961.94
464.41	4987.68
464.59	5004.07
464.78	4950.23
464.96	5034.49
465.14	5004.07
465.32	5181.95
465.50	5233.44
465.69	5020.45
465.87	5116.41
466.05	5039.17
466.23	5118.75
466.41	5181.95
466.60	5277.91
466.78	5195.99
466.96	5088.32
467.14	5238.12
467.32	5188.97
467.51	5282.59
467.69	4987.68
467.87	5270.89
468.05	5158.54
468.23	5174.92
468.41	5385.57
468.60	5210.03
468.78	5385.57
468.96	5179.61
469.14	5275.57
469.32	5521.32
469.50	5289.61
469.69	5397.28
469.87	5542.39
470.05	5401.96
470.23	5624.31
470.41	5446.43
470.59	5544.73
470.77	5650.05
470.95	5469.83
471.14	5659.42
471.32	5645.37
471.50	5671.12
471.68	5636.01
471.86	5600.90
472.04	5750.70
472.22	5874.74
472.40	5813.89
472.58	5839.64
472.77	5813.89
472.95	5996.45
473.13	6127.52
473.31	5877.09
473.49	5865.38
473.67	5933.26
473.85	5909.85
474.03	6179.01
474.21	6181.35
474.39	6125.18
474.57	6279.66
474.75	6293.70
474.93	6176.67
475.12	6389.66
475.30	6377.96
475.48	6492.65
475.66	6408.39
475.84	6293.70
476.02	6450.52
476.20	6455.20
476.38	6579.25
476.56	6511.37
476.74	6630.74
476.92	6574.56
477.10	6707.98
477.28	6761.81
477.46	6787.55
477.64	6920.96
477.82	7155.02
478.00	7140.97
478.18	7098.84
478.36	7007.56
478.54	7248.64
478.72	7215.87
478.90	7276.73
479.08	7377.37
479.26	7304.81
479.44	7384.39
479.62	7548.23
479.80	7578.65
479.98	7618.44
480.16	7740.15
480.34	7662.91
480.52	7749.51
480.70	7791.64
480.88	7803.35
481.06	7971.86
481.24	7971.86
481.41	7918.03
481.59	8241.03
481.77	8100.59
481.95	8166.13
482.13	8266.77
482.31	8236.35
482.49	8329.97
482.67	8561.68
482.85	8617.85
483.03	8531.25
483.21	8631.90
483.39	8769.99
483.57	8641.26
483.74	8997.02
483.92	8999.36
484.10	8725.52
484.28	9210.01
484.46	9341.08
484.64	9387.89
484.82	9069.58
485.00	9320.01
485.18	9610.24
485.35	9568.11
485.53	9600.88
485.71	9788.12
485.89	9806.84
486.07	9708.54
486.25	9745.99
486.43	9947.28
486.61	9923.87
486.78	10265.59
486.96	10150.90
487.14	10345.17
487.32	10408.36
487.50	10415.38
487.68	10375.59
487.85	10354.53
488.03	10569.86
488.21	10764.12
488.39	10839.02
488.57	10810.93
488.75	11030.94
488.92	11061.37
489.10	11133.93
489.28	11206.48
489.46	11389.05
489.64	11302.45
489.81	11555.22
489.99	11489.69
490.17	11690.98
490.35	11826.73
490.53	11864.18
490.70	12074.82
490.88	11735.45
491.06	11950.78
491.24	11941.41
491.41	11995.25
491.59	12250.36
491.77	12217.60
491.95	12355.69
492.13	12327.60
492.30	12655.28
492.48	12702.09
492.66	12678.68
492.84	12702.09
493.01	12835.50
493.19	12765.28
493.37	13209.98
493.54	12987.63
493.72	13078.91
493.90	13235.73
494.08	13289.56
494.25	13465.10
494.43	13703.84
494.61	13535.32
494.79	13647.66
494.96	13797.46
495.14	13689.79
495.32	13743.63
495.49	13778.73
495.67	14129.81
495.85	14143.86
496.02	14368.55
496.20	14122.79
496.38	14480.89
496.55	14375.57
496.73	14544.09
496.91	14335.78
497.09	14705.59
497.26	14562.81
497.44	14855.38
497.62	14867.08
497.79	15185.40
497.97	15009.86
498.14	15281.36
498.32	15206.46
498.50	15082.41
498.67	15229.87
498.85	15112.84
499.03	15456.90
499.20	15482.64
499.38	15522.43
499.56	15234.55
499.73	15602.01
499.91	15836.06
500.08	16093.52
500.26	15288.38
500.44	15861.81
500.61	15920.32
500.79	16004.58
500.97	16070.12
501.14	16042.03
501.32	16170.76
501.49	16058.42
501.67	16224.59
501.84	16308.85
502.02	16287.79
502.20	16236.30
502.37	16535.88
502.55	16570.99
502.72	16627.17
502.90	16603.76
503.07	16512.48
503.25	16739.51
503.43	16769.94
503.60	16936.12
503.78	16826.11
503.95	17160.81
504.13	16699.72
504.30	17158.47
504.48	17149.11
504.65	17324.65
504.83	17181.87
505.01	17441.67
505.18	17287.20
505.36	17184.21
505.53	17490.82
505.71	17341.03
505.88	17504.87
506.06	17558.70
506.23	17860.63
506.41	17572.74
506.58	17902.76
506.76	17671.04
506.93	17778.71
507.11	17944.89
507.28	17750.62
507.46	18068.94
507.63	18043.19
507.81	18288.95
507.98	18146.17
508.16	18080.64
508.33	18260.86
508.50	18448.10
508.68	18359.16
508.85	18675.13
509.03	18593.22
509.20	18696.20
509.38	19033.24
509.55	18642.37
509.73	19000.47
509.90	18513.64
510.08	18696.20
510.25	18972.38
510.42	18963.02
510.60	19213.46
510.77	19183.03
510.95	19410.06
511.12	18911.53
511.30	19222.82
511.47	19145.58
511.64	19026.21
511.82	19854.76
511.99	19468.58
512.17	19391.34
512.34	19335.17
512.51	19499.00
512.69	19386.66
512.86	19384.32
513.04	19969.45
513.21	20011.58
513.38	20023.28
513.56	19805.61
513.73	19723.69
513.90	20105.20
514.08	19969.45
514.25	20051.37
514.43	20060.73
514.60	20383.73
514.77	20290.10
514.95	20149.67
515.12	20332.23
515.29	20276.06
515.47	20641.18
515.64	20615.44
515.81	20276.06
515.99	20842.47
516.16	20790.98
516.33	20828.43
516.51	20608.42
516.68	20746.51
516.85	20725.44
517.03	20865.88
517.20	21025.03
517.37	20966.52
517.54	21053.12
517.72	21123.33
517.89	20905.66
518.06	21057.80
518.24	21097.59
518.41	21193.55
518.58	21570.38
518.75	21186.53
518.93	21371.43
519.10	21364.41
519.27	21734.21
519.45	21523.57
519.62	21568.04
519.79	21593.78
519.96	21415.90
520.14	21865.28
520.31	21685.06
520.48	21689.74
520.65	22001.04
520.83	22223.39
521.00	22106.36
521.17	21898.05
521.34	21876.99
521.52	22178.92
521.69	21930.82
521.86	22134.45
522.03	22082.95
522.20	22368.50
522.38	22319.35
522.55	22417.65
522.72	22513.61
522.89	22478.50
523.07	22558.08
523.24	22625.96
523.41	22588.51
523.58	22462.12
523.75	22803.84
523.92	22480.85
524.10	22684.47
524.27	22991.08
524.44	23199.39
524.61	23185.35
524.78	23178.33
524.96	23213.43
525.13	22860.01
525.30	23241.52
525.47	23229.82
525.64	22951.29
525.81	23475.57
525.98	23353.87
526.16	23325.78
526.33	23271.95
526.50	23821.97
526.67	23410.04
526.84	23365.57
527.01	23365.57
527.18	23620.69
527.36	23707.29
527.53	23728.35
527.70	23826.65
527.87	24058.37
528.04	23957.72
528.21	23580.90
528.38	23571.54
528.55	23917.93
528.72	23716.65
528.89	23899.21
529.07	23669.84
529.24	23974.11
529.41	24334.55
529.58	24341.57
529.75	24500.73
529.92	24154.33
530.09	23924.96
530.26	24285.40
530.43	24465.62
530.60	24329.87
530.77	24259.65
530.94	24325.19
531.11	24397.74
531.28	24540.52
531.46	24444.56
531.63	24643.50
531.80	24327.53
531.97	24535.84
532.14	24540.52
532.31	24870.53
532.48	24776.91
532.65	24886.92
532.82	24907.98
532.99	24786.27
533.16	24856.49
533.33	24964.15
533.50	25273.10
533.67	25179.48
533.84	24697.33
534.01	24989.90
534.18	24837.76
534.35	25013.31
534.52	25006.28
534.69	25607.80
534.86	25462.69
535.03	25123.31
535.20	24987.56
535.37	25242.68
535.54	25390.13
535.71	25355.02
535.88	25568.01
536.05	25659.29
536.22	25324.60
536.38	25710.78
536.55	25881.64
536.72	25797.38
536.89	25507.16
537.06	25603.12
537.23	25956.54
537.40	25717.81
537.57	25671.00
537.74	25837.17
537.91	25799.73
538.08	25818.45
538.25	26019.74
538.42	25804.41
538.59	26216.34
538.75	25762.28
538.92	25942.50
539.09	26185.91
539.26	26050.16
539.43	26096.97
539.60	25891.01
539.77	26108.68
539.94	26228.04
540.11	26277.19
540.28	26356.77
540.44	25879.30
540.61	26185.91
540.78	25956.54
540.95	26389.54
541.12	26670.40
541.29	26766.37
541.46	26312.30
541.62	26340.39
541.79	26511.25
541.96	26309.96
542.13	26771.05
542.30	26534.65
542.47	26728.92
542.63	26850.63
542.80	26738.28
542.97	27180.64
543.14	27255.54
543.31	26967.65
543.48	26984.04
543.64	27330.44
543.81	27215.75
543.98	27438.10
544.15	27012.12
544.32	27274.26
544.48	27505.98
544.65	27363.20
544.82	27136.17
544.99	26810.84
545.16	27302.35
545.32	27192.34
545.49	27917.91
545.66	27578.53
545.83	27468.53
546.00	27770.46
546.16	27667.47
546.33	27337.46
546.50	27346.82
546.67	27229.79
546.83	27414.69
547.00	27442.78
547.17	27716.62
547.34	27608.96
547.50	27878.12
547.67	28030.26
547.84	27796.20
548.00	27522.36
548.17	27828.97
548.34	27999.83
548.51	28102.81
548.67	27957.70
548.84	28409.42
549.01	27868.76
549.18	27892.16
549.34	28149.62
549.51	27934.29
549.68	27796.20
549.84	27960.04
550.01	28095.79
550.18	27985.79
550.34	28170.69
550.51	28243.24
550.68	28428.15
550.84	28287.71
551.01	28819.02
551.18	28322.82
551.34	28016.21
551.51	28308.78
551.68	28252.61
551.84	28575.60
552.01	28198.77
552.18	28496.02
552.34	28587.30
552.51	28856.46
552.68	28493.68
552.84	28769.86
553.01	28746.46
553.18	28531.13
553.34	28706.67
553.51	28783.91
553.67	28898.59
553.84	29254.36
554.01	28636.45
554.17	28680.92
554.34	28650.50
554.51	28610.71
554.67	28779.23
554.84	28472.62
555.00	28973.49
555.17	28706.67
555.33	28678.58
555.50	29015.62
555.67	28919.66
555.83	29226.27
556.00	28547.51
556.16	29284.78
556.33	29092.86
556.50	29020.30
556.66	29142.01
556.83	28954.77
556.99	29472.03
557.16	29132.65
557.32	29113.92
557.49	29434.58
557.65	29043.71
557.82	29050.73
557.98	29024.98
558.15	28982.85
558.32	29273.08
558.48	29153.71
558.65	29247.33
558.81	29537.56
558.98	29586.71
559.14	29170.10
559.31	29099.88
559.47	29399.47
559.64	29350.32
559.80	29469.69
559.97	29467.34
560.13	29418.19
560.30	29640.54
560.46	29942.47
560.63	29565.65
560.79	29659.27
560.96	29497.77
561.12	29479.05
561.29	29457.98
561.45	29752.89
561.61	29481.39
561.78	30029.07
561.94	29741.19
562.11	29762.25
562.27	29907.37
562.44	29942.47
562.60	29448.62
562.77	29727.14
562.93	29469.69
563.10	30169.51
563.26	29479.05
563.42	29692.04
563.59	29422.87
563.75	30232.70
563.92	30038.44
564.08	29898.00
564.24	29617.14
564.41	29806.72
564.57	29874.60
564.74	29731.83
564.90	29881.62
565.07	29848.85
565.23	30029.07
565.39	30136.74
565.56	30302.92
565.72	29750.55
565.88	29895.66
566.05	30232.70
566.21	29968.22
566.38	30019.71
566.54	29907.37
566.70	30225.68
566.87	30415.26
567.03	29762.25
567.19	30630.59
567.36	30408.24
567.52	30412.92
567.68	30389.52
567.85	30050.14
568.01	30000.99
568.17	30298.23
568.34	30288.87
568.50	29855.87
568.66	30476.12
568.83	30244.40
568.99	30260.79
569.15	30073.54
569.32	30630.59
569.48	30295.89
569.64	30176.53
569.81	30359.09
569.97	30181.21
570.13	30721.87
570.30	30143.76
570.46	30459.73
570.62	30258.45
570.78	30368.45
570.95	30202.27
571.11	30120.35
571.27	30258.45
571.43	30075.88
571.60	30305.26
571.76	30251.42
571.92	30345.05
572.09	30600.16
572.25	30478.46
572.41	30113.33
572.57	30560.37
572.74	30735.92
572.90	30185.89
573.06	30665.70
573.22	30199.93
573.38	30380.15
573.55	30333.34
573.71	30661.02
573.87	30965.29
574.03	30506.54
574.20	30738.26
574.36	30298.23
574.52	30445.69
574.68	30501.86
574.84	30679.74
575.01	30305.26
575.17	30672.72
575.33	30319.30
575.49	30501.86
575.65	30686.76
575.82	30689.10
575.98	30433.99
576.14	30508.88
576.30	30728.89
576.46	30323.98
576.62	30328.66
576.79	30553.35
576.95	30611.87
577.11	30373.13
577.27	30628.25
577.43	30771.02
577.59	30424.62
577.75	30864.64
577.92	30405.90
578.08	30632.93
578.24	30761.66
578.40	30518.25
578.56	30396.54
578.72	30937.20
578.88	31054.23
579.04	30766.34
579.21	30338.02
579.37	30712.51
579.53	30654.00
579.69	30375.47
579.85	30787.41
580.01	30670.38
580.17	30731.23
580.33	30508.88
580.49	30501.86
580.65	31194.66
580.82	30588.46
580.98	30644.63
581.14	30916.14
581.30	30642.29
581.46	30417.60
581.62	30478.46
581.78	30668.04
581.94	30677.40
582.10	30305.26
582.26	30452.71
582.42	30651.66
582.58	31084.65
582.74	30658.68
582.90	30986.35
583.06	31105.72
583.22	30803.79
583.38	30621.23
583.54	30412.92
583.70	30644.63
583.86	30543.99
584.02	30646.97
584.18	30911.46
584.34	30588.46
584.50	30735.92
584.66	31054.23
584.82	30984.01
584.98	30574.42
585.14	30897.41
585.30	30841.24
585.46	30803.79
585.62	30543.99
585.78	30487.82
585.94	30714.85
586.10	31063.59
586.26	31026.14
586.42	30937.20
586.58	30852.94
586.74	30937.20
586.90	31009.76
587.06	30426.96
587.22	30555.69
587.38	30494.84
587.54	31728.30
587.70	31292.96
587.86	31070.61
588.02	31248.49
588.18	30766.34
588.34	30944.22
588.49	31220.41
588.65	30799.11
588.81	30651.66
588.97	30871.67
589.13	30883.37
589.29	30483.14
589.45	31040.18
589.61	31143.17
589.77	31068.27
589.93	31145.51
590.08	31292.96
590.24	31606.59
590.40	31461.48
590.56	31206.36
590.72	30876.35
590.88	30487.82
591.04	30965.29
591.20	30930.18
591.35	31297.64
591.51	31426.37
591.67	31744.69
591.83	31241.47
591.99	31405.31
