SpectraSuite Data File
++++++++++++++++++++++++++++++++++++
Date: Fri Oct 18 13:58:03 GMT-05:00 2013
User: bianchi
Dark Spectrum Present: No
Reference Spectrum Present: No
Number of Sampled Component Spectra: 1
Spectrometers: USB2+H05261
Integration Time (usec): 50000 (USB2+H05261)
Spectra Averaged: 1 (USB2+H05261)
Boxcar Smoothing: 0 (USB2+H05261)
Correct for Electrical Dark: No (USB2+H05261)
Strobe/Lamp Enabled: No (USB2+H05261)
Correct for Detector Non-linearity: No (USB2+H05261)
Correct for Stray Light: No (USB2+H05261)
Number of Pixels in Processed Spectrum: 2048
>>>>>Begin Processed Spectral Data<<<<<
365.73	0.00
365.92	0.00
366.12	0.00
366.32	0.00
366.52	0.00
366.72	0.00
366.91	0.00
367.11	0.00
367.31	0.00
367.51	0.00
367.70	0.00
367.90	0.00
368.10	0.00
368.30	0.00
368.49	0.00
368.69	0.00
368.89	0.00
369.09	0.00
369.28	0.00
369.48	0.00
369.68	0.00
369.87	0.00
370.07	0.00
370.27	0.00
370.47	0.00
370.66	91.28
370.86	88.94
371.06	67.88
371.25	112.35
371.45	198.95
371.65	191.92
371.84	161.50
372.04	112.35
372.24	205.97
372.44	205.97
372.63	208.31
372.83	215.33
373.03	234.05
373.22	131.07
373.42	217.67
373.62	198.95
373.81	301.93
374.01	191.92
374.21	208.31
374.40	152.13
374.60	236.39
374.79	175.54
374.99	278.52
375.19	273.84
375.38	252.78
375.58	196.60
375.78	273.84
375.97	231.71
376.17	297.25
376.37	266.82
376.56	262.14
376.76	227.03
376.95	210.65
377.15	355.76
377.35	229.37
377.54	259.80
377.74	262.14
377.93	299.59
378.13	306.61
378.33	280.86
378.52	271.50
378.72	367.46
378.91	292.57
379.11	294.91
379.31	365.12
379.50	308.95
379.70	191.92
379.89	250.44
380.09	294.91
380.28	299.59
380.48	259.80
380.68	313.63
380.87	273.84
381.07	297.25
381.26	428.32
381.46	372.15
381.65	365.12
381.85	308.95
382.04	393.21
382.24	365.12
382.43	358.10
382.63	348.74
382.83	351.08
383.02	353.42
383.22	376.83
383.41	355.76
383.61	341.72
383.80	395.55
384.00	304.27
384.19	365.12
384.39	351.08
384.58	390.87
384.78	402.57
384.97	360.44
385.17	395.55
385.36	294.91
385.56	346.40
385.75	411.93
385.95	386.19
386.14	425.98
386.34	306.61
386.53	353.42
386.72	372.15
386.92	402.57
387.11	372.15
387.31	428.32
387.50	435.34
387.70	428.32
387.89	358.10
388.09	428.32
388.28	421.30
388.48	440.02
388.67	404.91
388.86	442.36
389.06	418.96
389.25	447.04
389.45	528.96
389.64	505.56
389.84	465.77
390.03	491.51
390.22	507.90
390.42	538.32
390.61	479.81
390.81	440.02
391.00	533.64
391.19	507.90
391.39	554.71
391.58	442.36
391.78	470.45
391.97	510.24
392.16	545.34
392.36	559.39
392.55	601.52
392.75	538.32
392.94	535.98
393.13	599.18
393.33	418.96
393.52	568.75
393.71	533.64
393.91	622.58
394.10	603.86
394.29	503.22
394.49	585.13
394.68	582.79
394.88	564.07
395.07	587.47
395.26	589.82
395.46	582.79
395.65	636.63
395.84	594.50
396.04	660.03
396.23	613.22
396.42	631.94
396.62	650.67
396.81	702.16
397.00	695.14
397.19	664.71
397.39	667.05
397.58	674.07
397.77	634.29
397.97	695.14
398.16	683.44
398.35	620.24
398.55	746.63
398.74	730.25
398.93	702.16
399.12	777.06
399.32	699.82
399.51	737.27
399.70	772.38
399.90	685.78
400.09	802.80
400.28	849.61
400.47	777.06
400.67	830.89
400.86	779.40
401.05	711.52
401.24	765.36
401.44	788.76
401.63	835.57
401.82	863.66
402.01	781.74
402.21	774.72
402.40	851.96
402.59	805.14
402.78	774.72
402.97	884.72
403.17	884.72
403.36	922.17
403.55	866.00
403.74	903.45
403.93	910.47
404.13	929.19
404.32	922.17
404.51	952.60
404.70	947.92
404.89	854.30
405.09	870.68
405.28	978.34
405.47	917.49
405.66	931.53
405.85	999.41
406.05	992.39
406.24	940.90
406.43	940.90
406.62	1060.26
406.81	983.02
407.00	938.55
407.20	987.71
407.39	1015.79
407.58	990.05
407.77	1151.54
407.96	1090.69
408.15	1020.47
408.34	1095.37
408.54	1107.07
408.73	1142.18
408.92	1130.48
409.11	1107.07
409.30	1177.29
409.49	1130.48
409.68	1191.33
409.87	1123.46
410.07	1121.12
410.26	1217.08
410.45	1156.22
410.64	1128.14
410.83	1210.06
411.02	1205.38
411.21	1240.48
411.40	1203.04
411.59	1266.23
411.78	1256.87
411.98	1263.89
412.17	1355.17
412.36	1266.23
412.55	1306.02
412.74	1362.19
412.93	1350.49
413.12	1299.00
413.31	1376.24
413.50	1458.15
413.69	1373.89
413.88	1474.54
414.07	1394.96
414.26	1483.90
414.45	1446.45
414.64	1523.69
414.83	1593.90
415.02	1514.33
415.22	1474.54
415.41	1568.16
415.60	1488.58
415.79	1600.93
415.98	1621.99
416.17	1600.93
416.36	1586.88
416.55	1565.82
416.74	1619.65
416.93	1603.27
417.12	1614.97
417.31	1696.89
417.50	1621.99
417.69	1664.12
417.88	1713.27
418.07	1680.50
418.26	1729.66
418.45	1813.92
418.64	1837.32
418.83	1774.13
419.02	1891.15
419.21	1865.41
419.39	1802.21
419.58	1853.70
419.77	1739.02
419.96	1893.49
420.15	1804.55
420.34	1973.07
420.53	1778.81
420.72	2012.86
420.91	1813.92
421.10	1942.64
421.29	2029.24
421.48	1921.58
421.67	1954.35
421.86	1851.36
422.05	2022.22
422.24	2008.18
422.43	1968.39
422.61	1912.22
422.80	1968.39
422.99	2146.27
423.18	2001.16
423.37	2062.01
423.56	1914.56
423.75	1909.88
423.94	1980.09
424.13	1825.62
424.32	1753.06
424.50	1975.41
424.69	2057.33
424.88	2118.18
425.07	2019.88
425.26	2106.48
425.45	2017.54
425.64	1909.88
425.83	2031.58
426.01	2064.35
426.20	1898.17
426.39	1970.73
426.58	2094.78
426.77	2047.97
426.96	2099.46
427.15	2008.18
427.33	2157.97
427.52	2162.66
427.71	2139.25
427.90	2167.34
428.09	2237.55
428.28	2200.10
428.46	2157.97
428.65	2160.31
428.84	2190.74
429.03	2183.72
429.22	2132.23
429.40	2352.24
429.59	2331.17
429.78	2263.30
429.97	2204.78
430.16	2129.89
430.34	2275.00
430.53	2270.32
430.72	2385.01
430.91	2293.72
431.10	2331.17
431.28	2415.43
431.47	2368.62
431.66	2438.84
431.85	2260.96
432.03	2324.15
432.22	2443.52
432.41	2415.43
432.60	2401.39
432.79	2410.75
432.97	2572.25
433.16	2532.46
433.35	2422.45
433.54	2483.31
433.72	2492.67
433.91	2523.10
434.10	2478.63
434.28	2408.41
434.47	2560.55
434.66	2614.38
434.85	2537.14
435.03	2602.68
435.22	2595.65
435.41	2525.44
435.59	2558.21
435.78	2668.21
435.97	2656.51
436.16	2766.51
436.34	2684.59
436.53	2768.85
436.72	2637.78
436.90	2731.41
437.09	2586.29
437.28	2663.53
437.46	2736.09
437.65	2614.38
437.84	2768.85
438.02	2731.41
438.21	2773.53
438.40	2698.64
438.58	2825.03
438.77	2911.63
438.96	2937.37
439.14	2874.18
439.33	3002.91
439.52	3049.72
439.70	3012.27
439.89	3169.09
440.08	2853.11
440.26	3000.57
440.45	3007.59
440.63	3021.63
440.82	3108.23
441.01	3101.21
441.19	3187.81
441.38	3255.69
441.57	3159.72
441.75	3185.47
441.94	3117.59
442.12	3197.17
442.31	3260.37
442.50	3314.20
442.68	3265.05
442.87	3143.34
443.05	3466.33
443.24	3375.05
443.43	3459.31
443.61	3417.18
443.80	3531.87
443.98	3211.22
444.17	3218.24
444.35	3452.29
444.54	3485.06
444.73	3417.18
444.91	3482.72
445.10	3318.88
445.28	3346.97
445.47	3391.44
445.65	3328.24
445.84	3508.46
446.02	3559.95
446.21	3335.26
446.39	3325.90
446.58	3403.14
446.77	3529.53
446.95	3506.12
447.14	3447.61
447.32	3506.12
447.51	3574.00
447.69	3566.98
447.88	3639.53
448.06	3588.04
448.25	3531.87
448.43	3536.55
448.62	3492.08
448.80	3527.19
448.99	3485.06
449.17	3630.17
449.36	3571.66
449.54	3625.49
449.73	3737.84
449.91	3712.09
450.10	3726.13
450.28	3705.07
450.46	3623.15
450.65	3695.71
450.83	3852.52
451.02	3775.28
451.20	3756.56
451.39	3866.56
451.57	3705.07
451.76	3758.90
451.94	3805.71
452.13	3920.40
452.31	3824.44
452.49	3833.80
452.68	3899.33
452.86	3885.29
453.05	3889.97
453.23	4074.87
453.42	3866.56
453.60	3857.20
453.78	3817.41
453.97	3850.18
454.15	3840.82
454.34	3894.65
454.52	4063.17
454.70	3967.21
454.89	3974.23
455.07	3896.99
455.26	3988.27
455.44	4095.94
455.62	4086.58
455.81	4049.13
455.99	4269.14
456.17	4170.83
456.36	4187.22
456.54	4196.58
456.73	4315.95
456.91	4381.48
457.09	4301.90
457.28	4294.88
457.46	4360.42
457.64	4348.72
457.83	4250.41
458.01	4322.97
458.19	4430.63
458.38	4318.29
458.56	4430.63
458.74	4351.06
458.93	4421.27
459.11	4444.68
459.29	4329.99
459.48	4421.27
459.66	4568.73
459.84	4573.41
460.03	4739.58
460.21	4613.20
460.39	4671.71
460.57	4573.41
460.76	4683.41
460.94	4760.65
461.12	4601.49
461.31	4777.03
461.49	4540.64
461.67	4559.36
461.85	4791.08
462.04	4697.46
462.22	4931.51
462.40	4711.50
462.59	4685.75
462.77	4723.20
462.95	4716.18
463.13	4690.43
463.32	4800.44
463.50	4798.10
463.68	4931.51
463.86	4830.87
464.05	4786.40
464.23	4816.82
464.41	4999.38
464.59	4812.14
464.78	4943.21
464.96	5027.47
465.14	4685.75
465.32	4990.02
465.50	5064.92
465.69	5071.94
465.87	4926.83
466.05	5008.75
466.23	5130.45
466.41	4905.76
466.60	5032.15
466.78	4975.98
466.96	5100.03
467.14	4997.04
467.32	5060.24
467.51	5100.03
467.69	5048.54
467.87	5146.84
468.05	5100.03
468.23	5226.42
468.41	5191.31
468.60	5167.90
468.78	5291.95
468.96	5036.83
469.14	5252.16
469.32	5451.11
469.50	5214.71
469.69	5483.88
469.87	5355.15
470.05	5446.43
470.23	5373.87
470.41	5324.72
470.59	5472.17
470.77	5448.77
470.95	5540.05
471.14	5547.07
471.32	5469.83
471.50	5614.95
471.68	5729.63
471.86	5586.86
472.04	5638.35
472.22	5647.71
472.40	5558.77
472.58	5696.86
472.77	5774.10
472.95	5755.38
473.13	5963.68
473.31	5947.30
473.49	5907.51
473.67	5923.90
473.85	5823.25
474.03	6078.37
474.21	5989.43
474.39	6066.67
474.57	6047.94
474.75	6108.80
474.93	6200.08
475.12	6083.05
475.30	6272.64
475.48	6272.64
475.66	6516.05
475.84	6506.69
476.02	6466.90
476.20	6239.87
476.38	6469.24
476.56	6551.16
476.74	6604.99
476.92	6445.84
477.10	6670.53
477.28	6567.54
477.46	6569.88
477.64	6731.38
477.82	6927.99
478.00	6881.18
478.18	7049.69
478.36	7042.67
478.54	7019.27
478.72	7183.10
478.90	7236.94
479.08	7192.47
479.26	7290.77
479.44	7468.65
479.62	7417.16
479.80	7358.64
479.98	7447.58
480.16	7454.61
480.34	7480.35
480.52	7604.40
480.70	7845.48
480.88	7470.99
481.06	7810.37
481.24	7662.91
481.41	7798.66
481.59	8133.36
481.77	8018.68
481.95	8002.29
482.13	8079.53
482.31	7988.25
482.49	8290.18
482.67	8353.37
482.85	8365.07
483.03	8493.80
483.21	8418.91
483.39	8561.68
483.57	8493.80
483.74	8769.99
483.92	8727.86
484.10	8505.51
484.28	9022.77
484.46	8978.30
484.64	9153.84
484.82	8952.55
485.00	9011.06
485.18	9345.76
485.35	9533.00
485.53	9423.00
485.71	9371.50
485.89	9603.22
486.07	9577.47
486.25	9476.83
486.43	9722.59
486.61	9806.84
486.78	9888.76
486.96	10043.24
487.14	10209.42
487.32	10076.01
487.50	10008.13
487.68	10373.25
487.85	10436.45
488.03	10289.00
488.21	10478.58
488.39	10380.28
488.57	10942.00
488.75	10682.20
488.92	10712.63
489.10	11178.40
489.28	10916.26
489.46	11335.21
489.64	11091.80
489.81	11246.27
489.99	11293.08
490.17	11508.41
490.35	11456.92
490.53	11602.04
490.70	11625.44
490.88	11641.82
491.06	11756.51
491.24	12002.27
491.41	11793.96
491.59	12058.44
491.77	12152.06
491.95	12138.02
492.13	12166.10
492.30	12257.39
492.48	12224.62
492.66	12320.58
492.84	12360.37
493.01	12585.06
493.19	12669.32
493.37	12650.60
493.54	12922.10
493.72	12723.15
493.90	12732.51
494.08	13020.40
494.25	13153.81
494.43	13312.97
494.61	13378.50
494.79	13266.16
494.96	13343.39
495.14	13432.33
495.32	13078.91
495.49	13584.47
495.67	13577.45
495.85	13867.67
496.02	14143.86
496.20	13968.32
496.38	14080.66
496.55	13919.17
496.73	14450.47
496.91	14157.90
497.09	14504.30
497.26	14544.09
497.44	14113.43
497.62	14459.83
497.79	14682.18
497.97	14567.49
498.14	14642.39
498.32	14747.72
498.50	14714.95
498.67	15176.03
498.85	14841.34
499.03	15091.77
499.20	15035.60
499.38	15239.23
499.56	15257.95
499.73	15417.11
499.91	15302.42
500.08	15248.59
500.26	15061.35
500.44	15541.16
500.61	15527.11
500.79	15662.86
500.97	15653.50
501.14	15997.56
501.32	15782.23
501.49	15686.27
501.67	15861.81
501.84	15929.69
502.02	16060.76
502.20	16180.12
502.37	16280.77
502.55	16056.08
502.72	16290.13
502.90	16315.87
503.07	16205.87
503.25	16135.65
503.43	16060.76
503.60	16470.35
503.78	16627.17
503.95	16566.31
504.13	16655.25
504.30	16725.47
504.48	16613.12
504.65	16781.64
504.83	17025.06
505.01	17212.30
505.18	16947.82
505.36	17238.05
505.53	17111.66
505.71	17287.20
505.88	17268.47
506.06	16919.73
506.23	17462.74
506.41	17235.70
506.58	17673.39
506.76	17060.16
506.93	17589.13
507.11	17172.51
507.28	17771.69
507.46	17640.62
507.63	17582.10
507.81	18057.23
507.98	17661.68
508.16	17996.38
508.33	17980.00
508.50	17944.89
508.68	17804.46
508.85	17930.84
509.03	18176.60
509.20	18087.66
509.38	18200.01
509.55	18455.12
509.73	18211.71
509.90	18513.64
510.08	18668.11
510.25	18499.59
510.42	18651.73
510.60	18581.51
510.77	18806.20
510.95	18719.60
511.12	18340.44
511.30	18689.18
511.47	19016.85
511.64	19037.92
511.82	19117.50
511.99	19164.31
512.17	19271.97
512.34	18909.19
512.51	19316.44
512.69	19115.16
512.86	19250.91
513.04	19396.02
513.21	19314.10
513.38	19358.57
513.56	19484.96
513.73	19501.34
513.90	19625.39
514.08	19456.87
514.25	19700.29
514.43	19630.07
514.60	19704.97
514.77	20016.26
514.95	19513.05
515.12	19559.86
515.29	19885.19
515.47	20229.25
515.64	20269.04
515.81	19927.32
515.99	20423.51
516.16	20255.00
516.33	20374.36
516.51	20313.51
516.68	20540.54
516.85	20255.00
517.03	20603.74
517.20	20463.30
517.37	20446.92
517.54	20734.81
517.72	20900.98
517.89	20538.20
518.06	20634.16
518.24	20964.18
518.41	20737.15
518.58	21149.08
518.75	21120.99
518.93	21238.02
519.10	21167.80
519.27	21062.48
519.45	21046.10
519.62	21308.24
519.79	21142.06
519.96	21331.64
520.14	21130.36
520.31	21385.47
520.48	21434.63
520.65	21481.44
520.83	21546.97
521.00	21282.49
521.17	20999.29
521.34	21483.78
521.52	21766.98
521.69	21568.04
521.86	21874.65
522.03	21937.84
522.20	21806.77
522.38	21961.25
522.55	22043.17
522.72	22270.20
522.89	22174.24
523.07	22239.77
523.24	22125.08
523.41	22132.11
523.58	22097.00
523.75	22307.65
523.92	21909.75
524.10	22436.38
524.27	22469.14
524.44	22438.72
524.61	22546.38
524.78	22595.53
524.96	22368.50
525.13	22693.83
525.30	22380.20
525.47	22871.72
525.64	22422.33
525.81	22881.08
525.98	22778.09
526.16	22817.88
526.33	22693.83
526.50	23101.09
526.67	22860.01
526.84	23084.70
527.01	22574.47
527.18	22799.16
527.36	23166.62
527.53	23470.89
527.70	23491.96
527.87	23325.78
528.04	23255.56
528.21	23520.04
528.38	23117.47
528.55	23201.73
528.72	23601.96
528.89	23786.86
529.07	23777.50
529.24	23491.96
529.41	23529.41
529.58	23300.03
529.75	23796.23
529.92	23758.78
530.09	23447.49
530.26	23557.49
530.43	23833.68
530.60	23693.24
530.77	23665.16
530.94	24175.39
531.11	23751.76
531.28	23934.32
531.46	24198.80
531.63	24077.09
531.80	24037.30
531.97	24376.68
532.14	24482.00
532.31	24088.79
532.48	24409.45
532.65	24577.97
532.82	24006.87
532.99	24159.01
533.16	24149.65
533.33	24297.10
533.50	24353.27
533.67	24575.62
533.84	24168.37
534.01	24280.72
534.18	24477.32
534.35	24629.46
534.52	24353.27
534.69	24730.10
534.86	24809.68
535.03	24561.58
535.20	24416.47
535.37	25029.69
535.54	24889.26
535.71	24486.68
535.88	24844.79
536.05	25078.84
536.22	24952.45
536.38	25083.52
536.55	25001.60
536.72	25109.27
536.89	25053.09
537.06	25088.20
537.23	25090.54
537.40	24826.06
537.57	24755.85
537.74	25195.87
537.91	25549.29
538.08	25352.68
538.25	25593.76
538.42	25355.02
538.59	25448.64
538.75	25036.71
538.92	25673.34
539.09	25603.12
539.26	25680.36
539.43	25837.17
539.60	25652.27
539.77	25593.76
539.94	25888.67
540.11	25823.13
540.28	25731.85
540.44	25757.60
540.61	25542.27
540.78	25795.04
540.95	25663.97
541.12	25678.02
541.29	25865.26
541.46	26321.66
541.62	25930.80
541.79	25900.37
541.96	25823.13
542.13	25591.42
542.30	25900.37
542.47	26155.49
542.63	26284.22
542.80	26391.88
542.97	26490.18
543.14	26335.71
543.31	26448.05
543.48	26211.66
543.64	26324.01
543.81	26668.06
543.98	26794.45
544.15	26794.45
544.32	26632.96
544.48	26794.45
544.65	26539.33
544.82	26499.55
544.99	26354.43
545.16	26298.26
545.32	26579.12
545.49	27072.98
545.66	27040.21
545.83	26864.67
546.00	27145.53
546.16	26597.85
546.33	26752.32
546.50	26469.12
546.67	27147.87
546.83	26742.96
547.00	27211.07
547.17	27143.19
547.34	26885.73
547.50	27096.38
547.67	27763.43
547.84	27225.11
548.00	27262.56
548.17	27346.82
548.34	27257.88
548.51	27346.82
548.67	27367.88
548.84	27491.93
549.01	27250.86
549.18	26939.57
549.34	27332.78
549.51	27304.69
549.68	27571.51
549.84	27653.43
550.01	27456.82
550.18	27489.59
550.34	27555.13
550.51	27796.20
550.68	28081.75
550.84	27630.02
551.01	27498.95
551.18	27653.43
551.34	27377.25
551.51	27669.81
551.68	27747.05
551.84	27754.07
552.01	27770.46
552.18	28030.26
552.34	27770.46
552.51	27873.44
552.68	28009.19
552.84	27948.34
553.01	28156.64
553.18	28322.82
553.34	27826.63
553.51	27866.42
553.67	28320.48
553.84	28280.69
554.01	28077.07
554.17	28126.22
554.34	28524.11
554.51	28187.07
554.67	28240.90
554.84	28175.37
555.00	28130.90
555.17	28170.69
555.33	27955.36
555.50	28208.14
555.67	28430.49
555.83	28264.31
556.00	28194.09
556.16	28540.49
556.33	28259.63
556.50	27838.33
556.66	28442.19
556.83	28673.90
556.99	28819.02
557.16	28706.67
557.32	28631.77
557.49	29020.30
557.65	28390.70
557.82	28458.57
557.98	28538.15
558.15	28496.02
558.32	28725.39
558.48	28437.51
558.65	28989.88
558.81	28875.19
558.98	28634.11
559.14	28786.25
559.31	28575.60
559.47	28610.71
559.64	28926.68
559.80	28659.86
559.97	28687.95
560.13	28811.99
560.30	28819.02
560.46	28524.11
560.63	28603.69
560.79	29034.35
560.96	29277.76
561.12	29153.71
561.29	29006.26
561.45	28861.15
561.61	28931.36
561.78	28601.35
561.94	28884.55
562.11	28905.62
562.27	28914.98
562.44	29151.37
562.60	28896.25
562.77	29078.82
562.93	29172.44
563.10	29071.79
563.26	29156.05
563.42	29170.10
563.59	29261.38
563.75	28835.40
563.92	29053.07
564.08	29432.24
564.24	29146.69
564.41	28828.38
564.57	28978.17
564.74	29256.70
564.90	29228.61
565.07	29235.63
565.23	29589.05
565.39	29247.33
565.56	29666.29
565.72	29439.26
565.88	29076.48
566.05	29235.63
566.21	29256.70
566.38	29142.01
566.54	29525.86
566.70	29624.16
566.87	29935.45
567.03	29579.69
567.19	29511.81
567.36	29399.47
567.52	29095.20
567.68	29394.79
567.85	29214.57
568.01	29497.77
568.17	29076.48
568.34	29811.40
568.50	29661.61
568.66	29694.38
568.83	29677.99
568.99	29703.74
569.15	29530.54
569.32	29188.82
569.48	29160.73
569.64	29296.49
569.81	29221.59
569.97	29626.50
570.13	29766.93
570.30	29256.70
570.46	29792.68
570.62	29963.54
570.78	29497.77
570.95	29537.56
571.11	29404.15
571.27	29521.18
571.43	29546.92
571.60	29944.81
571.76	29586.71
571.92	29759.91
572.09	29954.18
572.25	29614.80
572.41	29656.93
572.57	29654.59
572.74	29734.17
572.90	29420.53
573.06	29759.91
573.22	29778.64
573.38	29809.06
573.55	29577.35
573.71	29790.34
573.87	29759.91
574.03	29972.90
574.20	29462.66
574.36	29818.42
574.52	29624.16
574.68	29446.28
574.84	29755.23
575.01	29563.31
575.17	29975.24
575.33	29502.45
575.49	29680.33
575.65	29909.71
575.82	29802.04
575.98	29996.31
576.14	29680.33
576.30	29972.90
576.46	29766.93
576.62	29914.39
576.79	30171.85
576.95	29867.58
577.11	29514.16
577.27	30143.76
577.43	29928.43
577.59	30080.56
577.75	29745.87
577.92	29483.73
578.08	29834.81
578.24	29937.79
578.40	29680.33
578.56	30017.37
578.72	29916.73
578.88	30064.18
579.04	30127.38
579.21	29825.45
579.37	29869.92
579.53	30415.26
579.69	29827.79
579.85	29668.63
580.01	30087.59
580.17	29706.08
580.33	30099.29
580.49	30045.46
580.65	29982.26
580.82	30209.29
580.98	30183.55
581.14	30174.19
581.30	30312.28
581.46	30202.27
581.62	30209.29
581.78	29703.74
581.94	29935.45
582.10	29640.54
582.26	30008.01
582.42	30101.63
582.58	30080.56
582.74	30338.02
582.90	29928.43
583.06	30150.78
583.22	29834.81
583.38	29778.64
583.54	29633.52
583.70	30010.35
583.86	30141.42
584.02	30050.14
584.18	30132.06
584.34	30003.33
584.50	30288.87
584.66	29977.58
584.82	29935.45
584.98	30181.21
585.14	29862.90
585.30	29532.88
585.46	29806.72
585.62	29949.50
585.78	30426.96
585.94	29872.26
586.10	29902.68
586.26	30064.18
586.42	30277.17
586.58	30433.99
586.74	30576.76
586.90	30064.18
587.06	30008.01
587.22	29991.62
587.38	30092.27
587.54	30396.54
587.70	30429.30
587.86	29893.32
588.02	30015.03
588.18	30705.49
588.34	30424.62
588.49	30204.61
588.65	30160.14
588.81	29935.45
588.97	30218.66
589.13	30022.05
589.29	29937.79
589.45	30160.14
589.61	30349.73
589.77	30501.86
589.93	30295.89
590.08	30543.99
590.24	30459.73
590.40	30462.07
590.56	30279.51
590.72	30178.87
590.88	30373.13
591.04	30239.72
591.20	30471.43
591.35	30843.58
591.51	31016.78
591.67	30696.13
591.83	30843.58
591.99	30642.29
