SpectraSuite Data File
++++++++++++++++++++++++++++++++++++
Date: Fri Oct 18 13:58:33 GMT-05:00 2013
User: bianchi
Dark Spectrum Present: No
Reference Spectrum Present: No
Number of Sampled Component Spectra: 1
Spectrometers: USB2+H05261
Integration Time (usec): 50000 (USB2+H05261)
Spectra Averaged: 1 (USB2+H05261)
Boxcar Smoothing: 0 (USB2+H05261)
Correct for Electrical Dark: No (USB2+H05261)
Strobe/Lamp Enabled: No (USB2+H05261)
Correct for Detector Non-linearity: No (USB2+H05261)
Correct for Stray Light: No (USB2+H05261)
Number of Pixels in Processed Spectrum: 2048
>>>>>Begin Processed Spectral Data<<<<<
365.73	0.00
365.92	0.00
366.12	0.00
366.32	0.00
366.52	0.00
366.72	0.00
366.91	0.00
367.11	0.00
367.31	0.00
367.51	0.00
367.70	0.00
367.90	0.00
368.10	0.00
368.30	0.00
368.49	0.00
368.69	0.00
368.89	0.00
369.09	0.00
369.28	0.00
369.48	0.00
369.68	0.00
369.87	0.00
370.07	0.00
370.27	0.00
370.47	0.00
370.66	51.49
370.86	189.58
371.06	205.97
371.25	140.43
371.45	196.60
371.65	51.49
371.84	121.71
372.04	177.88
372.24	187.24
372.44	201.29
372.63	208.31
372.83	173.20
373.03	210.65
373.22	208.31
373.42	210.65
373.62	184.90
373.81	250.44
374.01	276.18
374.21	231.71
374.40	198.95
374.60	308.95
374.79	252.78
374.99	271.50
375.19	238.73
375.38	248.10
375.58	280.86
375.78	255.12
375.97	203.63
376.17	182.56
376.37	283.20
376.56	208.31
376.76	224.69
376.95	266.82
377.15	248.10
377.35	308.95
377.54	283.20
377.74	234.05
377.93	325.33
378.13	285.55
378.33	327.68
378.52	278.52
378.72	255.12
378.91	301.93
379.11	283.20
379.31	320.65
379.50	315.97
379.70	334.70
379.89	210.65
380.09	262.14
380.28	250.44
380.48	264.48
380.68	330.02
380.87	273.84
381.07	346.40
381.26	332.36
381.46	348.74
381.65	388.53
381.85	341.72
382.04	339.38
382.24	355.76
382.43	341.72
382.63	358.10
382.83	292.57
383.02	334.70
383.22	358.10
383.41	308.95
383.61	341.72
383.80	358.10
384.00	362.78
384.19	306.61
384.39	315.97
384.58	351.08
384.78	407.25
384.97	423.64
385.17	332.36
385.36	416.62
385.56	332.36
385.75	397.89
385.95	411.93
386.14	386.19
386.34	397.89
386.53	447.04
386.72	376.83
386.92	454.06
387.11	381.51
387.31	493.85
387.50	376.83
387.70	461.09
387.89	411.93
388.09	430.66
388.28	421.30
388.48	437.68
388.67	409.59
388.86	463.43
389.06	442.36
389.25	451.72
389.45	437.68
389.64	449.38
389.84	477.47
390.03	390.87
390.22	447.04
390.42	468.11
390.61	496.19
390.81	489.17
391.00	470.45
391.19	578.11
391.39	580.45
391.58	566.41
391.78	447.04
391.97	564.07
392.16	524.28
392.36	547.69
392.55	592.16
392.75	594.50
392.94	482.15
393.13	573.43
393.33	538.32
393.52	470.45
393.71	580.45
393.91	547.69
394.10	498.53
394.29	575.77
394.49	545.34
394.68	596.84
394.88	620.24
395.07	709.18
395.26	550.03
395.46	657.69
395.65	622.58
395.84	645.99
396.04	751.31
396.23	643.65
396.42	636.63
396.62	751.31
396.81	699.82
397.00	608.54
397.19	697.48
397.39	662.37
397.58	711.52
397.77	718.54
397.97	641.31
398.16	678.76
398.35	788.76
398.55	711.52
398.74	753.65
398.93	760.67
399.12	802.80
399.32	683.44
399.51	739.61
399.70	753.65
399.90	763.01
400.09	812.17
400.28	695.14
400.47	781.74
400.67	837.91
400.86	807.48
401.05	748.97
401.24	688.12
401.44	833.23
401.63	821.53
401.82	816.85
402.01	802.80
402.21	751.31
402.40	877.70
402.59	856.64
402.78	788.76
402.97	842.59
403.17	802.80
403.36	861.32
403.55	816.85
403.74	866.00
403.93	896.43
404.13	931.53
404.32	880.04
404.51	847.27
404.70	919.83
404.89	910.47
405.09	926.85
405.28	971.32
405.47	990.05
405.66	943.24
405.85	987.71
406.05	964.30
406.24	931.53
406.43	929.19
406.62	1060.26
406.81	961.96
407.00	1006.43
407.20	999.41
407.39	1008.77
407.58	1050.90
407.77	1001.75
407.96	1036.86
408.15	1062.60
408.34	1062.60
408.54	1043.88
408.73	1104.73
408.92	1078.99
409.11	1062.60
409.30	1146.86
409.49	1015.79
409.68	1102.39
409.87	1130.48
410.07	1186.65
410.26	1160.91
410.45	1221.76
410.64	1146.86
410.83	1200.69
411.02	1221.76
411.21	1210.06
411.40	1245.16
411.59	1221.76
411.78	1252.19
411.98	1249.85
412.17	1219.42
412.36	1317.72
412.55	1362.19
412.74	1315.38
412.93	1348.15
413.12	1373.89
413.31	1409.00
413.50	1439.43
413.69	1411.34
413.88	1420.71
414.07	1497.94
414.26	1544.75
414.45	1413.68
414.64	1441.77
414.83	1432.41
415.02	1526.03
415.22	1455.81
415.41	1570.50
415.60	1549.43
415.79	1593.90
415.98	1614.97
416.17	1605.61
416.36	1675.82
416.55	1577.52
416.74	1575.18
416.93	1591.56
417.12	1666.46
417.31	1619.65
417.50	1689.87
417.69	1734.34
417.88	1650.08
418.07	1668.80
418.26	1717.95
418.45	1696.89
418.64	1767.10
418.83	1788.17
419.02	1727.32
419.21	1860.73
419.39	1736.68
419.58	1727.32
419.77	1746.04
419.96	1795.19
420.15	1860.73
420.34	1827.96
420.53	1907.54
420.72	1937.96
420.91	1872.43
421.10	2005.84
421.29	1980.09
421.48	1823.28
421.67	1888.81
421.86	1834.98
422.05	1928.60
422.24	1937.96
422.43	1980.09
422.61	1982.43
422.80	2005.84
422.99	2097.12
423.18	1991.80
423.37	1984.77
423.56	1982.43
423.75	1949.67
423.94	1865.41
424.13	1881.79
424.32	1961.37
424.50	2045.63
424.69	2054.99
424.88	2080.74
425.07	1989.46
425.26	1984.77
425.45	2040.95
425.64	2172.02
425.83	1989.46
426.01	2057.33
426.20	2017.54
426.39	2054.99
426.58	1926.26
426.77	2069.03
426.96	2125.21
427.15	1928.60
427.33	2134.57
427.52	2064.35
427.71	2064.35
427.90	2118.18
428.09	2197.76
428.28	2186.06
428.46	2181.38
428.65	2118.18
428.84	2282.02
429.03	2300.75
429.22	2221.17
429.40	2289.04
429.59	2174.36
429.78	2054.99
429.97	2101.80
430.16	2272.66
430.34	2310.11
430.53	2399.05
430.72	2296.07
430.91	2244.57
431.10	2326.49
431.28	2312.45
431.47	2361.60
431.66	2495.01
431.85	2307.77
432.03	2286.70
432.22	2438.84
432.41	2305.43
432.60	2408.41
432.79	2476.29
432.97	2495.01
433.16	2438.84
433.35	2476.29
433.54	2457.56
433.72	2602.68
433.91	2483.31
434.10	2478.63
434.28	2403.73
434.47	2572.25
434.66	2553.52
434.85	2605.02
435.03	2607.36
435.22	2560.55
435.41	2637.78
435.59	2672.89
435.78	2583.95
435.97	2595.65
436.16	2544.16
436.34	2642.46
436.53	2747.79
436.72	2789.92
436.90	2705.66
437.09	2733.75
437.28	2700.98
437.46	2672.89
437.65	2794.60
437.84	2747.79
438.02	2752.47
438.21	2796.94
438.40	2722.04
438.58	2808.64
438.77	2930.35
438.96	2829.71
439.14	2991.20
439.33	2974.82
439.52	2935.03
439.70	2986.52
439.89	2939.71
440.08	3185.47
440.26	3094.19
440.45	3115.25
440.63	3002.91
440.82	3087.17
441.01	2963.12
441.19	3152.70
441.38	3187.81
441.57	3169.09
441.75	3220.58
441.94	3405.48
442.12	3253.34
442.31	3173.77
442.50	3351.65
442.68	3269.73
442.87	3328.24
443.05	3452.29
443.24	3335.26
443.43	3410.16
443.61	3302.50
443.80	3407.82
443.98	3325.90
444.17	3190.15
444.35	3487.40
444.54	3382.07
444.73	3454.63
444.91	3384.41
445.10	3468.67
445.28	3328.24
445.47	3323.56
445.65	3377.39
445.84	3562.30
446.02	3531.87
446.21	3531.87
446.39	3534.21
446.58	3531.87
446.77	3400.80
446.95	3274.41
447.14	3452.29
447.32	3574.00
447.51	3459.31
447.69	3386.76
447.88	3492.08
448.06	3508.46
448.25	3438.25
448.43	3501.44
448.62	3543.57
448.80	3585.70
448.99	3669.96
449.17	3513.14
449.36	3529.53
449.54	3641.87
449.73	3721.45
449.91	3733.15
450.10	3655.92
450.28	3641.87
450.46	3765.92
450.65	3709.75
450.83	3700.39
451.02	3885.29
451.20	3779.97
451.39	3939.12
451.57	3595.06
451.76	3648.90
451.94	3772.94
452.13	3803.37
452.31	3845.50
452.49	3719.11
452.68	3854.86
452.86	3829.12
453.05	3962.53
453.23	3847.84
453.42	3822.09
453.60	3868.91
453.78	3864.22
453.97	3784.65
454.15	3887.63
454.34	3927.42
454.52	4039.76
454.70	3990.61
454.89	4011.68
455.07	4046.79
455.26	3957.85
455.44	3985.93
455.62	4191.90
455.81	4021.04
455.99	4023.38
456.17	4074.87
456.36	4126.36
456.54	4196.58
456.73	4175.52
456.91	4170.83
457.09	4248.07
457.28	4341.69
457.46	4367.44
457.64	4477.44
457.83	4276.16
458.01	4191.90
458.19	4418.93
458.38	4437.66
458.56	4313.61
458.74	4496.17
458.93	4491.49
459.11	4351.06
459.29	4409.57
459.48	4423.61
459.66	4409.57
459.84	4519.57
460.03	4568.73
460.21	4545.32
460.39	4638.94
460.57	4365.10
460.76	4416.59
460.94	4624.90
461.12	4603.83
461.31	4582.77
461.49	4601.49
461.67	4454.04
461.85	4648.30
462.04	4463.40
462.22	4709.16
462.40	4805.12
462.59	4786.40
462.77	4891.72
462.95	4772.35
463.13	4657.67
463.32	4746.61
463.50	4662.35
463.68	4821.50
463.86	4912.78
464.05	4894.06
464.23	4552.34
464.41	4938.53
464.59	4725.54
464.78	4877.68
464.96	4964.28
465.14	4849.59
465.32	4840.23
465.50	5088.32
465.69	5121.09
465.87	4833.21
466.05	5069.60
466.23	5149.18
466.41	5006.41
466.60	5181.95
466.78	4931.51
466.96	5025.13
467.14	5020.45
467.32	5046.20
467.51	5095.35
467.69	4997.04
467.87	5076.62
468.05	5097.69
468.23	5137.48
468.41	5025.13
468.60	5146.84
468.78	5287.27
468.96	5200.67
469.14	5238.12
469.32	5172.58
469.50	5301.31
469.69	5327.06
469.87	5167.90
470.05	5320.04
470.23	5303.65
470.41	5378.55
470.59	5589.20
470.77	5500.26
470.95	5338.76
471.14	5582.18
471.32	5413.66
471.50	5593.88
471.68	5689.84
471.86	5645.37
472.04	5455.79
472.22	5593.88
472.40	5408.98
472.58	5572.82
472.77	5708.57
472.95	5778.78
473.13	6071.35
473.31	5804.53
473.49	5757.72
473.67	5727.29
473.85	5776.44
474.03	5956.66
474.21	6003.47
474.39	6127.52
474.57	6071.35
474.75	6101.78
474.93	6057.31
475.12	6179.01
475.30	6043.26
475.48	6352.21
475.66	6155.61
475.84	6277.32
476.02	6335.83
476.20	6300.72
476.38	6387.32
476.56	6464.56
476.74	6497.33
476.92	6506.69
477.10	6607.33
477.28	6520.73
477.46	6324.13
477.64	6567.54
477.82	6572.22
478.00	6691.59
478.18	6932.67
478.36	6946.71
478.54	7098.84
478.72	7068.42
478.90	7145.66
479.08	7140.97
479.26	7009.90
479.44	7204.17
479.62	7279.07
479.80	7243.96
479.98	7382.05
480.16	7651.21
480.34	7344.60
480.52	7426.52
480.70	7573.97
480.88	7515.46
481.06	7688.66
481.24	7726.11
481.41	7906.33
481.59	7758.88
481.77	8023.36
481.95	8149.75
482.13	7941.44
482.31	8161.45
482.49	8163.79
482.67	8163.79
482.85	8229.32
483.03	8521.89
483.21	8362.73
483.39	8498.49
483.57	8627.21
483.74	8669.34
483.92	8667.00
484.10	8608.49
484.28	8723.18
484.46	8931.48
484.64	9233.41
484.82	8982.98
485.00	9118.73
485.18	9193.62
485.35	9427.68
485.53	9317.67
485.71	9451.08
485.89	9387.89
486.07	9355.12
486.25	9554.07
486.43	9497.89
486.61	9790.46
486.78	9708.54
486.96	9745.99
487.14	10033.88
487.32	9895.78
487.50	10258.57
487.68	10071.33
487.85	10178.99
488.03	10516.03
488.21	10389.64
488.39	10665.82
488.57	10406.02
488.75	10600.29
488.92	10956.05
489.10	10789.87
489.28	10810.93
489.46	11049.67
489.64	10855.40
489.81	11335.21
489.99	11075.42
490.17	11152.65
490.35	11300.11
490.53	11485.01
490.70	11634.80
490.88	11499.05
491.06	11800.98
491.24	11548.20
491.41	11707.36
491.59	11836.09
491.77	11721.40
491.95	11967.16
492.13	12123.98
492.30	12128.66
492.48	12245.68
492.66	12205.89
492.84	12294.83
493.01	12512.50
493.19	12456.33
493.37	12599.10
493.54	12798.05
493.72	12627.19
493.90	12809.75
494.08	12753.58
494.25	13085.94
494.43	12985.29
494.61	12994.65
494.79	13273.18
494.96	13245.09
495.14	13238.07
495.32	13535.32
495.49	13392.55
495.67	13664.05
495.85	13734.26
496.02	13935.55
496.20	13813.84
496.38	13970.66
496.55	13774.05
496.73	14075.98
496.91	14083.00
497.09	14193.01
497.26	14384.93
497.44	14099.39
497.62	14270.25
497.79	14754.74
497.97	14434.08
498.14	14679.84
498.32	14792.19
498.50	14743.03
498.67	14862.40
498.85	14537.07
499.03	14672.82
499.20	14771.12
499.38	15061.35
499.56	15166.67
499.73	14920.92
499.91	15389.02
500.08	15300.08
500.26	14724.31
500.44	15360.94
500.61	15342.21
500.79	15133.90
500.97	15440.51
501.14	15594.99
501.32	15983.52
501.49	15786.91
501.67	15798.62
501.84	15882.88
502.02	15751.81
502.20	16182.46
502.37	16180.12
502.55	16079.48
502.72	16121.61
502.90	16067.78
503.07	16219.91
503.25	16177.78
503.43	16259.70
503.60	16568.65
503.78	16318.22
503.95	16255.02
504.13	16477.37
504.30	16542.91
504.48	16613.12
504.65	16468.01
504.83	16517.16
505.01	17060.16
505.18	16952.50
505.36	16772.28
505.53	16685.68
505.71	16929.09
505.88	17071.87
506.06	16793.34
506.23	17174.85
506.41	17362.09
506.58	17504.87
506.76	17493.16
506.93	17357.41
507.11	17242.73
507.28	17268.47
507.46	17521.25
507.63	17614.87
507.81	17785.73
507.98	17635.94
508.16	17507.21
508.33	17692.11
508.50	17558.70
508.68	17598.49
508.85	17956.59
509.03	17834.88
509.20	18225.75
509.38	18277.24
509.55	18101.70
509.73	18108.72
509.90	18450.44
510.08	18415.34
510.25	18312.35
510.42	18347.46
510.60	18597.90
510.77	18792.16
510.95	18588.53
511.12	18335.76
511.30	18588.53
511.47	18506.62
511.64	18696.20
511.82	18815.57
511.99	19164.31
512.17	18735.99
512.34	18764.07
512.51	19218.14
512.69	19227.50
512.86	19061.32
513.04	19468.58
513.21	19208.78
513.38	19351.55
513.56	19159.63
513.73	19461.55
513.90	19321.12
514.08	19466.24
514.25	19702.63
514.43	19466.24
514.60	19594.96
514.77	19609.01
514.95	19660.50
515.12	19515.39
515.29	19695.61
515.47	19578.58
515.64	19674.54
515.81	20217.55
515.99	19840.72
516.16	20004.56
516.33	20355.64
516.51	20350.96
516.68	20299.47
516.85	19995.20
517.03	20184.78
517.20	20257.34
517.37	20795.66
517.54	20437.56
517.72	20570.97
517.89	20102.86
518.06	20566.29
518.24	20596.71
518.41	20393.09
518.58	20575.65
518.75	20465.64
518.93	20732.47
519.10	20631.82
519.27	20498.41
519.45	20751.19
519.62	20741.83
519.79	21132.70
519.96	20964.18
520.14	21174.83
520.31	20957.16
520.48	21312.92
520.65	21125.68
520.83	21729.53
521.00	21247.38
521.17	21322.28
521.34	21202.91
521.52	21479.10
521.69	21345.69
521.86	21570.38
522.03	21762.30
522.20	21612.51
522.38	21668.68
522.55	21752.94
522.72	21766.98
522.89	21738.90
523.07	21762.30
523.24	22087.64
523.41	21947.20
523.58	21888.69
523.75	21862.94
523.92	22141.47
524.10	22038.48
524.27	21963.59
524.44	22253.81
524.61	22298.28
524.78	22328.71
524.96	22469.14
525.13	21975.29
525.30	22405.95
525.47	22476.16
525.64	22183.60
525.81	22651.70
525.98	22263.18
526.16	22473.82
526.33	22600.21
526.50	22827.24
526.67	22604.89
526.84	22640.00
527.01	22616.60
527.18	22991.08
527.36	22953.63
527.53	22878.74
527.70	22923.21
527.87	23393.65
528.04	23332.80
528.21	23047.26
528.38	22845.97
528.55	23358.55
528.72	23138.54
528.89	22904.48
529.07	23063.64
529.24	23190.03
529.41	23278.97
529.58	23250.88
529.75	23096.41
529.92	23452.17
530.09	23381.95
530.26	23583.24
530.43	23545.79
530.60	23040.23
530.77	23089.38
530.94	23557.49
531.11	23459.19
531.28	23592.60
531.46	23351.52
531.63	23988.15
531.80	23772.82
531.97	23981.13
532.14	24074.75
532.31	23847.72
532.48	23943.68
532.65	23894.53
532.82	23962.40
532.99	24301.78
533.16	23599.62
533.33	24264.33
533.50	24187.10
533.67	24601.37
533.84	24100.50
534.01	24051.34
534.18	24121.56
534.35	24269.01
534.52	24074.75
534.69	24379.02
534.86	24510.09
535.03	24203.48
535.20	24278.38
535.37	24676.27
535.54	24584.99
535.71	24280.72
535.88	24620.10
536.05	24240.93
536.22	25216.93
536.38	24716.06
536.55	24276.04
536.72	25242.68
536.89	24669.25
537.06	24957.13
537.23	25120.97
537.40	24884.58
537.57	24807.34
537.74	24835.42
537.91	25216.93
538.08	25015.65
538.25	24996.92
538.42	24987.56
538.59	25324.60
538.75	25158.42
538.92	25127.99
539.09	25177.14
539.26	25181.82
539.43	25326.94
539.60	25701.42
539.77	25289.49
539.94	25268.42
540.11	25247.36
540.28	25589.08
540.44	25205.23
540.61	25296.51
540.78	25710.78
540.95	25266.08
541.12	25549.29
541.29	25319.92
541.46	25036.71
541.62	25338.64
541.79	25933.14
541.96	25479.07
542.13	25523.54
542.30	25792.70
542.47	25514.18
542.63	26033.78
542.80	26057.18
542.97	26363.79
543.14	26115.70
543.31	26087.61
543.48	25834.83
543.64	26586.15
543.81	26508.91
543.98	26228.04
544.15	26167.19
544.32	26363.79
544.48	26749.98
544.65	26363.79
544.82	26436.35
544.99	26209.32
545.16	26546.36
545.32	26508.91
545.49	26703.17
545.66	26735.94
545.83	26576.78
546.00	26522.95
546.16	26618.91
546.33	26349.75
546.50	26565.08
546.67	26738.28
546.83	26541.68
547.00	26607.21
547.17	26689.13
547.34	26801.47
547.50	26691.47
547.67	27243.84
547.84	27040.21
548.00	27096.38
548.17	27112.77
548.34	27040.21
548.51	27274.26
548.67	27248.52
548.84	27199.37
549.01	27267.24
549.18	26733.60
549.34	27042.55
549.51	27168.94
549.68	27391.29
549.84	26941.91
550.01	27505.98
550.18	27075.32
550.34	27335.12
550.51	27267.24
550.68	27510.66
550.84	27257.88
551.01	27608.96
551.18	27220.43
551.34	27126.81
551.51	27367.88
551.68	27569.17
551.84	27374.91
552.01	27278.94
552.18	27716.62
552.34	27290.65
552.51	27831.31
552.68	27482.57
552.84	27585.55
553.01	27580.87
553.18	27688.54
553.34	27716.62
553.51	27587.89
553.67	27946.00
553.84	28077.07
554.01	27927.27
554.17	27969.40
554.34	27819.61
554.51	27740.03
554.67	28109.83
554.84	27807.90
555.00	27775.14
555.17	27840.67
555.33	28046.64
555.50	28034.94
555.67	28034.94
555.83	27896.85
556.00	28081.75
556.16	28226.86
556.33	28254.95
556.50	28086.43
556.66	28283.03
556.83	27960.04
556.99	28233.88
557.16	28390.70
557.32	27967.06
557.49	28233.88
557.65	28233.88
557.82	28250.27
557.98	27843.01
558.15	28290.06
558.32	28664.54
558.48	28002.17
558.65	28149.62
558.81	28140.26
558.98	28348.57
559.14	28505.38
559.31	28266.65
559.47	28411.76
559.64	28603.69
559.80	28559.22
559.97	28463.25
560.13	28512.41
560.30	28493.68
560.46	28716.03
560.63	28912.64
560.79	28540.49
560.96	28283.03
561.12	28439.85
561.29	28650.50
561.45	28601.35
561.61	28697.31
561.78	28797.95
561.94	28809.65
562.11	28659.86
562.27	28732.42
562.44	28940.72
562.60	28484.32
562.77	28627.09
562.93	28313.46
563.10	28510.07
563.26	28765.18
563.42	29254.36
563.59	28727.74
563.75	29029.66
563.92	28938.38
564.08	28683.27
564.24	28671.56
564.41	28966.47
564.57	28701.99
564.74	29123.29
564.90	29085.84
565.07	28865.83
565.23	29076.48
565.39	28744.12
565.56	29071.79
565.72	29006.26
565.88	28767.52
566.05	28952.43
566.21	29214.57
566.38	29205.20
566.54	28744.12
566.70	28975.83
566.87	29144.35
567.03	29338.62
567.19	29287.12
567.36	29216.91
567.52	29329.25
567.68	28657.52
567.85	29039.03
568.01	29296.49
568.17	29076.48
568.34	29340.96
568.50	29319.89
568.66	28779.23
568.83	29738.85
568.99	29167.76
569.15	29177.12
569.32	29333.93
569.48	29010.94
569.64	28989.88
569.81	29270.74
569.97	29387.77
570.13	29315.21
570.30	28910.30
570.46	29380.74
570.62	29319.89
570.78	29296.49
570.95	29226.27
571.11	29247.33
571.27	29050.73
571.43	28861.15
571.60	29284.78
571.76	29392.45
571.92	29219.25
572.09	29223.93
572.25	29509.47
572.41	29223.93
572.57	29380.74
572.74	29656.93
572.90	29221.59
573.06	29596.07
573.22	29429.90
573.38	29177.12
573.55	29319.89
573.71	29689.70
573.87	29223.93
574.03	29207.55
574.20	29366.70
574.36	29434.58
574.52	29656.93
574.68	29556.28
574.84	29532.88
575.01	29575.01
575.17	29635.86
575.33	29158.39
575.49	29352.66
575.65	29647.57
575.82	29696.72
575.98	29301.17
576.14	29539.90
576.30	29586.71
576.46	29125.63
576.62	29469.69
576.79	29560.97
576.95	29270.74
577.11	29692.04
577.27	29701.40
577.43	29628.84
577.59	29558.63
577.75	29422.87
577.92	29240.31
578.08	29567.99
578.24	29670.97
578.40	29406.49
578.56	29369.04
578.72	29673.31
578.88	29465.00
579.04	29610.12
579.21	29460.32
579.37	29694.38
579.53	29411.17
579.69	29151.37
579.85	29633.52
580.01	29661.61
580.17	29518.84
580.33	29675.65
580.49	29544.58
580.65	29663.95
580.82	29450.96
580.98	29626.50
581.14	29490.75
581.30	29949.50
581.46	29362.02
581.62	30005.67
581.78	29177.12
581.94	29551.60
582.10	29387.77
582.26	29647.57
582.42	29722.46
582.58	29696.72
582.74	29729.48
582.90	29610.12
583.06	29582.03
583.22	29750.55
583.38	29572.67
583.54	29369.04
583.70	29893.32
583.86	29722.46
584.02	29472.03
584.18	29839.49
584.34	29905.02
584.50	29584.37
584.66	29596.07
584.82	29275.42
584.98	29312.87
585.14	30045.46
585.30	29825.45
585.46	29525.86
585.62	29539.90
585.78	29778.64
585.94	30015.03
586.10	30031.41
586.26	29743.53
586.42	29886.30
586.58	29780.98
586.74	29806.72
586.90	29654.59
587.06	29677.99
587.22	29453.30
587.38	29890.98
587.54	29743.53
587.70	29649.91
587.86	29982.26
588.02	29839.49
588.18	30033.75
588.34	30136.74
588.49	29837.15
588.65	29825.45
588.81	29762.25
588.97	29645.23
589.13	29614.80
589.29	29832.47
589.45	29727.14
589.61	30300.58
589.77	29715.44
589.93	29998.65
590.08	30316.96
590.24	30155.46
590.40	30094.61
590.56	29834.81
590.72	30099.29
590.88	29912.05
591.04	29497.77
591.20	30452.71
591.35	29853.53
591.51	30302.92
591.67	29991.62
591.83	30279.51
591.99	29989.28
