SpectraSuite Data File
++++++++++++++++++++++++++++++++++++
Date: Fri Oct 18 13:58:18 GMT-05:00 2013
User: bianchi
Dark Spectrum Present: No
Reference Spectrum Present: No
Number of Sampled Component Spectra: 1
Spectrometers: USB2+H05261
Integration Time (usec): 50000 (USB2+H05261)
Spectra Averaged: 1 (USB2+H05261)
Boxcar Smoothing: 0 (USB2+H05261)
Correct for Electrical Dark: No (USB2+H05261)
Strobe/Lamp Enabled: No (USB2+H05261)
Correct for Detector Non-linearity: No (USB2+H05261)
Correct for Stray Light: No (USB2+H05261)
Number of Pixels in Processed Spectrum: 2048
>>>>>Begin Processed Spectral Data<<<<<
365.73	0.00
365.92	0.00
366.12	0.00
366.32	0.00
366.52	0.00
366.72	0.00
366.91	0.00
367.11	0.00
367.31	0.00
367.51	0.00
367.70	0.00
367.90	0.00
368.10	0.00
368.30	0.00
368.49	0.00
368.69	0.00
368.89	0.00
369.09	0.00
369.28	0.00
369.48	0.00
369.68	0.00
369.87	0.00
370.07	0.00
370.27	0.00
370.47	0.00
370.66	30.43
370.86	147.45
371.06	112.35
371.25	152.13
371.45	79.58
371.65	126.39
371.84	210.65
372.04	154.48
372.24	201.29
372.44	231.71
372.63	166.18
372.83	250.44
373.03	189.58
373.22	241.08
373.42	217.67
373.62	241.08
373.81	194.26
374.01	234.05
374.21	205.97
374.40	196.60
374.60	203.63
374.79	283.20
374.99	166.18
375.19	252.78
375.38	262.14
375.58	262.14
375.78	276.18
375.97	311.29
376.17	283.20
376.37	248.10
376.56	217.67
376.76	252.78
376.95	297.25
377.15	301.93
377.35	315.97
377.54	327.68
377.74	283.20
377.93	259.80
378.13	269.16
378.33	255.12
378.52	243.42
378.72	259.80
378.91	205.97
379.11	280.86
379.31	252.78
379.50	271.50
379.70	280.86
379.89	322.99
380.09	205.97
380.28	297.25
380.48	308.95
380.68	236.39
380.87	306.61
381.07	304.27
381.26	334.70
381.46	360.44
381.65	306.61
381.85	297.25
382.04	379.17
382.24	383.85
382.43	313.63
382.63	351.08
382.83	308.95
383.02	430.66
383.22	407.25
383.41	395.55
383.61	407.25
383.80	435.34
384.00	299.59
384.19	362.78
384.39	360.44
384.58	365.12
384.78	351.08
384.97	433.00
385.17	341.72
385.36	360.44
385.56	451.72
385.75	402.57
385.95	362.78
386.14	348.74
386.34	421.30
386.53	306.61
386.72	376.83
386.92	416.62
387.11	447.04
387.31	444.70
387.50	451.72
387.70	379.17
387.89	362.78
388.09	451.72
388.28	524.28
388.48	465.77
388.67	428.32
388.86	505.56
389.06	503.22
389.25	402.57
389.45	493.85
389.64	503.22
389.84	482.15
390.03	454.06
390.22	482.15
390.42	535.98
390.61	458.74
390.81	587.47
391.00	561.73
391.19	491.51
391.39	524.28
391.58	585.13
391.78	395.55
391.97	482.15
392.16	552.37
392.36	517.26
392.55	561.73
392.75	538.32
392.94	589.82
393.13	484.49
393.33	543.00
393.52	528.96
393.71	503.22
393.91	580.45
394.10	557.05
394.29	550.03
394.49	575.77
394.68	514.92
394.88	615.56
395.07	664.71
395.26	634.29
395.46	627.26
395.65	650.67
395.84	655.35
396.04	753.65
396.23	627.26
396.42	580.45
396.62	650.67
396.81	674.07
397.00	653.01
397.19	643.65
397.39	606.20
397.58	624.92
397.77	720.88
397.97	681.10
398.16	648.33
398.35	655.35
398.55	697.48
398.74	697.48
398.93	655.35
399.12	685.78
399.32	767.70
399.51	725.57
399.70	791.10
399.90	725.57
400.09	807.48
400.28	774.72
400.47	730.25
400.67	741.95
400.86	725.57
401.05	812.17
401.24	779.40
401.44	800.46
401.63	746.63
401.82	814.51
402.01	795.78
402.21	800.46
402.40	805.14
402.59	866.00
402.78	873.02
402.97	861.32
403.17	863.66
403.36	908.13
403.55	924.51
403.74	842.59
403.93	854.30
404.13	894.08
404.32	802.80
404.51	994.73
404.70	1015.79
404.89	912.81
405.09	933.87
405.28	940.90
405.47	976.00
405.66	1020.47
405.85	1011.11
406.05	992.39
406.24	971.32
406.43	992.39
406.62	1034.52
406.81	1069.62
407.00	1011.11
407.20	1020.47
407.39	987.71
407.58	1071.97
407.77	959.62
407.96	1071.97
408.15	1088.35
408.34	1107.07
408.54	1095.37
408.73	1041.54
408.92	1132.82
409.11	1018.13
409.30	1046.22
409.49	1036.86
409.68	1121.12
409.87	1123.46
410.07	1231.12
410.26	1268.57
410.45	1167.93
410.64	1196.01
410.83	1121.12
411.02	1114.10
411.21	1184.31
411.40	1291.98
411.59	1280.27
411.78	1205.38
411.98	1235.80
412.17	1387.94
412.36	1224.10
412.55	1380.92
412.74	1310.70
412.93	1259.21
413.12	1336.45
413.31	1432.41
413.50	1355.17
413.69	1397.30
413.88	1479.22
414.07	1392.62
414.26	1448.79
414.45	1439.43
414.64	1418.36
414.83	1479.22
415.02	1558.80
415.22	1537.73
415.41	1537.73
415.60	1514.33
415.79	1542.41
415.98	1708.59
416.17	1607.95
416.36	1579.86
416.55	1584.54
416.74	1598.59
416.93	1600.93
417.12	1680.50
417.31	1696.89
417.50	1715.61
417.69	1680.50
417.88	1750.72
418.07	1727.32
418.26	1713.27
418.45	1825.62
418.64	1818.60
418.83	1870.09
419.02	1865.41
419.21	1739.02
419.39	1902.86
419.58	1804.55
419.77	1713.27
419.96	1881.79
420.15	1797.53
420.34	1750.72
420.53	1909.88
420.72	1954.35
420.91	1839.66
421.10	1886.47
421.29	1947.33
421.48	1877.11
421.67	2010.52
421.86	2073.71
422.05	2083.08
422.24	2064.35
422.43	1994.14
422.61	1909.88
422.80	2062.01
422.99	1959.03
423.18	2080.74
423.37	2022.22
423.56	1940.30
423.75	1966.05
423.94	2045.63
424.13	1818.60
424.32	1898.17
424.50	1940.30
424.69	1973.07
424.88	2040.95
425.07	2076.06
425.26	1926.26
425.45	2092.44
425.64	1989.46
425.83	2153.29
426.01	1996.48
426.20	2073.71
426.39	2097.12
426.58	2129.89
426.77	2218.83
426.96	2122.87
427.15	2150.95
427.33	2132.23
427.52	1984.77
427.71	2073.71
427.90	2190.74
428.09	2186.06
428.28	2197.76
428.46	2239.89
428.65	2181.38
428.84	2106.48
429.03	2251.60
429.22	2113.50
429.40	2246.91
429.59	2251.60
429.78	2242.23
429.97	2176.70
430.16	2186.06
430.34	2385.01
430.53	2373.30
430.72	2317.13
430.91	2345.22
431.10	2324.15
431.28	2317.13
431.47	2314.79
431.66	2450.54
431.85	2347.56
432.03	2406.07
432.22	2406.07
432.41	2438.84
432.60	2527.78
432.79	2450.54
432.97	2511.39
433.16	2473.95
433.35	2340.54
433.54	2586.29
433.72	2562.89
433.91	2546.50
434.10	2530.12
434.28	2586.29
434.47	2628.42
434.66	2420.11
434.85	2661.19
435.03	2555.86
435.22	2628.42
435.41	2656.51
435.59	2572.25
435.78	2473.95
435.97	2541.82
436.16	2708.00
436.34	2672.89
436.53	2684.59
436.72	2738.43
436.90	2736.09
437.09	2670.55
437.28	2644.81
437.46	2679.91
437.65	2775.88
437.84	2682.25
438.02	2796.94
438.21	2700.98
438.40	2754.81
438.58	2820.35
438.77	2867.16
438.96	2876.52
439.14	2881.20
439.33	2944.39
439.52	2951.42
439.70	2918.65
439.89	3040.36
440.08	3112.91
440.26	3091.85
440.45	2869.50
440.63	2937.37
440.82	3133.98
441.01	3070.78
441.19	3124.62
441.38	3178.45
441.57	3201.85
441.75	3173.77
441.94	3325.90
442.12	3246.32
442.31	3412.50
442.50	3323.56
442.68	3309.52
442.87	3368.03
443.05	3384.41
443.24	3389.10
443.43	3295.47
443.61	3351.65
443.80	3435.91
443.98	3286.11
444.17	3218.24
444.35	3412.50
444.54	3475.70
444.73	3337.60
444.91	3449.95
445.10	3456.97
445.28	3386.76
445.47	3480.38
445.65	3599.74
445.84	3431.23
446.02	3482.72
446.21	3377.39
446.39	3426.54
446.58	3398.46
446.77	3489.74
446.95	3339.94
447.14	3604.42
447.32	3522.51
447.51	3363.35
447.69	3309.52
447.88	3555.27
448.06	3489.74
448.25	3417.18
448.43	3499.10
448.62	3503.78
448.80	3555.27
448.99	3480.38
449.17	3616.13
449.36	3588.04
449.54	3623.15
449.73	3588.04
449.91	3648.90
450.10	3648.90
450.28	3698.05
450.46	3744.86
450.65	3815.07
450.83	3840.82
451.02	3779.97
451.20	3772.94
451.39	3796.35
451.57	3686.34
451.76	3726.13
451.94	3737.84
452.13	3850.18
452.31	3751.88
452.49	3758.90
452.68	3775.28
452.86	3775.28
453.05	3866.56
453.23	3904.01
453.42	3726.13
453.60	3777.62
453.78	3941.46
453.97	3974.23
454.15	3880.61
454.34	3925.08
454.52	4065.51
454.70	3990.61
454.89	3908.69
455.07	4051.47
455.26	4030.40
455.44	4056.15
455.62	4009.34
455.81	4109.98
455.99	4088.92
456.17	4067.85
456.36	4229.35
456.54	4304.25
456.73	4201.26
456.91	4329.99
457.09	4198.92
457.28	4404.89
457.46	4201.26
457.64	4344.03
457.83	4180.20
458.01	4329.99
458.19	4432.97
458.38	4297.22
458.56	4465.74
458.74	4374.46
458.93	4327.65
459.11	4339.35
459.29	4414.25
459.48	4507.87
459.66	4358.08
459.84	4353.40
460.03	4660.01
460.21	4479.79
460.39	4498.51
460.57	4503.19
460.76	4472.76
460.94	4706.82
461.12	4571.07
461.31	4643.62
461.49	4435.32
461.67	4613.20
461.85	4699.80
462.04	4699.80
462.22	4931.51
462.40	4702.14
462.59	4875.34
462.77	4847.25
462.95	4683.41
463.13	4865.97
463.32	4880.02
463.50	4793.42
463.68	4795.76
463.86	4835.55
464.05	4812.14
464.23	4762.99
464.41	4884.70
464.59	4727.88
464.78	4950.23
464.96	4837.89
465.14	4950.23
465.32	4973.64
465.50	5004.07
465.69	5100.03
465.87	5041.51
466.05	4961.94
466.23	4798.10
466.41	4924.49
466.60	5085.98
466.78	5020.45
466.96	4957.25
467.14	4924.49
467.32	5172.58
467.51	5188.97
467.69	5032.15
467.87	5062.58
468.05	5032.15
468.23	5135.14
468.41	5144.50
468.60	5181.95
468.78	5186.63
468.96	5041.51
469.14	5219.39
469.32	5294.29
469.50	5268.55
469.69	5174.92
469.87	5418.34
470.05	5486.22
470.23	5352.81
470.41	5441.75
470.59	5554.09
470.77	5418.34
470.95	5479.19
471.14	5617.29
471.32	5385.57
471.50	5598.56
471.68	5427.70
471.86	5619.63
472.04	5643.03
472.22	5760.06
472.40	5533.03
472.58	5643.03
472.77	5664.10
472.95	5870.06
473.13	5891.13
473.31	5839.64
473.49	5893.47
473.67	5678.14
473.85	5790.49
474.03	5914.53
474.21	5891.13
474.39	6012.84
474.57	6050.28
474.75	6022.20
474.93	6193.06
475.12	6099.44
475.30	6169.65
475.48	6186.04
475.66	6113.48
475.84	6335.83
476.02	6317.11
476.20	6469.24
476.38	6427.11
476.56	6710.32
476.74	6637.76
476.92	6499.67
477.10	6572.22
477.28	6532.44
477.46	6633.08
477.64	6698.61
477.82	6930.33
478.00	6773.51
478.18	6970.12
478.36	7075.44
478.54	6963.09
478.72	7204.17
478.90	7103.53
479.08	7190.13
479.26	7110.55
479.44	7063.74
479.62	7321.20
479.80	7377.37
479.98	7316.51
480.16	7557.59
480.34	7356.30
480.52	7648.87
480.70	7662.91
480.88	7627.81
481.06	7588.02
481.24	7644.19
481.41	7667.60
481.59	7981.23
481.77	8018.68
481.95	7791.64
482.13	8011.65
482.31	8168.47
482.49	8365.07
482.67	8161.45
482.85	8437.63
483.03	8416.57
483.21	8458.70
483.39	8535.93
483.57	8552.32
483.74	8566.36
483.92	8624.87
484.10	8746.58
484.28	9036.81
484.46	8973.61
484.64	9210.01
484.82	8826.16
485.00	8999.36
485.18	9406.61
485.35	9427.68
485.53	9369.16
485.71	9392.57
485.89	9696.84
486.07	9507.26
486.25	9535.34
486.43	9673.43
486.61	9558.75
486.78	9872.38
486.96	10015.15
487.14	9984.73
487.32	9933.23
487.50	10319.42
487.68	10167.29
487.85	10284.31
488.03	10607.31
488.21	10649.44
488.39	10693.91
488.57	10679.86
488.75	10726.68
488.92	10689.23
489.10	11019.24
489.28	10668.16
489.46	11084.78
489.64	10911.58
489.81	11164.36
489.99	11190.10
490.17	11082.44
490.35	11524.80
490.53	11463.94
490.70	11726.08
490.88	11580.97
491.06	11777.58
491.24	11885.24
491.41	11887.58
491.59	12273.77
491.77	11985.88
491.95	12081.85
492.13	12121.63
492.30	12114.61
492.48	12226.96
492.66	12500.80
492.84	12147.38
493.01	12470.37
493.19	12475.06
493.37	12631.87
493.54	12657.62
493.72	12922.10
493.90	12720.81
494.08	13011.04
494.25	13039.12
494.43	13116.36
494.61	13167.85
494.79	13291.90
494.96	13399.57
495.14	13228.71
495.32	13511.91
495.49	13462.76
495.67	13579.79
495.85	13762.35
496.02	13650.00
496.20	13694.47
496.38	13902.78
496.55	13652.34
496.73	14200.03
496.91	13893.42
497.09	14005.77
497.26	14508.98
497.44	14478.55
497.62	14368.55
497.79	14408.34
497.97	14537.07
498.14	14759.42
498.32	14899.85
498.50	14595.58
498.67	14794.53
498.85	14801.55
499.03	15166.67
499.20	14981.77
499.38	15094.11
499.56	15248.59
499.73	15197.10
499.91	15133.90
500.08	15279.02
500.26	15262.63
500.44	15672.23
500.61	15370.30
500.79	15482.64
500.97	15389.02
501.14	15852.45
501.32	15672.23
501.49	15756.49
501.67	15894.58
501.84	15955.43
502.02	15936.71
502.20	16002.24
502.37	16180.12
502.55	16114.59
502.72	16212.89
502.90	16308.85
503.07	16201.19
503.25	16280.77
503.43	16187.14
503.60	16301.83
503.78	16489.07
503.95	16425.88
504.13	16479.71
504.30	16533.54
504.48	16290.13
504.65	16739.51
504.83	16528.86
505.01	17158.47
505.18	16863.56
505.36	17099.95
505.53	17022.72
505.71	16578.01
505.88	17406.56
506.06	16849.52
506.23	17153.79
506.41	17116.34
506.58	17357.41
506.76	17483.80
506.93	17621.89
507.11	17273.15
507.28	17425.29
507.46	17226.34
507.63	17462.74
507.81	17783.39
507.98	17675.73
508.16	17757.64
508.33	17502.53
508.50	17797.43
508.68	17898.08
508.85	17783.39
509.03	18146.17
509.20	18265.54
509.38	18155.54
509.55	18230.43
509.73	18153.20
509.90	18298.31
510.08	18214.05
510.25	18307.67
510.42	18717.26
510.60	18600.24
510.77	18621.30
510.95	18857.70
511.12	18363.84
511.30	18675.13
511.47	18506.62
511.64	18377.89
511.82	18860.04
511.99	18836.63
512.17	19019.19
512.34	18927.91
512.51	19056.64
512.69	19389.00
512.86	19236.86
513.04	19271.97
513.21	19311.76
513.38	19293.04
513.56	19475.60
513.73	19456.87
513.90	19440.49
514.08	19428.79
514.25	19529.43
514.43	19623.05
514.60	19768.16
514.77	19740.08
514.95	19711.99
515.12	19611.35
515.29	19522.41
515.47	19934.34
515.64	19754.12
515.81	19950.73
515.99	20128.61
516.16	20081.80
516.33	20432.88
516.51	20414.15
516.68	20154.35
516.85	20070.09
517.03	20418.83
517.20	20430.54
517.37	20191.80
517.54	20589.69
517.72	20580.33
517.89	20510.11
518.06	20837.79
518.24	20334.57
518.41	20411.81
518.58	20587.35
518.75	20673.95
518.93	20772.25
519.10	20992.26
519.27	20645.87
519.45	20779.28
519.62	20987.58
519.79	21165.46
519.96	20933.75
520.14	21156.10
520.31	21219.30
520.48	21231.00
520.65	21418.24
520.83	21319.94
521.00	21249.72
521.17	21296.53
521.34	21158.44
521.52	21371.43
521.69	21628.89
521.86	21895.71
522.03	21521.23
522.20	21792.73
522.38	21607.83
522.55	21575.06
522.72	21872.31
522.89	21954.22
523.07	22218.71
523.24	21884.01
523.41	22061.89
523.58	21984.65
523.75	22150.83
523.92	21919.12
524.10	22082.95
524.27	22333.39
524.44	21652.30
524.61	22551.06
524.78	22174.24
524.96	22445.74
525.13	22691.49
525.30	22431.69
525.47	22448.08
525.64	22630.64
525.81	22340.41
525.98	22960.66
526.16	22934.91
526.33	22864.69
526.50	22700.86
526.67	22621.28
526.84	22735.96
527.01	22522.98
527.18	22864.69
527.36	23056.62
527.53	22974.70
527.70	23051.94
527.87	23583.24
528.04	23082.36
528.21	23077.68
528.38	23103.43
528.55	23108.11
528.72	23597.28
528.89	23522.38
529.07	23318.76
529.24	23487.28
529.41	23431.10
529.58	23386.63
529.75	23365.57
529.92	23538.77
530.09	23295.35
530.26	23665.16
530.43	23901.55
530.60	23562.17
530.77	23529.41
530.94	23931.98
531.11	23679.20
531.28	23709.63
531.46	23854.74
531.63	23903.89
531.80	23946.02
531.97	24023.26
532.14	24119.22
532.31	24194.12
532.48	24039.64
532.65	24070.07
532.82	23737.71
532.99	23826.65
533.16	24273.70
533.33	24484.34
533.50	24734.78
533.67	24442.21
533.84	24027.94
534.01	24233.91
534.18	24252.63
534.35	24474.98
534.52	24243.27
534.69	24500.73
534.86	24301.78
535.03	24341.57
535.20	24421.15
535.37	24648.18
535.54	24648.18
535.71	24521.79
535.88	24421.15
536.05	24814.36
536.22	25025.01
536.38	24952.45
536.55	25062.46
536.72	24683.29
536.89	24847.13
537.06	25003.94
537.23	25132.67
537.40	24809.68
537.57	25013.31
537.74	24737.12
537.91	25439.28
538.08	25263.74
538.25	25039.05
538.42	25214.59
538.59	25511.84
538.75	25074.16
538.92	25338.64
539.09	25448.64
539.26	25523.54
539.43	25530.56
539.60	25483.75
539.77	25420.56
539.94	25631.21
540.11	25525.88
540.28	25869.94
540.44	25582.06
540.61	25352.68
540.78	25333.96
540.95	25355.02
541.12	25617.16
541.29	25305.87
541.46	25792.70
541.62	25790.36
541.79	25710.78
541.96	25181.82
542.13	25891.01
542.30	25860.58
542.47	26078.25
542.63	25989.31
542.80	26277.19
542.97	26094.63
543.14	26565.08
543.31	26197.62
543.48	26026.76
543.64	25965.90
543.81	26125.06
543.98	26368.48
544.15	26724.24
544.32	26539.33
544.48	26621.25
544.65	26239.75
544.82	26352.09
544.99	26153.15
545.16	26469.12
545.32	26625.93
545.49	26490.18
545.66	26665.72
545.83	26408.26
546.00	26892.76
546.16	26668.06
546.33	26419.97
546.50	26752.32
546.67	26677.43
546.83	26661.04
547.00	27133.83
547.17	26789.77
547.34	26775.73
547.50	26904.46
547.67	27112.77
547.84	27058.93
548.00	26857.65
548.17	27466.19
548.34	26991.06
548.51	26960.63
548.67	27190.00
548.84	27215.75
549.01	27016.80
549.18	27147.87
549.34	26857.65
549.51	26909.14
549.68	26932.54
549.84	27316.39
550.01	27311.71
550.18	27194.68
550.34	27388.95
550.51	27503.64
550.68	27758.75
550.84	27234.47
551.01	27267.24
551.18	27475.55
551.34	27255.54
551.51	27288.31
551.68	27421.72
551.84	27796.20
552.01	27463.85
552.18	27590.24
552.34	27498.95
552.51	27786.84
552.68	27531.72
552.84	27651.09
553.01	27468.53
553.18	27559.81
553.34	27693.22
553.51	27662.79
553.67	27910.89
553.84	28039.62
554.01	27896.85
554.17	28301.76
554.34	28105.15
554.51	28205.80
554.67	28058.34
554.84	27948.34
555.00	27960.04
555.17	27913.23
555.33	27892.16
555.50	27704.92
555.67	27913.23
555.83	28023.23
556.00	28306.44
556.16	28315.80
556.33	27875.78
556.50	28039.62
556.66	28463.25
556.83	28306.44
556.99	28259.63
557.16	28496.02
557.32	28292.40
557.49	28086.43
557.65	27988.13
557.82	28088.77
557.98	27772.80
558.15	28299.42
558.32	28470.28
558.48	28362.61
558.65	28556.88
558.81	28793.27
558.98	28599.01
559.14	28631.77
559.31	28322.82
559.47	28718.37
559.64	28446.87
559.80	28643.48
559.97	28662.20
560.13	28847.10
560.30	28833.06
560.46	28854.12
560.63	28353.25
560.79	28606.03
560.96	28830.72
561.12	28519.43
561.29	28301.76
561.45	28746.46
561.61	28861.15
561.78	28879.87
561.94	28582.62
562.11	28982.85
562.27	28811.99
562.44	28669.22
562.60	28606.03
562.77	28704.33
562.93	28716.03
563.10	29118.60
563.26	28526.45
563.42	28961.79
563.59	29048.39
563.75	28797.95
563.92	28856.46
564.08	28790.93
564.24	29195.84
564.41	28870.51
564.57	28889.23
564.74	29134.99
564.90	29235.63
565.07	29013.28
565.23	28879.87
565.39	28961.79
565.56	29343.30
565.72	28959.45
565.88	29008.60
566.05	28924.34
566.21	28992.22
566.38	28863.49
566.54	29350.32
566.70	29216.91
566.87	29411.17
567.03	29111.58
567.19	29401.81
567.36	29340.96
567.52	28730.08
567.68	29663.95
567.85	29322.23
568.01	29078.82
568.17	28807.31
568.34	29455.64
568.50	29170.10
568.66	29165.42
568.83	29436.92
568.99	29294.14
569.15	29088.18
569.32	29139.67
569.48	28940.72
569.64	29502.45
569.81	28809.65
569.97	29436.92
570.13	29362.02
570.30	29310.53
570.46	29228.61
570.62	29013.28
570.78	29362.02
570.95	29111.58
571.11	29589.05
571.27	28940.72
571.43	29048.39
571.60	29532.88
571.76	29275.42
571.92	29607.78
572.09	29270.74
572.25	29659.27
572.41	29202.86
572.57	29429.90
572.74	29780.98
572.90	29553.94
573.06	29514.16
573.22	29383.09
573.38	29373.72
573.55	29060.09
573.71	29427.56
573.87	29736.51
574.03	29699.06
574.20	29694.38
574.36	29453.30
574.52	29329.25
574.68	29572.67
574.84	29546.92
575.01	29682.67
575.17	29308.19
575.33	29586.71
575.49	29488.41
575.65	29703.74
575.82	29699.06
575.98	29851.19
576.14	29869.92
576.30	29516.50
576.46	29692.04
576.62	29345.64
576.79	29357.34
576.95	29558.63
577.11	29516.50
577.27	29790.34
577.43	29567.99
577.59	29532.88
577.75	29715.44
577.92	29153.71
578.08	29425.22
578.24	29701.40
578.40	29752.89
578.56	29593.73
578.72	29605.44
578.88	30012.69
579.04	29788.00
579.21	29605.44
579.37	29762.25
579.53	29701.40
579.69	29219.25
579.85	29991.62
580.01	29539.90
580.17	29460.32
580.33	29647.57
580.49	29818.42
580.65	29752.89
580.82	29907.37
580.98	29340.96
581.14	29689.70
581.30	29869.92
581.46	29638.20
581.62	29546.92
581.78	29659.27
581.94	30022.05
582.10	29394.79
582.26	29909.71
582.42	29795.02
582.58	29518.84
582.74	29860.55
582.90	30094.61
583.06	29862.90
583.22	29771.61
583.38	29806.72
583.54	29998.65
583.70	29661.61
583.86	29841.83
584.02	29600.76
584.18	30059.50
584.34	30000.99
584.50	29804.38
584.66	29823.11
584.82	29317.55
584.98	29841.83
585.14	29872.26
585.30	29457.98
585.46	29776.30
585.62	29305.85
585.78	29951.84
585.94	29621.82
586.10	29752.89
586.26	30143.76
586.42	30326.32
586.58	30139.08
586.74	29898.00
586.90	29764.59
587.06	29565.65
587.22	29694.38
587.38	29844.17
587.54	30110.99
587.70	30075.88
587.86	29888.64
588.02	29912.05
588.18	30085.25
588.34	29996.31
588.49	29879.28
588.65	30015.03
588.81	29544.58
588.97	30338.02
589.13	29914.39
589.29	29788.00
589.45	29972.90
589.61	30132.06
589.77	30202.27
589.93	30246.74
590.08	30394.20
590.24	30052.48
590.40	30302.92
590.56	30171.85
590.72	30270.15
590.88	29921.41
591.04	30099.29
591.20	30307.60
591.35	30394.20
591.51	30433.99
591.67	30398.88
591.83	30742.94
591.99	30417.60
