SpectraSuite Data File
++++++++++++++++++++++++++++++++++++
Date: Fri Oct 18 13:57:56 GMT-05:00 2013
User: bianchi
Dark Spectrum Present: No
Reference Spectrum Present: No
Number of Sampled Component Spectra: 1
Spectrometers: USB2+H05261
Integration Time (usec): 50000 (USB2+H05261)
Spectra Averaged: 1 (USB2+H05261)
Boxcar Smoothing: 0 (USB2+H05261)
Correct for Electrical Dark: No (USB2+H05261)
Strobe/Lamp Enabled: No (USB2+H05261)
Correct for Detector Non-linearity: No (USB2+H05261)
Correct for Stray Light: No (USB2+H05261)
Number of Pixels in Processed Spectrum: 2048
>>>>>Begin Processed Spectral Data<<<<<
365.73	0.00
365.92	0.00
366.12	0.00
366.32	0.00
366.52	0.00
366.72	0.00
366.91	0.00
367.11	0.00
367.31	0.00
367.51	0.00
367.70	0.00
367.90	0.00
368.10	0.00
368.30	0.00
368.49	0.00
368.69	0.00
368.89	0.00
369.09	0.00
369.28	0.00
369.48	0.00
369.68	0.00
369.87	0.00
370.07	0.00
370.27	0.00
370.47	0.00
370.66	126.39
370.86	117.03
371.06	133.41
371.25	128.73
371.45	161.50
371.65	194.26
371.84	131.07
372.04	93.62
372.24	217.67
372.44	74.90
372.63	182.56
372.83	215.33
373.03	255.12
373.22	170.86
373.42	196.60
373.62	224.69
373.81	166.18
374.01	280.86
374.21	257.46
374.40	278.52
374.60	245.76
374.79	203.63
374.99	280.86
375.19	304.27
375.38	222.35
375.58	266.82
375.78	259.80
375.97	224.69
376.17	194.26
376.37	252.78
376.56	210.65
376.76	222.35
376.95	210.65
377.15	257.46
377.35	283.20
377.54	280.86
377.74	147.45
377.93	266.82
378.13	273.84
378.33	294.91
378.52	301.93
378.72	301.93
378.91	259.80
379.11	259.80
379.31	278.52
379.50	250.44
379.70	344.06
379.89	355.76
380.09	231.71
380.28	360.44
380.48	337.04
380.68	348.74
380.87	339.38
381.07	355.76
381.26	454.06
381.46	315.97
381.65	348.74
381.85	358.10
382.04	341.72
382.24	379.17
382.43	355.76
382.63	320.65
382.83	320.65
383.02	365.12
383.22	369.80
383.41	351.08
383.61	353.42
383.80	353.42
384.00	372.15
384.19	351.08
384.39	372.15
384.58	402.57
384.78	461.09
384.97	383.85
385.17	334.70
385.36	381.51
385.56	402.57
385.75	376.83
385.95	381.51
386.14	383.85
386.34	428.32
386.53	402.57
386.72	393.21
386.92	470.45
387.11	463.43
387.31	442.36
387.50	428.32
387.70	388.53
387.89	433.00
388.09	491.51
388.28	411.93
388.48	383.85
388.67	468.11
388.86	463.43
389.06	533.64
389.25	433.00
389.45	440.02
389.64	507.90
389.84	468.11
390.03	489.17
390.22	510.24
390.42	484.49
390.61	514.92
390.81	496.19
391.00	486.83
391.19	521.94
391.39	477.47
391.58	458.74
391.78	517.26
391.97	554.71
392.16	531.30
392.36	564.07
392.55	610.88
392.75	587.47
392.94	550.03
393.13	540.66
393.33	547.69
393.52	568.75
393.71	603.86
393.91	615.56
394.10	489.17
394.29	603.86
394.49	540.66
394.68	552.37
394.88	655.35
395.07	564.07
395.26	660.03
395.46	674.07
395.65	641.31
395.84	657.69
396.04	669.39
396.23	657.69
396.42	636.63
396.62	669.39
396.81	737.27
397.00	681.10
397.19	620.24
397.39	770.04
397.58	709.18
397.77	688.12
397.97	725.57
398.16	741.95
398.35	603.86
398.55	660.03
398.74	674.07
398.93	718.54
399.12	748.97
399.32	770.04
399.51	706.84
399.70	730.25
399.90	732.59
400.09	856.64
400.28	784.08
400.47	777.06
400.67	725.57
400.86	840.25
401.05	779.40
401.24	868.34
401.44	765.36
401.63	770.04
401.82	835.57
402.01	828.55
402.21	791.10
402.40	894.08
402.59	870.68
402.78	847.27
402.97	851.96
403.17	877.70
403.36	917.49
403.55	898.77
403.74	856.64
403.93	873.02
404.13	966.64
404.32	938.55
404.51	1020.47
404.70	1001.75
404.89	938.55
405.09	1048.56
405.28	1001.75
405.47	947.92
405.66	1057.92
405.85	915.15
406.05	1043.88
406.24	990.05
406.43	968.98
406.62	903.45
406.81	961.96
407.00	1018.13
407.20	1006.43
407.39	985.37
407.58	1039.20
407.77	1160.91
407.96	1050.90
408.15	1001.75
408.34	1135.16
408.54	1142.18
408.73	1135.16
408.92	1130.48
409.11	1184.31
409.30	1188.99
409.49	1156.22
409.68	1214.74
409.87	1210.06
410.07	1217.08
410.26	1249.85
410.45	1249.85
410.64	1301.34
410.83	1284.95
411.02	1217.08
411.21	1275.59
411.40	1291.98
411.59	1249.85
411.78	1366.87
411.98	1228.78
412.17	1299.00
412.36	1373.89
412.55	1289.64
412.74	1418.36
412.93	1474.54
413.12	1317.72
413.31	1481.56
413.50	1504.96
413.69	1423.05
413.88	1411.34
414.07	1558.80
414.26	1488.58
414.45	1490.92
414.64	1519.01
414.83	1540.07
415.02	1720.29
415.22	1577.52
415.41	1652.42
415.60	1596.25
415.79	1570.50
415.98	1500.28
416.17	1710.93
416.36	1598.59
416.55	1533.05
416.74	1631.35
416.93	1722.63
417.12	1710.93
417.31	1746.04
417.50	1739.02
417.69	1802.21
417.88	1795.19
418.07	1830.30
418.26	1858.39
418.45	1832.64
418.64	1895.83
418.83	1839.66
419.02	1877.11
419.21	1811.57
419.39	2005.84
419.58	1870.09
419.77	1818.60
419.96	1755.40
420.15	1907.54
420.34	2001.16
420.53	1893.49
420.72	1916.90
420.91	1933.28
421.10	1874.77
421.29	2024.56
421.48	1921.58
421.67	2073.71
421.86	1928.60
422.05	2010.52
422.24	2092.44
422.43	1928.60
422.61	2099.46
422.80	2132.23
422.99	1998.82
423.18	2162.66
423.37	2054.99
423.56	2073.71
423.75	2080.74
423.94	2085.42
424.13	1916.90
424.32	1996.48
424.50	2181.38
424.69	2186.06
424.88	2174.36
425.07	2141.59
425.26	2054.99
425.45	2165.00
425.64	2200.10
425.83	2062.01
426.01	1980.09
426.20	2200.10
426.39	2008.18
426.58	2134.57
426.77	2169.68
426.96	2073.71
427.15	2216.49
427.33	2169.68
427.52	2165.00
427.71	2244.57
427.90	2200.10
428.09	2204.78
428.28	2190.74
428.46	2303.09
428.65	2319.47
428.84	2385.01
429.03	2244.57
429.22	2157.97
429.40	2394.37
429.59	2293.72
429.78	2265.64
429.97	2160.31
430.16	2242.23
430.34	2373.30
430.53	2459.90
430.72	2413.09
430.91	2392.03
431.10	2335.85
431.28	2420.11
431.47	2399.05
431.66	2420.11
431.85	2331.17
432.03	2560.55
432.22	2455.22
432.41	2471.61
432.60	2576.93
432.79	2473.95
432.97	2523.10
433.16	2483.31
433.35	2588.63
433.54	2558.21
433.72	2597.99
433.91	2530.12
434.10	2614.38
434.28	2560.55
434.47	2548.84
434.66	2539.48
434.85	2696.30
435.03	2710.34
435.22	2693.96
435.41	2857.79
435.59	2771.19
435.78	2708.00
435.97	2689.28
436.16	2796.94
436.34	2705.66
436.53	2754.81
436.72	2904.60
436.90	2808.64
437.09	2848.43
437.28	2761.83
437.46	2782.90
437.65	2722.04
437.84	2796.94
438.02	2768.85
438.21	2839.07
438.40	2916.31
438.58	3023.97
438.77	2953.76
438.96	2935.03
439.14	3150.36
439.33	2972.48
439.52	3014.61
439.70	3166.74
439.89	3028.65
440.08	3089.51
440.26	3155.04
440.45	3089.51
440.63	3225.26
440.82	3215.90
441.01	3227.60
441.19	3325.90
441.38	3337.60
441.57	3297.81
441.75	3328.24
441.94	3281.43
442.12	3300.16
442.31	3342.28
442.50	3454.63
442.68	3398.46
442.87	3398.46
443.05	3475.70
443.24	3566.98
443.43	3358.67
443.61	3478.04
443.80	3529.53
443.98	3300.16
444.17	3384.41
444.35	3550.59
444.54	3557.61
444.73	3492.08
444.91	3590.38
445.10	3501.44
445.28	3463.99
445.47	3520.17
445.65	3658.26
445.84	3709.75
446.02	3543.57
446.21	3555.27
446.39	3606.77
446.58	3595.06
446.77	3653.58
446.95	3545.91
447.14	3653.58
447.32	3616.13
447.51	3524.85
447.69	3623.15
447.88	3625.49
448.06	3639.53
448.25	3555.27
448.43	3623.15
448.62	3597.40
448.80	3574.00
448.99	3644.21
449.17	3712.09
449.36	3735.50
449.54	3765.92
449.73	3655.92
449.91	3768.26
450.10	3737.84
450.28	3936.78
450.46	3960.19
450.65	3882.95
450.83	3836.14
451.02	4035.08
451.20	3854.86
451.39	3866.56
451.57	3974.23
451.76	3873.59
451.94	3976.57
452.13	4021.04
452.31	3896.99
452.49	3819.75
452.68	3922.74
452.86	4002.32
453.05	4161.47
453.23	4079.55
453.42	4100.62
453.60	3915.72
453.78	4023.38
453.97	4037.42
454.15	4100.62
454.34	4184.88
454.52	4037.42
454.70	4215.30
454.89	4229.35
455.07	4168.49
455.26	4222.33
455.44	4222.33
455.62	4184.88
455.81	4098.28
455.99	4322.97
456.17	4170.83
456.36	4297.22
456.54	4301.90
456.73	4386.16
456.91	4524.26
457.09	4538.30
457.28	4458.72
457.46	4301.90
457.64	4454.04
457.83	4505.53
458.01	4418.93
458.19	4484.47
458.38	4479.79
458.56	4601.49
458.74	4610.86
458.93	4489.15
459.11	4564.04
459.29	4514.89
459.48	4697.46
459.66	4528.94
459.84	4737.24
460.03	4643.62
460.21	4594.47
460.39	4683.41
460.57	4629.58
460.76	4652.98
460.94	4678.73
461.12	4674.05
461.31	4667.03
461.49	4840.23
461.67	4734.90
461.85	4849.59
462.04	4807.46
462.22	5104.71
462.40	4917.47
462.59	4896.40
462.77	4922.15
462.95	4865.97
463.13	4926.83
463.32	5020.45
463.50	4990.02
463.68	5027.47
463.86	5102.37
464.05	4915.12
464.23	4968.96
464.41	5069.60
464.59	5004.07
464.78	5029.81
464.96	5053.22
465.14	5036.83
465.32	5018.11
465.50	5338.76
465.69	5186.63
465.87	5078.96
466.05	5121.09
466.23	5121.09
466.41	5270.89
466.60	5207.69
466.78	5181.95
466.96	5114.07
467.14	5020.45
467.32	5282.59
467.51	5310.68
467.69	5298.97
467.87	5261.52
468.05	5343.44
468.23	5320.04
468.41	5289.61
468.60	5359.83
468.78	5467.49
468.96	5408.98
469.14	5526.00
469.32	5373.87
469.50	5350.46
469.69	5643.03
469.87	5509.62
470.05	5570.48
470.23	5507.28
470.41	5533.03
470.59	5540.05
470.77	5708.57
470.95	5753.04
471.14	5767.08
471.32	5535.37
471.50	5757.72
471.68	5734.31
471.86	5811.55
472.04	5701.54
472.22	5846.66
472.40	5832.62
472.58	5982.41
472.77	5776.44
472.95	5902.83
473.13	6279.66
473.31	6008.16
473.49	6040.92
473.67	6141.57
473.85	6134.54
474.03	6008.16
474.21	6300.72
474.39	6305.40
474.57	6223.48
474.75	6389.66
474.93	6286.68
475.12	6392.00
475.30	6441.15
475.48	6441.15
475.66	6356.90
475.84	6541.80
476.02	6656.48
476.20	6665.85
476.38	6548.82
476.56	6829.68
476.74	6869.47
476.92	6670.53
477.10	6736.06
477.28	6736.06
477.46	6965.43
477.64	6890.54
477.82	7129.27
478.00	7136.29
478.18	7030.97
478.36	7119.91
478.54	7258.00
478.72	7351.62
478.90	7403.11
479.08	7405.46
479.26	7400.77
479.44	7405.46
479.62	7618.44
479.80	7426.52
479.98	7712.07
480.16	7871.22
480.34	7882.92
480.52	7770.58
480.70	7913.35
480.88	7822.07
481.06	8039.74
481.24	7878.24
481.41	8105.28
481.59	8264.43
481.77	8259.75
481.95	8128.68
482.13	8496.14
482.31	8456.36
482.49	8510.19
482.67	8599.13
482.85	8631.90
483.03	8755.94
483.21	8772.33
483.39	8879.99
483.57	9015.74
483.74	8889.35
483.92	9078.94
484.10	9053.19
484.28	9312.99
484.46	9376.19
484.64	9713.22
484.82	9291.93
485.00	9640.67
485.18	9511.94
485.35	9736.63
485.53	9720.24
485.71	9830.25
485.89	9980.04
486.07	9867.70
486.25	9813.87
486.43	9834.93
486.61	10092.39
486.78	10303.04
486.96	10289.00
487.14	10497.30
487.32	10516.03
487.50	10534.75
487.68	10471.56
487.85	10663.48
488.03	10796.89
488.21	10869.45
488.39	10878.81
488.57	10998.18
488.75	11005.20
488.92	11213.51
489.10	11407.77
489.28	11431.18
489.46	11496.71
489.64	11353.94
489.81	11800.98
489.99	11819.71
490.17	11693.32
490.35	11983.54
490.53	11817.36
490.70	12123.98
490.88	11833.75
491.06	12018.65
491.24	11946.09
491.41	12329.94
491.59	12215.26
491.77	12517.18
491.95	12886.99
492.13	12837.84
492.30	12706.77
492.48	12542.93
492.66	12784.01
492.84	12870.61
493.01	12933.80
493.19	12924.44
493.37	13385.52
493.54	13247.43
493.72	13437.02
493.90	13502.55
494.08	13446.38
494.25	13568.09
494.43	13556.38
494.61	13671.07
494.79	13785.76
494.96	13767.03
495.14	13748.31
495.32	13834.91
495.49	14050.24
495.67	14008.11
495.85	14249.18
496.02	14312.38
496.20	14415.36
496.38	14314.72
496.55	14335.78
496.73	14661.12
496.91	14394.29
497.09	14787.50
497.26	14960.70
497.44	14740.69
497.62	14920.92
497.79	15262.63
497.97	15344.55
498.14	15283.70
498.32	15328.17
498.50	15534.14
498.67	15566.90
498.85	15379.66
499.03	15529.45
499.20	15796.28
499.38	15707.34
499.56	15620.74
499.73	15882.88
499.91	15990.54
500.08	15899.26
500.26	15716.70
500.44	15941.39
500.61	15829.04
500.79	16205.87
500.97	16322.90
501.14	16500.78
501.32	16636.53
501.49	16374.39
501.67	16332.26
501.84	16489.07
502.02	16648.23
502.20	16610.78
502.37	16706.74
502.55	16819.09
502.72	16596.74
502.90	16901.01
503.07	16615.46
503.25	16842.50
503.43	16755.90
503.60	17392.52
503.78	17114.00
503.95	17025.06
504.13	17322.30
504.30	17376.14
504.48	17305.92
504.65	17310.60
504.83	17544.66
505.01	17783.39
505.18	17694.45
505.36	17893.40
505.53	17649.98
505.71	17720.20
505.88	17830.20
506.06	17898.08
506.23	17657.00
506.41	18040.85
506.58	18136.81
506.76	18012.76
506.93	18141.49
507.11	18101.70
507.28	18277.24
507.46	18249.16
507.63	18263.20
507.81	18288.95
507.98	18305.33
508.16	18696.20
508.33	18595.56
508.50	18487.89
508.68	18504.28
508.85	19000.47
509.03	18845.99
509.20	18768.76
509.38	18913.87
509.55	19087.07
509.73	19002.81
509.90	18939.62
510.08	19260.27
510.25	19073.03
510.42	19269.63
510.60	18956.00
510.77	19477.94
510.95	19297.72
511.12	19393.68
511.30	19276.65
511.47	19669.86
511.64	19297.72
511.82	19690.93
511.99	19845.40
512.17	19793.91
512.34	19953.07
512.51	19646.46
512.69	20229.25
512.86	19648.80
513.04	19805.61
513.21	20105.20
513.38	20147.33
513.56	20315.85
513.73	20233.93
513.90	20243.29
514.08	20229.25
514.25	20184.78
514.43	20484.37
514.60	20336.91
514.77	20758.21
514.95	20662.25
515.12	20460.96
515.29	20500.75
515.47	20772.25
515.64	20547.56
515.81	20755.87
515.99	21027.37
516.16	21120.99
516.33	20884.60
516.51	21109.29
516.68	20854.17
516.85	20908.01
517.03	21120.99
517.20	21184.19
517.37	21415.90
517.54	21539.95
517.72	21376.11
517.89	21130.36
518.06	21422.92
518.24	21214.62
518.41	21270.79
518.58	21689.74
518.75	21434.63
518.93	21647.61
519.10	21720.17
519.27	21647.61
519.45	21769.32
519.62	21994.01
519.79	21656.98
519.96	21687.40
520.14	22139.13
520.31	21839.54
520.48	21788.05
520.65	22136.79
520.83	22097.00
521.00	22394.25
521.17	21986.99
521.34	21872.31
521.52	22522.98
521.69	22277.22
521.86	22735.96
522.03	22808.52
522.20	22607.23
522.38	22572.13
522.55	22347.44
522.72	22555.74
522.89	22565.10
523.07	23047.26
523.24	22768.73
523.41	22792.14
523.58	22623.62
523.75	23213.43
523.92	22792.14
524.10	23225.14
524.27	22984.06
524.44	22965.34
524.61	23103.43
524.78	23239.18
524.96	23295.35
525.13	23257.90
525.30	23300.03
525.47	23534.09
525.64	23541.11
525.81	23550.47
525.98	23569.19
526.16	23796.23
526.33	23838.36
526.50	23852.40
526.67	23653.45
526.84	23665.16
527.01	23784.52
527.18	23887.51
527.36	23953.04
527.53	23931.98
527.70	24425.83
527.87	23964.75
528.04	24140.29
528.21	24205.82
528.38	24154.33
528.55	24418.81
528.72	24100.50
528.89	24297.10
529.07	23976.45
529.24	24346.25
529.41	24554.56
529.58	24224.54
529.75	24140.29
529.92	24187.10
530.09	24411.79
530.26	24615.41
530.43	24793.29
530.60	24458.60
530.77	24556.90
530.94	24727.76
531.11	24699.67
531.28	24680.95
531.46	24769.89
531.63	24793.29
531.80	24730.10
531.97	25083.52
532.14	25074.16
532.31	25191.19
532.48	24954.79
532.65	25090.54
532.82	25032.03
532.99	24931.39
533.16	25256.72
533.33	25539.93
533.50	25701.42
533.67	25340.98
533.84	25195.87
534.01	25394.81
534.18	24854.15
534.35	25397.15
534.52	25425.24
534.69	25572.69
534.86	25425.24
535.03	25261.40
535.20	25715.47
535.37	25907.39
535.54	25537.59
535.71	25663.97
535.88	25514.18
536.05	25429.92
536.22	25811.43
536.38	25858.24
536.55	26185.91
536.72	25914.41
536.89	25696.74
537.06	26071.23
537.23	25640.57
537.40	26073.57
537.57	25804.41
537.74	26277.19
537.91	26253.79
538.08	26410.60
538.25	26073.57
538.42	25715.47
538.59	26228.04
538.75	26148.46
538.92	26092.29
539.09	26197.62
539.26	26230.38
539.43	26455.08
539.60	26518.27
539.77	26469.12
539.94	26572.10
540.11	26340.39
540.28	26731.26
540.44	26773.39
540.61	26436.35
540.78	26338.05
540.95	26611.89
541.12	26520.61
541.29	26824.88
541.46	26944.25
541.62	27131.49
541.79	26759.34
541.96	26494.86
542.13	26527.63
542.30	26859.99
542.47	27199.37
542.63	26934.88
542.80	27459.16
542.97	27363.20
543.14	27262.56
543.31	27005.10
543.48	27330.44
543.64	27845.35
543.81	27601.94
543.98	27358.52
544.15	27484.91
544.32	27831.31
544.48	27770.46
544.65	27505.98
544.82	27648.75
544.99	27201.71
545.16	27386.61
545.32	27543.42
545.49	28271.33
545.66	28109.83
545.83	28163.67
546.00	28240.90
546.16	27323.41
546.33	27850.03
546.50	27538.74
546.67	27594.92
546.83	27653.43
547.00	27854.72
547.17	27983.44
547.34	27728.33
547.50	27917.91
547.67	28243.24
547.84	28194.09
548.00	28205.80
548.17	28271.33
548.34	28004.51
548.51	28238.56
548.67	28444.53
548.84	28531.13
549.01	28531.13
549.18	28367.29
549.34	28493.68
549.51	28278.35
549.68	28727.74
549.84	28301.76
550.01	28774.55
550.18	28341.55
550.34	28538.15
550.51	28814.34
550.68	28718.37
550.84	28397.72
551.01	28297.08
551.18	28442.19
551.34	28217.50
551.51	28313.46
551.68	28809.65
551.84	28772.21
552.01	28514.75
552.18	28886.89
552.34	28542.83
552.51	29069.45
552.68	29181.80
552.84	28762.84
553.01	29039.03
553.18	29308.19
553.34	29017.96
553.51	29113.92
553.67	29586.71
553.84	28884.55
554.01	29034.35
554.17	29127.97
554.34	29046.05
554.51	29032.00
554.67	29214.57
554.84	28896.25
555.00	29277.76
555.17	29142.01
555.33	29036.69
555.50	29312.87
555.67	29198.18
555.83	29177.12
556.00	29120.95
556.16	29881.62
556.33	29509.47
556.50	29701.40
556.66	29785.66
556.83	29294.14
556.99	29668.63
557.16	29549.26
557.32	29724.80
557.49	29635.86
557.65	29364.36
557.82	29385.43
557.98	29900.34
558.15	29628.84
558.32	29783.32
558.48	29881.62
558.65	29607.78
558.81	29579.69
558.98	29443.94
559.14	29701.40
559.31	29539.90
559.47	29584.37
559.64	29804.38
559.80	30005.67
559.97	29745.87
560.13	29699.06
560.30	29853.53
560.46	30132.06
560.63	30050.14
560.79	30246.74
560.96	30328.66
561.12	29654.59
561.29	29940.13
561.45	30087.59
561.61	29991.62
561.78	29921.41
561.94	30057.16
562.11	30422.28
562.27	30134.40
562.44	30394.20
562.60	30146.10
562.77	30040.78
562.93	30071.20
563.10	30192.91
563.26	30113.33
563.42	30401.22
563.59	30206.95
563.75	30230.36
563.92	30284.19
564.08	30160.14
564.24	30321.64
564.41	30188.23
564.57	29961.20
564.74	30490.16
564.90	30663.36
565.07	30731.23
565.23	30029.07
565.39	30469.09
565.56	30384.83
565.72	30218.66
565.88	30457.39
566.05	30206.95
566.21	30338.02
566.38	30529.95
566.54	29809.06
566.70	30995.71
566.87	30881.03
567.03	30710.17
567.19	31166.57
567.36	31157.21
567.52	30663.36
567.68	30583.78
567.85	30593.14
568.01	30742.94
568.17	30593.14
568.34	30635.27
568.50	30569.74
568.66	30759.32
568.83	30845.92
568.99	31037.84
569.15	30354.41
569.32	30726.55
569.48	30277.17
569.64	30693.79
569.81	30441.01
569.97	30785.07
570.13	30878.69
570.30	30930.18
570.46	30593.14
570.62	30834.22
570.78	31257.85
570.95	30621.23
571.11	30766.34
571.27	30492.50
571.43	30171.85
571.60	30883.37
571.76	30646.97
571.92	30595.48
572.09	30511.22
572.25	30632.93
572.41	30838.90
572.57	31208.70
572.74	30955.93
572.90	30986.35
573.06	30621.23
573.22	30878.69
573.38	30602.50
573.55	30501.86
573.71	31087.00
573.87	30941.88
574.03	30792.09
574.20	30590.80
574.36	30808.47
574.52	30923.16
574.68	30700.81
574.84	30843.58
575.01	31117.42
575.17	31185.30
575.33	30923.16
575.49	30895.07
575.65	30925.50
575.82	31084.65
575.98	30948.90
576.14	31438.08
576.30	30902.09
576.46	31108.06
576.62	30731.23
576.79	30742.94
576.95	31122.10
577.11	31110.40
577.27	31054.23
577.43	31044.87
577.59	31257.85
577.75	31178.28
577.92	30799.11
578.08	30686.76
578.24	30859.96
578.40	31126.78
578.56	30916.14
578.72	30892.73
578.88	31274.24
579.04	31297.64
579.21	31061.25
579.37	31138.49
579.53	31442.76
579.69	31187.64
579.85	31014.44
580.01	30824.86
580.17	30998.06
580.33	31021.46
580.49	31119.76
580.65	31101.04
580.82	31711.92
580.98	31087.00
581.14	31178.28
581.30	31615.96
581.46	30771.02
581.62	31204.02
581.78	31108.06
581.94	31091.68
582.10	31482.55
582.26	30920.82
582.42	30817.83
582.58	31386.58
582.74	31192.32
582.90	31063.59
583.06	31168.91
583.22	30953.58
583.38	31213.38
583.54	31185.30
583.70	31260.20
583.86	30794.43
584.02	31115.08
584.18	31068.27
584.34	31421.69
584.50	31508.29
584.66	31119.76
584.82	31250.83
584.98	31536.38
585.14	31370.20
585.30	31005.08
585.46	31077.63
585.62	30965.29
585.78	31192.32
585.94	30969.97
586.10	31512.97
586.26	31508.29
586.42	31187.64
586.58	31887.46
586.74	31192.32
586.90	31358.50
587.06	30604.84
587.22	31122.10
587.38	31005.08
587.54	31367.86
587.70	31330.41
587.86	31288.28
588.02	31637.02
588.18	31728.30
588.34	31702.56
588.49	31543.40
588.65	31391.26
588.81	31278.92
588.97	31501.27
589.13	31538.72
589.29	31498.93
589.45	31803.20
589.61	31534.04
589.77	31566.81
589.93	31370.20
590.08	31782.13
590.24	31716.60
590.40	32041.93
590.56	31852.35
590.72	31400.63
590.88	31342.11
591.04	31421.69
591.20	31688.51
591.35	31772.77
591.51	32226.84
591.67	32081.72
591.83	31971.72
