SpectraSuite Data File
++++++++++++++++++++++++++++++++++++
Date: Fri Oct 18 13:58:30 GMT-05:00 2013
User: bianchi
Dark Spectrum Present: No
Reference Spectrum Present: No
Number of Sampled Component Spectra: 1
Spectrometers: USB2+H05261
Integration Time (usec): 50000 (USB2+H05261)
Spectra Averaged: 1 (USB2+H05261)
Boxcar Smoothing: 0 (USB2+H05261)
Correct for Electrical Dark: No (USB2+H05261)
Strobe/Lamp Enabled: No (USB2+H05261)
Correct for Detector Non-linearity: No (USB2+H05261)
Correct for Stray Light: No (USB2+H05261)
Number of Pixels in Processed Spectrum: 2048
>>>>>Begin Processed Spectral Data<<<<<
365.73	0.00
365.92	0.00
366.12	0.00
366.32	0.00
366.52	0.00
366.72	0.00
366.91	0.00
367.11	0.00
367.31	0.00
367.51	0.00
367.70	0.00
367.90	0.00
368.10	0.00
368.30	0.00
368.49	0.00
368.69	0.00
368.89	0.00
369.09	0.00
369.28	0.00
369.48	0.00
369.68	0.00
369.87	0.00
370.07	0.00
370.27	0.00
370.47	0.00
370.66	39.79
370.86	100.64
371.06	140.43
371.25	107.66
371.45	58.51
371.65	187.24
371.84	21.06
372.04	112.35
372.24	140.43
372.44	173.20
372.63	224.69
372.83	262.14
373.03	154.48
373.22	187.24
373.42	229.37
373.62	234.05
373.81	152.13
374.01	227.03
374.21	205.97
374.40	201.29
374.60	243.42
374.79	266.82
374.99	236.39
375.19	301.93
375.38	315.97
375.58	250.44
375.78	175.54
375.97	231.71
376.17	205.97
376.37	287.89
376.56	243.42
376.76	297.25
376.95	273.84
377.15	241.08
377.35	259.80
377.54	285.55
377.74	304.27
377.93	220.01
378.13	264.48
378.33	306.61
378.52	262.14
378.72	294.91
378.91	358.10
379.11	252.78
379.31	313.63
379.50	248.10
379.70	294.91
379.89	266.82
380.09	255.12
380.28	271.50
380.48	299.59
380.68	301.93
380.87	280.86
381.07	332.36
381.26	351.08
381.46	257.46
381.65	348.74
381.85	339.38
382.04	322.99
382.24	325.33
382.43	351.08
382.63	355.76
382.83	299.59
383.02	353.42
383.22	299.59
383.41	430.66
383.61	339.38
383.80	325.33
384.00	304.27
384.19	355.76
384.39	484.49
384.58	365.12
384.78	374.49
384.97	395.55
385.17	353.42
385.36	414.27
385.56	381.51
385.75	425.98
385.95	381.51
386.14	365.12
386.34	379.17
386.53	346.40
386.72	386.19
386.92	437.68
387.11	411.93
387.31	418.96
387.50	416.62
387.70	379.17
387.89	376.83
388.09	369.80
388.28	440.02
388.48	407.25
388.67	461.09
388.86	416.62
389.06	423.64
389.25	470.45
389.45	393.21
389.64	442.36
389.84	369.80
390.03	456.40
390.22	519.60
390.42	526.62
390.61	425.98
390.81	482.15
391.00	477.47
391.19	477.47
391.39	559.39
391.58	524.28
391.78	533.64
391.97	514.92
392.16	475.13
392.36	479.81
392.55	550.03
392.75	444.70
392.94	543.00
393.13	510.24
393.33	479.81
393.52	545.34
393.71	582.79
393.91	491.51
394.10	543.00
394.29	585.13
394.49	650.67
394.68	528.96
394.88	585.13
395.07	557.05
395.26	592.16
395.46	594.50
395.65	543.00
395.84	610.88
396.04	589.82
396.23	608.54
396.42	580.45
396.62	695.14
396.81	641.31
397.00	543.00
397.19	674.07
397.39	620.24
397.58	669.39
397.77	596.84
397.97	674.07
398.16	723.23
398.35	629.60
398.55	650.67
398.74	690.46
398.93	753.65
399.12	737.27
399.32	636.63
399.51	737.27
399.70	758.33
399.90	690.46
400.09	685.78
400.28	779.40
400.47	678.76
400.67	746.63
400.86	795.78
401.05	833.23
401.24	791.10
401.44	873.02
401.63	727.91
401.82	781.74
402.01	751.31
402.21	828.55
402.40	807.48
402.59	800.46
402.78	835.57
402.97	858.98
403.17	786.42
403.36	830.89
403.55	784.08
403.74	908.13
403.93	800.46
404.13	833.23
404.32	875.36
404.51	851.96
404.70	854.30
404.89	795.78
405.09	931.53
405.28	814.51
405.47	976.00
405.66	903.45
405.85	894.08
406.05	997.07
406.24	971.32
406.43	952.60
406.62	990.05
406.81	1020.47
407.00	985.37
407.20	919.83
407.39	1039.20
407.58	1041.54
407.77	1022.81
407.96	1053.24
408.15	952.60
408.34	1011.11
408.54	1048.56
408.73	992.39
408.92	1146.86
409.11	1053.24
409.30	1088.35
409.49	1088.35
409.68	1097.71
409.87	1160.91
410.07	1142.18
410.26	978.34
410.45	1196.01
410.64	1090.69
410.83	1191.33
411.02	1174.95
411.21	1172.61
411.40	1273.25
411.59	1277.93
411.78	1228.78
411.98	1242.82
412.17	1226.44
412.36	1228.78
412.55	1214.74
412.74	1219.42
412.93	1327.08
413.12	1343.47
413.31	1296.66
413.50	1289.64
413.69	1352.83
413.88	1320.06
414.07	1416.02
414.26	1437.09
414.45	1387.94
414.64	1350.49
414.83	1476.88
415.02	1416.02
415.22	1554.12
415.41	1544.75
415.60	1439.43
415.79	1570.50
415.98	1479.22
416.17	1549.43
416.36	1547.09
416.55	1624.33
416.74	1542.41
416.93	1596.25
417.12	1626.67
417.31	1659.44
417.50	1687.53
417.69	1739.02
417.88	1706.25
418.07	1778.81
418.26	1748.38
418.45	1680.50
418.64	1792.85
418.83	1802.21
419.02	1767.10
419.21	1860.73
419.39	1827.96
419.58	1652.42
419.77	1867.75
419.96	1863.07
420.15	1710.93
420.34	1851.36
420.53	1820.94
420.72	1921.58
420.91	1860.73
421.10	1834.98
421.29	1722.63
421.48	1937.96
421.67	1853.70
421.86	1851.36
422.05	1919.24
422.24	1912.22
422.43	1830.30
422.61	1980.09
422.80	1982.43
422.99	1996.48
423.18	1909.88
423.37	1989.46
423.56	1916.90
423.75	1914.56
423.94	1952.01
424.13	1818.60
424.32	1813.92
424.50	1998.82
424.69	1998.82
424.88	1989.46
425.07	1914.56
425.26	1989.46
425.45	2038.61
425.64	1940.30
425.83	1919.24
426.01	2010.52
426.20	2001.16
426.39	1977.75
426.58	2057.33
426.77	1959.03
426.96	2050.31
427.15	2024.56
427.33	1973.07
427.52	2101.80
427.71	2031.58
427.90	2111.16
428.09	2094.78
428.28	2235.21
428.46	2186.06
428.65	2127.55
428.84	2174.36
429.03	2188.40
429.22	2050.31
429.40	2237.55
429.59	2172.02
429.78	2029.24
429.97	2136.91
430.16	2183.72
430.34	2162.66
430.53	2197.76
430.72	2310.11
430.91	2228.19
431.10	2289.04
431.28	2230.53
431.47	2427.14
431.66	2326.49
431.85	2195.42
432.03	2483.31
432.22	2441.18
432.41	2485.65
432.60	2427.14
432.79	2352.24
432.97	2312.45
433.16	2422.45
433.35	2399.05
433.54	2499.69
433.72	2525.44
433.91	2387.35
434.10	2387.35
434.28	2380.32
434.47	2429.48
434.66	2530.12
434.85	2546.50
435.03	2492.67
435.22	2616.72
435.41	2754.81
435.59	2579.27
435.78	2569.91
435.97	2562.89
436.16	2621.40
436.34	2600.34
436.53	2607.36
436.72	2675.23
436.90	2612.04
437.09	2719.70
437.28	2537.14
437.46	2605.02
437.65	2682.25
437.84	2644.81
438.02	2710.34
438.21	2717.36
438.40	2731.41
438.58	2832.05
438.77	2778.22
438.96	2752.47
439.14	2885.88
439.33	2881.20
439.52	2988.86
439.70	3002.91
439.89	2956.10
440.08	2935.03
440.26	2986.52
440.45	2932.69
440.63	3077.80
440.82	2963.12
441.01	3049.72
441.19	3063.76
441.38	3047.38
441.57	3091.85
441.75	3227.60
441.94	3164.40
442.12	3152.70
442.31	3129.30
442.50	3152.70
442.68	3208.87
442.87	3239.30
443.05	3220.58
443.24	3241.64
443.43	3295.47
443.61	3262.71
443.80	3433.57
443.98	3363.35
444.17	3276.75
444.35	3435.91
444.54	3365.69
444.73	3295.47
444.91	3410.16
445.10	3370.37
445.28	3316.54
445.47	3236.96
445.65	3295.47
445.84	3389.10
446.02	3449.95
446.21	3391.44
446.39	3307.18
446.58	3466.33
446.77	3307.18
446.95	3314.20
447.14	3405.48
447.32	3545.91
447.51	3386.76
447.69	3370.37
447.88	3391.44
448.06	3552.93
448.25	3344.63
448.43	3480.38
448.62	3421.86
448.80	3363.35
448.99	3410.16
449.17	3604.42
449.36	3466.33
449.54	3513.14
449.73	3662.94
449.91	3574.00
450.10	3559.95
450.28	3611.45
450.46	3566.98
450.65	3513.14
450.83	3515.48
451.02	3684.00
451.20	3695.71
451.39	3639.53
451.57	3646.55
451.76	3613.79
451.94	3831.46
452.13	3721.45
452.31	3782.31
452.49	3651.24
452.68	3679.32
452.86	3730.81
453.05	3749.54
453.23	3969.55
453.42	3904.01
453.60	3756.56
453.78	3833.80
453.97	3829.12
454.15	3892.31
454.34	3763.58
454.52	3733.15
454.70	3845.50
454.89	3904.01
455.07	3840.82
455.26	3932.10
455.44	3925.08
455.62	3904.01
455.81	4014.02
455.99	4112.32
456.17	3927.42
456.36	4105.30
456.54	4177.86
456.73	4032.74
456.91	4145.09
457.09	4140.41
457.28	4372.12
457.46	4210.62
457.64	4262.12
457.83	4234.03
458.01	4154.45
458.19	4348.72
458.38	4315.95
458.56	4564.04
458.74	4241.05
458.93	4276.16
459.11	4320.63
459.29	4430.63
459.48	4358.08
459.66	4456.38
459.84	4365.10
460.03	4404.89
460.21	4435.32
460.39	4315.95
460.57	4432.97
460.76	4390.84
460.94	4587.45
461.12	4456.38
461.31	4512.55
461.49	4454.04
461.67	4528.94
461.85	4573.41
462.04	4643.62
462.22	4573.41
462.40	4678.73
462.59	4770.01
462.77	4599.15
462.95	4671.71
463.13	4734.90
463.32	4723.20
463.50	4699.80
463.68	4725.54
463.86	4657.67
464.05	4723.20
464.23	4774.69
464.41	4833.21
464.59	4554.68
464.78	4940.87
464.96	4798.10
465.14	4636.60
465.32	4814.48
465.50	4973.64
465.69	4847.25
465.87	4755.97
466.05	4943.21
466.23	4842.57
466.41	4894.06
466.60	5036.83
466.78	4887.04
466.96	4894.06
467.14	4931.51
467.32	4947.89
467.51	5029.81
467.69	4919.81
467.87	5069.60
468.05	5111.73
468.23	4936.19
468.41	5043.85
468.60	5123.43
468.78	5076.62
468.96	5142.16
469.14	5214.71
469.32	5266.21
469.50	5107.05
469.69	5219.39
469.87	5373.87
470.05	5348.12
470.23	5320.04
470.41	5301.31
470.59	5238.12
470.77	5273.23
470.95	5212.37
471.14	5481.53
471.32	5329.40
471.50	5596.22
471.68	5373.87
471.86	5518.98
472.04	5511.96
472.22	5624.31
472.40	5472.17
472.58	5434.72
472.77	5563.45
472.95	5668.78
473.13	5771.76
473.31	5680.48
473.49	5717.93
473.67	5598.56
473.85	5526.00
474.03	5720.27
474.21	5818.57
474.39	5921.56
474.57	6010.50
474.75	5987.09
474.93	5902.83
475.12	5935.60
475.30	6111.14
475.48	6073.69
475.66	6085.39
475.84	5937.94
476.02	6155.61
476.20	6228.17
476.38	6382.64
476.56	6333.49
476.74	6431.79
476.92	6377.96
477.10	6282.00
477.28	6230.51
477.46	6445.84
477.64	6518.39
477.82	6682.23
478.00	6665.85
478.18	6815.64
478.36	6822.66
478.54	6761.81
478.72	6808.62
478.90	7042.67
479.08	7035.65
479.26	7192.47
479.44	7052.03
479.62	7150.34
479.80	7140.97
479.98	7129.27
480.16	7087.14
480.34	7325.88
480.52	7424.18
480.70	7517.80
480.88	7386.73
481.06	7536.52
481.24	7534.18
481.41	7618.44
481.59	7768.24
481.77	7932.08
481.95	7936.76
482.13	7843.14
482.31	7948.46
482.49	8056.12
482.67	8065.49
482.85	8191.88
483.03	8201.24
483.21	8386.14
483.39	8414.23
483.57	8468.06
483.74	8451.67
483.92	8564.02
484.10	8545.30
484.28	8741.90
484.46	8655.30
484.64	8947.87
484.82	8674.03
485.00	8933.82
485.18	8826.16
485.35	9312.99
485.53	9214.69
485.71	9121.07
485.89	9418.32
486.07	9170.22
486.25	9525.98
486.43	9291.93
486.61	9390.23
486.78	9755.35
486.96	9481.51
487.14	9820.89
487.32	9692.16
487.50	9916.85
487.68	9865.36
487.85	9937.91
488.03	9998.77
488.21	10251.55
488.39	10459.85
488.57	10303.04
488.75	10509.01
488.92	10691.57
489.10	10469.22
489.28	10642.42
489.46	10731.36
489.64	10832.00
489.81	11143.29
489.99	11009.88
490.17	10949.03
490.35	11084.78
490.53	11138.61
490.70	11124.57
490.88	11201.80
491.06	11646.51
491.24	11269.68
491.41	11370.32
491.59	11681.61
491.77	11513.10
491.95	11843.11
492.13	11906.31
492.30	12198.87
492.48	11892.26
492.66	12009.29
492.84	12140.36
493.01	12241.00
493.19	12107.59
493.37	12273.77
493.54	12493.78
493.72	12411.86
493.90	12617.83
494.08	12807.41
494.25	12762.94
494.43	12629.53
494.61	12896.35
494.79	12807.41
494.96	12936.14
495.14	12975.93
495.32	13226.37
495.49	13074.23
495.67	13373.82
495.85	13523.62
496.02	13547.02
496.20	13802.14
496.38	13453.40
496.55	13668.73
496.73	13933.21
496.91	13760.01
497.09	13980.02
497.26	14148.54
497.44	13816.18
497.62	14038.53
497.79	14232.80
497.97	13963.64
498.14	14497.28
498.32	14389.61
498.50	14307.69
498.67	14469.19
498.85	14506.64
499.03	14368.55
499.20	14831.97
499.38	14651.75
499.56	14857.72
499.73	15021.56
499.91	14759.42
500.08	14789.85
500.26	15059.01
500.44	15220.50
500.61	15246.25
500.79	15119.86
500.97	15459.24
501.14	15587.97
501.32	15468.60
501.49	15433.49
501.67	15552.86
501.84	15470.94
502.02	15686.27
502.20	15569.24
502.37	15653.50
502.55	15653.50
502.72	15892.24
502.90	15908.62
503.07	15688.61
503.25	15815.00
503.43	15604.35
503.60	16294.81
503.78	16154.38
503.95	16077.14
504.13	16350.98
504.30	16224.59
504.48	15939.05
504.65	16210.55
504.83	16643.55
505.01	16758.24
505.18	16444.60
505.36	16645.89
505.53	16610.78
505.71	16615.46
505.88	16725.47
506.06	16617.80
506.23	16599.08
506.41	16720.79
506.58	16844.84
506.76	17057.82
506.93	17046.12
507.11	16879.94
507.28	17008.67
507.46	17074.21
507.63	17247.41
507.81	17315.28
507.98	17172.51
508.16	17502.53
508.33	17137.40
508.50	17329.33
508.68	17614.87
508.85	17462.74
509.03	17397.20
509.20	18073.62
509.38	17771.69
509.55	17956.59
509.73	17844.24
509.90	17802.11
510.08	17930.84
510.25	17694.45
510.42	18319.37
510.60	17954.25
510.77	18281.92
510.95	18192.98
511.12	18321.71
511.30	18242.14
511.47	18228.09
511.64	18197.67
511.82	18480.87
511.99	18417.68
512.17	18815.57
512.34	18506.62
512.51	18988.77
512.69	18696.20
512.86	18714.92
513.04	18794.50
513.21	18679.82
513.38	19035.58
513.56	19054.30
513.73	18738.33
513.90	19157.28
514.08	18965.36
514.25	19190.05
514.43	19218.14
514.60	19339.85
514.77	19159.63
514.95	19405.38
515.12	19274.31
515.29	19337.51
515.47	19606.67
515.64	19566.88
515.81	19311.76
515.99	19594.96
516.16	19658.16
516.33	19613.69
516.51	19796.25
516.68	19793.91
516.85	19697.95
517.03	19847.74
517.20	20177.76
517.37	19934.34
517.54	20222.23
517.72	19960.09
517.89	20409.47
518.06	19861.79
518.24	19915.62
518.41	19995.20
518.58	20212.87
518.75	20198.82
518.93	20334.57
519.10	20362.66
519.27	20482.03
519.45	20297.13
519.62	20449.26
519.79	20386.07
519.96	20744.17
520.14	20793.32
520.31	20809.70
520.48	20720.76
520.65	20577.99
520.83	20917.37
521.00	20812.04
521.17	20872.90
521.34	20978.22
521.52	20982.90
521.69	20882.26
521.86	21062.48
522.03	21221.64
522.20	21422.92
522.38	21516.54
522.55	20938.43
522.72	21275.47
522.89	21427.60
523.07	21685.06
523.24	21600.80
523.41	21570.38
523.58	21310.58
523.75	21453.35
523.92	21453.35
524.10	21682.72
524.27	21523.57
524.44	21628.89
524.61	22068.91
524.78	21759.96
524.96	21844.22
525.13	21884.01
525.30	21537.61
525.47	22211.68
525.64	22085.30
525.81	22073.59
525.98	22167.21
526.16	22080.61
526.33	21986.99
526.50	22389.56
526.67	21958.91
526.84	22288.92
527.01	21963.59
527.18	21984.65
527.36	22478.50
527.53	22398.93
527.70	22883.42
527.87	22623.62
528.04	22389.56
528.21	22576.81
528.38	22361.48
528.55	22714.90
528.72	22714.90
528.89	22712.56
529.07	22745.33
529.24	22424.67
529.41	22801.50
529.58	23068.32
529.75	22747.67
529.92	22735.96
530.09	22941.93
530.26	22951.29
530.43	22822.56
530.60	22986.40
530.77	23014.49
530.94	22693.83
531.11	23075.34
531.28	23157.26
531.46	23023.85
531.63	23414.72
531.80	23335.14
531.97	23384.29
532.14	23599.62
532.31	23197.05
532.48	23271.95
532.65	23751.76
532.82	23515.36
532.99	23688.56
533.16	23651.11
533.33	23901.55
533.50	23674.52
533.67	23772.82
533.84	23641.75
534.01	23761.12
534.18	23475.57
534.35	23793.89
534.52	23686.22
534.69	24023.26
534.86	23894.53
535.03	24093.47
535.20	24037.30
535.37	24159.01
535.54	24133.26
535.71	24142.63
535.88	23882.83
536.05	23550.47
536.22	24484.34
536.38	24369.66
536.55	24610.73
536.72	24451.58
536.89	24322.85
537.06	24254.97
537.23	24439.87
537.40	24369.66
537.57	24346.25
537.74	24580.31
537.91	24561.58
538.08	24617.75
538.25	24671.59
538.42	24915.00
538.59	24613.07
538.75	24428.17
538.92	24479.66
539.09	24592.01
539.26	24659.88
539.43	24528.81
539.60	24830.74
539.77	24774.57
539.94	24652.86
540.11	24994.58
540.28	24727.76
540.44	24767.55
540.61	24765.21
540.78	24713.72
540.95	24971.18
541.12	25048.41
541.29	25135.01
541.46	25015.65
541.62	24755.85
541.79	25170.12
541.96	24545.20
542.13	24912.66
542.30	25205.23
542.47	25408.86
542.63	25612.48
542.80	25612.48
542.97	25891.01
543.14	25560.99
543.31	25504.82
543.48	25539.93
543.64	26022.08
543.81	25745.89
543.98	25891.01
544.15	25773.98
544.32	25532.90
544.48	25961.22
544.65	25954.20
544.82	25802.07
544.99	25481.41
545.16	26026.76
545.32	25762.28
545.49	26279.54
545.66	26209.32
545.83	26359.11
546.00	26052.50
546.16	25876.96
546.33	25549.29
546.50	25645.25
546.67	26029.10
546.83	25764.62
547.00	25837.17
547.17	25979.95
547.34	25940.16
547.50	26401.24
547.67	26635.30
547.84	26349.75
548.00	26277.19
548.17	26319.32
548.34	26073.57
548.51	26157.83
548.67	26202.30
548.84	26635.30
549.01	26300.60
549.18	26504.23
549.34	26384.86
549.51	26534.65
549.68	26579.12
549.84	26611.89
550.01	26714.87
550.18	26059.52
550.34	26707.85
550.51	26824.88
550.68	26944.25
550.84	26515.93
551.01	27190.00
551.18	26724.24
551.34	26466.78
551.51	26642.32
551.68	26682.11
551.84	27063.61
552.01	27007.44
552.18	26979.36
552.34	27143.19
552.51	27311.71
552.68	26967.65
552.84	26962.97
553.01	27112.77
553.18	26867.01
553.34	27314.05
553.51	26913.82
553.67	27072.98
553.84	27393.63
554.01	27283.62
554.17	27082.34
554.34	27140.85
554.51	27115.11
554.67	27108.08
554.84	27166.60
555.00	27138.51
555.17	27000.42
555.33	27447.46
555.50	27491.93
555.67	27234.47
555.83	27220.43
556.00	27374.91
556.16	27763.43
556.33	27564.49
556.50	27424.06
556.66	27922.59
556.83	27199.37
556.99	28074.73
557.16	27737.69
557.32	27487.25
557.49	27653.43
557.65	27639.39
557.82	27648.75
557.98	27288.31
558.15	27906.21
558.32	27761.09
558.48	27686.20
558.65	27791.52
558.81	28126.22
558.98	27358.52
559.14	28196.43
559.31	27821.95
559.47	27557.47
559.64	27569.17
559.80	27943.66
559.97	28025.57
560.13	27597.26
560.30	27924.93
560.46	28151.96
560.63	28201.11
560.79	27599.60
560.96	27625.34
561.12	27960.04
561.29	27824.29
561.45	28074.73
561.61	27967.06
561.78	27882.80
561.94	27566.83
562.11	28348.57
562.27	27866.42
562.44	28056.00
562.60	27946.00
562.77	28105.15
562.93	28034.94
563.10	28109.83
563.26	27976.42
563.42	28570.92
563.59	28292.40
563.75	28060.68
563.92	28194.09
564.08	28095.79
564.24	28013.87
564.41	28032.60
564.57	28280.69
564.74	28077.07
564.90	28453.89
565.07	28631.77
565.23	28065.36
565.39	28105.15
565.56	28231.54
565.72	28102.81
565.88	28304.10
566.05	28025.57
566.21	28123.88
566.38	28514.75
566.54	28259.63
566.70	28627.09
566.87	28940.72
567.03	28524.11
567.19	28671.56
567.36	28512.41
567.52	28173.03
567.68	28701.99
567.85	28154.30
568.01	28133.24
568.17	28203.46
568.34	28456.23
568.50	28491.34
568.66	28224.52
568.83	28690.29
568.99	28318.14
569.15	28680.92
569.32	28182.39
569.48	28304.10
569.64	28173.03
569.81	28566.24
569.97	28467.94
570.13	28758.16
570.30	28376.66
570.46	28790.93
570.62	28601.35
570.78	28343.89
570.95	28285.37
571.11	28683.27
571.27	28198.77
571.43	28477.30
571.60	28835.40
571.76	28435.17
571.92	28896.25
572.09	28804.97
572.25	28994.56
572.41	28659.86
572.57	28439.85
572.74	28854.12
572.90	28474.96
573.06	28467.94
573.22	28849.44
573.38	28954.77
573.55	28559.22
573.71	28931.36
573.87	28973.49
574.03	28840.08
574.20	28599.01
574.36	28730.08
574.52	28687.95
574.68	28814.34
574.84	28868.17
575.01	28652.84
575.17	29092.86
575.33	28601.35
575.49	29071.79
575.65	29046.05
575.82	28950.09
575.98	28802.63
576.14	28788.59
576.30	29158.39
576.46	28886.89
576.62	28570.92
576.79	28552.20
576.95	28987.53
577.11	29097.54
577.27	28622.41
577.43	28924.34
577.59	28989.88
577.75	29015.62
577.92	28723.05
578.08	28701.99
578.24	28734.76
578.40	29055.41
578.56	29247.33
578.72	29074.13
578.88	29127.97
579.04	28638.80
579.21	28968.81
579.37	29179.46
579.53	29303.51
579.69	28599.01
579.85	28800.29
580.01	29127.97
580.17	28573.26
580.33	28844.76
580.49	28858.81
580.65	29055.41
580.82	29043.71
580.98	28940.72
581.14	29228.61
581.30	28966.47
581.46	29113.92
581.62	28987.53
581.78	28821.36
581.94	29294.14
582.10	28678.58
582.26	28914.98
582.42	28917.32
582.58	28905.62
582.74	28917.32
582.90	28772.21
583.06	29336.27
583.22	29027.32
583.38	28896.25
583.54	29092.86
583.70	29362.02
583.86	29221.59
584.02	28800.29
584.18	28723.05
584.34	29235.63
584.50	29127.97
584.66	28769.86
584.82	28533.47
584.98	29081.16
585.14	28957.11
585.30	28971.15
585.46	28645.82
585.62	28765.18
585.78	29186.48
585.94	28900.94
586.10	29369.04
586.26	28898.59
586.42	29106.90
586.58	29106.90
586.74	29139.67
586.90	28671.56
587.06	28898.59
587.22	28804.97
587.38	28905.62
587.54	29027.32
587.70	28753.48
587.86	28900.94
588.02	29481.39
588.18	29319.89
588.34	29237.97
588.49	29261.38
588.65	28739.44
588.81	28917.32
588.97	29202.86
589.13	28924.34
589.29	29081.16
589.45	29317.55
589.61	29446.28
589.77	29600.76
589.93	29834.81
590.08	29481.39
590.24	29336.27
590.40	29436.92
590.56	29340.96
590.72	28835.40
590.88	28994.56
591.04	29317.55
591.20	29631.18
591.35	29291.80
591.51	29647.57
591.67	29319.89
591.83	29614.80
591.99	29303.51
592.15	29462.66
