SpectraSuite Data File
++++++++++++++++++++++++++++++++++++
Date: Fri Oct 18 13:58:02 GMT-05:00 2013
User: bianchi
Dark Spectrum Present: No
Reference Spectrum Present: No
Number of Sampled Component Spectra: 1
Spectrometers: USB2+H05261
Integration Time (usec): 50000 (USB2+H05261)
Spectra Averaged: 1 (USB2+H05261)
Boxcar Smoothing: 0 (USB2+H05261)
Correct for Electrical Dark: No (USB2+H05261)
Strobe/Lamp Enabled: No (USB2+H05261)
Correct for Detector Non-linearity: No (USB2+H05261)
Correct for Stray Light: No (USB2+H05261)
Number of Pixels in Processed Spectrum: 2048
>>>>>Begin Processed Spectral Data<<<<<
365.73	0.00
365.92	0.00
366.12	0.00
366.32	0.00
366.52	0.00
366.72	0.00
366.91	0.00
367.11	0.00
367.31	0.00
367.51	0.00
367.70	0.00
367.90	0.00
368.10	0.00
368.30	0.00
368.49	0.00
368.69	0.00
368.89	0.00
369.09	0.00
369.28	0.00
369.48	0.00
369.68	0.00
369.87	0.00
370.07	0.00
370.27	0.00
370.47	0.00
370.66	56.17
370.86	133.41
371.06	77.24
371.25	135.75
371.45	152.13
371.65	184.90
371.84	102.98
372.04	180.22
372.24	119.37
372.44	182.56
372.63	182.56
372.83	238.73
373.03	191.92
373.22	159.16
373.42	217.67
373.62	250.44
373.81	215.33
374.01	166.18
374.21	259.80
374.40	250.44
374.60	259.80
374.79	271.50
374.99	212.99
375.19	227.03
375.38	276.18
375.58	229.37
375.78	161.50
375.97	299.59
376.17	269.16
376.37	133.41
376.56	243.42
376.76	280.86
376.95	250.44
377.15	262.14
377.35	292.57
377.54	334.70
377.74	262.14
377.93	264.48
378.13	271.50
378.33	224.69
378.52	259.80
378.72	294.91
378.91	269.16
379.11	224.69
379.31	337.04
379.50	334.70
379.70	283.20
379.89	301.93
380.09	311.29
380.28	346.40
380.48	304.27
380.68	353.42
380.87	264.48
381.07	334.70
381.26	344.06
381.46	355.76
381.65	341.72
381.85	376.83
382.04	304.27
382.24	386.19
382.43	266.82
382.63	334.70
382.83	353.42
383.02	390.87
383.22	374.49
383.41	355.76
383.61	341.72
383.80	374.49
384.00	344.06
384.19	353.42
384.39	379.17
384.58	330.02
384.78	395.55
384.97	362.78
385.17	360.44
385.36	376.83
385.56	362.78
385.75	395.55
385.95	456.40
386.14	465.77
386.34	470.45
386.53	411.93
386.72	322.99
386.92	404.91
387.11	470.45
387.31	425.98
387.50	402.57
387.70	456.40
387.89	411.93
388.09	388.53
388.28	479.81
388.48	458.74
388.67	339.38
388.86	479.81
389.06	433.00
389.25	444.70
389.45	454.06
389.64	470.45
389.84	451.72
390.03	468.11
390.22	468.11
390.42	500.87
390.61	486.83
390.81	521.94
391.00	484.49
391.19	547.69
391.39	538.32
391.58	554.71
391.78	596.84
391.97	486.83
392.16	535.98
392.36	578.11
392.55	519.60
392.75	552.37
392.94	440.02
393.13	526.62
393.33	554.71
393.52	521.94
393.71	531.30
393.91	535.98
394.10	517.26
394.29	571.09
394.49	543.00
394.68	624.92
394.88	645.99
395.07	629.60
395.26	662.37
395.46	599.18
395.65	620.24
395.84	648.33
396.04	720.88
396.23	660.03
396.42	571.09
396.62	655.35
396.81	655.35
397.00	674.07
397.19	697.48
397.39	620.24
397.58	744.29
397.77	664.71
397.97	671.73
398.16	706.84
398.35	697.48
398.55	676.41
398.74	660.03
398.93	711.52
399.12	699.82
399.32	641.31
399.51	594.50
399.70	716.20
399.90	772.38
400.09	774.72
400.28	753.65
400.47	751.31
400.67	744.29
400.86	765.36
401.05	791.10
401.24	774.72
401.44	833.23
401.63	802.80
401.82	791.10
402.01	844.93
402.21	781.74
402.40	805.14
402.59	884.72
402.78	798.12
402.97	875.36
403.17	837.91
403.36	842.59
403.55	915.15
403.74	887.06
403.93	924.51
404.13	966.64
404.32	866.00
404.51	861.32
404.70	945.58
404.89	856.64
405.09	997.07
405.28	924.51
405.47	966.64
405.66	994.73
405.85	973.66
406.05	1081.33
406.24	1048.56
406.43	933.87
406.62	1022.81
406.81	987.71
407.00	1090.69
407.20	1027.50
407.39	1034.52
407.58	1057.92
407.77	959.62
407.96	1053.24
408.15	1188.99
408.34	1060.26
408.54	1067.28
408.73	1088.35
408.92	1174.95
409.11	1046.22
409.30	1118.78
409.49	1088.35
409.68	1053.24
409.87	1163.25
410.07	1170.27
410.26	1181.97
410.45	1184.31
410.64	1210.06
410.83	1191.33
411.02	1165.59
411.21	1196.01
411.40	1210.06
411.59	1238.14
411.78	1188.99
411.98	1268.57
412.17	1376.24
412.36	1430.07
412.55	1313.04
412.74	1308.36
412.93	1359.85
413.12	1357.51
413.31	1385.60
413.50	1280.27
413.69	1406.66
413.88	1439.43
414.07	1502.62
414.26	1516.67
414.45	1420.71
414.64	1493.26
414.83	1544.75
415.02	1507.30
415.22	1544.75
415.41	1507.30
415.60	1586.88
415.79	1593.90
415.98	1603.27
416.17	1617.31
416.36	1607.95
416.55	1701.57
416.74	1631.35
416.93	1652.42
417.12	1750.72
417.31	1687.53
417.50	1685.19
417.69	1687.53
417.88	1863.07
418.07	1614.97
418.26	1654.76
418.45	1743.70
418.64	1724.97
418.83	1865.41
419.02	1795.19
419.21	1809.23
419.39	1827.96
419.58	1813.92
419.77	1884.13
419.96	1823.28
420.15	1912.22
420.34	1839.66
420.53	1898.17
420.72	2001.16
420.91	1907.54
421.10	1856.04
421.29	1935.62
421.48	1902.86
421.67	1937.96
421.86	1895.83
422.05	1961.37
422.24	1975.41
422.43	1928.60
422.61	2029.24
422.80	2062.01
422.99	1909.88
423.18	2047.97
423.37	1912.22
423.56	1921.58
423.75	2073.71
423.94	1952.01
424.13	1858.39
424.32	1788.17
424.50	2045.63
424.69	2120.53
424.88	2134.57
425.07	2022.22
425.26	1996.48
425.45	2132.23
425.64	1970.73
425.83	2043.29
426.01	2071.37
426.20	1998.82
426.39	2003.50
426.58	2052.65
426.77	2139.25
426.96	2148.61
427.15	2115.84
427.33	2099.46
427.52	2129.89
427.71	2134.57
427.90	2136.91
428.09	2092.44
428.28	2153.29
428.46	2181.38
428.65	2174.36
428.84	2172.02
429.03	2321.81
429.22	2160.31
429.40	2251.60
429.59	2237.55
429.78	2181.38
429.97	2167.34
430.16	2242.23
430.34	2331.17
430.53	2270.32
430.72	2347.56
430.91	2406.07
431.10	2317.13
431.28	2387.35
431.47	2340.54
431.66	2385.01
431.85	2284.36
432.03	2476.29
432.22	2450.54
432.41	2441.18
432.60	2506.71
432.79	2504.37
432.97	2431.82
433.16	2466.92
433.35	2436.50
433.54	2544.16
433.72	2499.69
433.91	2546.50
434.10	2534.80
434.28	2492.67
434.47	2607.36
434.66	2619.06
434.85	2637.78
435.03	2523.10
435.22	2588.63
435.41	2677.57
435.59	2616.72
435.78	2605.02
435.97	2722.04
436.16	2586.29
436.34	2717.36
436.53	2628.42
436.72	2754.81
436.90	2703.32
437.09	2787.58
437.28	2628.42
437.46	2668.21
437.65	2806.30
437.84	2719.70
438.02	2750.13
438.21	2864.82
438.40	2796.94
438.58	2939.71
438.77	2937.37
438.96	2871.84
439.14	2909.29
439.33	2949.08
439.52	3019.29
439.70	2958.44
439.89	2979.50
440.08	3061.42
440.26	3014.61
440.45	3030.99
440.63	3155.04
440.82	3136.32
441.01	3005.25
441.19	3171.43
441.38	3208.87
441.57	3204.19
441.75	3197.17
441.94	3283.77
442.12	3318.88
442.31	3361.01
442.50	3243.98
442.68	3201.85
442.87	3349.31
443.05	3201.85
443.24	3403.14
443.43	3302.50
443.61	3459.31
443.80	3361.01
443.98	3356.33
444.17	3393.78
444.35	3468.67
444.54	3597.40
444.73	3534.21
444.91	3405.48
445.10	3426.54
445.28	3389.10
445.47	3456.97
445.65	3548.25
445.84	3487.40
446.02	3433.57
446.21	3414.84
446.39	3398.46
446.58	3515.48
446.77	3550.59
446.95	3454.63
447.14	3428.88
447.32	3494.42
447.51	3599.74
447.69	3447.61
447.88	3452.29
448.06	3515.48
448.25	3440.59
448.43	3403.14
448.62	3702.73
448.80	3585.70
448.99	3494.42
449.17	3613.79
449.36	3637.19
449.54	3588.04
449.73	3627.83
449.91	3655.92
450.10	3714.43
450.28	3714.43
450.46	3667.62
450.65	3695.71
450.83	3644.21
451.02	3730.81
451.20	3882.95
451.39	3861.88
451.57	3733.15
451.76	3815.07
451.94	3786.99
452.13	3791.67
452.31	3815.07
452.49	3625.49
452.68	3904.01
452.86	3997.64
453.05	4007.00
453.23	3948.48
453.42	3791.67
453.60	3889.97
453.78	3941.46
453.97	3866.56
454.15	3990.61
454.34	3922.74
454.52	4009.34
454.70	3850.18
454.89	4074.87
455.07	4021.04
455.26	4128.70
455.44	4042.11
455.62	4219.99
455.81	4107.64
455.99	4154.45
456.17	4070.19
456.36	4187.22
456.54	4149.77
456.73	4255.09
456.91	4304.25
457.09	4297.22
457.28	4304.25
457.46	4257.43
457.64	4362.76
457.83	4383.82
458.01	4163.81
458.19	4395.53
458.38	4451.70
458.56	4351.06
458.74	4322.97
458.93	4475.10
459.11	4566.39
459.29	4337.01
459.48	4662.35
459.66	4241.05
459.84	4557.02
460.03	4627.24
460.21	4631.92
460.39	4540.64
460.57	4547.66
460.76	4688.09
460.94	4568.73
461.12	4652.98
461.31	4631.92
461.49	4528.94
461.67	4575.75
461.85	4734.90
462.04	4695.11
462.22	4943.21
462.40	4849.59
462.59	4805.12
462.77	4718.52
462.95	4770.01
463.13	4793.42
463.32	4964.28
463.50	4821.50
463.68	4800.44
463.86	4990.02
464.05	4826.18
464.23	4877.68
464.41	4966.62
464.59	4926.83
464.78	4802.78
464.96	4868.31
465.14	4856.61
465.32	4954.91
465.50	5022.79
465.69	5022.79
465.87	5132.79
466.05	5043.85
466.23	4912.78
466.41	5123.43
466.60	5160.88
466.78	5074.28
466.96	5067.26
467.14	5085.98
467.32	5036.83
467.51	5135.14
467.69	5090.67
467.87	5107.05
468.05	4983.00
468.23	4952.57
468.41	5193.65
468.60	5064.92
468.78	5177.26
468.96	5226.42
469.14	5343.44
469.32	5352.81
469.50	5277.91
469.69	5261.52
469.87	5446.43
470.05	5231.10
470.23	5458.13
470.41	5418.34
470.59	5528.35
470.77	5488.56
470.95	5418.34
471.14	5511.96
471.32	5533.03
471.50	5586.86
471.68	5537.71
471.86	5584.52
472.04	5729.63
472.22	5750.70
472.40	5692.18
472.58	5680.48
472.77	5769.42
472.95	5757.72
473.13	6061.99
473.31	5877.09
473.49	5809.21
473.67	5830.27
473.85	5907.51
474.03	5921.56
474.21	5926.24
474.39	5851.34
474.57	5977.73
474.75	6054.97
474.93	6094.76
475.12	6099.44
475.30	6242.21
475.48	6246.89
475.66	6403.71
475.84	6291.36
476.02	6335.83
476.20	6310.08
476.38	6478.60
476.56	6537.12
476.74	6586.27
476.92	6520.73
477.10	6562.86
477.28	6607.33
477.46	6478.60
477.64	6738.40
477.82	6946.71
478.00	7082.46
478.18	6864.79
478.36	7047.35
478.54	7000.54
478.72	7108.21
478.90	7150.34
479.08	7246.30
479.26	7049.69
479.44	7456.95
479.62	7379.71
479.80	7309.49
479.98	7421.84
480.16	7604.40
480.34	7655.89
480.52	7723.77
480.70	7473.33
480.88	7637.17
481.06	7798.66
481.24	7658.23
481.41	7871.22
481.59	7934.42
481.77	7845.48
481.95	8098.25
482.13	8060.80
482.31	8203.58
482.49	8152.09
482.67	8276.13
482.85	8451.67
483.03	8425.93
483.21	8643.60
483.39	8510.19
483.57	8645.94
483.74	8564.02
483.92	8805.10
484.10	8629.56
484.28	8903.40
484.46	9011.06
484.64	9172.56
484.82	9081.28
485.00	9156.18
485.18	9163.20
485.35	9380.87
485.53	9287.25
485.71	9408.95
485.89	9680.46
486.07	9577.47
486.25	9715.56
486.43	9652.37
486.61	9774.08
486.78	9914.51
486.96	9991.75
487.14	10188.35
487.32	10094.73
487.50	9956.64
487.68	10251.55
487.85	10342.83
488.03	10537.09
488.21	10600.29
488.39	10630.71
488.57	10733.70
488.75	10661.14
488.92	10792.21
489.10	10892.85
489.28	10874.13
489.46	11206.48
489.64	11115.20
489.81	11531.82
489.99	11325.85
490.17	11452.24
490.35	11496.71
490.53	11555.22
490.70	11737.79
490.88	11688.64
491.06	11733.11
491.24	11822.05
491.41	11920.35
491.59	12105.25
491.77	11721.40
491.95	12140.36
492.13	12149.72
492.30	12353.35
492.48	12404.84
492.66	12524.21
492.84	12278.45
493.01	12512.50
493.19	12507.82
493.37	12688.04
493.54	12917.42
493.72	12828.48
493.90	12910.40
494.08	13034.44
494.25	13404.25
494.43	13076.57
494.61	13235.73
494.79	13200.62
494.96	13193.60
495.14	13446.38
495.32	13757.67
495.49	13516.59
495.67	13741.29
495.85	13778.73
496.02	13724.90
496.20	13996.40
496.38	13750.65
496.55	13975.34
496.73	14342.80
496.91	14200.03
497.09	14256.20
497.26	14501.96
497.44	14195.35
497.62	14464.51
497.79	14560.47
497.97	14340.46
498.14	14836.66
498.32	14829.63
498.50	14960.70
498.67	15185.40
498.85	14881.13
499.03	15246.25
499.20	15131.56
499.38	15040.28
499.56	15126.88
499.73	15243.91
499.91	15492.01
500.08	15428.81
500.26	15417.11
500.44	15288.38
500.61	15873.51
500.79	15379.66
500.97	15793.94
501.14	15754.15
501.32	15932.03
501.49	15836.06
501.67	15917.98
501.84	16060.76
502.02	15957.77
502.20	16074.80
502.37	16224.59
502.55	16152.04
502.72	16063.10
502.90	16453.97
503.07	16142.67
503.25	16280.77
503.43	16315.87
503.60	16606.10
503.78	16428.22
503.95	16549.93
504.13	16620.14
504.30	16592.06
504.48	16556.95
504.65	16718.45
504.83	16933.78
505.01	17081.23
505.18	17163.15
505.36	17097.61
505.53	17118.68
505.71	17343.37
505.88	17266.13
506.06	17160.81
506.23	17532.95
506.41	17378.48
506.58	17617.21
506.76	17507.21
506.93	17408.90
507.11	17500.19
507.28	17652.32
507.46	17661.68
507.63	17809.14
507.81	17937.87
507.98	17659.34
508.16	17762.33
508.33	18052.55
508.50	18200.01
508.68	18366.18
508.85	18335.76
509.03	18008.08
509.20	18373.21
509.38	18588.53
509.55	18228.09
509.73	18443.42
509.90	18375.55
510.08	18314.69
510.25	18565.13
510.42	18675.13
510.60	18988.77
510.77	18796.84
510.95	18754.71
511.12	18520.66
511.30	18703.22
511.47	19005.15
511.64	18984.09
511.82	18977.06
511.99	18927.91
512.17	19222.82
512.34	19412.40
512.51	19232.18
512.69	19583.26
512.86	19445.17
513.04	19459.21
513.21	19735.40
513.38	19477.94
513.56	19494.32
513.73	19644.12
513.90	19496.66
514.08	19171.33
514.25	19601.99
514.43	19679.22
514.60	19887.53
514.77	19889.87
514.95	19857.10
515.12	19620.71
515.29	20095.84
515.47	19765.82
515.64	20336.91
515.81	20346.28
515.99	20020.94
516.16	20439.90
516.33	20365.00
516.51	20673.95
516.68	20486.71
516.85	20231.59
517.03	20376.70
517.20	20603.74
517.37	20390.75
517.54	20542.88
517.72	20411.81
517.89	20446.92
518.06	20680.97
518.24	20898.64
518.41	20758.21
518.58	20793.32
518.75	21027.37
518.93	20940.77
519.10	21010.99
519.27	20996.95
519.45	21036.74
519.62	20915.03
519.79	20819.07
519.96	21233.34
520.14	21062.48
520.31	21088.23
520.48	21441.65
520.65	21139.72
520.83	21476.76
521.00	21521.23
521.17	21546.97
521.34	21781.03
521.52	21535.27
521.69	21497.82
521.86	21666.34
522.03	21902.73
522.20	21811.45
522.38	22099.34
522.55	22054.87
522.72	21844.22
522.89	21949.54
523.07	22082.95
523.24	21989.33
523.41	22384.88
523.58	22167.21
523.75	22291.26
523.92	21958.91
524.10	22125.08
524.27	22319.35
524.44	22867.03
524.61	22759.37
524.78	22522.98
524.96	22462.12
525.13	22567.45
525.30	22794.48
525.47	22890.44
525.64	22513.61
525.81	22824.90
525.98	22670.43
526.16	22668.09
526.33	22668.09
526.50	23278.97
526.67	23094.07
526.84	23073.00
527.01	22913.84
527.18	22824.90
527.36	23037.89
527.53	23403.02
527.70	22759.37
527.87	23225.14
528.04	23421.74
528.21	23218.11
528.38	23250.88
528.55	23648.77
528.72	23489.62
528.89	23583.24
529.07	23463.87
529.24	23601.96
529.41	23751.76
529.58	23293.01
529.75	23644.09
529.92	23651.11
530.09	23461.53
530.26	23594.94
530.43	24095.82
530.60	23812.61
530.77	24133.26
530.94	24095.82
531.11	23803.25
531.28	23978.79
531.46	23880.49
531.63	24341.57
531.80	24159.01
531.97	24311.14
532.14	24210.50
532.31	24271.36
532.48	24278.38
532.65	24318.17
532.82	24280.72
532.99	24329.87
533.16	24126.24
533.33	24273.70
533.50	24372.00
533.67	24479.66
533.84	24105.18
534.01	24758.19
534.18	24453.92
534.35	24861.17
534.52	24643.50
534.69	24821.38
534.86	24678.61
535.03	24613.07
535.20	24844.79
535.37	24491.37
535.54	24641.16
535.71	24521.79
535.88	24697.33
536.05	25067.14
536.22	24648.18
536.38	25364.39
536.55	25235.66
536.72	25017.99
536.89	24919.68
537.06	24945.43
537.23	25366.73
537.40	25214.59
537.57	25333.96
537.74	25095.22
537.91	25455.67
538.08	25488.43
538.25	25345.66
538.42	25387.79
538.59	25305.87
538.75	25223.95
538.92	25493.12
539.09	25441.62
539.26	25614.82
539.43	25788.02
539.60	25603.12
539.77	25638.23
539.94	25823.13
540.11	25741.21
540.28	25668.66
540.44	25848.88
540.61	25773.98
540.78	25523.54
540.95	25504.82
541.12	25905.05
541.29	25738.87
541.46	26033.78
541.62	25860.58
541.79	26239.75
541.96	25717.81
542.13	25729.51
542.30	25898.03
542.47	26052.50
542.63	26127.40
542.80	26052.50
542.97	26277.19
543.14	26363.79
543.31	26171.87
543.48	26300.60
543.64	26075.91
543.81	26607.21
543.98	26806.16
544.15	26593.17
544.32	26595.51
544.48	26941.91
544.65	26700.83
544.82	26782.75
544.99	26370.82
545.16	26536.99
545.32	26546.36
545.49	26721.90
545.66	27063.61
545.83	26850.63
546.00	26902.12
546.16	27178.30
546.33	26712.53
546.50	26331.03
546.67	26939.57
546.83	26714.87
547.00	26693.81
547.17	27005.10
547.34	27103.40
547.50	27248.52
547.67	27796.20
547.84	27138.51
548.00	27295.33
548.17	27332.78
548.34	27089.36
548.51	27503.64
548.67	27517.68
548.84	27564.49
549.01	27442.78
549.18	27419.38
549.34	27388.95
549.51	27346.82
549.68	27438.10
549.84	27503.64
550.01	27274.26
550.18	27447.46
550.34	27632.36
550.51	27445.12
550.68	27510.66
550.84	27117.45
551.01	27718.96
551.18	27421.72
551.34	27545.76
551.51	27449.80
551.68	27922.59
551.84	27824.29
552.01	27367.88
552.18	28107.49
552.34	27885.14
552.51	28212.82
552.68	27887.48
552.84	27674.49
553.01	28161.33
553.18	27658.11
553.34	27969.40
553.51	27946.00
553.67	28121.54
553.84	28760.50
554.01	28077.07
554.17	28041.96
554.34	28077.07
554.51	28077.07
554.67	28376.66
554.84	28304.10
555.00	28421.13
555.17	27899.19
555.33	28498.36
555.50	28088.77
555.67	28343.89
555.83	28091.11
556.00	28261.97
556.16	28371.97
556.33	28552.20
556.50	28414.10
556.66	28512.41
556.83	28320.48
556.99	28603.69
557.16	28711.35
557.32	28687.95
557.49	28446.87
557.65	28201.11
557.82	28767.52
557.98	28603.69
558.15	28533.47
558.32	28655.18
558.48	28666.88
558.65	28690.29
558.81	28790.93
558.98	28379.00
559.14	28819.02
559.31	28348.57
559.47	28683.27
559.64	28666.88
559.80	28811.99
559.97	28767.52
560.13	28690.29
560.30	28950.09
560.46	28863.49
560.63	28882.21
560.79	28931.36
560.96	29062.43
561.12	28746.46
561.29	28936.04
561.45	29085.84
561.61	28938.38
561.78	29305.85
561.94	29088.18
562.11	29305.85
562.27	29308.19
562.44	29078.82
562.60	29088.18
562.77	28954.77
562.93	29256.70
563.10	29340.96
563.26	28856.46
563.42	29600.76
563.59	29387.77
563.75	29106.90
563.92	29453.30
564.08	29109.24
564.24	29074.13
564.41	29399.47
564.57	29228.61
564.74	29242.65
564.90	29301.17
565.07	29350.32
565.23	29296.49
565.39	29401.81
565.56	29806.72
565.72	29352.66
565.88	29223.93
566.05	29355.00
566.21	29163.08
566.38	29010.94
566.54	29446.28
566.70	29434.58
566.87	29757.57
567.03	29612.46
567.19	29853.53
567.36	29465.00
567.52	29476.71
567.68	29523.52
567.85	29535.22
568.01	29453.30
568.17	29610.12
568.34	29532.88
568.50	29558.63
568.66	29621.82
568.83	29773.95
568.99	29294.14
569.15	29532.88
569.32	29315.21
569.48	29631.18
569.64	29247.33
569.81	29769.27
569.97	29362.02
570.13	29663.95
570.30	29359.68
570.46	29605.44
570.62	29816.08
570.78	29502.45
570.95	29291.80
571.11	29509.47
571.27	29467.34
571.43	29537.56
571.60	29802.04
571.76	29972.90
571.92	29818.42
572.09	29771.61
572.25	29659.27
572.41	29773.95
572.57	30036.09
572.74	30153.12
572.90	29825.45
573.06	29689.70
573.22	30096.95
573.38	29921.41
573.55	29549.26
573.71	29649.91
573.87	30146.10
574.03	30000.99
574.20	29727.14
574.36	29582.03
574.52	30010.35
574.68	29507.13
574.84	29593.73
575.01	29816.08
575.17	29818.42
575.33	29848.85
575.49	29769.27
575.65	30118.01
575.82	29921.41
575.98	29954.18
576.14	29584.37
576.30	29825.45
576.46	30202.27
576.62	29783.32
576.79	29933.11
576.95	29886.30
577.11	30359.09
577.27	30197.59
577.43	30043.12
577.59	30188.23
577.75	30148.44
577.92	30082.91
578.08	29476.71
578.24	29916.73
578.40	29663.95
578.56	30022.05
578.72	29972.90
578.88	30190.57
579.04	30232.70
579.21	29895.66
579.37	30050.14
579.53	30129.72
579.69	29893.32
579.85	29855.87
580.01	29858.21
580.17	29788.00
580.33	29881.62
580.49	30277.17
580.65	30349.73
580.82	30342.70
580.98	30335.68
581.14	30054.82
581.30	30230.36
581.46	29626.50
581.62	30242.06
581.78	29783.32
581.94	29766.93
582.10	29914.39
582.26	29883.96
582.42	29883.96
582.58	30291.21
582.74	30024.39
582.90	30223.34
583.06	30553.35
583.22	30300.58
583.38	30071.20
583.54	30323.98
583.70	29773.95
583.86	30506.54
584.02	29907.37
584.18	30314.62
584.34	29982.26
584.50	29984.60
584.66	30054.82
584.82	29832.47
584.98	30424.62
585.14	29893.32
585.30	29874.60
585.46	30148.44
585.62	30085.25
585.78	29682.67
585.94	29738.85
586.10	30419.94
586.26	30047.80
586.42	30160.14
586.58	30029.07
586.74	29727.14
586.90	30293.55
587.06	29687.36
587.22	29858.21
587.38	30050.14
587.54	30522.93
587.70	30223.34
587.86	30551.01
588.02	30122.69
588.18	30494.84
588.34	30218.66
588.49	30452.71
588.65	30190.57
588.81	30036.09
588.97	30548.67
589.13	30040.78
589.29	30120.35
589.45	30565.06
589.61	30696.13
589.77	30469.09
589.93	30448.03
590.08	30412.92
590.24	30431.65
590.40	30595.48
590.56	30455.05
590.72	30583.78
590.88	30237.38
591.04	30316.96
591.20	30639.95
591.35	30363.77
591.51	30787.41
591.67	30712.51
591.83	30799.11
591.99	30529.95
