SpectraSuite Data File
++++++++++++++++++++++++++++++++++++
Date: Fri Oct 18 13:58:17 GMT-05:00 2013
User: bianchi
Dark Spectrum Present: No
Reference Spectrum Present: No
Number of Sampled Component Spectra: 1
Spectrometers: USB2+H05261
Integration Time (usec): 50000 (USB2+H05261)
Spectra Averaged: 1 (USB2+H05261)
Boxcar Smoothing: 0 (USB2+H05261)
Correct for Electrical Dark: No (USB2+H05261)
Strobe/Lamp Enabled: No (USB2+H05261)
Correct for Detector Non-linearity: No (USB2+H05261)
Correct for Stray Light: No (USB2+H05261)
Number of Pixels in Processed Spectrum: 2048
>>>>>Begin Processed Spectral Data<<<<<
365.73	0.00
365.92	0.00
366.12	0.00
366.32	0.00
366.52	0.00
366.72	0.00
366.91	0.00
367.11	0.00
367.31	0.00
367.51	0.00
367.70	0.00
367.90	0.00
368.10	0.00
368.30	0.00
368.49	0.00
368.69	0.00
368.89	0.00
369.09	0.00
369.28	0.00
369.48	0.00
369.68	0.00
369.87	0.00
370.07	0.00
370.27	0.00
370.47	14.04
370.66	39.79
370.86	112.35
371.06	166.18
371.25	163.84
371.45	154.48
371.65	189.58
371.84	187.24
372.04	124.05
372.24	147.45
372.44	107.66
372.63	203.63
372.83	217.67
373.03	248.10
373.22	220.01
373.42	205.97
373.62	224.69
373.81	271.50
374.01	234.05
374.21	227.03
374.40	163.84
374.60	252.78
374.79	231.71
374.99	266.82
375.19	351.08
375.38	278.52
375.58	189.58
375.78	212.99
375.97	227.03
376.17	386.19
376.37	283.20
376.56	215.33
376.76	229.37
376.95	315.97
377.15	283.20
377.35	257.46
377.54	402.57
377.74	245.76
377.93	299.59
378.13	276.18
378.33	332.36
378.52	287.89
378.72	245.76
378.91	330.02
379.11	313.63
379.31	332.36
379.50	325.33
379.70	304.27
379.89	318.31
380.09	290.23
380.28	217.67
380.48	393.21
380.68	283.20
380.87	280.86
381.07	248.10
381.26	299.59
381.46	266.82
381.65	341.72
381.85	278.52
382.04	402.57
382.24	355.76
382.43	330.02
382.63	280.86
382.83	414.27
383.02	337.04
383.22	407.25
383.41	372.15
383.61	313.63
383.80	379.17
384.00	322.99
384.19	297.25
384.39	330.02
384.58	411.93
384.78	465.77
384.97	341.72
385.17	451.72
385.36	407.25
385.56	409.59
385.75	376.83
385.95	423.64
386.14	402.57
386.34	381.51
386.53	334.70
386.72	374.49
386.92	395.55
387.11	402.57
387.31	402.57
387.50	468.11
387.70	468.11
387.89	414.27
388.09	444.70
388.28	430.66
388.48	535.98
388.67	435.34
388.86	435.34
389.06	456.40
389.25	423.64
389.45	470.45
389.64	465.77
389.84	496.19
390.03	482.15
390.22	486.83
390.42	437.68
390.61	479.81
390.81	493.85
391.00	498.53
391.19	594.50
391.39	631.94
391.58	571.09
391.78	468.11
391.97	519.60
392.16	566.41
392.36	535.98
392.55	521.94
392.75	559.39
392.94	519.60
393.13	561.73
393.33	568.75
393.52	519.60
393.71	547.69
393.91	603.86
394.10	585.13
394.29	624.92
394.49	601.52
394.68	571.09
394.88	540.66
395.07	592.16
395.26	573.43
395.46	571.09
395.65	655.35
395.84	645.99
396.04	746.63
396.23	662.37
396.42	610.88
396.62	631.94
396.81	718.54
397.00	603.86
397.19	634.29
397.39	683.44
397.58	643.65
397.77	613.22
397.97	709.18
398.16	709.18
398.35	650.67
398.55	627.26
398.74	688.12
398.93	692.80
399.12	716.20
399.32	774.72
399.51	662.37
399.70	758.33
399.90	697.48
400.09	737.27
400.28	798.12
400.47	812.17
400.67	847.27
400.86	737.27
401.05	849.61
401.24	760.67
401.44	851.96
401.63	763.01
401.82	931.53
402.01	802.80
402.21	798.12
402.40	802.80
402.59	812.17
402.78	866.00
402.97	781.74
403.17	840.25
403.36	894.08
403.55	863.66
403.74	950.26
403.93	926.85
404.13	933.87
404.32	912.81
404.51	912.81
404.70	1001.75
404.89	861.32
405.09	1039.20
405.28	889.40
405.47	940.90
405.66	966.64
405.85	929.19
406.05	959.62
406.24	1027.50
406.43	994.73
406.62	1013.45
406.81	1142.18
407.00	959.62
407.20	905.79
407.39	1055.58
407.58	1086.01
407.77	1048.56
407.96	1064.94
408.15	1090.69
408.34	1046.22
408.54	1090.69
408.73	1116.44
408.92	1121.12
409.11	1139.84
409.30	1093.03
409.49	1118.78
409.68	1165.59
409.87	1174.95
410.07	1146.86
410.26	1114.10
410.45	1172.61
410.64	1191.33
410.83	1268.57
411.02	1205.38
411.21	1191.33
411.40	1191.33
411.59	1313.04
411.78	1284.95
411.98	1331.76
412.17	1308.36
412.36	1266.23
412.55	1296.66
412.74	1364.53
412.93	1242.82
413.12	1383.26
413.31	1310.70
413.50	1299.00
413.69	1380.92
413.88	1444.11
414.07	1500.28
414.26	1444.11
414.45	1401.98
414.64	1563.48
414.83	1530.71
415.02	1418.36
415.22	1558.80
415.41	1507.30
415.60	1568.16
415.79	1582.20
415.98	1579.86
416.17	1614.97
416.36	1528.37
416.55	1589.22
416.74	1612.63
416.93	1710.93
417.12	1647.74
417.31	1596.25
417.50	1673.48
417.69	1825.62
417.88	1657.10
418.07	1699.23
418.26	1764.76
418.45	1757.74
418.64	1865.41
418.83	1823.28
419.02	1748.38
419.21	1837.32
419.39	1849.02
419.58	1872.43
419.77	1884.13
419.96	1839.66
420.15	1879.45
420.34	1900.52
420.53	1921.58
420.72	1928.60
420.91	1842.00
421.10	2062.01
421.29	1994.14
421.48	1853.70
421.67	1912.22
421.86	2036.27
422.05	1926.26
422.24	1853.70
422.43	1895.83
422.61	1998.82
422.80	1982.43
422.99	2043.29
423.18	2005.84
423.37	2113.50
423.56	2015.20
423.75	1930.94
423.94	1919.24
424.13	1816.26
424.32	1895.83
424.50	1994.14
424.69	2054.99
424.88	2057.33
425.07	2085.42
425.26	1940.30
425.45	1926.26
425.64	1930.94
425.83	2019.88
426.01	2134.57
426.20	2050.31
426.39	1982.43
426.58	2024.56
426.77	2085.42
426.96	2162.66
427.15	2064.35
427.33	1996.48
427.52	2106.48
427.71	2228.19
427.90	2090.10
428.09	2136.91
428.28	2106.48
428.46	2216.49
428.65	2127.55
428.84	2188.40
429.03	2317.13
429.22	2094.78
429.40	2216.49
429.59	2225.85
429.78	2193.08
429.97	2202.44
430.16	2373.30
430.34	2291.38
430.53	2263.30
430.72	2303.09
430.91	2354.58
431.10	2328.83
431.28	2359.26
431.47	2279.68
431.66	2375.64
431.85	2408.41
432.03	2394.37
432.22	2436.50
432.41	2462.24
432.60	2504.37
432.79	2487.99
432.97	2452.88
433.16	2452.88
433.35	2530.12
433.54	2511.39
433.72	2572.25
433.91	2595.65
434.10	2572.25
434.28	2544.16
434.47	2473.95
434.66	2649.49
434.85	2509.05
435.03	2630.76
435.22	2623.74
435.41	2686.94
435.59	2663.53
435.78	2649.49
435.97	2644.81
436.16	2602.68
436.34	2532.46
436.53	2745.45
436.72	2771.19
436.90	2562.89
437.09	2663.53
437.28	2612.04
437.46	2654.17
437.65	2813.32
437.84	2839.07
438.02	2733.75
438.21	2785.24
438.40	2867.16
438.58	2832.05
438.77	2967.80
438.96	2799.28
439.14	2949.08
439.33	2970.14
439.52	2991.20
439.70	2925.67
439.89	3201.85
440.08	2986.52
440.26	3005.25
440.45	3023.97
440.63	3047.38
440.82	3136.32
441.01	3091.85
441.19	3021.63
441.38	3251.00
441.57	3208.87
441.75	3248.66
441.94	3241.64
442.12	3321.22
442.31	3353.99
442.50	3276.75
442.68	3302.50
442.87	3300.16
443.05	3286.11
443.24	3426.54
443.43	3463.99
443.61	3426.54
443.80	3496.76
443.98	3255.69
444.17	3269.73
444.35	3435.91
444.54	3466.33
444.73	3545.91
444.91	3375.05
445.10	3510.80
445.28	3370.37
445.47	3566.98
445.65	3424.20
445.84	3574.00
446.02	3529.53
446.21	3419.52
446.39	3445.27
446.58	3648.90
446.77	3428.88
446.95	3314.20
447.14	3475.70
447.32	3428.88
447.51	3616.13
447.69	3487.40
447.88	3494.42
448.06	3461.65
448.25	3459.31
448.43	3489.74
448.62	3459.31
448.80	3581.02
448.99	3520.17
449.17	3590.38
449.36	3611.45
449.54	3555.27
449.73	3679.32
449.91	3726.13
450.10	3681.66
450.28	3803.37
450.46	3772.94
450.65	3716.77
450.83	3779.97
451.02	3691.02
451.20	3864.22
451.39	3925.08
451.57	3770.60
451.76	3822.09
451.94	3908.69
452.13	3805.71
452.31	3749.54
452.49	3761.24
452.68	3894.65
452.86	3939.12
453.05	3967.21
453.23	3852.52
453.42	3920.40
453.60	3803.37
453.78	4009.34
453.97	3803.37
454.15	3978.91
454.34	3749.54
454.52	3962.53
454.70	4070.19
454.89	4051.47
455.07	4070.19
455.26	4025.72
455.44	4189.56
455.62	4067.85
455.81	4060.83
455.99	4173.18
456.17	4248.07
456.36	4100.62
456.54	4292.54
456.73	4149.77
456.91	4351.06
457.09	4215.30
457.28	4423.61
457.46	4208.28
457.64	4301.90
457.83	4395.53
458.01	4259.78
458.19	4428.29
458.38	4372.12
458.56	4339.35
458.74	4414.25
458.93	4442.34
459.11	4418.93
459.29	4454.04
459.48	4554.68
459.66	4573.41
459.84	4491.49
460.03	4578.09
460.21	4470.42
460.39	4507.87
460.57	4610.86
460.76	4643.62
460.94	4676.39
461.12	4606.17
461.31	4739.58
461.49	4697.46
461.67	4578.09
461.85	4760.65
462.04	4727.88
462.22	5107.05
462.40	4858.95
462.59	4828.53
462.77	4711.50
462.95	4772.35
463.13	4720.86
463.32	4753.63
463.50	4882.36
463.68	4873.00
463.86	4919.81
464.05	4854.27
464.23	4919.81
464.41	5020.45
464.59	4816.82
464.78	4901.08
464.96	4950.23
465.14	4880.02
465.32	5032.15
465.50	5032.15
465.69	5100.03
465.87	4952.57
466.05	5050.88
466.23	5032.15
466.41	4950.23
466.60	5387.91
466.78	5018.11
466.96	5069.60
467.14	5048.54
467.32	5039.17
467.51	5118.75
467.69	5114.07
467.87	5156.20
468.05	5284.93
468.23	5198.33
468.41	5212.37
468.60	5277.91
468.78	5254.50
468.96	5235.78
469.14	5210.03
469.32	5507.28
469.50	5280.25
469.69	5420.68
469.87	5458.13
470.05	5350.46
470.23	5394.93
470.41	5467.49
470.59	5652.39
470.77	5469.83
470.95	5481.53
471.14	5610.26
471.32	5561.11
471.50	5549.41
471.68	5593.88
471.86	5633.67
472.04	5582.18
472.22	5685.16
472.40	5682.82
472.58	5788.14
472.77	5722.61
472.95	5841.98
473.13	5949.64
473.31	5846.66
473.49	5865.38
473.67	5895.81
473.85	5954.32
474.03	6050.28
474.21	5963.68
474.39	6134.54
474.57	6216.46
474.75	5968.37
474.93	6211.78
475.12	5966.03
475.30	6333.49
475.48	6092.41
475.66	6310.08
475.84	6204.76
476.02	6211.78
476.20	6347.53
476.38	6403.71
476.56	6548.82
476.74	6506.69
476.92	6813.30
477.10	6539.46
477.28	6555.84
477.46	6602.65
477.64	6707.98
477.82	6738.40
478.00	7005.22
478.18	6923.30
478.36	7016.93
478.54	7180.76
478.72	7136.29
478.90	7201.83
479.08	7169.06
479.26	7405.46
479.44	7321.20
479.62	7180.76
479.80	7405.46
479.98	7529.50
480.16	7529.50
480.34	7541.21
480.52	7798.66
480.70	7709.72
480.88	7588.02
481.06	7625.47
481.24	7826.75
481.41	7782.28
481.59	7927.39
481.77	8009.31
481.95	8028.04
482.13	7990.59
482.31	7971.86
482.49	8203.58
482.67	8285.50
482.85	8229.32
483.03	8547.64
483.21	8678.71
483.39	8755.94
483.57	8737.22
483.74	8786.37
483.92	8655.30
484.10	8662.32
484.28	8889.35
484.46	9022.77
484.64	9212.35
484.82	9055.53
485.00	9238.09
485.18	9385.55
485.35	9507.26
485.53	9516.62
485.71	9469.81
485.89	9603.22
486.07	9542.36
486.25	9455.76
486.43	9647.69
486.61	9745.99
486.78	9994.09
486.96	9863.02
487.14	10164.95
487.32	10024.51
487.50	10242.18
487.68	10359.21
487.85	10246.87
488.03	10530.07
488.21	10438.79
488.39	10494.96
488.57	10855.40
488.75	10658.80
488.92	10918.60
489.10	10979.45
489.28	10979.45
489.46	11239.25
489.64	11126.91
489.81	11246.27
489.99	11358.62
490.17	11227.55
490.35	11489.69
490.53	11508.41
490.70	11552.88
490.88	11639.48
491.06	11779.92
491.24	11969.50
491.41	11889.92
491.59	12121.63
491.77	12189.51
491.95	12269.09
492.13	12107.59
492.30	12203.55
492.48	12245.68
492.66	12409.52
492.84	12418.88
493.01	12641.23
493.19	12744.22
493.37	12709.11
493.54	13027.42
493.72	12776.98
493.90	12865.92
494.08	13121.04
494.25	13081.25
494.43	13357.44
494.61	13397.23
494.79	13385.52
494.96	13252.11
495.14	13577.45
495.32	13446.38
495.49	13437.02
495.67	13631.28
495.85	13937.89
496.02	14183.65
496.20	14008.11
496.38	14010.45
496.55	13958.96
496.73	14403.66
496.91	14593.24
497.09	14537.07
497.26	14398.98
497.44	14555.79
497.62	14370.89
497.79	14698.56
497.97	14700.90
498.14	14644.73
498.32	15066.03
498.50	14897.51
498.67	14956.02
498.85	15049.64
499.03	15044.96
499.20	15215.82
499.38	15140.93
499.56	15201.78
499.73	15208.80
499.91	15506.05
500.08	15616.05
500.26	15382.00
500.44	15470.94
500.61	15658.18
500.79	15651.16
500.97	15964.79
501.14	15962.45
501.32	15637.12
501.49	16027.99
501.67	16201.19
501.84	16002.24
502.02	15997.56
502.20	16095.86
502.37	16025.65
502.55	16025.65
502.72	16496.10
502.90	16442.26
503.07	16116.93
503.25	16491.41
503.43	16575.67
503.60	16540.57
503.78	16718.45
503.95	16578.01
504.13	16868.24
504.30	16791.00
504.48	16699.72
504.65	16573.33
504.83	17041.44
505.01	17165.49
505.18	17174.85
505.36	17252.09
505.53	17188.89
505.71	17390.18
505.88	17177.19
506.06	17163.15
506.23	17472.10
506.41	17216.98
506.58	17486.14
506.76	17661.68
506.93	17767.01
507.11	17362.09
507.28	17458.06
507.46	17467.42
507.63	17750.62
507.81	18171.92
507.98	18045.53
508.16	18118.09
508.33	17673.39
508.50	17745.94
508.68	18148.51
508.85	18029.15
509.03	18354.48
509.20	18134.47
509.38	18604.92
509.55	18665.77
509.73	18263.20
509.90	18539.38
510.08	18349.80
510.25	18422.36
510.42	18881.10
510.60	18911.53
510.77	18707.90
510.95	19000.47
511.12	18960.68
511.30	18686.84
511.47	18757.05
511.64	19023.87
511.82	19112.81
511.99	19103.45
512.17	19112.81
512.34	19087.07
512.51	19126.86
512.69	19332.82
512.86	19180.69
513.04	19775.19
513.21	19461.55
513.38	19651.14
513.56	19344.53
513.73	19810.29
513.90	19693.27
514.08	19487.30
514.25	19566.88
514.43	19751.78
514.60	20053.71
514.77	19676.88
514.95	20049.03
515.12	19798.59
515.29	19873.49
515.47	20140.31
515.64	20339.26
515.81	20112.22
515.99	20226.91
516.16	20423.51
516.33	20334.57
516.51	20713.74
516.68	20493.73
516.85	20538.20
517.03	20404.79
517.20	20308.83
517.37	20744.17
517.54	20615.44
517.72	20856.51
517.89	20688.00
518.06	20554.58
518.24	20819.07
518.41	20484.37
518.58	20772.25
518.75	20919.71
518.93	20858.85
519.10	20900.98
519.27	21233.34
519.45	21046.10
519.62	21181.85
519.79	21369.09
519.96	21160.78
520.14	21223.98
520.31	21399.52
520.48	21474.42
520.65	21731.87
520.83	21687.40
521.00	21537.61
521.17	21310.58
521.34	21591.44
521.52	21427.60
521.69	21846.56
521.86	21876.99
522.03	21893.37
522.20	21944.86
522.38	21872.31
522.55	22312.33
522.72	21876.99
522.89	21951.88
523.07	22281.90
523.24	22118.06
523.41	22125.08
523.58	22256.15
523.75	22298.28
523.92	22118.06
524.10	22199.98
524.27	22300.62
524.44	22494.89
524.61	22553.40
524.78	22759.37
524.96	22391.91
525.13	22567.45
525.30	22511.27
525.47	22647.02
525.64	22607.23
525.81	22761.71
525.98	23278.97
526.16	22773.41
526.33	22710.22
526.50	23082.36
526.67	22834.27
526.84	23016.83
527.01	23035.55
527.18	22721.92
527.36	23096.41
527.53	23328.12
527.70	23370.25
527.87	23564.51
528.04	23269.61
528.21	23400.68
528.38	23592.60
528.55	23332.80
528.72	23730.69
528.89	23679.20
529.07	23503.66
529.24	23484.94
529.41	23651.11
529.58	23524.72
529.75	23665.16
529.92	23847.72
530.09	23623.03
530.26	23889.85
530.43	23576.22
530.60	23864.10
530.77	23866.44
530.94	23784.52
531.11	24088.79
531.28	23573.88
531.46	24135.60
531.63	23637.07
531.80	23917.93
531.97	24526.47
532.14	24212.84
532.31	24240.93
532.48	24208.16
532.65	24224.54
532.82	24151.99
532.99	24297.10
533.16	23948.36
533.33	24372.00
533.50	24926.71
533.67	24718.40
533.84	24034.96
534.01	24177.73
534.18	24554.56
534.35	24788.61
534.52	24374.34
534.69	24929.05
534.86	24776.91
535.03	24774.57
535.20	24732.44
535.37	24828.40
535.54	24877.55
535.71	25008.62
535.88	25069.48
536.05	24718.40
536.22	25177.14
536.38	25364.39
536.55	25149.06
536.72	25085.86
536.89	24947.77
537.06	25525.88
537.23	24910.32
537.40	24940.75
537.57	25532.90
537.74	25233.32
537.91	25624.18
538.08	25516.52
538.25	24790.95
538.42	25502.48
538.59	25214.59
538.75	25502.48
538.92	25406.52
539.09	25640.57
539.26	25916.75
539.43	25762.28
539.60	25303.53
539.77	25731.85
539.94	25572.69
540.11	25465.03
540.28	25649.93
540.44	25771.64
540.61	25528.22
540.78	25869.94
540.95	25706.10
541.12	25773.98
541.29	25972.92
541.46	26141.44
541.62	25963.56
541.79	25972.92
541.96	25586.74
542.13	25465.03
542.30	26326.35
542.47	26359.11
542.63	26457.42
542.80	26305.28
542.97	26939.57
543.14	26441.03
543.31	26368.48
543.48	26326.35
543.64	27023.83
543.81	26604.87
543.98	26459.76
544.15	26998.08
544.32	26841.26
544.48	27091.70
544.65	26836.58
544.82	26693.81
544.99	26384.86
545.16	26469.12
545.32	26775.73
545.49	27044.89
545.66	27016.80
545.83	27283.62
546.00	26838.92
546.16	27122.13
546.33	27070.64
546.50	26426.99
546.67	27068.30
546.83	26731.26
547.00	27140.85
547.17	26944.25
547.34	26979.36
547.50	26904.46
547.67	27190.00
547.84	27168.94
548.00	27054.25
548.17	27140.85
548.34	26972.33
548.51	27489.59
548.67	27475.55
548.84	27578.53
549.01	27365.54
549.18	27351.50
549.34	27587.89
549.51	27573.85
549.68	27398.31
549.84	27255.54
550.01	27475.55
550.18	27693.22
550.34	27412.35
550.51	27817.27
550.68	27950.68
550.84	27349.16
551.01	27395.97
551.18	27110.43
551.34	27520.02
551.51	27358.52
551.68	27658.11
551.84	27733.01
552.01	28175.37
552.18	27161.92
552.34	27864.08
552.51	27653.43
552.68	28154.30
552.84	27871.10
553.01	28056.00
553.18	28079.41
553.34	28079.41
553.51	28231.54
553.67	28381.34
553.84	28613.05
554.01	28528.79
554.17	27880.46
554.34	28327.50
554.51	28411.76
554.67	28531.13
554.84	28041.96
555.00	28474.96
555.17	28217.50
555.33	28173.03
555.50	28105.15
555.67	28379.00
555.83	28388.36
556.00	28194.09
556.16	28561.56
556.33	28414.10
556.50	28601.35
556.66	28734.76
556.83	28503.04
556.99	28734.76
557.16	28694.97
557.32	28596.67
557.49	28697.31
557.65	28367.29
557.82	28409.42
557.98	28416.44
558.15	28563.90
558.32	28683.27
558.48	28758.16
558.65	28950.09
558.81	28704.33
558.98	28697.31
559.14	28793.27
559.31	28856.46
559.47	28828.38
559.64	28500.70
559.80	29022.64
559.97	29200.52
560.13	28594.32
560.30	28781.57
560.46	29338.62
560.63	29092.86
560.79	28755.82
560.96	29146.69
561.12	28666.88
561.29	28830.72
561.45	28809.65
561.61	29078.82
561.78	29186.48
561.94	28828.38
562.11	29198.18
562.27	29221.59
562.44	29106.90
562.60	29511.81
562.77	28725.39
562.93	29184.14
563.10	29085.84
563.26	29336.27
563.42	29326.91
563.59	29219.25
563.75	29212.23
563.92	29259.04
564.08	29053.07
564.24	29167.76
564.41	29015.62
564.57	29308.19
564.74	28996.90
564.90	29315.21
565.07	29483.73
565.23	29261.38
565.39	29479.05
565.56	29710.76
565.72	29062.43
565.88	29542.24
566.05	29347.98
566.21	29329.25
566.38	29160.73
566.54	29439.26
566.70	29736.51
566.87	29399.47
567.03	29240.31
567.19	29289.46
567.36	29640.54
567.52	29329.25
567.68	29820.77
567.85	29298.83
568.01	29804.38
568.17	29352.66
568.34	29392.45
568.50	29841.83
568.66	29764.59
568.83	29720.12
568.99	29743.53
569.15	29322.23
569.32	29860.55
569.48	29483.73
569.64	29542.24
569.81	29558.63
569.97	29607.78
570.13	29579.69
570.30	29670.97
570.46	29883.96
570.62	29530.54
570.78	29399.47
570.95	29259.04
571.11	29799.70
571.27	29127.97
571.43	29324.57
571.60	29600.76
571.76	29860.55
571.92	29933.11
572.09	30108.65
572.25	29467.34
572.41	29783.32
572.57	29736.51
572.74	29638.20
572.90	29795.02
573.06	29659.27
573.22	29579.69
573.38	29703.74
573.55	29933.11
573.71	30213.98
573.87	29811.40
574.03	29785.66
574.20	29872.26
574.36	29930.77
574.52	29694.38
574.68	29429.90
574.84	29851.19
575.01	30141.42
575.17	30150.78
575.33	29895.66
575.49	29572.67
575.65	30082.91
575.82	30153.12
575.98	29685.01
576.14	29797.36
576.30	29940.13
576.46	29998.65
576.62	29521.18
576.79	30033.75
576.95	29785.66
577.11	30228.02
577.27	29916.73
577.43	30031.41
577.59	30129.72
577.75	30335.68
577.92	29928.43
578.08	29900.34
578.24	29729.48
578.40	30103.97
578.56	29731.83
578.72	30190.57
578.88	30087.59
579.04	30075.88
579.21	29902.68
579.37	30169.51
579.53	29947.15
579.69	29701.40
579.85	29888.64
580.01	29869.92
580.17	30005.67
580.33	29802.04
580.49	29855.87
580.65	30061.84
580.82	29792.68
580.98	30263.13
581.14	30242.06
581.30	30092.27
581.46	30061.84
581.62	29624.16
581.78	29895.66
581.94	29872.26
582.10	29937.79
582.26	30153.12
582.42	30242.06
582.58	30424.62
582.74	29860.55
582.90	30017.37
583.06	30326.32
583.22	30225.68
583.38	29766.93
583.54	29883.96
583.70	30265.47
583.86	29916.73
584.02	30249.08
584.18	30246.74
584.34	30164.82
584.50	30256.11
584.66	30040.78
584.82	30316.96
584.98	29956.52
585.14	30352.07
585.30	29883.96
585.46	29909.71
585.62	29984.60
585.78	30462.07
585.94	30103.97
586.10	30490.16
586.26	30349.73
586.42	30309.94
586.58	30466.75
586.74	30216.32
586.90	29858.21
587.06	29883.96
587.22	30335.68
587.38	29825.45
587.54	30253.76
587.70	30412.92
587.86	30373.13
588.02	30410.58
588.18	30513.56
588.34	30466.75
588.49	29816.08
588.65	30251.42
588.81	30331.00
588.97	30263.13
589.13	30181.21
589.29	30277.17
589.45	30216.32
589.61	30635.27
589.77	30415.26
589.93	30375.47
590.08	30794.43
590.24	30398.88
590.40	30904.43
590.56	30696.13
590.72	30616.55
590.88	30160.14
591.04	30307.60
591.20	30768.68
591.35	30321.64
591.51	30941.88
591.67	30742.94
591.83	30672.72
591.99	30775.70
