SpectraSuite Data File
++++++++++++++++++++++++++++++++++++
Date: Fri Oct 18 13:58:24 GMT-05:00 2013
User: bianchi
Dark Spectrum Present: No
Reference Spectrum Present: No
Number of Sampled Component Spectra: 1
Spectrometers: USB2+H05261
Integration Time (usec): 50000 (USB2+H05261)
Spectra Averaged: 1 (USB2+H05261)
Boxcar Smoothing: 0 (USB2+H05261)
Correct for Electrical Dark: No (USB2+H05261)
Strobe/Lamp Enabled: No (USB2+H05261)
Correct for Detector Non-linearity: No (USB2+H05261)
Correct for Stray Light: No (USB2+H05261)
Number of Pixels in Processed Spectrum: 2048
>>>>>Begin Processed Spectral Data<<<<<
365.73	0.00
365.92	0.00
366.12	0.00
366.32	0.00
366.52	0.00
366.72	0.00
366.91	0.00
367.11	0.00
367.31	0.00
367.51	0.00
367.70	0.00
367.90	0.00
368.10	0.00
368.30	0.00
368.49	0.00
368.69	0.00
368.89	0.00
369.09	0.00
369.28	0.00
369.48	0.00
369.68	0.00
369.87	0.00
370.07	0.00
370.27	0.00
370.47	0.00
370.66	88.94
370.86	114.69
371.06	100.64
371.25	114.69
371.45	170.86
371.65	135.75
371.84	142.77
372.04	212.99
372.24	203.63
372.44	182.56
372.63	128.73
372.83	212.99
373.03	194.26
373.22	257.46
373.42	212.99
373.62	250.44
373.81	196.60
374.01	325.33
374.21	262.14
374.40	234.05
374.60	259.80
374.79	215.33
374.99	301.93
375.19	290.23
375.38	346.40
375.58	234.05
375.78	238.73
375.97	208.31
376.17	322.99
376.37	330.02
376.56	238.73
376.76	245.76
376.95	365.12
377.15	194.26
377.35	266.82
377.54	292.57
377.74	322.99
377.93	313.63
378.13	304.27
378.33	297.25
378.52	231.71
378.72	313.63
378.91	292.57
379.11	278.52
379.31	299.59
379.50	344.06
379.70	374.49
379.89	325.33
380.09	248.10
380.28	311.29
380.48	304.27
380.68	175.54
380.87	278.52
381.07	388.53
381.26	325.33
381.46	308.95
381.65	390.87
381.85	351.08
382.04	325.33
382.24	332.36
382.43	278.52
382.63	374.49
382.83	287.89
383.02	414.27
383.22	322.99
383.41	297.25
383.61	472.79
383.80	390.87
384.00	372.15
384.19	330.02
384.39	348.74
384.58	425.98
384.78	306.61
384.97	365.12
385.17	297.25
385.36	397.89
385.56	430.66
385.75	315.97
385.95	334.70
386.14	409.59
386.34	351.08
386.53	423.64
386.72	421.30
386.92	435.34
387.11	397.89
387.31	393.21
387.50	383.85
387.70	430.66
387.89	395.55
388.09	430.66
388.28	489.17
388.48	440.02
388.67	470.45
388.86	390.87
389.06	496.19
389.25	433.00
389.45	461.09
389.64	421.30
389.84	505.56
390.03	468.11
390.22	596.84
390.42	472.79
390.61	505.56
390.81	489.17
391.00	430.66
391.19	603.86
391.39	444.70
391.58	505.56
391.78	526.62
391.97	477.47
392.16	491.51
392.36	638.97
392.55	610.88
392.75	496.19
392.94	505.56
393.13	554.71
393.33	484.49
393.52	624.92
393.71	589.82
393.91	554.71
394.10	573.43
394.29	554.71
394.49	543.00
394.68	564.07
394.88	599.18
395.07	624.92
395.26	613.22
395.46	573.43
395.65	645.99
395.84	624.92
396.04	585.13
396.23	667.05
396.42	596.84
396.62	561.73
396.81	697.48
397.00	596.84
397.19	760.67
397.39	660.03
397.58	648.33
397.77	690.46
397.97	697.48
398.16	727.91
398.35	706.84
398.55	690.46
398.74	704.50
398.93	772.38
399.12	709.18
399.32	753.65
399.51	772.38
399.70	730.25
399.90	718.54
400.09	861.32
400.28	767.70
400.47	748.97
400.67	823.87
400.86	788.76
401.05	772.38
401.24	861.32
401.44	765.36
401.63	805.14
401.82	882.38
402.01	833.23
402.21	905.79
402.40	774.72
402.59	816.85
402.78	873.02
402.97	800.46
403.17	767.70
403.36	968.98
403.55	858.98
403.74	990.05
403.93	997.07
404.13	854.30
404.32	894.08
404.51	968.98
404.70	945.58
404.89	908.13
405.09	980.68
405.28	947.92
405.47	973.66
405.66	1034.52
405.85	990.05
406.05	1053.24
406.24	931.53
406.43	1064.94
406.62	957.28
406.81	1043.88
407.00	1055.58
407.20	1057.92
407.39	968.98
407.58	1093.03
407.77	1090.69
407.96	1128.14
408.15	966.64
408.34	1039.20
408.54	1139.84
408.73	1188.99
408.92	1109.41
409.11	1081.33
409.30	1111.75
409.49	1151.54
409.68	1118.78
409.87	1160.91
410.07	1102.39
410.26	1224.10
410.45	1203.04
410.64	1167.93
410.83	1277.93
411.02	1240.48
411.21	1231.12
411.40	1289.64
411.59	1224.10
411.78	1135.16
411.98	1301.34
412.17	1320.06
412.36	1299.00
412.55	1390.28
412.74	1357.51
412.93	1364.53
413.12	1238.14
413.31	1418.36
413.50	1359.85
413.69	1383.26
413.88	1341.13
414.07	1409.00
414.26	1455.81
414.45	1507.30
414.64	1476.88
414.83	1465.18
415.02	1481.56
415.22	1516.67
415.41	1561.14
415.60	1483.90
415.79	1584.54
415.98	1701.57
416.17	1579.86
416.36	1647.74
416.55	1614.97
416.74	1617.31
416.93	1626.67
417.12	1495.60
417.31	1614.97
417.50	1607.95
417.69	1839.66
417.88	1799.87
418.07	1689.87
418.26	1717.95
418.45	1694.55
418.64	1762.42
418.83	1762.42
419.02	1863.07
419.21	1776.47
419.39	1783.49
419.58	1748.38
419.77	1823.28
419.96	2010.52
420.15	1879.45
420.34	1844.34
420.53	1884.13
420.72	1830.30
420.91	1937.96
421.10	1933.28
421.29	1966.05
421.48	2040.95
421.67	2024.56
421.86	1916.90
422.05	1966.05
422.24	1982.43
422.43	1947.33
422.61	2026.90
422.80	1989.46
422.99	2078.40
423.18	1940.30
423.37	2120.53
423.56	2015.20
423.75	1977.75
423.94	1944.99
424.13	1933.28
424.32	1935.62
424.50	1996.48
424.69	2085.42
424.88	2057.33
425.07	2003.50
425.26	2015.20
425.45	2005.84
425.64	2036.27
425.83	2134.57
426.01	2136.91
426.20	2022.22
426.39	2106.48
426.58	2047.97
426.77	2174.36
426.96	2162.66
427.15	2104.14
427.33	2106.48
427.52	2162.66
427.71	2235.21
427.90	2176.70
428.09	2176.70
428.28	2139.25
428.46	2165.00
428.65	2197.76
428.84	2214.15
429.03	2214.15
429.22	2237.55
429.40	2284.36
429.59	2324.15
429.78	2167.34
429.97	2176.70
430.16	2307.77
430.34	2282.02
430.53	2284.36
430.72	2270.32
430.91	2333.51
431.10	2169.68
431.28	2256.28
431.47	2413.09
431.66	2483.31
431.85	2345.22
432.03	2429.48
432.22	2413.09
432.41	2464.58
432.60	2368.62
432.79	2476.29
432.97	2480.97
433.16	2537.14
433.35	2380.32
433.54	2525.44
433.72	2520.76
433.91	2385.01
434.10	2595.65
434.28	2518.42
434.47	2532.46
434.66	2562.89
434.85	2635.44
435.03	2590.97
435.22	2614.38
435.41	2593.31
435.59	2656.51
435.78	2661.19
435.97	2684.59
436.16	2677.57
436.34	2569.91
436.53	2766.51
436.72	2677.57
436.90	2787.58
437.09	2794.60
437.28	2724.38
437.46	2630.76
437.65	2759.49
437.84	2860.13
438.02	2759.49
438.21	2881.20
438.40	2801.62
438.58	2757.15
438.77	2834.39
438.96	2970.14
439.14	2963.12
439.33	2967.80
439.52	3005.25
439.70	2970.14
439.89	3026.31
440.08	3019.29
440.26	2979.50
440.45	3075.46
440.63	3187.81
440.82	3199.51
441.01	3124.62
441.19	3211.22
441.38	3208.87
441.57	3255.69
441.75	3124.62
441.94	3258.03
442.12	3358.67
442.31	3382.07
442.50	3417.18
442.68	3283.77
442.87	3337.60
443.05	3368.03
443.24	3456.97
443.43	3386.76
443.61	3346.97
443.80	3499.10
443.98	3323.56
444.17	3229.94
444.35	3440.59
444.54	3566.98
444.73	3403.14
444.91	3379.73
445.10	3545.91
445.28	3433.57
445.47	3510.80
445.65	3368.03
445.84	3489.74
446.02	3543.57
446.21	3564.64
446.39	3506.12
446.58	3625.49
446.77	3466.33
446.95	3433.57
447.14	3534.21
447.32	3508.46
447.51	3543.57
447.69	3534.21
447.88	3506.12
448.06	3503.78
448.25	3566.98
448.43	3581.02
448.62	3501.44
448.80	3660.60
448.99	3602.08
449.17	3550.59
449.36	3522.51
449.54	3709.75
449.73	3592.72
449.91	3702.73
450.10	3721.45
450.28	3735.50
450.46	3721.45
450.65	3712.09
450.83	3758.90
451.02	3737.84
451.20	3735.50
451.39	3808.05
451.57	3779.97
451.76	3618.47
451.94	3906.35
452.13	3878.27
452.31	3964.87
452.49	3831.46
452.68	3894.65
452.86	3789.33
453.05	3976.57
453.23	4046.79
453.42	3847.84
453.60	3899.33
453.78	3939.12
453.97	3861.88
454.15	3871.25
454.34	3981.25
454.52	4102.96
454.70	3976.57
454.89	4084.23
455.07	3992.95
455.26	3971.89
455.44	4114.66
455.62	4147.43
455.81	4184.88
455.99	4105.30
456.17	4243.39
456.36	4154.45
456.54	4292.54
456.73	4166.15
456.91	4421.27
457.09	4287.86
457.28	4461.06
457.46	4210.62
457.64	4395.53
457.83	4386.16
458.01	4320.63
458.19	4440.00
458.38	4423.61
458.56	4542.98
458.74	4362.76
458.93	4456.38
459.11	4440.00
459.29	4386.16
459.48	4594.47
459.66	4435.32
459.84	4470.42
460.03	4624.90
460.21	4648.30
460.39	4519.57
460.57	4610.86
460.76	4699.80
460.94	4610.86
461.12	4608.51
461.31	4676.39
461.49	4697.46
461.67	4620.22
461.85	4936.19
462.04	4798.10
462.22	4833.21
462.40	4788.74
462.59	4812.14
462.77	4833.21
462.95	4760.65
463.13	4657.67
463.32	4802.78
463.50	5050.88
463.68	4851.93
463.86	4779.37
464.05	4837.89
464.23	4861.29
464.41	4947.89
464.59	4847.25
464.78	5060.24
464.96	4863.63
465.14	4912.78
465.32	4947.89
465.50	5018.11
465.69	5107.05
465.87	4999.38
466.05	4950.23
466.23	4957.25
466.41	5116.41
466.60	5149.18
466.78	5163.22
466.96	4961.94
467.14	5132.79
467.32	4931.51
467.51	5188.97
467.69	5151.52
467.87	5097.69
468.05	5214.71
468.23	5118.75
468.41	5060.24
468.60	5186.63
468.78	5252.16
468.96	5212.37
469.14	5203.01
469.32	5181.95
469.50	5336.42
469.69	5533.03
469.87	5371.53
470.05	5432.38
470.23	5345.78
470.41	5350.46
470.59	5420.68
470.77	5378.55
470.95	5397.28
471.14	5577.50
471.32	5439.40
471.50	5734.31
471.68	5617.29
471.86	5628.99
472.04	5600.90
472.22	5928.58
472.40	5687.50
472.58	5778.78
472.77	6008.16
472.95	5657.07
473.13	6064.33
473.31	5984.75
473.49	6052.63
473.67	6008.16
473.85	5757.72
474.03	6310.08
474.21	5921.56
474.39	6071.35
474.57	6111.14
474.75	6235.19
474.93	6179.01
475.12	6174.33
475.30	6291.36
475.48	6071.35
475.66	6176.67
475.84	6289.02
476.02	6443.49
476.20	6310.08
476.38	6363.92
476.56	6583.93
476.74	6729.04
476.92	6548.82
477.10	6487.96
477.28	6562.86
477.46	6682.23
477.64	6815.64
477.82	6871.81
478.00	7070.76
478.18	7052.03
478.36	7019.27
478.54	6998.20
478.72	7045.01
478.90	7026.29
479.08	7082.46
479.26	7281.41
479.44	7225.23
479.62	7370.35
479.80	7616.10
479.98	7578.65
480.16	7559.93
480.34	7473.33
480.52	7824.41
480.70	7955.48
480.88	7672.28
481.06	7871.22
481.24	7585.68
481.41	7946.12
481.59	7847.82
481.77	7946.12
481.95	8006.97
482.13	8128.68
482.31	8161.45
482.49	8484.44
482.67	8332.31
482.85	8294.86
483.03	8491.46
483.21	8664.66
483.39	8557.00
483.57	8671.68
483.74	8627.21
483.92	8587.43
484.10	8828.50
484.28	8842.54
484.46	8936.17
484.64	9144.47
484.82	9128.09
485.00	9252.14
485.18	9383.21
485.35	9408.95
485.53	9434.70
485.71	9633.64
485.89	9675.77
486.07	9745.99
486.25	9528.32
486.43	9738.97
486.61	9769.40
486.78	10120.48
486.96	10108.77
487.14	10115.80
487.32	10216.44
487.50	10272.61
487.68	10279.63
487.85	10305.38
488.03	10382.62
488.21	10452.83
488.39	10670.50
488.57	10883.49
488.75	10747.74
488.92	10824.98
489.10	11009.88
489.28	11014.56
489.46	11293.08
489.64	11232.23
489.81	11276.70
489.99	11379.68
490.17	11569.27
490.35	11632.46
490.53	11496.71
490.70	11761.19
490.88	11681.61
491.06	11791.62
491.24	11810.34
491.41	11974.18
491.59	11861.84
491.77	12308.88
491.95	12241.00
492.13	12138.02
492.30	12360.37
492.48	12175.47
492.66	12411.86
492.84	12631.87
493.01	12233.98
493.19	12802.73
493.37	12709.11
493.54	12987.63
493.72	12973.59
493.90	12872.95
494.08	13083.59
494.25	13036.78
494.43	13394.89
494.61	13378.50
494.79	13411.27
494.96	13483.83
495.14	13551.70
495.32	13664.05
495.49	13745.97
495.67	13778.73
495.85	13741.29
496.02	14073.64
496.20	13994.06
496.38	13998.74
496.55	14071.30
496.73	14368.55
496.91	14101.73
497.09	14443.45
497.26	14413.02
497.44	14204.71
497.62	14576.86
497.79	14759.42
497.97	14520.68
498.14	14913.89
498.32	14689.20
498.50	14970.07
498.67	15051.99
498.85	15213.48
499.03	15014.54
499.20	14977.09
499.38	15190.08
499.56	15564.56
499.73	15257.95
499.91	15709.68
500.08	15590.31
500.26	15339.87
500.44	15475.62
500.61	15658.18
500.79	15690.95
500.97	15702.65
501.14	16032.67
501.32	15957.77
501.49	16063.10
501.67	16039.69
501.84	16194.17
502.02	15756.49
502.20	16252.68
502.37	16606.10
502.55	16145.02
502.72	16170.76
502.90	16346.30
503.07	16601.42
503.25	16568.65
503.43	16318.22
503.60	16709.08
503.78	16725.47
503.95	16716.11
504.13	16840.15
504.30	16645.89
504.48	16816.75
504.65	16617.80
504.83	16989.95
505.01	17179.53
505.18	17205.28
505.36	17184.21
505.53	17298.90
505.71	17174.85
505.88	17418.27
506.06	17228.68
506.23	17413.59
506.41	17614.87
506.58	17680.41
506.76	17692.11
506.93	17532.95
507.11	17420.61
507.28	17530.61
507.46	17633.60
507.63	17621.89
507.81	17926.16
507.98	17664.02
508.16	17994.04
508.33	17970.63
508.50	17975.31
508.68	17987.02
508.85	18228.09
509.03	18314.69
509.20	18473.85
509.38	18415.34
509.55	18377.89
509.73	18607.26
509.90	18417.68
510.08	18394.27
510.25	18487.89
510.42	18600.24
510.60	18527.68
510.77	18817.91
510.95	18834.29
511.12	18686.84
511.30	18890.46
511.47	18953.66
511.64	19105.79
511.82	19009.83
511.99	19213.46
512.17	19239.20
512.34	19185.37
512.51	19248.57
512.69	19337.51
512.86	19583.26
513.04	19431.13
513.21	19569.22
513.38	19688.59
513.56	19798.59
513.73	19515.39
513.90	19709.65
514.08	19559.86
514.25	20009.24
514.43	20009.24
514.60	20105.20
514.77	19800.93
514.95	20088.82
515.12	20039.67
515.29	20074.77
515.47	20011.58
515.64	20201.16
515.81	20163.72
515.99	20196.48
516.16	20102.86
516.33	20577.99
516.51	20449.26
516.68	20498.41
516.85	20332.23
517.03	20582.67
517.20	20587.35
517.37	20458.62
517.54	20662.25
517.72	20844.81
517.89	20807.36
518.06	21067.16
518.24	20641.18
518.41	20800.34
518.58	20926.73
518.75	21177.17
518.93	20919.71
519.10	21036.74
519.27	21310.58
519.45	21369.09
519.62	21355.05
519.79	21270.79
519.96	21125.68
520.14	21336.32
520.31	21392.50
520.48	21699.11
520.65	21563.36
520.83	21184.19
521.00	21369.09
521.17	21724.85
521.34	21610.17
521.52	21696.77
521.69	21635.91
521.86	21940.18
522.03	21745.92
522.20	21675.70
522.38	22118.06
522.55	22288.92
522.72	21979.97
522.89	21816.13
523.07	22497.23
523.24	22237.43
523.41	22349.78
523.58	22153.17
523.75	22588.51
523.92	22218.71
524.10	22464.46
524.27	22518.29
524.44	22656.39
524.61	22965.34
524.78	22689.15
524.96	22815.54
525.13	22314.67
525.30	22754.69
525.47	22375.52
525.64	22721.92
525.81	22614.26
525.98	22808.52
526.16	23374.93
526.33	22850.65
526.50	22850.65
526.67	22822.56
526.84	23173.64
527.01	22892.78
527.18	23424.08
527.36	22951.29
527.53	23154.92
527.70	23566.85
527.87	23405.36
528.04	23431.10
528.21	23587.92
528.38	23417.06
528.55	23414.72
528.72	23630.05
528.89	23473.23
529.07	23613.66
529.24	23620.69
529.41	23426.42
529.58	23632.39
529.75	23690.90
529.92	23761.12
530.09	23749.42
530.26	23850.06
530.43	24060.71
530.60	24013.90
530.77	23765.80
530.94	23990.49
531.11	23550.47
531.28	23964.75
531.46	24009.22
531.63	23999.85
531.80	24233.91
531.97	24372.00
532.14	24390.72
532.31	24313.48
532.48	24491.37
532.65	24081.77
532.82	24215.18
532.99	24056.03
533.16	24318.17
533.33	24531.15
533.50	24346.25
533.67	24498.39
533.84	24381.36
534.01	24414.13
534.18	24381.36
534.35	24741.80
534.52	24702.01
534.69	24657.54
534.86	25027.35
535.03	24786.27
535.20	24978.20
535.37	24805.00
535.54	25008.62
535.71	24842.45
535.88	24842.45
536.05	24840.11
536.22	25296.51
536.38	24954.79
536.55	25025.01
536.72	24968.84
536.89	25104.59
537.06	24776.91
537.23	24905.64
537.40	25036.71
537.57	25163.10
537.74	25448.64
537.91	25671.00
538.08	25181.82
538.25	25240.34
538.42	25544.61
538.59	25270.76
538.75	25312.89
538.92	25142.03
539.09	25539.93
539.26	25628.87
539.43	25401.83
539.60	25591.42
539.77	25612.48
539.94	25472.05
540.11	25694.40
540.28	25542.27
540.44	25638.23
540.61	25764.62
540.78	25696.74
540.95	25937.82
541.12	25736.53
541.29	25972.92
541.46	25947.18
541.62	25834.83
541.79	26141.44
541.96	25851.22
542.13	26022.08
542.30	26040.80
542.47	26373.16
542.63	26258.47
542.80	26464.44
542.97	26948.93
543.14	26455.08
543.31	26277.19
543.48	26263.15
543.64	26747.64
543.81	27096.38
543.98	26466.78
544.15	26831.90
544.32	26511.25
544.48	27255.54
544.65	26508.91
544.82	26742.96
544.99	26438.69
545.16	26703.17
545.32	26906.80
545.49	27040.21
545.66	27009.78
545.83	27037.87
546.00	27009.78
546.16	27307.03
546.33	26820.20
546.50	26499.55
546.67	27108.08
546.83	26548.70
547.00	27161.92
547.17	27175.96
547.34	26897.44
547.50	27318.73
547.67	27220.43
547.84	27386.61
548.00	27328.10
548.17	27398.31
548.34	27248.52
548.51	27365.54
548.67	27583.21
548.84	27370.22
549.01	27262.56
549.18	27309.37
549.34	27496.61
549.51	27693.22
549.68	27379.59
549.84	27529.38
550.01	27529.38
550.18	27620.66
550.34	27613.64
550.51	28100.47
550.68	27590.24
550.84	27601.94
551.01	28025.57
551.18	27585.55
551.34	27349.16
551.51	27646.41
551.68	27611.30
551.84	27606.62
552.01	28023.23
552.18	27623.00
552.34	27854.72
552.51	28151.96
552.68	28070.04
552.84	28194.09
553.01	27981.10
553.18	27789.18
553.34	28088.77
553.51	28196.43
553.67	28400.06
553.84	28350.91
554.01	28091.11
554.17	27924.93
554.34	28016.21
554.51	28079.41
554.67	28367.29
554.84	28451.55
555.00	28072.39
555.17	28325.16
555.33	28535.81
555.50	28533.47
555.67	28198.77
555.83	28264.31
556.00	28517.09
556.16	28144.94
556.33	28353.25
556.50	28755.82
556.66	28304.10
556.83	28187.07
556.99	28624.75
557.16	28699.65
557.32	28940.72
557.49	28734.76
557.65	28325.16
557.82	28371.97
557.98	28589.64
558.15	28814.34
558.32	28678.58
558.48	28725.39
558.65	28547.51
558.81	28837.74
558.98	29071.79
559.14	28624.75
559.31	29102.22
559.47	28968.81
559.64	29003.92
559.80	28971.15
559.97	28849.44
560.13	28774.55
560.30	28931.36
560.46	28622.41
560.63	28973.49
560.79	28884.55
560.96	29020.30
561.12	28769.86
561.29	29095.20
561.45	28856.46
561.61	28903.28
561.78	28893.91
561.94	29195.84
562.11	29006.26
562.27	29413.51
562.44	29235.63
562.60	29284.78
562.77	29006.26
562.93	28917.32
563.10	29034.35
563.26	29125.63
563.42	29516.50
563.59	29139.67
563.75	29085.84
563.92	29472.03
564.08	28957.11
564.24	29439.26
564.41	29259.04
564.57	28865.83
564.74	29425.22
564.90	29254.36
565.07	29338.62
565.23	29188.82
565.39	29074.13
565.56	29448.62
565.72	29406.49
565.88	29383.09
566.05	29340.96
566.21	29294.14
566.38	29308.19
566.54	29429.90
566.70	29642.88
566.87	29694.38
567.03	29511.81
567.19	29757.57
567.36	29436.92
567.52	29727.14
567.68	29572.67
567.85	29301.17
568.01	29539.90
568.17	29619.48
568.34	29500.11
568.50	30050.14
568.66	29715.44
568.83	29523.52
568.99	29544.58
569.15	29968.22
569.32	29809.06
569.48	29235.63
569.64	29612.46
569.81	29579.69
569.97	29500.11
570.13	29638.20
570.30	29949.50
570.46	29539.90
570.62	29591.39
570.78	29696.72
570.95	29432.24
571.11	29607.78
571.27	29425.22
571.43	29256.70
571.60	29621.82
571.76	29802.04
571.92	29813.74
572.09	29582.03
572.25	29666.29
572.41	29659.27
572.57	29895.66
572.74	29689.70
572.90	29425.22
573.06	29621.82
573.22	29736.51
573.38	29647.57
573.55	30005.67
573.71	30314.62
573.87	29921.41
574.03	30022.05
574.20	29661.61
574.36	29652.25
574.52	30075.88
574.68	30075.88
574.84	29689.70
575.01	30033.75
575.17	29844.17
575.33	29567.99
575.49	29839.49
575.65	29839.49
575.82	29750.55
575.98	29900.34
576.14	29780.98
576.30	29909.71
576.46	29937.79
576.62	29621.82
576.79	29869.92
576.95	29745.87
577.11	29708.42
577.27	30106.31
577.43	30022.05
577.59	29860.55
577.75	29748.21
577.92	29598.41
578.08	29942.47
578.24	29724.80
578.40	30073.54
578.56	29848.85
578.72	30061.84
578.88	30433.99
579.04	30043.12
579.21	30010.35
579.37	30045.46
579.53	30012.69
579.69	29930.77
579.85	29780.98
580.01	29692.04
580.17	29661.61
580.33	30019.71
580.49	30221.00
580.65	30148.44
580.82	29944.81
580.98	29876.94
581.14	30223.34
581.30	30499.52
581.46	29734.17
581.62	29851.19
581.78	29965.88
581.94	30356.75
582.10	29940.13
582.26	30073.54
582.42	30040.78
582.58	29947.15
582.74	30045.46
582.90	30110.99
583.06	29930.77
583.22	30047.80
583.38	30125.04
583.54	30043.12
583.70	30122.69
583.86	30031.41
584.02	30160.14
584.18	30342.70
584.34	30263.13
584.50	30333.34
584.66	30293.55
584.82	29949.50
584.98	29909.71
585.14	29979.92
585.30	29888.64
585.46	29799.70
585.62	29935.45
585.78	30314.62
585.94	30029.07
586.10	30080.56
586.26	29886.30
586.42	30558.03
586.58	30059.50
586.74	29996.31
586.90	29816.08
587.06	30047.80
587.22	30113.33
587.38	30331.00
587.54	30342.70
587.70	30230.36
587.86	30221.00
588.02	30085.25
588.18	30583.78
588.34	30462.07
588.49	30300.58
588.65	30396.54
588.81	30216.32
588.97	30288.87
589.13	30087.59
589.29	29818.42
589.45	30342.70
589.61	29916.73
589.77	30731.23
589.93	30504.20
590.08	30698.47
590.24	30543.99
590.40	30478.46
590.56	30850.60
590.72	30632.93
590.88	30281.85
591.04	30366.11
591.20	30525.27
591.35	30689.10
591.51	30841.24
591.67	30700.81
591.83	30347.39
591.99	30932.52
