SpectraSuite Data File
++++++++++++++++++++++++++++++++++++
Date: Fri Oct 18 13:55:17 GMT-05:00 2013
User: bianchi
Dark Spectrum Present: No
Reference Spectrum Present: No
Number of Sampled Component Spectra: 1
Spectrometers: USB2+H05261
Integration Time (usec): 100000 (USB2+H05261)
Spectra Averaged: 1 (USB2+H05261)
Boxcar Smoothing: 0 (USB2+H05261)
Correct for Electrical Dark: No (USB2+H05261)
Strobe/Lamp Enabled: No (USB2+H05261)
Correct for Detector Non-linearity: No (USB2+H05261)
Correct for Stray Light: No (USB2+H05261)
Number of Pixels in Processed Spectrum: 2048
>>>>>Begin Processed Spectral Data<<<<<
365.73	0.00
365.92	0.00
366.12	0.00
366.32	0.00
366.52	0.00
366.72	0.00
366.91	0.00
367.11	0.00
367.31	0.00
367.51	0.00
367.70	0.00
367.90	0.00
368.10	0.00
368.30	0.00
368.49	0.00
368.69	0.00
368.89	0.00
369.09	0.00
369.28	0.00
369.48	0.00
369.68	0.00
369.87	0.00
370.07	0.00
370.27	0.00
370.47	39.79
370.66	297.25
370.86	348.74
371.06	376.83
371.25	376.83
371.45	313.63
371.65	381.51
371.84	388.53
372.04	386.19
372.24	341.72
372.44	379.17
372.63	430.66
372.83	388.53
373.03	461.09
373.22	440.02
373.42	437.68
373.62	470.45
373.81	507.90
374.01	496.19
374.21	456.40
374.40	428.32
374.60	414.27
374.79	477.47
374.99	503.22
375.19	552.37
375.38	507.90
375.58	454.06
375.78	449.38
375.97	573.43
376.17	580.45
376.37	533.64
376.56	587.47
376.76	500.87
376.95	521.94
377.15	601.52
377.35	559.39
377.54	615.56
377.74	528.96
377.93	571.09
378.13	571.09
378.33	622.58
378.52	592.16
378.72	617.90
378.91	573.43
379.11	543.00
379.31	622.58
379.50	585.13
379.70	629.60
379.89	599.18
380.09	676.41
380.28	585.13
380.48	662.37
380.68	608.54
380.87	671.73
381.07	657.69
381.26	709.18
381.46	667.05
381.65	641.31
381.85	643.65
382.04	629.60
382.24	741.95
382.43	760.67
382.63	763.01
382.83	753.65
383.02	716.20
383.22	777.06
383.41	706.84
383.61	706.84
383.80	788.76
384.00	723.23
384.19	765.36
384.39	863.66
384.58	727.91
384.78	718.54
384.97	828.55
385.17	755.99
385.36	699.82
385.56	809.83
385.75	709.18
385.95	765.36
386.14	805.14
386.34	837.91
386.53	753.65
386.72	770.04
386.92	873.02
387.11	875.36
387.31	833.23
387.50	870.68
387.70	856.64
387.89	887.06
388.09	854.30
388.28	786.42
388.48	901.11
388.67	945.58
388.86	992.39
389.06	933.87
389.25	922.17
389.45	929.19
389.64	954.94
389.84	959.62
390.03	1020.47
390.22	980.68
390.42	959.62
390.61	1053.24
390.81	1053.24
391.00	1062.60
391.19	1081.33
391.39	1032.18
391.58	959.62
391.78	964.30
391.97	1036.86
392.16	971.32
392.36	1107.07
392.55	1100.05
392.75	1039.20
392.94	1081.33
393.13	1158.57
393.33	1011.11
393.52	1146.86
393.71	1214.74
393.91	1203.04
394.10	1163.25
394.29	1158.57
394.49	1240.48
394.68	1198.35
394.88	1163.25
395.07	1280.27
395.26	1224.10
395.46	1238.14
395.65	1308.36
395.84	1259.21
396.04	1341.13
396.23	1291.98
396.42	1299.00
396.62	1352.83
396.81	1306.02
397.00	1390.28
397.19	1411.34
397.39	1486.24
397.58	1392.62
397.77	1327.08
397.97	1439.43
398.16	1366.87
398.35	1465.18
398.55	1444.11
398.74	1423.05
398.93	1516.67
399.12	1483.90
399.32	1451.13
399.51	1483.90
399.70	1558.80
399.90	1404.32
400.09	1575.18
400.28	1551.78
400.47	1596.25
400.67	1626.67
400.86	1586.88
401.05	1568.16
401.24	1626.67
401.44	1589.22
401.63	1746.04
401.82	1652.42
402.01	1680.50
402.21	1771.79
402.40	1748.38
402.59	1732.00
402.78	1732.00
402.97	1783.49
403.17	1785.83
403.36	1790.51
403.55	1783.49
403.74	1713.27
403.93	1797.53
404.13	1940.30
404.32	1849.02
404.51	1926.26
404.70	1928.60
404.89	1837.32
405.09	2033.93
405.28	1937.96
405.47	2052.65
405.66	2024.56
405.85	2024.56
406.05	2069.03
406.24	2087.76
406.43	2176.70
406.62	2237.55
406.81	2246.91
407.00	2188.40
407.20	2181.38
407.39	2176.70
407.58	2207.13
407.77	2218.83
407.96	2242.23
408.15	2370.96
408.34	2260.96
408.54	2317.13
408.73	2303.09
408.92	2326.49
409.11	2347.56
409.30	2394.37
409.49	2450.54
409.68	2593.31
409.87	2520.76
410.07	2581.61
410.26	2576.93
410.45	2506.71
410.64	2715.02
410.83	2473.95
411.02	2661.19
411.21	2693.96
411.40	2675.23
411.59	2675.23
411.78	2794.60
411.98	2806.30
412.17	2785.24
412.36	2836.73
412.55	2778.22
412.74	2979.50
412.93	2958.44
413.12	2710.34
413.31	3152.70
413.50	3033.33
413.69	2937.37
413.88	3124.62
414.07	3178.45
414.26	3162.06
414.45	3169.09
414.64	3243.98
414.83	3241.64
415.02	3227.60
415.22	3267.39
415.41	3262.71
415.60	3363.35
415.79	3410.16
415.98	3534.21
416.17	3358.67
416.36	3487.40
416.55	3648.90
416.74	3536.55
416.93	3620.81
417.12	3653.58
417.31	3662.94
417.50	3744.86
417.69	3709.75
417.88	3847.84
418.07	3887.63
418.26	3808.05
418.45	3770.60
418.64	3829.12
418.83	3999.98
419.02	3922.74
419.21	4032.74
419.39	3983.59
419.58	3957.85
419.77	4049.13
419.96	4032.74
420.15	4131.05
420.34	4072.53
420.53	4053.81
420.72	4250.41
420.91	4161.47
421.10	4327.65
421.29	4418.93
421.48	4208.28
421.67	4243.39
421.86	4276.16
422.05	4334.67
422.24	4229.35
422.43	4273.82
422.61	4444.68
422.80	4500.85
422.99	4386.16
423.18	4531.28
423.37	4348.72
423.56	4505.53
423.75	4421.27
423.94	4341.69
424.13	4222.33
424.32	4189.56
424.50	4325.31
424.69	4559.36
424.88	4643.62
425.07	4440.00
425.26	4355.74
425.45	4526.60
425.64	4369.78
425.83	4493.83
426.01	4547.66
426.20	4521.92
426.39	4638.94
426.58	4458.72
426.77	4526.60
426.96	4599.15
427.15	4688.09
427.33	4601.49
427.52	4676.39
427.71	4926.83
427.90	4702.14
428.09	4652.98
428.28	4786.40
428.46	4758.31
428.65	4844.91
428.84	5088.32
429.03	5184.29
429.22	4950.23
429.40	5004.07
429.59	5111.73
429.78	4837.89
429.97	4751.29
430.16	4919.81
430.34	5015.77
430.53	5273.23
430.72	5142.16
430.91	4961.94
431.10	4957.25
431.28	5294.29
431.47	5245.14
431.66	5320.04
431.85	5177.26
432.03	5411.32
432.22	5572.82
432.41	5245.14
432.60	5352.81
432.79	5270.89
432.97	5516.64
433.16	5500.26
433.35	5469.83
433.54	5540.05
433.72	5493.24
433.91	5446.43
434.10	5390.25
434.28	5598.56
434.47	5493.24
434.66	5636.01
434.85	5678.14
435.03	5760.06
435.22	5675.80
435.41	6001.13
435.59	5692.18
435.78	5727.29
435.97	5837.30
436.16	5994.11
436.34	5856.02
436.53	6010.50
436.72	6071.35
436.90	5832.62
437.09	6101.78
437.28	5792.83
437.46	5996.45
437.65	6181.35
437.84	6141.57
438.02	6190.72
438.21	6101.78
438.40	6136.88
438.58	6494.99
438.77	6349.87
438.96	6328.81
439.14	6532.44
439.33	6583.93
439.52	6726.70
439.70	6644.78
439.89	6780.53
440.08	6869.47
440.26	6775.85
440.45	6654.14
440.63	6771.17
440.82	7117.57
441.01	6885.86
441.19	7030.97
441.38	7232.26
441.57	7075.44
441.75	7190.13
441.94	7274.38
442.12	7169.06
442.31	7368.01
442.50	7332.90
442.68	7232.26
442.87	7295.45
443.05	7297.79
443.24	7611.42
443.43	7337.58
443.61	7648.87
443.80	7646.53
443.98	7318.86
444.17	7222.89
444.35	7513.12
444.54	7590.36
444.73	7503.76
444.91	7428.86
445.10	7599.72
445.28	7698.02
445.47	7485.03
445.65	7597.38
445.84	7681.64
446.02	7941.44
446.21	7599.72
446.39	7742.49
446.58	7646.53
446.77	7672.28
446.95	7634.83
447.14	7665.25
447.32	7838.45
447.51	7733.13
447.69	7625.47
447.88	7775.26
448.06	7693.34
448.25	7681.64
448.43	7782.28
448.62	7889.95
448.80	7838.45
448.99	7676.96
449.17	7805.69
449.36	7911.01
449.54	8217.62
449.73	8528.91
449.91	8100.59
450.10	8196.56
450.28	8231.66
450.46	8262.09
450.65	8231.66
450.83	8311.24
451.02	8177.83
451.20	8297.20
451.39	8304.22
451.57	8397.84
451.76	8217.62
451.94	8376.78
452.13	8461.04
452.31	8526.57
452.49	8166.13
452.68	8496.14
452.86	8561.68
453.05	8659.98
453.23	8655.30
453.42	8571.04
453.60	8507.85
453.78	8706.79
453.97	8493.80
454.15	8784.03
454.34	8821.48
454.52	8975.95
454.70	8926.80
454.89	8982.98
455.07	8861.27
455.26	9043.83
455.44	9153.84
455.62	9095.32
455.81	8964.25
455.99	9085.96
456.17	9039.15
456.36	9231.07
456.54	9329.38
456.73	9425.34
456.91	9490.87
457.09	9586.83
457.28	9533.00
457.46	9434.70
457.64	9745.99
457.83	9664.07
458.01	9453.42
458.19	9731.95
458.38	9792.80
458.56	9682.80
458.74	9834.93
458.93	9647.69
459.11	9724.93
459.29	9877.06
459.48	9891.10
459.66	10047.92
459.84	10040.90
460.03	10272.61
460.21	10068.98
460.39	9982.38
460.57	10059.62
460.76	10061.96
460.94	10281.97
461.12	10406.02
461.31	10036.22
461.49	10242.18
461.67	10150.90
461.85	10221.12
462.04	10401.34
462.22	10843.70
462.40	10473.90
462.59	10239.84
462.77	10569.86
462.95	10450.49
463.13	10565.18
463.32	10743.06
463.50	10672.84
463.68	10675.18
463.86	10518.37
464.05	10548.79
464.23	10904.56
464.41	10832.00
464.59	10548.79
464.78	11098.82
464.96	10836.68
465.14	10663.48
465.32	11089.46
465.50	11126.91
465.69	11009.88
465.87	10984.13
466.05	11007.54
466.23	11014.56
466.41	11351.60
466.60	11391.39
466.78	11061.37
466.96	11255.64
467.14	11225.21
467.32	11265.00
467.51	11562.25
467.69	10871.79
467.87	11304.79
468.05	11283.72
468.23	11154.99
468.41	11208.83
468.60	11323.51
468.78	11690.98
468.96	11356.28
469.14	11449.90
469.32	11976.52
469.50	11466.28
469.69	11833.75
469.87	12067.80
470.05	11999.93
470.23	11889.92
470.41	11927.37
470.59	12067.80
470.77	11995.25
470.95	12037.38
471.14	12121.63
471.32	12044.40
471.50	12355.69
471.68	12257.39
471.86	12458.67
472.04	12461.01
472.22	12622.51
472.40	12592.08
472.58	12566.34
472.77	12540.59
472.95	12938.48
473.13	12968.91
473.31	13022.74
473.49	12578.04
473.67	12996.99
473.85	12751.24
474.03	13247.43
474.21	13582.13
474.39	13399.57
474.57	13170.19
474.75	13441.70
474.93	13760.01
475.12	13497.87
475.30	13661.71
475.48	13525.96
475.66	13584.47
475.84	13647.66
476.02	13926.19
476.20	13987.04
476.38	14377.91
476.56	14328.76
476.74	14317.06
476.92	14307.69
477.10	14176.62
477.28	14583.88
477.46	14361.53
477.64	14721.97
477.82	15110.50
478.00	15269.66
478.18	15344.55
478.36	15389.02
478.54	15506.05
478.72	15538.82
478.90	15810.32
479.08	15726.06
479.26	16203.53
479.44	16112.25
479.62	16339.28
479.80	16449.28
479.98	16430.56
480.16	16570.99
480.34	16475.03
480.52	17144.42
480.70	17011.01
480.88	16851.86
481.06	16826.11
481.24	16896.33
481.41	17170.17
481.59	17472.10
481.77	17554.02
481.95	17776.37
482.13	18274.90
482.31	17886.37
482.49	18457.46
482.67	18099.36
482.85	18593.22
483.03	18665.77
483.21	18647.05
483.39	18972.38
483.57	18661.09
483.74	19051.96
483.92	19176.01
484.10	19494.32
484.28	19431.13
484.46	20093.50
484.64	20180.10
484.82	19688.59
485.00	20039.67
485.18	20360.32
485.35	20912.69
485.53	20741.83
485.71	20732.47
485.89	21418.24
486.07	20943.11
486.25	21310.58
486.43	21254.40
486.61	21809.11
486.78	21874.65
486.96	21989.33
487.14	22216.36
487.32	21879.33
487.50	22483.19
487.68	22724.26
487.85	22944.27
488.03	23161.94
488.21	23297.69
488.39	23363.23
488.57	23667.50
488.75	23697.92
488.92	23967.09
489.10	24109.86
489.28	24327.53
489.46	24669.25
489.64	24617.75
489.81	24884.58
489.99	24889.26
490.17	25221.61
490.35	25221.61
490.53	25596.10
490.70	25860.58
490.88	25635.89
491.06	26242.09
491.24	25603.12
491.41	26087.61
491.59	26410.60
491.77	26529.97
491.95	26581.46
492.13	27026.17
492.30	27206.39
492.48	27105.74
492.66	27047.23
492.84	27805.56
493.01	27552.79
493.19	27847.69
493.37	28381.34
493.54	28556.88
493.72	28348.57
493.90	28643.48
494.08	28369.63
494.25	29153.71
494.43	28889.23
494.61	29062.43
494.79	29387.77
494.96	29331.59
495.14	29687.36
495.32	29759.91
495.49	30012.69
495.67	30174.19
495.85	30445.69
496.02	30845.92
496.20	30841.24
496.38	30672.72
496.55	31122.10
496.73	31342.11
496.91	31274.24
497.09	31580.85
497.26	31662.77
497.44	31454.46
497.62	31690.85
497.79	32285.35
497.97	32081.72
498.14	32507.70
498.32	32549.83
498.50	32294.71
498.67	32973.47
498.85	32779.20
499.03	32961.76
499.20	33039.00
499.38	32877.51
499.56	33502.43
499.73	33720.10
499.91	33350.29
500.08	34237.36
500.26	33820.74
500.44	33755.21
500.61	33991.60
500.79	34003.30
500.97	34319.28
501.14	34948.88
501.32	34794.40
501.49	34312.25
501.67	34726.53
501.84	34813.13
502.02	34801.43
502.20	35356.13
502.37	35421.67
502.55	35229.74
502.72	35857.01
502.90	35501.25
503.07	35463.80
503.25	35484.86
503.43	35990.42
503.60	36273.62
503.78	36893.86
503.95	36498.31
504.13	36500.65
504.30	36385.97
504.48	36329.80
504.65	36987.49
504.83	37036.64
505.01	36985.15
505.18	37062.38
505.36	37589.00
505.53	37120.90
505.71	36989.83
505.88	37605.39
506.06	37024.93
506.23	38073.49
506.41	37811.35
506.58	38225.63
506.76	37968.17
506.93	38108.60
507.11	38164.78
507.28	38518.20
507.46	38850.55
507.63	38616.50
507.81	38836.51
507.98	38918.43
508.16	38677.35
508.33	38738.21
508.50	38976.94
508.68	38600.12
508.85	39136.10
509.03	39533.99
509.20	39360.79
509.38	39992.73
509.55	40250.19
509.73	39812.51
509.90	40240.83
510.08	39950.60
510.25	40065.29
510.42	40634.04
510.60	40858.73
510.77	40982.78
510.95	40907.88
511.12	40765.11
511.30	40861.07
511.47	41071.72
511.64	41331.52
511.82	41708.35
511.99	40790.86
512.17	41598.34
512.34	41326.84
512.51	41762.18
512.69	41544.51
512.86	41897.93
513.04	42312.20
513.21	42396.46
513.38	42576.69
513.56	42600.09
513.73	42057.09
513.90	42286.46
514.08	42270.08
514.25	42887.98
514.43	42569.66
514.60	42724.14
514.77	42895.00
514.95	43140.75
515.12	42885.64
515.29	43344.38
515.47	43580.78
515.64	43107.99
515.81	43669.72
515.99	43569.07
516.16	43959.94
516.33	43880.36
516.51	43601.84
516.68	43728.23
516.85	44144.84
517.03	44156.55
517.20	44100.37
517.37	44278.25
517.54	44596.57
517.72	44088.67
517.89	44479.54
518.06	44545.08
518.24	44879.77
518.41	44641.04
518.58	44474.86
518.75	44786.15
518.93	45162.98
519.10	45088.08
519.27	45155.96
519.45	44973.39
519.62	45338.52
519.79	45095.10
519.96	45404.05
520.14	45715.34
520.31	45869.82
520.48	45811.31
520.65	45427.46
520.83	46471.34
521.00	45371.28
521.17	45825.35
521.34	46127.28
521.52	46494.74
521.69	46326.22
521.86	46628.15
522.03	46866.89
522.20	46646.88
522.38	46227.92
522.55	46464.32
522.72	46499.42
522.89	47454.36
523.07	46759.22
523.24	47086.90
523.41	47576.07
523.58	47075.19
523.75	47508.19
523.92	47047.11
524.10	47360.74
524.27	47192.22
524.44	47718.84
524.61	48065.24
524.78	48203.33
524.96	48076.94
525.13	47840.55
525.30	48170.57
525.47	48004.39
525.64	48086.31
525.81	47997.37
525.98	48514.62
526.16	48098.01
526.33	48268.87
526.50	48718.25
526.67	47922.47
526.84	48568.46
527.01	48556.75
527.18	48112.05
527.36	49003.80
527.53	48800.17
527.70	48964.01
527.87	48933.58
528.04	48942.94
528.21	49066.99
528.38	48917.20
528.55	49235.51
528.72	49120.82
528.89	49287.00
529.07	49317.43
529.24	48987.41
529.41	49401.69
529.58	49467.22
529.75	49169.97
529.92	49404.03
530.09	49439.14
530.26	49434.45
530.43	49834.69
530.60	49701.28
530.77	49649.78
530.94	49881.50
531.11	49593.61
531.28	49715.32
531.46	49806.60
531.63	50167.04
531.80	50237.26
531.97	50171.72
532.14	50258.32
532.31	50415.14
532.48	50340.24
532.65	50335.56
532.82	49972.78
532.99	50398.76
533.16	50373.01
533.33	50691.32
533.50	51117.30
533.67	50766.22
533.84	50492.38
534.01	50431.52
534.18	50443.23
534.35	50850.48
534.52	50871.54
534.69	51051.76
534.86	51011.98
535.03	50726.43
535.20	50946.44
535.37	51246.03
535.54	51463.70
535.71	50597.70
535.88	51346.67
536.05	50810.69
536.22	51302.20
536.38	51599.45
536.55	51512.85
536.72	51611.15
536.89	51398.16
537.06	51648.60
537.23	51498.81
537.40	51515.19
537.57	51351.35
537.74	51650.94
537.91	51796.06
538.08	51889.68
538.25	51786.69
538.42	51803.08
538.59	52025.43
538.75	51325.61
538.92	51856.91
539.09	52109.69
539.26	51971.60
539.43	51892.02
539.60	52271.18
539.77	52116.71
539.94	52416.30
540.11	52175.22
540.28	52196.29
540.44	52437.36
540.61	52156.50
540.78	52114.37
540.95	52341.40
541.12	52301.61
541.29	52322.68
541.46	52449.06
541.62	52762.70
541.79	52446.72
541.96	52069.90
542.13	52154.16
542.30	52584.82
542.47	52755.68
542.63	52907.81
542.80	52865.68
542.97	53066.97
543.14	52882.06
543.31	52956.96
543.48	52956.96
543.64	53427.41
543.81	53256.55
543.98	53448.47
544.15	53453.15
544.32	53247.19
544.48	53371.24
544.65	53450.81
544.82	53237.83
544.99	53329.11
545.16	53357.19
545.32	53270.59
545.49	53806.58
545.66	53703.59
545.83	53535.07
546.00	53900.20
546.16	53602.95
546.33	53631.04
546.50	53272.93
546.67	53551.46
546.83	53301.02
547.00	53607.63
547.17	53638.06
547.34	53815.94
547.50	53942.33
547.67	54035.95
547.84	53815.94
548.00	54145.95
548.17	54197.44
548.34	53982.12
548.51	54253.62
548.67	54045.31
548.84	54255.96
549.01	54223.19
549.18	53890.83
549.34	54171.70
549.51	53834.66
549.68	53932.96
549.84	54017.22
550.01	54185.74
550.18	54122.55
550.34	54461.93
550.51	54681.94
550.68	54272.34
550.84	53900.20
551.01	54438.52
551.18	54061.69
551.34	54127.23
551.51	54272.34
551.68	54539.16
551.84	54440.86
552.01	54405.75
552.18	54370.64
552.34	54506.40
552.51	54597.68
552.68	54272.34
552.84	54719.38
553.01	54869.18
553.18	54695.98
553.34	54656.19
553.51	54501.71
553.67	54801.30
553.84	55112.59
554.01	54880.88
554.17	54927.69
554.34	54913.65
554.51	54841.09
554.67	55121.96
554.84	54878.54
555.00	54707.68
555.17	55117.28
555.33	55061.10
555.50	54948.76
555.67	54742.79
555.83	55103.23
556.00	54920.67
556.16	55025.99
556.33	54845.77
556.50	54798.96
556.66	55348.99
556.83	55007.27
556.99	55288.13
557.16	55370.05
557.32	55304.52
557.49	55454.31
557.65	54899.61
557.82	55269.41
557.98	55107.91
558.15	55220.26
558.32	55463.67
558.48	55370.05
558.65	55334.95
558.81	55217.92
558.98	55501.12
559.14	55451.97
559.31	55524.53
559.47	55203.88
559.64	55356.01
559.80	55529.21
559.97	55767.94
560.13	55388.78
560.30	55524.53
560.46	55458.99
560.63	55599.43
560.79	55501.12
560.96	55585.38
561.12	55674.32
561.29	55473.04
561.45	55709.43
561.61	55653.26
561.78	55664.96
561.94	55746.88
562.11	55842.84
562.27	55599.43
562.44	55372.39
562.60	55496.44
562.77	55671.98
562.93	55625.17
563.10	55884.97
563.26	55580.70
563.42	56172.86
563.59	55856.88
563.75	55688.37
563.92	55941.14
564.08	55718.79
564.24	55683.69
564.41	55810.07
564.57	55894.33
564.74	55646.24
564.90	55725.81
565.07	55576.02
565.23	55969.23
565.39	55899.01
565.56	56090.94
565.72	55983.27
565.88	55859.23
566.05	55784.33
566.21	55735.18
566.38	55611.13
566.54	55917.74
566.70	56168.18
566.87	56172.86
567.03	56144.77
567.19	56322.65
567.36	55917.74
567.52	55599.43
567.68	56058.17
567.85	55952.85
568.01	55955.19
568.17	55948.17
568.34	56060.51
568.50	55845.18
568.66	55978.59
568.83	56067.53
568.99	55690.71
569.15	55847.52
569.32	55924.76
569.48	55805.39
569.64	55980.93
569.81	56065.19
569.97	56161.15
570.13	56172.86
570.30	56034.77
570.46	56107.32
570.62	55899.01
570.78	55973.91
570.95	55929.44
571.11	55978.59
571.27	55920.08
571.43	56107.32
571.60	56018.38
571.76	56165.84
571.92	56137.75
572.09	56214.99
572.25	56086.26
572.41	56217.33
572.57	56224.35
572.74	56420.95
572.90	56177.54
573.06	56079.24
573.22	56219.67
573.38	56137.75
573.55	56261.80
573.71	56584.79
573.87	56456.06
574.03	55985.61
574.20	56336.69
574.36	56231.37
574.52	56090.94
574.68	56006.68
574.84	56093.28
575.01	56121.37
575.17	56076.90
575.33	56369.46
575.49	56409.25
575.65	56409.25
575.82	56505.21
575.98	56095.62
576.14	56540.32
576.30	56126.05
576.46	56151.79
576.62	56114.34
576.79	56306.27
576.95	56315.63
577.11	56074.55
577.27	56200.94
577.43	56214.99
577.59	56465.42
577.75	56147.11
577.92	55913.06
578.08	56233.71
578.24	56006.68
578.40	56313.29
578.56	56004.34
578.72	56411.59
578.88	56610.54
579.04	56313.29
579.21	56198.60
579.37	56449.04
579.53	56203.28
579.69	56289.88
579.85	56133.07
580.01	56266.48
580.17	56278.18
580.33	56048.81
580.49	55964.55
580.65	56371.80
580.82	56329.67
580.98	56420.95
581.14	56427.98
581.30	56163.50
581.46	56280.52
581.62	56266.48
581.78	56191.58
581.94	56327.33
582.10	56011.36
582.26	56350.74
582.42	56467.76
582.58	56566.07
582.74	56343.72
582.90	56460.74
583.06	56381.16
583.22	56327.33
583.38	56289.88
583.54	56317.97
583.70	56161.15
583.86	56383.51
584.02	56308.61
584.18	56552.02
584.34	56261.80
584.50	56577.77
584.66	56310.95
584.82	56179.88
584.98	56210.31
585.14	56219.67
585.30	56046.47
585.46	56348.40
585.62	56315.63
585.78	56409.25
585.94	56030.08
586.10	56292.22
586.26	56432.66
586.42	56341.38
586.58	56360.10
586.74	56474.79
586.90	56388.19
587.06	56142.43
587.22	56430.32
587.38	56264.14
587.54	56381.16
587.70	56774.37
587.86	56554.36
588.02	56547.34
588.18	56612.88
588.34	56409.25
588.49	56647.99
588.65	56383.51
588.81	56591.81
588.97	56416.27
589.13	56392.87
589.29	56385.85
589.45	56552.02
589.61	56315.63
