SpectraSuite Data File
++++++++++++++++++++++++++++++++++++
Date: Fri Oct 18 13:55:11 GMT-05:00 2013
User: bianchi
Dark Spectrum Present: No
Reference Spectrum Present: No
Number of Sampled Component Spectra: 1
Spectrometers: USB2+H05261
Integration Time (usec): 100000 (USB2+H05261)
Spectra Averaged: 1 (USB2+H05261)
Boxcar Smoothing: 0 (USB2+H05261)
Correct for Electrical Dark: No (USB2+H05261)
Strobe/Lamp Enabled: No (USB2+H05261)
Correct for Detector Non-linearity: No (USB2+H05261)
Correct for Stray Light: No (USB2+H05261)
Number of Pixels in Processed Spectrum: 2048
>>>>>Begin Processed Spectral Data<<<<<
365.73	0.00
365.92	0.00
366.12	0.00
366.32	0.00
366.52	0.00
366.72	0.00
366.91	0.00
367.11	0.00
367.31	0.00
367.51	0.00
367.70	0.00
367.90	0.00
368.10	0.00
368.30	0.00
368.49	0.00
368.69	0.00
368.89	0.00
369.09	0.00
369.28	0.00
369.48	0.00
369.68	0.00
369.87	0.00
370.07	0.00
370.27	0.00
370.47	28.09
370.66	273.84
370.86	348.74
371.06	337.04
371.25	381.51
371.45	360.44
371.65	341.72
371.84	353.42
372.04	400.23
372.24	365.12
372.44	355.76
372.63	461.09
372.83	435.34
373.03	437.68
373.22	484.49
373.42	404.91
373.62	435.34
373.81	411.93
374.01	503.22
374.21	477.47
374.40	411.93
374.60	489.17
374.79	543.00
374.99	594.50
375.19	496.19
375.38	454.06
375.58	468.11
375.78	524.28
375.97	512.58
376.17	596.84
376.37	461.09
376.56	540.66
376.76	500.87
376.95	657.69
377.15	582.79
377.35	557.05
377.54	606.20
377.74	589.82
377.93	491.51
378.13	500.87
378.33	564.07
378.52	653.01
378.72	634.29
378.91	554.71
379.11	662.37
379.31	543.00
379.50	585.13
379.70	667.05
379.89	629.60
380.09	617.90
380.28	683.44
380.48	748.97
380.68	648.33
380.87	594.50
381.07	678.76
381.26	676.41
381.46	650.67
381.65	753.65
381.85	664.71
382.04	669.39
382.24	704.50
382.43	610.88
382.63	732.59
382.83	713.86
383.02	746.63
383.22	802.80
383.41	716.20
383.61	758.33
383.80	770.04
384.00	711.52
384.19	868.34
384.39	770.04
384.58	755.99
384.78	763.01
384.97	833.23
385.17	800.46
385.36	802.80
385.56	786.42
385.75	854.30
385.95	837.91
386.14	987.71
386.34	819.19
386.53	926.85
386.72	866.00
386.92	891.74
387.11	887.06
387.31	898.77
387.50	858.98
387.70	833.23
387.89	905.79
388.09	896.43
388.28	901.11
388.48	896.43
388.67	1013.45
388.86	1034.52
389.06	903.45
389.25	990.05
389.45	936.21
389.64	994.73
389.84	978.34
390.03	973.66
390.22	1064.94
390.42	1046.22
390.61	954.94
390.81	910.47
391.00	1029.84
391.19	1074.31
391.39	1034.52
391.58	1128.14
391.78	1062.60
391.97	1104.73
392.16	1123.46
392.36	1179.63
392.55	1146.86
392.75	1184.31
392.94	1149.20
393.13	1221.76
393.33	1064.94
393.52	1104.73
393.71	1217.08
393.91	1121.12
394.10	1247.51
394.29	1139.84
394.49	1158.57
394.68	1235.80
394.88	1184.31
395.07	1256.87
395.26	1268.57
395.46	1313.04
395.65	1275.59
395.84	1336.45
396.04	1376.24
396.23	1355.17
396.42	1324.74
396.62	1331.76
396.81	1294.32
397.00	1369.21
397.19	1320.06
397.39	1373.89
397.58	1359.85
397.77	1355.17
397.97	1481.56
398.16	1380.92
398.35	1530.71
398.55	1434.75
398.74	1516.67
398.93	1504.96
399.12	1448.79
399.32	1530.71
399.51	1502.62
399.70	1593.90
399.90	1584.54
400.09	1598.59
400.28	1551.78
400.47	1680.50
400.67	1598.59
400.86	1645.40
401.05	1732.00
401.24	1621.99
401.44	1614.97
401.63	1774.13
401.82	1680.50
402.01	1671.14
402.21	1755.40
402.40	1846.68
402.59	1813.92
402.78	1813.92
402.97	1874.77
403.17	1767.10
403.36	1809.23
403.55	1980.09
403.74	1809.23
403.93	1888.81
404.13	1998.82
404.32	1973.07
404.51	1966.05
404.70	2054.99
404.89	1849.02
405.09	2071.37
405.28	1909.88
405.47	2026.90
405.66	2069.03
405.85	1975.41
406.05	2064.35
406.24	2120.53
406.43	2115.84
406.62	2190.74
406.81	2298.41
407.00	2176.70
407.20	2118.18
407.39	2143.93
407.58	2244.57
407.77	2385.01
407.96	2361.60
408.15	2420.11
408.34	2300.75
408.54	2368.62
408.73	2441.18
408.92	2424.80
409.11	2506.71
409.30	2361.60
409.49	2569.91
409.68	2497.35
409.87	2551.18
410.07	2630.76
410.26	2558.21
410.45	2677.57
410.64	2679.91
410.83	2628.42
411.02	2663.53
411.21	2731.41
411.40	2679.91
411.59	2773.53
411.78	2862.48
411.98	2724.38
412.17	2787.58
412.36	2944.39
412.55	2813.32
412.74	2925.67
412.93	2993.55
413.12	2956.10
413.31	3183.13
413.50	2970.14
413.69	3136.32
413.88	3082.49
414.07	3251.00
414.26	3349.31
414.45	3211.22
414.64	3215.90
414.83	3276.75
415.02	3251.00
415.22	3478.04
415.41	3487.40
415.60	3431.23
415.79	3382.07
415.98	3613.79
416.17	3550.59
416.36	3571.66
416.55	3576.34
416.74	3686.34
416.93	3503.78
417.12	3730.81
417.31	3878.27
417.50	3826.78
417.69	3864.22
417.88	3794.01
418.07	3779.97
418.26	3901.67
418.45	3988.27
418.64	4081.89
418.83	4044.45
419.02	3878.27
419.21	4124.02
419.39	4166.15
419.58	4074.87
419.77	4039.76
419.96	4081.89
420.15	4154.45
420.34	4196.58
420.53	4215.30
420.72	4259.78
420.91	4278.50
421.10	4280.84
421.29	4306.59
421.48	4180.20
421.67	4468.08
421.86	4257.43
422.05	4465.74
422.24	4322.97
422.43	4503.19
422.61	4472.76
422.80	4514.89
422.99	4585.11
423.18	4521.92
423.37	4514.89
423.56	4538.30
423.75	4468.08
423.94	4458.72
424.13	4292.54
424.32	4372.12
424.50	4634.26
424.69	4681.07
424.88	4774.69
425.07	4540.64
425.26	4489.15
425.45	4671.71
425.64	4561.70
425.83	4517.23
426.01	4571.07
426.20	4690.43
426.39	4589.79
426.58	4587.45
426.77	4702.14
426.96	4746.61
427.15	4617.88
427.33	4877.68
427.52	4678.73
427.71	4765.33
427.90	4880.02
428.09	4957.25
428.28	4873.00
428.46	4917.47
428.65	4919.81
428.84	5053.22
429.03	5151.52
429.22	4947.89
429.40	5064.92
429.59	5055.56
429.78	4847.25
429.97	4898.74
430.16	5064.92
430.34	5132.79
430.53	5254.50
430.72	5284.93
430.91	5139.82
431.10	5238.12
431.28	5270.89
431.47	5401.96
431.66	5327.06
431.85	5247.48
432.03	5387.91
432.22	5294.29
432.41	5521.32
432.60	5617.29
432.79	5416.00
432.97	5535.37
433.16	5612.60
433.35	5502.60
433.54	5767.08
433.72	5551.75
433.91	5671.12
434.10	5720.27
434.28	5664.10
434.47	5598.56
434.66	5736.65
434.85	5956.66
435.03	5720.27
435.22	5879.43
435.41	5954.32
435.59	5888.79
435.78	5813.89
435.97	5762.40
436.16	5977.73
436.34	5984.75
436.53	6232.85
436.72	6228.17
436.90	6061.99
437.09	6146.25
437.28	5966.03
437.46	6157.95
437.65	6118.16
437.84	6333.49
438.02	6303.06
438.21	6307.74
438.40	6267.95
438.58	6583.93
438.77	6476.26
438.96	6420.09
439.14	6696.27
439.33	6520.73
439.52	6832.02
439.70	6832.02
439.89	6637.76
440.08	6663.51
440.26	6785.21
440.45	6815.64
440.63	6981.82
440.82	7068.42
441.01	7026.29
441.19	7131.61
441.38	7190.13
441.57	7169.06
441.75	7297.79
441.94	7454.61
442.12	7503.76
442.31	7480.35
442.50	7482.69
442.68	7456.95
442.87	7513.12
443.05	7655.89
443.24	7611.42
443.43	7672.28
443.61	7714.41
443.80	7971.86
443.98	7503.76
444.17	7442.90
444.35	7637.17
444.54	7913.35
444.73	7810.37
444.91	7562.27
445.10	7681.64
445.28	7709.72
445.47	7686.32
445.65	7824.41
445.84	8030.38
446.02	8093.57
446.21	7758.88
446.39	7915.69
446.58	7765.90
446.77	8016.33
446.95	7765.90
447.14	7932.08
447.32	7831.43
447.51	7922.71
447.69	7698.02
447.88	8116.98
448.06	7932.08
448.25	7927.39
448.43	8128.68
448.62	8135.70
448.80	8009.31
448.99	7871.22
449.17	7974.21
449.36	7992.93
449.54	8140.38
449.73	8238.69
449.91	8341.67
450.10	8383.80
450.28	8510.19
450.46	8383.80
450.65	8409.54
450.83	8484.44
451.02	8439.97
451.20	8472.74
451.39	8655.30
451.57	8421.25
451.76	8355.71
451.94	8456.36
452.13	8753.60
452.31	8580.40
452.49	8580.40
452.68	8566.36
452.86	8758.28
453.05	8704.45
453.23	8940.85
453.42	8713.81
453.60	8762.97
453.78	8706.79
453.97	8791.05
454.15	8884.67
454.34	8833.18
454.52	9020.42
454.70	9018.08
454.89	8971.27
455.07	8968.93
455.26	9217.03
455.44	9383.21
455.62	9212.35
455.81	9074.26
455.99	9277.88
456.17	9284.91
456.36	9308.31
456.54	9345.76
456.73	9551.73
456.91	9792.80
457.09	9596.20
457.28	9673.43
457.46	9640.67
457.64	9647.69
457.83	9577.47
458.01	9621.94
458.19	9841.95
458.38	9811.53
458.56	9973.02
458.74	9907.49
458.93	9830.25
459.11	10010.47
459.29	10019.83
459.48	10059.62
459.66	10059.62
459.84	10242.18
460.03	10228.14
460.21	10164.95
460.39	10141.54
460.57	10120.48
460.76	10417.72
460.94	10319.42
461.12	10207.08
461.31	10443.47
461.49	10370.91
461.67	10431.77
461.85	10789.87
462.04	10466.88
462.22	10633.05
462.40	10572.20
462.59	10841.36
462.77	10630.71
462.95	10626.03
463.13	10803.91
463.32	10771.15
463.50	10864.77
463.68	10965.41
463.86	10899.87
464.05	10619.01
464.23	10913.92
464.41	11098.82
464.59	10679.86
464.78	11255.64
464.96	10888.17
465.14	10998.18
465.32	11154.99
465.50	11037.97
465.69	11349.26
465.87	11283.72
466.05	11147.97
466.23	11295.43
466.41	11339.90
466.60	11473.31
466.78	11117.54
466.96	11442.88
467.14	11328.19
467.32	11475.65
467.51	11660.55
467.69	11248.61
467.87	11265.00
468.05	11651.19
468.23	11562.25
468.41	11370.32
468.60	11583.31
468.78	11763.53
468.96	11396.07
469.14	11775.24
469.32	11962.48
469.50	11431.18
469.69	12067.80
469.87	11950.78
470.05	12152.06
470.23	12203.55
470.41	12315.90
470.59	12175.47
470.77	12140.36
470.95	12250.36
471.14	12505.48
471.32	12287.81
471.50	12655.28
471.68	12692.73
471.86	12674.00
472.04	12559.31
472.22	12786.35
472.40	12554.63
472.58	12823.80
472.77	13048.49
472.95	13020.40
473.13	13362.12
473.31	12987.63
473.49	13146.79
473.67	13195.94
473.85	13296.58
474.03	13359.78
474.21	13502.55
474.39	13600.85
474.57	13596.17
474.75	13687.45
474.93	13958.96
475.12	13682.77
475.30	14026.83
475.48	13865.33
475.66	13785.76
475.84	13926.19
476.02	14420.04
476.20	14071.30
476.38	14455.15
476.56	14520.68
476.74	14707.93
476.92	14693.88
477.10	14658.78
477.28	15180.71
477.46	14890.49
477.64	15094.11
477.82	15335.19
478.00	15410.09
478.18	15604.35
478.36	15796.28
478.54	15859.47
478.72	16035.01
478.90	16070.12
479.08	16112.25
479.26	16203.53
479.44	16437.58
479.62	16156.72
479.80	16489.07
479.98	16744.19
480.16	16940.80
480.34	16723.13
480.52	17151.45
480.70	17305.92
480.88	17221.66
481.06	17310.60
481.24	17376.14
481.41	17877.01
481.59	17858.29
481.77	18033.83
481.95	18015.10
482.13	17921.48
482.31	17905.10
482.49	18593.22
482.67	18689.18
482.85	18995.79
483.03	19023.87
483.21	19405.38
483.39	19412.40
483.57	19307.08
483.74	19447.51
483.92	19623.05
484.10	19536.45
484.28	20039.67
484.46	20112.22
484.64	20493.73
484.82	19955.41
485.00	20585.01
485.18	20952.48
485.35	21252.06
485.53	20959.50
485.71	21326.96
485.89	22010.40
486.07	21692.08
486.25	21750.60
486.43	21570.38
486.61	21797.41
486.78	22457.44
486.96	22214.02
487.14	22698.52
487.32	22817.88
487.50	22831.93
487.68	22852.99
487.85	23187.69
488.03	23747.08
488.21	23784.52
488.39	23704.95
488.57	23971.77
488.75	23943.68
488.92	24374.34
489.10	24549.88
489.28	24573.28
489.46	25092.88
489.64	24814.36
489.81	25413.54
489.99	25488.43
490.17	25706.10
490.35	26068.89
490.53	25914.41
490.70	26469.12
490.88	26192.94
491.06	26452.73
491.24	26426.99
491.41	26824.88
491.59	26742.96
491.77	27297.67
491.95	27388.95
492.13	27426.40
492.30	27332.78
492.48	27459.16
492.66	27660.45
492.84	27697.90
493.01	28020.89
493.19	28655.18
493.37	28257.29
493.54	28856.46
493.72	28690.29
493.90	28720.71
494.08	28975.83
494.25	29216.91
494.43	29656.93
494.61	29858.21
494.79	29860.55
494.96	30064.18
495.14	30019.71
495.32	30749.96
495.49	30494.84
495.67	30672.72
495.85	31262.54
496.02	30881.03
496.20	31030.82
496.38	31044.87
496.55	31548.08
496.73	31894.48
496.91	31711.92
497.09	31880.44
497.26	31852.35
497.44	32156.62
497.62	32580.26
497.79	33104.54
497.97	32753.46
498.14	33158.37
498.32	33205.18
498.50	33273.06
498.67	33923.72
498.85	33420.51
499.03	33631.16
499.20	33600.73
499.38	33982.24
499.56	33598.39
499.73	34576.73
499.91	34403.53
500.08	34693.76
500.26	34286.51
500.44	34630.57
500.61	34649.29
500.79	34651.63
500.97	35150.17
501.14	35688.49
501.32	35447.41
501.49	35550.40
501.67	35253.15
501.84	35515.29
502.02	35428.69
502.20	35800.83
502.37	36355.54
502.55	35873.39
502.72	35999.78
502.90	35821.90
503.07	35751.68
503.25	36346.18
503.43	36435.12
503.60	36442.14
503.78	37177.07
503.95	36673.85
504.13	37280.05
504.30	37502.40
504.48	36912.59
504.65	37460.27
504.83	37523.47
505.01	38071.15
505.18	37935.40
505.36	37937.74
505.53	37926.04
505.71	38164.78
505.88	38588.41
506.06	37855.82
506.23	38761.61
506.41	38403.51
506.58	38506.49
506.76	39002.69
506.93	39264.83
507.11	38944.17
507.28	39178.23
507.46	38955.88
507.63	39306.96
507.81	39990.39
507.98	39442.71
508.16	39440.37
508.33	39915.50
508.50	39531.65
508.68	39718.89
508.85	40088.70
509.03	40236.15
509.20	40093.38
509.38	40809.58
509.55	40308.71
509.73	40610.64
509.90	40582.55
510.08	40313.39
510.25	40928.95
510.42	40802.56
510.60	41408.76
510.77	41062.36
510.95	41588.98
511.12	41448.55
511.30	41226.20
511.47	41481.31
511.64	42017.30
511.82	41762.18
511.99	41626.43
512.17	42452.64
512.34	41862.82
512.51	42616.47
512.69	42068.79
512.86	42820.10
513.04	42799.04
513.21	42541.58
513.38	42932.45
513.56	43005.00
513.73	42775.63
513.90	42848.19
514.08	42852.87
514.25	43292.89
514.43	43739.93
514.60	43421.62
514.77	43700.14
514.95	43796.10
515.12	43927.17
515.29	43732.91
515.47	43641.63
515.64	43906.11
515.81	44390.60
515.99	44444.43
516.16	44753.38
516.33	44631.68
516.51	44608.27
516.68	44580.18
516.85	44655.08
517.03	44755.72
517.20	44919.56
517.37	45041.27
517.54	44893.82
517.72	45045.95
517.89	45305.75
518.06	45017.86
518.24	44994.46
518.41	45226.17
518.58	45350.22
518.75	45338.52
518.93	46253.67
519.10	45865.14
519.27	45523.42
519.45	45911.95
519.62	45680.24
519.79	46021.95
519.96	46127.28
520.14	46181.11
520.31	46019.61
520.48	46398.78
520.65	46429.21
520.83	46450.27
521.00	46583.68
521.17	46417.50
521.34	46742.84
521.52	47037.75
521.69	47220.31
521.86	46951.15
522.03	47133.71
522.20	47316.27
522.38	47400.53
522.55	47388.83
522.72	47505.85
522.89	47440.32
523.07	47941.19
523.24	47847.57
523.41	47903.74
523.58	47538.62
523.75	48168.22
523.92	47845.23
524.10	48065.24
524.27	47962.26
524.44	48348.45
524.61	48376.53
524.78	48556.75
524.96	48376.53
525.13	48362.49
525.30	48725.27
525.47	49017.84
525.64	48765.06
525.81	48823.58
525.98	49188.70
526.16	48783.79
526.33	49406.37
526.50	49268.28
526.67	48935.92
526.84	49343.17
527.01	48893.79
527.18	49411.05
527.36	49127.84
527.53	49675.53
527.70	49783.19
527.87	49808.94
528.04	49808.94
528.21	49656.81
528.38	49476.58
528.55	49804.26
528.72	49925.97
528.89	49965.76
529.07	49801.92
529.24	49902.56
529.41	49830.01
529.58	49872.14
529.75	50120.23
529.92	50246.62
530.09	50171.72
530.26	50326.20
530.43	50134.28
530.60	49930.65
530.77	50466.63
530.94	50326.20
531.11	50380.03
531.28	50684.30
531.46	50525.14
531.63	50892.61
531.80	50979.21
531.97	50962.82
532.14	51096.24
532.31	51070.49
532.48	50937.08
532.65	50939.42
532.82	50740.47
532.99	50939.42
533.16	50894.95
533.33	51414.55
533.50	51552.64
533.67	51714.14
533.84	51061.13
534.01	51091.55
534.18	51185.18
534.35	51611.15
534.52	51222.62
534.69	51444.98
534.86	51868.61
535.03	51690.73
535.20	51636.90
535.37	51824.14
535.54	51559.66
535.71	51578.39
535.88	51906.06
536.05	51756.27
536.22	51964.57
536.38	51913.08
536.55	51938.83
536.72	52329.70
536.89	51824.14
537.06	52179.90
537.23	52322.68
537.40	51744.56
537.57	52207.99
537.74	52294.59
537.91	52336.72
538.08	52519.28
538.25	52257.14
538.42	52486.51
538.59	52374.17
538.75	52444.38
538.92	52292.25
539.09	52573.11
539.26	52479.49
539.43	52678.44
539.60	52879.72
539.77	52755.68
539.94	53003.77
540.11	52842.27
540.28	52877.38
540.44	52886.74
540.61	53064.63
540.78	52650.35
540.95	53008.45
541.12	52807.17
541.29	52980.37
541.46	52781.42
541.62	53144.20
541.79	53027.18
541.96	52678.44
542.13	53132.50
542.30	53284.64
542.47	53371.24
542.63	53549.12
542.80	53396.98
542.97	53703.59
543.14	53645.08
543.31	53317.40
543.48	53572.52
543.64	53867.43
543.81	53759.76
543.98	54064.03
544.15	53832.32
544.32	53928.28
544.48	54197.44
544.65	53778.49
544.82	53897.86
544.99	53588.91
545.16	54078.08
545.32	53762.11
545.49	54436.18
545.66	54286.39
545.83	54401.07
546.00	54618.74
546.16	54197.44
546.33	53982.12
546.50	53588.91
546.67	54120.21
546.83	53860.41
547.00	54068.72
547.17	54298.09
547.34	54602.36
547.50	54401.07
547.67	54433.84
547.84	54515.76
548.00	54443.20
548.17	54747.47
548.34	54492.35
548.51	54562.57
548.67	54761.51
548.84	54698.32
549.01	54667.89
549.18	54864.50
549.34	54555.55
549.51	54436.18
549.68	54550.87
549.84	54667.89
550.01	54560.23
550.18	55093.87
550.34	54850.45
550.51	55121.96
550.68	54918.33
550.84	54614.06
551.01	55161.75
551.18	54862.16
551.34	54621.08
551.51	54829.39
551.68	55082.17
551.84	54820.03
552.01	55061.10
552.18	55276.43
552.34	55203.88
552.51	55143.02
552.68	55047.06
552.84	55302.18
553.01	55231.96
553.18	55040.04
553.34	55381.76
553.51	55381.76
553.67	55229.62
553.84	55615.81
554.01	55615.81
554.17	55447.29
554.34	55194.51
554.51	55269.41
554.67	55622.83
554.84	55697.73
555.00	55475.38
555.17	55547.93
555.33	55533.89
555.50	55475.38
555.67	55650.92
555.83	55606.45
556.00	55564.32
556.16	55884.97
556.33	55536.23
556.50	55437.93
556.66	55786.67
556.83	55585.38
556.99	55884.97
557.16	56055.83
557.32	55770.28
557.49	56016.04
557.65	55639.22
557.82	55655.60
557.98	55845.18
558.15	56119.02
558.32	55866.25
558.48	56006.68
558.65	56109.66
558.81	55978.59
558.98	56025.40
559.14	55875.61
559.31	55784.33
559.47	56104.98
559.64	55889.65
559.80	56144.77
559.97	55955.19
560.13	55847.52
560.30	55903.70
560.46	55950.51
560.63	56039.45
560.79	56271.16
560.96	56072.21
561.12	56109.66
561.29	55978.59
561.45	56154.13
561.61	56051.15
561.78	56301.59
561.94	56217.33
562.11	56158.81
562.27	56360.10
562.44	56254.78
562.60	56236.05
562.77	56212.65
562.93	56165.84
563.10	56257.12
563.26	56121.37
563.42	56626.92
563.59	56226.69
563.75	56322.65
563.92	56465.42
564.08	56388.19
564.24	56332.01
564.41	56006.68
564.57	56303.93
564.74	56236.05
564.90	56233.71
565.07	56502.87
565.23	56612.88
565.39	56591.81
565.56	56430.32
565.72	56275.84
565.88	56500.53
566.05	56470.11
566.21	56395.21
566.38	56444.36
566.54	56533.30
566.70	56591.81
566.87	56498.19
567.03	56250.09
567.19	56484.15
567.36	56324.99
567.52	56395.21
567.68	56371.80
567.85	56376.48
568.01	56528.62
568.17	56463.08
568.34	56444.36
568.50	56493.51
568.66	56622.24
568.83	56509.89
568.99	56385.85
569.15	56418.61
569.32	56395.21
569.48	56444.36
569.64	56552.02
569.81	56622.24
569.97	56757.99
570.13	56605.86
570.30	56594.15
570.46	56690.12
570.62	56645.65
570.78	56549.68
570.95	56357.76
571.11	56446.70
571.27	56676.07
571.43	56369.46
571.60	56479.47
571.76	56580.11
571.92	56655.01
572.09	56757.99
572.25	56762.67
572.41	56769.69
572.57	56772.03
572.74	56666.71
572.90	56458.40
573.06	56561.39
573.22	56692.46
573.38	56657.35
573.55	56444.36
573.71	57022.47
573.87	56821.19
574.03	56947.57
574.20	56779.06
574.36	56680.75
574.52	56907.79
574.68	56697.14
574.84	56786.08
575.01	56760.33
575.17	57017.79
575.33	56802.46
575.49	56839.91
575.65	56917.15
575.82	56797.78
575.98	56868.00
576.14	56786.08
576.30	56715.86
576.46	56528.62
576.62	56657.35
576.79	56676.07
576.95	56905.44
577.11	56704.16
577.27	56886.72
577.43	56750.97
577.59	56743.95
577.75	56594.15
577.92	56554.36
578.08	56643.30
578.24	56818.84
578.40	56701.82
578.56	56629.26
578.72	56877.36
578.88	56982.68
579.04	56809.48
579.21	56931.19
579.37	56566.07
579.53	56903.10
579.69	56643.30
579.85	56891.40
580.01	56807.14
580.17	56800.12
580.33	56900.76
580.49	56793.10
580.65	57029.49
580.82	57052.90
580.98	56896.08
581.14	56968.64
581.30	56989.70
581.46	56610.54
581.62	56711.18
581.78	56512.23
581.94	56830.55
582.10	56690.12
582.26	56704.16
582.42	56727.56
582.58	56900.76
582.74	57109.07
582.90	56985.02
583.06	57092.69
583.22	56942.89
583.38	56870.34
583.54	57017.79
583.70	56886.72
583.86	56863.32
584.02	56970.98
584.18	56793.10
584.34	57045.88
584.50	57237.80
584.66	57181.63
584.82	56753.31
584.98	56933.53
585.14	56800.12
585.30	56495.85
585.46	56830.55
585.62	56811.82
585.78	57006.09
585.94	56921.83
586.10	56891.40
586.26	56743.95
586.42	57055.24
586.58	57272.91
586.74	56889.06
586.90	56994.39
587.06	56655.01
587.22	56999.07
587.38	56729.90
587.54	57102.05
587.70	56982.68
587.86	57186.31
588.02	56949.92
588.18	57237.80
588.34	56938.21
588.49	56966.30
588.65	56643.30
588.81	57043.54
588.97	56963.96
589.13	56938.21
589.29	56907.79
589.45	57111.41
589.61	57006.09
