SpectraSuite Data File
++++++++++++++++++++++++++++++++++++
Date: Fri Oct 18 13:54:29 GMT-05:00 2013
User: bianchi
Dark Spectrum Present: No
Reference Spectrum Present: No
Number of Sampled Component Spectra: 1
Spectrometers: USB2+H05261
Integration Time (usec): 100000 (USB2+H05261)
Spectra Averaged: 1 (USB2+H05261)
Boxcar Smoothing: 0 (USB2+H05261)
Correct for Electrical Dark: No (USB2+H05261)
Strobe/Lamp Enabled: No (USB2+H05261)
Correct for Detector Non-linearity: No (USB2+H05261)
Correct for Stray Light: No (USB2+H05261)
Number of Pixels in Processed Spectrum: 2048
>>>>>Begin Processed Spectral Data<<<<<
365.73	0.00
365.92	0.00
366.12	0.00
366.32	0.00
366.52	0.00
366.72	0.00
366.91	0.00
367.11	0.00
367.31	0.00
367.51	0.00
367.70	0.00
367.90	0.00
368.10	0.00
368.30	0.00
368.49	0.00
368.69	0.00
368.89	0.00
369.09	0.00
369.28	0.00
369.48	0.00
369.68	0.00
369.87	0.00
370.07	0.00
370.27	0.00
370.47	0.00
370.66	208.31
370.86	320.65
371.06	337.04
371.25	250.44
371.45	280.86
371.65	421.30
371.84	341.72
372.04	311.29
372.24	320.65
372.44	402.57
372.63	451.72
372.83	400.23
373.03	404.91
373.22	355.76
373.42	362.78
373.62	374.49
373.81	472.79
374.01	461.09
374.21	500.87
374.40	543.00
374.60	517.26
374.79	447.04
374.99	510.24
375.19	533.64
375.38	528.96
375.58	505.56
375.78	491.51
375.97	524.28
376.17	592.16
376.37	449.38
376.56	634.29
376.76	519.60
376.95	503.22
377.15	589.82
377.35	599.18
377.54	550.03
377.74	571.09
377.93	592.16
378.13	589.82
378.33	566.41
378.52	610.88
378.72	627.26
378.91	561.73
379.11	557.05
379.31	629.60
379.50	535.98
379.70	660.03
379.89	657.69
380.09	627.26
380.28	582.79
380.48	580.45
380.68	613.22
380.87	582.79
381.07	667.05
381.26	678.76
381.46	594.50
381.65	702.16
381.85	638.97
382.04	734.93
382.24	702.16
382.43	627.26
382.63	641.31
382.83	662.37
383.02	784.08
383.22	798.12
383.41	709.18
383.61	725.57
383.80	755.99
384.00	819.19
384.19	758.33
384.39	877.70
384.58	800.46
384.78	793.44
384.97	774.72
385.17	765.36
385.36	688.12
385.56	842.59
385.75	805.14
385.95	861.32
386.14	805.14
386.34	812.17
386.53	774.72
386.72	835.57
386.92	882.38
387.11	786.42
387.31	877.70
387.50	807.48
387.70	835.57
387.89	777.06
388.09	833.23
388.28	933.87
388.48	938.55
388.67	931.53
388.86	968.98
389.06	880.04
389.25	1006.43
389.45	964.30
389.64	1029.84
389.84	976.00
390.03	880.04
390.22	1027.50
390.42	980.68
390.61	980.68
390.81	980.68
391.00	952.60
391.19	1020.47
391.39	1022.81
391.58	1034.52
391.78	1041.54
391.97	1006.43
392.16	1107.07
392.36	1123.46
392.55	1172.61
392.75	1163.25
392.94	1123.46
393.13	1050.90
393.33	1203.04
393.52	1116.44
393.71	1172.61
393.91	1226.44
394.10	1142.18
394.29	1207.72
394.49	1142.18
394.68	1240.48
394.88	1219.42
395.07	1207.72
395.26	1177.29
395.46	1291.98
395.65	1299.00
395.84	1291.98
396.04	1359.85
396.23	1430.07
396.42	1394.96
396.62	1399.64
396.81	1348.15
397.00	1343.47
397.19	1380.92
397.39	1306.02
397.58	1500.28
397.77	1345.81
397.97	1507.30
398.16	1446.45
398.35	1394.96
398.55	1495.60
398.74	1481.56
398.93	1516.67
399.12	1425.39
399.32	1519.01
399.51	1376.24
399.70	1589.22
399.90	1554.12
400.09	1652.42
400.28	1687.53
400.47	1568.16
400.67	1631.35
400.86	1579.86
401.05	1575.18
401.24	1664.12
401.44	1647.74
401.63	1703.91
401.82	1689.87
402.01	1724.97
402.21	1685.19
402.40	1743.70
402.59	1806.89
402.78	1806.89
402.97	1851.36
403.17	1846.68
403.36	1802.21
403.55	1790.51
403.74	1900.52
403.93	1879.45
404.13	1909.88
404.32	1989.46
404.51	1900.52
404.70	2026.90
404.89	2029.24
405.09	2012.86
405.28	2001.16
405.47	1989.46
405.66	2031.58
405.85	2122.87
406.05	2001.16
406.24	2141.59
406.43	2120.53
406.62	2169.68
406.81	2246.91
407.00	2094.78
407.20	2120.53
407.39	2101.80
407.58	2202.44
407.77	2232.87
407.96	2317.13
408.15	2345.22
408.34	2321.81
408.54	2244.57
408.73	2356.92
408.92	2321.81
409.11	2443.52
409.30	2422.45
409.49	2483.31
409.68	2579.27
409.87	2506.71
410.07	2478.63
410.26	2555.86
410.45	2665.87
410.64	2427.14
410.83	2605.02
411.02	2736.09
411.21	2679.91
411.40	2647.15
411.59	2703.32
411.78	2843.75
411.98	2778.22
412.17	2899.92
412.36	2722.04
412.55	2967.80
412.74	2930.35
412.93	3038.02
413.12	2956.10
413.31	3030.99
413.50	2991.20
413.69	3021.63
413.88	3117.59
414.07	3087.17
414.26	3138.66
414.45	3295.47
414.64	3232.28
414.83	3314.20
415.02	3269.73
415.22	3337.60
415.41	3293.13
415.60	3592.72
415.79	3442.93
415.98	3538.89
416.17	3541.23
416.36	3606.77
416.55	3590.38
416.74	3538.89
416.93	3574.00
417.12	3571.66
417.31	3648.90
417.50	3709.75
417.69	3885.29
417.88	3714.43
418.07	3878.27
418.26	3831.46
418.45	3861.88
418.64	3868.91
418.83	3974.23
419.02	4004.66
419.21	4091.26
419.39	4093.60
419.58	3967.21
419.77	3967.21
419.96	4070.19
420.15	4229.35
420.34	4091.26
420.53	4091.26
420.72	4159.13
420.91	4250.41
421.10	4301.90
421.29	4376.80
421.48	4215.30
421.67	4306.59
421.86	4367.44
422.05	4283.18
422.24	4416.59
422.43	4362.76
422.61	4512.55
422.80	4526.60
422.99	4437.66
423.18	4517.23
423.37	4662.35
423.56	4528.94
423.75	4421.27
423.94	4470.42
424.13	4287.86
424.32	4297.22
424.50	4507.87
424.69	4652.98
424.88	4622.56
425.07	4535.96
425.26	4503.19
425.45	4484.47
425.64	4524.26
425.83	4547.66
426.01	4730.22
426.20	4690.43
426.39	4535.96
426.58	4578.09
426.77	4709.16
426.96	4688.09
427.15	4638.94
427.33	4613.20
427.52	4718.52
427.71	4762.99
427.90	4887.04
428.09	4856.61
428.28	4737.24
428.46	4905.76
428.65	4973.64
428.84	5158.54
429.03	5078.96
429.22	4870.65
429.40	5067.26
429.59	5046.20
429.78	4732.56
429.97	4873.00
430.16	4992.36
430.34	5029.81
430.53	5210.03
430.72	5149.18
430.91	5027.47
431.10	5240.46
431.28	5226.42
431.47	5345.78
431.66	5313.02
431.85	5233.44
432.03	5261.52
432.22	5504.94
432.41	5355.15
432.60	5472.17
432.79	5266.21
432.97	5544.73
433.16	5577.50
433.35	5481.53
433.54	5584.52
433.72	5645.37
433.91	5734.31
434.10	5781.12
434.28	5591.54
434.47	5809.21
434.66	5664.10
434.85	5750.70
435.03	5582.18
435.22	5830.27
435.41	6106.46
435.59	5790.49
435.78	5888.79
435.97	5825.59
436.16	5963.68
436.34	5994.11
436.53	5973.05
436.72	6200.08
436.90	6024.54
437.09	6076.03
437.28	6134.54
437.46	6167.31
437.65	6157.95
437.84	6136.88
438.02	6314.77
438.21	6207.10
438.40	6139.23
438.58	6471.58
438.77	6417.75
438.96	6539.46
439.14	6455.20
439.33	6434.13
439.52	6579.25
439.70	6651.80
439.89	6923.30
440.08	6796.92
440.26	6843.73
440.45	6792.23
440.63	6890.54
440.82	6939.69
441.01	7012.24
441.19	7005.22
441.38	7342.26
441.57	7164.38
441.75	7220.55
441.94	7339.92
442.12	7309.49
442.31	7520.14
442.50	7424.18
442.68	7115.23
442.87	7520.14
443.05	7419.50
443.24	7454.61
443.43	7389.07
443.61	7524.82
443.80	7655.89
443.98	7588.02
444.17	7295.45
444.35	7482.69
444.54	7728.45
444.73	7756.54
444.91	7597.38
445.10	7550.57
445.28	7705.04
445.47	7529.50
445.65	7758.88
445.84	7765.90
446.02	7801.01
446.21	7733.13
446.39	7770.58
446.58	7791.64
446.77	7602.06
446.95	7889.95
447.14	7847.82
447.32	8049.10
447.51	7983.57
447.69	7871.22
447.88	8039.74
448.06	8006.97
448.25	7941.44
448.43	8100.59
448.62	7864.20
448.80	7946.12
448.99	7850.16
449.17	8287.84
449.36	8011.65
449.54	8177.83
449.73	8287.84
449.91	8325.29
450.10	8177.83
450.28	8262.09
450.46	8510.19
450.65	8205.92
450.83	8397.84
451.02	8252.73
451.20	8348.69
451.39	8472.74
451.57	8489.12
451.76	8269.11
451.94	8592.11
452.13	8681.05
452.31	8769.99
452.49	8446.99
452.68	8650.62
452.86	8575.72
453.05	8528.91
453.23	8645.94
453.42	8755.94
453.60	8463.38
453.78	8758.28
453.97	8723.18
454.15	8826.16
454.34	8732.54
454.52	8952.55
454.70	9074.26
454.89	9001.70
455.07	8922.12
455.26	9160.86
455.44	9212.35
455.62	9069.58
455.81	9163.20
455.99	9165.54
456.17	9338.74
456.36	9233.41
456.54	9458.10
456.73	9202.99
456.91	9699.18
457.09	9530.66
457.28	9561.09
457.46	9584.49
457.64	9516.62
457.83	9748.33
458.01	9584.49
458.19	9863.02
458.38	9743.65
458.56	9846.63
458.74	9907.49
458.93	9877.06
459.11	9769.40
459.29	9841.95
459.48	9881.74
459.66	9898.13
459.84	10146.22
460.03	10389.64
460.21	10202.40
460.39	9947.28
460.57	10272.61
460.76	10265.59
460.94	10415.38
461.12	10204.74
461.31	10359.21
461.49	10331.12
461.67	10214.10
461.85	10576.88
462.04	10274.95
462.22	11218.19
462.40	10583.90
462.59	10466.88
462.77	10455.17
462.95	10857.75
463.13	10778.17
463.32	10736.04
463.50	10843.70
463.68	10836.68
463.86	10951.37
464.05	10801.57
464.23	10792.21
464.41	10890.51
464.59	10717.31
464.78	11173.72
464.96	10850.72
465.14	10714.97
465.32	11056.69
465.50	11183.08
465.69	11138.61
465.87	11080.10
466.05	11260.32
466.23	11215.85
466.41	11265.00
466.60	11470.97
466.78	11187.76
466.96	11328.19
467.14	10951.37
467.32	11353.94
467.51	11639.48
467.69	11119.89
467.87	11442.88
468.05	11634.80
468.23	11438.20
468.41	11344.58
468.60	11646.51
468.78	11658.21
468.96	11515.44
469.14	11906.31
469.32	12126.32
469.50	11555.22
469.69	11969.50
469.87	12116.95
470.05	12098.23
470.23	11941.41
470.41	11955.46
470.59	12294.83
470.77	12187.17
470.95	12334.62
471.14	12320.58
471.32	12170.79
471.50	12636.55
471.68	12271.43
471.86	12662.30
472.04	12552.29
472.22	12879.97
472.40	12287.81
472.58	12699.75
472.77	12767.62
472.95	12966.57
473.13	13291.90
473.31	12753.58
473.49	12912.74
473.67	12716.13
473.85	13050.83
474.03	13455.74
474.21	13341.05
474.39	13294.24
474.57	13359.78
474.75	13844.27
474.93	13994.06
475.12	13647.66
475.30	13717.88
475.48	13806.82
475.66	14052.58
475.84	13879.38
476.02	14111.09
476.20	14225.78
476.38	14181.31
476.56	14981.77
476.74	14911.55
476.92	14497.28
477.10	14696.22
477.28	14689.20
477.46	14647.07
477.64	15002.83
477.82	15082.41
478.00	15704.99
478.18	15433.49
478.36	15449.88
478.54	15754.15
478.72	15910.96
478.90	15791.59
479.08	16081.82
479.26	16107.57
479.44	16313.53
479.62	16556.95
479.80	16563.97
479.98	16624.83
480.16	16872.92
480.34	16496.10
480.52	17085.91
480.70	17128.04
480.88	17081.23
481.06	17362.09
481.24	17153.79
481.41	17713.17
481.59	17472.10
481.77	17867.65
481.95	17809.14
482.13	18108.72
482.31	18249.16
482.49	18427.04
482.67	18445.76
482.85	18883.44
483.03	18855.36
483.21	19023.87
483.39	19190.05
483.57	19110.47
483.74	19157.28
483.92	19555.18
484.10	19695.61
484.28	20130.95
484.46	20247.97
484.64	20411.81
484.82	20130.95
485.00	20479.69
485.18	20690.34
485.35	21165.46
485.53	21198.23
485.71	21472.07
485.89	21448.67
486.07	21462.71
486.25	21294.19
486.43	21617.19
486.61	21991.67
486.78	22101.68
486.96	22160.19
487.14	22565.10
487.32	22628.30
487.50	22782.77
487.68	22548.72
487.85	22977.04
488.03	23566.85
488.21	24002.19
488.39	23791.55
488.57	23459.19
488.75	24034.96
488.92	24290.08
489.10	24336.89
489.28	24629.46
489.46	24833.08
489.64	24985.22
489.81	24973.52
489.99	25130.33
490.17	25392.47
490.35	25687.38
490.53	25329.28
490.70	26136.76
490.88	26120.38
491.06	26239.75
491.24	26169.53
491.41	26359.11
491.59	26703.17
491.77	26705.51
491.95	27461.51
492.13	27187.66
492.30	27164.26
492.48	27515.34
492.66	27700.24
492.84	27679.18
493.01	28053.66
493.19	28006.85
493.37	28753.48
493.54	28809.65
493.72	28783.91
493.90	28617.73
494.08	29118.60
494.25	29591.39
494.43	29631.18
494.61	29963.54
494.79	29909.71
494.96	29862.90
495.14	30073.54
495.32	30431.65
495.49	30412.92
495.67	30536.97
495.85	30696.13
496.02	31098.70
496.20	30899.75
496.38	30831.88
496.55	31426.37
496.73	31730.64
496.91	31489.57
497.09	31550.42
497.26	32360.25
497.44	32290.03
497.62	32201.09
497.79	32978.15
497.97	32591.96
498.14	32772.18
498.32	33146.67
498.50	32830.69
498.67	33060.07
498.85	33214.54
499.03	33024.96
499.20	33141.99
499.38	33628.82
499.56	34080.54
499.73	34338.00
499.91	34312.25
500.08	34595.46
500.26	33965.85
500.44	34387.15
500.61	34480.77
500.79	34574.39
500.97	34932.50
501.14	35318.68
501.32	35620.61
501.49	34806.11
501.67	35105.70
501.84	35515.29
502.02	35306.98
502.20	35697.85
502.37	35770.41
502.55	35756.36
502.72	36203.41
502.90	35728.28
503.07	35672.10
503.25	36287.67
503.43	36311.07
503.60	36760.45
503.78	36828.33
503.95	36706.62
504.13	36975.78
504.30	37092.81
504.48	36921.95
504.65	37167.71
504.83	37214.52
505.01	37916.68
505.18	37806.67
505.36	38291.16
505.53	37708.37
505.71	37890.93
505.88	38195.20
506.06	37975.19
506.23	38270.10
506.41	38375.42
506.58	38747.57
506.76	38206.90
506.93	38607.14
507.11	38625.86
507.28	38775.66
507.46	38944.17
507.63	39475.48
507.81	39421.64
507.98	39173.55
508.16	39124.40
508.33	39295.25
508.50	39569.10
508.68	39658.04
508.85	40439.78
509.03	39672.08
509.20	40620.00
509.38	40168.27
509.55	40439.78
509.73	40390.62
509.90	40807.24
510.08	40348.50
510.25	40416.37
510.42	41092.79
510.60	41209.81
510.77	41120.87
510.95	41191.09
511.12	40875.12
511.30	41148.96
511.47	41579.62
511.64	41544.51
511.82	41872.18
511.99	41495.36
512.17	42110.92
512.34	42082.83
512.51	42412.85
512.69	42504.13
512.86	41717.71
513.04	42384.76
513.21	42838.83
513.38	43012.02
513.56	42735.84
513.73	42724.14
513.90	42719.46
514.08	42623.50
514.25	43175.86
514.43	42948.83
514.60	43526.94
514.77	43477.79
514.95	43959.94
515.12	43290.55
515.29	43302.25
515.47	43761.00
515.64	44093.35
515.81	43732.91
515.99	44067.61
516.16	44690.19
516.33	44343.79
516.51	44563.80
516.68	44236.12
516.85	44191.65
517.03	44367.20
517.20	44505.29
517.37	44760.40
517.54	44987.44
517.72	45022.54
517.89	45146.59
518.06	44891.48
518.24	44687.85
518.41	44933.60
518.58	45502.35
518.75	45221.49
518.93	45579.59
519.10	45474.27
519.27	45764.49
519.45	45415.76
519.62	45488.31
519.79	46064.08
519.96	45605.34
520.14	46174.09
520.31	45993.87
520.48	46272.39
520.65	46085.15
520.83	46789.65
521.00	46464.32
521.17	46337.93
521.34	46483.04
521.52	46679.64
521.69	46721.77
521.86	47107.96
522.03	47285.84
522.20	47192.22
522.38	47061.15
522.55	47192.22
522.72	47210.95
522.89	47199.24
523.07	47735.23
523.24	47672.03
523.41	47657.99
523.58	47643.94
523.75	47753.95
523.92	47709.48
524.10	47622.88
524.27	47952.90
524.44	48100.35
524.61	48083.97
524.78	48332.06
524.96	48360.15
525.13	48275.89
525.30	48411.64
525.47	48664.42
525.64	48465.47
525.81	48512.28
525.98	48832.94
526.16	48746.34
526.33	48786.13
526.50	48898.47
526.67	48587.18
526.84	48959.33
527.01	48964.01
527.18	49008.48
527.36	49357.22
527.53	49137.21
527.70	49558.50
527.87	49722.34
528.04	49443.82
528.21	49525.74
528.38	49478.92
528.55	49649.78
528.72	49876.82
528.89	49734.04
529.07	49457.86
529.24	49806.60
529.41	50010.23
529.58	49869.79
529.75	50061.72
529.92	50265.34
530.09	49853.41
530.26	50145.98
530.43	50417.48
530.60	50155.34
530.77	50007.89
530.94	50546.21
531.11	50169.38
531.28	50218.53
531.46	50342.58
531.63	50649.19
531.80	50548.55
531.97	50880.91
532.14	51110.28
532.31	50564.93
532.48	50588.34
532.65	50920.70
532.82	50789.62
532.99	50869.20
533.16	50798.99
533.33	50838.78
533.50	51320.93
533.67	51084.53
533.84	51147.73
534.01	51466.04
534.18	51103.26
534.35	51173.47
534.52	51114.96
534.69	51304.54
534.86	51505.83
535.03	51161.77
535.20	51657.96
535.37	51536.26
535.54	51564.34
535.71	51201.56
535.88	51620.52
536.05	52119.05
536.22	51966.91
536.38	51547.96
536.55	51978.62
536.72	51915.42
536.89	51487.10
537.06	51643.92
537.23	52097.98
537.40	51892.02
537.57	51952.87
537.74	51995.00
537.91	52554.39
538.08	52093.30
538.25	52172.88
538.42	52025.43
538.59	52432.68
538.75	52175.22
538.92	52500.56
539.09	52247.78
539.26	52825.89
539.43	52559.07
539.60	52858.66
539.77	52648.01
539.94	52509.92
540.11	52591.84
540.28	52608.22
540.44	52519.28
540.61	52790.78
540.78	52762.70
540.95	52690.14
541.12	52713.55
541.29	52809.51
541.46	52582.48
541.62	52556.73
541.79	52898.45
541.96	52711.20
542.13	52739.29
542.30	52816.53
542.47	53434.43
542.63	53322.08
542.80	53303.36
542.97	53471.88
543.14	53673.16
543.31	53329.11
543.48	53371.24
543.64	53429.75
543.81	53638.06
543.98	53598.27
544.15	53837.00
544.32	53829.98
544.48	53832.32
544.65	53455.50
544.82	53729.34
544.99	53614.65
545.16	53682.53
545.32	53773.81
545.49	54188.08
545.66	54281.70
545.83	54199.79
546.00	54262.98
546.16	54021.90
546.33	54038.29
546.50	53677.85
546.67	54017.22
546.83	53860.41
547.00	53848.71
547.17	54012.54
547.34	53923.60
547.50	54433.84
547.67	54220.85
547.84	54284.04
548.00	54281.70
548.17	54417.46
548.34	54363.62
548.51	54501.71
548.67	54445.54
548.84	54525.12
549.01	54691.30
549.18	54387.03
549.34	54436.18
549.51	54485.33
549.68	54546.18
549.84	54539.16
550.01	54380.01
550.18	54614.06
550.34	54642.15
550.51	54803.64
550.68	54745.13
550.84	54658.53
551.01	54712.36
551.18	54553.21
551.34	54560.23
551.51	54876.20
551.68	54986.21
551.84	54810.67
552.01	54946.42
552.18	55061.10
552.34	54885.56
552.51	55056.42
552.68	54969.82
552.84	54731.09
553.01	55065.78
553.18	55011.95
553.34	55089.19
553.51	55086.85
553.67	55126.64
553.84	55554.96
554.01	55323.24
554.17	55281.11
554.34	55295.16
554.51	55348.99
554.67	55189.83
554.84	55276.43
555.00	55393.46
555.17	55297.50
555.33	55180.47
555.50	55253.03
555.67	55416.86
555.83	55419.20
556.00	55171.11
556.16	55683.69
556.33	55246.00
556.50	55505.80
556.66	55686.03
556.83	55379.42
556.99	55592.40
557.16	55772.63
557.32	55896.67
557.49	55725.81
557.65	55517.51
557.82	55660.28
557.98	55653.26
558.15	55587.72
558.32	55870.93
558.48	55702.41
558.65	55760.92
558.81	55887.31
558.98	55955.19
559.14	55810.07
559.31	55910.72
559.47	55863.91
559.64	55901.36
559.80	55861.57
559.97	55964.55
560.13	55849.86
560.30	55983.27
560.46	55718.79
560.63	55952.85
560.79	56090.94
560.96	55976.25
561.12	55894.33
561.29	56060.51
561.45	55779.65
561.61	56112.00
561.78	55997.32
561.94	56121.37
562.11	55906.04
562.27	55800.71
562.44	55831.14
562.60	55819.44
562.77	56229.03
562.93	55941.14
563.10	56189.24
563.26	56240.73
563.42	56177.54
563.59	56142.43
563.75	55969.23
563.92	56252.44
564.08	56273.50
564.24	56310.95
564.41	55887.31
564.57	56306.27
564.74	56261.80
564.90	56219.67
565.07	56250.09
565.23	56463.08
565.39	56442.02
565.56	56397.55
565.72	55973.91
565.88	56140.09
566.05	56348.40
566.21	55941.14
566.38	56023.06
566.54	56179.88
566.70	56308.61
566.87	56339.04
567.03	56097.96
567.19	56498.19
567.36	56301.59
567.52	56413.93
567.68	56357.76
567.85	56060.51
568.01	56374.14
568.17	56224.35
568.34	56301.59
568.50	56420.95
568.66	56523.94
568.83	56722.88
568.99	56259.46
569.15	56446.70
569.32	56549.68
569.48	56334.35
569.64	56537.98
569.81	56156.47
569.97	56196.26
570.13	56591.81
570.30	56172.86
570.46	56612.88
570.62	56495.85
570.78	56278.18
570.95	56266.48
571.11	56449.04
571.27	56446.70
571.43	56275.84
571.60	56317.97
571.76	56418.61
571.92	56638.62
572.09	56463.08
572.25	56722.88
572.41	56636.28
572.57	56624.58
572.74	56650.33
572.90	56580.11
573.06	56720.54
573.22	56435.00
573.38	56655.01
573.55	56598.83
573.71	56811.82
573.87	56793.10
574.03	56456.06
574.20	56973.32
574.36	56507.55
574.52	56402.23
574.68	56418.61
574.84	56554.36
575.01	56573.09
575.17	56563.73
575.33	56640.96
575.49	56619.90
575.65	56736.93
575.82	56921.83
575.98	56662.03
576.14	56692.46
576.30	56662.03
576.46	56540.32
576.62	56437.34
576.79	56797.78
576.95	56306.27
577.11	56591.81
577.27	56626.92
577.43	56757.99
577.59	56484.15
577.75	56629.26
577.92	56577.77
578.08	56388.19
578.24	56542.66
578.40	56610.54
578.56	56577.77
578.72	56399.89
578.88	56905.44
579.04	56776.72
579.21	56652.67
579.37	56470.11
579.53	56725.22
579.69	56598.83
579.85	56608.20
580.01	56463.08
580.17	56706.50
580.33	56568.41
580.49	56638.62
580.65	56828.21
580.82	56872.68
580.98	56545.00
581.14	56851.61
581.30	56804.80
581.46	56549.68
581.62	56631.60
581.78	56584.79
581.94	56697.14
582.10	56601.18
582.26	56704.16
582.42	56725.22
582.58	56853.95
582.74	56718.20
582.90	56739.27
583.06	56926.51
583.22	56697.14
583.38	56676.07
583.54	56577.77
583.70	56757.99
583.86	56727.56
584.02	56645.65
584.18	56898.42
584.34	56690.12
584.50	57031.83
584.66	56739.27
584.82	56570.75
584.98	57015.45
585.14	56502.87
585.30	56556.70
585.46	56863.32
585.62	56704.16
585.78	56683.09
585.94	56535.64
586.10	56638.62
586.26	56956.94
586.42	56734.59
586.58	56856.29
586.74	56523.94
586.90	56626.92
587.06	56530.96
587.22	56807.14
587.38	56619.90
587.54	56896.08
587.70	56912.47
587.86	56935.87
588.02	56786.08
588.18	56821.19
588.34	57092.69
588.49	56783.74
588.65	56767.35
588.81	56451.38
588.97	56729.90
589.13	56746.29
589.29	56842.25
589.45	56952.26
589.61	57003.75
