SpectraSuite Data File
++++++++++++++++++++++++++++++++++++
Date: Fri Oct 18 13:54:05 GMT-05:00 2013
User: bianchi
Dark Spectrum Present: No
Reference Spectrum Present: No
Number of Sampled Component Spectra: 1
Spectrometers: USB2+H05261
Integration Time (usec): 100000 (USB2+H05261)
Spectra Averaged: 1 (USB2+H05261)
Boxcar Smoothing: 0 (USB2+H05261)
Correct for Electrical Dark: No (USB2+H05261)
Strobe/Lamp Enabled: No (USB2+H05261)
Correct for Detector Non-linearity: No (USB2+H05261)
Correct for Stray Light: No (USB2+H05261)
Number of Pixels in Processed Spectrum: 2048
>>>>>Begin Processed Spectral Data<<<<<
365.73	0.00
365.92	0.00
366.12	0.00
366.32	0.00
366.52	0.00
366.72	0.00
366.91	0.00
367.11	0.00
367.31	0.00
367.51	0.00
367.70	0.00
367.90	0.00
368.10	0.00
368.30	0.00
368.49	0.00
368.69	0.00
368.89	0.00
369.09	0.00
369.28	0.00
369.48	0.00
369.68	0.00
369.87	0.00
370.07	0.00
370.27	18.72
370.47	91.28
370.66	224.69
370.86	327.68
371.06	334.70
371.25	304.27
371.45	341.72
371.65	346.40
371.84	355.76
372.04	287.89
372.24	273.84
372.44	367.46
372.63	447.04
372.83	465.77
373.03	369.80
373.22	416.62
373.42	437.68
373.62	414.27
373.81	397.89
374.01	421.30
374.21	491.51
374.40	477.47
374.60	519.60
374.79	482.15
374.99	531.30
375.19	500.87
375.38	521.94
375.58	559.39
375.78	557.05
375.97	500.87
376.17	566.41
376.37	620.24
376.56	512.58
376.76	592.16
376.95	613.22
377.15	615.56
377.35	589.82
377.54	578.11
377.74	491.51
377.93	580.45
378.13	596.84
378.33	662.37
378.52	521.94
378.72	568.75
378.91	592.16
379.11	627.26
379.31	568.75
379.50	638.97
379.70	643.65
379.89	662.37
380.09	650.67
380.28	629.60
380.48	688.12
380.68	592.16
380.87	681.10
381.07	688.12
381.26	643.65
381.46	685.78
381.65	634.29
381.85	695.14
382.04	592.16
382.24	809.83
382.43	674.07
382.63	723.23
382.83	791.10
383.02	699.82
383.22	807.48
383.41	711.52
383.61	730.25
383.80	678.76
384.00	767.70
384.19	826.21
384.39	784.08
384.58	791.10
384.78	805.14
384.97	821.53
385.17	795.78
385.36	798.12
385.56	849.61
385.75	809.83
385.95	730.25
386.14	887.06
386.34	833.23
386.53	861.32
386.72	788.76
386.92	943.24
387.11	896.43
387.31	1001.75
387.50	748.97
387.70	779.40
387.89	882.38
388.09	833.23
388.28	884.72
388.48	966.64
388.67	901.11
388.86	1011.11
389.06	1046.22
389.25	908.13
389.45	1011.11
389.64	1018.13
389.84	961.96
390.03	1057.92
390.22	985.37
390.42	1039.20
390.61	1057.92
390.81	912.81
391.00	1020.47
391.19	1032.18
391.39	1046.22
391.58	994.73
391.78	1036.86
391.97	1118.78
392.16	1015.79
392.36	1174.95
392.55	1130.48
392.75	1121.12
392.94	1095.37
393.13	1118.78
393.33	1170.27
393.52	1160.91
393.71	1118.78
393.91	1170.27
394.10	1015.79
394.29	1184.31
394.49	1130.48
394.68	1266.23
394.88	1245.16
395.07	1287.29
395.26	1142.18
395.46	1299.00
395.65	1357.51
395.84	1320.06
396.04	1359.85
396.23	1446.45
396.42	1329.42
396.62	1465.18
396.81	1387.94
397.00	1345.81
397.19	1345.81
397.39	1472.20
397.58	1458.15
397.77	1446.45
397.97	1394.96
398.16	1530.71
398.35	1479.22
398.55	1500.28
398.74	1479.22
398.93	1540.07
399.12	1451.13
399.32	1406.66
399.51	1624.33
399.70	1563.48
399.90	1593.90
400.09	1582.20
400.28	1614.97
400.47	1563.48
400.67	1687.53
400.86	1664.12
401.05	1666.46
401.24	1764.76
401.44	1734.34
401.63	1748.38
401.82	1673.48
402.01	1638.38
402.21	1701.57
402.40	1802.21
402.59	1806.89
402.78	1727.32
402.97	1764.76
403.17	1914.56
403.36	1842.00
403.55	1898.17
403.74	1949.67
403.93	1970.73
404.13	1893.49
404.32	1937.96
404.51	1916.90
404.70	1893.49
404.89	1966.05
405.09	2115.84
405.28	2080.74
405.47	2052.65
405.66	2108.82
405.85	2115.84
406.05	2022.22
406.24	2040.95
406.43	2197.76
406.62	2162.66
406.81	2186.06
407.00	2214.15
407.20	2040.95
407.39	2125.21
407.58	2265.64
407.77	2195.42
407.96	2438.84
408.15	2361.60
408.34	2328.83
408.54	2324.15
408.73	2387.35
408.92	2413.09
409.11	2443.52
409.30	2401.39
409.49	2445.86
409.68	2452.88
409.87	2567.57
410.07	2544.16
410.26	2576.93
410.45	2644.81
410.64	2525.44
410.83	2609.70
411.02	2705.66
411.21	2754.81
411.40	2743.11
411.59	2717.36
411.78	2843.75
411.98	2810.98
412.17	2913.97
412.36	2883.54
412.55	2869.50
412.74	2836.73
412.93	2993.55
413.12	2965.46
413.31	3150.36
413.50	2993.55
413.69	3038.02
413.88	3173.77
414.07	3211.22
414.26	3227.60
414.45	3213.56
414.64	3206.53
414.83	3382.07
415.02	3389.10
415.22	3342.28
415.41	3419.52
415.60	3529.53
415.79	3370.37
415.98	3597.40
416.17	3550.59
416.36	3534.21
416.55	3564.64
416.74	3616.13
416.93	3669.96
417.12	3808.05
417.31	3861.88
417.50	3824.44
417.69	3831.46
417.88	3735.50
418.07	3761.24
418.26	3957.85
418.45	3885.29
418.64	4205.94
418.83	3985.93
419.02	4002.32
419.21	4145.09
419.39	4060.83
419.58	3899.33
419.77	4133.39
419.96	4177.86
420.15	4074.87
420.34	4119.34
420.53	4248.07
420.72	4397.87
420.91	4264.46
421.10	4294.88
421.29	4461.06
421.48	4255.09
421.67	4397.87
421.86	4299.56
422.05	4517.23
422.24	4475.10
422.43	4360.42
422.61	4435.32
422.80	4512.55
422.99	4507.87
423.18	4571.07
423.37	4669.37
423.56	4475.10
423.75	4517.23
423.94	4564.04
424.13	4381.48
424.32	4276.16
424.50	4517.23
424.69	4868.31
424.88	4758.31
425.07	4454.04
425.26	4610.86
425.45	4620.22
425.64	4561.70
425.83	4589.79
426.01	4566.39
426.20	4503.19
426.39	4695.11
426.58	4739.58
426.77	4568.73
426.96	4812.14
427.15	4643.62
427.33	4718.52
427.52	4854.27
427.71	4819.16
427.90	4903.42
428.09	4910.44
428.28	4919.81
428.46	5057.90
428.65	4971.30
428.84	4985.34
429.03	5198.33
429.22	5083.64
429.40	5233.44
429.59	5172.58
429.78	4840.23
429.97	4774.69
430.16	4990.02
430.34	5280.25
430.53	5114.07
430.72	5261.52
430.91	5130.45
431.10	5198.33
431.28	5273.23
431.47	5324.72
431.66	5392.59
431.85	5282.59
432.03	5397.28
432.22	5458.13
432.41	5467.49
432.60	5640.69
432.79	5444.09
432.97	5619.63
433.16	5589.20
433.35	5413.66
433.54	5619.63
433.72	5724.95
433.91	5781.12
434.10	5790.49
434.28	5710.91
434.47	5813.89
434.66	5921.56
434.85	5748.36
435.03	5870.06
435.22	5832.62
435.41	6164.97
435.59	6038.58
435.78	5944.96
435.97	6094.76
436.16	6108.80
436.34	5933.26
436.53	6099.44
436.72	6230.51
436.90	6085.39
437.09	6258.59
437.28	6211.78
437.46	6373.28
437.65	6253.91
437.84	6413.07
438.02	6274.98
438.21	6244.55
438.40	6289.02
438.58	6506.69
438.77	6602.65
438.96	6417.75
439.14	6476.26
439.33	6551.16
439.52	6782.87
439.70	6703.29
439.89	6815.64
440.08	6855.43
440.26	6965.43
440.45	6902.24
440.63	6920.96
440.82	7073.10
441.01	7030.97
441.19	7148.00
441.38	7403.11
441.57	7082.46
441.75	7445.24
441.94	7482.69
442.12	7564.61
442.31	7613.76
442.50	7538.87
442.68	7527.16
442.87	7604.40
443.05	7702.70
443.24	7545.89
443.43	7641.85
443.61	7761.22
443.80	7829.09
443.98	7405.46
444.17	7452.27
444.35	7688.66
444.54	7894.63
444.73	7892.29
444.91	7864.20
445.10	7744.83
445.28	7875.90
445.47	7552.91
445.65	7847.82
445.84	7815.05
446.02	8077.19
446.21	8006.97
446.39	7775.26
446.58	8058.46
446.77	7939.10
446.95	7808.03
447.14	7885.26
447.32	7971.86
447.51	8037.40
447.69	7826.75
447.88	7962.50
448.06	7896.97
448.25	8009.31
448.43	7953.14
448.62	7957.82
448.80	7854.84
448.99	8105.28
449.17	8285.50
449.36	8152.09
449.54	8187.19
449.73	8339.33
449.91	8252.73
450.10	8465.72
450.28	8493.80
450.46	8280.82
450.65	8561.68
450.83	8493.80
451.02	8395.50
451.20	8760.63
451.39	8510.19
451.57	8627.21
451.76	8465.72
451.94	8528.91
452.13	8540.61
452.31	8533.59
452.49	8554.66
452.68	8716.16
452.86	8713.81
453.05	8765.31
453.23	8847.22
453.42	8674.03
453.60	8716.16
453.78	8613.17
453.97	8847.22
454.15	8933.82
454.34	8800.41
454.52	9137.45
454.70	9160.86
454.89	9165.54
455.07	9132.77
455.26	9048.51
455.44	9362.14
455.62	9177.24
455.81	9294.27
455.99	9441.72
456.17	9317.67
456.36	9352.78
456.54	9544.70
456.73	9437.04
456.91	9563.43
457.09	9563.43
457.28	9921.53
457.46	9568.11
457.64	9811.53
457.83	9991.75
458.01	9635.99
458.19	10022.17
458.38	9769.40
458.56	9984.73
458.74	10045.58
458.93	9989.41
459.11	10157.92
459.29	9942.60
459.48	10087.71
459.66	10040.90
459.84	10209.42
460.03	10487.94
460.21	10193.03
460.39	10281.97
460.57	10333.47
460.76	10408.36
460.94	10331.12
461.12	10574.54
461.31	10258.57
461.49	10188.35
461.67	10326.44
461.85	10787.53
462.04	10712.63
462.22	11281.38
462.40	10637.73
462.59	10565.18
462.77	10843.70
462.95	10934.98
463.13	10764.12
463.32	10504.32
463.50	11009.88
463.68	11007.54
463.86	10944.34
464.05	10855.40
464.23	10993.50
464.41	11028.60
464.59	10651.78
464.78	11274.36
464.96	11014.56
465.14	10902.22
465.32	11070.73
465.50	11239.25
465.69	11475.65
465.87	11080.10
466.05	11578.63
466.23	11126.91
466.41	11492.03
466.60	11742.47
466.78	11225.21
466.96	11522.46
467.14	11140.95
467.32	11517.78
467.51	11705.02
467.69	11211.17
467.87	11571.61
468.05	11772.89
468.23	11515.44
468.41	11557.57
468.60	11503.73
468.78	11735.45
468.96	11552.88
469.14	11988.22
469.32	12028.01
469.50	11683.95
469.69	11976.52
469.87	12020.99
470.05	12236.32
470.23	12042.06
470.41	11995.25
470.59	12346.33
470.77	12177.81
470.95	12285.47
471.14	12552.29
471.32	12381.43
471.50	12891.67
471.68	12594.42
471.86	12795.71
472.04	12910.40
472.22	13130.41
472.40	12936.14
472.58	12739.54
472.77	12879.97
472.95	12912.74
473.13	13319.99
473.31	13039.12
473.49	13193.60
473.67	13352.76
473.85	13242.75
474.03	13319.99
474.21	13476.80
474.39	13781.07
474.57	13741.29
474.75	14005.77
474.93	13940.23
475.12	13628.94
475.30	14143.86
475.48	14022.15
475.66	13949.59
475.84	14204.71
476.02	14113.43
476.20	14424.72
476.38	14656.43
476.56	14815.59
476.74	14794.53
476.92	14736.01
477.10	14927.94
477.28	14995.81
477.46	14682.18
477.64	14965.39
477.82	15482.64
478.00	15800.96
478.18	15648.82
478.36	15941.39
478.54	16025.65
478.72	15889.90
478.90	16002.24
479.08	16306.51
479.26	16442.26
479.44	16566.31
479.62	16655.25
479.80	16641.21
479.98	16952.50
480.16	17254.43
480.34	17181.87
480.52	17130.38
480.70	17355.07
480.88	17216.98
481.06	17500.19
481.24	17446.35
481.41	17767.01
481.59	18071.28
481.77	18017.44
481.95	18394.27
482.13	18204.69
482.31	18188.30
482.49	18817.91
482.67	18710.24
482.85	18920.89
483.03	19274.31
483.21	19192.39
483.39	19564.54
483.57	19749.44
483.74	19644.12
483.92	19508.37
484.10	19356.23
484.28	20112.22
484.46	20453.94
484.64	20751.19
484.82	20428.20
485.00	20680.97
485.18	20931.41
485.35	21113.97
485.53	20947.79
485.71	21624.21
485.89	21764.64
486.07	21518.89
486.25	21656.98
486.43	22075.93
486.61	21940.18
486.78	22497.23
486.96	22574.47
487.14	22995.76
487.32	22899.80
487.50	22927.89
487.68	23463.87
487.85	23559.83
488.03	23770.48
488.21	23824.31
488.39	23999.85
488.57	24060.71
488.75	24257.31
488.92	24549.88
489.10	24489.03
489.28	24856.49
489.46	24999.26
489.64	25102.25
489.81	25736.53
489.99	25535.24
490.17	25876.96
490.35	25776.32
490.53	26169.53
490.70	26115.70
490.88	26256.13
491.06	26679.77
491.24	26752.32
491.41	27091.70
491.59	27103.40
491.77	27143.19
491.95	27730.67
492.13	27875.78
492.30	28346.23
492.48	27768.12
492.66	27587.89
492.84	27967.06
493.01	28444.53
493.19	28573.26
493.37	29102.22
493.54	28868.17
493.72	28858.81
493.90	29202.86
494.08	29282.44
494.25	29670.97
494.43	29881.62
494.61	30228.02
494.79	30057.16
494.96	30204.61
495.14	30515.90
495.32	30459.73
495.49	30712.51
495.67	31197.00
495.85	31257.85
496.02	31225.09
496.20	31346.79
496.38	31398.29
496.55	31470.84
496.73	32240.88
496.91	31833.63
497.09	32217.47
497.26	32217.47
497.44	32692.60
497.62	32720.69
497.79	33191.14
497.97	32657.49
498.14	33074.11
498.32	33521.15
498.50	33322.21
498.67	33916.70
498.85	33352.63
499.03	33977.56
499.20	33851.17
499.38	34417.58
499.56	34110.97
499.73	34450.35
499.91	34670.36
500.08	35115.06
500.26	34796.74
500.44	34480.77
500.61	34960.58
500.79	34518.22
500.97	35112.72
501.14	35679.13
501.32	35269.53
501.49	35789.13
501.67	35681.47
501.84	35749.34
502.02	35700.19
502.20	36233.83
502.37	36498.31
502.55	36095.74
502.72	36002.12
502.90	36662.15
503.07	36512.36
503.25	36678.54
503.43	36493.63
503.60	36531.08
503.78	37455.59
503.95	37326.86
504.13	37453.25
504.30	37546.87
504.48	37336.23
504.65	37570.28
504.83	38230.31
505.01	38316.91
505.18	38066.47
505.36	38494.79
505.53	38213.93
505.71	38169.46
505.88	38714.80
506.06	38333.29
506.23	39194.61
506.41	38998.01
506.58	38904.38
506.76	39077.58
506.93	38897.36
507.11	39257.81
507.28	39108.01
507.46	39456.75
507.63	39620.59
507.81	40030.18
507.98	39536.33
508.16	40109.76
508.33	39875.71
508.50	40135.51
508.68	40105.08
508.85	40931.29
509.03	40385.94
509.20	40994.48
509.38	40498.29
509.55	41401.74
509.73	40844.69
509.90	40858.73
510.08	40781.49
510.25	40912.56
510.42	40856.39
510.60	41471.95
510.77	41801.97
510.95	42110.92
511.12	41268.33
511.30	41427.48
511.47	41897.93
511.64	42038.36
511.82	42141.35
511.99	42131.98
512.17	42176.45
512.34	42911.38
512.51	42572.00
512.69	42253.69
512.86	42763.93
513.04	43337.36
513.21	43215.65
513.38	43290.55
513.56	43739.93
513.73	42960.53
513.90	43601.84
514.08	43271.82
514.25	43695.46
514.43	43814.83
514.60	43730.57
514.77	43868.66
514.95	44538.05
515.12	43480.13
515.29	44137.82
515.47	44144.84
515.64	44421.03
515.81	44299.32
515.99	44500.61
516.16	45214.47
516.33	44793.17
516.51	44669.12
516.68	44889.13
516.85	44542.74
517.03	45162.98
517.20	45216.81
517.37	45013.18
517.54	45223.83
517.72	45668.53
517.89	45682.58
518.06	45591.30
518.24	45647.47
518.41	45497.67
518.58	45729.39
518.75	45965.78
518.93	46211.54
519.10	45975.14
519.27	46347.29
519.45	46361.33
519.62	46298.14
519.79	46335.59
519.96	46377.72
520.14	46536.87
520.31	46312.18
520.48	47019.02
520.65	46862.21
520.83	47042.43
521.00	46541.55
521.17	46658.58
521.34	46962.85
521.52	46864.55
521.69	47346.70
521.86	47555.00
522.03	47117.32
522.20	47938.85
522.38	48217.38
522.55	47639.26
522.72	47643.94
522.89	47870.98
523.07	47955.24
523.24	47812.46
523.41	48006.73
523.58	48055.88
523.75	48238.44
523.92	47470.75
524.10	47870.98
524.27	48428.02
524.44	48603.56
524.61	48758.04
524.78	49036.56
524.96	48863.36
525.13	49038.90
525.30	48882.09
525.47	49027.20
525.64	49066.99
525.81	49485.95
525.98	49542.12
526.16	49364.24
526.33	49062.31
526.50	49420.41
526.67	49268.28
526.84	49581.91
527.01	49017.84
527.18	49546.80
527.36	49822.98
527.53	49502.33
527.70	50284.07
527.87	50178.75
528.04	49935.33
528.21	50099.17
528.38	50171.72
528.55	50071.08
528.72	50040.65
528.89	50082.78
529.07	50384.71
529.24	50045.33
529.41	50131.93
529.58	50309.82
529.75	50117.89
529.92	50618.77
530.09	50206.83
530.26	50312.16
530.43	50609.40
530.60	50454.93
530.77	50808.35
530.94	50621.11
531.11	50660.90
531.28	50553.23
531.46	51030.70
531.63	50859.84
531.80	51206.24
531.97	51456.68
532.14	51292.84
532.31	51433.27
532.48	51405.19
532.65	51260.07
532.82	51299.86
532.99	51313.90
533.16	51203.90
533.33	51704.77
533.50	51796.06
533.67	51634.56
533.84	51255.39
534.01	51370.08
534.18	51356.03
534.35	51639.24
534.52	51714.14
534.69	52257.14
534.86	52163.52
535.03	51936.49
535.20	52147.14
535.37	52149.48
535.54	52072.24
535.71	51686.05
535.88	52170.54
536.05	52023.09
536.22	52308.63
536.38	52411.62
536.55	52694.82
536.72	52416.30
536.89	52212.67
537.06	52107.35
537.23	52538.01
537.40	52308.63
537.57	52332.04
537.74	52612.90
537.91	52882.06
538.08	52811.85
538.25	52559.07
538.42	52676.10
538.59	53380.60
538.75	52685.46
538.92	52678.44
539.09	52910.15
539.26	52968.66
539.43	52809.51
539.60	53069.31
539.77	52985.05
539.94	52949.94
540.11	53006.11
540.28	53251.87
540.44	53038.88
540.61	52959.30
540.78	53092.71
540.95	53411.02
541.12	53254.21
541.29	53294.00
541.46	53081.01
541.62	53202.72
541.79	53478.90
541.96	53024.84
542.13	53467.20
542.30	53506.99
542.47	53464.86
542.63	53663.80
542.80	53549.12
542.97	53715.29
543.14	53982.12
543.31	53661.46
543.48	53694.23
543.64	53787.85
543.81	54209.15
543.98	54223.19
544.15	54234.89
544.32	54335.54
544.48	54199.79
544.65	54426.82
544.82	54323.83
544.99	53968.07
545.16	54164.68
545.32	54178.72
545.49	54562.57
545.66	54679.60
545.83	54403.41
546.00	54424.48
546.16	54637.47
546.33	54131.91
546.50	54206.81
546.67	54370.64
546.83	54288.73
547.00	54323.83
547.17	54431.50
547.34	54410.43
547.50	54653.85
547.67	54543.84
547.84	54705.34
548.00	55007.27
548.17	54803.64
548.34	54473.63
548.51	54756.83
548.67	54899.61
548.84	55110.25
549.01	55007.27
549.18	54543.84
549.34	54951.10
549.51	54855.14
549.68	54925.35
549.84	54827.05
550.01	54869.18
550.18	54822.37
550.34	55058.76
550.51	55325.58
550.68	55128.98
550.84	54955.78
551.01	55187.49
551.18	55063.44
551.34	55096.21
551.51	55274.09
551.68	55152.38
551.84	55384.10
552.01	55173.45
552.18	55358.35
552.34	55238.98
552.51	55552.62
552.68	55316.22
552.84	55304.52
553.01	55580.70
553.18	55444.95
553.34	55592.40
553.51	55262.39
553.67	55550.27
553.84	56058.17
554.01	55697.73
554.17	55533.89
554.34	55529.21
554.51	55604.11
554.67	55636.87
554.84	55454.31
555.00	55671.98
555.17	55824.12
555.33	55718.79
555.50	55679.00
555.67	55536.23
555.83	55711.77
556.00	55749.22
556.16	55992.64
556.33	55819.44
556.50	55770.28
556.66	56011.36
556.83	55723.47
556.99	56207.97
557.16	56292.22
557.32	56236.05
557.49	56259.46
557.65	55859.23
557.82	55887.31
557.98	55931.78
558.15	56006.68
558.32	56126.05
558.48	56170.52
558.65	56416.27
558.81	56322.65
558.98	56051.15
559.14	56121.37
559.31	55955.19
559.47	56437.34
559.64	56062.85
559.80	56261.80
559.97	56289.88
560.13	55997.32
560.30	56315.63
560.46	56126.05
560.63	56088.60
560.79	56231.37
560.96	56397.55
561.12	56296.91
561.29	56210.31
561.45	56339.04
561.61	56793.10
561.78	56355.42
561.94	56528.62
562.11	56591.81
562.27	56519.26
562.44	56453.72
562.60	56643.30
562.77	56526.28
562.93	56324.99
563.10	56584.79
563.26	56268.82
563.42	56788.42
563.59	56772.03
563.75	56683.09
563.92	56821.19
564.08	56339.04
564.24	56545.00
564.41	56631.60
564.57	56449.04
564.74	56451.38
564.90	56697.14
565.07	56743.95
565.23	56619.90
565.39	56437.34
565.56	56704.16
565.72	56566.07
565.88	56442.02
566.05	56582.45
566.21	56442.02
566.38	56568.41
566.54	56575.43
566.70	56746.29
566.87	56910.13
567.03	56727.56
567.19	56884.38
567.36	56790.76
567.52	56734.59
567.68	56846.93
567.85	56547.34
568.01	56760.33
568.17	56647.99
568.34	56907.79
568.50	56898.42
568.66	56622.24
568.83	56823.53
568.99	56669.05
569.15	56753.31
569.32	56666.71
569.48	56650.33
569.64	56830.55
569.81	56636.28
569.97	56982.68
570.13	56718.20
570.30	56814.16
570.46	56877.36
570.62	56846.93
570.78	56708.84
570.95	56652.67
571.11	56823.53
571.27	56657.35
571.43	57015.45
571.60	56647.99
571.76	56966.30
571.92	56830.55
572.09	57010.77
572.25	56919.49
572.41	56846.93
572.57	56673.73
572.74	57284.61
572.90	56872.68
573.06	56865.66
573.22	56877.36
573.38	56851.61
573.55	56837.57
573.71	57057.58
573.87	57179.29
574.03	56832.89
574.20	56786.08
574.36	56966.30
574.52	56970.98
574.68	56860.97
574.84	57111.41
575.01	57207.37
575.17	56994.39
575.33	57045.88
575.49	56860.97
575.65	57322.06
575.82	57045.88
575.98	56914.81
576.14	57090.35
576.30	56980.34
576.46	56727.56
576.62	56746.29
576.79	56900.76
576.95	56793.10
577.11	57050.56
577.27	56992.04
577.43	56919.49
577.59	57027.15
577.75	57181.63
577.92	56877.36
578.08	56903.10
578.24	56870.34
578.40	57034.17
578.56	56975.66
578.72	57001.41
578.88	57099.71
579.04	57120.77
579.21	57078.64
579.37	57125.46
579.53	57059.92
579.69	56949.92
579.85	56821.19
580.01	56846.93
580.17	56914.81
580.33	56896.08
580.49	57153.54
580.65	56987.36
580.82	57141.84
580.98	57125.46
581.14	56980.34
581.30	57261.21
581.46	56655.01
581.62	56938.21
581.78	56907.79
581.94	57029.49
582.10	56800.12
582.26	56884.38
582.42	56912.47
582.58	57251.84
582.74	57228.44
582.90	57422.70
583.06	57240.14
583.22	57097.37
583.38	56928.85
583.54	57031.83
583.70	56736.93
583.86	57045.88
584.02	56870.34
584.18	57064.60
584.34	57090.35
584.50	57467.17
584.66	57099.71
584.82	56966.30
584.98	57167.58
585.14	57020.13
585.30	56919.49
585.46	57216.74
585.62	56982.68
585.78	57315.04
585.94	56959.28
586.10	57139.50
586.26	57272.91
586.42	57242.48
586.58	57179.29
586.74	57258.87
586.90	56732.25
587.06	56727.56
587.22	57167.58
587.38	56933.53
587.54	57221.42
587.70	57378.23
587.86	57247.16
588.02	57195.67
588.18	57162.90
588.34	57223.76
588.49	57195.67
588.65	56933.53
588.81	57076.30
588.97	57235.46
589.13	57221.42
589.29	57062.26
589.45	57212.06
