SpectraSuite Data File
++++++++++++++++++++++++++++++++++++
Date: Fri Oct 18 13:54:42 GMT-05:00 2013
User: bianchi
Dark Spectrum Present: No
Reference Spectrum Present: No
Number of Sampled Component Spectra: 1
Spectrometers: USB2+H05261
Integration Time (usec): 100000 (USB2+H05261)
Spectra Averaged: 1 (USB2+H05261)
Boxcar Smoothing: 0 (USB2+H05261)
Correct for Electrical Dark: No (USB2+H05261)
Strobe/Lamp Enabled: No (USB2+H05261)
Correct for Detector Non-linearity: No (USB2+H05261)
Correct for Stray Light: No (USB2+H05261)
Number of Pixels in Processed Spectrum: 2048
>>>>>Begin Processed Spectral Data<<<<<
365.73	0.00
365.92	0.00
366.12	0.00
366.32	0.00
366.52	0.00
366.72	0.00
366.91	0.00
367.11	0.00
367.31	0.00
367.51	0.00
367.70	0.00
367.90	0.00
368.10	0.00
368.30	0.00
368.49	0.00
368.69	0.00
368.89	0.00
369.09	0.00
369.28	0.00
369.48	0.00
369.68	0.00
369.87	0.00
370.07	0.00
370.27	0.00
370.47	39.79
370.66	304.27
370.86	229.37
371.06	334.70
371.25	372.15
371.45	241.08
371.65	411.93
371.84	374.49
372.04	351.08
372.24	358.10
372.44	470.45
372.63	435.34
372.83	484.49
373.03	456.40
373.22	386.19
373.42	388.53
373.62	465.77
373.81	369.80
374.01	482.15
374.21	451.72
374.40	425.98
374.60	589.82
374.79	458.74
374.99	519.60
375.19	451.72
375.38	440.02
375.58	535.98
375.78	479.81
375.97	550.03
376.17	482.15
376.37	465.77
376.56	557.05
376.76	463.43
376.95	475.13
377.15	566.41
377.35	528.96
377.54	514.92
377.74	486.83
377.93	510.24
378.13	624.92
378.33	617.90
378.52	545.34
378.72	540.66
378.91	545.34
379.11	491.51
379.31	676.41
379.50	622.58
379.70	622.58
379.89	617.90
380.09	692.80
380.28	664.71
380.48	643.65
380.68	629.60
380.87	620.24
381.07	631.94
381.26	702.16
381.46	622.58
381.65	629.60
381.85	730.25
382.04	704.50
382.24	723.23
382.43	638.97
382.63	713.86
382.83	627.26
383.02	744.29
383.22	770.04
383.41	690.46
383.61	737.27
383.80	884.72
384.00	844.93
384.19	734.93
384.39	795.78
384.58	814.51
384.78	739.61
384.97	763.01
385.17	706.84
385.36	727.91
385.56	770.04
385.75	807.48
385.95	849.61
386.14	805.14
386.34	812.17
386.53	835.57
386.72	812.17
386.92	915.15
387.11	887.06
387.31	840.25
387.50	863.66
387.70	894.08
387.89	884.72
388.09	854.30
388.28	964.30
388.48	903.45
388.67	971.32
388.86	961.96
389.06	931.53
389.25	896.43
389.45	880.04
389.64	901.11
389.84	961.96
390.03	1050.90
390.22	1004.09
390.42	997.07
390.61	1006.43
390.81	966.64
391.00	1015.79
391.19	1207.72
391.39	1102.39
391.58	985.37
391.78	1004.09
391.97	1167.93
392.16	1076.65
392.36	1067.28
392.55	1151.54
392.75	1174.95
392.94	1116.44
393.13	1078.99
393.33	1137.50
393.52	1151.54
393.71	1139.84
393.91	1277.93
394.10	1135.16
394.29	1165.59
394.49	1217.08
394.68	1235.80
394.88	1188.99
395.07	1238.14
395.26	1207.72
395.46	1296.66
395.65	1334.11
395.84	1362.19
396.04	1306.02
396.23	1205.38
396.42	1362.19
396.62	1284.95
396.81	1362.19
397.00	1371.55
397.19	1345.81
397.39	1383.26
397.58	1465.18
397.77	1444.11
397.97	1427.73
398.16	1451.13
398.35	1413.68
398.55	1399.64
398.74	1434.75
398.93	1504.96
399.12	1551.78
399.32	1488.58
399.51	1526.03
399.70	1593.90
399.90	1577.52
400.09	1598.59
400.28	1638.38
400.47	1591.56
400.67	1647.74
400.86	1678.16
401.05	1643.06
401.24	1673.48
401.44	1713.27
401.63	1659.44
401.82	1720.29
402.01	1710.93
402.21	1715.61
402.40	1799.87
402.59	1785.83
402.78	1703.91
402.97	1806.89
403.17	1856.04
403.36	1856.04
403.55	1872.43
403.74	1881.79
403.93	1926.26
404.13	1940.30
404.32	1928.60
404.51	1998.82
404.70	2012.86
404.89	1959.03
405.09	1954.35
405.28	2092.44
405.47	2001.16
405.66	1996.48
405.85	2087.76
406.05	2031.58
406.24	2092.44
406.43	2062.01
406.62	2125.21
406.81	2293.72
407.00	2200.10
407.20	2134.57
407.39	2186.06
407.58	2270.32
407.77	2256.28
407.96	2349.90
408.15	2457.56
408.34	2272.66
408.54	2382.67
408.73	2450.54
408.92	2387.35
409.11	2457.56
409.30	2436.50
409.49	2476.29
409.68	2497.35
409.87	2518.42
410.07	2635.44
410.26	2569.91
410.45	2607.36
410.64	2497.35
410.83	2649.49
411.02	2612.04
411.21	2768.85
411.40	2815.66
411.59	2778.22
411.78	2789.92
411.98	2846.09
412.17	2843.75
412.36	2768.85
412.55	2867.16
412.74	2967.80
412.93	3019.29
413.12	2810.98
413.31	3110.57
413.50	2928.01
413.69	2998.23
413.88	3063.76
414.07	3108.23
414.26	3227.60
414.45	3162.06
414.64	3194.83
414.83	3311.86
415.02	3258.03
415.22	3358.67
415.41	3487.40
415.60	3522.51
415.79	3421.86
415.98	3463.99
416.17	3501.44
416.36	3576.34
416.55	3602.08
416.74	3630.17
416.93	3667.62
417.12	3632.51
417.31	3728.47
417.50	3730.81
417.69	3791.67
417.88	3953.16
418.07	3950.82
418.26	3864.22
418.45	4042.11
418.64	4124.02
418.83	4044.45
419.02	3920.40
419.21	4121.68
419.39	4128.70
419.58	4016.36
419.77	4007.00
419.96	4175.52
420.15	4114.66
420.34	4196.58
420.53	4234.03
420.72	4369.78
420.91	4278.50
421.10	4341.69
421.29	4414.25
421.48	4105.30
421.67	4468.08
421.86	4285.52
422.05	4168.49
422.24	4304.25
422.43	4475.10
422.61	4484.47
422.80	4533.62
422.99	4498.51
423.18	4500.85
423.37	4535.96
423.56	4610.86
423.75	4510.21
423.94	4421.27
424.13	4201.26
424.32	4304.25
424.50	4601.49
424.69	4718.52
424.88	4608.51
425.07	4664.69
425.26	4552.34
425.45	4395.53
425.64	4650.64
425.83	4652.98
426.01	4873.00
426.20	4634.26
426.39	4664.69
426.58	4475.10
426.77	4594.47
426.96	4664.69
427.15	4699.80
427.33	4592.13
427.52	4748.95
427.71	4835.55
427.90	4762.99
428.09	4828.53
428.28	4875.34
428.46	4798.10
428.65	5036.83
428.84	5118.75
429.03	5266.21
429.22	4823.84
429.40	5114.07
429.59	5062.58
429.78	4835.55
429.97	4849.59
430.16	5043.85
430.34	5200.67
430.53	5170.24
430.72	5416.00
430.91	5181.95
431.10	5160.88
431.28	5334.08
431.47	5465.15
431.66	5341.10
431.85	5270.89
432.03	5458.13
432.22	5476.85
432.41	5383.23
432.60	5577.50
432.79	5444.09
432.97	5579.84
433.16	5680.48
433.35	5650.05
433.54	5650.05
433.72	5675.80
433.91	5579.84
434.10	5535.37
434.28	5701.54
434.47	5760.06
434.66	5858.36
434.85	5834.96
435.03	5959.00
435.22	5797.51
435.41	6167.31
435.59	5905.17
435.78	5844.32
435.97	5942.62
436.16	5982.41
436.34	5867.72
436.53	6050.28
436.72	6195.40
436.90	5940.28
437.09	6090.07
437.28	6043.26
437.46	5998.79
437.65	6064.33
437.84	6401.37
438.02	6312.42
438.21	6150.93
438.40	6237.53
438.58	6389.66
438.77	6565.20
438.96	6436.47
439.14	6595.63
439.33	6689.25
439.52	6572.22
439.70	6738.40
439.89	6778.19
440.08	6899.90
440.26	6888.20
440.45	6988.84
440.63	6736.06
440.82	6993.52
441.01	6937.35
441.19	7103.53
441.38	7077.78
441.57	7229.91
441.75	7246.30
441.94	7208.85
442.12	7382.05
442.31	7592.70
442.50	7545.89
442.68	7283.75
442.87	7445.24
443.05	7545.89
443.24	7705.04
443.43	7691.00
443.61	7658.23
443.80	7845.48
443.98	7351.62
444.17	7489.71
444.35	7751.85
444.54	7630.15
444.73	7630.15
444.91	7714.41
445.10	7606.74
445.28	7976.55
445.47	7618.44
445.65	7847.82
445.84	7899.31
446.02	7770.58
446.21	7784.62
446.39	7845.48
446.58	7913.35
446.77	7782.28
446.95	7775.26
447.14	7913.35
447.32	8124.00
447.51	7723.77
447.69	7751.85
447.88	7812.71
448.06	7758.88
448.25	7646.53
448.43	7899.31
448.62	7854.84
448.80	8046.76
448.99	8021.02
449.17	7995.27
449.36	7990.59
449.54	8222.30
449.73	8238.69
449.91	8351.03
450.10	8215.28
450.28	8280.82
450.46	8329.97
450.65	8180.17
450.83	8327.63
451.02	8351.03
451.20	8407.20
451.39	8542.96
451.57	8414.23
451.76	8308.90
451.94	8580.40
452.13	8613.17
452.31	8636.58
452.49	8582.74
452.68	8636.58
452.86	8760.63
453.05	8767.65
453.23	8835.52
453.42	8594.45
453.60	8753.60
453.78	8762.97
453.97	8552.32
454.15	8821.48
454.34	8805.10
454.52	9039.15
454.70	9015.74
454.89	9050.85
455.07	8952.55
455.26	9109.36
455.44	9039.15
455.62	9067.24
455.81	9139.79
455.99	9406.61
456.17	9280.22
456.36	9348.10
456.54	9476.83
456.73	9619.60
456.91	9745.99
457.09	9570.45
457.28	9916.85
457.46	9589.17
457.64	9671.09
457.83	9561.09
458.01	9530.66
458.19	9834.93
458.38	9834.93
458.56	10129.84
458.74	10033.88
458.93	9685.14
459.11	9785.78
459.29	10200.05
459.48	9778.76
459.66	10258.57
459.84	10183.67
460.03	10216.44
460.21	10221.12
460.39	10033.88
460.57	9987.07
460.76	10122.82
460.94	10504.32
461.12	10209.42
461.31	10532.41
461.49	10242.18
461.67	10375.59
461.85	10471.56
462.04	10396.66
462.22	11110.52
462.40	10663.48
462.59	10270.27
462.77	10490.28
462.95	10731.36
463.13	10850.72
463.32	10789.87
463.50	10619.01
463.68	10829.66
463.86	10773.49
464.05	10895.19
464.23	10721.99
464.41	10916.26
464.59	10640.08
464.78	10979.45
464.96	10888.17
465.14	11028.60
465.32	11225.21
465.50	11192.44
465.69	11286.06
465.87	11211.17
466.05	11180.74
466.23	10944.34
466.41	11330.53
466.60	11536.50
466.78	11379.68
466.96	11110.52
467.14	11194.78
467.32	11398.41
467.51	11595.01
467.69	11197.12
467.87	11751.83
468.05	11695.66
468.23	11433.52
468.41	11466.28
468.60	11641.82
468.78	11597.35
468.96	11389.05
469.14	11983.54
469.32	11831.41
469.50	11592.67
469.69	11847.79
469.87	11948.43
470.05	12051.42
470.23	12025.67
470.41	12006.95
470.59	12098.23
470.77	11831.41
470.95	12142.70
471.14	12409.52
471.32	12175.47
471.50	12823.80
471.68	12559.31
471.86	12243.34
472.04	12615.49
472.22	12912.74
472.40	12575.70
472.58	12982.95
472.77	12746.56
472.95	12964.23
473.13	13151.47
473.31	13095.30
473.49	13015.72
473.67	13104.66
473.85	12999.34
474.03	13366.80
474.21	13217.01
474.39	13422.97
474.57	13745.97
474.75	13532.98
474.93	13654.69
475.12	13928.53
475.30	13977.68
475.48	13832.57
475.66	13987.04
475.84	13984.70
476.02	14272.59
476.20	14090.02
476.38	14307.69
476.56	14700.90
476.74	14324.08
476.92	14665.80
477.10	14534.73
477.28	14881.13
477.46	14682.18
477.64	14906.87
477.82	15281.36
478.00	15405.41
478.18	15276.68
478.36	15721.38
478.54	15747.12
478.72	15805.64
478.90	15782.23
479.08	15903.94
479.26	16079.48
479.44	15990.54
479.62	16453.97
479.80	16468.01
479.98	16615.46
480.16	17050.80
480.34	16711.42
480.52	17099.95
480.70	17149.11
480.88	17067.19
481.06	17411.25
481.24	17118.68
481.41	17654.66
481.59	17729.56
481.77	17923.82
481.95	17972.97
482.13	18317.03
482.31	18075.96
482.49	18621.30
482.67	18422.36
482.85	18916.21
483.03	18993.45
483.21	19108.13
483.39	19344.53
483.57	19096.43
483.74	19129.20
483.92	19445.17
484.10	19583.26
484.28	19927.32
484.46	20088.82
484.64	20397.77
484.82	20493.73
485.00	20372.02
485.18	20858.85
485.35	21160.78
485.53	21177.17
485.71	21687.40
485.89	21546.97
486.07	21465.05
486.25	21380.79
486.43	21455.69
486.61	21617.19
486.78	22204.66
486.96	22223.39
487.14	22721.92
487.32	22537.02
487.50	22918.53
487.68	22932.57
487.85	23042.57
488.03	23321.10
488.21	23438.12
488.39	23627.71
488.57	24067.73
488.75	23922.62
488.92	24393.06
489.10	24341.57
489.28	24552.22
489.46	24753.51
489.64	24844.79
489.81	25198.21
489.99	25099.90
490.17	25282.47
490.35	25816.11
490.53	25490.77
490.70	26455.08
490.88	26001.01
491.06	26401.24
491.24	26391.88
491.41	26185.91
491.59	26829.56
491.77	26761.69
491.95	27211.07
492.13	27407.67
492.30	27646.41
492.48	27630.02
492.66	27435.76
492.84	27784.50
493.01	28088.77
493.19	28210.48
493.37	28556.88
493.54	28879.87
493.72	28819.02
493.90	28704.33
494.08	28954.77
494.25	29539.90
494.43	29420.53
494.61	29778.64
494.79	29998.65
494.96	29563.31
495.14	29886.30
495.32	30391.86
495.49	30347.39
495.67	30558.03
495.85	31065.93
496.02	31290.62
496.20	31131.47
496.38	31482.55
496.55	31007.42
496.73	32079.38
496.91	31723.62
497.09	31821.92
497.26	32177.68
497.44	32027.89
497.62	32360.25
497.79	32680.90
497.97	32449.19
498.14	32706.65
498.32	33064.75
498.50	32954.74
498.67	33488.38
498.85	33198.16
499.03	33528.17
499.20	33408.81
499.38	33914.36
499.56	33675.63
499.73	34471.41
499.91	34239.70
500.08	34565.03
500.26	34012.66
500.44	34455.03
500.61	34242.04
500.79	34689.08
500.97	34862.28
501.14	35416.99
501.32	34890.37
501.49	35115.06
501.67	35381.88
501.84	35276.55
502.02	34909.09
502.20	36006.80
502.37	35899.14
502.55	35529.33
502.72	36313.41
502.90	36264.26
503.07	35550.40
503.25	36191.70
503.43	36219.79
503.60	36779.18
503.78	36774.50
503.95	36830.67
504.13	37010.89
504.30	36531.08
504.48	37385.38
504.65	37034.30
504.83	37820.72
505.01	37993.92
505.18	37975.19
505.36	37586.66
505.53	37504.74
505.71	37600.71
505.88	37703.69
506.06	37862.85
506.23	38607.14
506.41	38515.86
506.58	38499.47
506.76	38515.86
506.93	39005.03
507.11	38712.46
507.28	38892.68
507.46	38890.34
507.63	39255.46
507.81	39716.55
507.98	39353.77
508.16	39517.60
508.33	39573.78
508.50	39377.17
508.68	39880.39
508.85	39964.65
509.03	40168.27
509.20	40318.07
509.38	40140.19
509.55	40650.42
509.73	40889.16
509.90	40121.46
510.08	40776.81
510.25	40989.80
510.42	41247.26
510.60	41127.89
510.77	41207.47
510.95	41689.62
511.12	41165.34
511.30	41001.50
511.47	41181.73
511.64	41755.16
511.82	42160.07
511.99	41790.27
512.17	42244.33
512.34	42171.77
512.51	42078.15
512.69	42710.10
512.86	42206.88
513.04	42862.23
513.21	42838.83
513.38	42895.00
513.56	42955.85
513.73	42270.08
513.90	42799.04
514.08	42682.01
514.25	42958.19
514.43	43248.42
514.60	43449.70
514.77	43744.61
514.95	43622.90
515.12	43775.04
515.29	43819.51
515.47	43751.63
515.64	43973.98
515.81	43646.31
515.99	44257.19
516.16	44722.96
516.33	44521.67
516.51	44793.17
516.68	44009.09
516.85	44615.29
517.03	44957.01
517.20	44439.75
517.37	44978.07
517.54	45006.16
517.72	45132.55
517.89	44699.55
518.06	45186.38
518.24	45303.41
518.41	45020.20
518.58	45280.00
518.75	45628.74
518.93	45993.87
519.10	45783.22
519.27	45743.43
519.45	45425.12
519.62	45954.08
519.79	45776.20
519.96	45895.56
520.14	45961.10
520.31	46230.26
520.48	46230.26
520.65	46349.63
520.83	46752.20
521.00	46492.40
521.17	46408.14
521.34	46777.95
521.52	46869.23
521.69	46803.69
521.86	46738.16
522.03	47107.96
522.20	47239.03
522.38	47246.05
522.55	47058.81
522.72	47573.73
522.89	47295.21
523.07	48144.82
523.24	47894.38
523.41	47751.61
523.58	47428.62
523.75	48128.44
523.92	47751.61
524.10	47854.59
524.27	48086.31
524.44	48526.33
524.61	48697.19
524.78	48378.87
524.96	48217.38
525.13	48641.01
525.30	48259.51
525.47	48477.18
525.64	48598.88
525.81	48685.48
525.98	48952.30
526.16	48973.37
526.33	48774.42
526.50	49052.95
526.67	48741.66
526.84	49247.21
527.01	48996.77
527.18	49413.39
527.36	49504.67
527.53	49509.35
527.70	49602.97
527.87	49890.86
528.04	49703.62
528.21	49382.96
528.38	49553.82
528.55	49951.71
528.72	49485.95
528.89	49827.66
529.07	49691.91
529.24	49911.92
529.41	49972.78
529.58	49787.88
529.75	49785.54
529.92	49635.74
530.09	49750.43
530.26	50335.56
530.43	50398.76
530.60	50333.22
530.77	50078.10
530.94	50541.53
531.11	50602.38
531.28	50518.12
531.46	50375.35
531.63	50663.24
531.80	50728.77
531.97	50958.14
532.14	50841.12
532.31	50508.76
532.48	50880.91
532.65	51026.02
532.82	50862.18
532.99	51023.68
533.16	51023.68
533.33	51168.79
533.50	51468.38
533.67	51196.88
533.84	51302.20
534.01	51309.22
534.18	50951.12
534.35	51636.90
534.52	51147.73
534.69	51732.86
534.86	51482.42
535.03	51274.12
535.20	51667.33
535.37	51566.68
535.54	51702.43
535.71	51199.22
535.88	51714.14
536.05	51697.75
536.22	52200.97
536.38	52055.85
536.55	52261.82
536.72	52048.83
536.89	51936.49
537.06	51995.00
537.23	51948.19
537.40	52032.45
537.57	51877.97
537.74	51976.28
537.91	52428.00
538.08	52224.37
538.25	51929.47
538.42	52519.28
538.59	52418.64
538.75	52123.73
538.92	52650.35
539.09	52685.46
539.26	52577.79
539.43	52266.50
539.60	52575.45
539.77	52385.87
539.94	52872.70
540.11	52402.25
540.28	52856.32
540.44	52708.86
540.61	52669.08
540.78	52933.56
540.95	52992.07
541.12	52942.92
541.29	52830.57
541.46	53078.67
541.62	52816.53
541.79	52849.30
541.96	52619.92
542.13	52861.00
542.30	52994.41
542.47	53404.00
542.63	53352.51
542.80	53284.64
542.97	53514.01
543.14	53612.31
543.31	53455.50
543.48	53359.53
543.64	53766.79
543.81	53731.68
543.98	53734.02
544.15	54096.80
544.32	53900.20
544.48	54017.22
544.65	53633.38
544.82	53935.30
544.99	53453.15
545.16	53483.58
545.32	53888.49
545.49	54169.36
545.66	54335.54
545.83	54305.11
546.00	54251.28
546.16	53900.20
546.33	54108.50
546.50	53787.85
546.67	53792.53
546.83	53886.15
547.00	54033.61
547.17	54211.49
547.34	54183.40
547.50	54487.67
547.67	54351.92
547.84	54265.32
548.00	54209.15
548.17	54635.13
548.34	54255.96
548.51	54721.72
548.67	54604.70
548.84	54321.49
549.01	54499.37
549.18	54506.40
549.34	54188.08
549.51	54836.41
549.68	54719.38
549.84	54504.06
550.01	54740.45
550.18	54546.18
550.34	54646.83
550.51	54901.95
550.68	54911.31
550.84	54820.03
551.01	54770.88
551.18	54824.71
551.34	54674.91
551.51	54843.43
551.68	55061.10
551.84	55140.68
552.01	54855.14
552.18	55096.21
552.34	54756.83
552.51	55084.51
552.68	55103.23
552.84	55224.94
553.01	55442.61
553.18	54962.80
553.34	55435.59
553.51	54908.97
553.67	55241.32
553.84	55407.50
554.01	55573.68
554.17	55363.03
554.34	55517.51
554.51	55217.92
554.67	55407.50
554.84	55086.85
555.00	55374.73
555.17	55487.08
555.33	55356.01
555.50	55126.64
555.67	55283.45
555.83	55447.29
556.00	55325.58
556.16	55482.40
556.33	55437.93
556.50	55540.91
556.66	55718.79
556.83	55674.32
556.99	55756.24
557.16	56011.36
557.32	55945.83
557.49	55955.19
557.65	55515.17
557.82	55662.62
557.98	55810.07
558.15	55791.35
558.32	55849.86
558.48	55826.46
558.65	55849.86
558.81	55882.63
558.98	56229.03
559.14	55884.97
559.31	55627.51
559.47	55938.80
559.64	55800.71
559.80	55901.36
559.97	56266.48
560.13	55767.94
560.30	55971.57
560.46	56006.68
560.63	55861.57
560.79	55941.14
560.96	56002.00
561.12	56032.42
561.29	55999.66
561.45	55877.95
561.61	55948.17
561.78	56147.11
561.94	56079.24
562.11	56135.41
562.27	56095.62
562.44	56051.15
562.60	56179.88
562.77	56200.94
562.93	55903.70
563.10	56133.07
563.26	56179.88
563.42	56605.86
563.59	56217.33
563.75	56465.42
563.92	56198.60
564.08	56163.50
564.24	56086.26
564.41	56207.97
564.57	56229.03
564.74	56140.09
564.90	56317.97
565.07	56418.61
565.23	56430.32
565.39	56280.52
565.56	56549.68
565.72	56240.73
565.88	56177.54
566.05	56292.22
566.21	56128.39
566.38	56299.25
566.54	56219.67
566.70	56514.58
566.87	56542.66
567.03	56306.27
567.19	56535.64
567.36	56687.78
567.52	56317.97
567.68	56435.00
567.85	56420.95
568.01	56112.00
568.17	56430.32
568.34	56729.90
568.50	56561.39
568.66	56420.95
568.83	56655.01
568.99	56287.54
569.15	56629.26
569.32	56376.48
569.48	56406.91
569.64	56432.66
569.81	56360.10
569.97	56570.75
570.13	56640.96
570.30	56542.66
570.46	56542.66
570.62	56493.51
570.78	56545.00
570.95	56446.70
571.11	56676.07
571.27	56341.38
571.43	56502.87
571.60	56420.95
571.76	56360.10
571.92	56552.02
572.09	56549.68
572.25	56647.99
572.41	56655.01
572.57	56640.96
572.74	56750.97
572.90	56505.21
573.06	56587.13
573.22	56680.75
573.38	56566.07
573.55	56332.01
573.71	56886.72
573.87	57055.24
574.03	56676.07
574.20	56842.25
574.36	56589.47
574.52	56678.41
574.68	56729.90
574.84	56444.36
575.01	56966.30
575.17	56821.19
575.33	56570.75
575.49	56629.26
575.65	56933.53
575.82	56912.47
575.98	56790.76
576.14	56722.88
576.30	56830.55
576.46	56374.14
576.62	56364.78
576.79	56591.81
576.95	56360.10
577.11	56673.73
577.27	56671.39
577.43	56526.28
577.59	56612.88
577.75	56736.93
577.92	56573.09
578.08	56673.73
578.24	56580.11
578.40	56790.76
578.56	56811.82
578.72	56753.31
578.88	56727.56
579.04	56931.19
579.21	56598.83
579.37	56732.25
579.53	56800.12
579.69	56224.35
579.85	56715.86
580.01	56563.73
580.17	56479.47
580.33	56638.62
580.49	56779.06
580.65	56921.83
580.82	56893.74
580.98	56790.76
581.14	56875.02
581.30	56793.10
581.46	56708.84
581.62	56753.31
581.78	56423.29
581.94	56647.99
582.10	56699.48
582.26	56699.48
582.42	56793.10
582.58	56783.74
582.74	56781.40
582.90	56940.55
583.06	57034.17
583.22	56708.84
583.38	56875.02
583.54	56470.11
583.70	56821.19
583.86	56636.28
584.02	56460.74
584.18	56853.95
584.34	56868.00
584.50	57045.88
584.66	56963.96
584.82	56879.70
584.98	56767.35
585.14	56582.45
585.30	56608.20
585.46	56701.82
585.62	56584.79
585.78	56837.57
585.94	56708.84
586.10	56970.98
586.26	56865.66
586.42	57003.75
586.58	56842.25
586.74	56872.68
586.90	56706.50
587.06	56659.69
587.22	56952.26
587.38	56505.21
587.54	57078.64
587.70	56860.97
587.86	56816.50
588.02	56924.17
588.18	57024.81
588.34	57118.43
588.49	56816.50
588.65	56612.88
588.81	56828.21
588.97	57069.28
589.13	56931.19
589.29	56774.37
589.45	56828.21
589.61	56828.21
