SpectraSuite Data File
++++++++++++++++++++++++++++++++++++
Date: Fri Oct 18 13:55:16 GMT-05:00 2013
User: bianchi
Dark Spectrum Present: No
Reference Spectrum Present: No
Number of Sampled Component Spectra: 1
Spectrometers: USB2+H05261
Integration Time (usec): 100000 (USB2+H05261)
Spectra Averaged: 1 (USB2+H05261)
Boxcar Smoothing: 0 (USB2+H05261)
Correct for Electrical Dark: No (USB2+H05261)
Strobe/Lamp Enabled: No (USB2+H05261)
Correct for Detector Non-linearity: No (USB2+H05261)
Correct for Stray Light: No (USB2+H05261)
Number of Pixels in Processed Spectrum: 2048
>>>>>Begin Processed Spectral Data<<<<<
365.73	0.00
365.92	0.00
366.12	0.00
366.32	0.00
366.52	0.00
366.72	0.00
366.91	0.00
367.11	0.00
367.31	0.00
367.51	0.00
367.70	0.00
367.90	0.00
368.10	0.00
368.30	0.00
368.49	0.00
368.69	0.00
368.89	0.00
369.09	0.00
369.28	0.00
369.48	0.00
369.68	0.00
369.87	0.00
370.07	0.00
370.27	0.00
370.47	0.00
370.66	212.99
370.86	315.97
371.06	327.68
371.25	397.89
371.45	297.25
371.65	369.80
371.84	330.02
372.04	287.89
372.24	400.23
372.44	374.49
372.63	372.15
372.83	428.32
373.03	388.53
373.22	437.68
373.42	388.53
373.62	472.79
373.81	425.98
374.01	472.79
374.21	507.90
374.40	482.15
374.60	582.79
374.79	561.73
374.99	491.51
375.19	535.98
375.38	543.00
375.58	554.71
375.78	505.56
375.97	533.64
376.17	557.05
376.37	503.22
376.56	533.64
376.76	477.47
376.95	489.17
377.15	503.22
377.35	540.66
377.54	540.66
377.74	566.41
377.93	496.19
378.13	575.77
378.33	571.09
378.52	540.66
378.72	580.45
378.91	545.34
379.11	571.09
379.31	613.22
379.50	526.62
379.70	575.77
379.89	636.63
380.09	622.58
380.28	580.45
380.48	566.41
380.68	610.88
380.87	653.01
381.07	596.84
381.26	615.56
381.46	629.60
381.65	676.41
381.85	737.27
382.04	765.36
382.24	667.05
382.43	655.35
382.63	744.29
382.83	725.57
383.02	791.10
383.22	723.23
383.41	767.70
383.61	688.12
383.80	730.25
384.00	819.19
384.19	821.53
384.39	788.76
384.58	784.08
384.78	777.06
384.97	727.91
385.17	737.27
385.36	737.27
385.56	835.57
385.75	774.72
385.95	812.17
386.14	856.64
386.34	784.08
386.53	798.12
386.72	833.23
386.92	882.38
387.11	901.11
387.31	748.97
387.50	788.76
387.70	788.76
387.89	805.14
388.09	826.21
388.28	847.27
388.48	861.32
388.67	931.53
388.86	788.76
389.06	1008.77
389.25	912.81
389.45	954.94
389.64	945.58
389.84	922.17
390.03	1100.05
390.22	980.68
390.42	992.39
390.61	924.51
390.81	1039.20
391.00	1039.20
391.19	1064.94
391.39	1064.94
391.58	952.60
391.78	1025.15
391.97	1125.80
392.16	1053.24
392.36	1137.50
392.55	1064.94
392.75	1076.65
392.94	1116.44
393.13	1111.75
393.33	1151.54
393.52	1062.60
393.71	1217.08
393.91	1137.50
394.10	1130.48
394.29	1205.38
394.49	1210.06
394.68	1231.12
394.88	1191.33
395.07	1242.82
395.26	1287.29
395.46	1181.97
395.65	1364.53
395.84	1310.70
396.04	1355.17
396.23	1299.00
396.42	1299.00
396.62	1256.87
396.81	1357.51
397.00	1336.45
397.19	1235.80
397.39	1268.57
397.58	1357.51
397.77	1366.87
397.97	1397.30
398.16	1413.68
398.35	1479.22
398.55	1469.86
398.74	1373.89
398.93	1481.56
399.12	1427.73
399.32	1495.60
399.51	1530.71
399.70	1519.01
399.90	1511.99
400.09	1490.92
400.28	1526.03
400.47	1556.46
400.67	1659.44
400.86	1565.82
401.05	1593.90
401.24	1633.69
401.44	1650.08
401.63	1710.93
401.82	1610.29
402.01	1673.48
402.21	1781.15
402.40	1680.50
402.59	1689.87
402.78	1778.81
402.97	1842.00
403.17	1827.96
403.36	1757.74
403.55	1867.75
403.74	1886.47
403.93	1921.58
404.13	1858.39
404.32	1900.52
404.51	1813.92
404.70	1879.45
404.89	1884.13
405.09	1966.05
405.28	2043.29
405.47	2083.08
405.66	1982.43
405.85	2019.88
406.05	1987.11
406.24	2092.44
406.43	2024.56
406.62	2214.15
406.81	2165.00
407.00	2169.68
407.20	2104.14
407.39	2064.35
407.58	2132.23
407.77	2200.10
407.96	2314.79
408.15	2277.34
408.34	2347.56
408.54	2368.62
408.73	2293.72
408.92	2338.20
409.11	2466.92
409.30	2370.96
409.49	2492.67
409.68	2462.24
409.87	2331.17
410.07	2511.39
410.26	2495.01
410.45	2567.57
410.64	2462.24
410.83	2635.44
411.02	2586.29
411.21	2780.56
411.40	2558.21
411.59	2670.55
411.78	2600.34
411.98	2677.57
412.17	2700.98
412.36	2813.32
412.55	2778.22
412.74	2829.71
412.93	2895.24
413.12	2890.56
413.31	3042.70
413.50	2939.71
413.69	2939.71
413.88	3089.51
414.07	3141.00
414.26	3124.62
414.45	3211.22
414.64	3159.72
414.83	3112.91
415.02	3201.85
415.22	3342.28
415.41	3391.44
415.60	3328.24
415.79	3307.18
415.98	3559.95
416.17	3410.16
416.36	3700.39
416.55	3398.46
416.74	3463.99
416.93	3534.21
417.12	3576.34
417.31	3655.92
417.50	3681.66
417.69	3880.61
417.88	3801.03
418.07	3754.22
418.26	3777.62
418.45	3831.46
418.64	3920.40
418.83	3866.56
419.02	3810.39
419.21	3962.53
419.39	3962.53
419.58	3981.25
419.77	3999.98
419.96	3985.93
420.15	4229.35
420.34	4184.88
420.53	4067.85
420.72	4229.35
420.91	4208.28
421.10	4121.68
421.29	4229.35
421.48	3990.61
421.67	4355.74
421.86	4245.73
422.05	4360.42
422.24	4271.48
422.43	4344.03
422.61	4418.93
422.80	4381.48
422.99	4428.29
423.18	4390.84
423.37	4484.47
423.56	4341.69
423.75	4463.40
423.94	4271.48
424.13	4023.38
424.32	4229.35
424.50	4671.71
424.69	4585.11
424.88	4442.34
425.07	4416.59
425.26	4423.61
425.45	4421.27
425.64	4531.28
425.83	4496.17
426.01	4538.30
426.20	4432.97
426.39	4528.94
426.58	4559.36
426.77	4793.42
426.96	4711.50
427.15	4610.86
427.33	4643.62
427.52	4683.41
427.71	4718.52
427.90	4765.33
428.09	4774.69
428.28	4699.80
428.46	4821.50
428.65	4943.21
428.84	4842.57
429.03	4971.30
429.22	4917.47
429.40	4905.76
429.59	5020.45
429.78	4922.15
429.97	4615.54
430.16	4648.30
430.34	5114.07
430.53	5132.79
430.72	5118.75
430.91	5093.01
431.10	4992.36
431.28	5128.11
431.47	5214.71
431.66	5135.14
431.85	5266.21
432.03	5404.30
432.22	5497.92
432.41	5327.06
432.60	5584.52
432.79	5242.80
432.97	5245.14
433.16	5373.87
433.35	5331.74
433.54	5453.45
433.72	5486.22
433.91	5383.23
434.10	5535.37
434.28	5455.79
434.47	5533.03
434.66	5720.27
434.85	5694.52
435.03	5720.27
435.22	5678.14
435.41	5870.06
435.59	5921.56
435.78	5853.68
435.97	5748.36
436.16	5954.32
436.34	5813.89
436.53	5856.02
436.72	6061.99
436.90	5764.74
437.09	6015.18
437.28	5858.36
437.46	5776.44
437.65	6061.99
437.84	6155.61
438.02	5970.71
438.21	6171.99
438.40	6200.08
438.58	6389.66
438.77	6338.17
438.96	6317.11
439.14	6537.12
439.33	6588.61
439.52	6523.07
439.70	6628.40
439.89	6806.28
440.08	6637.76
440.26	6586.27
440.45	6771.17
440.63	6794.58
440.82	6759.47
441.01	6801.60
441.19	7037.99
441.38	6956.07
441.57	7040.33
441.75	7148.00
441.94	7384.39
442.12	7157.36
442.31	7148.00
442.50	7288.43
442.68	7194.81
442.87	7314.17
443.05	7468.65
443.24	7431.20
443.43	7321.20
443.61	7494.40
443.80	7695.68
443.98	7279.07
444.17	7250.98
444.35	7564.61
444.54	7482.69
444.73	7578.65
444.91	7382.05
445.10	7489.71
445.28	7552.91
445.47	7744.83
445.65	7604.40
445.84	7566.95
446.02	7777.60
446.21	7424.18
446.39	7482.69
446.58	7674.62
446.77	7740.15
446.95	7508.44
447.14	7765.90
447.32	7662.91
447.51	7588.02
447.69	7674.62
447.88	7798.66
448.06	7688.66
448.25	7655.89
448.43	7597.38
448.62	7630.15
448.80	7688.66
448.99	7733.13
449.17	8051.44
449.36	7901.65
449.54	7920.37
449.73	7969.52
449.91	8138.04
450.10	7925.05
450.28	8248.05
450.46	8063.15
450.65	8231.66
450.83	8327.63
451.02	8058.46
451.20	8306.56
451.39	8353.37
451.57	8299.54
451.76	8245.71
451.94	8418.91
452.13	8503.17
452.31	8575.72
452.49	8360.39
452.68	8470.40
452.86	8477.42
453.05	8564.02
453.23	8601.47
453.42	8423.59
453.60	8580.40
453.78	8437.63
453.97	8578.06
454.15	8571.04
454.34	8777.01
454.52	8964.25
454.70	8713.81
454.89	8884.67
455.07	8861.27
455.26	8957.23
455.44	8938.51
455.62	8952.55
455.81	8943.19
455.99	9104.68
456.17	9092.98
456.36	9057.87
456.54	9390.23
456.73	9357.46
456.91	9418.32
457.09	9535.34
457.28	9724.93
457.46	9217.03
457.64	9472.15
457.83	9474.49
458.01	9224.05
458.19	9533.00
458.38	9493.21
458.56	9818.55
458.74	9582.15
458.93	9687.48
459.11	9757.69
459.29	9874.72
459.48	9804.50
459.66	9778.76
459.84	9813.87
460.03	10071.33
460.21	9905.15
460.39	9956.64
460.57	9825.57
460.76	10076.01
460.94	10188.35
461.12	10054.94
461.31	10045.58
461.49	10300.70
461.67	10125.16
461.85	10375.59
462.04	10256.23
462.22	10359.21
462.40	10391.98
462.59	10448.15
462.77	10401.34
462.95	10450.49
463.13	10525.39
463.32	10436.45
463.50	10565.18
463.68	10455.17
463.86	10546.45
464.05	10499.64
464.23	10574.54
464.41	10714.97
464.59	10375.59
464.78	11061.37
464.96	10726.68
465.14	10441.13
465.32	10787.53
465.50	10965.41
465.69	10953.71
465.87	10977.11
466.05	10918.60
466.23	10864.77
466.41	11117.54
466.60	11396.07
466.78	11094.14
466.96	11028.60
467.14	10923.28
467.32	11070.73
467.51	11119.89
467.69	11063.71
467.87	11087.12
468.05	11428.84
468.23	11176.06
468.41	11255.64
468.60	11272.02
468.78	11822.05
468.96	11410.11
469.14	11496.71
469.32	11625.44
469.50	11150.31
469.69	11730.76
469.87	11681.61
470.05	11836.09
470.23	11873.54
470.41	11789.28
470.59	11920.35
470.77	11723.74
470.95	11957.80
471.14	12121.63
471.32	12044.40
471.50	12437.61
471.68	12154.40
471.86	12102.91
472.04	12379.09
472.22	12723.15
472.40	12372.07
472.58	12762.94
472.77	12491.44
472.95	12636.55
473.13	13294.24
473.31	12477.40
473.49	12884.65
473.67	12772.30
473.85	12765.28
474.03	13191.26
474.21	13004.02
474.39	13322.33
474.57	13373.82
474.75	13493.19
474.93	13467.44
475.12	13542.34
475.30	13640.64
475.48	13610.22
475.66	13724.90
475.84	13776.39
476.02	13741.29
476.20	13631.28
476.38	13935.55
476.56	14251.52
476.74	14295.99
476.92	14366.21
477.10	14424.72
477.28	14616.65
477.46	14551.11
477.64	14628.35
477.82	14878.79
478.00	14984.11
478.18	15197.10
478.36	15431.15
478.54	15393.70
478.72	15489.67
478.90	15576.27
479.08	15829.04
479.26	16011.60
479.44	16023.31
479.62	16315.87
479.80	15971.82
479.98	16123.95
480.16	16517.16
480.34	16081.82
480.52	16884.62
480.70	16783.98
480.88	16603.76
481.06	16840.15
481.24	17025.06
481.41	17092.93
481.59	17551.68
481.77	17462.74
481.95	17727.22
482.13	17642.96
482.31	17668.70
482.49	18092.34
482.67	17893.40
482.85	18235.11
483.03	18523.00
483.21	18728.97
483.39	18895.14
483.57	18988.77
483.74	18735.99
483.92	19152.60
484.10	19028.56
484.28	19386.66
484.46	19859.45
484.64	20072.43
484.82	19585.60
485.00	20037.33
485.18	20505.43
485.35	20650.55
485.53	20816.72
485.71	20699.70
485.89	21069.50
486.07	21128.02
486.25	20959.50
486.43	21628.89
486.61	21619.53
486.78	21633.57
486.96	21804.43
487.14	21858.26
487.32	22258.49
487.50	22377.86
487.68	22237.43
487.85	22611.92
488.03	23152.58
488.21	23290.67
488.39	23241.52
488.57	23531.75
488.75	23529.41
488.92	23866.44
489.10	23690.90
489.28	23999.85
489.46	24208.16
489.64	24313.48
489.81	24645.84
489.99	24680.95
490.17	25102.25
490.35	25549.29
490.53	25113.95
490.70	25530.56
490.88	25184.16
491.06	25947.18
491.24	25853.56
491.41	26068.89
491.59	26019.74
491.77	26127.40
491.95	26443.37
492.13	26953.61
492.30	26572.10
492.48	26969.99
492.66	27065.96
492.84	27393.63
493.01	27330.44
493.19	27843.01
493.37	27625.34
493.54	27768.12
493.72	28034.94
493.90	28163.67
494.08	28706.67
494.25	28573.26
494.43	29064.77
494.61	29029.66
494.79	29282.44
494.96	28987.53
495.14	29352.66
495.32	29750.55
495.49	29397.13
495.67	30036.09
495.85	29731.83
496.02	30183.55
496.20	30115.67
496.38	30195.25
496.55	30684.42
496.73	31304.67
496.91	30733.57
497.09	31220.41
497.26	31419.35
497.44	31428.71
497.62	31508.29
497.79	31943.63
497.97	31735.32
498.14	31814.90
498.32	32381.31
498.50	31941.29
498.67	33015.60
498.85	32388.33
499.03	32823.67
499.20	32776.86
499.38	33163.05
499.56	33228.59
499.73	33352.63
499.91	33727.12
500.08	33689.67
500.26	32910.27
500.44	33757.55
500.61	33769.25
500.79	33893.30
500.97	33923.72
501.14	34604.82
501.32	34209.27
501.49	34895.05
501.67	34225.65
501.84	34518.22
502.02	34398.85
502.20	35138.46
502.37	35449.75
502.55	34719.51
502.72	34991.01
502.90	35398.26
503.07	35421.67
503.25	35700.19
503.43	35386.56
503.60	36217.45
503.78	36055.95
503.95	35864.03
504.13	36397.67
504.30	36306.39
504.48	36147.23
504.65	36680.88
504.83	36772.16
505.01	36201.07
505.18	36870.46
505.36	37308.14
505.53	37088.13
505.71	37027.28
505.88	37027.28
506.06	37219.20
506.23	37638.15
506.41	37422.83
506.58	37799.65
506.76	37691.99
506.93	37750.50
507.11	37677.94
507.28	37965.83
507.46	38345.00
507.63	38623.52
507.81	38815.44
507.98	38391.81
508.16	38328.61
508.33	38976.94
508.50	38380.10
508.68	39014.39
508.85	39175.89
509.03	39112.69
509.20	39117.37
509.38	39772.72
509.55	39316.32
509.73	39653.36
509.90	39421.64
510.08	39763.36
510.25	39662.72
510.42	39952.94
510.60	40219.77
510.77	40151.89
510.95	40818.94
511.12	40041.88
511.30	40327.43
511.47	40865.75
511.64	40842.35
511.82	41308.11
511.99	40851.71
512.17	40975.76
512.34	40830.65
512.51	41134.92
512.69	41167.68
512.86	41390.03
513.04	41907.29
513.21	42003.25
513.38	41886.23
513.56	42007.94
513.73	41825.37
513.90	41855.80
514.08	41837.08
514.25	41989.21
514.43	41804.31
514.60	42483.06
514.77	42731.16
514.95	42873.93
515.12	42705.41
515.29	42595.41
515.47	42508.81
515.64	43077.56
515.81	43030.75
515.99	43519.92
516.16	43964.62
516.33	43833.55
516.51	43915.47
516.68	43807.81
516.85	43398.21
517.03	43480.13
517.20	43611.20
517.37	44315.70
517.54	44184.63
517.72	43758.66
517.89	44109.74
518.06	43924.83
518.24	44275.91
518.41	44463.16
518.58	44163.57
518.75	44432.73
518.93	44856.37
519.10	44580.18
519.27	45139.57
519.45	44907.86
519.62	44802.53
519.79	45174.68
519.96	44603.59
520.14	45397.03
520.31	44982.76
520.48	45298.73
520.65	45399.37
520.83	45308.09
521.00	45675.55
521.17	45649.81
521.34	45773.86
521.52	45595.98
521.69	45621.72
521.86	46492.40
522.03	46061.74
522.20	46464.32
522.38	46087.49
522.55	46195.15
522.72	46176.43
522.89	46454.95
523.07	47012.00
523.24	46588.36
523.41	46979.23
523.58	46639.86
523.75	47246.05
523.92	46866.89
524.10	46969.87
524.27	47370.10
524.44	47356.06
524.61	47433.30
524.78	47379.46
524.96	47765.65
525.13	47805.44
525.30	47580.75
525.47	47594.79
525.64	47646.29
525.81	47885.02
525.98	48037.16
526.16	48238.44
526.33	48011.41
526.50	47983.32
526.67	47814.80
526.84	47840.55
527.01	48142.48
527.18	48236.10
527.36	48182.27
527.53	48523.99
527.70	48542.71
527.87	49064.65
528.04	48561.44
528.21	48645.69
528.38	48751.02
528.55	48928.90
528.72	48896.13
528.89	49092.74
529.07	48907.83
529.24	48437.39
529.41	49090.40
529.58	48938.26
529.75	48842.30
529.92	49406.37
530.09	49034.22
530.26	49392.33
530.43	49633.40
530.60	49427.43
530.77	49083.37
530.94	49656.81
531.11	49364.24
531.28	49233.17
531.46	49647.44
531.63	49710.64
531.80	49738.72
531.97	49661.49
532.14	49881.50
532.31	49970.44
532.48	50064.06
532.65	50068.74
532.82	49949.37
532.99	50047.68
533.16	50021.93
533.33	50195.13
533.50	50424.50
533.67	50773.24
533.84	50272.37
534.01	50562.59
534.18	50253.64
534.35	50344.92
534.52	50457.27
534.69	50719.41
534.86	51002.61
535.03	50658.56
535.20	50796.65
535.37	50710.05
535.54	50667.92
535.71	50656.21
535.88	50808.35
536.05	51049.42
536.22	51224.96
536.38	51016.66
536.55	51117.30
536.72	51239.01
536.89	51175.81
537.06	51196.88
537.23	51365.40
537.40	51363.06
537.57	50951.12
537.74	51473.06
537.91	51341.99
538.08	51580.73
538.25	51405.19
538.42	51590.09
538.59	51482.42
538.75	51686.05
538.92	51402.85
539.09	51728.18
539.26	51753.93
539.43	51613.49
539.60	51812.44
539.77	51718.82
539.94	52065.22
540.11	51580.73
540.28	51976.28
540.44	51791.37
540.61	51934.15
540.78	51903.72
540.95	52079.26
541.12	52112.03
541.29	52287.57
541.46	52151.82
541.62	52229.05
541.79	52236.08
541.96	51702.43
542.13	52004.36
542.30	52453.75
542.47	52413.96
542.63	52903.13
542.80	52556.73
542.97	53008.45
543.14	52612.90
543.31	52664.39
543.48	52772.06
543.64	53183.99
543.81	52949.94
543.98	53202.72
544.15	52891.43
544.32	53097.39
544.48	53235.48
544.65	53254.21
544.82	52992.07
544.99	52697.16
545.16	53132.50
545.32	52947.60
545.49	53631.04
545.66	53675.51
545.83	53354.85
546.00	53787.85
546.16	53221.44
546.33	53235.48
546.50	53003.77
546.67	53504.65
546.83	52966.32
547.00	53214.42
547.17	53813.60
547.34	53558.48
547.50	53743.38
547.67	53914.24
547.84	53570.18
548.00	53682.53
548.17	53628.69
548.34	53719.98
548.51	54026.59
548.67	53846.36
548.84	54101.48
549.01	53432.09
549.18	53663.80
549.34	53825.30
549.51	53897.86
549.68	53837.00
549.84	53872.11
550.01	54138.93
550.18	53773.81
550.34	54115.53
550.51	54178.72
550.68	54085.10
550.84	54082.76
551.01	54057.01
551.18	53818.28
551.34	53752.74
551.51	54099.14
551.68	54190.42
551.84	54473.63
552.01	54419.80
552.18	54644.49
552.34	53923.60
552.51	54307.45
552.68	54466.61
552.84	54485.33
553.01	54405.75
553.18	54270.00
553.34	54642.15
553.51	54485.33
553.67	54824.71
553.84	54864.50
554.01	54721.72
554.17	54527.46
554.34	54525.12
554.51	54471.29
554.67	54864.50
554.84	54628.10
555.00	54731.09
555.17	54614.06
555.33	54660.87
555.50	54541.50
555.67	54728.75
555.83	54646.83
556.00	54796.62
556.16	54934.71
556.33	54752.15
556.50	54813.01
556.66	54724.07
556.83	54953.44
556.99	55136.00
557.16	55136.00
557.32	55285.79
557.49	55168.77
557.65	54944.08
557.82	54820.03
557.98	54930.03
558.15	54937.05
558.32	55217.92
558.48	55051.74
558.65	55161.75
558.81	55143.02
558.98	55243.66
559.14	55168.77
559.31	54698.32
559.47	55353.67
559.64	55166.43
559.80	55117.28
559.97	55267.07
560.13	55337.29
560.30	55264.73
560.46	55299.84
560.63	55161.75
560.79	54988.55
560.96	55033.02
561.12	55346.65
561.29	55274.09
561.45	55458.99
561.61	55419.20
561.78	55711.77
561.94	55407.50
562.11	55458.99
562.27	55421.55
562.44	55391.12
562.60	55185.15
562.77	55384.10
562.93	55203.88
563.10	55622.83
563.26	55470.70
563.42	55451.97
563.59	55428.57
563.75	55725.81
563.92	55643.90
564.08	55426.23
564.24	55412.18
564.41	55348.99
564.57	55508.14
564.74	55281.11
564.90	55533.89
565.07	55632.19
565.23	55646.24
565.39	55388.78
565.56	55856.88
565.72	55297.50
565.88	55519.85
566.05	55524.53
566.21	55440.27
566.38	55379.42
566.54	55306.86
566.70	55711.77
566.87	55884.97
567.03	55899.01
567.19	55964.55
567.36	55632.19
567.52	55636.87
567.68	55709.43
567.85	55751.56
568.01	55723.47
568.17	55737.52
568.34	55941.14
568.50	55840.50
568.66	55753.90
568.83	55716.45
568.99	55639.22
569.15	55786.67
569.32	55487.08
569.48	55379.42
569.64	55781.99
569.81	55632.19
569.97	55810.07
570.13	55718.79
570.30	55657.94
570.46	55824.12
570.62	55896.67
570.78	55955.19
570.95	55604.11
571.11	55632.19
571.27	55625.17
571.43	55714.11
571.60	55779.65
571.76	55681.34
571.92	55891.99
572.09	55927.10
572.25	56018.38
572.41	55789.01
572.57	55934.12
572.74	56079.24
572.90	55840.50
573.06	55615.81
573.22	55777.31
573.38	56018.38
573.55	55985.61
573.71	56191.58
573.87	56088.60
574.03	55945.83
574.20	56273.50
574.36	55931.78
574.52	55868.59
574.68	55749.22
574.84	55835.82
575.01	56002.00
575.17	56081.58
575.33	55976.25
575.49	55910.72
575.65	55941.14
575.82	56135.41
575.98	55880.29
576.14	55969.23
576.30	55924.76
576.46	55817.10
576.62	55852.20
576.79	55866.25
576.95	55980.93
577.11	55980.93
577.27	55990.30
577.43	55852.20
577.59	55784.33
577.75	55786.67
577.92	55931.78
578.08	55683.69
578.24	55814.76
578.40	56114.34
578.56	55835.82
578.72	55873.27
578.88	56041.79
579.04	56219.67
579.21	56114.34
579.37	56217.33
579.53	56119.02
579.69	55838.16
579.85	56121.37
580.01	55978.59
580.17	55980.93
580.33	56013.70
580.49	55948.17
580.65	56282.86
580.82	56203.28
580.98	55964.55
581.14	56191.58
581.30	56069.87
581.46	55863.91
581.62	55882.63
581.78	56009.02
581.94	56116.68
582.10	55969.23
582.26	55957.53
582.42	56055.83
582.58	56397.55
582.74	56083.92
582.90	56317.97
583.06	56062.85
583.22	55730.50
583.38	56170.52
583.54	56088.60
583.70	56104.98
583.86	55875.61
584.02	55966.89
584.18	56100.30
584.34	56086.26
584.50	56126.05
584.66	56004.34
584.82	55779.65
584.98	56018.38
585.14	55791.35
585.30	55833.48
585.46	56025.40
585.62	56037.11
585.78	56219.67
585.94	55915.40
586.10	56062.85
586.26	56142.43
586.42	56193.92
586.58	56198.60
586.74	56051.15
586.90	55833.48
587.06	56147.11
587.22	56175.20
587.38	55927.10
587.54	55999.66
587.70	56243.07
587.86	56427.98
588.02	56280.52
588.18	56381.16
588.34	56355.42
588.49	56205.62
588.65	56168.18
588.81	56126.05
588.97	56093.28
589.13	56006.68
589.29	56250.09
589.45	56427.98
589.61	56121.37
