SpectraSuite Data File
++++++++++++++++++++++++++++++++++++
Date: Fri Oct 18 13:54:33 GMT-05:00 2013
User: bianchi
Dark Spectrum Present: No
Reference Spectrum Present: No
Number of Sampled Component Spectra: 1
Spectrometers: USB2+H05261
Integration Time (usec): 100000 (USB2+H05261)
Spectra Averaged: 1 (USB2+H05261)
Boxcar Smoothing: 0 (USB2+H05261)
Correct for Electrical Dark: No (USB2+H05261)
Strobe/Lamp Enabled: No (USB2+H05261)
Correct for Detector Non-linearity: No (USB2+H05261)
Correct for Stray Light: No (USB2+H05261)
Number of Pixels in Processed Spectrum: 2048
>>>>>Begin Processed Spectral Data<<<<<
365.73	0.00
365.92	0.00
366.12	0.00
366.32	0.00
366.52	0.00
366.72	0.00
366.91	0.00
367.11	0.00
367.31	0.00
367.51	0.00
367.70	0.00
367.90	0.00
368.10	0.00
368.30	0.00
368.49	0.00
368.69	0.00
368.89	0.00
369.09	0.00
369.28	0.00
369.48	0.00
369.68	0.00
369.87	0.00
370.07	0.00
370.27	0.00
370.47	0.00
370.66	220.01
370.86	297.25
371.06	276.18
371.25	346.40
371.45	271.50
371.65	322.99
371.84	369.80
372.04	416.62
372.24	388.53
372.44	409.59
372.63	365.12
372.83	456.40
373.03	486.83
373.22	414.27
373.42	461.09
373.62	470.45
373.81	482.15
374.01	440.02
374.21	423.64
374.40	430.66
374.60	543.00
374.79	526.62
374.99	477.47
375.19	545.34
375.38	498.53
375.58	521.94
375.78	475.13
375.97	596.84
376.17	592.16
376.37	505.56
376.56	547.69
376.76	451.72
376.95	510.24
377.15	493.85
377.35	582.79
377.54	573.43
377.74	496.19
377.93	571.09
378.13	477.47
378.33	627.26
378.52	610.88
378.72	533.64
378.91	545.34
379.11	531.30
379.31	585.13
379.50	599.18
379.70	610.88
379.89	594.50
380.09	571.09
380.28	676.41
380.48	657.69
380.68	669.39
380.87	543.00
381.07	685.78
381.26	697.48
381.46	643.65
381.65	634.29
381.85	650.67
382.04	716.20
382.24	662.37
382.43	671.73
382.63	608.54
382.83	774.72
383.02	814.51
383.22	873.02
383.41	676.41
383.61	737.27
383.80	777.06
384.00	760.67
384.19	763.01
384.39	777.06
384.58	779.40
384.78	795.78
384.97	807.48
385.17	809.83
385.36	807.48
385.56	875.36
385.75	821.53
385.95	802.80
386.14	833.23
386.34	805.14
386.53	856.64
386.72	821.53
386.92	851.96
387.11	901.11
387.31	882.38
387.50	805.14
387.70	851.96
387.89	851.96
388.09	873.02
388.28	870.68
388.48	1008.77
388.67	915.15
388.86	877.70
389.06	882.38
389.25	1029.84
389.45	926.85
389.64	943.24
389.84	1020.47
390.03	1022.81
390.22	1032.18
390.42	957.28
390.61	968.98
390.81	1020.47
391.00	1076.65
391.19	1060.26
391.39	1090.69
391.58	1144.52
391.78	1067.28
391.97	1111.75
392.16	1020.47
392.36	1050.90
392.55	1093.03
392.75	1090.69
392.94	1172.61
393.13	1146.86
393.33	1137.50
393.52	1203.04
393.71	1212.40
393.91	1235.80
394.10	1231.12
394.29	1210.06
394.49	1233.46
394.68	1235.80
394.88	1186.65
395.07	1219.42
395.26	1200.69
395.46	1291.98
395.65	1240.48
395.84	1296.66
396.04	1416.02
396.23	1350.49
396.42	1303.68
396.62	1416.02
396.81	1371.55
397.00	1469.86
397.19	1397.30
397.39	1390.28
397.58	1439.43
397.77	1465.18
397.97	1439.43
398.16	1446.45
398.35	1481.56
398.55	1409.00
398.74	1434.75
398.93	1554.12
399.12	1493.26
399.32	1511.99
399.51	1497.94
399.70	1483.90
399.90	1533.05
400.09	1533.05
400.28	1703.91
400.47	1558.80
400.67	1675.82
400.86	1547.09
401.05	1633.69
401.24	1750.72
401.44	1703.91
401.63	1729.66
401.82	1692.21
402.01	1614.97
402.21	1722.63
402.40	1785.83
402.59	1827.96
402.78	1799.87
402.97	1832.64
403.17	1834.98
403.36	1928.60
403.55	1804.55
403.74	1888.81
403.93	1914.56
404.13	2026.90
404.32	1907.54
404.51	1944.99
404.70	2165.00
404.89	1959.03
405.09	2104.14
405.28	1994.14
405.47	2008.18
405.66	2113.50
405.85	2139.25
406.05	2080.74
406.24	2218.83
406.43	2113.50
406.62	2230.53
406.81	2282.02
407.00	2202.44
407.20	2253.94
407.39	2242.23
407.58	2300.75
407.77	2319.47
407.96	2361.60
408.15	2317.13
408.34	2326.49
408.54	2324.15
408.73	2298.41
408.92	2408.41
409.11	2462.24
409.30	2464.58
409.49	2495.01
409.68	2469.27
409.87	2499.69
410.07	2572.25
410.26	2600.34
410.45	2607.36
410.64	2511.39
410.83	2642.46
411.02	2668.21
411.21	2773.53
411.40	2794.60
411.59	2892.90
411.78	2745.45
411.98	2799.28
412.17	2803.96
412.36	2813.32
412.55	2888.22
412.74	2981.84
412.93	2939.71
413.12	3016.95
413.31	3091.85
413.50	3038.02
413.69	3141.00
413.88	3150.36
414.07	3063.76
414.26	3080.14
414.45	3269.73
414.64	3159.72
414.83	3368.03
415.02	3288.45
415.22	3260.37
415.41	3496.76
415.60	3452.29
415.79	3370.37
415.98	3536.55
416.17	3590.38
416.36	3597.40
416.55	3578.68
416.74	3473.36
416.93	3522.51
417.12	3789.33
417.31	3779.97
417.50	3658.26
417.69	4023.38
417.88	3880.61
418.07	3803.37
418.26	3850.18
418.45	4011.68
418.64	4072.53
418.83	3939.12
419.02	4009.34
419.21	4114.66
419.39	4180.20
419.58	4072.53
419.77	3981.25
419.96	4077.21
420.15	4131.05
420.34	4215.30
420.53	4227.01
420.72	4187.22
420.91	4255.09
421.10	4416.59
421.29	4430.63
421.48	4145.09
421.67	4299.56
421.86	4360.42
422.05	4461.06
422.24	4559.36
422.43	4259.78
422.61	4489.15
422.80	4580.43
422.99	4580.43
423.18	4423.61
423.37	4535.96
423.56	4580.43
423.75	4496.17
423.94	4601.49
424.13	4219.99
424.32	4411.91
424.50	4723.20
424.69	4737.24
424.88	4657.67
425.07	4578.09
425.26	4500.85
425.45	4531.28
425.64	4538.30
425.83	4634.26
426.01	4641.28
426.20	4664.69
426.39	4645.96
426.58	4631.92
426.77	4608.51
426.96	4697.46
427.15	4676.39
427.33	4975.98
427.52	4802.78
427.71	4746.61
427.90	4788.74
428.09	4964.28
428.28	4882.36
428.46	4917.47
428.65	5081.30
428.84	5015.77
429.03	5067.26
429.22	5006.41
429.40	5048.54
429.59	5036.83
429.78	4898.74
429.97	4894.06
430.16	4938.53
430.34	5022.79
430.53	5172.58
430.72	5256.84
430.91	5235.78
431.10	5177.26
431.28	5320.04
431.47	5458.13
431.66	5355.15
431.85	5252.16
432.03	5507.28
432.22	5462.81
432.41	5554.09
432.60	5327.06
432.79	5535.37
432.97	5474.51
433.16	5680.48
433.35	5636.01
433.54	5729.63
433.72	5650.05
433.91	5582.18
434.10	5640.69
434.28	5715.59
434.47	5884.11
434.66	5795.17
434.85	5657.07
435.03	5937.94
435.22	5722.61
435.41	6122.84
435.59	5909.85
435.78	5856.02
435.97	5839.64
436.16	6171.99
436.34	6031.56
436.53	6024.54
436.72	6181.35
436.90	5949.64
437.09	6127.52
437.28	6115.82
437.46	6104.12
437.65	6307.74
437.84	6291.36
438.02	6207.10
438.21	6214.12
438.40	6033.90
438.58	6415.41
438.77	6511.37
438.96	6532.44
439.14	6490.31
439.33	6731.38
439.52	6761.81
439.70	6705.63
439.89	6958.41
440.08	6750.10
440.26	6864.79
440.45	6857.77
440.63	7082.46
440.82	7140.97
441.01	7049.69
441.19	7213.53
441.38	7243.96
441.57	7206.51
441.75	7246.30
441.94	7370.35
442.12	7470.99
442.31	7583.34
442.50	7569.29
442.68	7515.46
442.87	7456.95
443.05	7466.31
443.24	7674.62
443.43	7573.97
443.61	7447.58
443.80	7854.84
443.98	7566.95
444.17	7412.48
444.35	7578.65
444.54	7845.48
444.73	7705.04
444.91	7592.70
445.10	7882.92
445.28	7728.45
445.47	7786.96
445.65	7756.54
445.84	7700.36
446.02	7929.74
446.21	7588.02
446.39	7854.84
446.58	7854.84
446.77	7960.16
446.95	7777.60
447.14	7946.12
447.32	7957.82
447.51	7812.71
447.69	7845.48
447.88	8095.91
448.06	7997.61
448.25	7920.37
448.43	8065.49
448.62	8095.91
448.80	8147.40
448.99	8063.15
449.17	8166.13
449.36	8032.72
449.54	8201.24
449.73	8205.92
449.91	8374.44
450.10	8325.29
450.28	8311.24
450.46	8297.20
450.65	8524.23
450.83	8458.70
451.02	8430.61
451.20	8578.06
451.39	8484.44
451.57	8430.61
451.76	8484.44
451.94	8571.04
452.13	8601.47
452.31	8847.22
452.49	8561.68
452.68	8655.30
452.86	8678.71
453.05	8734.88
453.23	8865.95
453.42	8784.03
453.60	8528.91
453.78	8603.81
453.97	8564.02
454.15	8952.55
454.34	8891.70
454.52	9011.06
454.70	8891.70
454.89	8973.61
455.07	9139.79
455.26	9224.05
455.44	9233.41
455.62	9132.77
455.81	9186.60
455.99	9184.26
456.17	9310.65
456.36	9654.71
456.54	9500.23
456.73	9458.10
456.91	9858.34
457.09	9577.47
457.28	9813.87
457.46	9671.09
457.64	9680.46
457.83	9902.81
458.01	9671.09
458.19	9689.82
458.38	9809.19
458.56	10099.41
458.74	9982.38
458.93	9799.82
459.11	9994.09
459.29	9966.00
459.48	10019.83
459.66	9973.02
459.84	10244.52
460.03	10382.62
460.21	10150.90
460.39	10363.89
460.57	10183.67
460.76	10253.89
460.94	10476.24
461.12	10537.09
461.31	10485.60
461.49	10331.12
461.67	10303.04
461.85	10703.27
462.04	10602.63
462.22	10925.62
462.40	10747.74
462.59	10855.40
462.77	10773.49
462.95	10759.44
463.13	10750.08
463.32	10771.15
463.50	10766.46
463.68	10806.25
463.86	10958.39
464.05	10801.57
464.23	10876.47
464.41	11192.44
464.59	10913.92
464.78	11288.40
464.96	10895.19
465.14	10867.11
465.32	11105.84
465.50	11367.98
465.69	11386.71
465.87	11239.25
466.05	11543.52
466.23	11138.61
466.41	11316.49
466.60	12002.27
466.78	11363.30
466.96	11363.30
467.14	11496.71
467.32	11358.62
467.51	11800.98
467.69	11190.10
467.87	11545.86
468.05	11653.53
468.23	11819.71
468.41	11489.69
468.60	11522.46
468.78	11880.56
468.96	11353.94
469.14	11925.03
469.32	11981.20
469.50	11723.74
469.69	12119.29
469.87	12147.38
470.05	12241.00
470.23	12135.68
470.41	12210.57
470.59	12278.45
470.77	12180.15
470.95	12219.94
471.14	12472.71
471.32	12208.23
471.50	12772.30
471.68	12592.08
471.86	12519.53
472.04	12716.13
472.22	13266.16
472.40	12596.76
472.58	12849.54
472.77	12760.60
472.95	13083.59
473.13	13577.45
473.31	13336.37
473.49	13207.64
473.67	13270.84
473.85	13392.55
474.03	13397.23
474.21	13394.89
474.39	13734.26
474.57	13664.05
474.75	13689.79
474.93	13781.07
475.12	13561.06
475.30	14136.84
475.48	13710.86
475.66	13991.72
475.84	14010.45
476.02	14572.18
476.20	14237.48
476.38	14633.03
476.56	14888.15
476.74	14607.28
476.92	14850.70
477.10	14595.58
477.28	14747.72
477.46	15012.20
477.64	15211.14
477.82	15311.78
478.00	15943.73
478.18	15653.50
478.36	15861.81
478.54	15721.38
478.72	15950.75
478.90	16119.27
479.08	16278.43
479.26	16308.85
479.44	16287.79
479.62	16409.50
479.80	16627.17
479.98	16414.18
480.16	17106.98
480.34	16599.08
480.52	17029.74
480.70	17324.65
480.88	17085.91
481.06	17486.14
481.24	17305.92
481.41	17570.40
481.59	18118.09
481.77	18075.96
481.95	18064.25
482.13	18319.37
482.31	18132.13
482.49	18721.95
482.67	18656.41
482.85	18611.94
483.03	19126.86
483.21	19538.79
483.39	19646.46
483.57	19307.08
483.74	19616.03
483.92	19784.55
484.10	19571.56
484.28	20126.27
484.46	20542.88
484.64	20521.82
484.82	20400.11
485.00	20673.95
485.18	20711.40
485.35	21385.47
485.53	21331.64
485.71	21387.82
485.89	21762.30
486.07	21802.09
486.25	21792.73
486.43	21586.76
486.61	21654.64
486.78	22618.94
486.96	22541.70
487.14	22609.58
487.32	23005.13
487.50	22771.07
487.68	23002.78
487.85	23318.76
488.03	23496.64
488.21	24011.56
488.39	24182.42
488.57	24236.25
488.75	24636.48
488.92	24634.14
489.10	24517.11
489.28	24678.61
489.46	24987.56
489.64	25172.46
489.81	25432.26
489.99	25406.52
490.17	25671.00
490.35	25809.09
490.53	26059.52
490.70	26307.62
490.88	25933.14
491.06	26518.27
491.24	26665.72
491.41	26845.94
491.59	27044.89
491.77	27026.17
491.95	27683.86
492.13	27349.16
492.30	27178.30
492.48	27571.51
492.66	27637.05
492.84	28404.74
493.01	28201.11
493.19	27983.44
493.37	28624.75
493.54	28821.36
493.72	28596.67
493.90	28835.40
494.08	29242.65
494.25	29619.48
494.43	29495.43
494.61	30211.64
494.79	30148.44
494.96	29722.46
495.14	30174.19
495.32	30307.60
495.49	30237.38
495.67	30761.66
495.85	31222.75
496.02	31328.07
496.20	31503.61
496.38	31491.91
496.55	31765.75
496.73	32093.43
496.91	31693.19
497.09	32320.46
497.26	32662.18
497.44	31948.31
497.62	32442.17
497.79	33144.33
497.97	32421.10
498.14	33083.47
498.32	33298.80
498.50	33446.26
498.67	33745.84
498.85	33488.38
499.03	33406.47
499.20	33429.87
499.38	33827.76
499.56	33926.07
499.73	34560.35
499.91	34665.67
500.08	34504.18
500.26	34398.85
500.44	34422.26
500.61	35012.07
500.79	34689.08
500.97	35051.86
501.14	35370.18
501.32	35466.14
501.49	35344.43
501.67	35421.67
501.84	35257.83
502.02	35821.90
502.20	35580.82
502.37	36177.66
502.55	36332.14
502.72	35995.10
502.90	36222.13
503.07	36355.54
503.25	36400.01
503.43	36627.04
503.60	36730.03
503.78	37099.83
503.95	37111.53
504.13	37134.94
504.30	37015.57
504.48	36996.85
504.65	37701.35
504.83	38066.47
505.01	38621.18
505.18	37443.89
505.36	38291.16
505.53	37874.55
505.71	38209.25
505.88	38440.96
506.06	37979.87
506.23	38504.15
506.41	38550.96
506.58	38663.31
506.76	38838.85
506.93	39210.99
507.11	38806.08
507.28	39168.87
507.46	39400.58
507.63	39236.74
507.81	40187.00
507.98	39683.78
508.16	39519.95
508.33	40025.50
508.50	39812.51
508.68	39707.19
508.85	40446.80
509.03	40353.18
509.20	40903.20
509.38	40411.69
509.55	40783.83
509.73	41031.93
509.90	40933.63
510.08	40542.76
510.25	41177.04
510.42	41060.02
510.60	41420.46
510.77	41549.19
510.95	41778.56
511.12	41312.80
511.30	41303.43
511.47	41673.24
511.64	41790.27
511.82	42213.90
511.99	42066.45
512.17	42478.38
512.34	42284.12
512.51	42848.19
512.69	42499.45
512.86	42314.55
513.04	42887.98
513.21	43185.22
513.38	42803.72
513.56	43171.18
513.73	43210.97
513.90	43498.86
514.08	43014.37
514.25	43428.64
514.43	43440.34
514.60	43789.08
514.77	43414.60
514.95	43772.70
515.12	43817.17
515.29	44170.59
515.47	44289.96
515.64	44650.40
515.81	44493.58
515.99	44741.68
516.16	45294.05
516.33	44795.51
516.51	45099.78
516.68	44690.19
516.85	44837.64
517.03	44907.86
517.20	44842.32
517.37	45109.14
517.54	45492.99
517.72	45560.87
517.89	45317.45
518.06	45558.53
518.24	45471.93
518.41	45640.45
518.58	45476.61
518.75	45827.69
518.93	46089.83
519.10	45900.25
519.27	45724.71
519.45	46129.62
519.62	46068.76
519.79	46248.99
519.96	46178.77
520.14	46571.98
520.31	46628.15
520.48	46625.81
520.65	47049.45
520.83	46632.83
521.00	46930.08
521.17	46824.76
521.34	46820.08
521.52	47047.11
521.69	46930.08
521.86	47526.92
522.03	47208.61
522.20	47679.05
522.38	47367.76
522.55	47494.15
522.72	47449.68
522.89	47695.44
523.07	48076.94
523.24	47693.10
523.41	47976.30
523.58	47536.28
523.75	48252.48
523.92	48261.85
524.10	47999.71
524.27	48259.51
524.44	48168.22
524.61	48610.59
524.78	48720.59
524.96	48699.53
525.13	48493.56
525.30	48863.36
525.47	48821.23
525.64	48781.45
525.81	48982.73
525.98	49123.16
526.16	49373.60
526.33	48942.94
526.50	49469.56
526.67	49120.82
526.84	49193.38
527.01	49059.97
527.18	49413.39
527.36	49495.31
527.53	49752.77
527.70	49881.50
527.87	50010.23
528.04	49846.39
528.21	50014.91
528.38	49797.24
528.55	50024.27
528.72	49785.54
528.89	50040.65
529.07	50117.89
529.24	50085.12
529.41	50197.47
529.58	50209.17
529.75	50040.65
529.92	50188.11
530.09	50424.50
530.26	50398.76
530.43	50578.98
530.60	50277.05
530.77	50698.34
530.94	50485.36
531.11	50759.20
531.28	50452.59
531.46	50735.79
531.63	50897.29
531.80	50857.50
531.97	51332.63
532.14	50899.63
532.31	51182.84
532.48	51007.29
532.65	51093.89
532.82	50686.64
532.99	50986.23
533.16	50866.86
533.33	51339.65
533.50	51416.89
533.67	51576.04
533.84	51360.72
534.01	51100.92
534.18	51147.73
534.35	51550.30
534.52	51552.64
534.69	51545.62
534.86	51882.66
535.03	51531.57
535.20	52004.36
535.37	51730.52
535.54	52128.41
535.71	51756.27
535.88	51576.04
536.05	52095.64
536.22	52418.64
536.38	52638.65
536.55	52514.60
536.72	52362.46
536.89	52051.17
537.06	52116.71
537.23	52133.09
537.40	52154.16
537.57	52465.45
537.74	52271.18
537.91	52715.89
538.08	52587.16
538.25	52254.80
538.42	52699.50
538.59	52383.53
538.75	52313.31
538.92	52666.73
539.09	52926.53
539.26	52685.46
539.43	52772.06
539.60	52729.93
539.77	52662.05
539.94	53116.12
540.11	53052.92
540.28	52882.06
540.44	52980.37
540.61	52851.64
540.78	53029.52
540.95	53146.54
541.12	53230.80
541.29	53102.07
541.46	52821.21
541.62	53118.46
541.79	52861.00
541.96	52711.20
542.13	53120.80
542.30	53399.32
542.47	53518.69
542.63	53558.48
542.80	53565.50
542.97	53757.42
543.14	53776.15
543.31	53642.74
543.48	53553.80
543.64	54005.52
543.81	53942.33
543.98	54057.01
544.15	53846.36
544.32	54169.36
544.48	54064.03
544.65	53954.03
544.82	54216.17
544.99	54007.86
545.16	54195.10
545.32	54064.03
545.49	54550.87
545.66	54440.86
545.83	54286.39
546.00	54555.55
546.16	54527.46
546.33	54461.93
546.50	53914.24
546.67	53928.28
546.83	53806.58
547.00	54169.36
547.17	54302.77
547.34	54578.95
547.50	54784.92
547.67	54728.75
547.84	54742.79
548.00	54546.18
548.17	54920.67
548.34	54721.72
548.51	54534.48
548.67	55042.38
548.84	54724.07
549.01	54693.64
549.18	54761.51
549.34	54728.75
549.51	54475.97
549.68	54560.23
549.84	54770.88
550.01	54878.54
550.18	54848.11
550.34	54880.88
550.51	54993.23
550.68	55126.64
550.84	54831.73
551.01	54937.05
551.18	54712.36
551.34	55077.49
551.51	54941.74
551.68	55117.28
551.84	55501.12
552.01	55222.60
552.18	55114.94
552.34	55004.93
552.51	55597.09
552.68	55086.85
552.84	55281.11
553.01	55407.50
553.18	55306.86
553.34	55660.28
553.51	55550.27
553.67	55386.44
553.84	55667.30
554.01	55447.29
554.17	55393.46
554.34	55466.02
554.51	55419.20
554.67	55451.97
554.84	55480.06
555.00	55613.47
555.17	55454.31
555.33	55421.55
555.50	55571.34
555.67	55622.83
555.83	55760.92
556.00	55866.25
556.16	55980.93
556.33	55669.64
556.50	55697.73
556.66	56002.00
556.83	55587.72
556.99	56072.21
557.16	56203.28
557.32	55906.04
557.49	56048.81
557.65	55648.58
557.82	55749.22
557.98	55884.97
558.15	55796.03
558.32	56048.81
558.48	55983.27
558.65	56233.71
558.81	56025.40
558.98	56289.88
559.14	55950.51
559.31	55852.20
559.47	55854.54
559.64	56217.33
559.80	56275.84
559.97	56254.78
560.13	56112.00
560.30	56224.35
560.46	56444.36
560.63	55934.12
560.79	56339.04
560.96	56273.50
561.12	56037.11
561.29	56072.21
561.45	56329.67
561.61	56016.04
561.78	56374.14
561.94	56278.18
562.11	56484.15
562.27	56109.66
562.44	56245.41
562.60	56261.80
562.77	56240.73
562.93	56346.06
563.10	56374.14
563.26	56170.52
563.42	56584.79
563.59	56353.08
563.75	56505.21
563.92	56519.26
564.08	56179.88
564.24	56514.58
564.41	56222.01
564.57	56184.56
564.74	56427.98
564.90	56509.89
565.07	56746.29
565.23	56430.32
565.39	56690.12
565.56	56479.47
565.72	56437.34
565.88	56374.14
566.05	56280.52
566.21	56348.40
566.38	56383.51
566.54	56446.70
566.70	56664.37
566.87	56928.85
567.03	56231.37
567.19	56889.06
567.36	56807.14
567.52	56552.02
567.68	56456.06
567.85	56498.19
568.01	56636.28
568.17	56554.36
568.34	56837.57
568.50	56776.72
568.66	56699.48
568.83	56690.12
568.99	56832.89
569.15	56425.64
569.32	56680.75
569.48	56322.65
569.64	56666.71
569.81	56636.28
569.97	56575.43
570.13	56580.11
570.30	56605.86
570.46	56978.00
570.62	56757.99
570.78	56542.66
570.95	56399.89
571.11	56797.78
571.27	56296.91
571.43	56617.56
571.60	56605.86
571.76	56612.88
571.92	56870.34
572.09	56825.87
572.25	56680.75
572.41	56832.89
572.57	56612.88
572.74	56896.08
572.90	56465.42
573.06	56683.09
573.22	56629.26
573.38	56694.80
573.55	56725.22
573.71	57043.54
573.87	56900.76
574.03	56975.66
574.20	56903.10
574.36	56779.06
574.52	56875.02
574.68	56875.02
574.84	56687.78
575.01	56875.02
575.17	56821.19
575.33	56947.57
575.49	56669.05
575.65	57261.21
575.82	56959.28
575.98	56835.23
576.14	57048.22
576.30	56898.42
576.46	56816.50
576.62	56617.56
576.79	56860.97
576.95	56832.89
577.11	56992.04
577.27	56842.25
577.43	56687.78
577.59	56903.10
577.75	56917.15
577.92	56942.89
578.08	56884.38
578.24	56729.90
578.40	56978.00
578.56	56931.19
578.72	56886.72
578.88	56757.99
579.04	57324.40
579.21	56725.22
579.37	56919.49
579.53	56924.17
579.69	56769.69
579.85	56760.33
580.01	56832.89
580.17	56933.53
580.33	56989.70
580.49	56720.54
580.65	57048.22
580.82	56811.82
580.98	57106.73
581.14	56842.25
581.30	56940.55
581.46	56919.49
581.62	56748.63
581.78	56743.95
581.94	56938.21
582.10	56907.79
582.26	57057.58
582.42	57069.28
582.58	57080.98
582.74	56966.30
582.90	56992.04
583.06	57148.86
583.22	57038.86
583.38	56954.60
583.54	56966.30
583.70	56844.59
583.86	56844.59
584.02	56839.91
584.18	57134.82
584.34	57083.33
584.50	57209.71
584.66	56963.96
584.82	56704.16
584.98	57034.17
585.14	56659.69
585.30	56797.78
585.46	56891.40
585.62	56853.95
585.78	57071.62
585.94	56889.06
586.10	57017.79
586.26	56809.48
586.42	57165.24
586.58	57181.63
586.74	57024.81
586.90	56844.59
587.06	56921.83
587.22	56912.47
587.38	56860.97
587.54	57244.82
587.70	57172.27
587.86	57249.50
588.02	57106.73
588.18	57153.54
588.34	57214.40
588.49	57251.84
588.65	57310.36
588.81	57146.52
588.97	57073.96
589.13	57092.69
589.29	57155.88
589.45	57038.86
589.61	57305.68
