SpectraSuite Data File
++++++++++++++++++++++++++++++++++++
Date: Fri Oct 18 13:54:18 GMT-05:00 2013
User: bianchi
Dark Spectrum Present: No
Reference Spectrum Present: No
Number of Sampled Component Spectra: 1
Spectrometers: USB2+H05261
Integration Time (usec): 100000 (USB2+H05261)
Spectra Averaged: 1 (USB2+H05261)
Boxcar Smoothing: 0 (USB2+H05261)
Correct for Electrical Dark: No (USB2+H05261)
Strobe/Lamp Enabled: No (USB2+H05261)
Correct for Detector Non-linearity: No (USB2+H05261)
Correct for Stray Light: No (USB2+H05261)
Number of Pixels in Processed Spectrum: 2048
>>>>>Begin Processed Spectral Data<<<<<
365.73	0.00
365.92	0.00
366.12	0.00
366.32	0.00
366.52	0.00
366.72	0.00
366.91	0.00
367.11	0.00
367.31	0.00
367.51	0.00
367.70	0.00
367.90	0.00
368.10	0.00
368.30	0.00
368.49	0.00
368.69	0.00
368.89	0.00
369.09	0.00
369.28	0.00
369.48	0.00
369.68	0.00
369.87	0.00
370.07	0.00
370.27	0.00
370.47	117.03
370.66	243.42
370.86	346.40
371.06	334.70
371.25	341.72
371.45	337.04
371.65	283.20
371.84	304.27
372.04	383.85
372.24	416.62
372.44	393.21
372.63	414.27
372.83	423.64
373.03	416.62
373.22	451.72
373.42	449.38
373.62	386.19
373.81	440.02
374.01	526.62
374.21	514.92
374.40	468.11
374.60	580.45
374.79	489.17
374.99	470.45
375.19	533.64
375.38	411.93
375.58	540.66
375.78	538.32
375.97	547.69
376.17	617.90
376.37	500.87
376.56	543.00
376.76	547.69
376.95	484.49
377.15	594.50
377.35	465.77
377.54	554.71
377.74	543.00
377.93	561.73
378.13	559.39
378.33	550.03
378.52	580.45
378.72	613.22
378.91	575.77
379.11	524.28
379.31	587.47
379.50	564.07
379.70	716.20
379.89	564.07
380.09	582.79
380.28	634.29
380.48	671.73
380.68	587.47
380.87	622.58
381.07	622.58
381.26	664.71
381.46	641.31
381.65	737.27
381.85	674.07
382.04	634.29
382.24	638.97
382.43	564.07
382.63	589.82
382.83	702.16
383.02	723.23
383.22	753.65
383.41	641.31
383.61	723.23
383.80	823.87
384.00	657.69
384.19	753.65
384.39	758.33
384.58	800.46
384.78	856.64
384.97	781.74
385.17	774.72
385.36	802.80
385.56	807.48
385.75	840.25
385.95	819.19
386.14	844.93
386.34	723.23
386.53	842.59
386.72	777.06
386.92	924.51
387.11	791.10
387.31	877.70
387.50	856.64
387.70	861.32
387.89	861.32
388.09	877.70
388.28	901.11
388.48	908.13
388.67	990.05
388.86	931.53
389.06	868.34
389.25	983.02
389.45	889.40
389.64	945.58
389.84	976.00
390.03	954.94
390.22	1015.79
390.42	990.05
390.61	997.07
390.81	924.51
391.00	1055.58
391.19	1013.45
391.39	1081.33
391.58	1064.94
391.78	1015.79
391.97	1043.88
392.16	1029.84
392.36	1011.11
392.55	1125.80
392.75	1144.52
392.94	1132.82
393.13	1137.50
393.33	1170.27
393.52	1107.07
393.71	1242.82
393.91	1081.33
394.10	1165.59
394.29	1165.59
394.49	1100.05
394.68	1121.12
394.88	1181.97
395.07	1270.91
395.26	1238.14
395.46	1203.04
395.65	1261.55
395.84	1359.85
396.04	1373.89
396.23	1355.17
396.42	1221.76
396.62	1308.36
396.81	1399.64
397.00	1348.15
397.19	1383.26
397.39	1324.74
397.58	1401.98
397.77	1390.28
397.97	1387.94
398.16	1434.75
398.35	1488.58
398.55	1355.17
398.74	1467.52
398.93	1572.84
399.12	1441.77
399.32	1528.37
399.51	1544.75
399.70	1647.74
399.90	1533.05
400.09	1600.93
400.28	1579.86
400.47	1535.39
400.67	1671.14
400.86	1586.88
401.05	1636.03
401.24	1643.06
401.44	1657.10
401.63	1720.29
401.82	1703.91
402.01	1715.61
402.21	1778.81
402.40	1701.57
402.59	1806.89
402.78	1795.19
402.97	1827.96
403.17	1778.81
403.36	1792.85
403.55	1886.47
403.74	1881.79
403.93	1870.09
404.13	1905.20
404.32	2029.24
404.51	2064.35
404.70	1923.92
404.89	1944.99
405.09	2008.18
405.28	2045.63
405.47	1982.43
405.66	2043.29
405.85	2179.04
406.05	2160.31
406.24	2059.67
406.43	2101.80
406.62	2139.25
406.81	2396.71
407.00	2033.93
407.20	2176.70
407.39	2275.00
407.58	2256.28
407.77	2165.00
407.96	2167.34
408.15	2277.34
408.34	2377.98
408.54	2469.27
408.73	2289.04
408.92	2286.70
409.11	2504.37
409.30	2417.77
409.49	2436.50
409.68	2473.95
409.87	2476.29
410.07	2417.77
410.26	2593.31
410.45	2431.82
410.64	2569.91
410.83	2649.49
411.02	2602.68
411.21	2722.04
411.40	2724.38
411.59	2708.00
411.78	2696.30
411.98	2654.17
412.17	2703.32
412.36	2895.24
412.55	2932.69
412.74	3038.02
412.93	2925.67
413.12	2871.84
413.31	3187.81
413.50	2984.18
413.69	3098.87
413.88	3152.70
414.07	3122.27
414.26	3190.15
414.45	3122.27
414.64	3297.81
414.83	3236.96
415.02	3349.31
415.22	3356.33
415.41	3494.42
415.60	3318.88
415.79	3487.40
415.98	3468.67
416.17	3588.04
416.36	3510.80
416.55	3730.81
416.74	3620.81
416.93	3609.11
417.12	3695.71
417.31	3698.05
417.50	3723.79
417.69	3904.01
417.88	3859.54
418.07	3866.56
418.26	3990.61
418.45	3999.98
418.64	4135.73
418.83	3943.80
419.02	3941.46
419.21	4072.53
419.39	4077.21
419.58	4084.23
419.77	4032.74
419.96	4236.37
420.15	4105.30
420.34	4196.58
420.53	4215.30
420.72	4264.46
420.91	4475.10
421.10	4428.29
421.29	4294.88
421.48	4283.18
421.67	4276.16
421.86	4337.01
422.05	4194.24
422.24	4388.50
422.43	4390.84
422.61	4423.61
422.80	4465.74
422.99	4369.78
423.18	4589.79
423.37	4662.35
423.56	4629.58
423.75	4631.92
423.94	4447.02
424.13	4215.30
424.32	4320.63
424.50	4561.70
424.69	4758.31
424.88	4447.02
425.07	4517.23
425.26	4484.47
425.45	4458.72
425.64	4648.30
425.83	4601.49
426.01	4652.98
426.20	4620.22
426.39	4601.49
426.58	4484.47
426.77	4657.67
426.96	4629.58
427.15	4603.83
427.33	4620.22
427.52	4741.93
427.71	4779.37
427.90	4809.80
428.09	4990.02
428.28	4858.95
428.46	4875.34
428.65	4819.16
428.84	5027.47
429.03	5008.75
429.22	4770.01
429.40	4936.19
429.59	4980.66
429.78	4896.40
429.97	4875.34
430.16	5067.26
430.34	5083.64
430.53	5336.42
430.72	5188.97
430.91	5179.61
431.10	5128.11
431.28	5259.18
431.47	5364.51
431.66	5479.19
431.85	5310.68
432.03	5500.26
432.22	5664.10
432.41	5387.91
432.60	5420.68
432.79	5411.32
432.97	5460.47
433.16	5671.12
433.35	5474.51
433.54	5603.24
433.72	5518.98
433.91	5643.03
434.10	5755.38
434.28	5610.26
434.47	5673.46
434.66	5661.76
434.85	5818.57
435.03	5774.10
435.22	5846.66
435.41	6120.50
435.59	6061.99
435.78	5720.27
435.97	5989.43
436.16	6005.81
436.34	5940.28
436.53	6141.57
436.72	6029.22
436.90	5825.59
437.09	6122.84
437.28	5944.96
437.46	6136.88
437.65	6092.41
437.84	6319.45
438.02	6141.57
438.21	6366.26
438.40	6324.13
438.58	6520.73
438.77	6544.14
438.96	6546.48
439.14	6434.13
439.33	6485.62
439.52	6628.40
439.70	6647.12
439.89	6885.86
440.08	6672.87
440.26	6986.50
440.45	6888.20
440.63	6946.71
440.82	6960.75
441.01	7066.08
441.19	7152.68
441.38	7330.56
441.57	7103.53
441.75	7218.21
441.94	7314.17
442.12	7164.38
442.31	7452.27
442.50	7353.96
442.68	7494.40
442.87	7398.43
443.05	7426.52
443.24	7552.91
443.43	7541.21
443.61	7559.93
443.80	7833.77
443.98	7571.63
444.17	7300.13
444.35	7536.52
444.54	7845.48
444.73	7674.62
444.91	7496.74
445.10	7569.29
445.28	7616.10
445.47	7599.72
445.65	7698.02
445.84	7901.65
446.02	7660.57
446.21	7742.49
446.39	7840.79
446.58	7882.92
446.77	7716.75
446.95	7660.57
447.14	7733.13
447.32	7899.31
447.51	7808.03
447.69	7693.34
447.88	7871.22
448.06	7925.05
448.25	7845.48
448.43	7927.39
448.62	7894.63
448.80	8086.55
448.99	8184.85
449.17	8049.10
449.36	8133.36
449.54	8093.57
449.73	8388.48
449.91	8194.22
450.10	8070.17
450.28	8407.20
450.46	8250.39
450.65	8390.82
450.83	8421.25
451.02	8589.77
451.20	8479.76
451.39	8432.95
451.57	8334.65
451.76	8327.63
451.94	8486.78
452.13	8561.68
452.31	8765.31
452.49	8486.78
452.68	8769.99
452.86	8592.11
453.05	8674.03
453.23	8634.24
453.42	8669.34
453.60	8547.64
453.78	8891.70
453.97	8769.99
454.15	8868.29
454.34	8851.91
454.52	9046.17
454.70	9074.26
454.89	9198.31
455.07	9156.18
455.26	9123.41
455.44	9179.58
455.62	9226.39
455.81	9020.42
455.99	9240.44
456.17	9252.14
456.36	9401.93
456.54	9322.35
456.73	9544.70
456.91	9720.24
457.09	9638.33
457.28	10026.86
457.46	9425.34
457.64	9621.94
457.83	9722.59
458.01	9717.90
458.19	9680.46
458.38	9837.27
458.56	9996.43
458.74	9970.68
458.93	10054.94
459.11	9921.53
459.29	9998.77
459.48	10054.94
459.66	9762.37
459.84	10113.45
460.03	10286.65
460.21	10080.69
460.39	10314.74
460.57	10239.84
460.76	10181.33
460.94	10354.53
461.12	10434.11
461.31	10246.87
461.49	10188.35
461.67	10263.25
461.85	10525.39
462.04	10487.94
462.22	11166.70
462.40	10689.23
462.59	10642.42
462.77	10689.23
462.95	11007.54
463.13	10775.83
463.32	10808.59
463.50	10782.85
463.68	10874.13
463.86	10736.04
464.05	10726.68
464.23	10541.77
464.41	10925.62
464.59	10588.58
464.78	10923.28
464.96	10932.64
465.14	10806.25
465.32	11133.93
465.50	10986.47
465.69	11351.60
465.87	11080.10
466.05	11084.78
466.23	11187.76
466.41	11328.19
466.60	11618.42
466.78	11201.80
466.96	11159.67
467.14	11096.48
467.32	11496.71
467.51	11538.84
467.69	11126.91
467.87	11602.04
468.05	11421.81
468.23	11316.49
468.41	11272.02
468.60	11473.31
468.78	11793.96
468.96	11463.94
469.14	11990.56
469.32	11969.50
469.50	11538.84
469.69	11894.60
469.87	11878.22
470.05	12063.12
470.23	12423.56
470.41	12128.66
470.59	12053.76
470.77	12037.38
470.95	12271.43
471.14	12561.66
471.32	12149.72
471.50	12519.53
471.68	12531.23
471.86	12556.97
472.04	12674.00
472.22	12875.29
472.40	12545.27
472.58	12793.37
472.77	12748.90
472.95	12910.40
473.13	13270.84
473.31	12847.20
473.49	12552.29
473.67	13184.24
473.85	13341.05
474.03	13378.50
474.21	13083.59
474.39	13582.13
474.57	13401.91
474.75	13600.85
474.93	13804.48
475.12	13671.07
475.30	13722.56
475.48	13745.97
475.66	13926.19
475.84	13846.61
476.02	14185.99
476.20	14291.31
476.38	14366.21
476.56	14775.80
476.74	14434.08
476.92	14841.34
477.10	14607.28
477.28	14799.21
477.46	14518.34
477.64	14932.62
477.82	15190.08
478.00	15351.57
478.18	15623.08
478.36	15697.97
478.54	15857.13
478.72	15878.19
478.90	15908.62
479.08	16030.33
479.26	16240.98
479.44	16252.68
479.62	16432.90
479.80	16634.19
479.98	16505.46
480.16	16940.80
480.34	16800.37
480.52	16886.97
480.70	17238.05
480.88	17174.85
481.06	17081.23
481.24	17544.66
481.41	17614.87
481.59	17937.87
481.77	17715.51
481.95	17872.33
482.13	17998.72
482.31	18192.98
482.49	18429.38
482.67	18597.90
482.85	18803.86
483.03	18848.33
483.21	19068.34
483.39	18998.13
483.57	19288.35
483.74	19534.11
483.92	19454.53
484.10	19480.28
484.28	19995.20
484.46	20109.88
484.64	20325.21
484.82	20386.07
485.00	20240.95
485.18	20854.17
485.35	21186.53
485.53	20961.84
485.71	21252.06
485.89	21607.83
486.07	21392.50
486.25	21376.11
486.43	21823.16
486.61	21841.88
486.78	22178.92
486.96	22223.39
487.14	22448.08
487.32	22595.53
487.50	22747.67
487.68	23058.96
487.85	22993.42
488.03	23648.77
488.21	23857.08
488.39	23672.18
488.57	24049.00
488.75	24011.56
488.92	24496.05
489.10	24395.40
489.28	24374.34
489.46	24987.56
489.64	24947.77
489.81	25289.49
489.99	25380.77
490.17	25092.88
490.35	25883.98
490.53	25940.16
490.70	25741.21
490.88	26197.62
491.06	26546.36
491.24	26464.44
491.41	26710.19
491.59	26609.55
491.77	26941.91
491.95	27145.53
492.13	27339.80
492.30	27241.50
492.48	27040.21
492.66	27592.58
492.84	27634.71
493.01	28107.49
493.19	28201.11
493.37	28589.64
493.54	28559.22
493.72	28994.56
493.90	28727.74
494.08	29151.37
494.25	29441.60
494.43	29118.60
494.61	29476.71
494.79	29813.74
494.96	29895.66
495.14	29729.48
495.32	30356.75
495.49	30338.02
495.67	30375.47
495.85	30984.01
496.02	30881.03
496.20	31145.51
496.38	30705.49
496.55	31400.63
496.73	31578.51
496.91	31714.26
497.09	32020.87
497.26	31763.41
497.44	32086.40
497.62	32128.53
497.79	32629.41
497.97	32606.00
498.14	33319.87
498.32	33221.56
498.50	33031.98
498.67	33441.57
498.85	33532.86
499.03	33546.90
499.20	33792.65
499.38	33944.79
499.56	33401.79
499.73	34078.20
499.91	34094.58
500.08	34415.24
500.26	34370.77
500.44	34375.45
500.61	34473.75
500.79	34256.08
500.97	34969.94
501.14	35314.00
501.32	34906.75
501.49	35225.06
501.67	35119.74
501.84	35955.31
502.02	35168.89
502.20	35807.86
502.37	35988.08
502.55	36044.25
502.72	36102.76
502.90	36292.35
503.07	35847.64
503.25	36301.71
503.43	36016.16
503.60	36727.69
503.78	36807.26
503.95	37099.83
504.13	37151.32
504.30	37078.77
504.48	36973.44
504.65	37130.26
504.83	37397.08
505.01	37710.71
505.18	37942.42
505.36	37895.61
505.53	37261.33
505.71	37904.98
505.88	38120.31
506.06	37848.80
506.23	37764.54
506.41	38567.35
506.58	38836.51
506.76	38209.25
506.93	39084.61
507.11	38373.08
507.28	38665.65
507.46	39009.71
507.63	39166.52
507.81	39175.89
507.98	38665.65
508.16	39388.88
508.33	39159.50
508.50	39672.08
508.68	39552.71
508.85	40053.59
509.03	39545.69
509.20	39833.58
509.38	40645.74
509.55	40615.32
509.73	40446.80
509.90	40463.18
510.08	40486.59
510.25	40957.03
510.42	40950.01
510.60	41022.57
510.77	41439.18
510.95	41787.92
511.12	40671.49
511.30	41450.89
511.47	41242.58
511.64	41900.27
511.82	41949.42
511.99	41490.68
512.17	42335.61
512.34	42031.34
512.51	42330.93
512.69	42347.31
512.86	42305.18
513.04	42300.50
513.21	42890.32
513.38	43021.39
513.56	43056.50
513.73	43051.81
513.90	42913.72
514.08	43119.69
514.25	43154.80
514.43	43236.72
514.60	43459.07
514.77	43267.14
514.95	43571.41
515.12	43480.13
515.29	43718.87
515.47	43990.37
515.64	44093.35
515.81	43824.19
515.99	44341.45
516.16	44933.60
516.33	44425.71
516.51	44552.10
516.68	44519.33
516.85	44711.25
517.03	44854.03
517.20	45134.89
517.37	45284.68
517.54	45528.10
517.72	45055.31
517.89	44814.24
518.06	44994.46
518.24	45132.55
518.41	45315.11
518.58	45368.94
518.75	45275.32
518.93	45537.46
519.10	45394.69
519.27	45806.62
519.45	45907.27
519.62	45998.55
519.79	45907.27
519.96	45832.37
520.14	46358.99
520.31	46281.75
520.48	46557.94
520.65	46398.78
520.83	46646.88
521.00	46237.28
521.17	46337.93
521.34	46995.62
521.52	46939.44
521.69	46529.85
521.86	46986.25
522.03	47084.56
522.20	46859.87
522.38	47178.18
522.55	47271.80
522.72	47440.32
522.89	47538.62
523.07	47627.56
523.24	47611.18
523.41	48086.31
523.58	47491.81
523.75	48032.47
523.92	47672.03
524.10	47578.41
524.27	47978.64
524.44	47887.36
524.61	48388.24
524.78	48219.72
524.96	48638.67
525.13	48835.28
525.30	48666.76
525.47	48596.54
525.64	48416.32
525.81	48800.17
525.98	48851.66
526.16	48830.60
526.33	48650.38
526.50	48987.41
526.67	48603.56
526.84	48729.95
527.01	49062.31
527.18	48931.24
527.36	49205.08
527.53	49532.76
527.70	49900.22
527.87	49600.63
528.04	49464.88
528.21	49888.52
528.38	49546.80
528.55	49715.32
528.72	49499.99
528.89	49675.53
529.07	49876.82
529.24	49368.92
529.41	49970.44
529.58	50213.85
529.75	49893.20
529.92	50050.02
530.09	49883.84
530.26	49862.77
530.43	50204.49
530.60	50155.34
530.77	50365.99
530.94	50209.17
531.11	50293.43
531.28	50478.33
531.46	50295.77
531.63	50707.71
531.80	50672.60
531.97	50887.93
532.14	50876.22
532.31	50625.79
532.48	50775.58
532.65	50939.42
532.82	50688.98
532.99	50862.18
533.16	50883.25
533.33	51248.37
533.50	51360.72
533.67	51121.98
533.84	50878.57
534.01	51150.07
534.18	51091.55
534.35	51316.25
534.52	51157.09
534.69	51700.09
534.86	52069.90
535.03	51475.40
535.20	51779.67
535.37	51746.90
535.54	51723.50
535.71	51173.47
535.88	51817.12
536.05	51817.12
536.22	51964.57
536.38	52250.12
536.55	52172.88
536.72	51952.87
536.89	51667.33
537.06	52191.61
537.23	52048.83
537.40	51899.04
537.57	51892.02
537.74	51997.34
537.91	52435.02
538.08	52083.94
538.25	52083.94
538.42	52385.87
538.59	52472.47
538.75	52402.25
538.92	52350.76
539.09	52535.66
539.26	52514.60
539.43	52589.50
539.60	52559.07
539.77	52765.04
539.94	52725.25
540.11	52587.16
540.28	52549.71
540.44	52680.78
540.61	52767.38
540.78	52582.48
540.95	52755.68
541.12	52844.62
541.29	52886.74
541.46	52704.18
541.62	52753.33
541.79	52837.59
541.96	52491.19
542.13	52758.02
542.30	52966.32
542.47	52973.34
542.63	53464.86
542.80	53366.55
542.97	53656.78
543.14	53621.67
543.31	53432.09
543.48	53343.15
543.64	53626.35
543.81	53844.02
543.98	53900.20
544.15	54038.29
544.32	53935.30
544.48	53813.60
544.65	53727.00
544.82	53867.43
544.99	53598.27
545.16	53858.07
545.32	53525.71
545.49	54101.48
545.66	54298.09
545.83	54152.97
546.00	54227.87
546.16	54127.23
546.33	53909.56
546.50	53645.08
546.67	54115.53
546.83	53670.82
547.00	54169.36
547.17	54096.80
547.34	54417.46
547.50	54333.20
547.67	54656.19
547.84	54410.43
548.00	54578.95
548.17	54227.87
548.34	54351.92
548.51	54438.52
548.67	54370.64
548.84	54604.70
549.01	54562.57
549.18	54672.57
549.34	54637.47
549.51	54658.53
549.68	54557.89
549.84	54602.36
550.01	54602.36
550.18	54471.29
550.34	54660.87
550.51	54962.80
550.68	54688.96
550.84	54651.51
551.01	54735.77
551.18	54665.55
551.34	54415.11
551.51	54859.82
551.68	55016.63
551.84	54962.80
552.01	54953.44
552.18	55213.24
552.34	55100.89
552.51	55091.53
552.68	55061.10
552.84	54738.11
553.01	55117.28
553.18	55391.12
553.34	55316.22
553.51	55220.26
553.67	55201.53
553.84	55274.09
554.01	55533.89
554.17	55243.66
554.34	55182.81
554.51	55086.85
554.67	55306.86
554.84	55484.74
555.00	55381.76
555.17	55175.79
555.33	55208.56
555.50	55234.30
555.67	55372.39
555.83	55433.25
556.00	55473.04
556.16	55444.95
556.33	55463.67
556.50	55229.62
556.66	55657.94
556.83	55341.97
556.99	55679.00
557.16	55774.97
557.32	55784.33
557.49	55739.86
557.65	55566.66
557.82	55505.80
557.98	55707.09
558.15	55473.04
558.32	55948.17
558.48	55632.19
558.65	55817.10
558.81	55973.91
558.98	55791.35
559.14	55873.27
559.31	55760.92
559.47	56004.34
559.64	56018.38
559.80	55882.63
559.97	55847.52
560.13	55915.40
560.30	55576.02
560.46	55955.19
560.63	55948.17
560.79	55805.39
560.96	56114.34
561.12	55861.57
561.29	56030.08
561.45	55807.73
561.61	56097.96
561.78	56018.38
561.94	56104.98
562.11	56315.63
562.27	56011.36
562.44	56088.60
562.60	56121.37
562.77	56236.05
562.93	55763.26
563.10	56310.95
563.26	56142.43
563.42	56629.26
563.59	56133.07
563.75	56172.86
563.92	56332.01
564.08	56114.34
564.24	56226.69
564.41	56025.40
564.57	56006.68
564.74	56161.15
564.90	56313.29
565.07	56240.73
565.23	56409.25
565.39	56261.80
565.56	56303.93
565.72	56332.01
565.88	56343.72
566.05	56268.82
566.21	56205.62
566.38	56217.33
566.54	56191.58
566.70	56329.67
566.87	56996.73
567.03	56322.65
567.19	56507.55
567.36	56261.80
567.52	56303.93
567.68	56226.69
567.85	56346.06
568.01	56493.51
568.17	56470.11
568.34	56339.04
568.50	56416.27
568.66	56629.26
568.83	56626.92
568.99	56526.28
569.15	56692.46
569.32	56416.27
569.48	56165.84
569.64	56594.15
569.81	56409.25
569.97	56278.18
570.13	56552.02
570.30	56535.64
570.46	56612.88
570.62	56615.22
570.78	56381.16
570.95	56320.31
571.11	56268.82
571.27	56521.60
571.43	56491.17
571.60	56456.06
571.76	56327.33
571.92	56657.35
572.09	56577.77
572.25	56844.59
572.41	56603.52
572.57	56636.28
572.74	56907.79
572.90	56397.55
573.06	56566.07
573.22	56535.64
573.38	56671.39
573.55	56526.28
573.71	56978.00
573.87	56800.12
574.03	56760.33
574.20	56727.56
574.36	56645.65
574.52	56516.92
574.68	56479.47
574.84	56512.23
575.01	56671.39
575.17	56580.11
575.33	56662.03
575.49	56678.41
575.65	56697.14
575.82	57078.64
575.98	56498.19
576.14	56638.62
576.30	56575.43
576.46	56762.67
576.62	56336.69
576.79	56533.30
576.95	56662.03
577.11	56666.71
577.27	56858.63
577.43	56961.62
577.59	56659.69
577.75	56748.63
577.92	56587.13
578.08	56664.37
578.24	56673.73
578.40	56704.16
578.56	56898.42
578.72	56690.12
578.88	56776.72
579.04	56685.43
579.21	56481.81
579.37	56718.20
579.53	56816.50
579.69	56664.37
579.85	56664.37
580.01	56493.51
580.17	56687.78
580.33	56676.07
580.49	56603.52
580.65	56687.78
580.82	56947.57
580.98	56692.46
581.14	56865.66
581.30	56704.16
581.46	56680.75
581.62	56743.95
581.78	56425.64
581.94	56718.20
582.10	56643.30
582.26	57013.11
582.42	56786.08
582.58	56760.33
582.74	56760.33
582.90	57013.11
583.06	56959.28
583.22	56704.16
583.38	56580.11
583.54	56683.09
583.70	56783.74
583.86	56842.25
584.02	56374.14
584.18	56844.59
584.34	56793.10
584.50	56973.32
584.66	56779.06
584.82	56631.60
584.98	56720.54
585.14	56645.65
585.30	56332.01
585.46	56734.59
585.62	56540.32
585.78	56851.61
585.94	56671.39
586.10	56645.65
586.26	56818.84
586.42	56694.80
586.58	56952.26
586.74	56952.26
586.90	56704.16
587.06	56753.31
587.22	56765.01
587.38	56722.88
587.54	56818.84
587.70	56992.04
587.86	56879.70
588.02	56795.44
588.18	56776.72
588.34	56985.02
588.49	56818.84
588.65	56872.68
588.81	56802.46
588.97	56816.50
589.13	56966.30
589.29	56889.06
589.45	57052.90
589.61	56952.26
