SpectraSuite Data File
++++++++++++++++++++++++++++++++++++
Date: Fri Oct 18 13:55:05 GMT-05:00 2013
User: bianchi
Dark Spectrum Present: No
Reference Spectrum Present: No
Number of Sampled Component Spectra: 1
Spectrometers: USB2+H05261
Integration Time (usec): 100000 (USB2+H05261)
Spectra Averaged: 1 (USB2+H05261)
Boxcar Smoothing: 0 (USB2+H05261)
Correct for Electrical Dark: No (USB2+H05261)
Strobe/Lamp Enabled: No (USB2+H05261)
Correct for Detector Non-linearity: No (USB2+H05261)
Correct for Stray Light: No (USB2+H05261)
Number of Pixels in Processed Spectrum: 2048
>>>>>Begin Processed Spectral Data<<<<<
365.73	0.00
365.92	0.00
366.12	0.00
366.32	0.00
366.52	0.00
366.72	0.00
366.91	0.00
367.11	0.00
367.31	0.00
367.51	0.00
367.70	0.00
367.90	0.00
368.10	0.00
368.30	0.00
368.49	0.00
368.69	0.00
368.89	0.00
369.09	0.00
369.28	0.00
369.48	0.00
369.68	0.00
369.87	0.00
370.07	0.00
370.27	0.00
370.47	0.00
370.66	252.78
370.86	299.59
371.06	341.72
371.25	346.40
371.45	344.06
371.65	337.04
371.84	372.15
372.04	360.44
372.24	421.30
372.44	400.23
372.63	407.25
372.83	477.47
373.03	353.42
373.22	372.15
373.42	442.36
373.62	437.68
373.81	535.98
374.01	454.06
374.21	416.62
374.40	472.79
374.60	540.66
374.79	531.30
374.99	535.98
375.19	608.54
375.38	510.24
375.58	482.15
375.78	526.62
375.97	535.98
376.17	557.05
376.37	592.16
376.56	521.94
376.76	526.62
376.95	505.56
377.15	564.07
377.35	510.24
377.54	571.09
377.74	512.58
377.93	592.16
378.13	538.32
378.33	615.56
378.52	657.69
378.72	622.58
378.91	645.99
379.11	601.52
379.31	550.03
379.50	592.16
379.70	676.41
379.89	620.24
380.09	580.45
380.28	667.05
380.48	592.16
380.68	596.84
380.87	592.16
381.07	627.26
381.26	589.82
381.46	613.22
381.65	624.92
381.85	662.37
382.04	795.78
382.24	699.82
382.43	660.03
382.63	695.14
382.83	641.31
383.02	786.42
383.22	765.36
383.41	741.95
383.61	727.91
383.80	779.40
384.00	718.54
384.19	725.57
384.39	802.80
384.58	758.33
384.78	716.20
384.97	746.63
385.17	716.20
385.36	770.04
385.56	777.06
385.75	788.76
385.95	861.32
386.14	791.10
386.34	786.42
386.53	908.13
386.72	863.66
386.92	833.23
387.11	903.45
387.31	873.02
387.50	896.43
387.70	964.30
387.89	854.30
388.09	863.66
388.28	887.06
388.48	978.34
388.67	957.28
388.86	992.39
389.06	919.83
389.25	910.47
389.45	903.45
389.64	875.36
389.84	1036.86
390.03	1022.81
390.22	1086.01
390.42	1013.45
390.61	980.68
390.81	971.32
391.00	1034.52
391.19	1069.62
391.39	1097.71
391.58	1025.15
391.78	1013.45
391.97	1090.69
392.16	1032.18
392.36	1057.92
392.55	1064.94
392.75	1125.80
392.94	1160.91
393.13	1123.46
393.33	1146.86
393.52	1083.67
393.71	1086.01
393.91	1198.35
394.10	1203.04
394.29	1088.35
394.49	1062.60
394.68	1174.95
394.88	1186.65
395.07	1334.11
395.26	1186.65
395.46	1196.01
395.65	1376.24
395.84	1420.71
396.04	1338.79
396.23	1343.47
396.42	1294.32
396.62	1357.51
396.81	1350.49
397.00	1392.62
397.19	1266.23
397.39	1460.49
397.58	1453.47
397.77	1380.92
397.97	1455.81
398.16	1371.55
398.35	1516.67
398.55	1399.64
398.74	1483.90
398.93	1495.60
399.12	1495.60
399.32	1500.28
399.51	1469.86
399.70	1540.07
399.90	1593.90
400.09	1626.67
400.28	1682.85
400.47	1687.53
400.67	1645.40
400.86	1680.50
401.05	1682.85
401.24	1633.69
401.44	1659.44
401.63	1776.47
401.82	1699.23
402.01	1654.76
402.21	1710.93
402.40	1783.49
402.59	1734.34
402.78	1701.57
402.97	1802.21
403.17	1682.85
403.36	1877.11
403.55	1706.25
403.74	1891.15
403.93	1891.15
404.13	1947.33
404.32	1944.99
404.51	1966.05
404.70	1987.11
404.89	1930.94
405.09	2026.90
405.28	2001.16
405.47	2052.65
405.66	2097.12
405.85	2005.84
406.05	2125.21
406.24	2045.63
406.43	2136.91
406.62	2347.56
406.81	2324.15
407.00	2204.78
407.20	2076.06
407.39	2275.00
407.58	2244.57
407.77	2272.66
407.96	2326.49
408.15	2277.34
408.34	2321.81
408.54	2324.15
408.73	2333.51
408.92	2445.86
409.11	2373.30
409.30	2319.47
409.49	2537.14
409.68	2422.45
409.87	2492.67
410.07	2490.33
410.26	2597.99
410.45	2509.05
410.64	2609.70
410.83	2626.08
411.02	2609.70
411.21	2722.04
411.40	2708.00
411.59	2644.81
411.78	2773.53
411.98	2693.96
412.17	2794.60
412.36	2733.75
412.55	2820.35
412.74	3049.72
412.93	3000.57
413.12	2892.90
413.31	3052.06
413.50	3049.72
413.69	3096.53
413.88	3159.72
414.07	3148.02
414.26	3096.53
414.45	3297.81
414.64	3295.47
414.83	3456.97
415.02	3344.63
415.22	3403.14
415.41	3503.78
415.60	3407.82
415.79	3407.82
415.98	3466.33
416.17	3555.27
416.36	3466.33
416.55	3489.74
416.74	3559.95
416.93	3695.71
417.12	3686.34
417.31	3700.39
417.50	3620.81
417.69	3775.28
417.88	3754.22
418.07	3810.39
418.26	3819.75
418.45	3997.64
418.64	3934.44
418.83	3861.88
419.02	3817.41
419.21	4084.23
419.39	4070.19
419.58	3929.76
419.77	4072.53
419.96	4049.13
420.15	4159.13
420.34	4002.32
420.53	4208.28
420.72	4255.09
420.91	4180.20
421.10	4273.82
421.29	4423.61
421.48	4404.89
421.67	4430.63
421.86	4301.90
422.05	4482.13
422.24	4308.93
422.43	4423.61
422.61	4344.03
422.80	4315.95
422.99	4332.33
423.18	4587.45
423.37	4496.17
423.56	4430.63
423.75	4386.16
423.94	4299.56
424.13	4105.30
424.32	4294.88
424.50	4542.98
424.69	4580.43
424.88	4535.96
425.07	4592.13
425.26	4353.40
425.45	4449.36
425.64	4638.94
425.83	4552.34
426.01	4662.35
426.20	4615.54
426.39	4692.77
426.58	4517.23
426.77	4615.54
426.96	4643.62
427.15	4718.52
427.33	4819.16
427.52	4788.74
427.71	4760.65
427.90	4723.20
428.09	4711.50
428.28	4891.72
428.46	4896.40
428.65	4961.94
428.84	4898.74
429.03	5090.67
429.22	5018.11
429.40	4952.57
429.59	5078.96
429.78	4718.52
429.97	4812.14
430.16	5025.13
430.34	5081.30
430.53	5245.14
430.72	5280.25
430.91	5167.90
431.10	5130.45
431.28	5303.65
431.47	5256.84
431.66	5334.08
431.85	5305.99
432.03	5423.02
432.22	5626.65
432.41	5406.64
432.60	5334.08
432.79	5547.07
432.97	5530.69
433.16	5430.04
433.35	5394.93
433.54	5633.67
433.72	5659.42
433.91	5514.30
434.10	5647.71
434.28	5607.92
434.47	5764.74
434.66	5755.38
434.85	5710.91
435.03	5790.49
435.22	5673.46
435.41	6113.48
435.59	5980.07
435.78	5863.04
435.97	5877.09
436.16	6003.47
436.34	5870.06
436.53	5919.21
436.72	6143.91
436.90	6026.88
437.09	6078.37
437.28	5816.23
437.46	6162.63
437.65	6097.10
437.84	6146.25
438.02	6127.52
438.21	6260.93
438.40	6265.61
438.58	6527.75
438.77	6380.30
438.96	6347.53
439.14	6396.68
439.33	6619.04
439.52	6616.69
439.70	6689.25
439.89	6640.10
440.08	6516.05
440.26	6862.45
440.45	6902.24
440.63	6806.28
440.82	7063.74
441.01	7030.97
441.19	7082.46
441.38	7194.81
441.57	7166.72
441.75	7222.89
441.94	7070.76
442.12	7281.41
442.31	7456.95
442.50	7522.48
442.68	7396.09
442.87	7552.91
443.05	7541.21
443.24	7555.25
443.43	7688.66
443.61	7712.07
443.80	7770.58
443.98	7506.10
444.17	7318.86
444.35	7576.31
444.54	7770.58
444.73	7480.35
444.91	7805.69
445.10	7618.44
445.28	7531.84
445.47	7609.08
445.65	7524.82
445.84	7681.64
446.02	7936.76
446.21	7651.21
446.39	7662.91
446.58	7880.58
446.77	8077.19
446.95	7644.19
447.14	7709.72
447.32	8079.53
447.51	7824.41
447.69	7915.69
447.88	7824.41
448.06	7836.11
448.25	7695.68
448.43	8028.04
448.62	7730.79
448.80	7906.33
448.99	8042.08
449.17	7964.84
449.36	7962.50
449.54	8236.35
449.73	8264.43
449.91	8049.10
450.10	8063.15
450.28	8503.17
450.46	8456.36
450.65	8470.40
450.83	8442.31
451.02	8297.20
451.20	8493.80
451.39	8617.85
451.57	8393.16
451.76	8446.99
451.94	8402.52
452.13	8709.13
452.31	8739.56
452.49	8383.80
452.68	8655.30
452.86	8517.21
453.05	8849.57
453.23	8659.98
453.42	8514.87
453.60	8833.18
453.78	8828.50
453.97	8692.75
454.15	8596.79
454.34	8779.35
454.52	8704.45
454.70	8931.48
454.89	9041.49
455.07	8772.33
455.26	8940.85
455.44	9186.60
455.62	9137.45
455.81	9210.01
455.99	9273.20
456.17	9305.97
456.36	9195.96
456.54	9415.98
456.73	9371.50
456.91	9689.82
457.09	9621.94
457.28	9748.33
457.46	9537.68
457.64	9963.66
457.83	9750.67
458.01	9717.90
458.19	9834.93
458.38	9607.90
458.56	9907.49
458.74	9825.57
458.93	9612.58
459.11	9820.89
459.29	9949.62
459.48	9881.74
459.66	9968.34
459.84	10010.47
460.03	10244.52
460.21	9949.62
460.39	10155.58
460.57	9944.94
460.76	10143.88
460.94	10424.75
461.12	10111.11
461.31	10246.87
461.49	10366.23
461.67	10448.15
461.85	10490.28
462.04	10218.78
462.22	10700.93
462.40	10623.69
462.59	10429.43
462.77	10717.31
462.95	10665.82
463.13	10815.62
463.32	10752.42
463.50	10738.38
463.68	10754.76
463.86	11037.97
464.05	10630.71
464.23	10759.44
464.41	11021.58
464.59	10897.53
464.78	11232.23
464.96	10902.22
465.14	10897.53
465.32	11023.92
465.50	11089.46
465.69	11201.80
465.87	11080.10
466.05	10906.90
466.23	10965.41
466.41	11241.59
466.60	11286.06
466.78	11304.79
466.96	11091.80
467.14	11309.47
467.32	11281.38
467.51	11634.80
467.69	11253.30
467.87	11367.98
468.05	11499.05
468.23	11405.43
468.41	11485.01
468.60	11578.63
468.78	11630.12
468.96	11606.72
469.14	11913.33
469.32	11824.39
469.50	11585.65
469.69	11833.75
469.87	12009.29
470.05	12074.82
470.23	12028.01
470.41	12002.27
470.59	12299.52
470.77	11997.59
470.95	12102.91
471.14	12203.55
471.32	12390.80
471.50	12332.28
471.68	12360.37
471.86	12475.06
472.04	12449.31
472.22	13020.40
472.40	12905.71
472.58	12517.18
472.77	13064.87
472.95	12835.50
473.13	13217.01
473.31	12798.05
473.49	12922.10
473.67	13008.70
473.85	13144.45
474.03	13439.36
474.21	13259.13
474.39	13308.29
474.57	13427.65
474.75	13570.43
474.93	13694.47
475.12	13771.71
475.30	13860.65
475.48	13884.06
475.66	14068.96
475.84	14167.26
476.02	14012.79
476.20	13958.96
476.38	14307.69
476.56	14455.15
476.74	14700.90
476.92	14354.51
477.10	14583.88
477.28	14813.25
477.46	14485.58
477.64	14927.94
477.82	15197.10
478.00	15733.08
478.18	15377.32
478.36	15569.24
478.54	15714.36
478.72	15653.50
478.90	15981.18
479.08	15974.16
479.26	15981.18
479.44	16086.50
479.62	16369.71
479.80	16531.20
479.98	16510.14
480.16	16830.79
480.34	16503.12
480.52	17099.95
480.70	17373.80
480.88	16800.37
481.06	17228.68
481.24	17289.54
481.41	17467.42
481.59	17621.89
481.77	17774.03
481.95	17816.16
482.13	17816.16
482.31	17987.02
482.49	18452.78
482.67	18328.74
482.85	18785.14
483.03	18590.88
483.21	19150.26
483.39	19166.65
483.57	19225.16
483.74	19311.76
483.92	19545.81
484.10	19508.37
484.28	19793.91
484.46	20215.21
484.64	20313.51
484.82	19765.82
485.00	20226.91
485.18	20547.56
485.35	20896.30
485.53	20917.37
485.71	20978.22
485.89	21621.87
486.07	21329.30
486.25	21561.02
486.43	21366.75
486.61	21914.44
486.78	22174.24
486.96	22094.66
487.14	22560.42
487.32	22724.26
487.50	22607.23
487.68	22661.07
487.85	23028.53
488.03	23147.90
488.21	23426.42
488.39	23126.83
488.57	23700.26
488.75	23826.65
488.92	24222.20
489.10	24491.37
489.28	23997.51
489.46	24889.26
489.64	24556.90
489.81	25259.06
489.99	25469.71
490.17	25296.51
490.35	25432.26
490.53	25717.81
490.70	25989.31
490.88	26029.10
491.06	25895.69
491.24	26096.97
491.41	26267.83
491.59	26747.64
491.77	26984.04
491.95	27236.81
492.13	27260.22
492.30	27417.04
492.48	27253.20
492.66	27838.33
492.84	27386.61
493.01	28180.05
493.19	27875.78
493.37	27960.04
493.54	28531.13
493.72	28283.03
493.90	28952.43
494.08	28952.43
494.25	29188.82
494.43	29111.58
494.61	29308.19
494.79	29762.25
494.96	29495.43
495.14	29806.72
495.32	30244.40
495.49	30103.97
495.67	30373.13
495.85	30583.78
496.02	31152.53
496.20	30775.70
496.38	30749.96
496.55	31178.28
496.73	31702.56
496.91	31655.75
497.09	31807.88
497.26	31702.56
497.44	31716.60
497.62	32044.27
497.79	32297.05
497.97	32446.85
498.14	32886.87
498.32	33237.95
498.50	32725.37
498.67	33439.23
498.85	33202.84
499.03	33380.72
499.20	33614.77
499.38	33825.42
499.56	33633.50
499.73	34244.38
499.91	34080.54
500.08	34265.44
500.26	33830.10
500.44	34150.76
500.61	34440.98
500.79	34326.30
500.97	34352.04
501.14	35201.66
501.32	35241.45
501.49	35171.23
501.67	35075.27
501.84	35339.75
502.02	35491.88
502.20	35761.05
502.37	36034.89
502.55	35796.15
502.72	35838.28
502.90	35927.22
503.07	35735.30
503.25	35974.03
503.43	36383.63
503.60	36687.90
503.78	36800.24
503.95	36542.78
504.13	36690.24
504.30	36678.54
504.48	36582.57
504.65	36987.49
504.83	37687.31
505.01	37715.39
505.18	37141.96
505.36	37860.51
505.53	37471.98
505.71	37825.40
505.88	37773.91
506.06	37598.37
506.23	38466.70
506.41	38225.63
506.58	38756.93
506.76	38403.51
506.93	38501.81
507.11	38445.64
507.28	38602.46
507.46	38766.29
507.63	39096.31
507.81	39384.19
507.98	38981.62
508.16	39288.23
508.33	39129.08
508.50	39192.27
508.68	39597.18
508.85	39662.72
509.03	39826.56
509.20	40383.60
509.38	40189.34
509.55	40320.41
509.73	40203.38
509.90	40446.80
510.08	40474.88
510.25	40648.08
510.42	40797.88
510.60	40685.53
510.77	40971.08
510.95	41755.16
511.12	41195.77
511.30	41151.30
511.47	41329.18
511.64	41603.02
511.82	41486.00
511.99	41717.71
512.17	41930.70
512.34	41869.84
512.51	41703.67
512.69	42021.98
512.86	42476.04
513.04	42396.46
513.21	42527.53
513.38	42408.17
513.56	43264.80
513.73	42632.86
513.90	42721.80
514.08	42588.39
514.25	43075.22
514.43	43688.44
514.60	43828.87
514.77	43384.17
514.95	43442.68
515.12	43131.39
515.29	43639.29
515.47	43800.79
515.64	43400.55
515.81	43999.73
515.99	43934.20
516.16	44395.28
516.33	44250.17
516.51	44229.10
516.68	44048.88
516.85	44392.94
517.03	44563.80
517.20	44732.32
517.37	44575.50
517.54	44540.39
517.72	44818.92
517.89	45237.87
518.06	44472.52
518.24	44870.41
518.41	44793.17
518.58	44959.35
518.75	45647.47
518.93	45752.79
519.10	45375.97
519.27	45656.83
519.45	45521.08
519.62	45420.44
519.79	46057.06
519.96	45860.46
520.14	45928.33
520.31	45979.82
520.48	46190.47
520.65	46490.06
520.83	46358.99
521.00	46494.74
521.17	46134.30
521.34	46344.95
521.52	46522.83
521.69	46756.88
521.86	46918.38
522.03	46719.43
522.20	47140.73
522.38	47206.26
522.55	46871.57
522.72	46932.42
522.89	47269.46
523.07	47662.67
523.24	47423.93
523.41	47606.50
523.58	47599.47
523.75	47849.91
523.92	47517.56
524.10	47641.60
524.27	48135.46
524.44	47868.64
524.61	48142.48
524.78	48114.39
524.96	48648.03
525.13	48413.98
525.30	48589.52
525.47	48561.44
525.64	48282.91
525.81	48399.94
525.98	48432.71
526.16	48788.47
526.33	48657.40
526.50	49024.86
526.67	48423.34
526.84	48568.46
527.01	48882.09
527.18	49083.37
527.36	49045.93
527.53	49191.04
527.70	49530.42
527.87	49659.15
528.04	49382.96
528.21	49036.56
528.38	49361.90
528.55	49350.20
528.72	49382.96
528.89	49610.00
529.07	49579.57
529.24	49839.37
529.41	49605.31
529.58	49586.59
529.75	49598.29
529.92	49715.32
530.09	49340.83
530.26	49602.97
530.43	50101.51
530.60	50054.70
530.77	50190.45
530.94	50073.42
531.11	49902.56
531.28	50368.33
531.46	50188.11
531.63	50059.38
531.80	50454.93
531.97	50791.97
532.14	50836.44
532.31	50667.92
532.48	51011.98
532.65	50660.90
532.82	50609.40
532.99	50782.60
533.16	50555.57
533.33	51117.30
533.50	50953.46
533.67	51295.18
533.84	51007.29
534.01	50775.58
534.18	50719.41
534.35	51260.07
534.52	51391.14
534.69	51185.18
534.86	51636.90
535.03	51164.11
535.20	51213.26
535.37	51646.26
535.54	51784.35
535.71	51173.47
535.88	51498.81
536.05	51505.83
536.22	51885.00
536.38	51725.84
536.55	51938.83
536.72	52020.75
536.89	51629.88
537.06	51732.86
537.23	51892.02
537.40	51763.29
537.57	51950.53
537.74	51885.00
537.91	52350.76
538.08	52371.83
538.25	52004.36
538.42	52296.93
538.59	52388.21
538.75	51873.29
538.92	52088.62
539.09	52685.46
539.26	52360.12
539.43	52081.60
539.60	52505.24
539.77	52500.56
539.94	52580.13
540.11	52617.58
540.28	52694.82
540.44	52378.85
540.61	52458.43
540.78	52514.60
540.95	52463.11
541.12	52603.54
541.29	52809.51
541.46	52846.96
541.62	52645.67
541.79	52835.25
541.96	52573.11
542.13	52526.30
542.30	53113.78
542.47	52985.05
542.63	53298.68
542.80	53462.52
542.97	53560.82
543.14	53284.64
543.31	53265.91
543.48	53188.67
543.64	53680.19
543.81	53495.28
543.98	53621.67
544.15	53710.61
544.32	53483.58
544.48	53928.28
544.65	53556.14
544.82	53691.89
544.99	53380.60
545.16	53902.54
545.32	53544.44
545.49	54195.10
545.66	53963.39
545.83	53972.75
546.00	54431.50
546.16	54012.54
546.33	53921.26
546.50	53563.16
546.67	54066.38
546.83	53787.85
547.00	53984.46
547.17	53991.48
547.34	53904.88
547.50	54113.19
547.67	54319.15
547.84	54307.45
548.00	54412.77
548.17	54475.97
548.34	54251.28
548.51	54464.27
548.67	54487.67
548.84	54337.88
549.01	54398.73
549.18	54204.47
549.34	54525.12
549.51	54262.98
549.68	54464.27
549.84	54389.37
550.01	54370.64
550.18	54660.87
550.34	54665.55
550.51	54616.40
550.68	54745.13
550.84	54752.15
551.01	54642.15
551.18	54731.09
551.34	54670.23
551.51	54461.93
551.68	54813.01
551.84	54651.51
552.01	54796.62
552.18	54712.36
552.34	54567.25
552.51	55110.25
552.68	54686.62
552.84	54686.62
553.01	54972.16
553.18	54822.37
553.34	55114.94
553.51	54869.18
553.67	54981.52
553.84	55524.53
554.01	55257.71
554.17	55363.03
554.34	55131.32
554.51	55449.63
554.67	55407.50
554.84	55414.52
555.00	55199.19
555.17	55346.65
555.33	55098.55
555.50	55356.01
555.67	55136.00
555.83	55206.22
556.00	55220.26
556.16	55669.64
556.33	55402.82
556.50	55498.78
556.66	55629.85
556.83	55580.70
556.99	55950.51
557.16	55402.82
557.32	55718.79
557.49	55585.38
557.65	55297.50
557.82	55519.85
557.98	55580.70
558.15	55679.00
558.32	55657.94
558.48	55739.86
558.65	55700.07
558.81	55627.51
558.98	55660.28
559.14	55882.63
559.31	55646.24
559.47	55629.85
559.64	55714.11
559.80	55732.84
559.97	56060.51
560.13	55751.56
560.30	55627.51
560.46	55952.85
560.63	55915.40
560.79	56107.32
560.96	55882.63
561.12	55987.95
561.29	55833.48
561.45	55889.65
561.61	56196.26
561.78	56034.77
561.94	56065.19
562.11	56121.37
562.27	56053.49
562.44	55849.86
562.60	55948.17
562.77	55856.88
562.93	56072.21
563.10	55987.95
563.26	56044.13
563.42	56350.74
563.59	56156.47
563.75	56048.81
563.92	55971.57
564.08	56055.83
564.24	56210.31
564.41	56069.87
564.57	56093.28
564.74	55976.25
564.90	56037.11
565.07	56261.80
565.23	56126.05
565.39	56376.48
565.56	56322.65
565.72	56147.11
565.88	56107.32
566.05	56067.53
566.21	56324.99
566.38	55980.93
566.54	56142.43
566.70	56409.25
566.87	56212.65
567.03	56303.93
567.19	56516.92
567.36	56299.25
567.52	56149.45
567.68	56310.95
567.85	55971.57
568.01	56107.32
568.17	56287.54
568.34	56374.14
568.50	56339.04
568.66	56406.91
568.83	56151.79
568.99	56268.82
569.15	56357.76
569.32	56301.59
569.48	56126.05
569.64	56343.72
569.81	56236.05
569.97	56214.99
570.13	56500.53
570.30	56271.16
570.46	56591.81
570.62	56470.11
570.78	56236.05
570.95	56086.26
571.11	56254.78
571.27	56137.75
571.43	56095.62
571.60	56409.25
571.76	56189.24
571.92	56568.41
572.09	56423.29
572.25	56713.52
572.41	56507.55
572.57	56374.14
572.74	56650.33
572.90	56273.50
573.06	56334.35
573.22	56406.91
573.38	56549.68
573.55	56395.21
573.71	56666.71
573.87	56549.68
574.03	56432.66
574.20	56481.81
574.36	56463.08
574.52	56446.70
574.68	56432.66
574.84	56423.29
575.01	56680.75
575.17	56676.07
575.33	56540.32
575.49	56479.47
575.65	56535.64
575.82	56624.58
575.98	56322.65
576.14	56757.99
576.30	56617.56
576.46	56355.42
576.62	56488.83
576.79	56458.40
576.95	56332.01
577.11	56392.87
577.27	56685.43
577.43	56664.37
577.59	56533.30
577.75	56652.67
577.92	56388.19
578.08	56439.68
578.24	56484.15
578.40	56357.76
578.56	56673.73
578.72	56533.30
578.88	56952.26
579.04	56772.03
579.21	56540.32
579.37	56655.01
579.53	56821.19
579.69	56594.15
579.85	56629.26
580.01	56713.52
580.17	56449.04
580.33	56582.45
580.49	56542.66
580.65	56844.59
580.82	56554.36
580.98	56594.15
581.14	56610.54
581.30	56917.15
581.46	56545.00
581.62	56638.62
581.78	56081.58
581.94	56453.72
582.10	56357.76
582.26	56643.30
582.42	56285.20
582.58	56718.20
582.74	56640.96
582.90	56800.12
583.06	56753.31
583.22	56484.15
583.38	56657.35
583.54	56708.84
583.70	56591.81
583.86	56736.93
584.02	56404.57
584.18	56844.59
584.34	56685.43
584.50	56952.26
584.66	56638.62
584.82	56442.02
584.98	56683.09
585.14	56537.98
585.30	56308.61
585.46	56563.73
585.62	56418.61
585.78	56615.22
585.94	56804.80
586.10	56673.73
586.26	56547.34
586.42	56823.53
586.58	56781.40
586.74	56619.90
586.90	56488.83
587.06	56477.13
587.22	56568.41
587.38	56610.54
587.54	56790.76
587.70	56839.91
587.86	56734.59
588.02	56996.73
588.18	56858.63
588.34	56673.73
588.49	56973.32
588.65	56633.94
588.81	56818.84
588.97	56713.52
589.13	56896.08
589.29	56715.86
589.45	56802.46
589.61	56804.80
